DTS Sentinel unit serial number:	SN410029Multiplexer serial number:	ORYXHardware model number:	OX2-SRSoftware version number:	ORYX F/W v4,00 Oryx Data Collector v3.7.2.0data status	okinstallation	B3 Nyhavnadifferential loss correction	single-endedforward channel	channel 1reverse channel	N/Adate	2023/12/03time	12:27:30forward acquisition time	300,00reverse acquisition time	0,00gamma	499,1914k internal	0,3201k external	0,3201temperature offset calibration	1,0000default loss term (dB/km)	0,3820temperature slope calibration	1,0000multiplexer offset coefficient	1,0000multiplexer slope coefficient	1,0000fibre end	0,00T internal ref (°C)	14,06T ext. ref 1 (°C)	0,14T ext. ref 2 (°C)	0,12length (m)	temperature (°C)	Stokes	anti-Stokes-744,400	79,223	-0,133	-0,103
-743,385	-200,000	0,095	0,337
-742,371	800,000	-0,073	-0,154
-741,356	677,367	0,143	0,271
-740,342	349,406	-0,151	-0,217
-739,327	291,372	-0,149	0,198
-738,312	147,638	-0,279	-0,273
-737,298	-200,000	0,024	0,232
-736,283	71,551	-0,114	-0,086
-735,269	-200,000	0,025	0,271
-734,254	185,697	-0,171	-0,185
-733,239	144,221	-0,179	0,174
-732,225	800,000	-0,091	-0,207
-731,210	492,684	-0,007	0,012
-730,196	-200,000	0,017	0,150
-729,181	26,102	-0,051	-0,031
-728,167	31,215	0,033	0,021
-727,152	-77,725	-0,087	-0,022
-726,137	-200,000	0,041	-0,134
-725,123	-7,993	-0,121	0,059
-724,108	-200,000	0,010	0,035
-723,094	800,000	0,039	0,106
-722,079	-200,000	-0,006	0,054
-721,064	-71,284	-0,120	0,032
-720,050	-67,128	-0,137	-0,039
-719,035	-200,000	0,003	-0,016
-718,021	416,645	-0,057	0,089
-717,006	215,623	-0,023	0,026
-715,991	16,014	-0,088	-0,051
-714,977	-200,000	-0,020	-0,117
-713,962	800,000	-0,050	-0,121
-712,948	-200,000	0,025	-0,086
-711,933	800,000	-0,037	0,083
-710,918	-200,000	0,004	-0,047
-709,904	571,024	0,024	-0,042
-708,889	90,387	-0,105	-0,085
-707,875	-138,642	0,047	0,004
-706,860	35,175	-0,103	-0,066
-705,845	800,000	0,034	0,078
-704,831	-200,000	-0,003	0,092
-703,816	28,523	0,021	-0,013
-702,802	800,000	-0,067	-0,189
-701,787	-18,668	-0,011	0,005
-700,772	701,518	-0,048	-0,092
-699,758	50,464	-0,132	-0,091
-698,743	-75,068	-0,049	-0,013
-697,729	-58,784	-0,083	-0,026
-696,714	-200,000	-0,002	0,163
-695,699	-200,000	0,009	-0,096
-694,685	-176,958	-0,064	0,001
-693,670	-109,845	-0,066	-0,010
-692,656	-54,327	-0,049	-0,016
-691,641	307,799	0,031	0,042
-690,627	16,904	-0,068	-0,039
-689,612	-65,865	-0,023	-0,007
-688,597	731,547	-0,053	0,103
-687,583	800,000	-0,034	-0,097
-686,568	800,000	0,040	-0,091
-685,554	554,390	-0,126	-0,221
-684,539	-200,000	-0,004	-0,085
-683,524	-200,000	0,004	0,040
-682,510	26,505	0,079	0,048
-681,495	247,011	-0,067	0,082
-680,481	164,554	0,119	-0,122
-679,466	-200,000	0,020	-0,194
-678,451	141,576	-0,004	0,004
-677,437	115,890	-0,077	-0,068
-676,422	249,712	0,023	-0,029
-675,408	-28,808	0,051	-0,021
-674,393	-167,981	-0,184	-0,005
-673,378	292,831	-0,045	0,059
-672,364	-198,456	-0,037	-0,000
-671,349	-200,000	-0,016	-0,078
-670,335	800,000	-0,010	-0,024
-669,320	70,819	0,110	-0,083
-668,305	442,616	-0,027	-0,042
-667,291	100,206	-0,078	0,065
-666,276	-200,000	-0,020	-0,103
-665,262	-111,302	-0,075	0,011
-664,247	-200,000	-0,035	-0,215
-663,232	-100,743	0,136	-0,024
-662,218	79,699	-0,064	-0,050
-661,203	503,349	0,046	0,077
-660,189	51,880	0,078	-0,054
-659,174	751,022	-0,104	-0,205
-658,159	-55,789	0,053	-0,017
-657,145	-63,215	-0,174	-0,052
-656,130	800,000	0,022	-0,053
-655,116	-122,588	0,039	-0,004
-654,101	74,542	0,122	0,093
-653,086	-200,000	0,003	0,080
-652,072	-5,752	-0,071	0,035
-651,057	454,176	-0,037	-0,060
-650,043	379,721	-0,070	-0,105
-649,028	190,081	0,061	0,067
-648,014	98,442	-0,096	-0,080
-646,999	23,459	0,034	-0,020
-645,984	-47,150	0,048	0,017
-644,970	-63,459	0,080	0,024
-643,955	-24,707	-0,080	0,034
-642,941	14,753	-0,034	-0,019
-641,926	-90,956	0,106	0,022
-640,911	11,416	0,099	-0,055
-639,897	800,000	0,103	0,275
-638,882	-41,814	0,092	0,034
-637,868	230,561	-0,071	-0,084
-636,853	203,651	-0,108	-0,121
-635,838	116,293	-0,068	0,060
-634,824	-94,648	0,079	-0,016
-633,809	-180,941	-0,156	0,002
-632,795	800,000	0,038	0,101
-631,780	-136,233	0,142	-0,012
-630,765	800,000	-0,037	-0,083
-629,751	-68,169	-0,151	0,042
-628,736	-23,852	-0,024	-0,010
-627,722	-188,318	-0,032	0,000
-626,707	172,744	0,106	-0,111
-625,692	-58,018	0,123	-0,038
-624,678	725,205	-0,042	0,082
-623,663	-83,466	-0,113	0,026
-622,649	-200,000	0,008	-0,064
-621,634	402,758	0,020	-0,031
-620,619	-81,633	-0,213	-0,050
-619,605	266,056	-0,074	-0,094
-618,590	53,284	0,120	0,083
-617,576	-101,440	-0,107	-0,019
-616,561	704,221	0,046	-0,088
-615,546	-144,117	-0,062	-0,004
-614,532	312,287	0,040	-0,055
-613,517	-200,000	0,004	-0,125
-612,503	650,547	-0,043	0,079
-611,488	-200,000	-0,005	-0,102
-610,474	800,000	0,042	0,096
-609,459	-35,905	0,176	0,069
-608,444	-140,917	0,019	-0,001
-607,430	-108,765	0,043	-0,007
-606,415	-111,185	-0,210	0,031
-605,401	-200,000	-0,034	0,144
-604,386	631,923	0,062	0,115
-603,371	-22,044	0,095	0,041
-602,357	724,176	-0,023	0,045
-601,342	90,749	-0,070	0,056
-600,328	800,000	0,022	-0,061
-599,313	-28,479	0,116	-0,048
-598,298	800,000	0,019	-0,058
-597,284	-123,394	0,114	0,013
-596,269	227,579	0,052	0,061
-595,255	-133,500	0,087	-0,008
-594,240	166,589	-0,151	-0,155
-593,225	265,970	-0,073	-0,092
-592,211	308,065	-0,116	0,157
-591,196	-200,000	-0,035	-0,127
-590,182	478,198	-0,048	-0,079
-589,167	-85,525	0,150	-0,034
-588,152	120,124	-0,165	-0,148
-587,138	-128,397	0,088	-0,009
-586,123	800,000	-0,026	-0,073
-585,109	50,747	-0,038	-0,026
-584,094	-200,000	-0,002	-0,043
-583,079	800,000	-0,017	0,054
-582,065	139,458	-0,053	0,051
-581,050	-200,000	-0,007	0,072
-580,036	800,000	0,042	0,086
-579,021	581,250	-0,063	-0,112
-578,006	-121,741	0,052	0,006
-576,992	800,000	-0,034	0,069
-575,977	179,019	-0,021	-0,023
-574,963	800,000	0,019	-0,047
-573,948	-107,416	0,082	0,013
-572,934	48,277	-0,071	0,048
-571,919	800,000	0,054	-0,125
-570,904	-152,295	-0,136	0,007
-569,890	596,642	-0,091	-0,163
-568,875	-143,830	-0,036	-0,002
-567,861	-58,976	0,095	-0,029
-566,846	617,310	0,003	-0,006
-565,831	46,492	0,008	0,005
-564,817	800,000	0,021	-0,042
-563,802	-200,000	-0,008	0,048
-562,788	-200,000	-0,005	-0,016
-561,773	-200,000	-0,019	0,063
-560,758	714,495	0,024	0,047
-559,744	-38,260	0,128	-0,049
-558,729	800,000	0,018	-0,039
-557,715	-200,000	-0,005	-0,051
-556,700	323,060	0,067	-0,093
-555,685	-86,107	-0,006	0,001
-554,671	-200,000	-0,007	-0,036
-553,656	122,240	0,107	-0,097
-552,642	-103,954	0,071	-0,012
-551,627	193,148	-0,197	0,215
-550,612	-58,808	-0,113	-0,035
-549,598	-200,000	-0,025	-0,121
-548,583	-100,806	0,196	-0,034
-547,569	-187,574	0,042	-0,000
-546,554	242,389	-0,035	0,042
-545,539	102,006	-0,062	-0,052
-544,525	325,904	0,112	0,155
-543,510	-200,000	0,008	0,046
-542,496	42,065	0,072	-0,047
-541,481	-139,454	0,024	-0,002
-540,466	-52,743	-0,058	-0,019
-539,452	-112,189	0,064	0,009
-538,437	-16,047	0,081	-0,037
-537,423	800,000	-0,053	-0,117
-536,408	-152,521	-0,054	0,003
-535,393	142,342	-0,081	-0,078
-534,379	-200,000	0,009	-0,067
-533,364	-96,031	-0,081	0,015
-532,350	-200,000	0,004	0,028
-531,335	234,191	0,088	0,105
-530,321	-82,224	-0,076	0,018
-529,306	66,957	0,047	0,034
-528,291	-57,655	-0,053	0,017
-527,277	-61,908	-0,014	0,004
-526,262	800,000	-0,031	0,077
-525,248	800,000	0,035	-0,107
-524,233	-106,685	-0,078	0,012
-523,218	162,149	0,090	0,091
-522,204	349,472	-0,050	-0,071
-521,189	188,048	0,023	-0,025
-520,175	146,757	0,040	0,039
-519,160	-58,421	-0,060	0,019
-518,145	-200,000	0,023	0,143
-517,131	-137,740	0,166	-0,013
-516,116	95,001	-0,089	-0,073
-515,102	-200,000	0,013	-0,047
-514,087	54,821	-0,069	-0,048
-513,072	-200,000	0,051	-0,179
-512,058	-137,712	-0,020	0,002
-511,043	114,305	-0,062	0,055
-510,029	-200,000	0,025	0,099
-509,014	-131,634	-0,058	-0,005
-507,999	-107,390	0,079	0,012
-506,985	-144,400	0,121	-0,008
-505,970	-64,097	-0,124	0,036
-504,956	-84,793	0,184	-0,041
-503,941	125,071	-0,006	0,006
-502,926	-12,112	0,097	-0,045
-501,912	9,250	0,042	-0,023
-500,897	-103,005	-0,110	-0,019
-499,883	-111,643	-0,127	-0,018
-498,868	-6,435	0,050	-0,024
-497,853	-200,000	0,013	-0,087
-496,839	357,669	0,112	0,161
-495,824	-200,000	-0,003	-0,015
-494,810	404,320	0,022	0,034
-493,795	119,449	-0,039	0,035
-492,781	178,674	0,078	0,082
-491,766	233,864	0,044	-0,052
-490,751	-200,000	-0,012	0,157
-489,737	-172,594	0,080	-0,002
-488,722	59,330	-0,028	-0,020
-487,708	800,000	0,059	0,185
-486,693	108,154	-0,025	-0,021
-485,678	-200,000	-0,009	0,156
-484,664	-200,000	-0,029	0,121
-483,649	800,000	-0,047	-0,119
-482,635	117,590	0,047	0,042
-481,620	-200,000	0,017	-0,060
-480,605	800,000	-0,053	0,145
-479,591	108,341	-0,079	-0,068
-478,576	-200,000	-0,022	-0,160
-477,562	-200,000	-0,015	-0,049
-476,547	105,732	-0,069	0,058
-475,532	800,000	0,035	-0,100
-474,518	800,000	0,043	0,106
-473,503	-200,000	-0,034	0,116
-472,489	-200,000	-0,004	-0,014
-471,474	800,000	-0,082	-0,196
-470,459	348,128	0,026	0,037
-469,445	-200,000	0,017	-0,119
-468,430	-109,921	0,076	-0,011
-467,416	-6,253	-0,140	-0,069
-466,401	-200,000	-0,018	0,066
-465,386	-0,340	-0,073	0,037
-464,372	-200,000	0,029	0,109
-463,357	16,436	0,036	0,020
-462,343	-118,445	-0,129	0,016
-461,328	-200,000	0,005	0,169
-460,313	39,705	0,114	0,073
-459,299	311,710	0,064	0,086
-458,284	80,737	-0,157	-0,122
-457,270	-200,000	0,020	0,117
-456,255	-200,000	0,005	-0,060
-455,241	-7,374	0,111	-0,054
-454,226	800,000	0,029	-0,090
-453,211	343,450	-0,030	0,042
-452,197	62,363	-0,033	0,024
-451,182	-178,118	0,030	0,000
-450,168	78,950	0,110	0,085
-449,153	-200,000	0,001	0,009
-448,138	-200,000	-0,010	-0,048
-447,124	345,413	0,076	-0,108
-446,109	120,273	0,033	0,029
-445,095	-135,067	-0,075	-0,006
-444,080	800,000	0,040	0,081
-443,065	192,402	0,096	0,104
-442,051	57,088	0,086	0,060
-441,036	322,832	-0,098	-0,134
-440,022	-200,000	-0,049	-0,242
-439,007	122,707	0,070	-0,063
-437,992	48,823	-0,057	-0,039
-436,978	135,621	0,090	-0,084
-435,963	515,516	0,031	0,053
-434,949	614,113	-0,056	0,101
-433,934	-188,536	-0,107	-0,001
-432,919	290,918	-0,065	-0,086
-431,905	-40,620	-0,091	-0,034
-430,890	-200,000	-0,018	0,074
-429,876	-46,341	-0,079	0,028
-428,861	-56,657	0,125	-0,040
-427,846	3,888	-0,101	0,053
-426,832	-200,000	-0,001	-0,010
-425,817	800,000	0,013	0,040
-424,803	1,785	0,033	-0,017
-423,788	177,581	-0,060	-0,063
-422,773	-117,209	0,053	-0,007
-421,759	259,619	0,100	0,125
-420,744	-200,000	-0,016	0,093
-419,730	-27,745	-0,181	-0,075
-418,715	-200,000	0,037	-0,152
-417,701	151,789	-0,119	-0,116
-416,686	192,803	-0,116	-0,126
-415,671	34,359	-0,114	-0,071
-414,657	-31,426	-0,084	0,034
-413,642	627,882	0,028	0,051
-412,628	-36,650	-0,025	0,009
-411,613	58,053	-0,110	-0,077
-410,598	90,180	0,087	-0,070
-409,584	79,966	0,037	-0,028
-408,569	134,318	-0,122	-0,113
-407,555	-200,000	-0,002	-0,019
-406,540	7,431	0,057	-0,030
-405,525	-200,000	0,056	-0,200
-404,511	-200,000	0,031	-0,180
-403,496	573,215	-0,022	0,038
-402,482	191,297	0,084	-0,091
-401,467	-142,308	0,094	-0,007
-400,452	-99,269	0,178	0,032
-399,438	84,257	0,075	-0,058
-398,423	-71,515	-0,010	0,003
-397,409	178,501	-0,047	0,049
-396,394	133,281	-0,115	-0,106
-395,379	757,713	-0,031	0,061
-394,365	-200,000	-0,008	0,084
-393,350	-105,664	0,096	-0,016
-392,336	-200,000	-0,004	0,064
-391,321	60,713	-0,018	0,013
-390,306	-24,889	-0,131	0,055
-389,292	48,255	0,057	0,038
-388,277	-110,865	-0,106	-0,015
-387,263	181,464	-0,009	-0,009
-386,248	-200,000	0,014	-0,112
-385,233	442,985	-0,057	0,090
-384,219	-200,000	-0,017	0,101
-383,204	-19,598	-0,110	-0,049
-382,190	5,141	0,089	-0,047
-381,175	-73,952	0,018	-0,005
-380,160	-200,000	-0,003	-0,077
-379,146	-137,510	0,051	-0,004
-378,131	-36,161	0,064	-0,025
-377,117	-163,480	-0,096	-0,003
-376,102	-21,166	-0,083	-0,036
-375,088	177,072	-0,069	-0,072
-374,073	-99,542	0,133	0,024
-373,058	68,403	-0,106	-0,078
-372,044	-69,167	-0,104	0,029
-371,029	-200,000	-0,026	0,166
-370,015	178,717	0,044	0,046
-369,000	100,247	-0,037	0,031
-367,985	-200,000	0,015	-0,088
-366,971	184,180	0,090	-0,095
-365,956	-200,000	0,001	0,102
-364,942	177,004	-0,084	0,088
-363,927	59,455	0,122	0,086
-362,912	800,000	-0,029	-0,068
-361,898	8,540	-0,035	-0,019
-360,883	-200,000	0,006	0,036
-359,869	147,226	0,088	-0,085
-358,854	277,303	0,083	0,106
-357,839	-194,861	0,073	0,000
-356,825	800,000	-0,012	0,033
-355,810	131,195	-0,105	-0,097
-354,796	113,815	-0,037	0,032
-353,781	342,112	0,079	-0,111
-352,766	-8,062	-0,137	-0,066
-351,752	800,000	0,028	0,066
-350,737	392,615	0,035	0,052
-349,723	800,000	-0,022	0,048
-348,708	800,000	0,048	0,115
-347,693	800,000	0,011	0,028
-346,679	433,463	-0,096	-0,150
-345,664	26,779	-0,035	0,021
-344,650	-42,239	-0,089	-0,032
-343,635	-200,000	0,016	-0,055
-342,620	24,225	-0,081	-0,048
-341,606	234,568	-0,061	-0,072
-340,591	-107,455	0,037	-0,006
-339,577	127,137	-0,032	0,029
-338,562	91,404	-0,099	-0,080
-337,548	-200,000	-0,026	-0,105
-336,533	-200,000	0,005	-0,121
-335,518	-200,000	0,020	0,098
-334,504	-145,302	-0,082	0,005
-333,489	580,857	0,027	-0,047
-332,475	-166,119	0,041	0,001
-331,460	248,955	-0,118	0,143
-330,445	47,731	-0,077	-0,051
-329,431	-62,642	0,038	0,011
-328,416	535,631	0,046	-0,079
-327,402	800,000	-0,006	-0,018
-326,387	-200,000	0,014	-0,063
-325,372	-200,000	0,005	-0,124
-324,358	-76,013	0,043	0,011
-323,343	-161,652	-0,052	-0,002
-322,329	-62,468	0,073	-0,022
-321,314	234,815	0,066	0,078
-320,299	75,259	-0,100	0,076
-319,285	-154,189	0,131	0,006
-318,270	-15,839	0,114	-0,052
-317,256	-83,589	-0,137	0,031
-316,241	72,100	-0,092	0,068
-315,226	-200,000	0,009	0,164
-314,212	-142,722	0,015	0,001
-313,197	327,642	-0,079	0,109
-312,183	0,871	0,070	0,036
-311,168	0,257	-0,088	0,045
-310,153	179,757	0,048	-0,051
-309,139	-200,000	0,051	-0,222
-308,124	800,000	0,034	0,073
-307,110	118,060	0,160	0,141
-306,095	800,000	-0,051	0,148
-305,080	-112,782	0,133	-0,019
-304,066	-160,271	0,033	-0,001
-303,051	800,000	0,019	0,042
-302,037	-50,257	-0,103	0,034
-301,022	-200,000	-0,007	-0,168
-300,008	-200,000	-0,010	0,034
-298,993	-45,737	-0,131	-0,046
-297,978	-37,038	-0,025	-0,010
-296,964	117,583	0,079	0,070
-295,949	-27,708	-0,080	0,033
-294,935	-55,657	0,046	-0,015
-293,920	9,141	0,120	-0,065
-292,905	-200,000	0,046	0,165
-291,891	711,317	0,067	0,128
-290,876	800,000	-0,022	0,055
-289,862	-136,214	0,084	0,007
-288,847	-76,148	-0,028	0,007
-287,832	105,244	0,077	-0,065
-286,818	-36,765	-0,105	0,040
-285,803	111,937	-0,017	-0,015
-284,789	800,000	0,046	0,101
-283,774	-200,000	0,025	0,137
-282,759	800,000	-0,060	0,121
-281,745	449,559	0,009	0,014
-280,730	318,376	-0,068	0,092
-279,716	-74,446	-0,115	0,030
-278,701	-24,031	0,096	0,041
-277,686	-0,360	0,049	-0,025
-276,672	800,000	-0,041	0,114
-275,657	400,468	0,011	-0,017
-274,643	-35,530	-0,086	-0,033
-273,628	396,399	0,005	-0,008
-272,613	20,139	0,059	0,034
-271,599	-200,000	-0,029	0,166
-270,584	-200,000	0,001	0,094
-269,570	-200,000	0,015	0,106
-268,555	418,786	-0,043	0,066
-267,540	-45,117	0,116	-0,041
-266,526	-200,000	-0,009	-0,053
-265,511	332,633	0,039	0,053
-264,497	48,501	0,004	0,003
-263,482	169,148	0,064	0,065
-262,467	-42,277	0,134	-0,049
-261,453	-200,000	0,018	0,101
-260,438	-77,166	0,061	-0,015
-259,424	800,000	-0,071	-0,168
-258,409	-138,117	-0,100	0,008
-257,395	391,610	-0,055	-0,082
-256,380	-113,020	0,106	-0,015
-255,365	27,420	0,132	-0,079
-254,351	90,204	-0,065	0,052
-253,336	-200,000	-0,021	-0,102
-252,322	-93,374	-0,099	0,020
-251,307	163,355	-0,152	-0,153
-250,292	115,055	0,072	-0,063
-249,278	-200,000	-0,034	0,124
-248,263	-200,000	-0,020	0,217
-247,249	-122,592	-0,061	0,007
-246,234	88,876	-0,069	0,055
-245,219	315,435	-0,069	-0,093
-244,205	-106,556	0,041	0,006
-243,190	119,101	0,069	0,061
-242,176	32,013	0,076	-0,047
-241,161	145,465	0,069	-0,066
-240,146	-200,000	0,024	-0,078
-239,132	445,637	-0,044	0,069
-238,117	-64,526	-0,143	-0,041
-237,103	-200,000	0,013	-0,059
-236,088	90,504	-0,117	-0,093
-235,073	-63,760	0,153	-0,044
-234,059	-200,000	0,017	0,160
-233,044	-200,000	0,004	0,146
-232,030	22,233	0,071	-0,041
-231,015	455,928	-0,068	-0,108
-230,000	-7,921	0,107	-0,051
-228,986	800,000	0,021	-0,056
-227,971	73,177	-0,076	0,056
-226,957	-200,000	0,001	0,010
-225,942	-13,830	0,201	-0,092
-224,927	800,000	-0,078	-0,208
-223,913	-14,035	-0,091	0,042
-222,898	-23,250	-0,049	-0,021
-221,884	226,669	-0,107	-0,125
-220,869	800,000	0,036	0,108
-219,855	-18,241	0,046	0,020
-218,840	800,000	0,078	0,186
-217,825	-23,986	-0,026	0,011
-216,811	800,000	0,056	-0,141
-215,796	-200,000	0,005	-0,022
-214,782	-200,000	-0,003	-0,071
-213,767	-200,000	0,013	0,084
-212,752	66,168	0,077	0,056
-211,738	-113,597	0,129	-0,018
-210,723	-120,403	-0,134	0,016
-209,709	257,779	-0,034	0,042
-208,694	232,302	0,093	0,109
-207,679	800,000	0,027	-0,085
-206,665	359,391	-0,044	0,063
-205,650	683,649	-0,028	0,052
-204,636	-92,888	-0,055	-0,011
-203,621	25,725	-0,095	0,056
-202,606	800,000	0,033	0,078
-201,592	800,000	-0,076	0,150
-200,577	-200,000	0,020	-0,173
-199,563	-200,000	-0,010	-0,188
-198,548	136,602	0,194	-0,180
-197,533	-200,000	-0,008	0,109
-196,519	-56,577	-0,054	-0,017
-195,504	-200,000	-0,006	-0,028
-194,490	-200,000	-0,015	0,062
-193,475	-43,471	0,077	-0,028
-192,460	97,844	0,030	0,025
-191,446	800,000	0,011	-0,029
-190,431	-69,724	-0,095	0,026
-189,417	96,104	-0,025	-0,021
-188,402	237,661	0,039	-0,046
-187,387	-24,541	-0,048	-0,020
-186,373	-58,510	-0,118	0,036
-185,358	-15,146	-0,087	0,039
-184,344	-94,389	0,196	-0,038
-183,329	-95,633	0,119	0,022
-182,315	-76,481	-0,099	0,024
-181,300	800,000	0,022	0,049
-180,285	-35,549	0,028	0,011
-179,271	-45,479	-0,154	-0,054
-178,256	-171,659	0,055	-0,001
-177,242	-200,000	0,119	0,000
-176,227	-164,841	0,088	-0,003
-175,212	416,210	0,047	0,072
-174,198	160,780	-0,068	0,068
-173,183	800,000	0,070	-0,177
-172,169	473,891	-0,013	0,021
-171,154	-93,176	0,208	-0,041
-170,139	800,000	0,021	-0,057
-169,125	84,632	0,067	0,052
-168,110	800,000	0,045	0,133
-167,096	461,813	-0,032	0,051
-166,081	425,176	0,069	0,106
-165,066	-12,838	-0,038	-0,018
-164,052	-43,700	-0,101	0,036
-163,037	30,814	0,021	0,013
-162,023	135,621	0,025	0,023
-161,008	-37,067	-0,089	-0,034
-159,993	197,980	0,107	0,117
-158,979	317,877	0,032	-0,043
-157,964	-200,000	-0,019	-0,096
-156,950	-179,656	-0,089	-0,001
-155,935	-200,000	-0,002	0,166
-154,920	220,059	-0,088	0,100
-153,906	-99,802	0,016	0,003
-152,891	62,799	0,045	0,032
-151,877	-103,062	-0,101	-0,017
-150,862	-33,758	-0,046	0,018
-149,847	385,370	-0,032	0,047
-148,833	800,000	0,006	-0,015
-147,818	-151,838	-0,157	-0,008
-146,804	245,094	0,034	0,041
-145,789	800,000	-0,032	0,083
-144,775	-101,993	0,095	-0,016
-143,760	-133,330	-0,115	0,010
-142,745	-131,366	0,152	0,014
-141,731	-1,514	0,053	-0,026
-140,716	65,991	-0,104	-0,075
-139,702	-104,645	0,093	0,015
-138,687	-185,234	0,117	0,001
-137,672	-200,000	-0,001	-0,067
-136,658	376,148	0,035	-0,051
-135,643	75,548	-0,030	0,022
-134,629	215,306	0,054	-0,061
-133,614	-77,027	-0,019	-0,005
-132,599	615,998	-0,019	-0,035
-131,585	-200,000	-0,005	-0,016
-130,570	-200,000	-0,010	-0,056
-129,556	-200,000	0,009	-0,113
-128,541	-200,000	0,059	-0,221
-127,526	800,000	0,004	0,009
-126,512	382,126	0,120	0,176
-125,497	74,696	0,104	0,077
-124,483	-150,228	0,039	-0,002
-123,468	-83,215	-0,082	-0,019
-122,453	191,734	0,028	0,031
-121,439	800,000	0,026	0,078
-120,424	206,892	0,094	0,104
-119,410	465,818	0,025	0,039
-118,395	-200,000	0,010	0,040
-117,380	-29,433	0,117	0,047
-116,366	-89,974	0,049	-0,010
-115,351	9,945	-0,168	-0,090
-114,337	75,524	0,041	0,031
-113,322	58,529	0,044	0,031
-112,307	-79,615	-0,084	-0,020
-111,293	-200,000	0,003	-0,020
-110,278	109,829	-0,027	-0,023
-109,264	6,485	-0,075	0,040
-108,249	271,798	-0,062	0,078
-107,234	106,667	-0,050	0,042
-106,220	236,622	0,014	0,016
-105,205	408,808	0,019	0,028
-104,191	363,008	0,019	0,028
-103,176	-18,206	-0,099	0,044
-102,162	-200,000	0,019	0,216
-101,147	-37,039	-0,132	-0,050
-100,132	478,085	-0,108	-0,175
-99,118	30,217	0,075	-0,046
-98,103	88,265	0,042	0,033
-97,089	-200,000	0,037	0,132
-96,074	-136,650	0,094	0,008
-95,059	-200,000	-0,012	-0,064
-94,045	187,550	-0,060	-0,064
-93,030	-200,000	-0,003	-0,091
-92,016	-100,635	-0,071	0,012
-91,001	-128,329	-0,110	-0,011
-89,986	-87,237	0,145	0,031
-88,972	-28,570	0,138	0,056
-87,957	-69,964	0,053	0,014
-86,943	56,032	-0,082	-0,057
-85,928	-200,000	-0,018	-0,115
-84,913	-200,000	0,027	-0,090
-83,899	238,561	0,075	-0,089
-82,884	-147,242	0,070	0,004
-81,870	45,899	0,070	-0,046
-80,855	237,520	0,041	-0,049
-79,840	341,033	-0,111	0,154
-78,826	-95,339	-0,153	0,029
-77,811	-200,000	0,028	-0,141
-76,797	-200,000	0,003	-0,057
-75,782	76,340	0,050	-0,038
-74,767	-200,000	0,002	0,083
-73,753	-200,000	0,004	-0,125
-72,738	519,392	0,009	0,015
-71,724	-180,342	-0,169	0,002
-70,709	236,092	0,099	0,116
-69,694	184,683	0,035	-0,037
-68,680	784,367	0,034	0,066
-67,665	-200,000	0,007	-0,036
-66,651	221,952	-0,107	0,123
-65,636	-200,000	0,022	-0,146
-64,622	-98,294	-0,021	0,004
-63,607	800,000	-0,030	-0,081
-62,592	800,000	-0,072	-0,223
-61,578	-200,000	-0,004	0,058
-60,563	-51,091	0,077	0,025
-59,549	-100,000	-0,171	-0,030
-58,534	-42,805	-1,564	-0,560
-57,519	451,864	-1,423	-2,235
-56,505	-200,000	-0,515	-4,529
-55,490	230,322	1,014	1,176
-54,476	800,000	4,786	11,097
-53,461	-200,000	18,796	303,074
-52,446	800,000	735,643	2283,965
-51,432	565,538	1651,459	2846,550
-50,417	78,765	1668,457	1262,399
-49,403	21,980	1541,566	887,759
-48,388	15,915	1464,271	813,811
-47,373	17,766	1454,172	817,095
-46,359	16,857	1444,431	807,239
-45,344	14,148	1440,110	791,835
-44,330	14,128	1437,834	790,455
-43,315	14,069	1436,442	789,377
-42,300	14,102	1434,690	788,539
-41,286	14,158	1433,373	788,051
-40,271	14,073	1432,180	786,958
-39,257	14,080	1430,839	786,226
-38,242	14,145	1429,636	785,839
-37,227	14,130	1428,652	785,201
-36,213	14,149	1426,982	784,339
-35,198	14,146	1425,979	783,743
-34,184	14,233	1424,999	783,584
-33,169	14,140	1423,602	782,344
-32,154	14,196	1422,577	782,015
-31,140	14,138	1421,357	781,040
-30,125	14,178	1420,234	780,579
-29,111	14,144	1419,133	779,784
-28,096	14,144	1418,032	779,151
-27,082	14,126	1416,843	778,380
-26,067	14,066	1415,965	777,583
-25,052	14,086	1414,699	776,951
-24,038	14,097	1413,733	776,442
-23,023	14,131	1412,599	775,946
-22,009	14,051	1411,890	775,154
-20,994	14,044	1411,039	774,622
-19,979	13,995	1410,325	773,968
-18,965	14,018	1409,155	773,407
-17,950	14,015	1408,205	772,841
-16,936	14,053	1407,357	772,520
-15,921	14,034	1405,972	771,641
-14,906	14,018	1405,095	771,056
-13,892	13,995	1404,307	770,486
-12,877	13,988	1403,313	769,876
-11,863	13,991	1402,413	769,367
-10,848	13,970	1401,700	768,844
-9,833	13,931	1400,727	768,098
-8,819	13,889	1399,820	767,376
-7,804	13,934	1399,029	767,123
-6,790	13,914	1397,704	766,273
-5,775	13,884	1396,879	765,651
-4,760	13,911	1396,011	765,271
-3,746	13,905	1394,845	764,572
-2,731	13,905	1394,247	764,215
-1,717	13,912	1393,383	763,742
-0,702	13,880	1391,479	762,522
0,313	17,769	1310,025	735,881
1,327	34,245	705,471	434,420
2,342	52,900	123,917	83,729
3,356	2,344	16,588	8,462
4,371	1,694	3,201	1,626
5,386	-72,158	0,637	0,166
6,400	369,517	0,073	0,105
7,415	96,207	-0,309	-0,250
8,429	286,957	-0,225	-0,288
9,444	107,814	-0,228	-0,192
10,459	69,575	-0,220	-0,160
11,473	-25,946	-0,217	-0,090
12,488	226,345	-0,260	-0,299
13,502	45,498	-0,311	-0,203
14,517	83,920	-0,270	-0,208
15,531	395,440	-0,255	-0,377
16,546	87,928	-0,300	-0,235
17,561	97,685	-0,444	-0,360
18,575	-139,986	-0,224	0,016
19,590	255,164	-0,177	-0,215
20,604	-72,762	-0,276	-0,071
21,619	-36,968	-0,420	-0,158
22,634	27,143	-0,451	-0,267
23,648	42,456	-0,480	-0,307
24,663	194,534	-0,285	-0,306
25,677	0,871	-0,300	-0,151
26,692	7,048	-0,316	-0,166
27,707	50,524	-0,415	-0,276
28,721	-4,348	-0,428	-0,208
29,736	99,152	-0,375	-0,306
30,750	105,252	-0,420	-0,350
31,765	108,936	-0,358	-0,302
32,780	190,108	-0,283	-0,300
33,794	294,379	-0,283	-0,366
34,809	111,060	-0,320	-0,272
35,823	6,864	-0,341	-0,179
36,838	56,764	-0,387	-0,266
37,853	145,951	-0,335	-0,317
38,867	49,613	-0,346	-0,229
39,882	152,569	-0,342	-0,330
40,896	126,005	-0,325	-0,289
41,911	114,702	-0,366	-0,315
42,926	-30,409	-0,331	-0,132
43,940	119,502	-0,220	-0,192
44,955	-17,944	-0,394	-0,173
45,969	6,227	-0,414	-0,216
46,984	184,264	-0,278	-0,290
47,999	41,002	-0,291	-0,185
49,013	121,015	-0,417	-0,366
50,028	127,151	-0,287	-0,256
51,042	88,110	-0,392	-0,306
52,057	-11,701	-0,421	-0,194
53,071	55,160	-0,267	-0,182
54,086	-75,865	-0,306	-0,076
55,101	-41,218	-0,293	-0,106
56,115	119,228	-0,320	-0,278
57,130	4,753	-0,436	-0,225
58,144	114,371	-0,338	-0,290
59,159	160,106	-0,277	-0,272
60,174	78,035	-0,428	-0,321
61,188	-32,977	-0,307	-0,119
62,203	-19,046	-0,322	-0,140
63,217	-15,641	-0,270	-0,121
64,232	54,482	-0,386	-0,261
65,247	101,301	-0,348	-0,285
66,261	186,014	-0,282	-0,296
67,276	60,295	-0,374	-0,260
68,290	149,940	-0,304	-0,290
69,305	74,784	-0,273	-0,202
70,320	205,055	-0,226	-0,247
71,334	-43,913	-0,324	-0,114
72,349	-29,779	-0,326	-0,130
73,363	188,035	-0,247	-0,259
74,378	74,932	-0,302	-0,224
75,393	17,524	-0,304	-0,169
76,407	50,946	-0,321	-0,213
77,422	-133,941	-0,245	0,021
78,436	-7,676	-0,348	-0,165
79,451	-14,069	-0,394	-0,178
80,466	38,748	-0,304	-0,190
81,480	115,795	-0,283	-0,243
82,495	-40,559	-0,408	-0,148
83,509	46,724	-0,303	-0,197
84,524	33,767	-0,322	-0,196
85,539	53,066	-0,269	-0,180
86,553	800,000	-0,124	-0,306
87,568	-7,446	-0,292	-0,139
88,582	16,686	-0,473	-0,262
89,597	-72,412	-0,279	-0,072
90,611	-92,988	-0,316	-0,061
91,626	-5,680	-0,277	-0,133
92,641	-121,063	-0,261	-0,030
93,655	80,206	-0,241	-0,182
94,670	36,001	-0,384	-0,237
95,684	177,754	-0,253	-0,259
96,699	38,214	-0,398	-0,248
97,714	194,870	-0,223	-0,237
98,728	427,076	-0,104	-0,157
99,743	-29,929	-0,264	-0,105
100,757	-2,075	-0,206	-0,101
101,772	2,202	-0,433	-0,219
102,787	-22,587	-0,445	-0,188
103,801	49,448	-0,253	-0,167
104,816	-25,220	-0,289	-0,119
105,830	-88,000	-0,279	-0,058
106,845	-73,457	-0,232	-0,059
107,860	-178,087	-0,336	0,005
108,874	-80,447	-0,291	-0,067
109,889	86,018	-0,271	-0,209
110,903	20,723	-0,222	-0,126
111,918	-49,833	-0,357	-0,118
112,933	-6,247	-0,345	-0,164
113,947	-144,818	-0,278	-0,018
114,962	143,334	-0,300	-0,280
115,976	68,314	-0,333	-0,239
116,991	119,488	-0,279	-0,242
118,006	-30,491	-0,124	-0,049
119,020	59,064	-0,177	-0,122
120,035	40,492	-0,205	-0,129
121,049	8,526	-0,233	-0,122
122,064	-57,765	-0,309	-0,094
123,079	613,969	-0,142	-0,251
124,093	18,465	-0,387	-0,216
125,108	203,625	-0,206	-0,224
126,122	106,412	-0,333	-0,276
127,137	-32,766	-0,243	-0,094
128,151	135,044	-0,187	-0,170
129,166	-200,000	-0,029	-0,189
130,181	154,704	-0,219	-0,211
131,195	133,125	-0,214	-0,193
132,210	10,901	-0,278	-0,148
133,224	227,215	-0,219	-0,250
134,239	800,000	-0,110	-0,215
135,254	258,124	-0,195	-0,235
136,268	124,058	-0,230	-0,202
137,283	122,131	-0,268	-0,234
138,297	114,850	-0,212	-0,181
139,312	800,000	-0,097	-0,259
140,327	144,698	-0,212	-0,198
141,341	-8,068	-0,258	-0,121
142,356	582,695	-0,111	-0,191
143,370	41,796	-0,291	-0,184
144,385	520,633	-0,115	-0,190
145,400	-79,098	-0,292	-0,069
146,414	-35,374	-0,247	-0,093
147,429	4,472	-0,352	-0,180
148,443	152,249	-0,215	-0,205
149,458	203,091	-0,146	-0,158
150,473	109,317	-0,204	-0,170
151,487	231,832	-0,120	-0,138
152,502	-200,000	-0,231	0,001
153,516	-10,744	-0,255	-0,117
154,531	212,216	-0,198	-0,218
155,546	13,572	-0,240	-0,129
156,560	-38,951	-0,260	-0,095
157,575	-24,689	-0,181	-0,075
158,589	-19,882	-0,214	-0,092
159,604	51,767	-0,259	-0,171
160,619	138,446	-0,210	-0,192
161,633	18,308	-0,311	-0,173
162,648	152,945	-0,285	-0,272
163,662	418,572	-0,194	-0,290
164,677	137,800	-0,196	-0,179
165,692	156,965	-0,119	-0,115
166,706	383,128	-0,158	-0,228
167,721	517,270	-0,127	-0,209
168,735	52,227	-0,375	-0,249
169,750	126,837	-0,217	-0,192
170,764	156,567	-0,132	-0,127
171,779	-171,192	-0,133	-0,003
172,794	60,009	-0,215	-0,148
173,808	82,926	-0,261	-0,197
174,823	12,157	-0,249	-0,133
175,837	194,883	-0,232	-0,245
176,852	-1,777	-0,294	-0,143
177,867	298,945	-0,191	-0,245
178,881	129,743	-0,198	-0,176
179,896	19,628	-0,221	-0,123
180,910	70,638	-0,240	-0,173
181,925	495,426	-0,133	-0,214
182,940	105,200	-0,258	-0,212
183,954	141,060	-0,105	-0,096
184,969	361,301	-0,223	-0,313
185,983	-132,663	-0,213	-0,019
186,998	30,329	-0,250	-0,148
188,013	-200,000	0,007	-0,329
189,027	260,878	-0,100	-0,120
190,042	70,947	-0,267	-0,192
191,056	289,496	-0,152	-0,192
192,071	23,573	-0,237	-0,135
193,086	-63,335	-0,220	-0,063
194,100	170,149	-0,215	-0,214
195,115	-45,409	-0,265	-0,091
196,129	800,000	-0,076	-0,230
197,144	16,671	-0,279	-0,153
198,159	123,724	-0,276	-0,241
199,173	14,696	-0,313	-0,170
200,188	141,263	-0,199	-0,183
201,202	-96,198	-0,203	-0,037
202,217	252,639	-0,234	-0,278
203,232	-162,012	-0,244	-0,008
204,246	344,516	-0,213	-0,291
205,261	363,160	-0,120	-0,168
206,275	800,000	-0,090	-0,209
207,290	-14,009	-0,274	-0,122
208,304	-24,822	-0,135	-0,056
209,319	-36,729	-0,263	-0,097
210,334	29,913	-0,244	-0,144
211,348	126,327	-0,160	-0,141
212,363	69,740	-0,209	-0,149
213,377	220,979	-0,131	-0,147
214,392	800,000	-0,090	-0,194
215,407	-66,100	-0,156	-0,043
216,421	2,203	-0,154	0,077
217,436	37,588	-0,271	-0,166
218,450	88,713	-0,218	-0,168
219,465	495,789	-0,109	-0,174
220,480	-22,810	-0,122	0,051
221,494	-50,237	-0,192	-0,063
222,509	800,000	-0,060	-0,126
223,523	746,147	-0,094	-0,176
224,538	-47,076	-0,142	-0,048
225,553	37,511	-0,294	-0,180
226,567	96,249	-0,206	-0,164
227,582	240,825	-0,139	-0,161
228,596	-52,408	-0,096	-0,030
229,611	176,084	-0,116	-0,117
230,626	39,504	-0,083	-0,052
231,640	-21,150	-0,156	-0,066
232,655	33,954	-0,245	-0,148
233,669	-49,084	-0,287	-0,095
234,684	137,180	-0,178	-0,162
235,699	138,672	-0,188	-0,171
236,713	12,761	-0,196	-0,105
237,728	-148,606	-0,044	0,002
238,742	333,427	-0,157	-0,211
239,757	-61,923	-0,223	-0,064
240,772	63,640	-0,180	-0,125
241,786	560,138	-0,118	-0,198
242,801	-15,088	-0,198	-0,088
243,815	429,771	-0,095	-0,142
244,830	228,780	-0,100	-0,113
245,844	376,136	-0,106	-0,150
246,859	-51,264	-0,185	-0,060
247,874	37,132	-0,185	-0,113
248,888	-4,324	-0,189	-0,090
249,903	-130,694	-0,155	-0,014
250,917	219,598	-0,128	-0,143
251,932	-114,956	-0,201	-0,026
252,947	-24,398	-0,135	-0,055
253,961	-64,136	-0,173	-0,048
254,976	-12,188	-0,230	-0,104
255,990	145,114	-0,091	-0,085
257,005	-109,630	-0,173	0,025
258,020	156,817	-0,112	-0,107
259,034	12,671	-0,149	-0,079
260,049	-53,458	-0,201	-0,063
261,063	94,348	-0,129	-0,101
262,078	-64,318	-0,307	-0,086
263,093	141,450	-0,170	-0,156
264,107	800,000	-0,081	-0,202
265,122	-33,958	-0,175	-0,066
266,136	-67,837	-0,127	-0,034
267,151	-17,643	-0,273	-0,118
268,166	-200,000	0,015	-0,073
269,180	123,434	-0,221	-0,192
270,195	-169,074	-0,247	-0,006
271,209	140,498	-0,221	-0,202
272,224	-200,000	-0,072	-0,235
273,239	283,774	-0,113	-0,141
274,253	19,433	-0,075	-0,041
275,268	28,127	-0,175	-0,102
276,282	-172,299	-0,258	-0,006
277,297	800,000	-0,095	-0,190
278,312	49,614	-0,230	-0,150
279,326	225,815	-0,131	-0,147
280,341	-105,024	-0,203	-0,032
281,355	622,250	-0,073	-0,127
282,370	12,403	-0,196	-0,104
283,384	-94,835	-0,065	-0,012
284,399	800,000	-0,071	-0,153
285,414	192,270	-0,116	-0,121
286,428	-162,017	-0,239	-0,008
287,443	-35,286	-0,120	-0,045
288,457	-139,077	-0,065	-0,005
289,472	-50,094	-0,240	-0,078
290,487	800,000	-0,093	-0,241
291,501	800,000	-0,097	-0,251
292,516	-154,850	-0,170	0,008
293,530	800,000	-0,093	-0,212
294,545	287,615	-0,104	-0,130
295,560	319,422	-0,068	-0,089
296,574	684,822	-0,088	-0,159
297,589	68,192	-0,174	-0,123
298,603	59,230	-0,156	-0,106
299,618	75,544	-0,145	-0,106
300,633	-81,440	-0,225	0,051
301,647	-100,210	-0,176	0,030
302,662	-116,335	-0,135	0,017
303,676	-104,198	-0,225	-0,036
304,691	-154,002	-0,276	-0,013
305,706	-36,772	-0,272	-0,100
306,720	45,204	-0,200	-0,127
307,735	-40,407	-0,122	-0,044
308,749	76,385	-0,104	-0,076
309,764	82,674	-0,073	-0,054
310,779	800,000	0,019	-0,043
311,793	800,000	-0,092	-0,180
312,808	800,000	-0,124	-0,268
313,822	-200,000	-0,003	-0,176
314,837	52,089	-0,194	-0,127
315,852	185,216	-0,157	-0,160
316,866	-118,447	-0,170	-0,020
317,881	170,671	-0,098	-0,096
318,895	325,971	-0,082	-0,109
319,910	-67,389	-0,174	-0,047
320,925	5,740	-0,120	-0,061
321,939	171,306	-0,152	-0,150
322,954	-82,034	-0,121	0,027
323,968	21,428	-0,109	-0,061
324,983	-109,316	-0,185	0,027
325,997	-119,395	-0,082	0,010
327,012	-73,618	-0,164	-0,041
328,027	281,999	-0,150	-0,185
329,041	-200,000	-0,013	-0,152
330,056	172,310	-0,138	-0,137
331,070	302,494	-0,072	-0,092
332,085	-200,000	0,021	-0,119
333,100	236,377	-0,125	-0,142
334,114	24,495	-0,232	-0,132
335,129	43,914	-0,316	-0,199
336,143	-0,260	-0,192	-0,094
337,158	-85,099	-0,168	-0,036
338,173	-67,461	-0,091	-0,024
339,187	80,222	-0,135	-0,099
340,202	212,397	-0,153	-0,166
341,216	-126,163	-0,155	-0,016
342,231	-29,337	-0,062	-0,024
343,246	6,304	-0,168	-0,085
344,260	84,061	-0,035	-0,026
345,275	-2,986	-0,137	-0,066
346,289	90,308	-0,180	-0,139
347,304	-200,000	0,011	-0,143
348,319	95,756	-0,163	-0,128
349,333	-72,669	-0,140	-0,035
350,348	189,161	-0,183	-0,188
351,362	-42,651	-0,110	-0,038
352,377	-84,054	-0,080	-0,017
353,392	800,000	-0,064	-0,173
354,406	208,796	-0,117	-0,126
355,421	209,194	1314,231	1413,781
356,435	160,990	1474,907	1414,265
