DTS Sentinel unit serial number:	SN410029Multiplexer serial number:	ORYXHardware model number:	OX2-SRSoftware version number:	ORYX F/W v4,00 Oryx Data Collector v3.7.2.0data status	okinstallation	B3 Nyhavnadifferential loss correction	single-endedforward channel	channel 1reverse channel	N/Adate	2023/12/05time	07:27:30forward acquisition time	300,00reverse acquisition time	0,00gamma	499,1914k internal	0,3200k external	0,3200temperature offset calibration	1,0000default loss term (dB/km)	0,3820temperature slope calibration	1,0000multiplexer offset coefficient	1,0000multiplexer slope coefficient	1,0000fibre end	0,00T internal ref (°C)	13,83T ext. ref 1 (°C)	-1,11T ext. ref 2 (°C)	-1,18length (m)	temperature (°C)	Stokes	anti-Stokes-744,400	663,777	-0,090	-0,170
-743,385	263,891	0,092	0,116
-742,371	387,075	-0,154	-0,232
-741,356	-200,000	-0,069	0,418
-740,342	112,247	-0,172	-0,152
-739,327	-200,000	0,019	0,294
-738,312	150,311	-0,237	-0,234
-737,298	-200,000	0,012	0,273
-736,283	29,947	-0,167	-0,103
-735,269	-200,000	0,042	0,327
-734,254	706,618	-0,173	-0,335
-733,239	-130,680	-0,286	0,028
-732,225	800,000	-0,140	-0,302
-731,210	13,070	0,191	0,107
-730,196	800,000	0,039	-0,124
-729,181	-136,420	0,039	-0,003
-728,167	-200,000	0,032	-0,141
-727,152	-55,112	-0,091	-0,029
-726,137	-41,468	-0,144	-0,053
-725,123	2,109	-0,117	-0,061
-724,108	800,000	-0,011	-0,033
-723,094	-38,609	-0,224	-0,085
-722,079	-43,895	-0,117	-0,043
-721,064	-48,866	0,101	-0,035
-720,050	-100,613	-0,129	-0,023
-719,035	-200,000	-0,018	0,098
-718,021	-143,869	-0,069	-0,005
-717,006	-122,062	0,114	-0,013
-715,991	179,444	-0,036	0,038
-714,977	800,000	0,046	0,097
-713,962	-121,534	-0,124	-0,015
-712,948	256,082	0,067	0,083
-711,933	21,888	-0,035	0,021
-710,918	800,000	-0,062	-0,136
-709,904	-55,779	0,065	-0,021
-708,889	20,997	-0,104	0,061
-707,875	70,721	-0,080	-0,060
-706,860	-91,571	0,042	-0,009
-705,845	-200,000	0,001	-0,104
-704,831	67,608	0,035	0,026
-703,816	-138,865	-0,155	-0,012
-702,802	401,842	0,024	0,037
-701,787	115,602	0,041	0,037
-700,772	-76,253	-0,071	0,018
-699,758	23,156	-0,068	-0,041
-698,743	-17,138	0,013	0,006
-697,729	729,929	0,044	0,085
-696,714	-200,000	-0,017	0,084
-695,699	-119,469	0,128	-0,016
-694,685	319,063	0,005	-0,006
-693,670	-200,000	0,008	0,121
-692,656	756,707	0,078	-0,155
-691,641	69,377	-0,059	0,044
-690,627	800,000	0,021	0,044
-689,612	348,956	-0,049	-0,071
-688,597	-105,283	-0,173	0,028
-687,583	-7,756	-0,081	-0,040
-686,568	278,054	-0,056	-0,072
-685,554	52,471	-0,041	-0,028
-684,539	-97,037	0,057	-0,011
-683,524	-200,000	-0,037	-0,172
-682,510	670,900	0,030	0,056
-681,495	-146,304	-0,176	0,011
-680,481	800,000	0,010	-0,022
-679,466	123,869	-0,054	-0,049
-678,451	-200,000	0,004	0,019
-677,437	498,878	0,047	-0,078
-676,422	433,733	-0,052	-0,082
-675,408	-200,000	0,001	-0,092
-674,393	59,808	-0,023	-0,017
-673,378	-192,646	-0,252	-0,002
-672,364	338,838	-0,038	-0,054
-671,349	310,165	-0,050	0,069
-670,335	800,000	0,010	0,021
-669,320	800,000	-0,016	-0,035
-668,305	744,265	0,012	0,024
-667,291	-200,000	0,001	-0,087
-666,276	48,663	-0,028	-0,019
-665,262	692,293	-0,065	-0,124
-664,247	-110,523	-0,049	0,007
-663,232	-200,000	0,004	0,021
-662,218	800,000	0,039	-0,107
-661,203	800,000	0,041	0,099
-660,189	-19,553	-0,108	0,048
-659,174	298,872	-0,065	0,087
-658,159	800,000	-0,056	-0,162
-657,145	6,151	0,042	-0,022
-656,130	-138,133	-0,078	0,006
-655,116	-7,910	-0,095	-0,046
-654,101	38,906	0,051	-0,033
-653,086	-139,212	0,044	-0,003
-652,072	313,570	0,083	-0,114
-651,057	198,223	-0,067	-0,074
-650,043	-18,953	-0,122	-0,055
-649,028	-43,215	0,127	0,046
-648,014	-81,632	0,103	0,024
-646,999	21,355	0,071	0,042
-645,984	217,179	-0,018	0,021
-644,970	800,000	0,021	-0,045
-643,955	30,798	0,028	-0,017
-642,941	800,000	-0,035	-0,077
-641,926	243,078	0,124	-0,151
-640,911	800,000	0,039	-0,079
-639,897	-200,000	0,011	-0,059
-638,882	-200,000	-0,003	-0,037
-637,868	-64,838	-0,140	-0,041
-636,853	139,350	-0,082	-0,078
-635,838	240,205	0,045	-0,055
-634,824	-63,729	0,111	0,033
-633,809	-71,293	0,060	-0,016
-632,795	177,276	0,072	-0,076
-631,780	341,150	0,068	0,096
-630,765	78,039	-0,095	0,073
-629,751	800,000	-0,058	-0,138
-628,736	-200,000	-0,002	-0,015
-627,722	77,294	-0,061	-0,047
-626,707	800,000	0,037	0,089
-625,692	18,393	-0,104	0,060
-624,678	115,068	0,095	0,084
-623,663	324,772	-0,057	-0,078
-622,649	157,597	-0,047	0,047
-621,634	800,000	-0,049	-0,103
-620,619	71,713	-0,040	-0,030
-619,605	-200,000	-0,006	0,030
-618,590	800,000	-0,022	-0,059
-617,576	525,311	-0,074	-0,127
-616,561	-68,585	-0,089	-0,025
-615,546	-200,000	0,036	-0,155
-614,532	-200,000	0,019	-0,127
-613,517	-200,000	0,005	-0,036
-612,503	-175,673	-0,044	0,001
-611,488	-135,612	-0,010	-0,001
-610,474	119,534	0,122	-0,110
-609,459	150,063	-0,088	-0,086
-608,444	49,358	-0,038	-0,026
-607,430	-20,353	-0,013	0,006
-606,415	72,174	-0,022	0,016
-605,401	-66,114	0,026	0,007
-604,386	159,475	0,044	0,045
-603,371	800,000	-0,071	-0,162
-602,357	-55,587	-0,012	0,004
-601,342	-34,496	-0,037	0,015
-600,328	327,058	-0,047	0,065
-599,313	236,874	0,088	-0,106
-598,298	254,506	-0,037	0,046
-597,284	584,757	0,096	0,172
-596,269	79,091	-0,111	0,086
-595,255	-100,084	-0,057	0,010
-594,240	482,724	-0,115	-0,190
-593,225	743,297	-0,067	-0,132
-592,211	-97,767	-0,069	-0,013
-591,196	64,145	-0,063	-0,046
-590,182	38,822	0,181	-0,117
-589,167	548,741	-0,033	0,057
-588,152	-159,333	0,070	0,003
-587,138	-200,000	0,008	0,114
-586,123	239,362	-0,094	-0,113
-585,109	568,310	-0,072	-0,126
-584,094	460,538	0,037	0,060
-583,079	-109,257	-0,108	0,016
-582,065	512,523	-0,075	-0,127
-581,050	-17,616	0,121	0,055
-580,036	-80,104	0,103	0,025
-579,021	800,000	-0,083	-0,174
-578,006	-200,000	0,012	0,052
-576,992	20,955	-0,094	0,055
-575,977	453,906	-0,123	0,197
-574,963	-200,000	0,008	0,029
-573,948	97,420	0,036	-0,030
-572,934	-100,076	-0,189	0,034
-571,919	-136,308	0,024	-0,002
-570,904	90,999	-0,115	-0,093
-569,890	-200,000	0,015	-0,255
-568,875	289,982	-0,039	0,051
-567,861	107,976	0,055	0,047
-566,846	-200,000	0,044	0,164
-565,831	800,000	0,021	0,056
-564,817	305,572	0,099	-0,133
-563,802	-194,895	-0,076	0,000
-562,788	94,869	-0,036	-0,029
-561,773	-95,055	0,185	0,036
-560,758	-104,689	0,044	0,007
-559,744	-141,412	-0,068	-0,005
-558,729	698,129	0,031	-0,059
-557,715	369,114	-0,074	-0,109
-556,700	-12,958	-0,070	-0,033
-555,685	-8,393	0,075	-0,036
-554,671	-150,432	0,077	0,004
-553,656	-12,143	-0,052	-0,025
-552,642	81,258	-0,126	0,098
-551,627	-2,418	0,069	-0,035
-550,612	643,071	0,050	0,093
-549,598	-200,000	-0,031	0,156
-548,583	254,789	0,027	0,034
-547,569	-67,576	-0,165	0,046
-546,554	-109,620	0,052	-0,008
-545,539	-93,317	0,114	0,023
-544,525	-200,000	0,007	0,046
-543,510	-26,210	0,200	-0,084
-542,496	578,578	-0,021	0,037
-541,481	144,605	-0,090	-0,086
-540,466	-51,484	0,100	0,033
-539,452	800,000	0,039	-0,081
-538,437	-200,000	0,004	-0,097
-537,423	133,789	0,088	-0,082
-536,408	111,339	-0,060	0,052
-535,393	800,000	0,012	0,038
-534,379	91,885	0,045	0,036
-533,364	-61,421	0,066	0,020
-532,350	138,399	0,075	-0,071
-531,335	-200,000	-0,001	0,022
-530,321	-60,153	-0,103	-0,032
-529,306	-200,000	-0,004	-0,127
-528,291	22,604	-0,080	-0,047
-527,277	-200,000	-0,039	-0,179
-526,262	50,193	-0,089	0,060
-525,248	-200,000	0,024	0,108
-524,233	-35,296	0,110	0,043
-523,218	-200,000	-0,020	0,068
-522,204	94,209	0,084	-0,068
-521,189	157,282	-0,090	-0,090
-520,175	797,412	0,023	0,045
-519,160	442,024	0,037	-0,058
-518,145	623,216	-0,040	0,074
-517,131	92,906	0,005	-0,004
-516,116	83,371	-0,030	0,024
-515,102	-155,397	-0,092	-0,004
-514,087	311,875	0,067	-0,091
-513,072	800,000	0,018	0,050
-512,058	-72,137	0,045	-0,012
-511,043	-200,000	0,008	0,067
-510,029	-200,000	-0,015	0,078
-509,014	7,008	0,039	-0,021
-507,999	800,000	-0,043	0,128
-506,985	-200,000	-0,012	-0,057
-505,970	-200,000	0,024	0,087
-504,956	62,160	-0,125	-0,090
-503,941	-200,000	0,002	-0,092
-502,926	350,425	0,007	0,010
-501,912	-200,000	0,004	0,048
-500,897	800,000	0,062	0,129
-499,883	308,771	-0,092	-0,124
-498,868	-72,801	-0,140	-0,037
-497,853	-54,384	-0,077	-0,025
-496,839	800,000	-0,060	0,153
-495,824	-200,000	0,028	0,000
-494,810	-200,000	0,012	0,118
-493,795	-200,000	0,030	0,171
-492,781	-163,854	-0,091	0,003
-491,766	-200,000	0,012	0,052
-490,751	-106,347	-0,137	-0,022
-489,737	-46,274	0,048	-0,017
-488,722	428,107	0,078	-0,122
-487,708	-200,000	-0,014	0,117
-486,693	-200,000	0,000	0,094
-485,678	-200,000	0,001	-0,085
-484,664	-200,000	-0,006	-0,151
-483,649	325,260	-0,091	-0,126
-482,635	93,664	0,074	0,060
-481,620	243,709	-0,144	0,174
-480,605	227,045	-0,079	-0,093
-479,591	-84,251	0,054	-0,012
-478,576	446,459	0,052	0,083
-477,562	-200,000	0,016	-0,087
-476,547	-58,584	-0,077	-0,024
-475,532	800,000	0,028	-0,056
-474,518	18,444	0,091	0,052
-473,503	-200,000	-0,020	0,073
-472,489	346,527	0,055	-0,078
-471,474	-200,000	0,028	0,109
-470,459	800,000	-0,030	-0,081
-469,445	-200,000	-0,000	-0,156
-468,430	147,816	0,085	0,082
-467,416	-54,783	0,066	0,021
-466,401	639,140	0,016	0,030
-465,386	-62,071	0,203	0,060
-464,372	-104,956	-0,122	0,020
-463,357	116,597	-0,068	-0,060
-462,343	-113,397	-0,288	-0,040
-461,328	800,000	0,008	-0,022
-460,313	-85,068	0,020	-0,005
-459,299	206,723	-0,075	0,084
-458,284	-121,912	0,084	-0,010
-457,270	665,123	-0,036	-0,067
-456,255	308,737	-0,016	0,022
-455,241	-33,925	-0,087	-0,034
-454,226	-156,655	0,163	-0,007
-453,211	80,979	-0,040	-0,031
-452,197	96,433	0,045	-0,037
-451,182	128,553	0,149	-0,136
-450,168	-200,000	-0,007	-0,043
-449,153	-94,187	0,035	-0,007
-448,138	-105,257	-0,043	-0,007
-447,124	800,000	0,024	-0,067
-446,109	361,863	-0,053	0,077
-445,095	399,586	0,063	0,095
-444,080	21,255	0,056	0,032
-443,065	-200,000	-0,022	-0,075
-442,051	244,982	0,069	0,083
-441,036	-200,000	0,001	0,077
-440,022	594,634	-0,046	0,082
-439,007	-200,000	-0,015	0,169
-437,992	-200,000	0,013	0,068
-436,978	-200,000	-0,025	-0,083
-435,963	-47,865	-0,082	-0,028
-434,949	672,590	-0,019	-0,036
-433,934	800,000	0,019	0,042
-432,919	-200,000	-0,019	0,092
-431,905	21,472	0,015	-0,009
-430,890	-39,114	-0,045	0,017
-429,876	83,575	0,002	-0,002
-428,861	800,000	-0,030	-0,070
-427,846	-200,000	0,015	-0,152
-426,832	-200,000	0,013	-0,056
-425,817	-90,231	-0,047	-0,010
-424,803	-21,908	-0,098	-0,043
-423,788	331,580	0,079	-0,109
-422,773	-29,064	0,061	-0,025
-421,759	-200,000	0,031	0,148
-420,744	160,176	0,056	-0,056
-419,730	68,743	-0,048	0,035
-418,715	158,097	0,025	-0,025
-417,701	-142,884	-0,099	0,007
-416,686	-98,013	0,182	-0,033
-415,671	-200,000	0,007	0,124
-414,657	267,898	0,032	0,040
-413,642	-55,893	-0,113	-0,036
-412,628	-61,618	-0,036	-0,011
-411,613	29,511	0,074	0,045
-410,598	4,127	-0,045	0,023
-409,584	-40,430	0,118	0,044
-408,569	-84,793	0,052	-0,012
-407,555	-124,790	-0,143	0,016
-406,540	734,773	0,047	0,090
-405,525	228,661	0,014	0,016
-404,511	246,093	-0,138	-0,167
-403,496	800,000	0,034	-0,090
-402,482	116,712	0,074	-0,065
-401,467	-200,000	-0,012	-0,076
-400,452	35,662	0,034	0,022
-399,438	-75,218	-0,132	0,034
-398,423	31,345	0,038	-0,023
-397,409	-200,000	0,005	0,032
-396,394	-54,421	-0,034	-0,011
-395,379	41,940	-0,087	0,056
-394,365	-200,000	0,017	0,160
-393,350	800,000	0,051	0,110
-392,336	626,893	0,061	0,111
-391,321	-200,000	-0,008	-0,044
-390,306	-1,418	0,026	0,013
-389,292	-200,000	-0,006	-0,082
-388,277	-78,398	0,095	0,023
-387,263	66,525	0,083	0,061
-386,248	-20,447	0,128	0,056
-385,233	324,349	0,027	0,038
-384,219	347,698	-0,078	-0,110
-383,204	688,998	0,032	0,061
-382,190	-102,914	-0,111	-0,019
-381,175	-138,100	0,068	-0,005
-380,160	424,349	-0,027	0,042
-379,146	-63,521	0,083	0,024
-378,131	-122,598	-0,139	0,016
-377,117	395,879	-0,043	-0,065
-376,102	312,423	-0,056	-0,075
-375,088	-107,312	-0,130	-0,020
-374,073	800,000	-0,032	-0,063
-373,058	420,323	0,034	-0,053
-372,044	-77,432	0,108	0,027
-371,029	800,000	0,070	0,139
-370,015	-30,881	0,089	0,036
-369,000	-55,070	0,015	-0,005
-367,985	637,331	0,039	-0,071
-366,971	-200,000	0,000	0,044
-365,956	-200,000	-0,012	-0,065
-364,942	-128,327	-0,067	0,007
-363,927	-200,000	0,000	0,040
-362,912	-200,000	-0,025	-0,109
-361,898	800,000	-0,039	-0,116
-360,883	-200,000	0,010	0,057
-359,869	464,430	0,067	-0,108
-358,854	800,000	-0,029	0,083
-357,839	-115,336	0,094	-0,013
-356,825	-200,000	0,011	-0,119
-355,810	375,011	-0,018	-0,026
-354,796	-11,226	0,114	-0,054
-353,781	-200,000	0,004	-0,038
-352,766	49,746	-0,162	-0,109
-351,752	-37,469	-0,040	0,015
-350,737	-200,000	0,033	-0,111
-349,723	-200,000	0,047	0,223
-348,708	6,994	-0,057	-0,030
-347,693	-32,922	-0,083	0,033
-346,679	50,869	0,070	-0,047
-345,664	800,000	-0,040	-0,081
-344,650	-161,432	0,057	-0,002
-343,635	-200,000	-0,003	0,028
-342,620	800,000	0,045	0,107
-341,606	491,756	0,059	0,096
-340,591	-103,825	0,078	0,013
-339,577	122,790	-0,052	0,047
-338,562	-66,088	-0,046	0,013
-337,548	152,836	-0,075	0,074
-336,533	13,034	0,047	0,026
-335,518	-200,000	0,014	0,051
-334,504	203,248	0,070	0,077
-333,489	-200,000	0,001	0,032
-332,475	-65,673	-0,082	-0,023
-331,460	307,045	-0,047	-0,063
-330,445	-200,000	-0,009	-0,053
-329,431	-200,000	-0,023	0,124
-328,416	-1,282	0,042	0,021
-327,402	101,291	-0,053	0,044
-326,387	186,412	-0,114	0,122
-325,372	34,504	-0,129	-0,080
-324,358	288,762	0,055	-0,071
-323,343	-37,002	-0,135	-0,051
-322,329	439,788	0,030	-0,047
-321,314	-200,000	0,007	-0,027
-320,299	-64,114	-0,041	-0,012
-319,285	-200,000	0,039	0,149
-318,270	70,464	-0,054	0,040
-317,256	236,031	-0,027	-0,032
-316,241	8,977	-0,088	-0,048
-315,226	-191,274	-0,046	0,000
-314,212	-200,000	-0,040	0,163
-313,197	258,323	0,074	0,092
-312,183	-200,000	0,008	0,076
-311,168	-100,242	-0,061	-0,011
-310,153	-128,513	0,134	0,013
-309,139	166,443	-0,080	-0,081
-308,124	-123,170	0,135	0,015
-307,110	-39,199	0,160	0,060
-306,095	383,608	0,013	-0,019
-305,080	800,000	0,029	0,086
-304,066	37,752	-0,197	-0,125
-303,051	530,139	-0,026	-0,045
-302,037	-200,000	-0,002	0,043
-301,022	-105,235	0,086	0,014
-300,008	-200,000	-0,021	0,082
-298,993	-200,000	0,019	0,104
-297,978	-92,975	0,073	-0,014
-296,964	139,925	0,032	-0,030
-295,949	738,712	-0,012	0,023
-294,935	800,000	-0,061	-0,175
-293,920	-56,399	-0,082	0,026
-292,905	582,395	0,051	0,090
-291,891	-67,201	0,089	0,025
-290,876	-200,000	0,001	0,073
-289,862	-130,131	-0,103	0,010
-288,847	62,037	-0,086	0,061
-287,832	412,795	0,108	-0,165
-286,818	-152,231	-0,045	0,002
-285,803	135,536	0,080	0,075
-284,789	106,000	0,089	-0,075
-283,774	-136,019	0,064	0,005
-282,759	221,682	-0,032	-0,037
-281,745	118,562	-0,117	-0,104
-280,730	-197,525	0,075	-0,000
-279,716	253,690	-0,053	-0,065
-278,701	-200,000	-0,023	-0,116
-277,686	363,426	0,027	-0,038
-276,672	-200,000	-0,001	-0,033
-275,657	205,659	0,027	-0,031
-274,643	37,591	-0,026	0,016
-273,628	800,000	0,040	-0,088
-272,613	-53,960	-0,041	0,013
-271,599	-90,562	0,113	0,023
-270,584	-60,716	0,094	0,028
-269,570	-200,000	0,022	0,080
-268,555	-200,000	0,016	-0,056
-267,540	115,315	0,084	0,074
-266,526	800,000	0,053	-0,108
-265,511	-200,000	-0,013	-0,140
-264,497	800,000	0,034	0,070
-263,482	-62,559	-0,059	0,017
-262,467	519,543	0,085	0,143
-261,453	50,134	-0,010	-0,007
-260,438	-200,000	-0,045	-0,153
-259,424	-200,000	0,035	-0,128
-258,409	-153,837	-0,061	0,003
-257,395	-200,000	0,003	0,161
-256,380	-114,638	0,104	-0,014
-255,365	8,976	0,072	-0,039
-254,351	-89,170	-0,131	-0,027
-253,336	42,120	-0,081	0,052
-252,322	-84,625	0,100	-0,022
-251,307	-159,177	-0,103	0,004
-250,292	377,554	-0,090	0,132
-249,278	800,000	0,039	-0,080
-248,263	125,958	0,045	0,040
-247,249	46,645	-0,015	0,010
-246,234	-200,000	-0,010	-0,066
-245,219	180,984	0,088	0,092
-244,205	-200,000	-0,014	0,050
-243,190	-25,576	-0,096	-0,040
-242,176	-200,000	-0,023	0,112
-241,161	800,000	-0,007	0,018
-240,146	-200,000	0,009	0,147
-239,132	230,611	-0,074	-0,086
-238,117	-45,215	-0,195	-0,069
-237,103	89,191	0,095	-0,076
-236,088	800,000	-0,039	-0,078
-235,073	-200,000	-0,013	0,104
-234,059	-3,180	0,157	-0,078
-233,044	788,449	0,074	-0,145
-232,030	-200,000	0,013	0,056
-231,015	126,113	-0,097	-0,087
-230,000	-200,000	-0,024	-0,184
-228,986	-46,292	0,107	0,037
-227,971	-200,000	-0,069	0,000
-226,957	-200,000	-0,006	0,048
-225,942	-62,293	-0,117	0,034
-224,927	61,237	0,170	0,120
-223,913	145,119	0,096	-0,092
-222,898	327,098	-0,063	0,087
-221,884	21,054	-0,005	-0,003
-220,869	137,892	0,057	0,054
-219,855	800,000	-0,053	0,107
-218,840	-200,000	-0,014	0,059
-217,825	57,700	-0,100	0,070
-216,811	97,065	-0,178	-0,146
-215,796	-143,298	-0,038	-0,003
-214,782	-200,000	-0,014	-0,120
-213,767	800,000	0,009	-0,024
-212,752	82,810	0,119	0,092
-211,738	-44,050	0,081	0,029
-210,723	-200,000	-0,062	0,000
-209,709	-200,000	0,007	-0,039
-208,694	-200,000	-0,023	-0,114
-207,679	-200,000	0,019	-0,092
-206,665	800,000	-0,028	0,063
-205,650	800,000	0,045	0,099
-204,636	434,910	-0,038	0,058
-203,621	72,324	-0,133	0,099
-202,606	-200,000	-0,025	-0,135
-201,592	-200,000	-0,009	-0,037
-200,577	361,710	0,014	-0,020
-199,563	-29,658	0,075	0,030
-198,548	-122,803	0,150	-0,017
-197,533	-49,539	0,039	0,013
-196,519	-200,000	0,052	0,197
-195,504	311,893	0,029	-0,039
-194,490	-200,000	-0,005	-0,050
-193,475	-165,385	-0,099	0,003
-192,460	-200,000	0,009	-0,082
-191,446	-5,998	0,116	0,056
-190,431	-200,000	-0,053	0,206
-189,417	202,233	0,019	0,021
-188,402	-46,381	-0,060	-0,021
-187,387	-104,667	0,033	0,005
-186,373	-56,246	-0,096	-0,030
-185,358	-200,000	0,006	-0,021
-184,344	83,032	0,098	-0,076
-183,329	-41,461	0,153	0,056
-182,315	-148,369	0,102	-0,006
-181,300	161,502	-0,070	0,070
-180,285	-200,000	-0,014	0,106
-179,271	-168,372	0,044	0,001
-178,256	276,107	-0,035	-0,044
-177,242	-47,459	0,192	0,066
-176,227	225,055	-0,098	0,113
-175,212	-59,076	0,078	-0,024
-174,198	160,296	-0,055	0,055
-173,183	-174,376	0,070	-0,001
-172,169	800,000	-0,018	0,054
-171,154	84,148	-0,062	0,048
-170,139	11,743	-0,109	0,059
-169,125	-19,278	0,087	0,038
-168,110	448,278	0,045	0,070
-167,096	248,395	-0,048	-0,058
-166,081	-200,000	-0,019	0,166
-165,066	-117,244	0,099	0,013
-164,052	88,745	0,098	-0,077
-163,037	-200,000	-0,039	0,123
-162,023	94,212	0,011	0,009
-161,008	0,703	0,098	0,050
-159,993	-200,000	-0,015	0,104
-158,979	7,778	0,106	0,056
-157,964	-33,366	-0,150	-0,059
-156,950	-200,000	0,001	0,040
-155,935	18,812	0,158	0,090
-154,920	-200,000	-0,030	0,099
-153,906	-200,000	0,006	0,025
-152,891	203,948	-0,030	-0,033
-151,877	480,373	0,055	-0,089
-150,862	-110,394	0,063	0,009
-149,847	407,150	0,050	-0,076
-148,833	86,063	-0,041	0,032
-147,818	-200,000	-0,009	0,028
-146,804	800,000	0,022	-0,046
-145,789	26,554	-0,026	0,015
-144,775	38,489	-0,049	0,031
-143,760	157,617	-0,023	-0,022
-142,745	262,603	-0,042	0,052
-141,731	-200,000	-0,028	-0,159
-140,716	-153,660	-0,027	-0,001
-139,702	87,251	0,193	0,152
-138,687	103,214	-0,043	-0,036
-137,672	800,000	0,026	0,062
-136,658	86,250	-0,030	-0,024
-135,643	800,000	-0,004	0,012
-134,629	183,822	0,034	-0,035
-133,614	-86,674	-0,159	-0,034
-132,599	-49,649	0,068	-0,023
-131,585	-200,000	-0,009	0,116
-130,570	-105,959	-0,175	-0,028
-129,556	-200,000	-0,005	-0,046
-128,541	-107,144	-0,052	-0,008
-127,526	47,952	-0,019	-0,013
-126,512	419,260	-0,070	0,107
-125,497	-200,000	0,034	0,108
-124,483	132,528	0,015	0,014
-123,468	800,000	-0,012	0,035
-122,453	-200,000	-0,036	-0,189
-121,439	-200,000	0,005	-0,059
-120,424	-99,076	-0,076	0,014
-119,410	-200,000	0,020	-0,119
-118,395	-200,000	-0,016	0,089
-117,380	-200,000	0,017	-0,109
-116,366	-24,443	0,076	-0,032
-115,351	-200,000	0,014	-0,143
-114,337	10,068	-0,164	-0,088
-113,322	202,055	0,039	-0,042
-112,307	26,293	-0,122	0,072
-111,293	-200,000	0,003	0,024
-110,278	800,000	-0,043	0,114
-109,264	177,746	-0,080	0,083
-108,249	138,942	-0,067	-0,062
-107,234	44,297	-0,125	-0,082
-106,220	-110,433	-0,047	0,007
-105,205	-177,714	0,076	0,001
-104,191	-103,949	0,051	-0,008
-103,176	800,000	0,055	0,140
-102,162	184,957	-0,040	0,042
-101,147	301,251	-0,095	-0,125
-100,132	60,402	-0,089	-0,062
-99,118	151,045	0,099	-0,095
-98,103	101,014	-0,054	0,045
-97,089	75,514	0,035	-0,026
-96,074	800,000	-0,012	0,031
-95,059	197,605	-0,072	0,078
-94,045	288,609	-0,069	-0,089
-93,030	156,329	-0,022	-0,022
-92,016	122,039	-0,053	-0,047
-91,001	168,306	0,062	0,063
-89,986	-200,000	0,001	-0,021
-88,972	199,186	-0,052	-0,057
-87,957	132,046	0,022	0,020
-86,943	-166,983	-0,069	-0,002
-85,928	269,310	-0,076	-0,095
-84,913	73,059	-0,089	0,066
-83,899	-200,000	-0,037	-0,132
-82,884	-86,620	0,143	0,031
-81,870	-200,000	-0,021	0,082
-80,855	105,235	0,092	-0,077
-79,840	11,186	0,076	0,041
-78,826	-41,428	-0,057	-0,021
-77,811	196,970	0,053	-0,057
-76,797	50,886	-0,099	0,067
-75,782	-96,910	0,067	-0,012
-74,767	455,913	0,088	0,140
-73,753	800,000	0,045	0,098
-72,738	34,876	0,035	0,021
-71,724	-98,208	-0,064	0,012
-70,709	-200,000	0,032	-0,150
-69,694	279,924	-0,027	-0,034
-68,680	800,000	0,013	0,026
-67,665	-200,000	0,005	-0,026
-66,651	176,538	-0,082	0,085
-65,636	-200,000	-0,001	-0,043
-64,622	-68,760	-0,040	0,011
-63,607	-156,408	-0,067	0,003
-62,592	-200,000	-0,009	0,059
-61,578	-200,000	-0,026	0,154
-60,563	-167,915	0,071	0,002
-59,549	-200,000	0,025	0,095
-58,534	-24,910	-1,447	-0,606
-57,519	339,092	-1,470	-2,034
-56,505	-200,000	-0,728	-4,559
-55,490	178,615	0,946	0,980
-54,476	800,000	4,904	11,643
-53,461	-200,000	18,926	312,658
-52,446	-200,000	739,103	2323,533
-51,432	575,022	1655,512	2873,421
-50,417	79,048	1671,584	1266,572
-49,403	21,809	1544,386	888,769
-48,388	15,680	1466,917	814,376
-47,373	17,784	1457,003	819,012
-46,359	16,791	1447,017	808,601
-45,344	13,971	1442,590	792,575
-44,330	13,882	1440,675	791,067
-43,315	13,837	1438,934	789,864
-42,300	13,913	1437,142	789,211
-41,286	13,948	1435,857	788,644
-40,271	13,861	1434,751	787,591
-39,257	13,888	1433,378	786,933
-38,242	13,952	1432,074	786,492
-37,227	13,951	1430,861	785,787
-36,213	13,972	1429,541	785,134
-35,198	13,949	1428,332	784,325
-34,184	13,938	1427,437	783,753
-33,169	13,933	1426,271	783,058
-32,154	13,986	1424,947	782,551
-31,140	13,946	1423,791	781,696
-30,125	13,960	1422,782	781,179
-29,111	13,931	1421,631	780,378
-28,096	13,921	1420,544	779,701
-27,082	13,860	1419,283	778,693
-26,067	13,854	1418,143	778,007
-25,052	13,859	1417,156	777,460
-24,038	13,830	1416,324	776,836
-23,023	13,818	1415,251	776,160
-22,009	13,830	1414,226	775,624
-20,994	13,834	1413,348	775,127
-19,979	13,800	1412,422	774,428
-18,965	13,803	1411,583	773,955
-17,950	13,769	1410,492	773,165
-16,936	13,777	1409,644	772,709
-15,921	13,759	1408,385	771,903
-14,906	13,770	1407,758	771,580
-13,892	13,759	1406,625	770,875
-12,877	13,779	1405,993	770,593
-11,863	13,740	1404,926	769,794
-10,848	13,755	1404,007	769,329
-9,833	13,675	1403,192	768,481
-8,819	13,718	1402,271	768,144
-7,804	13,661	1401,266	767,298
-6,790	13,656	1400,267	766,700
-5,775	13,660	1399,334	766,177
-4,760	13,683	1398,407	765,746
-3,746	13,699	1397,393	765,233
-2,731	13,625	1396,814	764,544
-1,717	13,689	1395,575	764,129
-0,702	13,608	1393,994	762,862
0,313	17,358	1311,397	735,079
1,327	33,403	705,399	432,568
2,342	51,518	123,688	83,056
3,356	1,423	16,680	8,460
4,371	-9,210	3,295	1,553
5,386	-27,088	0,460	0,189
6,400	463,964	0,100	0,158
7,415	16,067	-0,085	-0,047
8,429	-50,816	-0,387	-0,128
9,444	23,102	-0,351	-0,203
10,459	51,185	-0,240	-0,161
11,473	156,718	-0,237	-0,232
12,488	7,074	-0,327	-0,172
13,502	-60,633	-0,257	-0,077
14,517	85,381	-0,263	-0,204
15,531	106,137	-0,484	-0,405
16,546	-14,465	-0,354	-0,160
17,561	156,928	-0,391	-0,382
18,575	144,840	-0,114	-0,108
19,590	336,921	-0,208	-0,286
20,604	54,349	-0,231	-0,157
21,619	100,315	-0,462	-0,379
22,634	125,695	-0,390	-0,348
23,648	64,877	-0,364	-0,259
24,663	25,107	-0,352	-0,206
25,677	29,780	-0,288	-0,173
26,692	25,201	-0,353	-0,207
27,707	2,010	-0,436	-0,221
28,721	1,424	-0,374	-0,189
29,736	132,054	-0,329	-0,299
30,750	44,257	-0,520	-0,336
31,765	98,811	-0,483	-0,394
32,780	95,415	-0,302	-0,243
33,794	9,685	-0,478	-0,255
34,809	800,000	-0,126	-0,285
35,823	142,992	-0,293	-0,275
36,838	7,464	-0,469	-0,247
37,853	188,495	-0,305	-0,322
38,867	213,625	-0,316	-0,353
39,882	233,883	-0,266	-0,310
40,896	145,295	-0,338	-0,320
41,911	38,337	-0,379	-0,238
42,926	155,705	-0,386	-0,375
43,940	21,919	-0,400	-0,229
44,955	143,536	-0,362	-0,340
45,969	-24,336	-0,407	-0,170
46,984	104,600	-0,339	-0,281
47,999	166,530	-0,337	-0,337
49,013	-3,724	-0,290	-0,142
50,028	55,760	-0,292	-0,199
51,042	93,158	-0,349	-0,278
52,057	26,656	-0,325	-0,191
53,071	16,073	-0,483	-0,268
54,086	61,374	-0,370	-0,259
55,101	77,714	-0,311	-0,233
56,115	-148,997	-0,273	-0,015
57,130	35,868	-0,394	-0,243
58,144	204,481	-0,262	-0,287
59,159	49,226	-0,325	-0,215
60,174	39,089	-0,309	-0,194
61,188	19,143	-0,307	-0,173
62,203	-24,167	-0,418	-0,175
63,217	70,238	-0,280	-0,203
64,232	244,985	-0,238	-0,282
65,247	49,652	-0,309	-0,204
66,261	141,073	-0,296	-0,275
67,276	-75,618	-0,512	-0,127
68,290	171,013	-0,248	-0,251
69,305	-18,252	-0,242	-0,106
70,320	66,759	-0,284	-0,203
71,334	-47,660	-0,365	-0,124
72,349	7,488	-0,399	-0,209
73,363	-44,002	-0,351	-0,123
74,378	154,768	-0,355	-0,343
75,393	183,399	-0,193	-0,200
76,407	432,883	-0,130	-0,199
77,422	6,255	-0,248	-0,129
78,436	130,016	-0,322	-0,290
79,451	116,608	-0,375	-0,323
80,466	-27,069	-0,339	-0,138
81,480	216,992	-0,238	-0,267
82,495	232,469	-0,256	-0,296
83,509	45,545	-0,211	-0,137
84,524	62,863	-0,231	-0,162
85,539	76,210	-0,302	-0,224
86,553	99,069	-0,320	-0,260
87,568	20,407	-0,375	-0,213
88,582	-13,421	-0,364	-0,165
89,597	7,952	-0,375	-0,197
90,611	99,942	-0,194	-0,158
91,626	44,499	-0,256	-0,165
92,641	27,402	-0,212	-0,125
93,655	-121,160	-0,290	-0,034
94,670	-17,636	-0,324	-0,143
95,684	100,303	-0,314	-0,256
96,699	110,469	-0,291	-0,245
97,714	52,527	-0,305	-0,204
98,728	-7,216	-0,256	-0,121
99,743	60,535	-0,248	-0,172
100,757	-97,070	-0,419	-0,076
101,772	132,278	-0,220	-0,199
102,787	-89,404	-0,293	-0,060
103,801	-44,172	-0,434	-0,152
104,816	29,539	-0,342	-0,204
105,830	19,857	-0,250	-0,141
106,845	164,509	-0,239	-0,237
107,860	-0,696	-0,193	-0,095
108,874	132,654	-0,207	-0,187
109,889	304,565	-0,160	-0,209
110,903	41,481	-0,251	-0,159
111,918	72,321	-0,223	-0,163
112,933	-115,090	-0,200	-0,026
113,947	-200,000	-0,070	-0,282
114,962	97,190	-0,284	-0,228
115,976	708,410	-0,166	-0,309
116,991	26,687	-0,279	-0,163
118,006	56,025	-0,308	-0,209
119,020	104,967	-0,312	-0,257
120,035	0,725	-0,239	-0,120
121,049	139,191	-0,197	-0,181
122,064	77,965	-0,191	-0,142
123,079	-44,940	-0,190	-0,066
124,093	-22,067	-0,264	-0,112
125,108	406,068	-0,192	-0,285
126,122	630,662	-0,135	-0,239
127,137	298,743	-0,171	-0,221
128,151	98,929	-0,227	-0,184
129,166	-109,618	-0,306	-0,045
130,181	64,527	-0,240	-0,169
131,195	149,475	-0,214	-0,203
132,210	166,667	-0,343	-0,341
133,224	-6,432	-0,389	-0,185
134,239	114,393	-0,381	-0,325
135,254	259,774	-0,211	-0,255
136,268	68,137	-0,277	-0,198
137,283	502,104	-0,207	-0,336
138,297	267,734	-0,236	-0,290
139,312	-46,770	-0,201	-0,068
140,327	198,980	-0,174	-0,186
141,341	38,307	-0,319	-0,198
142,356	-41,472	-0,361	-0,129
143,370	25,915	-0,298	-0,173
144,385	-17,127	-0,243	-0,107
145,400	280,388	-0,187	-0,234
146,414	-81,633	-0,205	-0,047
147,429	154,092	-0,248	-0,238
148,443	-15,169	-0,290	-0,129
149,458	43,111	-0,284	-0,180
150,473	130,025	-0,206	-0,184
151,487	-176,251	-0,266	0,005
152,502	120,672	-0,224	-0,195
153,516	115,048	-0,224	-0,191
154,531	147,931	-0,272	-0,256
155,546	387,623	-0,215	-0,312
156,560	213,022	-0,108	-0,119
157,575	-18,079	-0,230	-0,100
158,589	217,180	-0,236	-0,263
159,604	129,340	-0,289	-0,258
160,619	-65,900	-0,273	-0,076
161,633	164,488	-0,255	-0,251
162,648	-62,870	-0,391	-0,112
163,662	49,195	-0,169	-0,110
164,677	39,598	-0,334	-0,209
165,692	115,881	-0,208	-0,178
166,706	9,823	-0,209	-0,110
167,721	164,342	-0,242	-0,238
168,735	194,565	-0,266	-0,281
169,750	-61,794	-0,265	-0,077
170,764	61,595	-0,333	-0,231
171,779	2,109	-0,161	-0,081
172,794	283,061	-0,192	-0,241
173,808	373,778	-0,150	-0,213
174,823	112,612	-0,269	-0,227
175,837	-117,622	-0,419	-0,052
176,852	90,011	-0,143	-0,111
177,867	18,074	-0,354	-0,196
178,881	-16,109	-0,214	-0,095
179,896	137,548	-0,193	-0,176
180,910	299,259	-0,182	-0,234
181,925	2,060	-0,193	-0,097
182,940	706,173	-0,139	-0,257
183,954	-109,370	-0,235	-0,034
184,969	-10,536	-0,027	-0,013
185,983	37,275	-0,219	-0,135
186,998	-73,764	-0,114	-0,029
188,013	4,680	-0,208	-0,106
189,027	214,576	-0,205	-0,227
190,042	257,622	-0,162	-0,194
191,056	96,628	-0,266	-0,212
192,071	-162,944	-0,160	0,005
193,086	470,465	-0,166	-0,260
194,100	-185,778	-0,181	0,002
195,115	13,610	-0,297	-0,160
196,129	-136,547	-0,204	-0,016
197,144	234,781	-0,126	-0,144
198,159	11,962	-0,193	-0,103
199,173	253,764	-0,162	-0,193
200,188	80,031	-0,153	-0,115
201,202	-23,026	-0,142	-0,059
202,217	-23,093	-0,318	-0,133
203,232	39,222	-0,261	-0,162
204,246	549,675	-0,098	-0,164
205,261	65,825	-0,184	-0,129
206,275	175,049	-0,174	-0,175
207,290	-151,622	-0,164	0,008
208,304	-114,758	-0,197	-0,026
209,319	24,154	-0,280	-0,160
210,334	-200,000	-0,039	-0,241
211,348	-23,323	-0,245	-0,102
212,363	48,774	-0,236	-0,153
213,377	79,297	-0,216	-0,160
214,392	233,029	-0,150	-0,172
215,407	28,267	-0,231	-0,135
216,421	83,751	-0,167	-0,126
217,436	82,391	-0,195	-0,147
218,450	800,000	-0,080	-0,217
219,465	-51,168	-0,239	-0,077
220,480	-183,881	-0,255	-0,003
221,494	138,278	-0,188	-0,171
222,509	-139,116	-0,200	-0,015
223,523	-99,080	-0,182	-0,032
224,538	81,487	-0,189	-0,141
225,553	-58,967	-0,328	-0,098
226,567	73,265	-0,228	-0,166
227,582	7,830	-0,225	-0,117
228,596	800,000	-0,078	-0,170
229,611	-41,900	-0,253	-0,089
230,626	124,821	-0,177	-0,155
231,640	-75,100	-0,196	-0,048
232,655	3,121	-0,146	-0,073
233,669	432,249	-0,217	-0,328
234,684	-13,894	-0,259	-0,116
235,699	50,932	-0,047	-0,031
236,713	326,044	-0,095	-0,126
237,728	-41,350	-0,134	-0,048
238,742	-108,466	-0,093	-0,014
239,757	163,952	-0,193	-0,189
240,772	183,968	-0,235	-0,242
241,786	189,440	-0,229	-0,238
242,801	118,875	-0,130	-0,112
243,815	274,433	-0,175	-0,215
244,830	59,616	-0,138	-0,094
245,844	-0,105	-0,292	-0,144
246,859	103,570	-0,217	-0,176
247,874	185,052	-0,288	-0,297
248,888	217,454	-0,222	-0,246
249,903	-15,112	-0,199	-0,088
250,917	286,913	-0,070	-0,087
251,932	27,329	-0,248	-0,144
252,947	352,217	-0,141	-0,194
253,961	-72,120	-0,227	-0,058
254,976	-75,401	-0,187	-0,046
255,990	283,203	-0,180	-0,225
257,005	18,390	-0,200	-0,110
258,020	-72,592	-0,191	-0,048
259,034	103,211	-0,106	-0,086
260,049	-28,695	-0,224	-0,089
261,063	-200,000	-0,032	-0,125
262,078	109,900	-0,173	-0,143
263,093	58,065	-0,230	-0,155
264,107	111,143	-0,147	-0,122
265,122	145,177	-0,144	-0,133
266,136	121,309	-0,161	-0,139
267,151	-40,224	-0,296	-0,106
268,166	-22,627	-0,245	-0,102
269,180	-36,990	-0,152	-0,056
270,195	15,297	-0,201	-0,109
271,209	75,146	-0,167	-0,122
272,224	-110,700	-0,149	-0,021
273,239	-200,000	-0,040	-0,198
274,253	-14,628	-0,127	-0,056
275,268	49,445	-0,188	-0,122
276,282	280,074	-0,145	-0,179
277,297	516,860	-0,105	-0,170
278,312	242,193	-0,181	-0,209
279,326	-69,936	-0,235	-0,061
280,341	-18,957	-0,030	-0,013
281,355	2,166	-0,183	-0,091
282,370	266,169	-0,104	-0,126
283,384	149,221	-0,186	-0,174
284,399	-83,798	-0,235	-0,051
285,414	-101,293	-0,153	-0,026
286,428	328,093	-0,075	-0,099
287,443	-167,563	-0,248	0,007
288,457	-138,687	-0,206	-0,015
289,472	130,309	-0,144	-0,127
290,487	-121,663	-0,237	0,027
291,501	38,562	-0,234	-0,144
292,516	178,797	-0,229	-0,232
293,530	-97,592	-0,120	0,021
294,545	-200,000	-0,100	-0,000
295,560	-4,639	-0,145	-0,069
296,574	42,058	-0,156	-0,098
297,589	141,246	-0,173	-0,158
298,603	109,457	-0,240	-0,198
299,618	31,717	-0,185	-0,110
300,633	292,142	-0,151	-0,191
301,647	38,511	-0,080	-0,049
302,662	28,235	-0,104	-0,061
303,676	-2,018	-0,186	-0,090
304,691	79,701	-0,181	-0,134
305,706	113,566	-0,060	-0,050
306,720	-95,110	-0,210	0,039
307,735	95,605	-0,116	-0,091
308,749	-200,000	-0,027	-0,103
309,764	62,458	-0,220	-0,152
310,779	146,562	-0,133	-0,123
311,793	124,715	-0,126	-0,109
312,808	13,076	-0,089	-0,048
313,822	142,994	-0,098	-0,090
314,837	103,883	-0,167	-0,135
315,852	246,338	-0,072	-0,083
316,866	520,218	-0,063	-0,102
317,881	800,000	-0,048	-0,145
318,895	7,055	-0,187	-0,096
319,910	-200,000	-0,022	-0,122
320,925	179,172	-0,130	-0,131
321,939	92,899	-0,205	-0,159
322,954	-133,880	-0,065	0,005
323,968	-200,000	0,023	-0,222
324,983	800,000	-0,104	-0,233
325,997	161,368	-0,157	-0,151
327,012	-83,298	-0,129	0,028
328,027	800,000	-0,045	-0,096
329,041	160,226	-0,185	-0,178
330,056	-200,000	-0,048	-0,191
331,070	26,595	-0,095	-0,055
332,085	23,749	-0,249	-0,141
333,100	-96,151	-0,237	-0,043
334,114	-72,648	-0,118	-0,030
335,129	32,516	-0,091	-0,054
336,143	224,232	-0,074	-0,083
337,158	164,215	-0,152	-0,147
338,173	131,147	-0,099	-0,088
339,187	-18,042	-0,086	0,037
340,202	-54,975	-0,103	0,032
341,216	-23,537	-0,187	-0,077
342,231	161,170	-0,098	-0,094
343,246	-3,785	-0,173	0,082
344,260	-117,387	-0,157	-0,019
345,275	-56,143	-0,158	-0,048
346,289	5,057	-0,201	0,102
347,304	-72,342	-0,207	-0,052
348,319	217,029	-0,065	-0,071
349,333	178,845	-0,144	-0,145
350,348	-200,000	-0,001	-0,140
351,362	80,306	-0,102	-0,076
352,377	-172,171	-0,150	0,003
353,392	96,813	0,041	-0,032
354,406	-200,000	0,012	-0,130
355,421	209,750	1315,653	1417,407
356,435	161,448	1476,473	1417,893
