DTS Sentinel unit serial number:	SN410029Multiplexer serial number:	ORYXHardware model number:	OX2-SRSoftware version number:	ORYX F/W v4,00 Oryx Data Collector v3.7.2.0data status	okinstallation	B3 Nyhavnadifferential loss correction	single-endedforward channel	channel 1reverse channel	N/Adate	2023/11/30time	14:57:30forward acquisition time	300,00reverse acquisition time	0,00gamma	499,1914k internal	0,3208k external	0,3208temperature offset calibration	1,0000default loss term (dB/km)	0,3820temperature slope calibration	1,0000multiplexer offset coefficient	1,0000multiplexer slope coefficient	1,0000fibre end	0,00T internal ref (°C)	12,08T ext. ref 1 (°C)	-2,05T ext. ref 2 (°C)	-2,08length (m)	temperature (°C)	Stokes	anti-Stokes-744,400	605,720	-0,206	-0,373
-743,385	-200,000	0,046	0,234
-742,371	144,858	-0,166	-0,161
-741,356	-200,000	-0,014	0,224
-740,342	116,031	-0,261	-0,232
-739,327	-200,000	-0,020	0,384
-738,312	332,269	-0,182	-0,255
-737,298	409,609	-0,203	0,312
-736,283	255,800	-0,160	-0,200
-735,269	-200,000	0,008	0,314
-734,254	177,406	-0,207	-0,219
-733,239	109,778	-0,112	0,098
-732,225	162,909	-0,111	-0,113
-731,210	-200,000	0,060	0,196
-730,196	96,067	-0,094	-0,078
-729,181	59,234	0,101	0,072
-728,167	-96,594	-0,024	0,005
-727,152	63,996	-0,106	-0,077
-726,137	-200,000	-0,024	-0,087
-725,123	800,000	-0,013	0,028
-724,108	-103,944	-0,204	-0,034
-723,094	37,959	-0,188	-0,121
-722,079	128,863	0,063	-0,058
-721,064	99,249	0,044	0,037
-720,050	154,295	-0,109	0,108
-719,035	467,682	0,011	-0,019
-718,021	-81,267	-0,231	0,055
-717,006	62,185	0,076	0,055
-715,991	605,444	-0,068	-0,124
-714,977	-182,646	-0,101	-0,001
-713,962	-93,940	-0,040	-0,008
-712,948	800,000	-0,035	0,112
-711,933	254,254	0,036	-0,045
-710,918	34,494	-0,035	-0,022
-709,904	425,322	-0,089	-0,139
-708,889	280,833	-0,072	-0,093
-707,875	-4,777	-0,126	-0,063
-706,860	-135,564	-0,111	0,009
-705,845	-150,959	-0,037	-0,002
-704,831	-98,435	0,108	0,020
-703,816	-12,764	0,085	0,040
-702,802	220,642	0,040	-0,046
-701,787	-200,000	0,032	-0,113
-700,772	611,159	-0,019	-0,035
-699,758	266,898	-0,039	-0,049
-698,743	-3,308	0,139	0,070
-697,729	-200,000	0,033	0,140
-696,714	106,851	0,032	0,027
-695,699	110,459	-0,036	0,031
-694,685	437,837	-0,032	0,051
-693,670	501,964	-0,059	-0,100
-692,656	-108,091	0,061	-0,010
-691,641	-80,717	-0,057	-0,014
-690,627	-200,000	0,007	0,151
-689,612	370,860	0,083	0,123
-688,597	229,496	-0,046	-0,054
-687,583	104,545	-0,131	-0,111
-686,568	-200,000	0,037	0,140
-685,554	56,591	0,011	0,007
-684,539	-110,154	0,090	0,013
-683,524	-86,499	-0,027	-0,006
-682,510	-200,000	0,003	0,018
-681,495	192,365	0,041	-0,045
-680,481	-66,799	0,022	-0,006
-679,466	88,747	-0,038	-0,030
-678,451	221,248	-0,094	-0,109
-677,437	-148,813	-0,072	0,004
-676,422	-41,165	0,044	-0,016
-675,408	727,173	0,002	-0,003
-674,393	266,629	0,081	-0,103
-673,378	-145,613	0,092	-0,006
-672,364	800,000	-0,046	-0,126
-671,349	800,000	0,011	-0,024
-670,335	66,065	0,033	0,024
-669,320	262,367	-0,044	0,056
-668,305	523,052	-0,044	0,075
-667,291	438,262	-0,045	-0,071
-666,276	169,806	-0,029	0,030
-665,262	47,064	-0,145	-0,098
-664,247	85,515	-0,086	-0,068
-663,232	327,577	0,044	-0,061
-662,218	-130,621	-0,116	-0,011
-661,203	86,744	0,118	0,095
-660,189	64,788	0,132	-0,096
-659,174	19,804	-0,110	0,064
-658,159	800,000	0,051	-0,115
-657,145	330,647	-0,038	-0,053
-656,130	565,247	0,036	-0,064
-655,116	319,049	0,015	-0,020
-654,101	119,975	0,027	0,024
-653,086	282,597	-0,093	-0,121
-652,072	8,206	-0,213	0,115
-651,057	486,693	-0,068	-0,113
-650,043	-200,000	-0,006	-0,165
-649,028	36,096	0,094	0,059
-648,014	800,000	0,035	-0,092
-646,999	126,102	0,065	0,060
-645,984	85,439	0,067	0,053
-644,970	-65,155	-0,114	0,033
-643,955	146,362	0,057	-0,056
-642,941	170,702	0,045	0,047
-641,926	-54,202	-0,134	0,044
-640,911	-200,000	-0,001	-0,170
-639,897	-37,421	-0,155	-0,059
-638,882	800,000	-0,028	0,077
-637,868	800,000	-0,072	-0,209
-636,853	148,184	-0,086	0,084
-635,838	800,000	0,039	0,124
-634,824	-200,000	0,010	-0,088
-633,809	-114,000	0,120	0,017
-632,795	14,006	0,076	0,043
-631,780	27,300	0,037	0,022
-630,765	800,000	0,033	-0,088
-629,751	800,000	-0,008	0,024
-628,736	1,114	-0,084	0,043
-627,722	40,147	-0,135	0,088
-626,707	182,142	-0,056	-0,059
-625,692	203,397	0,102	0,114
-624,678	-197,214	0,155	0,001
-623,663	-69,426	-0,051	-0,014
-622,649	520,855	-0,017	-0,029
-621,634	-172,587	-0,175	-0,004
-620,619	800,000	0,087	-0,191
-619,605	-200,000	-0,027	-0,139
-618,590	-200,000	0,022	-0,082
-617,576	800,000	0,042	0,098
-616,561	225,079	-0,097	-0,114
-615,546	1,269	-0,074	-0,038
-614,532	500,799	-0,036	-0,061
-613,517	4,648	-0,054	0,028
-612,503	-200,000	-0,007	0,028
-611,488	-200,000	0,009	0,030
-610,474	-200,000	-0,008	0,029
-609,459	-200,000	0,021	-0,190
-608,444	17,723	-0,060	0,034
-607,430	227,088	-0,123	-0,144
-606,415	91,900	-0,089	-0,072
-605,401	-200,000	-0,015	0,086
-604,386	-46,554	0,123	0,043
-603,371	712,450	0,057	0,109
-602,357	395,111	-0,103	0,156
-601,342	188,083	-0,063	-0,068
-600,328	-162,776	-0,183	-0,006
-599,313	-200,000	0,003	-0,043
-598,298	59,358	0,035	-0,025
-597,284	-51,518	0,077	0,026
-596,269	-68,691	-0,044	-0,012
-595,255	549,716	-0,041	0,071
-594,240	156,518	-0,139	-0,139
-593,225	800,000	-0,087	-0,196
-592,211	-200,000	0,022	-0,109
-591,196	25,233	0,080	0,048
-590,182	-114,815	-0,105	0,014
-589,167	-200,000	-0,030	0,105
-588,152	16,150	0,040	0,023
-587,138	-79,753	-0,050	-0,012
-586,123	-138,655	-0,112	-0,009
-585,109	-200,000	-0,023	0,111
-584,094	800,000	-0,031	-0,076
-583,079	-102,973	-0,087	-0,015
-582,065	-48,699	0,067	-0,023
-581,050	-200,000	0,046	-0,192
-580,036	-80,070	-0,095	-0,023
-579,021	67,506	-0,070	0,051
-578,006	-200,000	-0,031	-0,101
-576,992	36,371	-0,054	0,034
-575,977	-200,000	-0,009	-0,114
-574,963	800,000	0,034	-0,094
-573,948	-96,538	0,184	-0,035
-572,934	800,000	-0,023	0,062
-571,919	-200,000	-0,004	-0,171
-570,904	87,829	0,164	-0,131
-569,890	-80,473	-0,090	-0,022
-568,875	127,481	0,018	0,017
-567,861	-158,931	0,194	0,008
-566,846	126,385	-0,093	0,085
-565,831	-62,942	0,157	-0,046
-564,817	140,553	-0,055	-0,053
-563,802	459,712	-0,028	0,045
-562,788	-200,000	-0,016	0,054
-561,773	269,072	0,037	-0,047
-560,758	-78,872	0,154	0,037
-559,744	-200,000	-0,004	-0,115
-558,729	-80,411	0,124	-0,030
-557,715	-6,638	-0,046	-0,022
-556,700	-87,745	0,203	-0,044
-555,685	15,803	-0,046	0,026
-554,671	99,755	0,028	0,023
-553,656	-83,174	-0,043	0,010
-552,642	-116,089	0,200	0,026
-551,627	-70,843	0,075	0,020
-550,612	40,225	-0,054	-0,035
-549,598	321,773	-0,036	-0,050
-548,583	237,426	0,069	-0,083
-547,569	12,145	-0,147	0,081
-546,554	267,703	0,034	0,043
-545,539	-51,221	-0,091	-0,031
-544,525	-200,000	0,018	0,131
-543,510	331,689	-0,052	0,072
-542,496	-3,735	-0,020	0,010
-541,481	-114,272	-0,028	0,004
-540,466	-105,231	0,033	0,005
-539,452	-200,000	-0,017	-0,112
-538,437	-100,442	0,054	-0,010
-537,423	800,000	-0,052	-0,114
-536,408	-200,000	0,022	-0,102
-535,393	168,340	0,027	-0,027
-534,379	-200,000	-0,002	-0,035
-533,364	209,041	0,069	0,078
-532,350	-200,000	0,017	0,077
-531,335	14,775	-0,071	0,040
-530,321	-200,000	-0,018	-0,086
-529,306	609,051	0,010	-0,018
-528,291	-200,000	-0,020	0,148
-527,277	-54,476	0,043	0,014
-526,262	800,000	-0,050	-0,140
-525,248	800,000	-0,028	-0,060
-524,233	-200,000	0,042	0,143
-523,218	800,000	-0,055	0,164
-522,204	510,320	-0,042	-0,070
-521,189	-132,743	-0,089	0,008
-520,175	86,268	-0,030	-0,024
-519,160	-72,411	-0,099	0,026
-518,145	95,402	-0,125	0,102
-517,131	-17,677	0,169	0,076
-516,116	36,673	0,075	0,047
-515,102	299,756	-0,037	0,050
-514,087	43,838	-0,008	-0,006
-513,072	54,326	-0,088	-0,061
-512,058	26,060	-0,028	-0,017
-511,043	-77,238	-0,104	0,026
-510,029	753,382	-0,041	0,080
-509,014	-76,195	0,083	0,021
-507,999	-119,275	0,108	0,013
-506,985	-2,737	-0,096	0,048
-505,970	-5,688	-0,016	0,008
-504,956	-15,113	0,075	0,034
-503,941	75,760	-0,051	0,039
-502,926	6,087	0,145	0,077
-501,912	39,599	-0,091	-0,059
-500,897	308,139	0,033	0,044
-499,883	-200,000	0,003	0,068
-498,868	-97,733	0,069	0,013
-497,853	348,841	-0,041	-0,058
-496,839	-200,000	-0,006	0,084
-495,824	-102,639	-0,088	-0,015
-494,810	176,437	0,065	0,068
-493,795	97,552	-0,045	0,037
-492,781	210,319	-0,025	-0,028
-491,766	112,139	-0,064	-0,055
-490,751	800,000	-0,026	-0,053
-489,737	638,037	0,049	-0,091
-488,722	-200,000	-0,010	-0,036
-487,708	29,031	0,045	-0,028
-486,693	583,732	-0,039	0,070
-485,678	-78,152	0,075	-0,018
-484,664	534,163	-0,112	-0,192
-483,649	800,000	0,061	-0,161
-482,635	800,000	-0,018	0,052
-481,620	389,102	0,044	-0,066
-480,605	-200,000	0,006	-0,054
-479,591	-62,835	-0,046	-0,014
-478,576	800,000	-0,044	0,100
-477,562	-3,905	-0,150	-0,075
-476,547	-132,415	-0,176	-0,016
-475,532	-68,417	-0,037	-0,010
-474,518	-46,412	-0,139	-0,049
-473,503	-119,891	0,071	0,009
-472,489	-80,987	-0,033	0,008
-471,474	-200,000	-0,002	0,196
-470,459	162,335	-0,024	0,024
-469,445	-200,000	0,027	-0,090
-468,430	-200,000	0,025	-0,112
-467,416	304,728	-0,035	-0,047
-466,401	-172,945	0,117	-0,003
-465,386	800,000	-0,029	0,073
-464,372	94,698	-0,023	0,019
-463,357	-200,000	0,002	0,023
-462,343	2,225	-0,121	-0,062
-461,328	25,777	-0,137	0,082
-460,313	-30,930	-0,040	0,016
-459,299	-174,838	0,060	0,001
-458,284	-46,899	0,134	-0,047
-457,270	64,466	0,132	-0,095
-456,255	800,000	0,052	-0,132
-455,241	284,671	0,049	-0,063
-454,226	-185,478	0,067	-0,001
-453,211	117,007	-0,097	0,085
-452,197	-200,000	0,020	0,078
-451,182	130,734	0,015	0,014
-450,168	310,979	0,044	0,059
-449,153	800,000	-0,025	-0,052
-448,138	544,485	-0,069	0,119
-447,124	16,668	-0,128	0,073
-446,109	91,049	-0,066	-0,053
-445,095	-200,000	-0,001	-0,147
-444,080	333,362	-0,064	0,089
-443,065	-65,114	-0,117	0,034
-442,051	-82,499	0,028	0,006
-441,036	-200,000	0,013	-0,103
-440,022	3,470	0,059	-0,031
-439,007	-200,000	-0,002	-0,111
-437,992	800,000	-0,079	0,188
-436,978	343,437	-0,107	0,150
-435,963	126,075	-0,085	0,077
-434,949	-88,097	-0,082	0,017
-433,934	-200,000	0,008	-0,050
-432,919	147,861	-0,064	0,062
-431,905	77,987	-0,116	0,088
-430,890	-200,000	-0,015	0,058
-429,876	-97,598	0,146	-0,027
-428,861	157,809	0,112	0,111
-427,846	34,404	0,061	0,038
-426,832	-200,000	-0,026	-0,115
-425,817	231,841	-0,059	0,070
-424,803	-100,238	-0,051	-0,009
-423,788	800,000	0,019	0,061
-422,773	128,626	0,020	-0,019
-421,759	-81,452	0,087	0,020
-420,744	220,556	0,048	0,056
-419,730	800,000	0,028	-0,079
-418,715	-200,000	0,001	-0,116
-417,701	219,482	-0,081	-0,093
-416,686	461,097	0,020	0,033
-415,671	-200,000	0,002	0,048
-414,657	-200,000	0,030	0,109
-413,642	-200,000	-0,015	-0,142
-412,628	-200,000	0,051	-0,191
-411,613	-55,139	-0,197	-0,063
-410,598	50,440	-0,113	-0,076
-409,584	28,997	0,076	0,046
-408,569	-200,000	0,015	0,100
-407,555	596,812	-0,052	0,093
-406,540	555,842	-0,047	0,082
-405,525	111,763	0,006	-0,005
-404,511	192,727	0,046	-0,050
-403,496	152,122	-0,097	-0,095
-402,482	-200,000	0,007	0,083
-401,467	-13,237	-0,011	-0,005
-400,452	-17,018	-0,196	0,088
-399,438	412,260	-0,030	0,046
-398,423	93,598	0,034	0,027
-397,409	-200,000	0,017	-0,095
-396,394	-15,408	0,050	0,023
-395,379	-200,000	0,019	0,153
-394,365	688,469	-0,022	0,041
-393,350	800,000	-0,074	0,184
-392,336	-113,245	0,002	-0,000
-391,321	-57,214	-0,094	-0,030
-390,306	-37,181	-0,041	-0,016
-389,292	-90,633	0,119	-0,024
-388,277	-50,331	0,130	-0,044
-387,263	89,645	-0,105	0,083
-386,248	-75,214	0,135	0,034
-385,233	-200,000	0,006	0,106
-384,219	-200,000	0,008	0,065
-383,204	800,000	0,030	0,085
-382,190	-200,000	-0,019	-0,133
-381,175	-58,234	-0,165	-0,051
-380,160	26,961	-0,135	0,081
-379,146	-68,479	0,099	-0,027
-378,131	-200,000	-0,029	0,103
-377,117	-200,000	0,014	0,207
-376,102	-200,000	-0,008	-0,097
-375,088	244,968	-0,087	-0,105
-374,073	-95,540	0,020	0,004
-373,058	100,399	0,066	-0,055
-372,044	358,451	0,049	-0,070
-371,029	72,802	0,028	-0,021
-370,015	-200,000	-0,058	0,000
-369,000	237,084	0,173	0,205
-367,985	800,000	-0,067	-0,147
-366,971	800,000	0,066	0,189
-365,956	128,337	0,060	0,054
-364,942	164,298	0,079	0,079
-363,927	-42,542	-0,079	-0,029
-362,912	-150,980	0,113	0,006
-361,898	-16,944	-0,060	-0,027
-360,883	137,702	-0,064	0,060
-359,869	-200,000	-0,005	-0,027
-358,854	-77,515	0,114	-0,028
-357,839	745,461	-0,033	0,063
-356,825	3,365	-0,060	0,031
-355,810	115,453	0,093	0,082
-354,796	800,000	0,029	-0,060
-353,781	-200,000	-0,010	-0,045
-352,766	-107,346	-0,135	0,021
-351,752	-140,736	-0,031	0,002
-350,737	-200,000	-0,006	-0,100
-349,723	189,688	0,014	-0,015
-348,708	-67,608	0,118	-0,033
-347,693	-170,400	0,075	-0,002
-346,679	800,000	-0,094	-0,223
-345,664	800,000	0,036	-0,078
-344,650	800,000	-0,039	-0,116
-343,635	73,471	0,070	-0,052
-342,620	14,597	0,083	0,046
-341,606	-200,000	0,013	-0,127
-340,591	24,913	-0,046	0,027
-339,577	95,836	-0,061	-0,049
-338,562	-169,456	0,091	-0,002
-337,548	295,933	0,093	0,122
-336,533	-75,132	0,087	-0,022
-335,518	-67,385	0,039	-0,011
-334,504	598,558	0,050	-0,089
-333,489	437,984	-0,011	0,018
-332,475	800,000	0,063	-0,136
-331,460	-52,207	-0,066	0,022
-330,445	-200,000	0,017	0,180
-329,431	-200,000	0,015	0,110
-328,416	560,112	0,103	0,178
-327,402	800,000	0,041	-0,084
-326,387	357,270	0,076	-0,109
-325,372	-165,960	0,079	-0,002
-324,358	800,000	-0,021	-0,045
-323,343	85,971	0,102	-0,080
-322,329	-20,900	0,051	0,022
-321,314	-200,000	-0,008	0,049
-320,299	-200,000	-0,014	-0,053
-319,285	-148,521	0,034	0,002
-318,270	-33,254	-0,167	-0,066
-317,256	-200,000	-0,005	-0,120
-316,241	-118,280	-0,030	-0,004
-315,226	46,725	0,057	0,038
-314,212	18,472	0,090	0,051
-313,197	800,000	-0,035	0,077
-312,183	-38,500	-0,057	-0,021
-311,168	20,216	0,085	-0,049
-310,153	-121,942	0,052	-0,006
-309,139	262,652	0,035	-0,044
-308,124	555,091	0,026	-0,045
-307,110	-7,179	0,113	0,055
-306,095	-200,000	-0,015	-0,096
-305,080	-200,000	0,003	0,050
-304,066	-71,394	-0,077	-0,020
-303,051	-105,677	0,051	0,008
-302,037	-122,543	-0,149	-0,017
-301,022	800,000	0,004	0,013
-300,008	46,772	0,085	0,056
-298,993	-18,953	0,104	-0,046
-297,978	489,645	0,021	0,035
-296,964	-200,000	-0,002	0,025
-295,949	93,263	-0,052	-0,042
-294,935	800,000	0,009	0,026
-293,920	-200,000	0,022	0,111
-292,905	800,000	0,025	-0,070
-291,891	-200,000	-0,039	0,202
-290,876	65,843	0,046	0,033
-289,862	-200,000	0,008	-0,070
-288,847	-200,000	0,012	0,152
-287,832	296,197	0,012	-0,016
-286,818	703,791	-0,015	0,028
-285,803	2,854	0,084	0,043
-284,789	800,000	-0,038	-0,078
-283,774	144,630	-0,047	0,044
-282,759	-42,575	0,022	-0,008
-281,745	122,562	-0,022	-0,020
-280,730	174,629	0,026	-0,026
-279,716	187,083	-0,079	0,084
-278,701	-200,000	-0,001	0,103
-277,686	261,851	-0,024	0,030
-276,672	67,461	0,058	-0,042
-275,657	588,590	0,034	0,060
-274,643	-188,839	0,089	0,001
-273,628	614,198	-0,052	-0,094
-272,613	-200,000	-0,013	-0,078
-271,599	151,929	-0,148	0,144
-270,584	20,928	-0,073	-0,042
-269,570	116,893	0,026	-0,023
-268,555	-200,000	0,015	-0,064
-267,540	-4,210	-0,143	-0,070
-266,526	-162,448	0,069	0,002
-265,511	412,638	-0,054	0,081
-264,497	-200,000	0,012	-0,041
-263,482	-200,000	0,009	-0,074
-262,467	174,802	0,043	-0,044
-261,453	349,768	0,085	0,119
-260,438	800,000	-0,061	0,141
-259,424	31,254	-0,008	-0,005
-258,409	-118,521	-0,079	-0,010
-257,395	-21,365	0,043	0,019
-256,380	800,000	-0,050	0,106
-255,365	800,000	0,014	0,031
-254,351	-1,112	-0,077	-0,039
-253,336	188,970	-0,069	-0,074
-252,322	-101,238	-0,139	-0,024
-251,307	554,420	-0,040	-0,068
-250,292	-24,842	-0,026	-0,011
-249,278	-37,066	0,152	0,058
-248,263	571,425	0,098	0,171
-247,249	-200,000	0,007	-0,056
-246,234	665,233	-0,038	0,070
-245,219	-64,365	0,099	0,028
-244,205	-33,076	-0,078	-0,031
-243,190	-119,916	0,051	-0,006
-242,176	195,209	0,048	-0,052
-241,161	77,164	0,053	0,040
-240,146	86,443	0,073	-0,057
-239,132	255,827	-0,063	-0,078
-238,117	255,175	0,060	-0,073
-237,103	29,408	0,028	0,017
-236,088	383,776	0,058	0,085
-235,073	-200,000	-0,009	-0,086
-234,059	-34,653	-0,090	0,035
-233,044	-108,922	0,251	-0,038
-232,030	78,357	0,050	-0,038
-231,015	-200,000	-0,012	-0,096
-230,000	800,000	0,054	0,129
-228,986	56,673	-0,016	-0,011
-227,971	-17,472	0,083	-0,037
-226,957	278,582	-0,042	0,053
-225,942	-43,770	-0,024	-0,009
-224,927	800,000	0,039	-0,105
-223,913	-4,068	-0,028	0,014
-222,898	-164,816	0,026	0,001
-221,884	-92,586	0,110	-0,022
-220,869	-148,248	0,106	-0,006
-219,855	-200,000	0,015	0,171
-218,840	-200,000	-0,013	0,190
-217,825	800,000	-0,067	0,141
-216,811	-85,362	0,037	-0,008
-215,796	-120,702	0,064	0,008
-214,782	-200,000	0,003	-0,122
-213,767	800,000	-0,025	-0,054
-212,752	-200,000	0,028	0,193
-211,738	115,535	0,009	0,007
-210,723	182,783	-0,101	0,106
-209,709	424,414	-0,070	-0,108
-208,694	148,439	-0,052	-0,050
-207,679	-200,000	-0,021	-0,084
-206,665	-200,000	-0,005	-0,084
-205,650	800,000	0,019	-0,047
-204,636	47,040	0,035	-0,023
-203,621	621,682	0,024	0,044
-202,606	-200,000	-0,002	-0,101
-201,592	386,751	-0,031	-0,045
-200,577	-108,303	0,105	-0,016
-199,563	63,413	-0,059	-0,042
-198,548	782,893	0,086	-0,168
-197,533	800,000	0,054	0,111
-196,519	6,205	0,200	0,105
-195,504	22,459	-0,053	0,031
-194,490	-177,173	0,134	0,002
-193,475	-47,925	-0,095	-0,033
-192,460	-116,010	0,038	-0,005
-191,446	800,000	-0,072	-0,149
-190,431	235,554	-0,011	-0,013
-189,417	340,535	0,118	0,165
-188,402	49,234	-0,065	0,043
-187,387	-200,000	-0,016	-0,102
-186,373	101,661	0,002	0,002
-185,358	-200,000	-0,016	-0,082
-184,344	493,392	0,023	-0,037
-183,329	-200,000	-0,003	0,021
-182,315	-127,667	-0,041	-0,004
-181,300	800,000	-0,020	-0,046
-180,285	800,000	0,019	-0,038
-179,271	526,677	-0,062	-0,103
-178,256	-200,000	0,028	-0,159
-177,242	800,000	-0,029	0,090
-176,227	-34,153	0,021	-0,008
-175,212	116,970	0,036	0,031
-174,198	22,195	-0,032	0,018
-173,183	356,277	0,072	0,102
-172,169	800,000	-0,022	-0,052
-171,154	-200,000	0,028	0,153
-170,139	27,943	0,131	0,078
-169,125	-200,000	0,003	0,101
-168,110	476,236	0,068	0,110
-167,096	284,526	-0,035	-0,044
-166,081	449,057	0,027	0,042
-165,066	-200,000	0,013	-0,075
-164,052	131,616	0,113	-0,103
-163,037	-200,000	-0,007	0,038
-162,023	138,852	0,041	0,038
-161,008	-200,000	-0,027	0,136
-159,993	-200,000	0,020	0,070
-158,979	-119,338	-0,047	-0,006
-157,964	190,844	-0,146	0,156
-156,950	-200,000	-0,007	-0,089
-155,935	292,506	0,058	0,075
-154,920	-154,265	0,110	-0,005
-153,906	-200,000	0,008	-0,046
-152,891	800,000	-0,029	0,071
-151,877	324,629	-0,078	0,106
-150,862	-200,000	0,028	0,126
-149,847	82,580	-0,050	-0,039
-148,833	592,171	0,037	-0,065
-147,818	-200,000	0,002	0,009
-146,804	-188,741	0,115	0,001
-145,789	-32,335	0,138	0,054
-144,775	800,000	-0,009	-0,027
-143,760	-200,000	-0,042	-0,164
-142,745	73,438	-0,129	-0,095
-141,731	495,494	0,059	-0,096
-140,716	-94,375	0,041	0,008
-139,702	-16,214	0,084	-0,038
-138,687	-158,954	-0,063	0,002
-137,672	28,851	-0,083	-0,050
-136,658	-200,000	-0,007	-0,119
-135,643	779,389	-0,022	-0,043
-134,629	114,396	-0,112	-0,097
-133,614	69,884	-0,162	0,118
-132,599	58,136	0,053	0,037
-131,585	-200,000	0,003	-0,096
-130,570	-16,344	-0,052	0,023
-129,556	-1,781	-0,100	-0,050
-128,541	758,927	-0,054	-0,105
-127,526	648,235	-0,066	-0,120
-126,512	-200,000	0,022	-0,109
-125,497	28,033	0,032	-0,019
-124,483	424,133	-0,016	0,024
-123,468	131,203	-0,071	-0,065
-122,453	-200,000	0,000	0,004
-121,439	-200,000	-0,039	-0,155
-120,424	-81,155	-0,040	0,009
-119,410	-200,000	0,031	-0,124
-118,395	-200,000	-0,001	0,051
-117,380	526,695	0,096	0,160
-116,366	-127,267	-0,143	-0,015
-115,351	800,000	-0,017	-0,051
-114,337	402,230	0,054	0,081
-113,322	30,426	-0,125	0,076
-112,307	-200,000	-0,032	0,156
-111,293	-200,000	0,002	-0,019
-110,278	-91,154	0,046	-0,009
-109,264	-82,426	0,085	-0,019
-108,249	475,974	-0,061	0,098
-107,234	145,725	-0,028	0,027
-106,220	-157,911	0,047	-0,002
-105,205	-200,000	0,017	0,095
-104,191	187,465	0,041	-0,043
-103,176	-200,000	-0,020	0,062
-102,162	-90,246	-0,019	0,004
-101,147	800,000	-0,037	0,098
-100,132	800,000	0,038	0,075
-99,118	-115,713	-0,038	-0,005
-98,103	-200,000	-0,008	0,075
-97,089	6,595	0,040	-0,021
-96,074	552,558	0,036	-0,061
-95,059	800,000	-0,029	0,068
-94,045	274,552	-0,054	-0,068
-93,030	-200,000	0,019	0,158
-92,016	-200,000	0,002	0,065
-91,001	3,918	-0,081	0,042
-89,986	247,532	0,012	-0,014
-88,972	171,842	0,026	0,027
-87,957	164,814	0,146	0,146
-86,943	-52,061	-0,132	-0,043
-85,928	-125,700	-0,008	0,001
-84,913	800,000	0,028	-0,076
-83,899	-126,642	-0,070	0,007
-82,884	96,608	0,039	-0,032
-81,870	110,777	-0,047	0,040
-80,855	-4,913	0,110	0,053
-79,840	67,108	-0,063	0,046
-78,826	-22,928	-0,129	-0,055
-77,811	-200,000	-0,008	0,107
-76,797	800,000	0,047	0,107
-75,782	800,000	-0,035	-0,088
-74,767	-133,726	0,182	0,016
-73,753	-100,113	-0,027	0,005
-72,738	-168,223	-0,143	0,004
-71,724	790,681	-0,041	-0,080
-70,709	427,755	0,048	-0,074
-69,694	371,590	-0,031	-0,044
-68,680	800,000	-0,010	0,028
-67,665	313,142	0,084	-0,112
-66,651	-200,000	-0,046	0,155
-65,636	-56,632	0,057	-0,018
-64,622	81,588	-0,080	-0,061
-63,607	485,932	-0,085	-0,137
-62,592	-56,733	0,064	0,020
-61,578	-200,000	0,008	-0,024
-60,563	-200,000	-0,010	-0,042
-59,549	-200,000	-0,024	0,183
-58,534	-12,490	-1,895	-0,871
-57,519	350,205	-1,492	-2,089
-56,505	-200,000	-0,340	-4,151
-55,490	378,194	0,890	1,291
-54,476	800,000	5,014	11,147
-53,461	-200,000	20,109	329,408
-52,446	800,000	749,186	2319,455
-51,432	553,936	1657,459	2826,525
-50,417	75,210	1666,460	1239,866
-49,403	19,925	1539,124	873,856
-48,388	13,895	1461,507	800,590
-47,373	18,722	1451,624	818,349
-46,359	16,555	1440,933	801,962
-45,344	12,195	1436,734	778,817
-44,330	12,110	1434,694	777,272
-43,315	12,134	1432,800	776,333
-42,300	12,171	1431,285	775,658
-41,286	12,165	1429,995	774,897
-40,271	12,076	1428,952	773,879
-39,257	12,129	1427,438	773,278
-38,242	12,144	1426,187	772,643
-37,227	12,168	1424,914	772,034
-36,213	12,146	1423,795	771,297
-35,198	12,187	1422,482	770,746
-34,184	12,207	1421,653	770,363
-33,169	12,147	1420,366	769,348
-32,154	12,206	1419,293	769,016
-31,140	12,230	1417,909	768,348
-30,125	12,205	1416,900	767,652
-29,111	12,170	1415,769	766,848
-28,096	12,164	1414,689	766,205
-27,082	12,100	1413,674	765,321
-26,067	12,110	1412,489	764,695
-25,052	12,127	1411,439	764,176
-24,038	12,123	1410,403	763,569
-23,023	12,089	1409,537	762,909
-22,009	12,117	1408,344	762,366
-20,994	12,115	1407,350	761,785
-19,979	12,123	1406,576	761,375
-18,965	12,028	1405,758	760,461
-17,950	12,037	1404,935	760,025
-16,936	12,089	1403,908	759,684
-15,921	12,063	1402,897	758,986
-14,906	12,001	1402,029	758,195
-13,892	12,022	1401,031	757,722
-12,877	11,990	1400,311	757,156
-11,863	12,033	1399,376	756,822
-10,848	12,001	1398,245	756,030
-9,833	11,966	1397,606	755,489
-8,819	11,954	1396,602	754,861
-7,804	11,920	1395,760	754,219
-6,790	11,887	1394,820	753,531
-5,775	11,906	1393,822	753,050
-4,760	11,989	1392,476	752,674
-3,746	11,896	1391,868	751,887
-2,731	11,901	1391,062	751,443
-1,717	11,813	1390,353	750,625
-0,702	11,908	1388,342	749,949
0,313	15,827	1303,753	722,269
1,327	31,983	697,186	423,191
2,342	49,278	121,679	80,626
3,356	0,998	16,482	8,314
4,371	-0,648	3,288	1,641
5,386	55,658	0,646	0,441
6,400	-200,000	-0,005	0,542
7,415	515,048	-0,099	-0,164
8,429	44,901	-0,363	-0,236
9,444	-17,466	-0,287	-0,127
10,459	162,101	-0,221	-0,219
11,473	87,307	-0,222	-0,173
12,488	104,140	-0,196	-0,163
13,502	41,934	-0,321	-0,205
14,517	200,155	-0,359	-0,389
15,531	100,600	-0,352	-0,288
16,546	247,576	-0,311	-0,371
17,561	240,927	-0,238	-0,281
18,575	-66,801	-0,269	-0,074
19,590	800,000	-0,113	-0,239
20,604	42,441	-0,322	-0,206
21,619	36,549	-0,343	-0,213
22,634	50,311	-0,427	-0,284
23,648	59,957	-0,402	-0,280
24,663	80,975	-0,476	-0,361
25,677	283,903	-0,223	-0,283
26,692	711,444	-0,203	-0,380
27,707	-19,217	-0,449	-0,195
28,721	59,849	-0,431	-0,299
29,736	-41,029	-0,520	-0,188
30,750	121,946	-0,418	-0,368
31,765	393,014	-0,284	-0,417
32,780	508,535	-0,247	-0,405
33,794	90,936	-0,350	-0,276
34,809	-47,148	-0,458	-0,156
35,823	209,651	-0,267	-0,295
36,838	21,129	-0,395	-0,225
37,853	-33,506	-0,431	-0,167
38,867	-31,209	-0,526	-0,208
39,882	39,746	-0,391	-0,246
40,896	141,856	-0,302	-0,282
41,911	72,359	-0,321	-0,235
42,926	22,907	-0,353	-0,203
43,940	21,546	-0,550	-0,314
44,955	75,136	-0,424	-0,314
45,969	-74,956	-0,397	-0,099
46,984	43,227	-0,366	-0,234
47,999	34,153	-0,329	-0,201
49,013	137,963	-0,202	-0,186
50,028	273,761	-0,291	-0,363
51,042	35,610	-0,406	-0,250
52,057	110,584	-0,412	-0,348
53,071	220,480	-0,268	-0,303
54,086	71,768	-0,318	-0,232
55,101	21,060	-0,433	-0,246
56,115	-130,845	-0,282	-0,026
57,130	359,587	-0,247	-0,348
58,144	-2,369	-0,280	-0,138
59,159	-35,191	-0,418	-0,159
60,174	122,894	-0,343	-0,302
61,188	103,630	-0,391	-0,322
62,203	-17,437	-0,361	-0,159
63,217	148,521	-0,308	-0,292
64,232	181,847	-0,316	-0,327
65,247	35,586	-0,398	-0,245
66,261	-66,791	-0,282	-0,078
67,276	52,919	-0,403	-0,270
68,290	145,907	-0,321	-0,302
69,305	150,139	-0,232	-0,221
70,320	67,275	-0,214	-0,153
71,334	-45,639	-0,324	-0,112
72,349	-34,759	-0,376	-0,144
73,363	83,609	-0,393	-0,301
74,378	8,545	-0,328	-0,173
75,393	13,170	-0,388	-0,210
76,407	56,370	-0,321	-0,218
77,422	-25,748	-0,317	-0,130
78,436	215,978	-0,225	-0,251
79,451	224,553	-0,285	-0,324
80,466	36,075	-0,303	-0,187
81,480	61,572	-0,403	-0,280
82,495	-30,925	-0,237	-0,093
83,509	179,566	-0,203	-0,209
84,524	-96,991	-0,274	-0,050
85,539	230,528	-0,171	-0,196
86,553	-5,829	-0,293	-0,140
87,568	127,507	-0,358	-0,318
88,582	142,729	-0,266	-0,248
89,597	295,558	-0,137	-0,176
90,611	-15,697	-0,292	-0,130
91,626	-145,557	-0,398	-0,025
92,641	-149,501	-0,432	0,024
93,655	49,849	-0,261	-0,172
94,670	40,463	-0,373	-0,235
95,684	77,995	-0,333	-0,248
96,699	322,048	-0,221	-0,295
97,714	-20,823	-0,374	-0,160
98,728	-98,899	-0,362	-0,064
99,743	99,962	-0,247	-0,200
100,757	21,151	-0,332	-0,188
101,772	-67,299	-0,361	-0,099
102,787	-76,653	-0,220	-0,054
103,801	-66,886	-0,303	-0,083
104,816	-129,907	-0,098	-0,009
105,830	65,349	-0,199	-0,140
106,845	800,000	-0,029	-0,075
107,860	-81,087	-0,202	-0,046
108,874	-7,006	-0,306	-0,145
109,889	71,678	-0,309	-0,224
110,903	-7,613	-0,297	-0,140
111,918	106,178	-0,266	-0,220
112,933	190,914	-0,190	-0,200
113,947	105,687	-0,228	-0,189
114,962	-50,129	-0,254	-0,084
115,976	140,891	-0,326	-0,301
116,991	42,020	-0,279	-0,176
118,006	7,802	-0,180	-0,094
119,020	-12,717	-0,248	-0,113
120,035	-72,841	-0,325	-0,083
121,049	-77,809	-0,242	-0,058
122,064	55,983	-0,244	-0,165
123,079	69,733	-0,283	-0,203
124,093	171,749	-0,284	-0,285
125,108	185,461	-0,289	-0,300
126,122	506,001	-0,146	-0,237
127,137	120,463	-0,178	-0,155
128,151	36,750	-0,262	-0,161
129,166	25,150	-0,213	-0,123
130,181	4,544	-0,314	-0,160
131,195	-87,837	-0,265	-0,055
132,210	117,087	-0,244	-0,209
133,224	-18,254	-0,378	-0,164
134,239	22,336	-0,229	-0,130
135,254	-34,385	-0,197	-0,075
136,268	88,332	-0,099	-0,077
137,283	-63,917	-0,221	-0,063
138,297	119,543	-0,355	-0,307
139,312	447,764	-0,198	-0,305
140,327	-2,025	-0,334	-0,163
141,341	-91,189	-0,363	-0,072
142,356	187,035	-0,180	-0,187
143,370	11,590	-0,238	-0,127
144,385	161,267	-0,237	-0,232
145,400	74,144	-0,230	-0,168
146,414	143,838	-0,203	-0,189
147,429	800,000	-0,116	-0,308
148,443	-200,000	-0,081	-0,258
149,458	14,123	-0,252	-0,136
150,473	-132,857	-0,253	-0,022
151,487	46,656	-0,226	-0,146
152,502	-13,845	-0,265	-0,119
153,516	69,162	-0,274	-0,196
154,531	186,190	-0,160	-0,166
155,546	137,485	-0,178	-0,162
156,560	-79,972	-0,194	-0,045
157,575	90,105	-0,209	-0,163
158,589	800,000	-0,075	-0,180
159,604	207,912	-0,181	-0,197
160,619	781,713	-0,125	-0,239
161,633	424,444	-0,202	-0,303
162,648	656,324	-0,177	-0,317
163,662	-76,020	-0,232	-0,057
164,677	72,980	-0,286	-0,208
165,692	122,941	-0,207	-0,180
166,706	202,313	-0,167	-0,180
167,721	43,654	-0,252	-0,160
168,735	190,692	-0,230	-0,241
169,750	127,965	-0,178	-0,157
170,764	117,850	-0,240	-0,205
171,779	-69,304	-0,167	-0,044
172,794	5,948	-0,275	-0,141
173,808	106,812	-0,178	-0,147
174,823	28,403	-0,266	-0,156
175,837	16,895	-0,281	-0,154
176,852	220,053	-0,271	-0,302
177,867	80,880	-0,369	-0,277
178,881	51,755	-0,229	-0,151
179,896	119,340	-0,139	-0,119
180,910	131,795	-0,183	-0,163
181,925	-28,841	-0,216	-0,086
182,940	-43,456	-0,381	-0,133
183,954	-6,353	-0,207	-0,098
184,969	147,536	-0,151	-0,141
185,983	800,000	-0,139	-0,272
186,998	800,000	-0,121	-0,290
188,013	237,480	-0,161	-0,186
189,027	10,401	-0,252	-0,133
190,042	53,116	-0,236	-0,156
191,056	64,434	-0,226	-0,158
192,071	-117,886	-0,149	-0,018
193,086	-87,368	-0,335	-0,070
194,100	239,819	-0,225	-0,261
195,115	102,744	-0,160	-0,130
196,129	313,685	-0,187	-0,245
197,144	207,300	-0,204	-0,221
198,159	116,543	-0,343	-0,292
199,173	256,476	-0,181	-0,216
200,188	336,677	-0,071	-0,097
201,202	50,936	-0,188	-0,123
202,217	50,115	-0,128	-0,084
203,232	-130,484	-0,187	-0,017
204,246	-142,079	-0,240	-0,016
205,261	-102,823	-0,177	-0,029
206,275	311,938	-0,101	-0,132
207,290	329,846	-0,149	-0,199
208,304	-90,539	-0,250	-0,050
209,319	473,690	-0,073	-0,114
210,334	-12,131	-0,130	-0,059
211,348	800,000	-0,084	-0,210
212,363	12,391	-0,287	-0,153
213,377	-200,000	0,013	-0,120
214,392	359,446	-0,147	-0,205
215,407	-200,000	-0,043	-0,147
216,421	-29,775	-0,091	-0,036
217,436	260,888	-0,165	-0,198
218,450	147,215	-0,283	-0,264
219,465	36,950	-0,249	-0,152
220,480	53,458	-0,230	-0,152
221,494	18,155	-0,084	-0,046
222,509	8,798	-0,235	-0,122
223,523	-20,599	-0,218	-0,092
224,538	259,108	-0,082	-0,099
225,553	800,000	-0,100	-0,272
226,567	-94,350	-0,309	-0,058
227,582	323,833	-0,141	-0,187
228,596	173,233	-0,198	-0,198
229,611	99,116	-0,212	-0,169
230,626	23,138	-0,170	-0,096
231,640	11,567	-0,250	-0,132
232,655	-70,900	-0,226	-0,058
233,669	203,137	-0,179	-0,192
234,684	766,397	-0,055	-0,104
235,699	185,078	-0,161	-0,165
236,713	114,277	-0,224	-0,188
237,728	-95,237	-0,135	0,025
238,742	97,794	-0,261	-0,207
239,757	188,153	-0,135	-0,140
240,772	523,627	-0,133	-0,217
241,786	156,989	-0,285	-0,273
242,801	303,092	-0,107	-0,137
243,815	195,641	-0,128	-0,134
244,830	560,580	-0,143	-0,241
245,844	10,056	-0,186	-0,097
246,859	123,191	-0,162	-0,140
247,874	-43,428	-0,246	-0,085
248,888	800,000	-0,064	-0,182
249,903	-52,288	-0,189	-0,060
250,917	206,399	-0,159	-0,171
251,932	131,264	-0,128	-0,113
252,947	174,068	-0,127	-0,127
253,961	307,508	0,074	-0,096
254,976	205,947	-0,199	-0,214
255,990	-134,004	-0,181	-0,015
257,005	800,000	-0,042	-0,091
258,020	94,430	-0,156	-0,122
259,034	363,693	-0,093	-0,130
260,049	76,198	-0,236	-0,172
261,063	-54,496	-0,261	-0,081
262,078	586,753	-0,167	-0,285
263,093	33,048	-0,263	-0,157
264,107	171,970	-0,143	-0,141
265,122	199,704	-0,172	-0,182
266,136	-38,783	-0,111	0,040
267,151	-135,455	-0,142	0,012
268,166	19,604	-0,083	-0,046
269,180	87,767	-0,173	-0,132
270,195	129,896	-0,211	-0,186
271,209	150,269	-0,123	-0,115
272,224	-61,886	-0,143	-0,041
273,239	-167,857	-0,175	-0,005
274,253	-167,967	-0,161	0,004
275,268	660,281	-0,082	-0,145
276,282	139,168	-0,132	-0,120
277,297	194,003	-0,225	-0,235
278,312	-200,000	-0,072	-0,228
279,326	-13,889	-0,241	-0,107
280,341	297,630	-0,086	-0,109
281,355	41,085	-0,141	0,088
282,370	-93,050	-0,088	-0,017
283,384	605,722	-0,097	-0,168
284,399	-200,000	-0,058	-0,177
285,414	431,947	-0,152	-0,228
286,428	165,528	-0,160	-0,156
287,443	-136,757	-0,151	0,012
288,457	258,247	-0,071	-0,084
289,472	800,000	-0,056	-0,148
290,487	30,338	-0,191	-0,112
291,501	65,794	-0,129	-0,090
292,516	37,206	-0,137	-0,083
293,530	2,979	-0,174	-0,087
294,545	10,078	0,045	-0,023
295,560	-120,586	-0,070	-0,008
296,574	-96,403	-0,184	-0,033
297,589	175,825	-0,166	-0,166
298,603	211,753	-0,185	-0,201
299,618	-96,096	-0,228	-0,041
300,633	-136,321	-0,053	-0,004
301,647	138,191	-0,064	-0,058
302,662	-112,647	-0,130	-0,018
303,676	770,273	-0,072	-0,136
304,691	481,889	-0,121	-0,190
305,706	-59,813	-0,201	-0,059
306,720	-18,733	-0,162	-0,069
307,735	172,635	-0,113	-0,112
308,749	-5,905	-0,178	-0,083
309,764	-158,356	-0,140	0,006
310,779	-200,000	-0,013	-0,052
311,793	112,965	-0,122	-0,102
312,808	93,103	-0,209	-0,162
313,822	800,000	-0,082	-0,244
314,837	-200,000	-0,027	-0,083
315,852	-19,043	-0,129	-0,055
316,866	-158,958	-0,216	-0,008
317,881	92,323	-0,090	0,070
318,895	43,226	-0,282	-0,176
319,910	2,205	-0,165	-0,082
320,925	562,455	-0,103	-0,171
321,939	800,000	-0,119	-0,250
322,954	132,114	-0,143	-0,127
323,968	344,549	-0,008	-0,011
324,983	-70,697	-0,080	-0,021
325,997	157,033	-0,087	-0,083
327,012	40,759	-0,162	-0,100
328,027	-108,499	-0,103	0,015
329,041	70,271	-0,289	-0,204
330,056	47,056	-0,125	-0,080
331,070	-200,000	0,009	-0,095
332,085	182,554	-0,054	-0,055
333,100	335,296	-0,113	-0,150
334,114	186,657	-0,244	-0,249
335,129	135,390	-0,191	-0,170
336,143	58,921	-0,062	0,042
337,158	800,000	0,039	-0,119
338,173	647,330	-0,070	-0,124
339,187	-200,000	0,022	-0,089
340,202	351,142	-0,107	-0,146
341,216	73,080	-0,213	-0,152
342,231	-21,013	-0,056	-0,023
343,246	-167,426	-0,119	-0,003
344,260	-56,680	-0,127	0,038
345,275	800,000	-0,091	-0,177
346,289	0,892	-0,165	0,081
347,304	-200,000	-0,031	-0,208
348,319	132,793	-0,153	-0,135
349,333	-75,987	-0,069	-0,017
350,348	112,733	-0,129	-0,107
351,362	2,828	-0,066	-0,033
352,377	-157,048	-0,118	-0,005
353,392	113,773	-0,090	-0,075
354,406	19,723	-0,120	-0,066
355,421	206,256	1311,731	1398,897
356,435	158,621	1472,077	1399,399
