DTS Sentinel unit serial number:	SN410029Multiplexer serial number:	ORYXHardware model number:	OX2-SRSoftware version number:	ORYX F/W v4,00 Oryx Data Collector v3.7.2.0data status	okinstallation	B3 Nyhavnadifferential loss correction	single-endedforward channel	channel 1reverse channel	N/Adate	2023/12/03time	05:32:30forward acquisition time	300,00reverse acquisition time	0,00gamma	499,1914k internal	0,3201k external	0,3201temperature offset calibration	1,0000default loss term (dB/km)	0,3820temperature slope calibration	1,0000multiplexer offset coefficient	1,0000multiplexer slope coefficient	1,0000fibre end	0,00T internal ref (°C)	13,28T ext. ref 1 (°C)	-1,72T ext. ref 2 (°C)	-1,73length (m)	temperature (°C)	Stokes	anti-Stokes-744,400	245,782	-0,218	-0,267
-743,385	-200,000	-0,016	0,185
-742,371	-200,000	-0,030	-0,225
-741,356	-200,000	0,093	0,382
-740,342	169,391	-0,206	-0,214
-739,327	408,875	-0,109	0,168
-738,312	-200,000	-0,052	-0,399
-737,298	-200,000	-0,044	0,396
-736,283	36,803	-0,344	-0,220
-735,269	800,000	0,135	0,343
-734,254	800,000	-0,082	-0,229
-733,239	35,214	-0,118	0,075
-732,225	800,000	-0,100	-0,294
-731,210	496,457	0,063	0,105
-730,196	308,463	0,019	0,026
-729,181	2,344	-0,066	-0,034
-728,167	290,123	0,048	0,063
-727,152	-200,000	0,014	0,168
-726,137	-20,269	0,080	-0,036
-725,123	7,824	-0,095	-0,051
-724,108	349,230	-0,110	-0,158
-723,094	-200,000	-0,018	-0,125
-722,079	-138,469	-0,067	-0,005
-721,064	-200,000	0,013	0,062
-720,050	-121,182	0,106	-0,013
-719,035	39,277	-0,061	-0,039
-718,021	-200,000	-0,011	-0,101
-717,006	29,213	-0,171	-0,105
-715,991	402,003	-0,029	-0,044
-714,977	-81,018	-0,153	-0,037
-713,962	800,000	-0,011	0,023
-712,948	15,339	-0,078	0,044
-711,933	81,159	0,070	0,055
-710,918	65,813	-0,117	0,086
-709,904	800,000	0,003	-0,008
-708,889	-29,210	-0,118	0,049
-707,875	-200,000	-0,016	-0,087
-706,860	153,966	-0,150	-0,150
-705,845	-131,507	0,072	0,007
-704,831	-200,000	0,016	0,105
-703,816	342,500	0,011	0,015
-702,802	-200,000	-0,009	-0,077
-701,787	742,955	-0,037	-0,072
-700,772	105,012	0,087	0,074
-699,758	159,416	-0,087	-0,088
-698,743	12,401	0,138	0,077
-697,729	-131,224	-0,061	0,006
-696,714	-200,000	-0,004	0,048
-695,699	-71,966	0,126	0,034
-694,685	-5,433	-0,074	-0,037
-693,670	-83,671	-0,069	-0,016
-692,656	-115,779	0,020	-0,003
-691,641	-200,000	0,016	0,093
-690,627	-74,638	-0,134	-0,035
-689,612	-28,163	-0,129	-0,054
-688,597	404,664	-0,070	0,107
-687,583	224,116	0,043	-0,050
-686,568	-200,000	-0,014	-0,057
-685,554	32,897	-0,066	0,041
-684,539	565,323	0,025	0,045
-683,524	172,414	-0,075	0,078
-682,510	440,103	-0,065	0,104
-681,495	-56,447	0,150	-0,048
-680,481	316,179	-0,092	-0,127
-679,466	-13,217	-0,092	-0,043
-678,451	103,197	-0,041	0,035
-677,437	54,086	0,094	-0,066
-676,422	-200,000	0,031	0,191
-675,408	-30,904	0,154	0,063
-674,393	-200,000	-0,010	-0,052
-673,378	-200,000	-0,028	-0,150
-672,364	800,000	0,036	0,073
-671,349	335,136	0,142	-0,200
-670,335	577,408	-0,025	-0,045
-669,320	-200,000	0,009	-0,039
-668,305	443,776	0,048	-0,077
-667,291	-15,427	-0,053	0,024
-666,276	-200,000	0,002	-0,017
-665,262	-80,968	-0,052	0,012
-664,247	800,000	0,021	-0,053
-663,232	-139,712	0,163	-0,012
-662,218	-89,826	0,241	-0,051
-661,203	38,569	-0,013	0,008
-660,189	-73,814	0,044	-0,012
-659,174	277,072	-0,053	0,068
-658,159	-200,000	0,022	-0,102
-657,145	800,000	-0,027	0,056
-656,130	410,003	-0,058	0,089
-655,116	800,000	-0,033	0,088
-654,101	-58,876	0,126	0,039
-653,086	-144,068	-0,163	-0,011
-652,072	-22,283	-0,152	-0,066
-651,057	800,000	-0,024	0,076
-650,043	453,237	0,027	0,043
-649,028	287,115	-0,053	0,069
-648,014	800,000	0,055	-0,127
-646,999	-200,000	0,016	-0,061
-645,984	-99,118	0,080	-0,014
-644,970	162,846	-0,031	0,031
-643,955	-200,000	-0,056	-0,182
-642,941	664,471	-0,075	-0,142
-641,926	25,293	0,042	0,025
-640,911	-200,000	-0,026	0,089
-639,897	-200,000	0,004	0,127
-638,882	-111,349	-0,096	0,014
-637,868	-6,822	0,125	0,061
-636,853	632,594	-0,055	-0,101
-635,838	-200,000	-0,024	-0,110
-634,824	-200,000	0,013	-0,125
-633,809	800,000	0,039	0,102
-632,795	-41,799	-0,027	-0,010
-631,780	474,824	0,052	-0,085
-630,765	20,207	0,075	-0,044
-629,751	-200,000	0,019	-0,134
-628,736	-200,000	-0,025	-0,089
-627,722	-3,646	-0,050	-0,025
-626,707	528,389	0,043	0,073
-625,692	633,498	-0,065	0,120
-624,678	289,089	0,020	0,026
-623,663	-200,000	0,003	-0,011
-622,649	-98,711	0,112	0,020
-621,634	56,925	-0,106	-0,074
-620,619	-128,532	0,053	0,005
-619,605	2,972	0,077	0,041
-618,590	-200,000	-0,037	-0,124
-617,576	212,015	0,052	-0,059
-616,561	-200,000	-0,002	-0,017
-615,546	-200,000	0,005	-0,075
-614,532	8,792	-0,067	-0,037
-613,517	253,828	-0,092	-0,114
-612,503	248,367	0,065	-0,079
-611,488	-0,871	0,103	0,053
-610,474	49,955	-0,038	0,026
-609,459	-17,200	-0,152	0,069
-608,444	-49,291	0,023	-0,008
-607,430	-200,000	-0,009	-0,078
-606,415	-200,000	0,009	-0,207
-605,401	2,148	0,189	-0,099
-604,386	108,615	-0,076	-0,066
-603,371	100,300	0,050	-0,042
-602,357	-200,000	-0,004	-0,081
-601,342	-200,000	0,047	-0,179
-600,328	800,000	-0,037	0,079
-599,313	491,494	-0,064	-0,106
-598,298	-200,000	-0,002	0,021
-597,284	800,000	-0,048	0,141
-596,269	377,175	0,146	0,216
-595,255	128,141	-0,135	0,124
-594,240	56,461	-0,099	0,069
-593,225	45,919	0,089	-0,060
-592,211	-23,124	0,047	-0,020
-591,196	60,042	-0,102	-0,073
-590,182	527,548	0,064	0,109
-589,167	640,350	0,079	-0,147
-588,152	223,772	-0,081	0,095
-587,138	150,281	0,072	0,071
-586,123	326,722	0,071	-0,098
-585,109	351,607	-0,076	-0,109
-584,094	745,980	-0,049	-0,095
-583,079	-200,000	0,012	-0,068
-582,065	-9,750	0,104	-0,050
-581,050	-125,828	-0,104	0,011
-580,036	222,512	0,038	0,044
-579,021	800,000	0,055	-0,116
-578,006	-200,000	-0,004	-0,028
-576,992	187,050	-0,115	-0,124
-575,977	15,649	-0,142	-0,080
-574,963	-155,275	0,051	0,002
-573,948	-200,000	-0,010	0,068
-572,934	300,133	-0,058	-0,077
-571,919	-200,000	0,014	-0,050
-570,904	-122,884	0,046	-0,005
-569,890	-200,000	0,006	-0,048
-568,875	59,089	0,120	0,085
-567,861	-200,000	0,037	0,128
-566,846	-200,000	-0,006	0,080
-565,831	104,308	0,072	0,061
-564,817	-66,524	0,096	-0,027
-563,802	562,975	0,037	0,066
-562,788	-200,000	-0,003	0,054
-561,773	-63,803	0,183	0,054
-560,758	800,000	-0,045	0,096
-559,744	496,946	0,012	0,021
-558,729	800,000	0,024	0,056
-557,715	280,366	-0,031	-0,040
-556,700	-68,602	-0,148	-0,041
-555,685	-7,896	0,128	-0,062
-554,671	30,327	0,019	-0,012
-553,656	-200,000	-0,015	0,117
-552,642	532,971	-0,058	0,099
-551,627	-185,152	0,031	0,000
-550,612	-135,252	-0,137	-0,012
-549,598	-200,000	-0,035	-0,119
-548,583	-42,215	-0,074	0,027
-547,569	122,402	0,128	-0,116
-546,554	398,889	-0,034	0,052
-545,539	-133,769	0,038	0,003
-544,525	61,691	-0,101	-0,072
-543,510	-1,099	-0,121	0,061
-542,496	371,515	0,037	0,054
-541,481	488,510	-0,042	-0,069
-540,466	800,000	0,027	-0,074
-539,452	-200,000	-0,035	-0,144
-538,437	-154,417	-0,089	-0,004
-537,423	499,036	-0,073	0,122
-536,408	800,000	-0,017	-0,048
-535,393	800,000	0,016	-0,047
-534,379	17,957	-0,100	-0,058
-533,364	59,457	-0,047	-0,033
-532,350	68,719	0,097	-0,072
-531,335	-136,438	-0,032	0,003
-530,321	-200,000	0,003	-0,055
-529,306	26,947	-0,084	-0,051
-528,291	106,647	-0,072	-0,062
-527,277	-80,815	-0,225	0,053
-526,262	-77,425	-0,056	0,014
-525,248	-23,916	0,098	-0,042
-524,233	-93,283	-0,040	-0,008
-523,218	169,972	-0,031	0,032
-522,204	99,675	0,105	-0,088
-521,189	-6,092	-0,080	-0,039
-520,175	462,320	0,029	-0,047
-519,160	-200,000	-0,013	-0,074
-518,145	14,866	-0,125	0,070
-517,131	-200,000	0,007	0,050
-516,116	183,623	-0,102	0,109
-515,102	-77,290	0,083	-0,021
-514,087	800,000	-0,054	-0,136
-513,072	800,000	-0,025	-0,076
-512,058	-37,437	0,062	-0,024
-511,043	48,823	0,121	-0,082
-510,029	-200,000	0,000	0,100
-509,014	800,000	0,065	-0,145
-507,999	-34,002	-0,080	-0,031
-506,985	793,396	0,017	-0,034
-505,970	-200,000	-0,001	0,062
-504,956	-200,000	0,016	-0,052
-503,941	800,000	0,031	-0,081
-502,926	800,000	0,051	0,109
-501,912	-101,896	0,039	0,007
-500,897	-16,369	0,031	0,014
-499,883	741,959	-0,048	0,094
-498,868	-84,408	0,125	0,028
-497,853	800,000	-0,037	-0,076
-496,839	800,000	-0,042	0,092
-495,824	55,370	0,082	0,057
-494,810	-39,086	0,056	0,021
-493,795	-107,158	-0,060	-0,009
-492,781	320,231	0,063	0,087
-491,766	-200,000	-0,018	0,062
-490,751	-200,000	-0,004	-0,036
-489,737	-13,923	0,128	0,059
-488,722	-200,000	-0,001	-0,005
-487,708	-38,532	0,099	0,038
-486,693	201,163	-0,036	-0,040
-485,678	-200,000	-0,013	0,104
-484,664	-200,000	-0,007	-0,102
-483,649	-200,000	-0,025	-0,101
-482,635	325,969	-0,037	-0,051
-481,620	485,592	-0,071	0,117
-480,605	-200,000	-0,022	0,093
-479,591	800,000	-0,016	-0,045
-478,576	197,954	0,056	0,062
-477,562	-200,000	-0,022	-0,106
-476,547	382,365	-0,075	-0,111
-475,532	-112,562	-0,074	-0,011
-474,518	-200,000	0,029	0,114
-473,503	800,000	-0,030	0,075
-472,489	-200,000	-0,008	0,091
-471,474	-200,000	0,024	-0,130
-470,459	-200,000	0,008	-0,064
-469,445	109,730	0,122	-0,106
-468,430	-200,000	-0,001	-0,115
-467,416	664,482	0,025	0,047
-466,401	-78,997	-0,044	-0,011
-465,386	137,330	-0,010	0,009
-464,372	373,607	-0,081	-0,120
-463,357	84,242	0,028	-0,022
-462,343	80,838	-0,058	-0,045
-461,328	-21,936	-0,148	-0,064
-460,313	800,000	0,015	0,046
-459,299	-200,000	-0,029	0,130
-458,284	293,658	0,065	0,085
-457,270	-41,400	-0,072	-0,027
-456,255	800,000	0,012	0,037
-455,241	-126,251	-0,072	-0,008
-454,226	32,406	-0,044	-0,027
-453,211	67,397	-0,115	-0,084
-452,197	-43,251	0,016	-0,006
-451,182	-200,000	0,010	-0,042
-450,168	-128,951	-0,143	-0,014
-449,153	9,491	-0,146	0,079
-448,138	-21,052	-0,050	0,022
-447,124	13,288	0,110	-0,061
-446,109	287,392	-0,043	-0,056
-445,095	-23,282	-0,008	0,004
-444,080	800,000	-0,033	-0,082
-443,065	-118,181	-0,048	-0,006
-442,051	-122,614	0,096	-0,011
-441,036	-200,000	0,004	-0,034
-440,022	-200,000	0,011	-0,105
-439,007	-94,824	0,047	0,009
-437,992	-20,988	-0,070	-0,031
-436,978	-177,332	0,098	0,002
-435,963	-200,000	-0,018	0,089
-434,949	800,000	-0,012	-0,034
-433,934	222,339	-0,030	-0,035
-432,919	105,633	-0,018	0,015
-431,905	-134,107	-0,074	0,006
-430,890	-137,291	0,175	0,014
-429,876	-33,746	-0,058	0,023
-428,861	225,336	0,102	0,119
-427,846	-200,000	0,011	0,074
-426,832	17,928	-0,027	0,015
-425,817	-43,167	0,101	-0,037
-424,803	30,325	-0,173	-0,106
-423,788	-132,846	0,177	0,016
-422,773	99,546	-0,007	0,005
-421,759	-169,507	-0,252	-0,006
-420,744	800,000	0,011	0,029
-419,730	800,000	0,030	-0,078
-418,715	-200,000	0,028	-0,089
-417,701	207,294	-0,083	-0,093
-416,686	260,776	0,070	0,087
-415,671	-200,000	0,007	0,161
-414,657	-61,058	0,110	-0,033
-413,642	415,403	-0,013	0,020
-412,628	-200,000	0,026	0,144
-411,613	-179,249	0,020	-0,000
-410,598	800,000	-0,055	0,114
-409,584	435,658	-0,081	0,127
-408,569	-200,000	0,003	0,117
-407,555	-13,235	0,095	0,044
-406,540	-108,005	-0,063	-0,010
-405,525	166,552	-0,113	0,115
-404,511	-22,632	-0,033	-0,014
-403,496	145,427	-0,059	0,056
-402,482	80,296	-0,081	-0,063
-401,467	536,484	0,085	-0,146
-400,452	62,768	0,100	-0,072
-399,438	800,000	0,032	-0,072
-398,423	-61,950	-0,060	0,018
-397,409	251,527	-0,029	-0,035
-396,394	-13,426	-0,107	-0,050
-395,379	125,928	0,078	0,070
-394,365	341,731	0,067	0,094
-393,350	-200,000	-0,009	-0,031
-392,336	-200,000	-0,022	0,099
-391,321	-200,000	0,014	0,077
-390,306	-200,000	-0,006	0,081
-389,292	-63,824	-0,031	0,009
-388,277	-79,442	-0,035	-0,008
-387,263	800,000	0,025	-0,078
-386,248	154,888	-0,015	-0,015
-385,233	-200,000	0,007	0,148
-384,219	332,550	0,042	0,058
-383,204	-82,432	-0,092	0,021
-382,190	-62,480	-0,025	-0,007
-381,175	240,515	0,042	-0,051
-380,160	-70,685	0,102	-0,028
-379,146	329,819	-0,039	0,054
-378,131	800,000	0,019	-0,048
-377,117	577,745	-0,032	-0,056
-376,102	300,792	-0,077	-0,102
-375,088	486,437	-0,039	-0,064
-374,073	30,222	-0,148	-0,090
-373,058	-200,000	-0,029	0,194
-372,044	800,000	-0,079	0,158
-371,029	74,751	0,142	0,107
-370,015	800,000	0,024	0,049
-369,000	-200,000	-0,014	-0,077
-367,985	425,103	-0,026	-0,040
-366,971	657,563	-0,030	-0,056
-365,956	405,128	0,037	-0,056
-364,942	-145,163	0,123	-0,008
-363,927	-101,324	0,084	-0,015
-362,912	-70,752	0,056	0,015
-361,898	28,116	0,093	-0,056
-360,883	45,344	-0,050	-0,033
-359,869	800,000	-0,010	0,030
-358,854	-68,087	0,169	0,047
-357,839	134,965	0,107	0,099
-356,825	136,116	0,108	0,101
-355,810	280,081	0,020	-0,026
-354,796	-101,177	0,029	-0,005
-353,781	-200,000	-0,025	-0,105
-352,766	-70,914	-0,186	-0,050
-351,752	135,808	-0,068	-0,063
-350,737	287,730	0,061	-0,079
-349,723	-102,019	0,076	0,013
-348,708	-200,000	-0,014	0,104
-347,693	154,384	0,061	0,060
-346,679	444,591	-0,038	-0,060
-345,664	800,000	-0,036	0,075
-344,650	800,000	-0,039	0,101
-343,635	-70,012	0,125	0,034
-342,620	374,914	0,045	-0,065
-341,606	-62,247	0,134	-0,040
-340,591	153,200	-0,116	-0,113
-339,577	505,147	-0,076	-0,127
-338,562	12,191	0,051	-0,028
-337,548	-155,604	-0,186	0,008
-336,533	-200,000	0,001	-0,096
-335,518	-200,000	0,045	0,165
-334,504	800,000	0,053	0,149
-333,489	88,410	-0,065	0,052
-332,475	119,122	-0,037	0,033
-331,460	-69,497	-0,080	0,022
-330,445	-73,178	0,150	0,039
-329,431	800,000	0,069	0,180
-328,416	-155,859	-0,008	0,000
-327,402	68,850	0,118	0,086
-326,387	-165,412	-0,052	-0,002
-325,372	800,000	-0,052	-0,106
-324,358	79,123	-0,098	0,075
-323,343	-88,443	0,126	-0,027
-322,329	154,086	0,041	0,041
-321,314	761,953	0,087	0,169
-320,299	-113,788	0,021	-0,003
-319,285	136,909	0,141	0,132
-318,270	-116,667	-0,078	0,010
-317,256	800,000	-0,012	-0,034
-316,241	-126,040	0,037	-0,004
-315,226	-200,000	0,003	0,053
-314,212	-200,000	0,003	0,116
-313,197	58,343	0,073	-0,051
-312,183	2,593	-0,081	-0,042
-311,168	-200,000	-0,029	-0,105
-310,153	-200,000	-0,010	-0,065
-309,139	101,034	0,095	-0,079
-308,124	-21,891	0,091	-0,040
-307,110	-200,000	0,005	0,096
-306,095	518,534	0,045	0,076
-305,080	109,909	0,063	0,054
-304,066	298,992	-0,014	0,018
-303,051	311,516	-0,006	0,009
-302,037	-139,013	0,148	-0,011
-301,022	-22,718	0,107	-0,046
-300,008	214,426	-0,045	0,051
-298,993	115,622	0,121	0,106
-297,978	-83,651	0,090	0,020
-296,964	-77,196	-0,055	0,014
-295,949	-200,000	0,022	-0,107
-294,935	247,373	0,082	-0,099
-293,920	641,845	0,040	0,072
-292,905	-44,884	0,008	-0,003
-291,891	14,000	0,124	-0,069
-290,876	31,591	0,077	0,047
-289,862	102,650	-0,133	0,111
-288,847	800,000	0,027	-0,062
-287,832	-32,330	-0,058	0,023
-286,818	20,982	0,062	-0,036
-285,803	-200,000	-0,026	0,130
-284,789	38,008	-0,062	0,039
-283,774	-200,000	0,020	0,068
-282,759	-8,430	-0,064	0,031
-281,745	258,278	0,094	-0,115
-280,730	800,000	0,017	-0,050
-279,716	411,629	-0,033	-0,049
-278,701	125,070	-0,066	-0,059
-277,686	78,563	-0,027	0,020
-276,672	800,000	0,031	0,081
-275,657	800,000	0,067	0,137
-274,643	44,032	-0,126	-0,083
-273,628	94,174	-0,034	0,028
-272,613	132,632	-0,068	0,062
-271,599	204,494	0,137	-0,152
-270,584	-76,938	-0,024	-0,006
-269,570	60,404	-0,065	-0,046
-268,555	-33,402	0,040	0,016
-267,540	27,571	-0,019	-0,012
-266,526	-200,000	0,002	-0,049
-265,511	17,001	-0,089	0,050
-264,497	572,453	0,034	0,059
-263,482	-200,000	0,034	0,173
-262,467	800,000	0,033	0,083
-261,453	-200,000	0,024	0,117
-260,438	84,167	-0,084	0,066
-259,424	508,812	-0,036	0,060
-258,409	-200,000	-0,027	-0,095
-257,395	-200,000	0,007	-0,062
-256,380	568,452	-0,005	0,008
-255,365	-52,795	-0,043	0,014
-254,351	800,000	0,059	0,155
-253,336	20,977	0,122	-0,070
-252,322	182,693	-0,075	-0,079
-251,307	800,000	-0,055	-0,164
-250,292	-113,303	0,095	0,013
-249,278	-16,432	-0,071	0,032
-248,263	16,618	0,072	-0,041
-247,249	201,780	-0,086	0,094
-246,234	800,000	-0,054	-0,141
-245,219	-83,361	0,092	0,021
-244,205	-62,146	-0,037	-0,011
-243,190	-102,621	0,048	-0,008
-242,176	-0,068	0,084	0,043
-241,161	800,000	-0,014	0,033
-240,146	75,902	0,018	0,014
-239,132	800,000	-0,022	-0,055
-238,117	103,041	-0,105	-0,087
-237,103	7,123	-0,065	0,034
-236,088	-8,745	-0,082	0,039
-235,073	175,215	0,060	-0,062
-234,059	-200,000	0,014	-0,046
-233,044	800,000	-0,019	0,056
-232,030	360,379	-0,055	0,079
-231,015	-200,000	0,010	0,085
-230,000	28,399	0,063	-0,038
-228,986	-200,000	-0,015	-0,097
-227,971	-200,000	0,016	0,060
-226,957	25,183	-0,031	-0,018
-225,942	-143,543	0,065	-0,004
-224,927	11,379	-0,088	0,048
-223,913	-13,522	-0,049	0,023
-222,898	340,431	-0,118	-0,165
-221,884	173,114	0,063	-0,065
-220,869	72,084	0,080	-0,059
-219,855	800,000	0,016	-0,043
-218,840	130,670	0,094	0,086
-217,825	544,148	-0,078	0,134
-216,811	-120,196	-0,141	0,017
-215,796	581,332	0,032	0,056
-214,782	-200,000	-0,027	-0,231
-213,767	-1,239	0,185	-0,093
-212,752	-64,839	0,138	0,039
-211,738	-200,000	0,010	0,117
-210,723	-200,000	-0,000	-0,023
-209,709	-89,731	-0,029	-0,006
-208,694	-69,208	0,116	0,032
-207,679	89,701	0,037	-0,030
-206,665	-147,928	0,105	-0,006
-205,650	-200,000	0,008	0,104
-204,636	-123,025	0,104	0,012
-203,621	800,000	0,071	0,151
-202,606	-200,000	-0,007	-0,046
-201,592	392,067	-0,072	-0,107
-200,577	110,367	-0,106	0,091
-199,563	-90,649	-0,099	-0,020
-198,548	3,575	0,120	0,062
-197,533	152,894	0,104	0,102
-196,519	800,000	-0,067	0,154
-195,504	44,067	-0,074	0,048
-194,490	-59,817	-0,053	-0,016
-193,475	-12,271	0,054	-0,025
-192,460	-200,000	0,017	-0,141
-191,446	-87,305	0,146	0,031
-190,431	133,023	0,016	-0,015
-189,417	153,816	-0,038	0,037
-188,402	781,444	-0,103	0,202
-187,387	344,506	-0,011	0,015
-186,373	-133,338	-0,077	0,007
-185,358	-200,000	-0,002	-0,043
-184,344	-15,026	-0,079	0,036
-183,329	-40,060	-0,010	-0,004
-182,315	146,341	-0,080	0,077
-181,300	-200,000	-0,024	-0,100
-180,285	-56,199	-0,136	0,043
-179,271	71,591	-0,091	0,067
-178,256	361,329	0,046	-0,066
-177,242	55,670	0,054	0,037
-176,227	135,185	0,079	-0,073
-175,212	-200,000	0,014	-0,044
-174,198	45,012	-0,041	-0,027
-173,183	303,885	-0,052	0,069
-172,169	-200,000	0,009	0,040
-171,154	800,000	-0,043	0,116
-170,139	-200,000	-0,020	0,073
-169,125	-165,280	0,066	0,002
-168,110	74,986	0,082	-0,061
-167,096	139,581	-0,092	-0,086
-166,081	800,000	0,048	-0,127
-165,066	-102,676	-0,205	-0,034
-164,052	89,221	-0,076	0,060
-163,037	800,000	0,039	0,085
-162,023	431,305	0,006	0,010
-161,008	-14,951	0,049	0,022
-159,993	800,000	0,011	-0,028
-158,979	-28,331	0,102	-0,042
-157,964	800,000	0,046	-0,092
-156,950	130,977	-0,070	-0,064
-155,935	197,593	-0,080	0,087
-154,920	32,121	-0,062	0,038
-153,906	324,465	0,109	0,149
-152,891	-200,000	0,024	0,095
-151,877	-87,652	0,032	0,007
-150,862	-200,000	-0,009	0,132
-149,847	707,157	-0,034	0,064
-148,833	-200,000	0,007	0,038
-147,818	-103,428	0,253	0,042
-146,804	182,858	-0,092	0,097
-145,789	277,813	0,061	-0,078
-144,775	-40,461	0,083	0,031
-143,760	581,714	0,030	0,053
-142,745	-200,000	-0,000	-0,125
-141,731	112,877	0,051	0,044
-140,716	-3,355	-0,067	0,033
-139,702	-9,103	-0,150	-0,071
-138,687	800,000	0,037	0,084
-137,672	54,375	0,030	-0,020
-136,658	-73,531	-0,063	-0,016
-135,643	-200,000	0,005	-0,071
-134,629	34,604	-0,065	-0,040
-133,614	148,203	0,171	0,164
-132,599	161,704	-0,018	-0,018
-131,585	341,830	0,082	-0,114
-130,570	-3,847	-0,138	0,068
-129,556	-36,238	0,113	0,043
-128,541	-200,000	-0,006	-0,038
-127,526	800,000	-0,040	0,083
-126,512	629,308	0,059	-0,107
-125,497	-200,000	-0,021	0,138
-124,483	319,813	-0,062	0,084
-123,468	521,947	0,106	-0,177
-122,453	-77,739	-0,152	0,037
-121,439	318,922	-0,095	-0,128
-120,424	-200,000	0,000	0,027
-119,410	-200,000	0,005	-0,021
-118,395	800,000	0,096	0,212
-117,380	-200,000	0,004	0,172
-116,366	-45,780	-0,168	0,059
-115,351	-145,326	0,135	-0,009
-114,337	143,519	-0,060	0,057
-113,322	-200,000	0,013	0,099
-112,307	-102,116	-0,145	0,025
-111,293	13,685	-0,059	-0,033
-110,278	-64,405	0,106	0,030
-109,264	41,158	0,083	-0,053
-108,249	340,944	-0,024	0,034
-107,234	729,235	0,071	-0,135
-106,220	-200,000	-0,004	-0,167
-105,205	-88,603	0,125	0,026
-104,191	-200,000	-0,024	0,156
-103,176	144,705	-0,017	-0,016
-102,162	800,000	0,023	0,060
-101,147	641,798	0,003	-0,005
-100,132	-73,202	0,092	-0,024
-99,118	-37,573	-0,121	-0,045
-98,103	-200,000	0,010	-0,089
-97,089	637,431	-0,046	0,084
-96,074	-200,000	-0,037	0,176
-95,059	-20,569	-0,079	0,034
-94,045	800,000	0,070	0,154
-93,030	-1,726	-0,096	-0,048
-92,016	66,286	-0,047	-0,034
-91,001	800,000	0,022	-0,046
-89,986	-79,910	0,024	0,006
-88,972	400,122	-0,041	0,061
-87,957	-42,762	0,182	0,065
-86,943	483,354	-0,014	0,023
-85,928	536,740	-0,068	-0,114
-84,913	-200,000	0,013	-0,049
-83,899	-200,000	-0,016	-0,069
-82,884	36,182	0,046	-0,029
-81,870	-40,796	0,092	0,034
-80,855	-200,000	-0,002	0,083
-79,840	106,077	0,151	-0,126
-78,826	21,120	-0,097	-0,056
-77,811	63,106	-0,148	-0,105
-76,797	-200,000	-0,000	-0,077
-75,782	750,596	-0,062	-0,118
-74,767	2,533	-0,043	0,022
-73,753	800,000	-0,034	-0,093
-72,738	105,549	0,104	-0,087
-71,724	291,036	0,034	0,043
-70,709	800,000	-0,030	0,088
-69,694	81,438	0,159	0,122
-68,680	78,887	0,149	0,113
-67,665	350,174	0,039	0,055
-66,651	800,000	0,040	-0,083
-65,636	157,184	-0,084	0,083
-64,622	-200,000	0,010	-0,062
-63,607	-109,743	-0,071	-0,010
-62,592	180,672	-0,035	0,036
-61,578	-200,000	-0,009	0,109
-60,563	173,452	-0,033	-0,034
-59,549	800,000	-0,003	0,009
-58,534	7,918	-1,548	-0,820
-57,519	413,050	-1,419	-2,143
-56,505	-200,000	-0,449	-4,596
-55,490	240,160	0,942	1,113
-54,476	800,000	5,097	11,418
-53,461	-200,000	19,160	319,843
-52,446	-200,000	740,643	2333,678
-51,432	573,124	1655,364	2868,407
-50,417	78,296	1671,149	1261,982
-49,403	21,273	1544,179	885,618
-48,388	15,149	1466,502	811,281
-47,373	17,930	1456,610	819,221
-46,359	16,643	1446,460	807,304
-45,344	13,371	1442,028	789,121
-44,330	13,293	1440,141	787,686
-43,315	13,315	1438,377	786,797
-42,300	13,344	1436,775	786,027
-41,286	13,324	1435,584	785,250
-40,271	13,283	1434,143	784,232
-39,257	13,307	1432,595	783,472
-38,242	13,392	1431,376	783,175
-37,227	13,384	1430,297	782,518
-36,213	13,382	1428,820	781,670
-35,198	13,415	1427,601	781,129
-34,184	13,442	1426,723	780,745
-33,169	13,384	1425,284	779,650
-32,154	13,412	1424,254	779,187
-31,140	13,389	1423,200	778,470
-30,125	13,448	1421,975	778,049
-29,111	13,397	1421,023	777,255
-28,096	13,360	1419,663	776,307
-27,082	13,345	1418,594	775,624
-26,067	13,311	1417,869	775,034
-25,052	13,306	1416,567	774,267
-24,038	13,299	1415,445	773,592
-23,023	13,277	1414,475	772,928
-22,009	13,261	1413,645	772,368
-20,994	13,248	1412,622	771,718
-19,979	13,318	1411,735	771,529
-18,965	13,217	1410,798	770,516
-17,950	13,193	1409,840	769,849
-16,936	13,238	1409,062	769,602
-15,921	13,235	1407,725	768,829
-14,906	13,201	1407,016	768,252
-13,892	13,225	1405,840	767,693
-12,877	13,195	1405,044	767,084
-11,863	13,240	1404,145	766,777
-10,848	13,258	1403,132	766,273
-9,833	13,180	1402,459	765,516
-8,819	13,127	1401,834	764,897
-7,804	13,121	1400,790	764,268
-6,790	13,140	1399,614	763,682
-5,775	13,162	1398,428	763,108
-4,760	13,132	1397,631	762,502
-3,746	13,133	1396,654	761,945
-2,731	13,064	1396,004	761,242
-1,717	13,100	1394,924	760,789
-0,702	13,103	1393,089	759,772
0,313	16,995	1309,859	732,391
1,327	33,246	703,906	431,148
2,342	51,299	123,325	82,698
3,356	3,899	16,562	8,535
4,371	15,612	3,149	1,746
5,386	34,247	0,611	0,376
6,400	-200,000	-0,033	0,243
7,415	-10,157	-0,249	-0,117
8,429	97,356	-0,175	-0,142
9,444	-10,244	-0,323	-0,151
10,459	560,111	-0,146	-0,250
11,473	-61,003	-0,315	-0,093
12,488	-13,769	-0,294	-0,134
13,502	800,000	-0,169	-0,340
14,517	91,583	-0,332	-0,263
15,531	15,403	-0,425	-0,235
16,546	106,616	-0,206	-0,173
17,561	79,820	-0,345	-0,262
18,575	46,253	-0,189	-0,124
19,590	721,141	-0,117	-0,220
20,604	-136,656	-0,211	-0,017
21,619	8,578	-0,446	-0,237
22,634	104,111	-0,440	-0,365
23,648	90,801	-0,461	-0,364
24,663	133,601	-0,354	-0,323
25,677	248,546	-0,277	-0,331
26,692	193,190	-0,225	-0,240
27,707	56,401	-0,354	-0,242
28,721	92,690	-0,373	-0,297
29,736	169,809	-0,383	-0,387
30,750	51,779	-0,413	-0,277
31,765	321,187	-0,367	-0,493
32,780	478,965	-0,208	-0,333
33,794	48,597	-0,339	-0,224
34,809	-79,708	-0,297	-0,070
35,823	58,769	-0,357	-0,247
36,838	-22,663	-0,293	-0,124
37,853	99,983	-0,297	-0,243
38,867	-1,807	-0,369	-0,182
39,882	98,714	-0,349	-0,283
40,896	-48,025	-0,497	-0,169
41,911	24,152	-0,329	-0,191
42,926	84,867	-0,404	-0,312
43,940	52,643	-0,454	-0,305
44,955	87,223	-0,371	-0,289
45,969	54,385	-0,396	-0,268
46,984	31,335	-0,358	-0,216
47,999	71,299	-0,296	-0,216
49,013	389,002	-0,243	-0,355
50,028	18,259	-0,384	-0,215
51,042	10,697	-0,322	-0,173
52,057	-54,500	-0,287	-0,091
53,071	293,595	-0,266	-0,343
54,086	117,776	-0,325	-0,282
55,101	62,559	-0,219	-0,154
56,115	28,926	-0,344	-0,205
57,130	178,686	-0,357	-0,368
58,144	28,322	-0,343	-0,204
59,159	74,543	-0,378	-0,279
60,174	82,241	-0,272	-0,208
61,188	-28,213	-0,429	-0,174
62,203	127,352	-0,276	-0,246
63,217	97,412	-0,308	-0,249
64,232	-143,828	-0,324	-0,021
65,247	43,417	-0,311	-0,200
66,261	-32,509	-0,447	-0,174
67,276	-11,391	-0,239	-0,110
68,290	-16,182	-0,460	-0,205
69,305	-28,410	-0,298	-0,120
70,320	153,938	-0,182	-0,176
71,334	-112,783	-0,309	-0,043
72,349	3,316	-0,439	-0,224
73,363	198,032	-0,268	-0,288
74,378	35,117	-0,395	-0,243
75,393	94,469	-0,235	-0,188
76,407	-172,341	-0,301	-0,007
77,422	-135,584	-0,199	0,016
78,436	33,201	-0,344	-0,209
79,451	526,665	-0,195	-0,324
80,466	-8,463	-0,441	-0,208
81,480	102,387	-0,304	-0,249
82,495	-6,288	-0,306	-0,146
83,509	-38,486	-0,315	-0,116
84,524	46,236	-0,127	-0,082
85,539	94,198	-0,257	-0,205
86,553	106,050	-0,223	-0,185
87,568	83,394	-0,288	-0,220
88,582	143,864	-0,309	-0,289
89,597	243,364	-0,223	-0,263
90,611	176,456	-0,236	-0,241
91,626	94,033	-0,276	-0,220
92,641	462,845	-0,154	-0,242
93,655	-59,162	-0,340	-0,102
94,670	44,271	-0,354	-0,227
95,684	195,577	-0,343	-0,366
96,699	33,773	-0,252	-0,153
97,714	-27,556	-0,322	-0,131
98,728	-80,910	-0,191	-0,044
99,743	-60,283	-0,242	-0,072
100,757	55,695	-0,194	-0,131
101,772	-145,252	-0,306	-0,019
102,787	70,160	-0,317	-0,229
103,801	-87,752	-0,250	-0,052
104,816	-145,040	-0,327	-0,021
105,830	17,795	-0,244	-0,136
106,845	165,282	-0,163	-0,162
107,860	-36,145	-0,188	-0,071
108,874	53,840	-0,200	-0,135
109,889	130,725	-0,253	-0,228
110,903	39,096	-0,269	-0,168
111,918	-32,265	-0,386	-0,150
112,933	346,363	-0,250	-0,345
113,947	-99,317	-0,343	-0,060
114,962	118,924	-0,271	-0,235
115,976	6,108	-0,289	-0,149
116,991	263,135	-0,120	-0,147
118,006	9,854	-0,386	-0,205
119,020	148,594	-0,177	-0,167
120,035	-45,425	-0,170	-0,059
121,049	69,535	-0,192	-0,138
122,064	68,976	-0,151	-0,108
123,079	516,682	-0,071	-0,116
124,093	-68,834	-0,291	-0,078
125,108	-30,833	-0,338	-0,133
126,122	51,761	-0,136	-0,091
127,137	-190,661	-0,219	0,002
128,151	19,927	-0,218	-0,122
129,166	38,419	-0,197	-0,122
130,181	124,967	-0,350	-0,309
131,195	13,098	-0,276	-0,149
132,210	-29,793	-0,241	-0,096
133,224	354,685	-0,118	-0,164
134,239	-38,002	-0,270	-0,100
135,254	-57,940	-0,224	-0,068
136,268	-58,395	-0,235	-0,071
137,283	424,173	-0,160	-0,241
138,297	259,813	-0,205	-0,247
139,312	19,528	-0,319	-0,179
140,327	-5,206	-0,230	-0,110
141,341	-27,212	-0,288	-0,117
142,356	179,201	-0,185	-0,189
143,370	237,137	-0,242	-0,281
144,385	44,730	-0,405	-0,260
145,400	50,169	-0,198	-0,131
146,414	131,065	-0,426	-0,382
147,429	94,909	-0,239	-0,190
148,443	297,286	-0,192	-0,246
149,458	184,684	-0,135	-0,140
150,473	118,998	-0,258	-0,223
151,487	308,996	-0,135	-0,177
152,502	-29,524	-0,268	-0,106
153,516	100,955	-0,230	-0,187
154,531	50,019	-0,432	-0,284
155,546	269,085	-0,182	-0,224
156,560	450,469	-0,121	-0,188
157,575	163,376	-0,193	-0,189
158,589	429,977	-0,164	-0,248
159,604	-14,275	-0,315	-0,141
160,619	366,268	-0,195	-0,275
161,633	0,992	-0,359	-0,179
162,648	-141,377	-0,172	-0,012
163,662	99,327	-0,208	-0,167
164,677	96,954	-0,181	-0,144
165,692	-80,749	-0,327	-0,075
166,706	78,773	-0,170	-0,127
167,721	50,783	-0,269	-0,177
168,735	154,347	-0,197	-0,189
169,750	90,336	-0,223	-0,174
170,764	289,018	-0,058	-0,073
171,779	592,502	-0,150	-0,259
172,794	-156,755	-0,255	-0,011
173,808	136,863	-0,283	-0,258
174,823	327,268	-0,105	-0,141
175,837	189,363	-0,189	-0,198
176,852	-87,795	-0,235	-0,049
177,867	-67,238	-0,243	-0,066
178,881	-162,334	-0,277	0,009
179,896	177,797	-0,125	-0,127
180,910	60,070	-0,200	-0,138
181,925	199,680	-0,248	-0,266
182,940	-9,853	-0,418	-0,193
183,954	259,481	-0,180	-0,216
184,969	800,000	-0,094	-0,231
185,983	-54,066	-0,206	-0,065
186,998	348,567	-0,170	-0,234
188,013	12,387	-0,136	-0,073
189,027	214,049	-0,163	-0,180
190,042	389,866	-0,197	-0,285
191,056	73,170	-0,265	-0,193
192,071	218,920	-0,211	-0,234
193,086	423,790	-0,186	-0,278
194,100	157,522	-0,193	-0,186
195,115	-116,449	-0,211	-0,027
196,129	-68,238	-0,363	-0,098
197,144	433,235	-0,085	-0,129
198,159	339,310	-0,235	-0,319
199,173	354,173	-0,186	-0,258
200,188	181,359	-0,160	-0,164
201,202	-24,518	-0,254	-0,105
202,217	213,890	-0,203	-0,224
203,232	48,071	-0,178	-0,115
204,246	78,764	-0,213	-0,159
205,261	302,076	-0,151	-0,195
206,275	88,555	-0,127	-0,098
207,290	99,930	-0,112	-0,090
208,304	75,347	-0,224	-0,164
209,319	114,381	-0,284	-0,240
210,334	115,320	-0,194	-0,165
211,348	800,000	-0,135	-0,278
212,363	34,950	-0,303	-0,184
213,377	380,261	-0,182	-0,260
214,392	-81,102	-0,229	-0,052
215,407	-97,821	-0,221	-0,039
216,421	45,868	-0,204	-0,131
217,436	28,711	-0,181	-0,106
218,450	10,621	-0,198	-0,105
219,465	24,789	-0,222	-0,127
220,480	133,658	-0,235	-0,211
221,494	-72,129	-0,173	-0,044
222,509	101,876	-0,120	-0,097
223,523	75,626	-0,208	-0,152
224,538	107,761	-0,152	-0,125
225,553	193,557	-0,173	-0,182
226,567	52,626	-0,204	-0,135
227,582	39,276	-0,210	-0,130
228,596	353,808	-0,102	-0,141
229,611	-200,000	0,013	-0,126
230,626	122,511	-0,182	-0,158
231,640	30,960	-0,197	-0,117
232,655	-200,000	-0,074	-0,237
233,669	800,000	-0,099	-0,209
234,684	38,848	-0,164	-0,101
235,699	48,464	-0,096	-0,063
236,713	23,316	-0,225	-0,128
237,728	-108,626	-0,221	-0,032
238,742	-29,063	-0,210	-0,083
239,757	131,176	-0,184	-0,164
240,772	235,904	-0,182	-0,209
241,786	68,666	-0,139	-0,099
242,801	105,134	-0,120	-0,098
243,815	-99,676	-0,042	-0,007
244,830	102,344	-0,044	-0,036
245,844	135,732	-0,206	-0,186
246,859	19,708	-0,244	-0,136
247,874	351,264	-0,139	-0,190
248,888	152,680	-0,159	-0,150
249,903	197,223	-0,162	-0,171
250,917	227,417	-0,099	-0,112
251,932	-156,088	-0,211	-0,009
252,947	1,893	-0,126	0,063
253,961	245,263	-0,153	-0,179
254,976	39,425	-0,199	-0,123
255,990	138,741	-0,216	-0,196
257,005	226,901	-0,099	-0,111
258,020	70,307	-0,129	-0,092
259,034	36,576	-0,187	-0,114
260,049	0,948	-0,177	-0,087
261,063	-200,000	-0,041	-0,169
262,078	800,000	-0,088	-0,260
263,093	304,272	-0,180	-0,232
264,107	428,167	-0,108	-0,161
265,122	-59,052	-0,116	-0,034
266,136	209,760	-0,083	-0,091
267,151	-32,088	-0,091	-0,035
268,166	-130,705	-0,284	-0,026
269,180	-109,205	-0,208	-0,030
270,195	246,195	-0,263	-0,307
271,209	229,334	-0,228	-0,257
272,224	82,391	-0,159	-0,119
273,239	37,435	-0,114	-0,069
274,253	123,815	-0,133	-0,115
275,268	36,475	-0,177	-0,108
276,282	80,857	-0,180	-0,134
277,297	18,562	-0,343	-0,189
278,312	306,811	-0,085	-0,110
279,326	-200,000	0,005	-0,021
280,341	90,434	-0,142	-0,109
281,355	18,972	-0,208	-0,115
282,370	154,896	-0,112	-0,106
283,384	273,836	-0,117	-0,143
284,399	60,757	-0,165	-0,113
285,414	800,000	-0,123	-0,242
286,428	-200,000	-0,052	-0,180
287,443	420,827	-0,106	-0,158
288,457	-159,669	-0,173	-0,006
289,472	-200,000	-0,002	-0,172
290,487	-23,398	-0,218	-0,090
291,501	-100,500	-0,191	-0,032
292,516	225,698	-0,173	-0,194
293,530	19,994	-0,180	-0,100
294,545	37,737	-0,104	0,064
295,560	-120,436	-0,120	0,014
296,574	-144,884	-0,204	0,013
297,589	160,760	-0,178	-0,171
298,603	100,059	-0,193	-0,154
299,618	104,302	-0,204	-0,166
300,633	-115,604	-0,245	0,031
301,647	237,613	-0,111	-0,127
302,662	16,449	-0,263	-0,143
303,676	-49,291	-0,176	-0,058
304,691	325,443	-0,055	-0,073
305,706	141,764	-0,216	-0,198
306,720	766,820	-0,124	-0,234
307,735	61,969	-0,132	-0,090
308,749	800,000	-0,047	-0,135
309,764	-200,000	0,007	-0,142
310,779	-30,204	-0,194	-0,076
311,793	421,144	-0,110	-0,164
312,808	64,566	-0,179	-0,124
313,822	-13,546	-0,193	-0,086
314,837	69,070	-0,084	-0,059
315,852	-3,057	-0,136	-0,065
316,866	624,843	-0,051	-0,088
317,881	-200,000	-0,016	0,122
318,895	-80,026	-0,215	0,049
319,910	800,000	-0,102	-0,211
320,925	272,677	-0,091	-0,110
321,939	200,220	-0,148	-0,156
322,954	599,622	-0,066	-0,113
323,968	770,170	-0,060	-0,114
324,983	18,923	-0,070	-0,039
325,997	58,528	-0,084	0,056
327,012	-7,245	-0,035	-0,016
328,027	-71,752	-0,219	-0,056
329,041	-200,000	0,030	-0,101
330,056	-52,080	-0,168	0,053
331,070	800,000	-0,042	-0,113
332,085	412,895	-0,092	-0,135
333,100	-73,682	-0,059	-0,015
334,114	-94,254	-0,189	-0,035
335,129	83,836	-0,195	-0,146
336,143	-49,498	-0,305	-0,099
337,158	432,126	-0,107	-0,161
338,173	659,115	-0,060	-0,106
339,187	20,049	-0,075	-0,042
340,202	800,000	-0,080	-0,184
341,216	800,000	-0,032	-0,080
342,231	107,715	-0,146	-0,119
343,246	-200,000	-0,056	-0,217
344,260	-104,450	-0,100	-0,016
345,275	-155,534	-0,106	-0,005
346,289	71,643	-0,118	-0,084
347,304	-89,355	-0,095	-0,019
348,319	113,220	-0,184	-0,153
349,333	455,689	-0,125	-0,190
350,348	6,237	-0,148	-0,075
351,362	-74,088	-0,035	-0,009
352,377	-65,211	-0,132	-0,036
353,392	800,000	-0,055	-0,114
354,406	-70,695	-0,085	-0,022
355,421	208,135	1314,508	1410,796
356,435	160,137	1475,203	1411,282
