DTS Sentinel unit serial number:	SN410029Multiplexer serial number:	ORYXHardware model number:	OX2-SRSoftware version number:	ORYX F/W v4,00 Oryx Data Collector v3.7.2.0data status	okinstallation	B3 Nyhavnadifferential loss correction	single-endedforward channel	channel 1reverse channel	N/Adate	2023/11/30time	14:07:30forward acquisition time	300,00reverse acquisition time	0,00gamma	499,1914k internal	0,3212k external	0,3212temperature offset calibration	1,0000default loss term (dB/km)	0,3820temperature slope calibration	1,0000multiplexer offset coefficient	1,0000multiplexer slope coefficient	1,0000fibre end	0,00T internal ref (°C)	11,37T ext. ref 1 (°C)	-1,89T ext. ref 2 (°C)	-1,99length (m)	temperature (°C)	Stokes	anti-Stokes-744,400	349,630	-0,144	-0,207
-743,385	-200,000	-0,032	0,270
-742,371	800,000	-0,165	-0,379
-741,356	-200,000	-0,056	0,336
-740,342	164,594	-0,157	-0,161
-739,327	-200,000	-0,034	0,299
-738,312	86,051	-0,288	-0,229
-737,298	-200,000	0,000	0,375
-736,283	800,000	-0,124	-0,259
-735,269	-200,000	0,034	0,277
-734,254	80,131	-0,253	-0,197
-733,239	513,899	-0,115	0,195
-732,225	800,000	-0,103	-0,211
-731,210	800,000	0,115	0,270
-730,196	-51,122	-0,182	-0,061
-729,181	-200,000	-0,022	-0,074
-728,167	-61,007	0,059	0,018
-727,152	269,036	-0,053	0,068
-726,137	-95,189	-0,147	-0,028
-725,123	800,000	0,031	-0,081
-724,108	-200,000	0,001	-0,105
-723,094	800,000	-0,042	-0,111
-722,079	341,441	-0,070	0,099
-721,064	-200,000	-0,041	0,147
-720,050	148,167	-0,029	0,028
-719,035	90,886	-0,067	0,055
-718,021	-84,674	0,148	-0,034
-717,006	145,530	-0,120	-0,117
-715,991	16,972	0,003	0,002
-714,977	-99,893	-0,245	-0,044
-713,962	-200,000	0,022	0,168
-712,948	-34,375	-0,156	0,062
-711,933	16,736	0,073	0,042
-710,918	37,005	0,124	-0,079
-709,904	-200,000	0,015	-0,178
-708,889	-200,000	0,015	-0,117
-707,875	-122,514	-0,095	-0,011
-706,860	-115,112	-0,136	0,018
-705,845	-200,000	0,014	0,100
-704,831	153,964	0,027	-0,027
-703,816	-200,000	-0,009	0,047
-702,802	302,150	-0,086	-0,115
-701,787	-200,000	-0,002	-0,033
-700,772	129,017	0,029	-0,027
-699,758	800,000	-0,013	0,029
-698,743	-18,483	-0,078	0,035
-697,729	-200,000	0,004	-0,060
-696,714	-128,193	-0,104	-0,011
-695,699	8,525	0,040	-0,022
-694,685	512,051	-0,039	0,066
-693,670	175,837	-0,067	-0,071
-692,656	-3,439	0,161	-0,081
-691,641	58,369	-0,017	-0,012
-690,627	-108,086	0,090	0,014
-689,612	-155,109	-0,125	-0,006
-688,597	-200,000	-0,021	-0,089
-687,583	-51,824	-0,080	-0,027
-686,568	-200,000	-0,007	0,035
-685,554	-36,104	0,067	-0,026
-684,539	-99,606	-0,118	0,021
-683,524	-200,000	-0,003	0,016
-682,510	-3,563	-0,159	0,079
-681,495	-17,812	-0,020	-0,009
-680,481	-101,680	-0,046	-0,008
-679,466	392,780	0,057	-0,086
-678,451	-59,952	0,084	-0,026
-677,437	227,241	0,026	-0,030
-676,422	800,000	-0,014	-0,034
-675,408	39,368	-0,084	0,054
-674,393	418,337	-0,057	0,088
-673,378	-79,083	-0,129	-0,032
-672,364	244,331	-0,033	-0,041
-671,349	57,024	-0,072	-0,051
-670,335	800,000	-0,022	-0,060
-669,320	800,000	0,026	0,070
-668,305	800,000	-0,047	-0,118
-667,291	258,763	-0,114	-0,142
-666,276	-200,000	-0,018	0,085
-665,262	540,506	-0,052	0,091
-664,247	346,256	-0,062	-0,088
-663,232	-200,000	-0,015	0,071
-662,218	31,462	-0,131	0,081
-661,203	-88,389	-0,103	0,022
-660,189	37,616	0,013	-0,008
-659,174	-200,000	0,035	-0,151
-658,159	-56,566	-0,135	-0,043
-657,145	800,000	-0,045	0,135
-656,130	800,000	0,031	0,069
-655,116	-200,000	0,005	-0,058
-654,101	-73,782	0,168	0,044
-653,086	163,003	-0,053	-0,054
-652,072	-18,449	-0,066	-0,030
-651,057	49,816	-0,052	-0,035
-650,043	-107,553	-0,111	-0,017
-649,028	-146,938	0,072	-0,004
-648,014	532,555	0,055	-0,095
-646,999	-130,112	-0,072	-0,007
-645,984	800,000	0,056	0,132
-644,970	-127,078	-0,108	-0,011
-643,955	55,154	-0,059	-0,041
-642,941	85,065	-0,120	0,095
-641,926	800,000	0,003	0,007
-640,911	-58,909	0,117	0,036
-639,897	-200,000	0,003	0,009
-638,882	-62,365	0,067	0,020
-637,868	-200,000	0,009	-0,155
-636,853	-50,223	-0,072	0,024
-635,838	-135,066	-0,157	0,013
-634,824	-161,667	0,087	0,003
-633,809	135,549	0,044	-0,041
-632,795	800,000	0,024	0,066
-631,780	2,727	0,079	0,041
-630,765	-61,353	0,027	-0,008
-629,751	-150,109	0,118	-0,007
-628,736	-102,994	-0,169	-0,029
-627,722	-7,498	0,041	0,020
-626,707	-161,730	-0,080	-0,003
-625,692	191,721	-0,056	0,061
-624,678	32,962	0,155	-0,097
-623,663	-137,421	-0,100	0,008
-622,649	-3,464	-0,060	-0,030
-621,634	121,357	-0,083	-0,075
-620,619	-163,141	-0,093	0,003
-619,605	-130,371	0,044	-0,004
-618,590	118,929	0,152	0,136
-617,576	14,565	-0,036	0,020
-616,561	180,006	-0,058	-0,062
-615,546	-54,040	-0,126	-0,041
-614,532	227,644	-0,121	-0,142
-613,517	-10,481	0,008	-0,004
-612,503	-200,000	0,020	-0,148
-611,488	476,046	0,054	0,089
-610,474	-200,000	0,049	0,186
-609,459	800,000	-0,022	-0,057
-608,444	-170,519	0,065	-0,002
-607,430	-200,000	-0,009	-0,074
-606,415	660,777	-0,038	0,071
-605,401	259,562	-0,091	-0,114
-604,386	-51,863	0,133	0,045
-603,371	-141,256	0,110	0,008
-602,357	537,860	0,051	-0,087
-601,342	-200,000	-0,026	-0,088
-600,328	33,347	-0,057	-0,036
-599,313	-200,000	0,031	-0,131
-598,298	-200,000	-0,054	-0,266
-597,284	800,000	0,024	-0,057
-596,269	150,158	0,129	0,126
-595,255	800,000	0,038	0,118
-594,240	-86,131	-0,137	-0,030
-593,225	44,993	-0,084	-0,056
-592,211	81,203	-0,130	-0,101
-591,196	800,000	0,039	0,091
-590,182	-116,887	-0,033	-0,004
-589,167	-111,129	0,124	0,018
-588,152	32,093	0,108	0,067
-587,138	-200,000	0,009	-0,065
-586,123	15,441	-0,078	-0,044
-585,109	360,652	0,036	-0,052
-584,094	591,194	-0,071	-0,127
-583,079	-75,619	0,171	-0,043
-582,065	118,782	0,099	0,088
-581,050	97,321	-0,079	0,065
-580,036	91,711	0,051	-0,041
-579,021	-18,574	-0,156	-0,070
-578,006	-64,544	0,096	0,028
-576,992	-62,871	-0,048	-0,014
-575,977	57,362	-0,054	0,038
-574,963	800,000	-0,021	0,058
-573,948	-119,928	-0,118	0,014
-572,934	4,546	0,078	-0,041
-571,919	520,265	0,078	0,132
-570,904	26,298	-0,166	-0,099
-569,890	-8,215	0,033	-0,016
-568,875	641,995	-0,012	0,022
-567,861	-46,374	0,138	-0,048
-566,846	74,880	-0,075	-0,057
-565,831	487,207	0,029	0,047
-564,817	800,000	-0,026	-0,064
-563,802	320,798	-0,107	-0,147
-562,788	296,291	0,084	-0,112
-561,773	149,724	-0,033	-0,032
-560,758	-200,000	0,004	0,036
-559,744	-200,000	0,014	-0,183
-558,729	70,903	-0,043	-0,032
-557,715	-200,000	-0,001	0,036
-556,700	-25,760	0,166	-0,070
-555,685	-125,227	-0,107	-0,012
-554,671	-68,361	-0,032	-0,009
-553,656	5,450	-0,110	0,058
-552,642	800,000	-0,045	0,112
-551,627	-200,000	0,006	0,075
-550,612	800,000	0,033	0,100
-549,598	800,000	0,016	0,047
-548,583	-50,392	-0,164	-0,056
-547,569	-200,000	0,013	0,123
-546,554	800,000	0,059	0,184
-545,539	-142,782	-0,051	-0,004
-544,525	54,273	0,052	-0,036
-543,510	-200,000	0,001	0,149
-542,496	800,000	0,038	-0,098
-541,481	374,184	-0,050	-0,073
-540,466	-109,929	-0,065	-0,010
-539,452	-38,683	0,041	0,016
-538,437	-105,545	0,126	0,020
-537,423	40,856	0,051	-0,033
-536,408	29,207	-0,064	0,039
-535,393	129,397	-0,054	-0,049
-534,379	-38,086	-0,050	0,019
-533,364	113,514	0,061	-0,053
-532,350	-200,000	0,011	-0,049
-531,335	-200,000	-0,004	-0,115
-530,321	-31,917	0,031	-0,012
-529,306	-200,000	-0,001	-0,009
-528,291	382,759	0,076	-0,113
-527,277	-115,991	-0,152	-0,020
-526,262	800,000	0,040	-0,102
-525,248	207,378	0,033	-0,037
-524,233	-51,303	0,152	0,051
-523,218	-116,417	0,031	-0,004
-522,204	731,835	-0,066	-0,127
-521,189	800,000	-0,052	0,114
-520,175	20,245	-0,152	0,088
-519,160	-110,703	-0,071	0,010
-518,145	-87,458	-0,027	0,006
-517,131	800,000	-0,050	0,154
-516,116	800,000	0,026	-0,065
-515,102	-186,875	0,091	0,001
-514,087	4,164	0,088	0,046
-513,072	-157,541	-0,103	0,004
-512,058	770,919	0,035	0,069
-511,043	-129,515	0,063	0,006
-510,029	333,670	0,042	0,059
-509,014	-200,000	-0,012	0,057
-507,999	-200,000	0,008	-0,061
-506,985	-200,000	-0,006	-0,020
-505,970	427,730	0,028	-0,043
-504,956	-200,000	-0,012	-0,105
-503,941	-41,555	0,036	-0,013
-502,926	800,000	0,007	-0,022
-501,912	-90,109	-0,082	0,017
-500,897	-79,599	-0,080	0,019
-499,883	-2,611	-0,140	-0,070
-498,868	333,276	-0,064	-0,089
-497,853	41,865	-0,072	-0,047
-496,839	72,380	0,025	-0,019
-495,824	762,453	0,050	-0,097
-494,810	-145,589	0,216	-0,014
-493,795	-200,000	0,036	0,126
-492,781	-171,627	0,036	-0,001
-491,766	87,530	-0,152	-0,120
-490,751	-90,510	0,026	-0,005
-489,737	800,000	-0,040	-0,097
-488,722	-10,815	0,028	-0,013
-487,708	800,000	-0,073	0,170
-486,693	48,635	0,020	-0,013
-485,678	800,000	-0,075	0,159
-484,664	-200,000	0,032	0,127
-483,649	48,132	-0,060	-0,040
-482,635	0,997	0,033	-0,017
-481,620	242,897	-0,070	-0,085
-480,605	35,072	0,157	-0,098
-479,591	-81,935	0,172	0,040
-478,576	-200,000	0,025	0,107
-477,562	-200,000	0,006	-0,103
-476,547	66,966	-0,092	0,067
-475,532	720,305	-0,079	-0,151
-474,518	-147,637	0,033	0,002
-473,503	-98,754	-0,045	-0,008
-472,489	-103,722	0,063	-0,010
-471,474	87,184	-0,132	0,104
-470,459	561,643	-0,054	0,095
-469,445	-200,000	0,011	-0,156
-468,430	243,959	0,051	-0,062
-467,416	248,859	0,024	0,029
-466,401	136,920	0,072	0,067
-465,386	-200,000	0,021	0,099
-464,372	-200,000	0,006	0,233
-463,357	-36,267	-0,158	-0,061
-462,343	-200,000	-0,015	-0,061
-461,328	-117,588	0,087	-0,011
-460,313	-160,615	0,022	-0,001
-459,299	-95,904	0,012	0,002
-458,284	-200,000	0,011	0,089
-457,270	-200,000	-0,003	0,029
-456,255	-175,921	-0,158	0,003
-455,241	97,562	0,076	-0,062
-454,226	184,751	0,061	-0,065
-453,211	208,774	-0,083	-0,093
-452,197	34,215	-0,085	-0,053
-451,182	47,229	0,097	0,065
-450,168	-200,000	-0,010	0,041
-449,153	-200,000	0,007	0,062
-448,138	144,495	-0,163	-0,156
-447,124	108,640	-0,102	-0,088
-446,109	-6,405	0,138	0,067
-445,095	-90,748	0,123	-0,025
-444,080	-200,000	-0,000	-0,039
-443,065	27,475	-0,013	-0,008
-442,051	179,652	-0,043	0,045
-441,036	410,110	-0,070	0,107
-440,022	178,138	0,080	0,084
-439,007	-23,534	0,110	-0,047
-437,992	-79,653	0,096	-0,023
-436,978	149,294	0,105	0,102
-435,963	667,548	0,014	0,026
-434,949	103,857	0,076	-0,064
-433,934	340,070	-0,085	0,118
-432,919	99,117	-0,158	-0,131
-431,905	-0,007	0,049	0,025
-430,890	-155,532	-0,011	0,001
-429,876	203,435	-0,037	0,041
-428,861	-98,479	-0,184	0,033
-427,846	181,443	0,026	-0,027
-426,832	-4,947	-0,081	-0,040
-425,817	-200,000	-0,008	-0,028
-424,803	-200,000	0,006	0,041
-423,788	-60,996	-0,067	-0,020
-422,773	800,000	0,020	0,042
-421,759	800,000	0,078	0,226
-420,744	80,401	-0,007	0,005
-419,730	102,655	-0,103	0,087
-418,715	-12,915	-0,032	0,015
-417,701	-200,000	0,014	-0,080
-416,686	263,222	-0,034	0,043
-415,671	800,000	0,035	0,070
-414,657	526,928	0,094	0,159
-413,642	800,000	-0,014	-0,031
-412,628	-200,000	-0,004	0,130
-411,613	-65,519	-0,088	-0,025
-410,598	-200,000	0,004	0,031
-409,584	800,000	-0,058	0,136
-408,569	800,000	-0,049	0,111
-407,555	112,483	-0,113	0,098
-406,540	-18,725	0,139	-0,062
-405,525	-32,772	-0,086	0,034
-404,511	-102,672	-0,140	0,024
-403,496	-25,723	-0,083	-0,035
-402,482	-200,000	0,005	-0,040
-401,467	87,990	0,054	0,043
-400,452	-102,826	0,042	-0,007
-399,438	800,000	0,042	0,118
-398,423	10,103	0,052	-0,028
-397,409	-31,323	-0,139	0,056
-396,394	119,327	0,061	-0,054
-395,379	51,625	0,106	0,072
-394,365	800,000	-0,033	-0,072
-393,350	-200,000	0,005	0,057
-392,336	-146,852	-0,076	0,005
-391,321	800,000	-0,047	0,100
-390,306	163,648	0,037	-0,037
-389,292	800,000	0,043	-0,113
-388,277	63,247	-0,124	0,088
-387,263	-200,000	0,038	-0,127
-386,248	326,596	0,038	0,052
-385,233	800,000	0,026	-0,060
-384,219	2,437	0,046	-0,024
-383,204	613,651	0,045	-0,080
-382,190	800,000	-0,022	-0,069
-381,175	-1,054	0,067	-0,034
-380,160	-200,000	0,028	0,161
-379,146	715,138	0,092	-0,175
-378,131	55,871	-0,036	-0,025
-377,117	-200,000	-0,007	0,039
-376,102	-200,000	0,006	0,031
-375,088	-200,000	-0,006	0,076
-374,073	-69,211	-0,060	0,017
-373,058	170,404	-0,073	0,075
-372,044	6,928	-0,034	0,018
-371,029	800,000	0,013	0,030
-370,015	24,205	0,032	0,019
-369,000	-43,566	0,038	-0,014
-367,985	-200,000	-0,002	-0,106
-366,971	-145,490	0,107	-0,007
-365,956	-200,000	0,002	0,044
-364,942	-137,324	-0,086	-0,007
-363,927	-152,951	0,143	0,007
-362,912	-200,000	-0,025	0,085
-361,898	8,813	-0,027	-0,014
-360,883	-45,061	-0,094	-0,033
-359,869	296,385	-0,039	-0,051
-358,854	800,000	0,037	0,076
-357,839	-200,000	0,026	0,205
-356,825	800,000	-0,033	0,079
-355,810	161,519	0,039	0,039
-354,796	152,933	0,049	0,048
-353,781	-15,439	-0,016	-0,007
-352,766	800,000	-0,065	0,183
-351,752	-78,178	-0,029	0,007
-350,737	165,490	0,015	0,015
-349,723	-63,948	0,033	0,009
-348,708	-200,000	-0,027	0,095
-347,693	-40,447	0,146	-0,054
-346,679	-94,248	0,026	-0,005
-345,664	800,000	0,013	-0,039
-344,650	800,000	-0,037	-0,113
-343,635	-85,803	-0,059	0,013
-342,620	-200,000	-0,040	-0,141
-341,606	237,792	0,061	0,072
-340,591	664,569	0,031	-0,057
-339,577	373,824	-0,052	0,075
-338,562	-60,899	-0,218	-0,065
-337,548	57,893	-0,034	0,024
-336,533	-71,603	0,023	-0,006
-335,518	4,029	0,037	0,019
-334,504	-171,564	-0,022	-0,001
-333,489	23,014	0,109	0,063
-332,475	-165,827	-0,033	0,001
-331,460	269,500	0,058	-0,073
-330,445	-200,000	0,004	-0,014
-329,431	800,000	0,025	-0,057
-328,416	800,000	0,041	-0,121
-327,402	-67,658	0,084	0,023
-326,387	-200,000	0,004	0,069
-325,372	-200,000	-0,012	-0,050
-324,358	131,239	-0,048	-0,044
-323,343	800,000	0,015	-0,033
-322,329	800,000	0,073	0,155
-321,314	84,888	-0,046	0,036
-320,299	745,029	0,019	0,036
-319,285	186,384	-0,081	0,086
-318,270	-200,000	-0,008	0,045
-317,256	-56,304	-0,113	0,036
-316,241	-200,000	-0,023	0,132
-315,226	-142,011	0,074	-0,005
-314,212	-52,622	0,162	-0,053
-313,197	-97,595	0,181	0,033
-312,183	428,298	0,040	-0,062
-311,168	156,048	0,109	-0,107
-310,153	294,954	-0,148	-0,193
-309,139	245,286	0,103	-0,123
-308,124	-200,000	-0,015	-0,077
-307,110	-200,000	-0,008	-0,086
-306,095	114,631	0,042	-0,036
-305,080	-71,449	0,072	0,019
-304,066	-191,660	0,098	0,001
-303,051	-102,651	-0,054	-0,009
-302,037	58,724	0,063	-0,044
-301,022	-40,351	-0,054	0,020
-300,008	238,685	0,082	-0,098
-298,993	682,304	0,027	-0,050
-297,978	-121,766	0,127	0,015
-296,964	800,000	-0,062	0,149
-295,949	-8,351	0,080	0,038
-294,935	-200,000	-0,005	-0,157
-293,920	70,284	-0,046	0,034
-292,905	800,000	0,115	0,237
-291,891	-200,000	-0,010	0,165
-290,876	-67,065	0,106	0,029
-289,862	-69,985	-0,093	0,025
-288,847	-85,054	-0,069	-0,015
-287,832	506,987	0,074	-0,122
-286,818	800,000	-0,025	0,074
-285,803	129,935	-0,014	-0,013
-284,789	431,885	-0,030	-0,047
-283,774	100,303	0,123	-0,102
-282,759	400,030	0,071	-0,106
-281,745	-200,000	0,004	0,109
-280,730	-200,000	-0,011	0,173
-279,716	800,000	-0,045	-0,139
-278,701	-76,735	0,029	0,007
-277,686	66,032	0,095	0,068
-276,672	-121,756	-0,069	0,008
-275,657	-200,000	-0,013	-0,051
-274,643	354,288	0,004	-0,006
-273,628	-130,196	-0,078	-0,007
-272,613	-78,359	-0,120	-0,029
-271,599	-200,000	0,005	-0,073
-270,584	189,052	0,147	0,156
-269,570	-38,522	0,015	0,006
-268,555	329,840	0,047	-0,065
-267,540	-200,000	-0,028	-0,118
-266,526	70,069	-0,049	-0,036
-265,511	6,290	-0,027	0,014
-264,497	800,000	0,057	-0,121
-263,482	121,952	0,093	0,083
-262,467	15,326	0,137	0,076
-261,453	800,000	0,027	-0,077
-260,438	755,289	-0,066	-0,128
-259,424	800,000	-0,077	-0,175
-258,409	188,321	-0,037	-0,039
-257,395	800,000	0,041	-0,108
-256,380	-200,000	-0,006	0,095
-255,365	218,674	-0,015	-0,017
-254,351	800,000	0,039	0,121
-253,336	365,063	-0,054	0,078
-252,322	488,273	-0,037	-0,060
-251,307	113,185	-0,089	0,077
-250,292	800,000	-0,067	0,182
-249,278	12,895	0,140	-0,077
-248,263	17,232	-0,012	-0,007
-247,249	-76,298	0,089	-0,022
-246,234	-200,000	-0,010	-0,111
-245,219	800,000	-0,083	-0,164
-244,205	0,183	-0,016	0,008
-243,190	-200,000	-0,000	-0,031
-242,176	129,225	-0,067	-0,060
-241,161	206,708	-0,092	0,102
-240,146	800,000	0,067	0,140
-239,132	221,718	-0,063	-0,072
-238,117	221,437	-0,031	-0,035
-237,103	-78,139	-0,066	-0,016
-236,088	-200,000	-0,007	-0,052
-235,073	-37,408	0,113	0,043
-234,059	186,727	-0,067	0,071
-233,044	-106,862	0,100	-0,016
-232,030	-200,000	-0,019	0,127
-231,015	800,000	-0,037	-0,094
-230,000	90,331	-0,021	-0,017
-228,986	-111,458	-0,081	-0,012
-227,971	425,039	0,084	0,130
-226,957	51,031	-0,063	0,043
-225,942	150,768	0,083	0,080
-224,927	-200,000	0,010	-0,070
-223,913	3,334	0,058	0,030
-222,898	-200,000	0,023	0,154
-221,884	638,669	-0,038	-0,068
-220,869	-200,000	0,022	-0,113
-219,855	76,047	0,111	-0,083
-218,840	660,252	-0,036	-0,066
-217,825	340,403	0,037	-0,051
-216,811	150,957	0,050	0,048
-215,796	-200,000	0,008	0,026
-214,782	-34,344	0,090	0,035
-213,767	78,227	0,153	-0,116
-212,752	356,745	0,049	0,069
-211,738	-94,427	-0,048	0,009
-210,723	-200,000	-0,016	-0,124
-209,709	-134,450	-0,106	-0,009
-208,694	800,000	0,024	-0,052
-207,679	800,000	-0,030	0,076
-206,665	-200,000	-0,017	0,097
-205,650	191,545	0,031	-0,033
-204,636	362,956	-0,036	0,052
-203,621	-30,939	0,085	-0,034
-202,606	112,993	-0,032	0,028
-201,592	730,538	0,056	0,107
-200,577	210,442	-0,056	-0,063
-199,563	-76,506	-0,099	-0,025
-198,548	-45,296	0,126	-0,044
-197,533	-200,000	0,012	0,092
-196,519	-200,000	-0,028	0,158
-195,504	157,686	0,070	-0,068
-194,490	-200,000	0,011	-0,039
-193,475	136,351	-0,068	-0,063
-192,460	-43,507	0,028	-0,010
-191,446	166,909	-0,055	0,055
-190,431	297,519	0,013	-0,017
-189,417	800,000	-0,046	0,121
-188,402	38,675	-0,065	-0,041
-187,387	54,780	-0,108	-0,074
-186,373	7,518	0,011	-0,006
-185,358	17,365	-0,114	-0,064
-184,344	394,899	-0,061	0,091
-183,329	3,309	-0,057	0,029
-182,315	-92,833	0,085	0,017
-181,300	-62,681	0,093	0,027
-180,285	800,000	-0,052	-0,126
-179,271	611,232	0,033	-0,059
-178,256	800,000	0,068	0,153
-177,242	75,334	-0,030	0,022
-176,227	-200,000	-0,002	0,010
-175,212	-200,000	-0,014	0,058
-174,198	281,860	0,080	0,101
-173,183	-89,984	0,039	0,008
-172,169	800,000	0,045	-0,100
-171,154	264,176	-0,038	-0,047
-170,139	-36,416	-0,061	0,023
-169,125	-200,000	-0,003	0,172
-168,110	-200,000	0,009	0,065
-167,096	91,593	-0,072	-0,057
-166,081	-200,000	0,031	-0,103
-165,066	-200,000	0,006	-0,033
-164,052	800,000	0,052	-0,109
-163,037	-152,455	0,095	0,005
-162,023	11,347	0,023	-0,013
-161,008	-200,000	0,041	0,152
-159,993	-78,599	-0,090	-0,022
-158,979	82,379	0,049	-0,037
-157,964	-200,000	0,007	-0,034
-156,950	-200,000	-0,004	-0,154
-155,935	-198,397	-0,022	0,000
-154,920	-200,000	0,003	0,166
-153,906	-116,256	-0,077	0,010
-152,891	-138,144	-0,120	0,009
-151,877	800,000	-0,046	0,109
-150,862	-200,000	0,029	-0,155
-149,847	-130,139	0,060	-0,006
-148,833	-200,000	0,029	0,103
-147,818	800,000	-0,007	-0,017
-146,804	146,956	0,113	0,107
-145,789	-200,000	0,034	-0,126
-144,775	-200,000	-0,043	-0,141
-143,760	-200,000	0,020	-0,068
-142,745	-200,000	-0,020	0,100
-141,731	-95,193	-0,070	0,013
-140,716	-65,672	0,105	0,030
-139,702	-200,000	0,029	0,094
-138,687	-13,252	0,083	0,038
-137,672	-200,000	-0,004	0,081
-136,658	800,000	-0,055	-0,111
-135,643	-81,720	-0,135	0,031
-134,629	297,343	0,121	-0,158
-133,614	3,014	0,118	-0,061
-132,599	277,638	0,118	0,149
-131,585	-200,000	-0,022	0,194
-130,570	519,356	-0,047	0,078
-129,556	-111,926	-0,076	0,011
-128,541	800,000	-0,033	-0,075
-127,526	-167,343	0,105	0,003
-126,512	800,000	-0,059	-0,174
-125,497	-200,000	0,003	0,012
-124,483	-109,005	0,069	0,010
-123,468	-200,000	0,032	-0,121
-122,453	88,933	-0,095	-0,075
-121,439	-76,629	-0,103	-0,025
-120,424	62,570	0,051	0,036
-119,410	-39,670	0,071	0,026
-118,395	-200,000	-0,007	0,063
-117,380	137,391	0,066	-0,061
-116,366	-58,734	-0,073	0,022
-115,351	800,000	-0,014	-0,030
-114,337	44,934	0,131	-0,085
-113,322	170,851	-0,120	0,121
-112,307	275,861	0,089	0,112
-111,293	80,687	0,144	0,110
-110,278	800,000	-0,045	0,098
-109,264	-200,000	0,003	0,030
-108,249	64,705	0,024	0,017
-107,234	-200,000	-0,004	-0,206
-106,220	6,635	0,095	-0,050
-105,205	674,789	-0,022	0,040
-104,191	-200,000	0,009	0,152
-103,176	-30,903	0,068	-0,027
-102,162	800,000	0,015	0,040
-101,147	-125,246	0,069	-0,007
-100,132	800,000	0,019	-0,049
-99,118	-200,000	-0,021	-0,076
-98,103	731,286	0,098	0,186
-97,089	-182,102	0,106	-0,001
-96,074	-200,000	-0,008	-0,165
-95,059	63,195	0,037	0,026
-94,045	112,914	0,059	-0,051
-93,030	-64,937	-0,243	-0,069
-92,016	-69,029	0,016	0,004
-91,001	-11,095	0,028	-0,013
-89,986	-200,000	-0,018	0,119
-88,972	208,654	0,039	0,043
-87,957	60,580	0,163	0,114
-86,943	-200,000	0,009	-0,030
-85,928	-115,924	-0,137	-0,018
-84,913	396,243	0,056	0,083
-83,899	194,163	0,021	-0,023
-82,884	401,387	0,104	0,154
-81,870	-168,068	0,195	0,005
-80,855	800,000	0,035	-0,099
-79,840	156,268	0,070	0,068
-78,826	-20,121	0,119	-0,052
-77,811	800,000	-0,047	0,127
-76,797	204,321	-0,058	-0,064
-75,782	151,954	0,039	0,037
-74,767	-119,919	0,132	0,016
-73,753	66,763	0,081	-0,058
-72,738	-200,000	-0,014	0,088
-71,724	160,698	-0,079	-0,078
-70,709	130,938	-0,053	-0,048
-69,694	-200,000	0,037	-0,199
-68,680	158,316	0,087	-0,086
-67,665	-200,000	-0,010	0,045
-66,651	283,728	0,055	0,070
-65,636	-200,000	0,009	-0,032
-64,622	5,080	-0,087	-0,045
-63,607	-200,000	-0,057	-0,205
-62,592	-129,436	0,051	0,005
-61,578	251,821	0,050	0,060
-60,563	446,735	0,036	0,057
-59,549	-200,000	0,002	0,010
-58,534	36,085	-1,713	-1,063
-57,519	465,363	-1,354	-2,146
-56,505	-200,000	-0,224	-4,312
-55,490	420,251	0,841	1,275
-54,476	800,000	5,114	11,446
-53,461	-200,000	20,286	328,112
-52,446	800,000	752,169	2312,599
-51,432	551,684	1658,456	2820,542
-50,417	74,264	1664,838	1232,513
-49,403	19,209	1538,037	868,672
-48,388	13,251	1460,495	796,060
-47,373	18,865	1450,723	817,648
-46,359	16,180	1440,215	798,917
-45,344	11,494	1436,004	774,244
-44,330	11,390	1434,057	772,666
-43,315	11,384	1432,349	771,689
-42,300	11,425	1430,395	770,801
-41,286	11,423	1429,381	770,214
-40,271	11,397	1427,838	769,229
-39,257	11,398	1426,766	768,625
-38,242	11,434	1425,487	768,076
-37,227	11,410	1424,488	767,393
-36,213	11,452	1423,004	766,763
-35,198	11,438	1421,903	766,071
-34,184	11,462	1421,107	765,725
-33,169	11,403	1419,691	764,656
-32,154	11,473	1418,768	764,455
-31,140	11,476	1417,314	763,659
-30,125	11,528	1416,364	763,358
-29,111	11,555	1415,222	762,839
-28,096	11,445	1414,072	761,676
-27,082	11,407	1412,892	760,829
-26,067	11,367	1412,116	760,196
-25,052	11,437	1410,889	759,833
-24,038	11,438	1409,731	759,181
-23,023	11,405	1408,669	758,426
-22,009	11,366	1407,915	757,807
-20,994	11,389	1406,830	757,302
-19,979	11,391	1406,073	756,875
-18,965	11,346	1405,093	756,107
-17,950	11,363	1404,187	755,665
-16,936	11,383	1403,292	755,250
-15,921	11,302	1402,060	754,178
-14,906	11,293	1401,487	753,799
-13,892	11,311	1400,452	753,297
-12,877	11,308	1399,776	752,888
-11,863	11,330	1398,792	752,433
-10,848	11,294	1397,764	751,683
-9,833	11,249	1396,999	751,033
-8,819	11,230	1396,291	750,532
-7,804	11,225	1395,199	749,891
-6,790	11,226	1394,174	749,316
-5,775	11,252	1393,217	748,892
-4,760	11,255	1392,115	748,284
-3,746	11,233	1391,297	747,713
-2,731	11,204	1390,517	747,130
-1,717	11,193	1389,402	746,451
-0,702	11,199	1387,886	745,634
0,313	15,245	1302,819	718,470
1,327	31,690	695,797	421,233
2,342	49,250	121,279	80,264
3,356	2,208	16,574	8,419
4,371	-3,666	3,439	1,679
5,386	-37,395	0,693	0,260
6,400	-200,000	-0,040	0,432
7,415	121,765	-0,224	-0,197
8,429	-87,908	-0,308	-0,065
9,444	136,350	-0,369	-0,339
10,459	-43,401	-0,289	-0,102
11,473	76,572	-0,285	-0,212
12,488	168,747	-0,239	-0,240
13,502	-29,922	-0,447	-0,178
14,517	214,050	-0,236	-0,263
15,531	175,981	-0,328	-0,336
16,546	106,632	-0,213	-0,178
17,561	45,775	-0,377	-0,245
18,575	-5,556	-0,251	0,121
19,590	57,427	-0,190	-0,130
20,604	-63,592	-0,370	-0,106
21,619	34,744	-0,424	-0,261
22,634	53,610	-0,411	-0,277
23,648	26,570	-0,493	-0,290
24,663	60,309	-0,419	-0,292
25,677	-40,487	-0,389	-0,141
26,692	27,619	-0,434	-0,257
27,707	53,518	-0,262	-0,176
28,721	-24,132	-0,478	-0,200
29,736	101,856	-0,507	-0,416
30,750	172,893	-0,362	-0,367
31,765	281,911	-0,310	-0,392
32,780	105,829	-0,437	-0,364
33,794	110,201	-0,353	-0,298
34,809	55,737	-0,330	-0,224
35,823	2,854	-0,495	-0,252
36,838	50,534	-0,383	-0,254
37,853	21,789	-0,373	-0,213
38,867	78,851	-0,422	-0,317
39,882	241,049	-0,301	-0,354
40,896	56,622	-0,363	-0,248
41,911	7,476	-0,240	-0,126
42,926	124,185	-0,314	-0,277
43,940	-4,294	-0,512	-0,248
44,955	18,365	-0,492	-0,275
45,969	146,180	-0,330	-0,311
46,984	24,919	-0,372	-0,216
47,999	355,860	-0,240	-0,336
49,013	71,551	-0,319	-0,233
50,028	113,124	-0,307	-0,261
51,042	200,080	-0,275	-0,297
52,057	195,052	-0,261	-0,279
53,071	-74,333	-0,435	-0,110
54,086	32,509	-0,257	-0,155
55,101	166,690	-0,281	-0,280
56,115	91,836	-0,248	-0,196
57,130	42,001	-0,412	-0,262
58,144	50,271	-0,366	-0,242
59,159	106,670	-0,322	-0,268
60,174	94,021	-0,361	-0,287
61,188	-28,547	-0,374	-0,151
62,203	-42,404	-0,418	-0,149
63,217	5,941	-0,304	-0,157
64,232	28,260	-0,361	-0,213
65,247	0,658	-0,245	-0,123
66,261	467,507	-0,275	-0,434
67,276	50,329	-0,375	-0,248
68,290	71,328	-0,281	-0,204
69,305	239,798	-0,241	-0,282
70,320	800,000	-0,139	-0,273
71,334	-64,543	-0,350	-0,099
72,349	5,422	-0,379	-0,195
73,363	18,668	-0,270	-0,151
74,378	164,309	-0,231	-0,229
75,393	236,488	-0,250	-0,291
76,407	-70,647	-0,243	-0,064
77,422	-40,992	-0,416	-0,150
78,436	60,068	-0,271	-0,187
79,451	359,708	-0,165	-0,232
80,466	120,817	-0,349	-0,304
81,480	235,184	-0,248	-0,287
82,495	36,021	-0,247	-0,152
83,509	-44,154	-0,366	-0,128
84,524	43,225	-0,225	-0,144
85,539	-9,310	-0,368	-0,171
86,553	113,977	-0,244	-0,208
87,568	80,193	-0,221	-0,166
88,582	71,115	-0,451	-0,327
89,597	296,973	-0,162	-0,209
90,611	-91,032	-0,414	-0,082
91,626	41,372	-0,257	-0,163
92,641	61,926	-0,166	-0,116
93,655	83,176	-0,249	-0,190
94,670	25,078	-0,294	-0,170
95,684	108,586	-0,312	-0,260
96,699	-39,855	-0,531	-0,193
97,714	56,153	-0,225	-0,152
98,728	800,000	-0,155	-0,310
99,743	221,913	-0,161	-0,181
100,757	-1,600	-0,209	-0,103
101,772	167,647	-0,172	-0,171
102,787	12,514	-0,336	-0,180
103,801	6,934	-0,261	-0,135
104,816	800,000	-0,125	-0,255
105,830	289,969	-0,184	-0,234
106,845	-12,468	-0,171	-0,078
107,860	1,068	-0,315	-0,157
108,874	-35,222	-0,279	-0,105
109,889	54,792	-0,374	-0,252
110,903	-10,707	-0,251	-0,116
111,918	49,533	-0,266	-0,174
112,933	-20,728	-0,300	-0,128
113,947	24,604	-0,268	-0,155
114,962	-97,603	-0,226	-0,041
115,976	185,532	-0,264	-0,275
116,991	15,071	-0,369	-0,201
118,006	111,465	-0,274	-0,230
119,020	179,463	-0,181	-0,185
120,035	82,242	-0,272	-0,206
121,049	91,588	-0,182	-0,142
122,064	800,000	-0,116	-0,258
123,079	106,649	-0,177	-0,146
124,093	766,649	-0,184	-0,350
125,108	83,145	-0,324	-0,246
126,122	163,234	-0,159	-0,156
127,137	83,131	-0,226	-0,172
128,151	-23,096	-0,213	-0,089
129,166	-163,117	-0,269	-0,009
130,181	-77,214	-0,238	-0,057
131,195	223,785	-0,212	-0,239
132,210	167,780	-0,221	-0,220
133,224	56,845	-0,241	-0,163
134,239	86,796	-0,198	-0,152
135,254	59,336	-0,319	-0,219
136,268	-88,548	-0,152	0,031
137,283	-59,472	-0,244	-0,072
138,297	85,943	-0,262	-0,201
139,312	176,975	-0,168	-0,170
140,327	221,907	-0,177	-0,199
141,341	210,149	-0,205	-0,225
142,356	92,492	-0,251	-0,197
143,370	27,004	-0,194	-0,113
144,385	100,145	-0,287	-0,232
145,400	162,579	-0,248	-0,243
146,414	0,897	-0,308	-0,153
147,429	-64,365	-0,282	-0,079
148,443	100,497	-0,262	-0,211
149,458	-200,000	-0,050	-0,263
150,473	361,543	-0,149	-0,208
151,487	-169,327	-0,440	-0,011
152,502	229,294	-0,254	-0,289
153,516	60,106	-0,246	-0,169
154,531	344,354	-0,204	-0,279
155,546	248,529	-0,280	-0,330
156,560	-44,587	-0,350	-0,121
157,575	424,585	-0,099	-0,149
158,589	10,953	-0,362	-0,192
159,604	81,464	-0,207	-0,155
160,619	-195,368	-0,276	-0,001
161,633	110,270	-0,172	-0,144
162,648	800,000	-0,139	-0,337
163,662	265,335	-0,148	-0,179
164,677	-72,686	-0,291	-0,074
165,692	29,432	-0,220	-0,130
166,706	-200,000	-0,044	-0,242
167,721	164,245	-0,301	-0,295
168,735	429,524	-0,179	-0,270
169,750	274,891	-0,186	-0,229
170,764	-149,592	-0,230	-0,012
171,779	-47,590	-0,277	-0,093
172,794	14,639	-0,214	-0,116
173,808	42,303	-0,240	-0,151
174,823	234,535	-0,187	-0,215
175,837	128,815	-0,291	-0,258
176,852	15,836	-0,244	-0,133
177,867	-14,614	-0,204	-0,091
178,881	420,453	-0,127	-0,189
179,896	-135,040	-0,059	-0,005
180,910	-50,147	-0,198	0,065
181,925	-44,625	-0,245	-0,085
182,940	736,515	-0,138	-0,259
183,954	447,291	-0,227	-0,348
184,969	66,888	-0,212	-0,149
185,983	633,766	-0,117	-0,206
186,998	-74,408	-0,220	-0,055
188,013	-37,918	-0,162	-0,059
189,027	28,869	-0,281	-0,165
190,042	178,294	-0,259	-0,262
191,056	66,521	-0,280	-0,197
192,071	800,000	-0,138	-0,303
193,086	139,733	-0,159	-0,145
194,100	49,356	-0,233	-0,152
195,115	54,544	-0,214	-0,143
196,129	-55,410	-0,290	-0,090
197,144	242,048	-0,223	-0,259
198,159	-69,263	-0,242	-0,064
199,173	364,930	-0,113	-0,159
200,188	106,513	-0,151	-0,124
201,202	-12,673	-0,112	-0,051
202,217	78,434	-0,181	-0,134
203,232	186,200	-0,202	-0,208
204,246	164,806	-0,239	-0,234
205,261	159,261	-0,140	-0,135
206,275	156,666	-0,283	-0,271
207,290	800,000	-0,037	-0,088
208,304	29,051	-0,138	-0,081
209,319	-200,000	-0,012	-0,218
210,334	-76,352	-0,290	-0,070
211,348	208,402	-0,213	-0,231
212,363	-25,311	-0,234	-0,096
213,377	33,558	-0,158	-0,095
214,392	191,368	-0,057	-0,059
215,407	72,262	-0,158	-0,114
216,421	6,346	-0,274	-0,140
217,436	-41,011	-0,264	-0,094
218,450	329,761	-0,238	-0,318
219,465	120,408	-0,191	-0,164
220,480	-2,456	-0,240	-0,116
221,494	-8,763	-0,221	-0,102
222,509	-107,561	-0,212	0,032
223,523	-160,996	-0,287	-0,010
224,538	177,805	-0,137	-0,138
225,553	253,493	-0,206	-0,244
226,567	-87,230	-0,344	-0,072
227,582	96,002	-0,168	-0,133
228,596	3,408	-0,188	-0,095
229,611	498,088	-0,144	-0,231
230,626	161,688	-0,165	-0,159
231,640	800,000	-0,104	-0,204
232,655	256,170	-0,191	-0,227
233,669	283,436	-0,227	-0,283
234,684	-200,000	-0,057	-0,204
235,699	-79,293	-0,184	-0,043
236,713	-200,000	-0,024	-0,126
237,728	-109,041	-0,317	-0,046
238,742	95,137	-0,195	-0,153
239,757	-3,408	-0,200	-0,096
240,772	-138,410	-0,166	-0,012
241,786	-200,000	-0,054	-0,298
242,801	438,613	-0,163	-0,246
243,815	351,043	-0,142	-0,195
244,830	297,657	-0,165	-0,209
245,844	293,467	-0,226	-0,285
246,859	-83,203	-0,245	-0,054
247,874	20,401	-0,250	-0,139
248,888	-60,436	-0,267	-0,078
249,903	389,037	-0,130	-0,186
250,917	72,602	-0,138	-0,099
251,932	2,545	-0,127	-0,063
252,947	309,356	-0,159	-0,205
253,961	57,757	-0,242	-0,163
254,976	-200,000	-0,017	-0,158
255,990	369,194	-0,109	-0,153
257,005	103,261	-0,100	-0,081
258,020	-200,000	-0,044	-0,229
259,034	-40,066	-0,080	-0,029
260,049	-45,714	-0,098	-0,033
261,063	170,148	-0,253	-0,250
262,078	39,550	-0,143	-0,088
263,093	726,201	-0,151	-0,278
264,107	-73,390	-0,148	0,037
265,122	-116,309	-0,127	-0,016
266,136	739,486	-0,070	-0,131
267,151	-85,990	-0,152	-0,032
268,166	-10,008	-0,197	-0,090
269,180	88,676	-0,150	-0,114
270,195	54,684	-0,166	-0,110
271,209	8,900	-0,160	-0,083
272,224	183,941	-0,163	-0,166
273,239	40,284	-0,071	-0,044
274,253	127,411	-0,116	-0,101
275,268	-43,449	-0,100	-0,034
276,282	171,012	-0,207	-0,205
277,297	7,233	-0,178	-0,091
278,312	301,065	-0,099	-0,126
279,326	-12,572	-0,219	-0,098
280,341	-110,237	-0,200	-0,028
281,355	113,287	-0,098	0,081
282,370	-68,352	-0,334	-0,089
283,384	-78,200	-0,234	-0,055
284,399	-81,538	-0,182	-0,041
285,414	329,699	-0,199	-0,264
286,428	132,531	-0,129	-0,115
287,443	-155,174	0,022	-0,001
288,457	38,770	-0,138	-0,084
289,472	548,183	-0,105	-0,174
290,487	-26,177	-0,177	-0,071
291,501	132,818	-0,120	-0,106
292,516	86,702	-0,224	-0,170
293,530	366,734	-0,126	-0,176
294,545	-200,000	0,019	-0,215
295,560	-102,990	-0,152	-0,025
296,574	-43,024	-0,248	-0,086
297,589	45,224	-0,134	0,085
298,603	-18,877	-0,160	-0,068
299,618	-200,000	-0,095	-0,000
300,633	-200,000	0,039	-0,156
301,647	77,002	-0,096	0,070
302,662	6,133	-0,239	-0,121
303,676	-112,390	-0,190	-0,026
304,691	4,182	-0,099	-0,050
305,706	105,026	-0,173	-0,140
306,720	79,501	-0,116	-0,086
307,735	-80,627	-0,092	-0,021
308,749	124,368	-0,193	-0,167
309,764	60,914	-0,097	-0,066
310,779	170,313	-0,096	-0,095
311,793	172,953	-0,143	-0,142
312,808	800,000	-0,102	-0,200
313,822	93,471	-0,124	-0,096
314,837	95,359	-0,104	-0,082
315,852	800,000	-0,075	-0,158
316,866	-173,496	-0,106	-0,002
317,881	186,003	-0,060	-0,061
318,895	-157,944	-0,096	0,004
319,910	36,475	-0,193	-0,117
320,925	187,809	-0,191	-0,196
321,939	-31,201	-0,211	-0,081
322,954	-200,000	-0,036	-0,114
323,968	-167,310	-0,119	0,003
324,983	734,568	-0,074	-0,136
325,997	800,000	-0,077	-0,222
327,012	53,633	-0,033	-0,022
328,027	115,615	-0,113	-0,094
329,041	197,751	-0,093	-0,098
330,056	508,120	-0,043	-0,068
331,070	-186,180	-0,191	0,002
332,085	-38,438	-0,081	0,029
333,100	800,000	-0,082	-0,220
334,114	-200,000	-0,050	-0,179
335,129	91,966	-0,165	-0,127
336,143	328,833	-0,125	-0,165
337,158	620,362	-0,058	-0,100
338,173	-26,234	-0,123	-0,049
339,187	-200,000	-0,153	0,000
340,202	-132,675	-0,284	-0,025
341,216	440,004	-0,065	0,098
342,231	42,129	-0,151	-0,094
343,246	13,830	-0,164	-0,087
344,260	-46,578	-0,109	0,036
345,275	523,995	-0,147	-0,237
346,289	-95,039	-0,116	-0,021
347,304	-85,914	-0,081	-0,017
348,319	-200,000	-0,016	-0,095
349,333	-74,856	-0,208	-0,051
350,348	58,149	-0,152	-0,102
351,362	682,114	-0,083	0,148
352,377	800,000	0,044	-0,129
353,392	-105,390	-0,165	0,025
354,406	139,403	-0,071	-0,064
355,421	207,735	1312,239	1402,425
356,435	159,819	1472,644	1402,920
