DTS Sentinel unit serial number:	SN410029Multiplexer serial number:	ORYXHardware model number:	OX2-SRSoftware version number:	ORYX F/W v4,00 Oryx Data Collector v3.7.2.0data status	okinstallation	B3 Nyhavnadifferential loss correction	single-endedforward channel	channel 1reverse channel	N/Adate	2023/11/29time	11:57:30forward acquisition time	300,00reverse acquisition time	0,00gamma	499,1914k internal	0,3212k external	0,3212temperature offset calibration	1,0000default loss term (dB/km)	0,3820temperature slope calibration	1,0000multiplexer offset coefficient	1,0000multiplexer slope coefficient	1,0000fibre end	0,00T internal ref (°C)	9,67T ext. ref 1 (°C)	-5,02T ext. ref 2 (°C)	-5,15length (m)	temperature (°C)	Stokes	anti-Stokes-744,400	661,075	-0,134	-0,252
-743,385	-200,000	-0,014	0,303
-742,371	-37,364	-0,263	-0,101
-741,356	-200,000	0,026	0,264
-740,342	194,029	-0,188	-0,206
-739,327	249,127	-0,115	0,141
-738,312	746,773	-0,186	-0,365
-737,298	741,543	-0,147	0,287
-736,283	-200,000	-0,026	-0,156
-735,269	-200,000	-0,022	0,232
-734,254	185,699	-0,211	-0,228
-733,239	-66,888	-0,160	0,045
-732,225	800,000	-0,124	-0,253
-731,210	-200,000	0,024	0,150
-730,196	22,343	-0,040	0,024
-729,181	-78,724	-0,104	0,026
-728,167	40,320	-0,046	0,030
-727,152	189,272	-0,017	-0,018
-726,137	150,986	0,102	-0,101
-725,123	-200,000	0,002	0,047
-724,108	103,982	-0,138	-0,117
-723,094	-200,000	0,014	-0,159
-722,079	-200,000	-0,012	0,054
-721,064	666,038	-0,065	-0,122
-720,050	800,000	-0,036	0,083
-719,035	-200,000	-0,004	-0,111
-718,021	-69,203	-0,143	-0,040
-717,006	79,900	0,101	-0,079
-715,991	800,000	-0,075	-0,210
-714,977	609,149	-0,052	-0,094
-713,962	160,610	0,091	-0,092
-712,948	-200,000	0,008	0,106
-711,933	-200,000	0,031	-0,112
-710,918	310,979	-0,084	-0,114
-709,904	-91,116	0,052	-0,011
-708,889	532,951	-0,028	-0,048
-707,875	335,547	0,089	-0,126
-706,860	100,144	-0,087	-0,073
-705,845	-200,000	-0,005	-0,027
-704,831	118,583	0,096	0,086
-703,816	168,211	0,058	0,059
-702,802	222,417	-0,117	-0,136
-701,787	280,419	-0,048	-0,062
-700,772	-136,194	-0,033	0,003
-699,758	280,860	0,055	0,072
-698,743	-9,420	-0,121	0,058
-697,729	800,000	0,025	0,056
-696,714	-131,350	-0,039	0,004
-695,699	181,865	-0,100	-0,106
-694,685	800,000	0,047	-0,125
-693,670	-101,604	0,114	-0,020
-692,656	-200,000	0,002	-0,067
-691,641	43,157	-0,098	-0,065
-690,627	-57,917	0,154	-0,048
-689,612	14,145	-0,088	-0,049
-688,597	-46,533	-0,072	0,026
-687,583	531,511	-0,065	-0,111
-686,568	662,683	0,070	-0,130
-685,554	196,998	-0,072	-0,079
-684,539	7,767	0,066	-0,036
-683,524	388,997	0,072	-0,108
-682,510	-200,000	-0,038	0,184
-681,495	-200,000	-0,017	-0,056
-680,481	800,000	-0,074	-0,169
-679,466	-200,000	0,013	-0,094
-678,451	26,059	0,034	-0,020
-677,437	-71,002	-0,122	0,033
-676,422	12,102	-0,108	0,060
-675,408	303,651	0,024	-0,032
-674,393	22,548	-0,151	0,089
-673,378	-63,855	0,029	0,008
-672,364	6,467	-0,050	0,027
-671,349	90,159	-0,062	-0,050
-670,335	-36,324	-0,037	0,014
-669,320	-12,819	0,043	0,020
-668,305	369,833	0,027	0,040
-667,291	-200,000	0,003	0,063
-666,276	279,963	-0,116	-0,150
-665,262	59,883	-0,070	-0,050
-664,247	159,338	-0,017	0,017
-663,232	440,092	-0,102	0,162
-662,218	435,644	0,074	-0,116
-661,203	-111,301	0,099	0,014
-660,189	41,542	-0,024	0,015
-659,174	-69,417	-0,078	-0,021
-658,159	-15,468	-0,072	0,033
-657,145	276,945	0,050	0,064
-656,130	-104,915	-0,133	-0,022
-655,116	4,189	0,113	-0,060
-654,101	502,823	-0,055	-0,093
-653,086	-137,250	0,167	-0,014
-652,072	387,898	-0,054	0,081
-651,057	312,044	-0,106	-0,144
-650,043	337,561	-0,039	-0,055
-649,028	249,175	-0,056	-0,069
-648,014	-51,031	0,118	-0,040
-646,999	-13,775	0,146	0,068
-645,984	-200,000	0,025	-0,155
-644,970	800,000	-0,039	-0,103
-643,955	248,818	-0,077	-0,094
-642,941	-119,153	0,017	-0,002
-641,926	800,000	0,039	0,092
-640,911	-50,567	0,140	0,047
-639,897	-200,000	0,029	0,093
-638,882	270,160	-0,040	-0,051
-637,868	277,812	-0,040	-0,051
-636,853	437,277	-0,036	0,056
-635,838	-145,295	-0,096	-0,006
-634,824	-4,702	0,103	-0,051
-633,809	-130,224	-0,102	0,010
-632,795	-54,940	0,074	0,024
-631,780	67,844	-0,047	-0,034
-630,765	76,095	-0,113	-0,086
-629,751	-200,000	0,014	-0,072
-628,736	800,000	0,054	-0,144
-627,722	-16,015	-0,071	-0,033
-626,707	434,451	0,022	0,034
-625,692	72,611	0,032	0,024
-624,678	54,271	0,065	-0,045
-623,663	-20,937	0,069	0,030
-622,649	-71,889	0,146	-0,039
-621,634	-103,053	-0,179	-0,030
-620,619	-200,000	0,008	-0,085
-619,605	-200,000	0,032	0,184
-618,590	-58,060	0,139	-0,043
-617,576	484,393	0,041	0,067
-616,561	144,634	-0,062	0,059
-615,546	199,711	-0,097	0,107
-614,532	-200,000	-0,021	0,077
-613,517	537,529	-0,048	-0,083
-612,503	-106,591	0,130	0,021
-611,488	-200,000	0,007	0,035
-610,474	-200,000	-0,026	0,198
-609,459	144,147	0,051	0,049
-608,444	83,736	-0,104	0,082
-607,430	26,274	-0,082	-0,049
-606,415	-200,000	0,003	-0,025
-605,401	38,045	0,040	-0,026
-604,386	-200,000	-0,003	-0,039
-603,371	353,505	-0,033	0,047
-602,357	-200,000	0,022	0,182
-601,342	21,565	-0,177	0,104
-600,328	800,000	-0,027	-0,060
-599,313	-200,000	-0,043	-0,163
-598,298	54,040	-0,131	0,091
-597,284	136,259	0,064	0,060
-596,269	-41,112	0,112	0,042
-595,255	-64,996	-0,096	0,028
-594,240	-200,000	0,029	0,096
-593,225	36,104	0,106	-0,067
-592,211	292,708	-0,022	-0,028
-591,196	800,000	0,017	-0,037
-590,182	172,375	0,025	-0,025
-589,167	-200,000	0,008	0,042
-588,152	750,130	0,100	-0,195
-587,138	-60,413	-0,159	-0,048
-586,123	-200,000	0,008	0,035
-585,109	-200,000	-0,021	-0,143
-584,094	800,000	0,045	0,091
-583,079	-200,000	0,003	0,037
-582,065	-200,000	-0,045	0,160
-581,050	69,084	-0,055	-0,041
-580,036	800,000	0,018	-0,047
-579,021	-48,947	0,058	-0,020
-578,006	-200,000	-0,001	-0,062
-576,992	58,296	0,091	-0,064
-575,977	-200,000	0,002	-0,138
-574,963	688,128	0,024	0,046
-573,948	600,634	-0,028	0,051
-572,934	-36,458	0,143	-0,055
-571,919	748,039	-0,055	0,107
-570,904	-200,000	0,002	-0,009
-569,890	23,634	-0,053	0,031
-568,875	329,156	0,028	-0,039
-567,861	445,864	0,035	0,056
-566,846	-67,810	0,151	-0,042
-565,831	-200,000	0,009	0,064
-564,817	-27,404	-0,030	0,012
-563,802	-200,000	0,009	-0,126
-562,788	102,610	-0,021	-0,018
-561,773	-55,207	-0,094	0,030
-560,758	800,000	0,035	-0,072
-559,744	18,847	0,143	-0,082
-558,729	-200,000	0,006	0,054
-557,715	-100,081	-0,082	-0,015
-556,700	66,604	-0,067	-0,049
-555,685	25,249	-0,152	-0,091
-554,671	-33,473	0,071	0,028
-553,656	125,328	-0,064	0,058
-552,642	148,882	0,077	-0,074
-551,627	19,268	-0,051	0,029
-550,612	90,625	-0,091	-0,073
-549,598	45,901	-0,106	-0,070
-548,583	15,084	-0,051	0,028
-547,569	209,353	-0,085	0,096
-546,554	177,944	0,068	0,071
-545,539	-97,418	-0,066	0,012
-544,525	203,544	-0,135	-0,150
-543,510	492,331	0,030	-0,049
-542,496	800,000	0,006	-0,017
-541,481	-200,000	-0,028	-0,222
-540,466	-139,464	-0,019	0,001
-539,452	640,282	-0,054	0,100
-538,437	152,585	0,069	-0,067
-537,423	-200,000	-0,016	0,103
-536,408	-200,000	-0,001	0,070
-535,393	-11,272	-0,150	-0,071
-534,379	229,011	-0,021	-0,025
-533,364	-200,000	-0,027	-0,140
-532,350	-117,875	-0,103	0,013
-531,335	800,000	0,052	0,109
-530,321	800,000	0,038	-0,097
-529,306	800,000	-0,075	0,152
-528,291	-93,614	-0,152	0,030
-527,277	-200,000	-0,017	-0,181
-526,262	-19,224	0,046	-0,020
-525,248	517,087	0,071	0,119
-524,233	209,963	-0,042	-0,048
-523,218	-200,000	-0,025	-0,098
-522,204	111,086	0,100	0,087
-521,189	800,000	0,057	-0,119
-520,175	-152,145	-0,110	0,006
-519,160	25,932	0,120	-0,072
-518,145	5,249	0,020	0,011
-517,131	-200,000	-0,014	0,133
-516,116	263,955	0,093	0,116
-515,102	-117,329	-0,079	-0,010
-514,087	-30,962	0,073	-0,029
-513,072	-59,214	0,023	0,007
-512,058	252,399	-0,055	0,068
-511,043	96,587	0,053	0,044
-510,029	78,749	-0,042	-0,033
-509,014	-200,000	-0,004	0,099
-507,999	-56,433	-0,111	0,035
-506,985	-200,000	0,004	-0,074
-505,970	64,444	-0,040	-0,029
-504,956	325,983	0,079	0,108
-503,941	800,000	-0,034	-0,072
-502,926	178,246	0,070	0,073
-501,912	552,066	0,075	-0,130
-500,897	-200,000	0,006	0,043
-499,883	60,562	-0,046	-0,033
-498,868	718,826	-0,081	-0,155
-497,853	-59,904	0,069	-0,021
-496,839	187,726	-0,083	-0,089
-495,824	-30,293	0,068	0,028
-494,810	-200,000	-0,018	0,158
-493,795	232,547	0,063	0,075
-492,781	800,000	-0,084	0,246
-491,766	480,822	-0,034	0,056
-490,751	800,000	-0,071	0,165
-489,737	-200,000	-0,003	-0,022
-488,722	1,790	0,038	-0,019
-487,708	-200,000	0,006	0,104
-486,693	-66,758	0,081	-0,023
-485,678	28,393	0,025	-0,015
-484,664	143,719	0,029	-0,027
-483,649	-200,000	0,029	-0,125
-482,635	70,614	-0,103	-0,076
-481,620	-200,000	0,038	0,129
-480,605	-155,255	0,128	-0,006
-479,591	-200,000	-0,017	-0,074
-478,576	-200,000	-0,039	0,129
-477,562	2,823	0,090	0,047
-476,547	652,401	-0,021	0,039
-475,532	800,000	-0,051	0,114
-474,518	800,000	0,015	0,039
-473,503	-200,000	0,053	0,187
-472,489	50,538	0,124	0,084
-471,474	238,235	0,012	0,014
-470,459	75,110	-0,037	0,028
-469,445	541,148	-0,094	-0,161
-468,430	-200,000	0,022	-0,084
-467,416	-200,000	0,000	-0,005
-466,401	800,000	0,020	-0,060
-465,386	393,030	-0,065	0,098
-464,372	-200,000	-0,029	-0,099
-463,357	-200,000	-0,010	-0,143
-462,343	-137,659	0,051	-0,004
-461,328	-127,184	-0,080	-0,008
-460,313	97,020	-0,037	-0,030
-459,299	113,109	-0,026	0,023
-458,284	-97,381	0,020	0,004
-457,270	688,075	0,034	-0,064
-456,255	232,562	-0,097	-0,115
-455,241	-192,643	0,082	-0,001
-454,226	800,000	-0,011	-0,025
-453,211	120,166	-0,051	-0,045
-452,197	-16,259	0,048	0,022
-451,182	89,661	0,051	-0,041
-450,168	-200,000	-0,009	0,049
-449,153	800,000	0,100	-0,232
-448,138	-140,182	-0,023	0,002
-447,124	606,920	0,022	0,040
-446,109	66,641	-0,046	-0,033
-445,095	-148,044	-0,175	-0,010
-444,080	-200,000	0,011	-0,087
-443,065	169,927	0,048	-0,049
-442,051	-200,000	0,033	-0,124
-441,036	-200,000	0,006	-0,108
-440,022	-200,000	0,016	-0,052
-439,007	800,000	0,029	0,075
-437,992	358,106	0,024	0,035
-436,978	-200,000	0,000	0,080
-435,963	-6,821	0,091	0,044
-434,949	307,825	0,035	-0,047
-433,934	3,262	-0,017	0,009
-432,919	-46,904	-0,098	0,034
-431,905	-156,923	-0,182	0,008
-430,890	96,919	0,106	-0,087
-429,876	-200,000	0,037	0,144
-428,861	198,415	-0,063	-0,069
-427,846	800,000	0,050	0,116
-426,832	175,545	-0,168	0,175
-425,817	381,072	0,037	-0,054
-424,803	89,728	-0,089	-0,071
-423,788	5,648	-0,083	0,044
-422,773	-38,824	0,137	-0,051
-421,759	-104,607	-0,077	0,013
-420,744	-14,323	-0,023	-0,011
-419,730	-200,000	-0,017	0,111
-418,715	87,406	-0,047	-0,037
-417,701	-33,055	0,166	-0,065
-416,686	160,657	-0,037	0,037
-415,671	800,000	0,014	0,038
-414,657	-200,000	0,020	0,071
-413,642	-24,672	-0,023	-0,010
-412,628	241,915	-0,062	-0,074
-411,613	-140,367	0,064	0,005
-410,598	152,262	0,055	0,053
-409,584	800,000	-0,037	0,080
-408,569	85,981	0,102	0,080
-407,555	145,481	0,084	0,081
-406,540	271,686	0,026	0,032
-405,525	88,446	-0,042	0,034
-404,511	-200,000	-0,018	-0,076
-403,496	-43,738	-0,159	0,057
-402,482	800,000	0,010	-0,031
-401,467	584,410	0,008	-0,014
-400,452	50,906	0,137	0,093
-399,438	97,329	0,092	-0,076
-398,423	-105,194	-0,065	-0,010
-397,409	-200,000	-0,009	-0,119
-396,394	119,433	-0,074	0,066
-395,379	-43,300	0,096	0,035
-394,365	159,453	-0,052	0,052
-393,350	-22,130	0,097	0,042
-392,336	-200,000	0,013	0,146
-391,321	-200,000	-0,013	-0,045
-390,306	322,378	-0,082	-0,113
-389,292	165,676	-0,058	-0,058
-388,277	-75,688	-0,019	0,005
-387,263	103,753	0,068	0,057
-386,248	123,190	0,053	-0,047
-385,233	187,150	0,085	0,091
-384,219	-3,598	-0,130	-0,065
-383,204	-125,369	-0,060	-0,006
-382,190	-142,045	0,083	-0,006
-381,175	-87,872	-0,040	0,009
-380,160	270,706	-0,090	0,113
-379,146	0,464	0,013	0,007
-378,131	-200,000	0,031	-0,098
-377,117	-35,105	0,031	0,012
-376,102	-200,000	-0,005	-0,046
-375,088	-200,000	-0,033	-0,140
-374,073	250,169	0,068	-0,082
-373,058	49,904	0,074	-0,050
-372,044	800,000	0,051	0,129
-371,029	-77,028	0,060	0,015
-370,015	21,549	0,106	-0,062
-369,000	-200,000	-0,036	-0,136
-367,985	-182,265	-0,140	-0,002
-366,971	302,973	0,026	-0,034
-365,956	29,170	-0,089	0,054
-364,942	109,284	0,023	-0,020
-363,927	201,704	0,048	0,053
-362,912	503,921	-0,014	-0,022
-361,898	-18,698	-0,107	-0,048
-360,883	-200,000	-0,011	-0,051
-359,869	-95,276	-0,056	0,011
-358,854	782,425	0,031	0,062
-357,839	800,000	-0,023	0,049
-356,825	-89,690	0,072	0,015
-355,810	800,000	0,027	-0,057
-354,796	171,486	-0,027	-0,027
-353,781	95,576	-0,086	-0,070
-352,766	-61,018	-0,052	-0,016
-351,752	724,914	-0,039	0,075
-350,737	466,604	-0,032	0,051
-349,723	61,549	0,090	0,064
-348,708	-107,072	-0,082	0,013
-347,693	235,420	0,053	0,062
-346,679	231,423	-0,094	0,110
-345,664	-200,000	-0,002	-0,072
-344,650	800,000	0,045	-0,121
-343,635	-200,000	-0,013	-0,085
-342,620	23,194	0,170	-0,099
-341,606	43,615	-0,152	-0,099
-340,591	800,000	0,034	0,081
-339,577	-200,000	0,005	-0,023
-338,562	800,000	0,051	-0,126
-337,548	-200,000	-0,004	-0,031
-336,533	13,006	-0,035	0,019
-335,518	370,099	0,062	0,090
-334,504	-89,917	-0,127	0,026
-333,489	-200,000	0,004	0,075
-332,475	-200,000	0,006	0,044
-331,460	99,936	0,004	-0,004
-330,445	46,449	-0,165	0,109
-329,431	-200,000	0,001	0,090
-328,416	-200,000	-0,008	0,065
-327,402	-200,000	0,016	0,076
-326,387	60,550	-0,016	0,012
-325,372	146,000	-0,034	-0,032
-324,358	481,623	-0,089	-0,144
-323,343	132,927	-0,033	0,030
-322,329	-200,000	-0,025	0,081
-321,314	-200,000	-0,011	0,086
-320,299	-200,000	-0,010	0,106
-319,285	108,571	0,106	0,090
-318,270	-76,165	-0,200	-0,050
-317,256	800,000	-0,054	-0,108
-316,241	-200,000	0,020	-0,117
-315,226	-169,442	0,165	0,004
-314,212	-45,445	-0,070	-0,025
-313,197	-200,000	0,028	0,137
-312,183	126,762	0,021	-0,019
-311,168	-200,000	0,024	0,176
-310,153	-74,918	-0,106	0,027
-309,139	-105,951	-0,105	0,017
-308,124	383,726	-0,042	0,062
-307,110	-200,000	-0,007	-0,086
-306,095	38,248	0,157	0,100
-305,080	303,301	0,049	0,065
-304,066	-113,852	-0,212	0,029
-303,051	-200,000	-0,000	-0,034
-302,037	141,795	0,124	-0,117
-301,022	-200,000	0,002	-0,086
-300,008	-200,000	0,009	0,084
-298,993	-168,583	0,188	0,005
-297,978	422,568	0,033	0,051
-296,964	-200,000	-0,004	-0,070
-295,949	-168,441	-0,083	0,002
-294,935	-200,000	0,009	0,093
-293,920	-122,144	0,123	0,014
-292,905	392,358	0,073	0,108
-291,891	-119,921	0,109	0,013
-290,876	-200,000	0,019	0,060
-289,862	-200,000	-0,004	-0,102
-288,847	-200,000	-0,020	0,106
-287,832	53,805	-0,042	-0,029
-286,818	-200,000	-0,019	0,095
-285,803	346,353	-0,037	0,052
-284,789	-200,000	-0,005	0,080
-283,774	646,926	0,091	0,167
-282,759	-101,377	0,069	0,012
-281,745	-41,738	-0,108	-0,039
-280,730	-200,000	-0,011	0,080
-279,716	800,000	-0,040	-0,085
-278,701	235,361	0,094	-0,111
-277,686	-165,433	-0,079	-0,002
-276,672	-200,000	-0,012	0,043
-275,657	59,186	-0,175	-0,122
-274,643	-200,000	-0,007	-0,100
-273,628	144,547	0,065	-0,062
-272,613	-81,836	-0,066	-0,015
-271,599	-200,000	0,019	-0,177
-270,584	120,614	0,040	-0,035
-269,570	800,000	-0,050	-0,113
-268,555	-200,000	0,038	-0,142
-267,540	800,000	-0,023	0,058
-266,526	-200,000	0,001	0,076
-265,511	-52,840	0,020	0,007
-264,497	381,614	0,087	0,128
-263,482	-158,709	0,079	-0,003
-262,467	800,000	0,063	0,144
-261,453	33,362	-0,072	0,044
-260,438	-200,000	0,005	-0,096
-259,424	442,392	-0,014	-0,022
-258,409	543,761	-0,039	-0,066
-257,395	21,109	0,052	-0,030
-256,380	-121,372	0,174	0,020
-255,365	-122,785	0,055	-0,006
-254,351	-2,863	0,028	0,014
-253,336	-200,000	-0,024	-0,124
-252,322	-61,552	-0,056	-0,017
-251,307	35,143	-0,099	0,062
-250,292	15,730	-0,128	0,072
-249,278	52,045	-0,058	0,039
-248,263	-200,000	-0,003	0,025
-247,249	103,419	-0,094	-0,078
-246,234	365,257	0,100	0,144
-245,219	-139,123	-0,126	-0,010
-244,205	-200,000	0,001	0,065
-243,190	399,849	-0,054	-0,081
-242,176	-37,332	-0,068	0,026
-241,161	-200,000	0,037	0,142
-240,146	800,000	-0,025	0,051
-239,132	444,835	-0,089	-0,139
-238,117	-200,000	-0,001	-0,098
-237,103	-39,558	-0,093	-0,034
-236,088	-113,594	-0,127	0,017
-235,073	-123,213	0,278	0,031
-234,059	-73,203	-0,049	0,013
-233,044	-78,475	0,042	-0,010
-232,030	-8,407	0,153	-0,073
-231,015	-200,000	-0,037	-0,121
-230,000	-200,000	0,007	0,099
-228,986	420,618	0,024	0,037
-227,971	13,207	-0,037	0,020
-226,957	-150,947	0,101	-0,005
-225,942	117,217	0,139	0,122
-224,927	800,000	-0,070	0,171
-223,913	135,246	-0,033	-0,031
-222,898	38,874	0,123	-0,078
-221,884	-161,524	-0,063	-0,002
-220,869	-12,865	0,079	0,037
-219,855	-101,929	0,090	0,015
-218,840	18,676	-0,047	-0,027
-217,825	800,000	0,030	-0,094
-216,811	-6,926	-0,059	-0,029
-215,796	689,494	-0,055	-0,102
-214,782	-68,467	-0,140	-0,038
-213,767	-200,000	0,004	0,047
-212,752	-22,215	0,012	0,005
-211,738	84,425	0,072	-0,056
-210,723	-200,000	-0,017	0,065
-209,709	232,971	-0,026	0,031
-208,694	-200,000	0,005	0,061
-207,679	-200,000	0,046	0,191
-206,665	-61,254	0,129	0,038
-205,650	-40,226	0,074	0,027
-204,636	268,320	0,044	-0,055
-203,621	-200,000	0,010	0,103
-202,606	-200,000	0,007	0,045
-201,592	-169,510	-0,056	0,001
-200,577	-68,577	0,064	-0,018
-199,563	560,346	0,008	-0,014
-198,548	-54,707	0,075	0,024
-197,533	42,764	-0,060	-0,039
-196,519	-32,290	0,091	0,036
-195,504	100,411	-0,086	0,071
-194,490	162,278	0,011	-0,011
-193,475	-200,000	-0,030	-0,100
-192,460	320,104	-0,012	0,016
-191,446	-200,000	-0,016	-0,053
-190,431	123,590	0,100	0,089
-189,417	734,845	-0,061	-0,116
-188,402	-81,037	-0,054	0,012
-187,387	-200,000	-0,031	-0,097
-186,373	154,405	-0,036	-0,035
-185,358	-164,129	0,100	-0,003
-184,344	-60,966	0,111	-0,033
-183,329	83,501	0,099	0,077
-182,315	-1,036	0,105	-0,053
-181,300	-142,986	0,048	0,003
-180,285	207,769	0,042	-0,047
-179,271	235,328	-0,060	-0,070
-178,256	-89,914	0,094	-0,019
-177,242	-12,944	0,150	0,069
-176,227	695,791	0,017	-0,032
-175,212	-80,768	0,065	-0,015
-174,198	-100,710	0,033	-0,006
-173,183	-105,869	-0,083	0,013
-172,169	-117,897	-0,096	0,012
-171,154	-27,833	-0,111	0,045
-170,139	-200,000	-0,006	0,076
-169,125	12,801	0,045	0,025
-168,110	2,268	-0,104	-0,053
-167,096	-200,000	-0,006	0,184
-166,081	-119,428	0,090	-0,011
-165,066	84,601	0,084	-0,065
-164,052	-50,801	-0,062	0,021
-163,037	-200,000	0,029	-0,135
-162,023	800,000	-0,016	-0,045
-161,008	-200,000	0,021	0,129
-159,993	-53,100	0,132	-0,043
-158,979	528,082	0,062	-0,104
-157,964	800,000	0,013	-0,029
-156,950	-200,000	0,026	-0,158
-155,935	55,119	0,061	-0,041
-154,920	97,789	-0,192	-0,156
-153,906	786,416	-0,090	0,175
-152,891	800,000	0,062	-0,175
-151,877	88,068	-0,162	-0,127
-150,862	643,689	0,070	-0,126
-149,847	-200,000	0,008	0,052
-148,833	-167,582	-0,050	-0,001
-147,818	-200,000	-0,025	-0,115
-146,804	-13,627	0,212	0,097
-145,789	118,324	-0,026	0,023
-144,775	-200,000	0,009	0,083
-143,760	-200,000	-0,064	0,201
-142,745	110,260	-0,088	0,075
-141,731	142,220	-0,094	0,089
-140,716	800,000	0,032	0,089
-139,702	113,168	0,084	-0,072
-138,687	-88,726	-0,064	0,013
-137,672	-200,000	-0,008	0,084
-136,658	77,985	-0,044	-0,033
-135,643	37,004	0,124	-0,077
-134,629	108,981	0,049	-0,042
-133,614	-77,556	0,073	0,018
-132,599	-200,000	0,014	0,100
-131,585	-200,000	0,006	-0,156
-130,570	-83,534	-0,044	0,010
-129,556	30,047	-0,029	-0,018
-128,541	-200,000	-0,046	0,176
-127,526	-200,000	-0,002	-0,068
-126,512	-200,000	-0,014	0,117
-125,497	47,523	0,069	-0,046
-124,483	162,011	-0,058	-0,058
-123,468	-25,470	-0,098	0,041
-122,453	748,085	-0,027	0,052
-121,439	-200,000	0,011	0,043
-120,424	-200,000	0,003	0,054
-119,410	126,394	0,009	0,008
-118,395	-23,341	0,004	0,002
-117,380	800,000	0,020	0,038
-116,366	-16,082	-0,060	0,027
-115,351	800,000	0,039	0,118
-114,337	-200,000	0,011	-0,133
-113,322	-200,000	-0,030	-0,153
-112,307	-110,721	0,012	-0,002
-111,293	33,628	0,126	-0,077
-110,278	800,000	-0,050	0,106
-109,264	130,955	0,105	0,095
-108,249	168,584	-0,089	0,090
-107,234	-52,109	-0,075	-0,025
-106,220	-4,810	0,040	0,019
-105,205	-25,189	-0,035	-0,014
-104,191	346,626	-0,006	-0,008
-103,176	-150,181	-0,153	-0,008
-102,162	547,247	0,064	0,109
-101,147	-151,817	-0,077	0,004
-100,132	161,753	0,085	0,084
-99,118	-83,292	-0,146	-0,033
-98,103	249,504	-0,106	0,127
-97,089	-102,455	0,076	-0,013
-96,074	-71,857	-0,055	-0,014
-95,059	101,690	-0,148	-0,122
-94,045	22,720	-0,076	0,044
-93,030	-200,000	0,071	0,000
-92,016	-62,337	0,072	-0,021
-91,001	741,837	-0,016	0,030
-89,986	99,878	0,152	0,124
-88,972	-42,808	-0,138	0,049
-87,957	66,249	0,021	-0,015
-86,943	-65,914	-0,095	0,027
-85,928	-151,420	0,113	-0,006
-84,913	-115,143	-0,044	0,006
-83,899	758,650	0,034	0,065
-82,884	131,574	-0,044	-0,040
-81,870	800,000	0,071	0,146
-80,855	-76,506	0,129	0,032
-79,840	800,000	-0,053	0,125
-78,826	-69,260	-0,101	0,027
-77,811	-200,000	-0,006	-0,182
-76,797	404,798	0,075	0,112
-75,782	-28,549	0,086	0,035
-74,767	-200,000	0,025	-0,079
-73,753	-200,000	-0,006	0,256
-72,738	800,000	-0,071	0,143
-71,724	-33,340	-0,169	0,066
-70,709	-88,998	0,071	0,015
-69,694	10,835	-0,061	-0,033
-68,680	-200,000	-0,021	-0,093
-67,665	220,478	-0,068	-0,077
-66,651	-42,805	0,078	0,028
-65,636	327,549	-0,063	0,086
-64,622	55,050	0,025	0,017
-63,607	374,957	-0,043	0,062
-62,592	800,000	-0,041	-0,098
-61,578	734,812	-0,072	-0,137
-60,563	526,042	-0,027	0,045
-59,549	800,000	-0,033	0,089
-58,534	49,260	-1,961	-1,299
-57,519	511,494	-1,205	-1,987
-56,505	-200,000	-0,297	-4,214
-55,490	682,971	0,861	1,592
-54,476	800,000	5,122	11,596
-53,461	-200,000	21,713	344,642
-52,446	800,000	763,596	2359,804
-51,432	553,517	1663,730	2833,090
-50,417	72,389	1659,794	1219,141
-49,403	17,536	1533,221	857,415
-48,388	11,460	1457,111	785,493
-47,373	19,445	1448,476	819,086
-46,359	15,046	1437,432	791,915
-45,344	9,747	1433,529	764,522
-44,330	9,711	1431,601	763,294
-43,315	9,718	1429,667	762,264
-42,300	9,736	1427,786	761,318
-41,286	9,724	1426,726	760,667
-40,271	9,723	1425,566	760,013
-39,257	9,719	1424,141	759,204
-38,242	9,748	1423,009	758,705
-37,227	9,727	1422,441	758,277
-36,213	9,768	1420,662	757,488
-35,198	9,737	1419,747	756,825
-34,184	9,749	1418,731	756,309
-33,169	9,716	1417,362	755,396
-32,154	9,800	1416,199	755,142
-31,140	9,780	1414,914	754,332
-30,125	9,774	1413,943	753,758
-29,111	9,752	1412,897	753,063
-28,096	9,727	1411,474	752,158
-27,082	9,709	1410,157	751,341
-26,067	9,661	1409,417	750,694
-25,052	9,700	1408,309	750,256
-24,038	9,740	1407,234	749,841
-23,023	9,733	1406,326	749,294
-22,009	9,686	1405,459	748,586
-20,994	9,682	1404,338	747,941
-19,979	9,738	1403,383	747,661
-18,965	9,644	1402,495	746,719
-17,950	9,684	1401,527	746,361
-16,936	9,660	1400,759	745,811
-15,921	9,583	1399,759	744,891
-14,906	9,636	1398,727	744,561
-13,892	9,663	1397,640	744,074
-12,877	9,608	1397,079	743,491
-11,863	9,585	1396,126	742,851
-10,848	9,568	1395,448	742,381
-9,833	9,558	1394,292	741,691
-8,819	9,478	1393,768	741,009
-7,804	9,530	1392,686	740,648
-6,790	9,530	1391,597	740,038
-5,775	9,502	1390,508	739,300
-4,760	9,521	1389,564	738,855
-3,746	9,505	1388,712	738,300
-2,731	9,488	1388,110	737,874
-1,717	9,504	1387,027	737,341
-0,702	9,546	1384,987	736,419
0,313	13,536	1297,469	708,120
1,327	29,663	687,939	411,902
2,342	45,954	118,946	77,465
3,356	-0,759	16,496	8,215
4,371	3,522	3,504	1,795
5,386	-13,296	1,076	0,491
6,400	800,000	0,318	0,630
7,415	13,925	-0,173	-0,094
8,429	26,306	-0,257	-0,151
9,444	5,595	-0,314	-0,163
10,459	141,981	-0,134	-0,125
11,473	62,465	-0,324	-0,228
12,488	113,802	-0,234	-0,200
13,502	-0,447	-0,323	-0,161
14,517	-92,541	-0,447	-0,088
15,531	72,258	-0,335	-0,245
16,546	185,696	-0,157	-0,164
17,561	363,101	-0,219	-0,310
18,575	-139,494	-0,201	-0,015
19,590	114,621	-0,202	-0,173
20,604	-56,003	-0,302	-0,094
21,619	67,637	-0,364	-0,262
22,634	62,464	-0,534	-0,375
23,648	39,848	-0,392	-0,247
24,663	126,335	-0,315	-0,281
25,677	14,962	-0,348	-0,191
26,692	-48,758	-0,360	-0,121
27,707	59,983	-0,340	-0,236
28,721	4,640	-0,384	-0,198
29,736	-50,555	-0,356	-0,117
30,750	2,020	-0,397	-0,201
31,765	28,826	-0,333	-0,198
32,780	-5,282	-0,414	-0,199
33,794	205,363	-0,236	-0,258
34,809	147,022	-0,220	-0,209
35,823	282,821	-0,181	-0,229
36,838	282,488	-0,276	-0,349
37,853	15,689	-0,291	-0,160
38,867	4,228	-0,426	-0,218
39,882	-37,309	-0,262	-0,098
40,896	49,637	-0,337	-0,223
41,911	-65,095	-0,343	-0,097
42,926	12,516	-0,312	-0,169
43,940	61,208	-0,345	-0,240
44,955	28,980	-0,341	-0,203
45,969	235,496	-0,266	-0,309
46,984	167,033	-0,269	-0,269
47,999	1,053	-0,343	-0,172
49,013	1,181	-0,367	-0,185
50,028	0,669	-0,426	-0,213
51,042	-45,044	-0,465	-0,162
52,057	14,682	-0,377	-0,206
53,071	78,501	-0,458	-0,343
54,086	284,498	-0,212	-0,268
55,101	21,939	-0,288	-0,165
56,115	-67,602	-0,436	-0,119
57,130	126,647	-0,341	-0,303
58,144	22,166	-0,461	-0,263
59,159	125,607	-0,341	-0,302
60,174	225,108	-0,376	-0,428
61,188	99,841	-0,384	-0,312
62,203	-7,106	-0,319	-0,151
63,217	-2,809	-0,343	-0,167
64,232	120,225	-0,319	-0,277
65,247	134,627	-0,341	-0,310
66,261	51,104	-0,302	-0,200
67,276	10,054	-0,208	-0,110
68,290	11,555	-0,286	-0,153
69,305	10,340	-0,200	-0,106
70,320	29,769	-0,328	-0,196
71,334	543,057	-0,129	-0,216
72,349	17,262	-0,307	-0,171
73,363	-24,019	-0,326	-0,136
74,378	45,882	-0,270	-0,175
75,393	76,445	-0,447	-0,331
76,407	133,180	-0,286	-0,259
77,422	143,587	-0,300	-0,280
78,436	249,514	-0,282	-0,335
79,451	105,313	-0,284	-0,234
80,466	0,022	-0,352	-0,175
81,480	387,742	-0,206	-0,299
82,495	123,762	-0,183	-0,161
83,509	67,949	-0,144	-0,103
84,524	162,082	-0,227	-0,223
85,539	130,376	-0,152	-0,136
86,553	-77,430	-0,232	-0,056
87,568	8,566	-0,291	-0,153
88,582	220,263	-0,256	-0,288
89,597	55,331	-0,241	-0,163
90,611	78,485	-0,210	-0,157
91,626	44,955	-0,252	-0,162
92,641	109,867	-0,266	-0,224
93,655	92,703	-0,282	-0,223
94,670	46,121	-0,390	-0,252
95,684	-6,492	-0,270	-0,128
96,699	67,276	-0,324	-0,231
97,714	-40,174	-0,221	-0,080
98,728	-58,514	-0,315	-0,095
99,743	73,452	-0,209	-0,153
100,757	-63,354	-0,340	-0,097
101,772	37,601	-0,325	-0,201
102,787	158,077	-0,331	-0,321
103,801	-48,342	-0,351	-0,118
104,816	278,869	-0,197	-0,246
105,830	25,359	-0,309	-0,179
106,845	118,584	-0,170	-0,147
107,860	40,781	-0,233	-0,146
108,874	366,693	-0,161	-0,228
109,889	281,358	-0,325	-0,407
110,903	-30,613	-0,265	-0,105
111,918	58,304	-0,268	-0,184
112,933	50,679	-0,134	-0,088
113,947	71,914	-0,166	-0,121
114,962	65,014	-0,321	-0,226
115,976	-26,999	-0,365	-0,148
116,991	119,125	-0,314	-0,271
118,006	128,139	-0,370	-0,328
119,020	-200,000	-0,052	-0,310
120,035	45,620	-0,202	-0,130
121,049	56,371	-0,229	-0,155
122,064	-138,353	-0,321	-0,024
123,079	32,829	-0,269	-0,162
124,093	145,592	-0,287	-0,268
125,108	235,159	-0,240	-0,276
126,122	-108,369	-0,374	-0,056
127,137	-105,806	-0,283	-0,044
128,151	-12,078	-0,217	-0,099
129,166	-90,999	-0,142	-0,028
130,181	303,249	-0,176	-0,228
131,195	-77,496	-0,328	-0,079
132,210	3,275	-0,301	-0,152
133,224	-4,724	-0,209	-0,100
134,239	0,920	-0,304	-0,151
135,254	11,587	-0,211	-0,113
136,268	800,000	-0,126	-0,305
137,283	-45,443	-0,315	-0,108
138,297	323,185	-0,199	-0,265
139,312	-32,647	-0,369	-0,142
140,327	-67,818	-0,195	-0,053
141,341	444,196	-0,152	-0,234
142,356	108,851	-0,205	-0,171
143,370	-41,909	-0,295	-0,105
144,385	-149,444	-0,241	-0,013
145,400	-86,338	-0,294	-0,062
146,414	131,630	-0,324	-0,290
147,429	-200,000	-0,041	-0,260
148,443	-155,566	-0,183	0,008
149,458	35,279	-0,185	-0,113
150,473	571,124	-0,130	-0,221
151,487	63,027	-0,304	-0,211
152,502	334,057	-0,154	-0,208
153,516	193,178	-0,202	-0,212
154,531	-82,066	-0,260	-0,059
155,546	97,678	-0,185	-0,148
156,560	83,625	-0,212	-0,161
157,575	70,256	-0,199	-0,143
158,589	-4,110	-0,295	-0,142
159,604	-95,126	-0,359	-0,067
160,619	319,037	-0,180	-0,237
161,633	-2,865	-0,204	-0,099
162,648	-53,260	-0,320	-0,102
163,662	533,177	-0,115	-0,189
164,677	18,485	-0,273	-0,151
165,692	241,120	-0,098	-0,114
166,706	154,266	-0,206	-0,196
167,721	52,765	-0,259	-0,172
168,735	0,185	-0,260	-0,128
169,750	63,829	-0,208	-0,145
170,764	297,125	-0,189	-0,242
171,779	-28,962	-0,253	-0,101
172,794	-71,002	-0,125	-0,032
173,808	-159,919	-0,338	-0,013
174,823	-82,362	-0,213	-0,048
175,837	138,055	-0,293	-0,266
176,852	-50,156	-0,233	-0,076
177,867	-200,000	-0,029	-0,230
178,881	72,583	-0,163	-0,118
179,896	-42,327	-0,255	-0,090
180,910	-116,060	-0,318	-0,041
181,925	20,184	-0,252	-0,141
182,940	45,474	-0,224	-0,143
183,954	13,685	-0,121	-0,065
184,969	57,889	-0,213	-0,144
185,983	-200,000	-0,124	-0,000
186,998	18,513	-0,278	-0,154
188,013	800,000	-0,075	-0,159
189,027	-122,914	-0,184	0,020
190,042	147,080	-0,244	-0,228
191,056	246,575	-0,226	-0,265
192,071	-6,108	-0,201	-0,095
193,086	-113,976	-0,124	0,016
194,100	-25,813	-0,168	-0,068
195,115	48,690	-0,134	-0,087
196,129	95,203	-0,198	-0,156
197,144	-200,000	-0,027	-0,141
198,159	-81,042	-0,279	-0,063
199,173	286,831	-0,146	-0,183
200,188	49,777	-0,111	-0,072
201,202	-121,205	-0,134	-0,015
202,217	234,527	-0,238	-0,272
203,232	36,092	-0,222	-0,135
204,246	26,049	-0,337	-0,194
205,261	90,211	-0,224	-0,173
206,275	107,167	-0,156	-0,129
207,290	-200,000	-0,049	-0,179
208,304	-181,191	-0,106	0,001
209,319	689,791	-0,114	-0,207
210,334	-58,984	-0,244	-0,073
211,348	29,621	-0,215	-0,127
212,363	-4,199	-0,250	-0,120
213,377	109,315	-0,098	-0,081
214,392	209,819	-0,073	0,079
215,407	81,227	-0,189	-0,141
216,421	-3,332	-0,169	-0,081
217,436	73,454	-0,184	-0,133
218,450	41,112	-0,057	-0,035
219,465	-32,355	-0,191	-0,073
220,480	130,185	-0,224	-0,199
221,494	182,884	-0,121	-0,123
222,509	276,264	-0,131	-0,161
223,523	21,175	-0,205	-0,115
224,538	800,000	-0,109	-0,233
225,553	213,914	-0,162	-0,178
226,567	323,765	-0,146	-0,194
227,582	82,834	-0,231	-0,174
228,596	375,063	-0,095	-0,135
229,611	95,066	-0,193	-0,152
230,626	548,406	-0,148	-0,246
231,640	145,343	-0,158	-0,146
232,655	-60,739	-0,216	-0,063
233,669	62,702	-0,234	-0,161
234,684	75,707	-0,229	-0,167
235,699	386,597	-0,085	-0,121
236,713	-200,000	-0,051	-0,179
237,728	750,581	-0,089	-0,166
238,742	394,726	-0,120	-0,174
239,757	169,423	-0,194	-0,192
240,772	161,238	-0,205	-0,198
241,786	109,871	-0,148	-0,122
242,801	-200,000	-0,055	-0,189
243,815	225,710	-0,117	-0,131
244,830	91,350	-0,149	-0,115
245,844	45,003	-0,184	-0,117
246,859	-113,828	-0,291	-0,039
247,874	800,000	-0,098	-0,195
248,888	800,000	-0,182	-0,411
249,903	101,549	-0,128	-0,103
250,917	-112,036	-0,144	-0,020
251,932	219,611	-0,132	-0,146
252,947	-84,341	-0,132	0,029
253,961	-57,435	-0,161	-0,049
254,976	-148,915	-0,211	-0,012
255,990	800,000	-0,030	-0,087
257,005	98,372	-0,043	0,034
258,020	-145,783	-0,135	0,008
259,034	-67,076	-0,220	-0,059
260,049	-183,111	-0,232	0,003
261,063	213,962	-0,178	-0,194
262,078	82,817	-0,226	-0,169
263,093	-137,483	-0,091	-0,007
264,107	-200,000	-0,006	-0,202
265,122	76,674	-0,178	-0,130
266,136	-90,455	-0,034	-0,007
267,151	237,046	-0,157	-0,179
268,166	30,107	-0,101	-0,059
269,180	800,000	-0,101	-0,234
270,195	-6,627	-0,303	-0,141
271,209	47,169	-0,167	-0,107
272,224	-54,661	-0,222	-0,069
273,239	96,088	-0,210	-0,165
274,253	-7,859	-0,131	-0,061
275,268	191,862	-0,128	-0,133
276,282	-135,963	-0,158	0,013
277,297	49,412	-0,197	-0,127
278,312	-168,536	-0,107	-0,003
279,326	25,831	-0,137	-0,078
280,341	588,722	-0,121	-0,205
281,355	7,121	-0,232	-0,119
282,370	800,000	-0,061	-0,150
283,384	44,228	-0,299	-0,188
284,399	-85,544	-0,129	0,027
285,414	-124,942	-0,208	0,022
286,428	494,447	-0,101	-0,160
287,443	313,788	-0,105	-0,136
288,457	-200,000	-0,052	-0,168
289,472	-36,740	-0,128	-0,047
290,487	-200,000	-0,041	-0,132
291,501	340,080	-0,094	-0,127
292,516	22,911	-0,149	-0,084
293,530	-2,283	-0,162	-0,078
294,545	-88,676	-0,099	-0,020
295,560	-128,370	-0,058	0,006
296,574	52,559	-0,253	-0,166
297,589	-106,960	-0,178	-0,027
298,603	-14,832	-0,209	-0,092
299,618	8,343	-0,161	-0,083
300,633	-76,931	-0,105	0,025
301,647	307,351	-0,097	-0,125
302,662	-128,157	-0,081	0,008
303,676	800,000	-0,051	-0,102
304,691	-200,000	-0,088	-0,278
305,706	410,215	-0,126	-0,183
306,720	-200,000	-0,042	-0,130
307,735	-145,658	-0,056	0,003
308,749	371,153	-0,091	-0,127
309,764	-149,053	-0,139	-0,008
310,779	-3,328	-0,078	0,037
311,793	-156,255	-0,146	0,006
312,808	800,000	-0,067	-0,146
313,822	107,762	-0,160	-0,130
314,837	120,526	-0,137	-0,116
315,852	27,105	-0,098	0,056
316,866	19,659	-0,213	0,117
317,881	689,451	-0,085	-0,154
318,895	168,280	-0,081	0,079
319,910	-15,071	-0,155	-0,068
320,925	1,529	-0,196	-0,096
321,939	7,797	-0,164	-0,084
322,954	204,098	-0,138	-0,147
323,968	-167,014	-0,098	-0,003
324,983	800,000	-0,032	-0,065
325,997	28,530	-0,195	-0,113
327,012	-116,510	-0,235	-0,029
328,027	18,515	-0,187	-0,102
329,041	800,000	-0,057	-0,149
330,056	-200,000	-0,004	-0,027
331,070	106,699	-0,145	-0,117
332,085	18,049	-0,103	-0,056
333,100	77,612	-0,139	-0,101
334,114	391,139	-0,132	-0,188
335,129	800,000	-0,063	-0,160
336,143	126,092	-0,132	-0,114
337,158	-119,980	-0,063	0,007
338,173	432,120	-0,048	-0,071
339,187	267,505	-0,086	0,103
340,202	54,524	-0,138	-0,091
341,216	-87,050	-0,268	0,055
342,231	800,000	-0,108	-0,222
343,246	218,651	-0,064	-0,071
344,260	-89,437	-0,037	-0,007
345,275	800,000	-0,091	-0,229
346,289	-29,704	-0,054	0,021
347,304	-200,000	-0,005	-0,087
348,319	-200,000	-0,047	-0,205
349,333	-114,365	-0,170	-0,022
350,348	-84,347	-0,229	-0,049
351,362	21,006	-0,135	-0,074
352,377	-164,318	-0,165	-0,005
353,392	514,637	-0,051	-0,081
354,406	21,522	-0,133	-0,074
355,421	206,456	1307,400	1393,279
356,435	158,780	1467,205	1393,759
