DTS Sentinel unit serial number:	SN410029Multiplexer serial number:	ORYXHardware model number:	OX2-SRSoftware version number:	ORYX F/W v4,00 Oryx Data Collector v3.7.2.0data status	okinstallation	B3 Nyhavnadifferential loss correction	single-endedforward channel	channel 1reverse channel	N/Adate	2023/12/03time	02:47:30forward acquisition time	300,00reverse acquisition time	0,00gamma	499,1914k internal	0,3201k external	0,3201temperature offset calibration	1,0000default loss term (dB/km)	0,3820temperature slope calibration	1,0000multiplexer offset coefficient	1,0000multiplexer slope coefficient	1,0000fibre end	0,00T internal ref (°C)	13,31T ext. ref 1 (°C)	-1,70T ext. ref 2 (°C)	-1,71length (m)	temperature (°C)	Stokes	anti-Stokes-744,400	41,863	-0,305	-0,201
-743,385	-200,000	-0,028	0,253
-742,371	299,437	-0,235	-0,315
-741,356	625,339	0,185	0,340
-740,342	51,188	-0,160	-0,110
-739,327	-200,000	-0,048	0,322
-738,312	-16,841	-0,283	-0,129
-737,298	-200,000	0,038	0,276
-736,283	45,495	-0,235	-0,157
-735,269	800,000	0,164	0,376
-734,254	82,905	-0,271	-0,214
-733,239	297,758	-0,142	0,190
-732,225	800,000	-0,028	-0,070
-731,210	474,201	-0,040	0,065
-730,196	-6,037	-0,130	-0,065
-729,181	-200,000	0,033	-0,128
-728,167	-198,506	0,086	-0,000
-727,152	775,404	-0,044	0,088
-726,137	-68,046	-0,045	-0,013
-725,123	-200,000	-0,012	-0,163
-724,108	-24,858	-0,119	0,051
-723,094	-135,495	-0,090	-0,008
-722,079	-200,000	0,000	-0,008
-721,064	-200,000	-0,005	0,074
-720,050	498,115	0,014	-0,024
-719,035	-200,000	-0,007	0,025
-718,021	224,626	0,022	-0,026
-717,006	800,000	0,066	0,181
-715,991	-17,706	0,044	-0,020
-714,977	27,588	-0,215	-0,131
-713,962	-134,530	0,106	0,009
-712,948	-143,757	0,073	-0,005
-711,933	509,233	-0,041	0,070
-710,918	-166,583	0,136	0,004
-709,904	-171,433	0,110	-0,003
-708,889	85,726	-0,167	-0,134
-707,875	-198,659	0,060	-0,000
-706,860	-171,441	-0,056	0,001
-705,845	800,000	0,032	0,068
-704,831	481,162	0,060	0,100
-703,816	-200,000	-0,024	-0,172
-702,802	-30,077	0,051	-0,021
-701,787	800,000	-0,038	-0,083
-700,772	-64,847	0,096	-0,028
-699,758	-108,692	-0,103	0,016
-698,743	800,000	0,019	0,041
-697,729	41,869	-0,153	0,101
-696,714	-123,498	0,084	0,010
-695,699	800,000	-0,026	-0,062
-694,685	32,885	0,026	0,016
-693,670	-200,000	0,009	-0,072
-692,656	195,885	-0,065	-0,072
-691,641	36,373	-0,135	0,086
-690,627	72,079	0,026	0,020
-689,612	89,219	-0,014	-0,012
-688,597	-151,899	-0,190	-0,010
-687,583	0,566	-0,024	0,013
-686,568	-162,435	0,110	-0,004
-685,554	76,023	-0,068	-0,053
-684,539	800,000	-0,048	0,106
-683,524	800,000	0,018	0,045
-682,510	-38,564	-0,179	0,068
-681,495	-200,000	-0,001	0,009
-680,481	-200,000	0,037	-0,137
-679,466	800,000	-0,012	0,037
-678,451	-200,000	-0,037	-0,219
-677,437	-200,000	-0,009	-0,097
-676,422	145,536	-0,076	0,074
-675,408	-37,439	-0,038	0,015
-674,393	128,986	0,149	0,138
-673,378	-132,661	-0,125	0,011
-672,364	-200,000	-0,006	-0,083
-671,349	655,390	-0,051	-0,095
-670,335	-200,000	-0,015	-0,113
-669,320	648,741	-0,030	-0,057
-668,305	707,138	0,023	-0,045
-667,291	-4,066	0,032	0,016
-666,276	-200,000	0,030	-0,103
-665,262	-36,051	-0,137	-0,053
-664,247	-75,253	-0,082	0,021
-663,232	-200,000	-0,020	-0,155
-662,218	41,461	0,097	0,063
-661,203	97,705	0,025	-0,021
-660,189	800,000	0,034	0,101
-659,174	-7,809	-0,068	-0,033
-658,159	-85,374	-0,097	-0,022
-657,145	-107,688	-0,124	-0,019
-656,130	284,572	0,044	0,058
-655,116	8,520	0,089	-0,048
-654,101	341,756	-0,056	-0,080
-653,086	349,881	0,034	-0,048
-652,072	623,268	0,058	0,106
-651,057	-200,000	-0,021	-0,261
-650,043	-140,328	-0,082	-0,006
-649,028	-200,000	0,003	0,047
-648,014	126,044	0,079	-0,072
-646,999	-143,161	-0,066	-0,005
-645,984	-200,000	0,014	0,107
-644,970	171,995	-0,069	0,072
-643,955	30,150	-0,027	-0,017
-642,941	95,411	-0,123	-0,102
-641,926	17,968	0,075	-0,043
-640,911	800,000	-0,035	0,099
-639,897	-200,000	-0,002	0,022
-638,882	-14,206	-0,066	-0,031
-637,868	-1,523	0,015	-0,008
-636,853	-76,175	-0,147	-0,037
-635,838	125,844	-0,127	-0,117
-634,824	-200,000	-0,003	-0,027
-633,809	800,000	-0,031	-0,083
-632,795	102,410	-0,044	-0,037
-631,780	66,110	-0,121	-0,089
-630,765	221,424	-0,055	0,064
-629,751	800,000	0,031	-0,084
-628,736	756,226	-0,014	0,027
-627,722	800,000	0,040	0,109
-626,707	-125,311	-0,045	-0,005
-625,692	-200,000	0,001	0,066
-624,678	-200,000	0,000	0,086
-623,663	-200,000	0,011	-0,059
-622,649	-8,456	0,102	-0,049
-621,634	69,956	-0,139	-0,104
-620,619	130,071	0,047	-0,044
-619,605	800,000	0,010	-0,028
-618,590	-94,367	0,073	-0,014
-617,576	51,979	-0,135	0,093
-616,561	74,309	-0,119	-0,090
-615,546	-200,000	0,015	-0,080
-614,532	-200,000	0,023	-0,227
-613,517	-200,000	-0,015	0,068
-612,503	280,581	-0,020	-0,026
-611,488	-200,000	-0,022	-0,079
-610,474	511,273	0,071	-0,120
-609,459	128,503	-0,078	0,072
-608,444	-200,000	0,004	0,106
-607,430	-77,838	-0,063	-0,016
-606,415	-30,855	0,046	-0,019
-605,401	-200,000	-0,027	0,087
-604,386	-90,818	0,048	-0,010
-603,371	800,000	-0,045	-0,101
-602,357	341,187	0,043	0,062
-601,342	22,038	-0,089	-0,052
-600,328	-116,919	-0,036	0,005
-599,313	-200,000	-0,005	-0,159
-598,298	-200,000	-0,006	-0,127
-597,284	376,033	0,029	0,043
-596,269	-9,017	0,027	-0,013
-595,255	-127,857	-0,111	-0,011
-594,240	-71,264	0,045	0,012
-593,225	40,100	-0,214	0,139
-592,211	-172,476	-0,038	0,001
-591,196	424,025	-0,028	0,043
-590,182	482,330	-0,046	0,075
-589,167	800,000	0,029	0,088
-588,152	63,881	0,132	-0,096
-587,138	-200,000	0,000	0,026
-586,123	368,357	0,071	-0,104
-585,109	240,195	-0,042	-0,051
-584,094	-200,000	-0,000	-0,030
-583,079	44,193	0,119	-0,079
-582,065	96,127	-0,086	-0,071
-581,050	518,465	-0,064	0,108
-580,036	-200,000	0,027	-0,173
-579,021	-200,000	0,013	0,053
-578,006	11,038	-0,028	0,016
-576,992	-176,331	0,019	0,000
-575,977	-87,127	0,049	-0,011
-574,963	15,497	0,119	0,067
-573,948	63,473	-0,086	0,062
-572,934	-34,857	0,047	0,018
-571,919	-118,315	-0,094	0,012
-570,904	-200,000	0,001	-0,064
-569,890	-146,923	-0,010	0,001
-568,875	605,014	0,014	0,026
-567,861	515,303	0,053	0,089
-566,846	800,000	0,009	-0,026
-565,831	-200,000	-0,072	-0,000
-564,817	800,000	0,031	-0,071
-563,802	265,163	-0,067	-0,084
-562,788	258,795	-0,094	0,118
-561,773	-66,464	0,052	-0,015
-560,758	535,143	-0,054	-0,093
-559,744	-200,000	0,002	-0,109
-558,729	159,869	-0,103	0,103
-557,715	260,501	0,087	-0,108
-556,700	-200,000	-0,058	0,242
-555,685	178,139	-0,016	0,017
-554,671	101,447	0,034	-0,029
-553,656	-100,810	0,036	0,006
-552,642	-81,745	-0,096	0,023
-551,627	-91,718	-0,051	-0,010
-550,612	-200,000	0,003	-0,092
-549,598	20,207	-0,141	-0,082
-548,583	800,000	-0,040	-0,102
-547,569	-19,505	-0,091	-0,041
-546,554	-70,052	0,018	0,005
-545,539	-94,059	0,138	-0,027
-544,525	-200,000	0,021	-0,079
-543,510	-200,000	-0,031	0,176
-542,496	507,746	0,017	-0,029
-541,481	-171,537	0,064	0,001
-540,466	800,000	-0,027	0,071
-539,452	-200,000	-0,003	-0,024
-538,437	398,336	-0,025	0,037
-537,423	347,566	0,036	-0,051
-536,408	-200,000	-0,008	0,170
-535,393	49,758	0,021	0,014
-534,379	115,650	-0,011	-0,010
-533,364	-145,354	0,153	0,010
-532,350	-200,000	-0,004	-0,058
-531,335	-114,056	-0,208	0,029
-530,321	-78,079	0,062	0,015
-529,306	-92,698	0,150	0,030
-528,291	-200,000	-0,006	0,068
-527,277	-6,530	-0,121	0,059
-526,262	800,000	0,033	-0,091
-525,248	-172,980	-0,128	0,003
-524,233	-8,753	0,071	0,034
-523,218	-200,000	0,001	0,091
-522,204	21,894	0,122	0,071
-521,189	84,425	-0,019	-0,015
-520,175	-138,539	0,052	-0,004
-519,160	280,379	0,080	-0,103
-518,145	40,529	0,058	-0,038
-517,131	-12,902	-0,127	-0,059
-516,116	52,468	-0,057	-0,039
-515,102	439,154	-0,063	0,100
-514,087	-200,000	0,006	-0,057
-513,072	72,291	-0,175	-0,132
-512,058	800,000	0,028	0,056
-511,043	-45,495	-0,055	0,020
-510,029	118,466	-0,038	-0,034
-509,014	-17,465	-0,076	0,034
-507,999	800,000	0,059	0,159
-506,985	-200,000	0,000	-0,010
-505,970	-118,054	-0,131	-0,017
-504,956	-68,633	-0,024	-0,007
-503,941	93,957	0,022	0,018
-502,926	712,750	-0,014	-0,026
-501,912	100,368	0,049	0,041
-500,897	800,000	-0,051	-0,129
-499,883	800,000	0,066	-0,140
-498,868	-146,225	0,142	0,009
-497,853	470,387	0,035	0,056
-496,839	-200,000	0,001	0,128
-495,824	-139,819	0,174	0,013
-494,810	132,205	-0,067	-0,062
-493,795	-200,000	0,007	0,110
-492,781	-83,844	0,041	-0,009
-491,766	38,956	-0,035	-0,022
-490,751	-200,000	-0,014	0,066
-489,737	-116,403	-0,098	0,013
-488,722	-150,850	0,186	-0,010
-487,708	-135,409	0,089	0,008
-486,693	430,476	-0,043	0,067
-485,678	-200,000	0,038	-0,129
-484,664	-200,000	-0,012	-0,097
-483,649	323,417	0,135	-0,186
-482,635	-114,468	-0,095	0,013
-481,620	55,246	0,072	0,050
-480,605	800,000	0,050	0,132
-479,591	81,726	0,054	0,042
-478,576	-200,000	0,038	0,121
-477,562	144,944	-0,057	0,055
-476,547	-123,316	-0,053	-0,006
-475,532	-97,740	0,029	0,005
-474,518	38,072	0,142	0,090
-473,503	-44,352	0,113	-0,041
-472,489	-136,959	-0,069	-0,006
-471,474	269,934	0,048	0,061
-470,459	100,436	-0,039	-0,033
-469,445	-74,407	0,083	0,021
-468,430	-131,842	-0,072	-0,007
-467,416	677,161	-0,033	0,063
-466,401	800,000	0,022	0,066
-465,386	104,768	-0,041	-0,035
-464,372	445,901	0,044	-0,070
-463,357	141,997	0,064	0,061
-462,343	-103,481	0,096	0,016
-461,328	-67,683	0,113	-0,032
-460,313	718,832	-0,040	-0,077
-459,299	37,996	0,151	0,096
-458,284	497,662	-0,015	0,025
-457,270	-78,544	0,009	-0,002
-456,255	152,296	0,081	0,079
-455,241	782,056	0,032	-0,063
-454,226	282,673	-0,064	0,083
-453,211	428,709	0,034	-0,053
-452,197	-153,194	0,074	0,004
-451,182	271,644	0,058	0,073
-450,168	800,000	-0,091	-0,194
-449,153	-143,567	-0,067	-0,005
-448,138	-9,493	-0,094	-0,045
-447,124	553,337	-0,069	-0,120
-446,109	300,257	-0,066	-0,088
-445,095	800,000	0,014	0,035
-444,080	800,000	-0,048	0,146
-443,065	-200,000	-0,005	-0,156
-442,051	-98,959	-0,102	-0,018
-441,036	-47,037	0,091	0,032
-440,022	292,678	-0,047	-0,061
-439,007	-119,362	0,086	0,011
-437,992	-90,265	0,092	0,019
-436,978	205,460	0,108	0,121
-435,963	-200,000	-0,012	0,105
-434,949	-52,345	0,135	0,045
-433,934	800,000	-0,059	0,124
-432,919	-200,000	0,021	0,091
-431,905	66,303	-0,122	-0,089
-430,890	81,642	-0,102	-0,079
-429,876	-70,366	0,133	0,036
-428,861	800,000	0,026	-0,076
-427,846	-20,200	-0,137	-0,061
-426,832	9,502	-0,022	0,012
-425,817	-200,000	-0,006	0,073
-424,803	-200,000	0,057	-0,211
-423,788	800,000	-0,036	0,085
-422,773	-95,969	0,132	0,025
-421,759	-200,000	0,006	-0,100
-420,744	77,767	-0,037	0,029
-419,730	-200,000	-0,000	0,098
-418,715	473,122	-0,063	-0,102
-417,701	68,553	-0,022	-0,016
-416,686	-54,522	-0,077	-0,025
-415,671	800,000	0,011	0,022
-414,657	-200,000	0,040	-0,129
-413,642	-200,000	-0,000	-0,142
-412,628	-94,936	-0,163	-0,031
-411,613	-200,000	0,028	-0,205
-410,598	800,000	-0,034	-0,078
-409,584	162,909	0,021	0,021
-408,569	601,287	-0,067	-0,119
-407,555	-73,522	0,114	0,030
-406,540	79,399	0,065	-0,050
-405,525	9,316	-0,043	-0,023
-404,511	-113,409	-0,074	-0,010
-403,496	800,000	0,027	-0,064
-402,482	-22,672	0,038	-0,017
-401,467	-75,962	-0,044	0,011
-400,452	178,776	0,013	0,014
-399,438	160,834	0,040	-0,040
-398,423	94,987	0,051	-0,041
-397,409	-200,000	-0,009	-0,109
-396,394	-2,333	-0,093	0,047
-395,379	107,170	-0,040	-0,034
-394,365	66,663	0,027	-0,020
-393,350	47,850	0,052	0,035
-392,336	319,791	0,010	0,013
-391,321	-61,259	-0,050	-0,015
-390,306	116,162	0,070	-0,061
-389,292	-86,634	0,140	0,030
-388,277	-180,334	0,109	-0,002
-387,263	-200,000	-0,008	-0,029
-386,248	-200,000	-0,005	0,126
-385,233	234,082	-0,050	-0,059
-384,219	800,000	-0,067	-0,171
-383,204	-200,000	-0,023	0,086
-382,190	0,695	-0,078	0,040
-381,175	-200,000	-0,010	0,066
-380,160	-141,447	0,074	-0,005
-379,146	117,183	0,098	0,086
-378,131	-200,000	0,005	-0,082
-377,117	-200,000	0,006	0,089
-376,102	267,125	0,056	0,070
-375,088	-97,873	-0,150	0,028
-374,073	-200,000	-0,012	-0,078
-373,058	-5,623	0,120	-0,059
-372,044	-200,000	0,006	0,180
-371,029	-22,309	0,140	0,060
-370,015	197,544	-0,105	0,115
-369,000	100,204	0,034	-0,029
-367,985	-108,449	-0,129	0,020
-366,971	800,000	-0,030	-0,067
-365,956	21,077	-0,097	-0,056
-364,942	-127,369	-0,057	-0,006
-363,927	229,138	0,068	0,079
-362,912	800,000	0,016	-0,042
-361,898	-200,000	-0,012	-0,044
-360,883	800,000	0,013	-0,027
-359,869	105,924	-0,064	0,054
-358,854	-200,000	0,048	0,212
-357,839	-68,046	0,070	-0,019
-356,825	-200,000	-0,007	0,072
-355,810	32,005	-0,090	0,056
-354,796	13,311	-0,087	-0,048
-353,781	734,458	-0,024	-0,046
-352,766	111,659	0,034	-0,030
-351,752	800,000	-0,036	0,101
-350,737	186,829	0,096	0,103
-349,723	-30,836	0,121	-0,049
-348,708	-200,000	0,015	0,125
-347,693	26,451	-0,067	-0,040
-346,679	-200,000	0,035	-0,123
-345,664	-1,587	-0,012	-0,006
-344,650	-200,000	0,007	0,112
-343,635	800,000	0,064	0,156
-342,620	-200,000	-0,015	-0,067
-341,606	-93,432	0,089	-0,018
-340,591	156,509	-0,021	0,020
-339,577	86,398	0,019	0,015
-338,562	800,000	0,052	-0,122
-337,548	369,359	-0,031	-0,046
-336,533	217,541	0,049	-0,056
-335,518	146,714	-0,080	0,077
-334,504	580,148	-0,084	0,148
-333,489	800,000	0,027	0,055
-332,475	-175,530	-0,141	0,003
-331,460	159,776	0,037	0,037
-330,445	-122,126	0,062	-0,007
-329,431	-200,000	-0,002	-0,030
-328,416	129,987	0,134	0,123
-327,402	800,000	0,014	0,036
-326,387	187,040	0,060	0,064
-325,372	-113,769	-0,148	0,020
-324,358	147,065	0,052	-0,050
-323,343	2,139	-0,123	-0,063
-322,329	800,000	-0,049	0,116
-321,314	137,271	0,097	-0,090
-320,299	-82,990	-0,059	0,014
-319,285	-199,664	0,024	0,000
-318,270	176,293	-0,079	-0,082
-317,256	650,395	0,026	-0,047
-316,241	-114,776	0,037	0,005
-315,226	-45,833	-0,038	0,013
-314,212	-200,000	0,004	0,075
-313,197	125,345	-0,048	0,044
-312,183	-1,502	-0,117	0,059
-311,168	482,959	-0,018	0,030
-310,153	111,624	-0,067	-0,057
-309,139	204,968	-0,092	0,103
-308,124	521,718	0,008	0,013
-307,110	-136,155	0,051	0,004
-306,095	-88,582	0,172	-0,036
-305,080	800,000	0,037	-0,094
-304,066	-103,361	0,103	-0,017
-303,051	128,799	0,053	-0,048
-302,037	800,000	0,035	0,075
-301,022	80,610	-0,140	0,108
-300,008	100,093	0,085	0,070
-298,993	-26,599	-0,068	0,028
-297,978	-84,860	0,102	0,023
-296,964	-200,000	0,001	0,034
-295,949	-127,910	-0,139	0,014
-294,935	71,129	-0,101	-0,074
-293,920	280,963	0,032	0,041
-292,905	575,603	0,043	-0,076
-291,891	15,982	0,073	0,041
-290,876	53,075	-0,014	-0,010
-289,862	-99,509	0,150	0,027
-288,847	1,512	-0,164	-0,084
-287,832	-105,751	0,059	0,009
-286,818	-200,000	0,020	0,103
-285,803	-200,000	0,020	-0,078
-284,789	800,000	0,046	0,115
-283,774	113,748	0,184	0,159
-282,759	-200,000	0,014	0,085
-281,745	-6,666	-0,113	-0,055
-280,730	-143,888	-0,005	-0,000
-279,716	-200,000	0,011	-0,068
-278,701	-78,534	0,080	-0,019
-277,686	-10,385	-0,125	0,059
-276,672	41,172	-0,052	0,033
-275,657	38,077	0,034	0,022
-274,643	-174,013	0,094	-0,002
-273,628	188,595	-0,053	-0,057
-272,613	-200,000	0,016	0,073
-271,599	328,136	0,017	0,023
-270,584	332,569	0,087	-0,120
-269,570	515,261	-0,027	-0,045
-268,555	-200,000	-0,018	-0,071
-267,540	17,981	0,104	-0,059
-266,526	84,415	-0,003	0,002
-265,511	-51,501	-0,087	0,029
-264,497	-200,000	-0,007	-0,118
-263,482	-11,008	0,089	-0,042
-262,467	-55,584	-0,141	0,045
-261,453	89,950	-0,025	-0,020
-260,438	307,103	-0,036	-0,048
-259,424	-128,907	-0,216	-0,021
-258,409	-65,861	0,060	0,017
-257,395	-200,000	0,002	0,182
-256,380	-200,000	0,027	-0,091
-255,365	800,000	-0,029	0,072
-254,351	-200,000	-0,002	0,157
-253,336	340,471	0,054	-0,075
-252,322	106,308	-0,092	-0,078
-251,307	373,671	-0,043	-0,063
-250,292	182,280	0,080	0,085
-249,278	-58,715	-0,029	0,009
-248,263	800,000	0,030	0,080
-247,249	-40,875	0,062	0,023
-246,234	-200,000	0,014	-0,139
-245,219	-200,000	-0,006	-0,158
-244,205	441,208	-0,012	0,019
-243,190	30,415	-0,009	0,005
-242,176	-200,000	-0,001	0,018
-241,161	73,964	0,121	-0,090
-240,146	800,000	0,020	0,060
-239,132	-79,908	0,058	-0,014
-238,117	179,499	-0,115	-0,120
-237,103	-200,000	0,003	0,014
-236,088	-64,658	-0,037	-0,011
-235,073	-18,194	0,065	-0,029
-234,059	-200,000	-0,000	-0,042
-233,044	37,585	0,067	0,042
-232,030	493,345	0,079	0,129
-231,015	-200,000	-0,023	-0,073
-230,000	-7,371	0,064	-0,031
-228,986	629,484	-0,048	0,088
-227,971	-23,055	-0,084	0,036
-226,957	92,854	0,097	0,078
-225,942	750,284	0,025	0,049
-224,927	752,051	-0,083	0,161
-223,913	-200,000	-0,000	0,013
-222,898	-200,000	-0,014	0,048
-221,884	119,005	0,173	-0,152
-220,869	-155,239	-0,105	-0,005
-219,855	-200,000	-0,009	0,034
-218,840	-125,549	0,185	0,020
-217,825	296,882	0,053	0,069
-216,811	-41,812	0,084	0,030
-215,796	-200,000	-0,004	-0,018
-214,782	800,000	-0,023	-0,059
-213,767	-200,000	-0,003	-0,034
-212,752	800,000	0,045	0,094
-211,738	-200,000	0,015	0,088
-210,723	45,999	0,181	0,119
-209,709	-75,095	0,072	0,018
-208,694	417,354	-0,049	-0,075
-207,679	800,000	-0,017	-0,043
-206,665	24,625	-0,103	0,061
-205,650	529,814	0,013	-0,022
-204,636	28,944	-0,076	0,046
-203,621	-200,000	0,018	0,150
-202,606	-200,000	-0,025	0,125
-201,592	54,587	0,135	0,093
-200,577	428,086	0,036	0,055
-199,563	-200,000	0,010	-0,051
-198,548	329,446	-0,110	-0,151
-197,533	418,927	0,106	-0,163
-196,519	112,474	0,010	-0,009
-195,504	145,494	0,043	-0,041
-194,490	-200,000	-0,002	0,015
-193,475	-88,049	-0,069	0,015
-192,460	800,000	0,026	0,065
-191,446	-200,000	-0,007	-0,090
-190,431	-200,000	0,002	0,066
-189,417	800,000	0,044	0,114
-188,402	110,691	0,063	0,054
-187,387	634,763	-0,052	-0,094
-186,373	-200,000	-0,016	-0,257
-185,358	-20,237	0,068	-0,030
-184,344	217,022	0,080	0,091
-183,329	47,061	-0,053	-0,035
-182,315	-102,334	0,066	0,011
-181,300	68,665	-0,087	-0,063
-180,285	-200,000	-0,029	-0,108
-179,271	268,905	-0,024	-0,030
-178,256	-58,986	-0,053	0,016
-177,242	800,000	0,042	0,127
-176,227	124,124	0,059	-0,053
-175,212	213,365	-0,106	-0,119
-174,198	-200,000	-0,002	-0,142
-173,183	-200,000	0,010	-0,044
-172,169	-200,000	-0,010	-0,057
-171,154	2,197	0,063	0,032
-170,139	-200,000	0,008	-0,073
-169,125	161,193	-0,036	0,036
-168,110	105,567	0,065	0,055
-167,096	-27,487	0,033	-0,014
-166,081	-101,399	-0,119	0,020
-165,066	-132,630	-0,240	-0,022
-164,052	-86,436	0,104	-0,022
-163,037	370,655	-0,041	0,059
-162,023	26,910	-0,039	0,023
-161,008	-160,904	-0,056	0,002
-159,993	10,085	-0,086	0,046
-158,979	-200,000	-0,020	0,078
-157,964	-8,691	-0,158	0,075
-156,950	-200,000	0,002	0,066
-155,935	-27,487	0,122	-0,050
-154,920	-200,000	0,055	0,000
-153,906	-82,964	0,195	-0,044
-152,891	-200,000	0,004	0,163
-151,877	42,049	0,014	-0,009
-150,862	269,563	0,030	-0,037
-149,847	-200,000	0,013	-0,061
-148,833	419,816	0,033	-0,051
-147,818	-54,244	-0,079	0,025
-146,804	800,000	0,043	0,099
-145,789	163,021	-0,061	-0,061
-144,775	800,000	-0,021	0,050
-143,760	-116,408	-0,176	-0,023
-142,745	-153,531	-0,129	-0,006
-141,731	198,315	-0,045	-0,049
-140,716	-75,297	0,103	-0,026
-139,702	-102,017	0,019	-0,003
-138,687	-200,000	0,006	0,060
-137,672	579,896	-0,009	0,015
-136,658	-21,899	-0,040	0,017
-135,643	53,055	-0,083	-0,056
-134,629	-200,000	-0,004	0,039
-133,614	800,000	0,037	-0,093
-132,599	-200,000	-0,003	0,035
-131,585	-200,000	-0,002	0,070
-130,570	523,619	-0,019	-0,032
-129,556	553,601	-0,056	0,095
-128,541	290,330	0,022	0,028
-127,526	110,804	-0,083	-0,071
-126,512	47,559	0,132	-0,087
-125,497	353,747	0,034	0,047
-124,483	472,071	0,107	0,172
-123,468	156,372	-0,037	-0,036
-122,453	-120,866	0,075	-0,009
-121,439	-200,000	0,018	-0,139
-120,424	103,207	-0,047	-0,039
-119,410	-42,815	0,111	0,040
-118,395	-83,800	-0,077	-0,017
-117,380	-200,000	0,043	0,199
-116,366	-200,000	-0,102	0,000
-115,351	-200,000	0,003	0,140
-114,337	800,000	-0,023	-0,071
-113,322	200,584	-0,074	0,080
-112,307	73,059	0,042	-0,031
-111,293	186,165	0,080	0,084
-110,278	800,000	0,029	0,080
-109,264	-46,979	-0,120	0,041
-108,249	77,636	-0,036	-0,027
-107,234	-200,000	0,001	-0,185
-106,220	800,000	-0,057	-0,121
-105,205	-95,337	0,111	0,021
-104,191	559,539	0,056	-0,096
-103,176	510,287	0,044	0,074
-102,162	128,080	-0,069	0,063
-101,147	-192,622	-0,115	0,001
-100,132	-94,567	-0,092	0,018
-99,118	-51,282	-0,038	0,013
-98,103	-200,000	-0,003	0,026
-97,089	-58,730	0,184	-0,056
-96,074	-200,000	0,002	-0,010
-95,059	-23,637	0,140	0,059
-94,045	-200,000	0,006	-0,074
-93,030	-55,842	-0,074	-0,023
-92,016	-200,000	-0,029	0,120
-91,001	-200,000	-0,009	0,137
-89,986	493,691	-0,056	0,091
-88,972	800,000	0,014	0,040
-87,957	800,000	-0,025	-0,062
-86,943	800,000	-0,073	-0,145
-85,928	308,517	-0,154	-0,204
-84,913	-200,000	0,030	-0,115
-83,899	-110,373	0,135	-0,020
-82,884	328,144	-0,088	0,121
-81,870	-200,000	-0,014	0,180
-80,855	-26,241	0,070	-0,029
-79,840	60,877	0,070	-0,049
-78,826	800,000	-0,092	0,189
-77,811	92,209	-0,132	0,106
-76,797	109,579	0,077	0,066
-75,782	-27,250	-0,070	-0,029
-74,767	-0,724	-0,045	-0,022
-73,753	-200,000	-0,003	0,030
-72,738	-65,078	0,069	0,020
-71,724	18,045	-0,019	0,011
-70,709	-73,566	0,088	0,023
-69,694	-200,000	0,010	-0,176
-68,680	38,098	-0,031	-0,019
-67,665	-42,769	-0,210	-0,075
-66,651	214,062	-0,009	0,010
-65,636	-13,900	-0,048	0,022
-64,622	-200,000	-0,028	-0,095
-63,607	-37,756	-0,086	-0,032
-62,592	800,000	0,041	0,127
-61,578	-75,047	0,081	0,020
-60,563	508,352	-0,056	0,093
-59,549	800,000	-0,054	0,147
-58,534	-42,469	-1,601	-0,575
-57,519	484,192	-1,243	-2,010
-56,505	-200,000	-0,661	-4,633
-55,490	206,921	0,964	1,066
-54,476	800,000	4,936	11,309
-53,461	-200,000	19,112	319,388
-52,446	-200,000	740,938	2334,081
-51,432	573,135	1655,664	2868,826
-50,417	78,210	1671,233	1261,555
-49,403	21,323	1544,007	885,735
-48,388	15,177	1466,369	811,308
-47,373	17,948	1456,670	819,302
-46,359	16,709	1446,485	807,600
-45,344	13,389	1441,904	789,109
-44,330	13,324	1440,103	787,777
-43,315	13,386	1438,166	786,984
-42,300	13,348	1436,537	785,881
-41,286	13,394	1435,333	785,413
-40,271	13,369	1433,992	784,524
-39,257	13,327	1432,818	783,655
-38,242	13,413	1431,209	783,153
-37,227	13,394	1430,123	782,437
-36,213	13,398	1428,846	781,723
-35,198	13,391	1427,677	781,020
-34,184	13,453	1426,663	780,729
-33,169	13,366	1425,588	779,700
-32,154	13,495	1424,409	779,634
-31,140	13,418	1423,087	778,512
-30,125	13,417	1421,965	777,865
-29,111	13,401	1420,943	777,201
-28,096	13,403	1419,637	776,462
-27,082	13,368	1418,660	775,732
-26,067	13,364	1417,530	775,068
-25,052	13,363	1416,315	774,367
-24,038	13,318	1415,429	773,638
-23,023	13,337	1414,320	773,090
-22,009	13,318	1413,359	772,448
-20,994	13,301	1412,637	771,942
-19,979	13,317	1411,732	771,489
-18,965	13,291	1410,501	770,667
-17,950	13,308	1409,613	770,232
-16,936	13,292	1408,805	769,681
-15,921	13,233	1407,897	768,881
-14,906	13,244	1406,941	768,377
-13,892	13,245	1405,853	767,760
-12,877	13,263	1405,073	767,385
-11,863	13,237	1404,050	766,676
-10,848	13,251	1403,343	766,324
-9,833	13,175	1402,616	765,545
-8,819	13,162	1401,585	764,889
-7,804	13,171	1400,495	764,307
-6,790	13,152	1399,586	763,690
-5,775	13,172	1398,456	763,136
-4,760	13,182	1397,514	762,640
-3,746	13,159	1396,616	762,012
-2,731	13,148	1395,891	761,537
-1,717	13,119	1394,901	760,832
-0,702	13,110	1393,117	759,787
0,313	16,966	1309,976	732,298
1,327	33,296	703,713	431,126
2,342	50,917	123,313	82,536
3,356	2,494	16,657	8,505
4,371	11,631	3,192	1,727
5,386	34,217	0,673	0,414
6,400	-200,000	0,061	0,342
7,415	157,501	-0,186	-0,182
8,429	28,179	-0,332	-0,198
9,444	121,552	-0,331	-0,291
10,459	166,818	-0,208	-0,209
11,473	-66,621	-0,299	-0,083
12,488	20,064	-0,263	-0,149
13,502	-29,904	-0,319	-0,128
14,517	174,663	-0,279	-0,286
15,531	82,666	-0,366	-0,281
16,546	85,971	-0,391	-0,304
17,561	76,043	-0,343	-0,256
18,575	-37,794	-0,163	0,061
19,590	59,777	-0,247	-0,172
20,604	-49,374	-0,221	-0,074
21,619	-5,655	-0,477	-0,230
22,634	120,255	-0,432	-0,378
23,648	65,194	-0,247	-0,176
24,663	62,425	-0,372	-0,262
25,677	333,156	-0,185	-0,253
26,692	-36,401	-0,389	-0,147
27,707	58,511	-0,362	-0,250
28,721	21,328	-0,375	-0,215
29,736	44,575	-0,493	-0,319
30,750	229,971	-0,354	-0,409
31,765	204,574	-0,351	-0,384
32,780	95,417	-0,298	-0,240
33,794	88,918	-0,346	-0,272
34,809	230,687	-0,314	-0,363
35,823	96,413	-0,339	-0,274
36,838	159,943	-0,412	-0,405
37,853	16,409	-0,421	-0,234
38,867	184,166	-0,327	-0,342
39,882	207,071	-0,310	-0,341
40,896	42,833	-0,347	-0,222
41,911	170,504	-0,301	-0,304
42,926	94,980	-0,244	-0,196
43,940	76,341	-0,302	-0,225
44,955	97,237	-0,427	-0,345
45,969	207,212	-0,251	-0,277
46,984	121,924	-0,315	-0,277
47,999	51,996	-0,281	-0,188
49,013	46,149	-0,317	-0,207
50,028	114,359	-0,250	-0,215
51,042	70,421	-0,348	-0,253
52,057	87,262	-0,406	-0,316
53,071	13,617	-0,394	-0,215
54,086	26,446	-0,253	-0,148
55,101	2,393	-0,344	-0,175
56,115	47,279	-0,278	-0,182
57,130	74,910	-0,406	-0,301
58,144	69,700	-0,363	-0,263
59,159	83,862	-0,270	-0,208
60,174	36,361	-0,346	-0,214
61,188	173,527	-0,263	-0,267
62,203	-9,701	-0,282	-0,132
63,217	98,394	-0,237	-0,192
64,232	58,673	-0,278	-0,192
65,247	33,422	-0,306	-0,186
66,261	-21,871	-0,315	-0,134
67,276	95,347	-0,439	-0,352
68,290	10,480	-0,283	-0,151
69,305	59,998	-0,298	-0,207
70,320	-7,700	-0,277	-0,131
71,334	308,833	-0,321	-0,423
72,349	20,682	-0,431	-0,244
73,363	64,149	-0,368	-0,260
74,378	96,944	-0,332	-0,267
75,393	686,370	-0,219	-0,403
76,407	-50,385	-0,326	-0,108
77,422	-34,673	-0,325	-0,124
78,436	-116,903	-0,333	-0,042
79,451	263,417	-0,170	-0,207
80,466	123,037	-0,222	-0,196
81,480	37,574	-0,374	-0,233
82,495	183,215	-0,280	-0,290
83,509	94,791	-0,177	-0,142
84,524	133,708	-0,253	-0,230
85,539	117,645	-0,137	-0,119
86,553	389,181	-0,138	-0,201
87,568	180,804	-0,300	-0,310
88,582	-69,522	-0,418	-0,112
89,597	80,275	-0,247	-0,187
90,611	160,500	-0,188	-0,184
91,626	40,867	-0,281	-0,177
92,641	-53,740	-0,331	-0,105
93,655	399,556	-0,171	-0,252
94,670	434,818	-0,195	-0,298
95,684	418,412	-0,291	-0,439
96,699	161,358	-0,246	-0,241
97,714	28,024	-0,287	-0,169
98,728	-9,895	-0,287	-0,133
99,743	800,000	-0,102	-0,295
100,757	-33,842	-0,280	-0,108
101,772	-63,224	-0,318	-0,091
102,787	160,207	-0,289	-0,283
103,801	635,318	-0,104	-0,186
104,816	126,507	-0,219	-0,194
105,830	-39,241	-0,217	-0,080
106,845	-2,937	-0,314	-0,153
107,860	-59,749	-0,269	-0,080
108,874	411,144	-0,198	-0,295
109,889	-122,648	-0,258	-0,029
110,903	54,717	-0,304	-0,205
111,918	-95,946	-0,353	-0,065
112,933	-16,256	-0,027	-0,012
113,947	68,493	-0,175	-0,126
114,962	-13,091	-0,195	-0,089
115,976	82,055	-0,153	-0,116
116,991	150,210	-0,289	-0,275
118,006	31,828	-0,203	-0,122
119,020	-148,010	-0,241	-0,014
120,035	340,759	-0,206	-0,282
121,049	-19,090	-0,330	-0,143
122,064	-74,307	-0,329	-0,083
123,079	28,320	-0,290	-0,171
124,093	120,832	-0,257	-0,224
125,108	23,666	-0,166	-0,096
126,122	115,148	-0,221	-0,189
127,137	116,905	-0,117	-0,100
128,151	22,464	-0,270	-0,154
129,166	118,959	-0,196	-0,169
130,181	-140,389	-0,278	0,020
131,195	-86,571	-0,249	-0,053
132,210	-28,626	-0,344	-0,138
133,224	-98,083	-0,350	-0,062
134,239	41,820	-0,362	-0,229
135,254	57,574	-0,168	-0,114
136,268	51,329	-0,255	-0,169
137,283	-135,935	-0,298	-0,024
138,297	-151,328	-0,365	-0,019
139,312	43,294	-0,224	-0,143
140,327	184,009	-0,259	-0,268
141,341	171,494	-0,191	-0,191
142,356	160,982	-0,155	-0,151
143,370	201,344	-0,291	-0,314
144,385	-6,163	-0,310	-0,148
145,400	27,232	-0,246	-0,144
146,414	97,869	-0,302	-0,243
147,429	-58,648	-0,364	-0,109
148,443	-51,841	-0,214	-0,069
149,458	481,875	-0,108	-0,172
150,473	-16,241	-0,208	-0,092
151,487	127,702	-0,268	-0,238
152,502	77,190	-0,224	-0,166
153,516	800,000	-0,062	-0,128
154,531	-12,769	-0,360	-0,163
155,546	131,691	-0,185	-0,166
156,560	288,621	-0,179	-0,227
157,575	-28,602	-0,230	-0,092
158,589	77,814	-0,234	-0,174
159,604	13,089	-0,251	-0,135
160,619	-22,709	-0,285	-0,119
161,633	77,442	-0,279	-0,207
162,648	6,750	-0,346	-0,179
163,662	145,415	-0,143	-0,133
164,677	16,985	-0,211	-0,116
165,692	184,721	-0,184	-0,191
166,706	109,953	-0,201	-0,168
167,721	33,349	-0,209	-0,126
168,735	114,168	-0,206	-0,174
169,750	375,475	-0,200	-0,285
170,764	63,412	-0,224	-0,156
171,779	313,334	-0,084	-0,111
172,794	-22,666	-0,142	-0,060
173,808	188,001	-0,159	-0,166
174,823	38,150	-0,210	-0,130
175,837	25,686	-0,317	-0,184
176,852	81,244	-0,213	-0,160
177,867	175,839	-0,094	-0,095
178,881	42,192	-0,125	-0,079
179,896	-49,305	-0,243	-0,080
180,910	-181,743	-0,337	0,004
181,925	257,101	-0,222	-0,267
182,940	508,632	-0,196	-0,317
183,954	327,051	-0,131	-0,175
184,969	222,252	-0,228	-0,256
185,983	800,000	-0,132	-0,264
186,998	133,841	-0,171	-0,154
188,013	6,589	-0,251	-0,130
189,027	218,730	-0,204	-0,227
190,042	109,663	-0,243	-0,202
191,056	104,552	-0,217	-0,178
192,071	109,599	-0,133	-0,111
193,086	-200,000	-0,025	-0,179
194,100	50,474	-0,231	-0,151
195,115	99,229	-0,084	-0,067
196,129	162,995	-0,224	-0,219
197,144	26,946	-0,282	-0,164
198,159	106,289	-0,224	-0,185
199,173	-200,000	-0,038	-0,165
200,188	-82,267	-0,115	-0,026
201,202	-17,007	-0,162	-0,071
202,217	-39,935	-0,218	-0,079
203,232	311,242	-0,139	-0,182
204,246	278,690	-0,183	-0,227
205,261	377,231	-0,132	-0,188
206,275	36,773	-0,142	-0,087
207,290	108,246	-0,156	-0,130
208,304	175,562	-0,098	-0,099
209,319	-60,371	-0,239	-0,070
210,334	394,838	-0,126	-0,183
211,348	318,155	-0,213	-0,281
212,363	-18,707	-0,288	-0,124
213,377	64,709	-0,170	-0,119
214,392	22,668	-0,061	-0,035
215,407	-200,000	-0,052	-0,177
216,421	41,804	-0,131	-0,082
217,436	800,000	-0,074	-0,151
218,450	56,193	-0,171	-0,115
219,465	426,319	-0,153	-0,230
220,480	33,150	-0,247	-0,148
221,494	-137,861	-0,145	0,011
222,509	193,149	-0,180	-0,189
223,523	-48,829	-0,212	-0,070
224,538	-57,735	-0,236	-0,071
225,553	199,684	-0,189	-0,201
226,567	195,471	-0,164	-0,173
227,582	224,139	-0,203	-0,228
228,596	206,109	-0,181	-0,196
229,611	-200,000	-0,053	-0,176
230,626	-75,253	-0,126	0,031
231,640	18,191	-0,038	-0,021
232,655	223,485	-0,129	-0,144
233,669	321,823	-0,181	-0,240
234,684	36,316	-0,136	-0,083
235,699	800,000	-0,073	-0,140
236,713	-48,610	-0,088	-0,029
237,728	23,689	-0,066	0,038
238,742	-93,151	-0,234	-0,045
239,757	-4,264	-0,166	-0,079
240,772	42,845	-0,272	-0,172
241,786	116,522	-0,257	-0,218
242,801	-147,322	-0,206	0,012
243,815	-99,955	-0,131	-0,022
244,830	135,771	-0,197	-0,178
245,844	87,545	-0,165	-0,126
246,859	-21,140	-0,244	-0,103
247,874	378,298	-0,151	-0,214
248,888	303,716	-0,144	-0,186
249,903	221,736	-0,185	-0,207
250,917	127,115	-0,207	-0,182
251,932	49,767	-0,245	-0,160
252,947	-166,061	-0,150	0,004
253,961	-69,018	-0,211	-0,056
254,976	-64,371	-0,084	0,024
255,990	-2,755	-0,344	-0,166
257,005	-200,000	-0,027	-0,085
258,020	800,000	-0,050	-0,106
259,034	324,887	-0,129	-0,171
260,049	55,315	-0,220	-0,147
261,063	112,371	-0,162	-0,136
262,078	-11,632	-0,232	-0,105
263,093	800,000	-0,109	-0,241
264,107	7,294	-0,264	-0,136
265,122	-128,700	-0,232	-0,022
266,136	162,636	-0,197	-0,192
267,151	30,982	-0,286	-0,169
268,166	-81,965	-0,223	-0,050
269,180	1,120	-0,345	-0,170
270,195	41,854	-0,212	-0,133
271,209	30,097	-0,123	-0,072
272,224	184,984	-0,156	-0,160
273,239	4,267	-0,147	-0,074
274,253	89,170	-0,110	-0,084
275,268	112,870	-0,220	-0,184
276,282	-18,262	-0,204	-0,088
277,297	77,805	-0,209	-0,154
278,312	24,226	-0,159	-0,091
279,326	800,000	0,026	-0,059
280,341	-152,700	-0,211	-0,010
281,355	-130,626	-0,012	-0,001
282,370	-25,303	-0,196	-0,080
283,384	167,049	-0,173	-0,170
284,399	305,711	-0,131	-0,169
285,414	469,346	-0,081	-0,126
286,428	-15,952	-0,197	-0,086
287,443	-200,000	0,014	-0,127
288,457	-119,697	-0,203	-0,024
289,472	-101,786	-0,257	0,043
290,487	3,139	-0,217	-0,108
291,501	209,332	-0,136	-0,147
292,516	376,193	-0,128	-0,181
293,530	69,099	-0,207	-0,147
294,545	-88,311	-0,080	-0,016
295,560	99,357	-0,070	-0,056
296,574	-70,898	-0,229	-0,059
297,589	49,547	-0,196	-0,127
298,603	800,000	-0,119	-0,339
299,618	-99,983	-0,237	-0,040
300,633	-24,127	-0,197	-0,081
301,647	117,048	-0,070	-0,059
302,662	-166,823	-0,071	-0,002
303,676	-20,116	-0,072	0,030
304,691	-140,827	-0,049	0,003
305,706	-176,717	-0,159	0,003
306,720	-85,717	-0,099	-0,021
307,735	-54,227	-0,213	-0,066
308,749	-137,924	-0,240	0,018
309,764	21,711	-0,138	0,077
310,779	536,196	-0,106	-0,174
311,793	-200,000	-0,028	-0,106
312,808	397,747	-0,170	-0,246
313,822	145,984	-0,174	-0,161
314,837	75,029	-0,151	-0,109
315,852	24,494	-0,156	-0,089
316,866	14,948	-0,190	-0,102
317,881	800,000	-0,034	-0,103
318,895	353,366	-0,088	-0,121
319,910	-143,389	-0,205	-0,013
320,925	100,645	-0,122	-0,098
321,939	33,807	-0,187	-0,112
322,954	-7,366	-0,098	-0,046
323,968	-121,337	-0,073	-0,008
324,983	-13,294	-0,172	-0,076
325,997	-17,034	-0,145	-0,063
327,012	47,605	-0,119	-0,076
328,027	312,512	-0,168	-0,218
329,041	-38,591	-0,173	-0,062
330,056	103,411	-0,172	-0,139
331,070	-200,000	0,001	-0,137
332,085	800,000	-0,030	-0,079
333,100	800,000	-0,091	-0,177
334,114	164,845	-0,158	-0,153
335,129	-57,740	-0,130	-0,039
336,143	644,247	-0,094	-0,165
337,158	257,379	-0,097	-0,115
338,173	-200,000	0,020	-0,150
339,187	-172,122	-0,134	0,003
340,202	-53,555	-0,147	0,046
341,216	162,068	-0,088	-0,085
342,231	-200,000	-0,029	-0,130
343,246	39,477	-0,158	-0,097
344,260	800,000	-0,114	-0,249
345,275	-200,000	0,013	-0,164
346,289	-150,265	-0,072	-0,004
347,304	463,480	-0,065	-0,100
348,319	70,558	-0,224	-0,159
349,333	59,313	-0,179	-0,121
350,348	800,000	-0,050	-0,114
351,362	311,459	-0,107	-0,138
352,377	1,320	-0,161	-0,079
353,392	-151,361	-0,220	-0,011
354,406	-129,876	-0,097	0,009
355,421	209,611	1312,485	1413,037
356,435	161,336	1472,933	1413,538
