DTS Sentinel unit serial number:	SN410029Multiplexer serial number:	ORYXHardware model number:	OX2-SRSoftware version number:	ORYX F/W v4,00 Oryx Data Collector v3.7.2.0data status	okinstallation	B3 Nyhavnadifferential loss correction	single-endedforward channel	channel 1reverse channel	N/Adate	2023/12/04time	05:02:30forward acquisition time	300,00reverse acquisition time	0,00gamma	499,1914k internal	0,3206k external	0,3206temperature offset calibration	1,0000default loss term (dB/km)	0,3820temperature slope calibration	1,0000multiplexer offset coefficient	1,0000multiplexer slope coefficient	1,0000fibre end	0,00T internal ref (°C)	11,96T ext. ref 1 (°C)	-2,99T ext. ref 2 (°C)	-3,02length (m)	temperature (°C)	Stokes	anti-Stokes-744,400	348,580	-0,253	-0,363
-743,385	800,000	0,085	0,180
-742,371	668,295	-0,187	-0,354
-741,356	-200,000	-0,000	0,347
-740,342	208,268	-0,239	-0,272
-739,327	-200,000	0,035	0,259
-738,312	283,331	-0,200	-0,262
-737,298	800,000	0,065	0,202
-736,283	800,000	-0,161	-0,351
-735,269	-200,000	-0,010	0,297
-734,254	325,862	-0,203	-0,283
-733,239	-37,933	-0,351	0,135
-732,225	122,048	-0,136	-0,124
-731,210	-30,937	0,201	0,082
-730,196	800,000	-0,045	-0,104
-729,181	402,976	-0,097	0,148
-728,167	342,265	-0,032	-0,045
-727,152	152,495	0,049	-0,049
-726,137	-31,337	-0,095	-0,039
-725,123	-12,379	-0,062	0,029
-724,108	317,465	0,042	-0,057
-723,094	-66,940	-0,016	0,005
-722,079	-130,080	-0,109	0,011
-721,064	-200,000	-0,002	-0,074
-720,050	299,313	0,085	-0,114
-719,035	800,000	-0,039	-0,093
-718,021	-85,325	-0,116	-0,026
-717,006	-133,579	-0,190	0,017
-715,991	-92,126	-0,123	-0,025
-714,977	-200,000	-0,025	-0,173
-713,962	203,538	0,089	-0,100
-712,948	-21,846	0,150	-0,066
-711,933	-22,282	0,115	0,050
-710,918	23,367	-0,067	0,040
-709,904	-4,596	-0,120	0,060
-708,889	800,000	0,046	0,106
-707,875	-105,845	-0,178	-0,029
-706,860	-200,000	-0,008	-0,055
-705,845	341,591	-0,083	0,118
-704,831	130,836	0,053	0,050
-703,816	16,995	0,062	0,036
-702,802	77,177	-0,069	0,053
-701,787	-200,000	-0,004	0,097
-700,772	-200,000	0,027	-0,145
-699,758	-57,467	-0,125	0,039
-698,743	-73,012	0,126	0,033
-697,729	54,959	-0,083	-0,058
-696,714	252,953	0,088	-0,109
-695,699	-48,528	0,178	0,062
-694,685	262,021	-0,050	0,063
-693,670	294,831	-0,049	-0,065
-692,656	-177,566	-0,152	-0,003
-691,641	-5,833	-0,029	0,014
-690,627	425,373	-0,065	-0,101
-689,612	-118,098	0,079	0,010
-688,597	-32,007	-0,045	-0,018
-687,583	52,441	0,064	0,044
-686,568	-80,659	-0,037	-0,009
-685,554	-200,000	-0,008	-0,099
-684,539	-200,000	0,051	-0,227
-683,524	-200,000	0,033	-0,107
-682,510	-15,979	0,235	-0,108
-681,495	52,233	-0,124	-0,085
-680,481	361,358	-0,113	-0,164
-679,466	-200,000	-0,019	0,104
-678,451	68,422	0,055	-0,041
-677,437	-104,594	0,141	-0,023
-676,422	373,830	-0,068	-0,101
-675,408	800,000	-0,039	0,102
-674,393	33,371	0,062	-0,039
-673,378	800,000	-0,064	-0,153
-672,364	-40,223	0,110	-0,041
-671,349	98,598	-0,100	0,084
-670,335	-82,781	-0,084	0,020
-669,320	-200,000	0,011	0,063
-668,305	-46,317	-0,084	0,030
-667,291	-200,000	0,038	0,172
-666,276	-67,663	-0,118	0,033
-665,262	-56,161	-0,077	0,025
-664,247	800,000	-0,019	-0,045
-663,232	-200,000	0,013	0,063
-662,218	-200,000	-0,008	-0,079
-661,203	-0,972	0,020	-0,010
-660,189	800,000	0,042	-0,091
-659,174	414,117	0,086	-0,134
-658,159	-200,000	-0,004	0,034
-657,145	-200,000	-0,001	-0,137
-656,130	-97,649	-0,129	0,024
-655,116	-76,924	-0,091	-0,023
-654,101	-137,478	0,147	0,012
-653,086	97,980	-0,109	-0,091
-652,072	-190,325	-0,075	-0,001
-651,057	-200,000	0,019	-0,118
-650,043	-57,062	0,060	-0,019
-649,028	29,736	-0,100	0,061
-648,014	146,305	0,026	-0,025
-646,999	-200,000	0,006	0,031
-645,984	-84,972	0,050	-0,011
-644,970	-92,286	-0,123	0,025
-643,955	-114,313	-0,135	-0,019
-642,941	-200,000	-0,036	-0,138
-641,926	-200,000	0,030	-0,113
-640,911	326,428	-0,076	-0,106
-639,897	-40,380	0,133	-0,050
-638,882	-200,000	-0,008	-0,032
-637,868	-85,650	-0,239	0,053
-636,853	800,000	0,043	-0,098
-635,838	80,764	-0,148	-0,116
-634,824	-200,000	-0,020	-0,074
-633,809	-200,000	-0,007	0,060
-632,795	198,125	0,036	0,039
-631,780	39,722	-0,037	0,024
-630,765	-122,824	-0,077	-0,009
-629,751	-46,486	-0,118	0,042
-628,736	-200,000	-0,019	-0,114
-627,722	800,000	-0,051	-0,145
-626,707	156,397	0,123	0,123
-625,692	800,000	0,013	-0,029
-624,678	120,999	-0,054	0,048
-623,663	84,836	-0,121	-0,096
-622,649	-200,000	0,039	-0,174
-621,634	75,817	-0,151	-0,115
-620,619	-121,885	0,123	-0,014
-619,605	-200,000	0,007	-0,102
-618,590	158,508	0,064	0,064
-617,576	800,000	0,048	-0,133
-616,561	-200,000	0,010	-0,053
-615,546	800,000	-0,011	0,031
-614,532	-12,717	-0,043	-0,020
-613,517	-27,660	0,025	-0,011
-612,503	291,464	-0,028	-0,037
-611,488	-46,700	0,116	-0,041
-610,474	-22,001	0,003	-0,002
-609,459	800,000	0,040	0,091
-608,444	-74,418	-0,134	-0,035
-607,430	198,896	0,071	-0,079
-606,415	800,000	0,027	-0,058
-605,401	-200,000	-0,001	-0,052
-604,386	-200,000	-0,003	-0,067
-603,371	-26,459	-0,018	0,007
-602,357	191,080	0,077	-0,084
-601,342	800,000	-0,018	-0,036
-600,328	-124,935	-0,091	0,010
-599,313	34,761	-0,131	0,083
-598,298	54,004	-0,066	0,046
-597,284	34,603	0,070	-0,044
-596,269	56,646	0,020	0,014
-595,255	-74,854	-0,056	0,014
-594,240	338,724	-0,057	-0,081
-593,225	-31,830	-0,127	0,051
-592,211	-200,000	-0,008	0,069
-591,196	-15,857	-0,011	0,005
-590,182	-200,000	0,013	0,152
-589,167	667,319	-0,043	0,081
-588,152	0,034	-0,073	0,037
-587,138	-119,128	0,150	-0,019
-586,123	-80,235	0,040	-0,009
-585,109	463,696	-0,009	-0,015
-584,094	-200,000	0,001	0,035
-583,079	83,343	-0,036	-0,028
-582,065	450,973	0,055	0,088
-581,050	195,439	0,071	0,078
-580,036	11,822	-0,143	0,079
-579,021	-21,626	-0,052	-0,023
-578,006	596,727	0,032	-0,057
-576,992	-58,163	0,040	-0,012
-575,977	447,491	0,086	-0,137
-574,963	59,265	-0,120	0,085
-573,948	-165,023	-0,068	-0,002
-572,934	120,373	-0,110	0,099
-571,919	52,159	-0,084	-0,058
-570,904	800,000	-0,020	-0,062
-569,890	0,747	-0,125	0,064
-568,875	62,988	0,039	-0,028
-567,861	-83,663	0,051	-0,012
-566,846	109,720	-0,066	-0,057
-565,831	-77,875	-0,053	0,013
-564,817	-57,571	-0,106	0,033
-563,802	-200,000	0,005	-0,101
-562,788	800,000	0,026	0,082
-561,773	-200,000	-0,012	-0,046
-560,758	373,541	0,150	0,221
-559,744	-200,000	-0,018	0,061
-558,729	156,790	-0,078	0,078
-557,715	-200,000	-0,020	-0,090
-556,700	800,000	0,044	-0,088
-555,685	72,219	-0,020	-0,015
-554,671	372,020	-0,013	0,019
-553,656	72,592	0,071	-0,053
-552,642	513,548	0,044	-0,075
-551,627	-200,000	0,007	0,206
-550,612	708,017	-0,034	-0,066
-549,598	-148,576	-0,004	0,000
-548,583	-200,000	0,005	0,042
-547,569	444,473	-0,052	0,082
-546,554	-191,066	0,094	-0,001
-545,539	800,000	0,027	0,064
-544,525	-156,084	-0,172	-0,008
-543,510	223,628	0,039	0,045
-542,496	10,229	0,087	-0,047
-541,481	-46,552	0,027	0,009
-540,466	-200,000	-0,032	0,165
-539,452	91,375	0,047	-0,038
-538,437	-157,300	0,009	0,000
-537,423	-3,357	0,068	-0,034
-536,408	-200,000	-0,059	0,207
-535,393	800,000	-0,035	0,089
-534,379	800,000	-0,033	0,070
-533,364	4,237	-0,116	-0,061
-532,350	-81,394	0,062	0,015
-531,335	577,058	-0,041	0,073
-530,321	-200,000	0,011	0,082
-529,306	-20,357	-0,142	-0,063
-528,291	-200,000	-0,003	0,029
-527,277	-97,600	-0,068	-0,013
-526,262	12,377	0,110	-0,061
-525,248	-200,000	-0,014	0,052
-524,233	318,158	-0,069	-0,095
-523,218	-180,554	0,081	-0,001
-522,204	-200,000	0,002	-0,042
-521,189	-200,000	0,005	0,034
-520,175	-200,000	0,015	-0,056
-519,160	582,651	0,015	-0,026
-518,145	376,402	-0,085	0,126
-517,131	-200,000	0,025	0,123
-516,116	-3,691	0,059	0,029
-515,102	-131,715	-0,068	-0,006
-514,087	-17,909	0,049	-0,022
-513,072	-200,000	0,021	-0,078
-512,058	-200,000	-0,053	-0,188
-511,043	-200,000	0,011	0,072
-510,029	190,358	0,023	0,025
-509,014	-12,401	-0,026	-0,012
-507,999	160,699	0,032	0,033
-506,985	29,496	-0,084	-0,051
-505,970	398,427	-0,095	-0,144
-504,956	119,823	-0,051	-0,046
-503,941	165,236	0,045	-0,046
-502,926	11,089	-0,221	0,121
-501,912	485,998	0,062	0,103
-500,897	9,577	-0,057	0,031
-499,883	800,000	0,009	0,022
-498,868	-200,000	-0,027	-0,125
-497,853	-122,979	0,034	0,004
-496,839	800,000	0,025	-0,067
-495,824	-148,217	0,182	-0,011
-494,810	276,171	-0,057	0,074
-493,795	-200,000	-0,025	-0,093
-492,781	-200,000	0,037	0,119
-491,766	-200,000	0,017	0,076
-490,751	-156,661	0,099	-0,004
-489,737	740,415	0,046	0,089
-488,722	-134,312	0,187	-0,016
-487,708	160,811	0,169	0,169
-486,693	-104,698	0,049	-0,008
-485,678	567,095	0,025	0,044
-484,664	-88,637	-0,123	-0,026
-483,649	-19,298	-0,097	-0,043
-482,635	-57,755	-0,022	0,007
-481,620	-200,000	-0,015	-0,065
-480,605	276,432	0,031	-0,039
-479,591	313,158	-0,053	0,072
-478,576	-13,391	-0,025	-0,012
-477,562	101,672	0,084	-0,070
-476,547	800,000	0,080	-0,180
-475,532	-2,667	0,074	-0,037
-474,518	-150,124	0,036	0,002
-473,503	216,446	-0,066	0,076
-472,489	-176,587	-0,047	-0,001
-471,474	-141,813	0,127	0,009
-470,459	50,693	0,133	-0,090
-469,445	601,885	0,041	-0,074
-468,430	671,969	-0,084	-0,157
-467,416	695,255	-0,009	0,018
-466,401	-33,415	-0,088	0,035
-465,386	92,857	0,107	0,087
-464,372	523,853	-0,026	-0,044
-463,357	-45,630	-0,109	-0,038
-462,343	-200,000	-0,005	-0,052
-461,328	-200,000	-0,023	-0,075
-460,313	93,268	0,083	0,067
-459,299	94,801	-0,036	-0,030
-458,284	92,616	-0,090	0,073
-457,270	541,092	-0,094	-0,162
-456,255	601,964	0,025	-0,044
-455,241	-111,786	-0,152	0,022
-454,226	-139,869	0,148	-0,011
-453,211	-34,951	0,017	0,006
-452,197	5,988	0,044	0,023
-451,182	250,352	0,018	-0,022
-450,168	-200,000	0,011	0,102
-449,153	12,764	0,049	0,027
-448,138	284,744	-0,088	-0,114
-447,124	-39,581	-0,184	0,069
-446,109	-87,764	-0,078	0,017
-445,095	460,313	-0,023	0,037
-444,080	179,442	0,086	0,090
-443,065	-80,083	0,091	-0,022
-442,051	-200,000	0,018	0,072
-441,036	-155,992	0,014	0,001
-440,022	491,072	-0,039	-0,064
-439,007	312,155	0,075	-0,102
-437,992	98,082	-0,131	0,109
-436,978	-200,000	0,008	0,255
-435,963	146,097	0,149	0,143
-434,949	-103,207	-0,028	-0,005
-433,934	-64,216	-0,168	-0,049
-432,919	134,917	0,017	0,015
-431,905	199,230	0,053	0,058
-430,890	-52,305	0,038	-0,013
-429,876	-87,570	-0,064	-0,014
-428,861	436,706	-0,013	-0,020
-427,846	153,559	-0,026	0,026
-426,832	-200,000	0,008	0,101
-425,817	198,389	-0,091	0,100
-424,803	723,483	-0,044	0,085
-423,788	800,000	0,021	0,047
-422,773	289,776	-0,033	-0,044
-421,759	629,441	-0,017	0,031
-420,744	166,872	-0,040	0,041
-419,730	364,835	-0,058	0,084
-418,715	-2,981	0,037	0,018
-417,701	-200,000	0,020	-0,086
-416,686	769,898	0,032	0,063
-415,671	92,092	0,010	-0,008
-414,657	786,080	0,053	-0,105
-413,642	213,926	-0,137	-0,156
-412,628	-200,000	0,043	-0,144
-411,613	-200,000	0,014	-0,116
-410,598	95,425	0,078	-0,064
-409,584	114,016	-0,065	0,057
-408,569	-200,000	0,013	0,044
-407,555	438,336	0,046	0,072
-406,540	800,000	-0,027	0,074
-405,525	800,000	0,014	-0,043
-404,511	-102,934	-0,168	0,028
-403,496	-200,000	-0,004	0,056
-402,482	675,838	-0,107	0,200
-401,467	-65,139	0,091	0,026
-400,452	-200,000	0,002	0,126
-399,438	171,090	-0,068	0,070
-398,423	-139,946	-0,068	0,005
-397,409	127,390	-0,053	0,048
-396,394	-162,614	0,045	-0,002
-395,379	226,650	0,092	0,107
-394,365	228,890	0,027	-0,032
-393,350	-200,000	-0,009	0,033
-392,336	-101,751	0,052	0,009
-391,321	-200,000	0,018	0,073
-390,306	-95,509	0,030	-0,006
-389,292	-47,258	-0,050	0,018
-388,277	800,000	0,047	-0,107
-387,263	-200,000	-0,032	0,117
-386,248	738,910	-0,018	-0,035
-385,233	800,000	0,064	-0,141
-384,219	-174,975	0,081	0,002
-383,204	-17,342	-0,095	-0,043
-382,190	274,403	-0,067	-0,085
-381,175	87,207	0,090	0,071
-380,160	800,000	-0,042	0,127
-379,146	-99,514	0,166	0,030
-378,131	216,475	0,083	-0,094
-377,117	-14,577	-0,072	0,033
-376,102	800,000	0,028	0,081
-375,088	9,650	0,050	-0,027
-374,073	-200,000	0,034	0,000
-373,058	-141,164	0,050	0,004
-372,044	800,000	-0,013	-0,027
-371,029	-100,512	0,176	0,031
-370,015	649,647	-0,013	-0,024
-369,000	304,180	-0,075	-0,100
-367,985	-200,000	-0,026	-0,139
-366,971	335,957	0,026	0,036
-365,956	661,830	0,042	-0,077
-364,942	-200,000	0,007	0,133
-363,927	37,196	0,133	0,084
-362,912	-107,251	-0,080	-0,012
-361,898	800,000	0,044	-0,098
-360,883	-200,000	0,019	0,191
-359,869	-5,765	0,044	-0,021
-358,854	22,566	0,109	0,064
-357,839	-17,973	0,186	0,083
-356,825	-157,270	0,087	0,004
-355,810	-200,000	0,014	-0,127
-354,796	-200,000	-0,013	0,152
-353,781	800,000	0,043	-0,092
-352,766	800,000	-0,075	-0,163
-351,752	17,106	-0,062	-0,035
-350,737	-200,000	0,014	-0,098
-349,723	-200,000	-0,005	0,024
-348,708	-6,241	-0,121	-0,059
-347,693	-200,000	-0,003	-0,123
-346,679	81,872	0,123	-0,095
-345,664	-128,416	0,106	-0,011
-344,650	-200,000	0,019	0,121
-343,635	-200,000	0,022	0,091
-342,620	38,658	0,039	0,025
-341,606	-59,124	-0,143	-0,044
-340,591	238,793	-0,089	-0,106
-339,577	-77,839	-0,071	0,017
-338,562	73,482	-0,083	0,062
-337,548	-17,424	0,176	-0,079
-336,533	800,000	0,056	0,149
-335,518	181,095	-0,025	0,026
-334,504	-200,000	0,015	-0,159
-333,489	-157,319	0,063	0,003
-332,475	-56,492	0,132	-0,042
-331,460	-200,000	-0,008	-0,038
-330,445	217,266	-0,074	-0,084
-329,431	-200,000	-0,003	0,148
-328,416	-200,000	-0,011	0,063
-327,402	800,000	0,029	0,059
-326,387	-99,446	0,037	-0,007
-325,372	-39,026	0,167	-0,062
-324,358	249,908	0,020	-0,025
-323,343	-24,373	-0,110	0,047
-322,329	800,000	-0,005	-0,014
-321,314	-20,127	-0,067	-0,029
-320,299	223,701	0,159	0,184
-319,285	800,000	-0,023	0,067
-318,270	227,010	-0,058	0,067
-317,256	-6,353	0,031	-0,015
-316,241	-200,000	-0,013	-0,084
-315,226	234,437	0,117	-0,138
-314,212	-200,000	0,036	-0,123
-313,197	64,740	0,071	0,051
-312,183	150,260	-0,075	0,073
-311,168	-200,000	-0,014	-0,161
-310,153	19,110	-0,190	-0,108
-309,139	-200,000	-0,048	-0,187
-308,124	213,754	0,013	0,014
-307,110	-72,126	0,065	0,017
-306,095	-70,703	0,034	0,009
-305,080	-200,000	0,059	0,000
-304,066	-92,679	0,041	-0,008
-303,051	-200,000	-0,004	0,018
-302,037	-200,000	-0,009	0,097
-301,022	334,468	-0,023	-0,032
-300,008	-6,858	0,131	-0,063
-298,993	-191,859	0,053	-0,000
-297,978	54,727	0,088	0,060
-296,964	-112,974	-0,146	-0,020
-295,949	224,445	0,029	-0,034
-294,935	800,000	-0,021	0,053
-293,920	450,794	0,022	-0,034
-292,905	800,000	0,080	0,182
-291,891	-200,000	0,001	-0,033
-290,876	162,329	0,057	0,057
-289,862	-96,572	0,134	0,025
-288,847	693,870	-0,041	0,076
-287,832	800,000	0,027	-0,055
-286,818	-54,388	-0,113	0,036
-285,803	-125,209	0,054	-0,006
-284,789	109,785	-0,036	-0,030
-283,774	63,082	-0,049	0,035
-282,759	-61,903	-0,032	-0,010
-281,745	28,272	-0,118	-0,071
-280,730	-88,249	-0,066	-0,014
-279,716	800,000	0,047	0,123
-278,701	62,203	0,069	-0,049
-277,686	24,226	0,078	-0,046
-276,672	-200,000	-0,041	0,129
-275,657	531,171	-0,006	0,010
-274,643	218,744	-0,117	-0,133
-273,628	-200,000	-0,017	-0,056
-272,613	-200,000	0,006	0,124
-271,599	-200,000	-0,010	0,065
-270,584	-36,037	-0,073	-0,028
-269,570	560,408	0,058	-0,100
-268,555	73,544	-0,055	-0,041
-267,540	-7,306	-0,024	-0,012
-266,526	232,371	-0,052	-0,061
-265,511	59,324	-0,016	-0,011
-264,497	4,309	0,117	-0,061
-263,482	16,271	-0,060	-0,034
-262,467	-200,000	0,046	0,172
-261,453	-200,000	-0,007	-0,051
-260,438	-200,000	-0,031	-0,104
-259,424	168,541	-0,018	-0,018
-258,409	163,358	-0,099	-0,099
-257,395	221,896	0,123	-0,141
-256,380	81,787	0,126	0,097
-255,365	315,856	0,089	0,120
-254,351	109,093	-0,131	0,112
-253,336	800,000	-0,052	-0,121
-252,322	-165,086	-0,072	0,002
-251,307	800,000	-0,014	0,037
-250,292	-200,000	0,044	-0,181
-249,278	-200,000	-0,010	0,086
-248,263	-200,000	-0,035	-0,176
-247,249	800,000	0,007	-0,018
-246,234	-123,558	0,069	-0,008
-245,219	-128,120	0,090	-0,009
-244,205	38,406	-0,107	-0,068
-243,190	51,153	0,132	-0,089
-242,176	-200,000	-0,017	0,081
-241,161	-1,655	0,146	-0,073
-240,146	275,367	-0,084	0,106
-239,132	70,899	0,089	-0,066
-238,117	451,678	-0,056	-0,088
-237,103	-200,000	0,011	0,043
-236,088	8,446	0,058	-0,031
-235,073	-200,000	-0,026	0,123
-234,059	-132,314	0,125	-0,011
-233,044	54,297	-0,076	-0,052
-232,030	-77,181	0,099	0,024
-231,015	10,273	0,121	0,065
-230,000	-200,000	0,006	-0,075
-228,986	-51,030	0,074	0,024
-227,971	11,369	0,026	0,014
-226,957	-1,527	0,131	0,065
-225,942	89,764	-0,067	0,053
-224,927	208,964	-0,071	0,079
-223,913	-4,391	0,059	-0,029
-222,898	800,000	0,016	-0,034
-221,884	361,781	0,055	-0,078
-220,869	-119,118	-0,065	-0,008
-219,855	-200,000	0,022	0,151
-218,840	-99,477	-0,064	-0,011
-217,825	-200,000	-0,011	0,121
-216,811	-200,000	0,022	0,113
-215,796	198,755	-0,080	0,087
-214,782	-200,000	-0,024	-0,085
-213,767	800,000	0,022	-0,063
-212,752	-115,975	-0,059	0,008
-211,738	273,931	0,023	0,029
-210,723	186,126	0,039	-0,041
-209,709	9,211	-0,056	0,030
-208,694	-142,470	0,032	0,002
-207,679	-107,779	-0,145	0,022
-206,665	-200,000	-0,017	-0,161
-205,650	-200,000	0,022	0,095
-204,636	-200,000	-0,000	0,022
-203,621	-123,923	0,033	-0,004
-202,606	3,533	-0,134	-0,069
-201,592	-73,460	-0,089	-0,023
-200,577	448,425	-0,022	-0,035
-199,563	-16,557	0,094	0,042
-198,548	-200,000	0,008	0,249
-197,533	217,557	0,089	0,100
-196,519	-47,059	0,088	0,030
-195,504	-57,485	0,040	0,012
-194,490	233,120	-0,149	-0,174
-193,475	-200,000	0,004	-0,160
-192,460	-5,022	0,092	-0,045
-191,446	185,392	0,085	0,090
-190,431	35,746	0,098	0,061
-189,417	-118,734	-0,116	0,014
-188,402	174,066	0,102	-0,105
-187,387	-200,000	-0,014	-0,058
-186,373	-200,000	0,011	-0,177
-185,358	-105,233	0,076	-0,012
-184,344	-114,526	-0,082	0,011
-183,329	-200,000	-0,002	-0,016
-182,315	39,725	0,036	0,023
-181,300	328,665	-0,074	-0,101
-180,285	17,636	-0,098	-0,055
-179,271	38,585	-0,055	-0,034
-178,256	762,161	0,040	-0,078
-177,242	-48,680	-0,043	0,015
-176,227	800,000	0,050	0,112
-175,212	800,000	-0,039	0,096
-174,198	-200,000	-0,035	0,121
-173,183	-200,000	0,011	-0,124
-172,169	264,058	-0,060	-0,074
-171,154	-200,000	0,003	0,038
-170,139	800,000	0,016	0,042
-169,125	120,970	0,116	0,103
-168,110	-200,000	0,012	-0,064
-167,096	96,598	0,046	0,038
-166,081	159,230	0,034	0,033
-165,066	-200,000	-0,011	-0,142
-164,052	57,589	-0,060	0,042
-163,037	-96,603	0,036	-0,007
-162,023	181,321	-0,047	-0,049
-161,008	-6,590	-0,079	0,038
-159,993	-117,009	0,125	0,016
-158,979	-23,100	-0,096	0,041
-157,964	800,000	0,034	0,072
-156,950	800,000	-0,023	0,062
-155,935	264,998	-0,087	0,108
-154,920	-41,152	0,161	0,059
-153,906	-200,000	0,007	0,036
-152,891	94,882	0,110	0,089
-151,877	-23,086	-0,111	-0,047
-150,862	104,363	0,073	0,061
-149,847	-61,546	-0,090	0,027
-148,833	190,878	0,049	-0,053
-147,818	-200,000	-0,014	0,054
-146,804	-6,715	0,156	0,075
-145,789	-42,752	-0,071	-0,026
-144,775	-122,453	-0,106	0,012
-143,760	82,245	0,100	0,077
-142,745	-200,000	0,022	0,073
-141,731	-111,090	-0,022	0,003
-140,716	-200,000	0,038	0,142
-139,702	135,181	-0,049	0,045
-138,687	-65,032	0,130	0,037
-137,672	48,447	-0,068	-0,045
-136,658	-200,000	0,006	-0,023
-135,643	-65,822	-0,184	-0,052
-134,629	-200,000	0,007	-0,031
-133,614	-62,585	0,048	0,014
-132,599	-7,467	0,032	0,015
-131,585	-21,297	-0,117	0,051
-130,570	82,070	0,067	0,052
-129,556	-200,000	-0,033	-0,150
-128,541	-200,000	-0,015	-0,091
-127,526	-61,030	-0,072	-0,021
-126,512	38,245	0,046	0,029
-125,497	800,000	0,016	0,044
-124,483	-54,626	0,076	0,024
-123,468	70,255	-0,044	-0,032
-122,453	800,000	-0,027	-0,058
-121,439	800,000	0,030	-0,080
-120,424	-69,265	0,060	-0,016
-119,410	-53,062	-0,044	-0,014
-118,395	800,000	-0,019	0,047
-117,380	385,729	0,044	0,065
-116,366	-51,215	-0,042	0,014
-115,351	-200,000	-0,030	-0,101
-114,337	-30,188	-0,085	0,034
-113,322	-200,000	-0,027	-0,148
-112,307	214,258	-0,055	-0,062
-111,293	-110,489	0,040	-0,006
-110,278	625,742	0,079	-0,143
-109,264	-95,607	0,028	-0,005
-108,249	800,000	0,017	-0,045
-107,234	-200,000	-0,003	0,019
-106,220	419,925	0,052	0,079
-105,205	-153,118	-0,044	0,002
-104,191	-200,000	0,008	-0,057
-103,176	-136,175	0,071	0,006
-102,162	-106,286	-0,075	-0,012
-101,147	-200,000	0,005	0,136
-100,132	800,000	-0,071	0,146
-99,118	-73,955	-0,092	-0,024
-98,103	-65,966	0,104	-0,029
-97,089	297,423	0,118	0,154
-96,074	-91,129	-0,055	0,011
-95,059	800,000	0,035	0,090
-94,045	489,215	-0,041	0,067
-93,030	19,801	-0,128	0,073
-92,016	-200,000	0,028	0,163
-91,001	31,685	-0,128	-0,078
-89,986	800,000	0,067	0,158
-88,972	-70,375	0,151	-0,040
-87,957	127,859	0,045	0,040
-86,943	364,999	-0,067	-0,096
-85,928	-200,000	0,020	-0,076
-84,913	-200,000	0,018	0,070
-83,899	173,265	-0,007	-0,007
-82,884	-200,000	0,011	0,083
-81,870	199,946	-0,043	0,047
-80,855	120,799	-0,053	0,047
-79,840	-82,155	-0,052	-0,012
-78,826	798,039	0,059	-0,116
-77,811	524,036	0,048	0,080
-76,797	83,194	0,056	0,043
-75,782	-48,779	0,158	-0,053
-74,767	-200,000	0,039	0,172
-73,753	-0,969	-0,017	-0,008
-72,738	438,325	-0,057	-0,088
-71,724	-200,000	0,042	-0,172
-70,709	-200,000	-0,045	-0,160
-69,694	97,327	-0,094	-0,076
-68,680	-143,518	0,065	0,004
-67,665	800,000	-0,030	0,067
-66,651	-1,411	0,076	0,038
-65,636	-14,449	0,102	-0,046
-64,622	29,233	0,100	-0,060
-63,607	-26,058	-0,066	-0,027
-62,592	-84,757	-0,072	0,016
-61,578	404,086	-0,110	0,165
-60,563	-200,000	0,037	-0,130
-59,549	-200,000	0,029	0,130
-58,534	3,858	-1,787	-0,920
-57,519	408,821	-1,329	-1,996
-56,505	-200,000	-0,512	-4,449
-55,490	315,158	1,060	1,416
-54,476	800,000	5,009	11,230
-53,461	-200,000	20,331	324,081
-52,446	800,000	752,389	2310,605
-51,432	548,817	1662,776	2827,163
-50,417	74,659	1671,362	1241,663
-49,403	19,814	1544,509	877,032
-48,388	13,837	1467,007	803,951
-47,373	18,414	1457,361	820,739
-46,359	16,277	1446,718	804,479
-45,344	12,081	1442,363	781,933
-44,330	12,027	1440,369	780,561
-43,315	12,005	1438,636	779,487
-42,300	11,998	1436,867	778,465
-41,286	12,025	1435,751	777,958
-40,271	11,980	1434,444	777,005
-39,257	11,936	1433,219	776,101
-38,242	12,081	1431,804	775,990
-37,227	12,072	1430,778	775,361
-36,213	12,051	1429,593	774,592
-35,198	12,043	1428,497	773,929
-34,184	12,060	1427,538	773,458
-33,169	12,025	1426,001	772,427
-32,154	12,078	1424,738	771,965
-31,140	12,078	1423,608	771,323
-30,125	12,109	1422,397	770,781
-29,111	12,076	1421,336	770,021
-28,096	12,081	1420,164	769,376
-27,082	11,986	1419,283	768,420
-26,067	11,999	1418,079	767,801
-25,052	12,042	1416,889	767,331
-24,038	12,002	1415,965	766,608
-23,023	11,964	1414,919	765,836
-22,009	11,962	1414,048	765,323
-20,994	11,972	1412,960	764,752
-19,979	11,992	1412,053	764,324
-18,965	11,922	1411,252	763,531
-17,950	11,926	1410,259	762,984
-16,936	11,949	1409,530	762,665
-15,921	11,873	1408,378	761,655
-14,906	11,883	1407,541	761,218
-13,892	11,941	1406,447	760,871
-12,877	11,906	1405,630	760,234
-11,863	11,875	1404,858	759,643
-10,848	11,873	1403,991	759,132
-9,833	11,879	1402,928	758,555
-8,819	11,743	1402,494	757,658
-7,804	11,781	1401,458	757,243
-6,790	11,788	1400,219	756,577
-5,775	11,808	1399,165	756,071
-4,760	11,836	1398,299	755,703
-3,746	11,763	1397,522	754,913
-2,731	11,745	1396,531	754,265
-1,717	11,769	1395,829	753,967
-0,702	11,803	1393,876	753,040
0,313	15,757	1308,533	725,181
1,327	31,968	699,331	424,792
2,342	49,480	121,770	80,828
3,356	0,810	16,548	8,344
4,371	4,185	3,205	1,652
5,386	50,167	0,579	0,385
6,400	-200,000	-0,007	0,357
7,415	-12,126	-0,196	-0,090
8,429	61,060	-0,214	-0,150
9,444	105,557	-0,351	-0,292
10,459	34,543	-0,233	-0,143
11,473	222,568	-0,238	-0,271
12,488	-125,095	-0,368	-0,039
13,502	-34,563	-0,239	-0,092
14,517	138,636	-0,317	-0,294
15,531	257,546	-0,239	-0,291
16,546	58,117	-0,367	-0,253
17,561	232,876	-0,300	-0,348
18,575	31,994	-0,204	-0,124
19,590	95,185	-0,253	-0,203
20,604	79,143	-0,230	-0,174
21,619	-14,425	-0,465	-0,210
22,634	20,157	-0,501	-0,284
23,648	155,885	-0,360	-0,350
24,663	-2,328	-0,389	-0,191
25,677	101,109	-0,339	-0,278
26,692	70,042	-0,313	-0,227
27,707	62,832	-0,377	-0,266
28,721	-23,846	-0,379	-0,159
29,736	6,222	-0,387	-0,202
30,750	113,893	-0,323	-0,277
31,765	168,174	-0,399	-0,400
32,780	275,614	-0,290	-0,364
33,794	-24,323	-0,456	-0,191
34,809	177,752	-0,350	-0,360
35,823	34,212	-0,496	-0,304
36,838	70,431	-0,364	-0,265
37,853	147,218	-0,335	-0,317
38,867	245,885	-0,296	-0,352
39,882	106,293	-0,252	-0,210
40,896	196,897	-0,293	-0,315
41,911	3,603	-0,325	-0,167
42,926	53,106	-0,316	-0,213
43,940	42,301	-0,310	-0,198
44,955	115,022	-0,272	-0,233
45,969	90,884	-0,338	-0,267
46,984	105,672	-0,277	-0,230
47,999	-52,039	-0,401	-0,130
49,013	24,460	-0,300	-0,174
50,028	92,674	-0,358	-0,284
51,042	116,514	-0,363	-0,313
52,057	78,684	-0,404	-0,304
53,071	166,075	-0,276	-0,275
54,086	-19,758	-0,217	-0,094
55,101	-52,063	-0,346	-0,112
56,115	125,482	-0,287	-0,255
57,130	12,947	-0,383	-0,207
58,144	490,239	-0,207	-0,335
59,159	78,248	-0,326	-0,244
60,174	60,304	-0,455	-0,316
61,188	79,432	-0,242	-0,182
62,203	431,408	-0,209	-0,319
63,217	-8,155	-0,288	-0,136
64,232	33,233	-0,276	-0,168
65,247	35,166	-0,427	-0,263
66,261	-39,303	-0,386	-0,141
67,276	49,746	-0,333	-0,220
68,290	-28,961	-0,416	-0,167
69,305	800,000	-0,161	-0,341
70,320	-16,373	-0,315	-0,140
71,334	-20,938	-0,323	-0,139
72,349	289,040	-0,276	-0,352
73,363	14,193	-0,329	-0,179
74,378	111,436	-0,374	-0,317
75,393	53,281	-0,249	-0,167
76,407	-90,751	-0,297	-0,060
77,422	-29,857	-0,177	-0,071
78,436	-85,387	-0,384	-0,083
79,451	-49,312	-0,315	-0,105
80,466	529,991	-0,118	-0,195
81,480	82,720	-0,262	-0,200
82,495	82,710	-0,345	-0,263
83,509	-7,004	-0,288	-0,136
84,524	-119,350	-0,342	-0,041
85,539	142,990	-0,263	-0,245
86,553	46,188	-0,307	-0,199
87,568	77,313	-0,287	-0,214
88,582	7,401	-0,335	-0,175
89,597	157,581	-0,247	-0,240
90,611	25,618	-0,272	-0,158
91,626	156,769	-0,212	-0,205
92,641	151,880	-0,141	-0,134
93,655	-3,953	-0,437	-0,212
94,670	-22,050	-0,339	-0,143
95,684	79,427	-0,327	-0,245
96,699	185,460	-0,204	-0,213
97,714	109,441	-0,200	-0,168
98,728	506,288	-0,206	-0,336
99,743	14,612	-0,262	-0,143
100,757	162,593	-0,169	-0,166
101,772	100,990	-0,256	-0,209
102,787	291,111	-0,276	-0,353
103,801	8,677	-0,264	-0,139
104,816	124,464	-0,293	-0,258
105,830	205,267	-0,236	-0,257
106,845	-157,173	-0,223	-0,009
107,860	159,030	-0,213	-0,207
108,874	65,224	-0,277	-0,196
109,889	101,689	-0,297	-0,243
110,903	25,759	-0,246	-0,143
111,918	177,161	-0,134	-0,137
112,933	182,916	-0,199	-0,206
113,947	206,769	-0,237	-0,259
114,962	19,642	-0,192	-0,108
115,976	121,291	-0,367	-0,320
116,991	-77,117	-0,280	-0,068
118,006	119,429	-0,171	-0,148
119,020	800,000	-0,061	-0,139
120,035	92,883	-0,229	-0,180
121,049	56,255	-0,355	-0,240
122,064	-157,089	-0,289	-0,012
123,079	-118,284	-0,268	-0,033
124,093	342,582	-0,165	-0,227
125,108	-58,892	-0,240	-0,072
126,122	96,308	-0,268	-0,214
127,137	160,992	-0,271	-0,264
128,151	-62,745	-0,260	-0,075
129,166	30,843	-0,202	-0,121
130,181	182,081	-0,209	-0,215
131,195	18,154	-0,254	-0,141
132,210	256,471	-0,232	-0,279
133,224	-43,101	-0,282	-0,099
134,239	-15,755	-0,221	-0,098
135,254	591,368	-0,112	-0,194
136,268	-12,851	-0,303	-0,137
137,283	72,788	-0,278	-0,202
138,297	-2,928	-0,344	-0,167
139,312	-15,900	-0,291	-0,129
140,327	13,958	-0,248	-0,134
141,341	9,512	-0,345	-0,182
142,356	113,110	-0,240	-0,203
143,370	-105,207	-0,236	-0,037
144,385	245,255	-0,280	-0,330
145,400	549,876	-0,217	-0,365
146,414	278,478	-0,179	-0,223
147,429	84,070	-0,264	-0,201
148,443	366,880	-0,165	-0,234
149,458	-22,126	-0,218	-0,092
150,473	639,025	-0,155	-0,275
151,487	-101,681	-0,267	-0,045
152,502	72,770	-0,266	-0,194
153,516	20,833	-0,385	-0,217
154,531	151,979	-0,162	-0,154
155,546	77,332	-0,238	-0,176
156,560	128,294	-0,238	-0,211
157,575	60,183	-0,114	-0,078
158,589	-59,127	-0,274	-0,082
159,604	48,609	-0,307	-0,200
160,619	-13,459	-0,265	-0,119
161,633	219,280	-0,180	-0,201
162,648	57,972	-0,126	-0,086
163,662	-51,785	-0,271	-0,087
164,677	-21,478	-0,195	-0,082
165,692	154,271	-0,172	-0,164
166,706	-8,138	-0,316	-0,148
167,721	-12,372	-0,310	-0,140
168,735	123,075	-0,163	-0,142
169,750	-86,808	-0,285	-0,060
170,764	99,032	-0,231	-0,186
171,779	18,628	-0,188	-0,104
172,794	89,837	-0,234	-0,182
173,808	198,203	-0,139	-0,148
174,823	22,023	-0,276	-0,156
175,837	398,026	-0,201	-0,294
176,852	669,996	-0,135	-0,244
177,867	219,138	-0,125	-0,139
178,881	-32,917	-0,179	-0,069
179,896	95,146	-0,110	-0,087
180,910	3,907	-0,225	-0,114
181,925	65,795	-0,259	-0,182
182,940	112,566	-0,341	-0,287
183,954	800,000	-0,100	-0,229
184,969	120,149	-0,203	-0,175
185,983	228,468	-0,155	-0,176
186,998	73,817	-0,208	-0,151
188,013	356,927	-0,172	-0,240
189,027	552,613	-0,152	-0,255
190,042	279,968	-0,139	-0,173
191,056	226,946	-0,205	-0,231
192,071	334,246	-0,158	-0,213
193,086	17,665	-0,253	-0,140
194,100	800,000	-0,015	-0,041
195,115	77,187	-0,211	-0,156
196,129	34,629	-0,140	-0,085
197,144	60,220	-0,162	-0,111
198,159	183,222	-0,249	-0,256
199,173	164,802	-0,138	-0,136
200,188	20,396	-0,255	-0,142
201,202	30,521	-0,211	-0,125
202,217	85,191	-0,119	-0,090
203,232	-76,737	-0,342	-0,083
204,246	240,321	-0,192	-0,222
205,261	153,940	-0,316	-0,300
206,275	47,920	-0,200	-0,129
207,290	-36,748	-0,292	-0,108
208,304	513,232	-0,086	-0,140
209,319	-43,390	-0,125	-0,044
210,334	-103,224	-0,203	-0,033
211,348	766,761	-0,138	-0,262
212,363	-67,835	-0,293	-0,079
213,377	82,160	-0,264	-0,198
214,392	-106,920	-0,190	-0,029
215,407	137,889	-0,151	-0,137
216,421	-122,944	-0,195	0,021
217,436	12,393	-0,203	-0,108
218,450	105,249	-0,357	-0,292
219,465	148,616	-0,164	-0,153
220,480	218,213	-0,107	-0,118
221,494	383,444	-0,115	-0,165
222,509	18,401	-0,262	-0,145
223,523	-48,521	-0,183	-0,061
224,538	-17,450	-0,245	-0,106
225,553	174,162	-0,204	-0,205
226,567	-37,076	-0,277	-0,102
227,582	48,582	-0,257	-0,166
228,596	800,000	-0,073	-0,219
229,611	-184,441	-0,168	0,002
230,626	144,464	-0,151	-0,140
231,640	173,478	-0,129	-0,129
232,655	-48,568	-0,286	-0,095
233,669	-15,824	-0,335	-0,147
234,684	224,259	-0,261	-0,292
235,699	-22,796	-0,211	-0,088
236,713	23,468	-0,224	-0,127
237,728	76,173	-0,227	-0,166
238,742	120,359	-0,202	-0,173
239,757	-109,712	-0,167	-0,024
240,772	-135,991	-0,216	0,017
241,786	489,150	-0,161	-0,255
242,801	59,377	-0,179	-0,122
243,815	-67,174	-0,076	-0,021
244,830	-115,257	-0,066	-0,009
245,844	26,192	-0,204	-0,117
246,859	122,822	-0,112	-0,097
247,874	284,520	-0,209	-0,260
248,888	76,386	-0,176	-0,129
249,903	184,202	-0,134	-0,138
250,917	-47,198	-0,154	-0,052
251,932	-86,173	-0,172	-0,036
252,947	800,000	-0,085	-0,229
253,961	452,942	-0,171	-0,262
254,976	-17,935	-0,216	-0,093
255,990	-200,000	-0,020	-0,183
257,005	424,261	-0,131	-0,195
258,020	478,570	-0,064	-0,100
259,034	-43,401	-0,111	0,039
260,049	-143,586	-0,297	-0,019
261,063	-53,065	-0,151	-0,048
262,078	-200,000	-0,109	-0,344
263,093	159,317	-0,120	-0,115
264,107	-85,510	-0,215	-0,046
265,122	388,078	-0,164	-0,235
266,136	47,284	-0,185	-0,119
267,151	-5,386	-0,270	-0,128
268,166	245,368	-0,205	-0,239
269,180	-73,687	-0,193	-0,048
270,195	37,168	-0,148	-0,090
271,209	-34,790	-0,109	-0,041
272,224	800,000	-0,051	-0,118
273,239	305,375	-0,124	-0,159
274,253	-104,193	-0,175	0,028
275,268	-76,555	-0,245	-0,059
276,282	-27,253	-0,167	-0,067
277,297	182,731	-0,199	-0,203
278,312	204,479	-0,108	-0,115
279,326	40,798	-0,081	-0,050
280,341	-115,425	-0,119	0,015
281,355	-85,662	-0,084	0,018
282,370	160,080	-0,232	-0,223
283,384	403,843	-0,116	-0,169
284,399	408,912	-0,151	-0,221
285,414	30,500	-0,209	-0,123
286,428	-33,354	-0,166	-0,063
287,443	133,526	-0,185	-0,165
288,457	-4,393	-0,261	0,124
289,472	-36,647	-0,107	-0,040
290,487	605,195	-0,104	-0,180
291,501	129,178	-0,257	-0,226
292,516	-113,921	-0,227	-0,030
293,530	-78,378	-0,133	-0,031
294,545	21,126	-0,056	0,031
295,560	-141,167	-0,181	-0,013
296,574	-42,295	-0,191	-0,067
297,589	16,556	-0,256	-0,139
298,603	213,158	-0,309	-0,337
299,618	-200,000	-0,021	-0,126
300,633	82,503	-0,272	-0,203
301,647	-43,049	-0,069	-0,024
302,662	141,148	-0,108	-0,099
303,676	190,078	-0,212	-0,219
304,691	364,399	-0,100	-0,139
305,706	315,122	-0,128	-0,167
306,720	27,158	-0,202	-0,117
307,735	-164,775	-0,083	-0,003
308,749	36,690	-0,171	-0,103
309,764	3,833	-0,117	-0,058
310,779	-200,000	-0,025	-0,080
311,793	116,587	-0,195	-0,164
312,808	-5,198	-0,233	-0,110
313,822	-10,291	-0,119	-0,054
314,837	-200,000	-0,047	-0,209
315,852	25,651	-0,050	0,028
316,866	-107,861	-0,147	-0,022
317,881	-177,688	-0,217	0,004
318,895	-24,852	-0,226	-0,092
319,910	-117,712	-0,108	-0,013
320,925	-200,000	-0,062	-0,245
321,939	199,763	-0,154	-0,163
322,954	-49,914	-0,092	-0,030
323,968	257,967	-0,096	-0,114
324,983	800,000	-0,024	-0,072
325,997	19,590	-0,220	-0,121
327,012	33,665	-0,191	-0,113
328,027	339,445	-0,132	-0,178
329,041	109,353	-0,144	-0,119
330,056	245,472	-0,157	-0,181
331,070	-65,101	-0,086	-0,024
332,085	-108,022	-0,084	-0,012
333,100	-24,282	-0,235	-0,096
334,114	-200,000	-0,051	-0,241
335,129	280,451	-0,106	-0,130
336,143	-33,655	-0,241	-0,091
337,158	-32,788	-0,082	-0,031
338,173	130,233	-0,146	0,129
339,187	-0,159	-0,212	-0,103
340,202	-109,909	-0,162	-0,023
341,216	-1,970	-0,179	-0,086
342,231	102,300	-0,145	-0,116
343,246	-101,320	-0,306	-0,051
344,260	604,200	-0,029	-0,050
345,275	586,813	-0,044	-0,074
346,289	-131,068	-0,093	-0,008
347,304	203,713	-0,210	-0,223
348,319	-9,821	-0,114	-0,052
349,333	800,000	-0,075	-0,146
350,348	-38,843	-0,143	0,051
351,362	-135,769	-0,180	-0,014
352,377	-200,000	-0,030	-0,091
353,392	-74,702	-0,124	0,030
354,406	790,963	-0,125	-0,236
355,421	207,790	1315,778	1408,982
356,435	159,857	1476,617	1409,458
