DTS Sentinel unit serial number:	SN410029Multiplexer serial number:	ORYXHardware model number:	OX2-SRSoftware version number:	ORYX F/W v4,00 Oryx Data Collector v3.7.2.0data status	okinstallation	B3 Nyhavnadifferential loss correction	single-endedforward channel	channel 1reverse channel	N/Adate	2023/12/02time	11:52:30forward acquisition time	300,00reverse acquisition time	0,00gamma	499,1914k internal	0,3199k external	0,3199temperature offset calibration	1,0000default loss term (dB/km)	0,3820temperature slope calibration	1,0000multiplexer offset coefficient	1,0000multiplexer slope coefficient	1,0000fibre end	0,00T internal ref (°C)	13,99T ext. ref 1 (°C)	-1,04T ext. ref 2 (°C)	-1,06length (m)	temperature (°C)	Stokes	anti-Stokes-744,400	800,000	-0,102	-0,269
-743,385	800,000	-0,123	0,344
-742,371	16,857	-0,199	-0,114
-741,356	-200,000	0,008	0,324
-740,342	124,484	-0,252	-0,231
-739,327	-200,000	-0,020	0,254
-738,312	252,427	-0,180	-0,224
-737,298	152,707	-0,128	0,128
-736,283	-200,000	-0,040	-0,157
-735,269	-200,000	0,030	0,290
-734,254	13,899	-0,303	-0,171
-733,239	181,426	-0,127	0,136
-732,225	-200,000	-0,008	-0,110
-731,210	-200,000	-0,006	0,228
-730,196	198,441	-0,058	0,065
-729,181	-108,618	-0,053	-0,008
-728,167	-44,103	-0,049	-0,018
-727,152	-103,104	0,126	-0,022
-726,137	-108,000	-0,131	-0,020
-725,123	-13,952	-0,026	-0,012
-724,108	-200,000	0,016	-0,062
-723,094	412,808	-0,087	-0,135
-722,079	-200,000	0,006	-0,180
-721,064	77,237	-0,062	-0,048
-720,050	1,117	-0,032	-0,017
-719,035	-200,000	0,014	0,071
-718,021	85,085	-0,070	-0,056
-717,006	-36,178	-0,049	0,019
-715,991	40,248	-0,176	-0,115
-714,977	-68,661	-0,119	-0,033
-713,962	-12,059	-0,097	-0,046
-712,948	750,721	0,087	0,172
-711,933	800,000	-0,031	0,093
-710,918	299,415	-0,023	-0,030
-709,904	104,878	-0,072	-0,062
-708,889	-66,751	0,083	-0,024
-707,875	84,013	-0,092	0,073
-706,860	79,439	0,074	-0,058
-705,845	633,571	-0,063	0,117
-704,831	-161,124	0,141	0,005
-703,816	-200,000	0,010	0,113
-702,802	-158,741	-0,151	-0,006
-701,787	322,825	-0,070	-0,097
-700,772	599,297	-0,063	-0,115
-699,758	-108,931	-0,124	-0,019
-698,743	81,029	-0,155	0,121
-697,729	-19,905	0,106	0,048
-696,714	483,628	-0,070	0,116
-695,699	-97,743	-0,044	-0,008
-694,685	290,552	-0,036	-0,048
-693,670	212,554	-0,043	0,049
-692,656	404,734	-0,053	0,081
-691,641	800,000	-0,049	-0,155
-690,627	800,000	0,027	0,060
-689,612	-123,832	-0,118	-0,013
-688,597	261,771	0,062	0,079
-687,583	-55,866	-0,107	0,034
-686,568	800,000	0,037	0,116
-685,554	-200,000	0,007	-0,072
-684,539	-57,748	-0,098	0,031
-683,524	-200,000	-0,009	0,160
-682,510	-42,736	-0,051	0,019
-681,495	-200,000	0,005	-0,123
-680,481	-106,711	-0,134	-0,021
-679,466	4,553	-0,090	-0,048
-678,451	134,226	-0,062	-0,058
-677,437	-200,000	-0,005	0,032
-676,422	-24,248	0,040	-0,017
-675,408	322,910	-0,071	0,098
-674,393	202,687	0,052	-0,059
-673,378	-84,551	-0,134	0,030
-672,364	152,486	-0,085	-0,084
-671,349	800,000	-0,012	0,038
-670,335	800,000	0,011	0,026
-669,320	-149,107	-0,156	-0,009
-668,305	176,509	-0,009	0,010
-667,291	-200,000	-0,015	-0,125
-666,276	-18,858	-0,148	-0,066
-665,262	-102,115	-0,098	-0,017
-664,247	-200,000	-0,011	0,118
-663,232	-173,790	-0,116	-0,002
-662,218	-21,364	-0,066	0,029
-661,203	82,808	0,074	0,058
-660,189	-82,502	-0,044	-0,010
-659,174	-200,000	-0,058	-0,186
-658,159	205,314	-0,059	-0,066
-657,145	-54,765	0,068	0,022
-656,130	110,047	0,144	-0,125
-655,116	-39,756	0,068	0,026
-654,101	-63,000	-0,135	0,040
-653,086	81,347	-0,043	-0,034
-652,072	-44,127	-0,147	-0,053
-651,057	8,538	-0,071	0,038
-650,043	110,184	-0,084	0,073
-649,028	319,395	-0,075	-0,103
-648,014	-4,004	-0,083	0,042
-646,999	504,073	0,061	0,102
-645,984	555,292	-0,018	0,031
-644,970	-200,000	0,021	0,219
-643,955	800,000	-0,040	0,092
-642,941	800,000	-0,047	-0,111
-641,926	-200,000	0,040	0,130
-640,911	-9,617	-0,059	0,028
-639,897	-200,000	0,017	-0,074
-638,882	-200,000	-0,023	0,077
-637,868	-200,000	0,029	0,093
-636,853	79,152	0,042	0,033
-635,838	55,044	-0,194	-0,135
-634,824	-7,968	-0,050	-0,024
-633,809	-200,000	0,000	0,046
-632,795	-200,000	-0,009	0,102
-631,780	-200,000	-0,019	0,125
-630,765	-200,000	-0,027	-0,156
-629,751	-42,871	0,054	-0,020
-628,736	-200,000	-0,033	-0,109
-627,722	114,035	-0,025	-0,022
-626,707	800,000	-0,017	0,053
-625,692	346,442	-0,078	0,112
-624,678	-200,000	0,026	0,096
-623,663	9,056	0,003	-0,002
-622,649	-74,503	-0,141	0,036
-621,634	163,375	-0,059	-0,060
-620,619	144,587	-0,096	-0,093
-619,605	-138,858	0,171	-0,013
-618,590	-97,243	0,185	0,035
-617,576	204,179	0,077	0,087
-616,561	71,483	0,047	-0,035
-615,546	800,000	0,038	-0,099
-614,532	800,000	0,029	-0,091
-613,517	-200,000	0,012	0,047
-612,503	-200,000	0,025	0,157
-611,488	56,862	0,010	0,007
-610,474	-200,000	0,011	0,217
-609,459	445,514	-0,091	0,145
-608,444	306,500	0,012	0,016
-607,430	88,478	0,054	-0,043
-606,415	93,112	-0,114	-0,093
-605,401	-72,580	-0,109	0,029
-604,386	2,754	0,167	0,087
-603,371	-200,000	-0,015	0,150
-602,357	-112,880	0,072	-0,010
-601,342	463,468	-0,006	-0,010
-600,328	-45,378	-0,193	-0,069
-599,313	-174,903	0,047	0,001
-598,298	800,000	0,055	0,134
-597,284	-23,432	-0,169	0,073
-596,269	-0,942	-0,065	0,033
-595,255	-200,000	-0,002	0,096
-594,240	51,096	-0,089	-0,061
-593,225	-106,142	-0,024	0,004
-592,211	-200,000	0,021	0,117
-591,196	-28,817	-0,063	0,026
-590,182	-82,325	0,084	-0,020
-589,167	800,000	0,039	0,079
-588,152	-83,862	-0,071	0,016
-587,138	-200,000	-0,008	-0,065
-586,123	616,570	-0,058	-0,106
-585,109	-200,000	0,013	-0,062
-584,094	37,356	0,089	-0,057
-583,079	-200,000	-0,029	0,115
-582,065	68,487	-0,066	0,049
-581,050	800,000	0,034	0,104
-580,036	-200,000	-0,001	-0,037
-579,021	680,135	0,042	0,080
-578,006	-61,899	-0,180	-0,054
-576,992	-200,000	-0,016	-0,096
-575,977	55,408	0,045	-0,032
-574,963	752,841	0,002	-0,005
-573,948	-134,739	0,120	0,010
-572,934	269,264	0,048	0,061
-571,919	-125,240	-0,142	0,015
-570,904	-117,631	-0,041	-0,005
-569,890	800,000	-0,039	-0,097
-568,875	274,709	-0,036	0,046
-567,861	-200,000	0,000	-0,036
-566,846	63,094	-0,038	-0,028
-565,831	294,840	-0,030	-0,039
-564,817	342,391	-0,052	-0,074
-563,802	-69,699	-0,105	0,029
-562,788	44,513	-0,090	0,060
-561,773	93,624	0,084	0,069
-560,758	-138,660	0,079	0,006
-559,744	-200,000	-0,003	-0,014
-558,729	-4,892	-0,046	-0,023
-557,715	-105,013	-0,068	0,011
-556,700	-200,000	-0,012	-0,079
-555,685	193,027	0,065	-0,071
-554,671	-152,510	0,111	-0,006
-553,656	38,913	0,048	-0,031
-552,642	40,257	0,145	0,094
-551,627	156,580	0,078	0,078
-550,612	102,381	0,121	-0,102
-549,598	133,529	-0,154	-0,144
-548,583	186,982	-0,008	-0,008
-547,569	10,632	-0,053	-0,029
-546,554	-200,000	0,007	0,136
-545,539	28,657	0,036	0,022
-544,525	800,000	-0,037	0,086
-543,510	123,828	0,053	-0,048
-542,496	298,640	-0,032	-0,043
-541,481	-200,000	-0,003	0,039
-540,466	-118,466	-0,107	0,014
-539,452	42,879	0,051	-0,033
-538,437	-200,000	0,033	0,208
-537,423	30,450	-0,110	-0,068
-536,408	-126,742	0,114	0,012
-535,393	-106,111	-0,145	-0,023
-534,379	800,000	-0,028	-0,079
-533,364	-200,000	-0,004	0,077
-532,350	285,099	-0,042	0,055
-531,335	25,013	-0,060	0,036
-530,321	-75,727	-0,095	0,024
-529,306	52,606	0,031	0,021
-528,291	-128,323	-0,083	-0,008
-527,277	483,914	0,008	-0,014
-526,262	-43,283	0,039	0,014
-525,248	336,054	-0,115	-0,162
-524,233	175,893	-0,046	-0,048
-523,218	17,487	0,035	-0,020
-522,204	-200,000	0,004	-0,043
-521,189	-200,000	0,027	-0,088
-520,175	-3,604	-0,076	-0,038
-519,160	426,122	0,080	0,124
-518,145	163,158	-0,078	-0,080
-517,131	34,982	0,091	0,057
-516,116	26,670	0,079	0,047
-515,102	800,000	-0,015	0,035
-514,087	-114,370	-0,092	0,013
-513,072	-105,446	-0,068	-0,011
-512,058	117,042	-0,143	-0,127
-511,043	-200,000	0,020	-0,079
-510,029	243,739	0,021	0,026
-509,014	379,405	0,063	0,094
-507,999	-200,000	0,009	-0,035
-506,985	-129,503	-0,017	-0,002
-505,970	110,295	0,063	-0,054
-504,956	-115,215	-0,102	0,014
-503,941	-200,000	-0,012	-0,087
-502,926	-171,125	-0,088	0,002
-501,912	-125,088	0,066	0,007
-500,897	800,000	-0,040	0,124
-499,883	495,369	-0,020	-0,034
-498,868	800,000	-0,047	-0,126
-497,853	-200,000	0,004	0,018
-496,839	67,163	-0,069	-0,051
-495,824	-45,244	0,027	-0,010
-494,810	-200,000	-0,029	-0,094
-493,795	279,405	-0,052	0,067
-492,781	800,000	0,031	-0,092
-491,766	800,000	0,085	-0,182
-490,751	800,000	-0,067	0,153
-489,737	250,331	-0,029	-0,036
-488,722	-200,000	0,029	0,100
-487,708	-30,504	-0,019	-0,008
-486,693	82,011	-0,071	0,055
-485,678	-200,000	0,016	0,096
-484,664	61,987	-0,113	0,081
-483,649	88,637	-0,072	-0,057
-482,635	-157,365	0,117	0,005
-481,620	-33,508	0,104	0,041
-480,605	136,427	0,103	-0,097
-479,591	-27,598	-0,123	0,051
-478,576	124,865	0,031	-0,028
-477,562	147,796	-0,044	-0,042
-476,547	415,346	-0,029	0,044
-475,532	-80,209	0,092	-0,022
-474,518	464,105	-0,051	-0,083
-473,503	-154,238	-0,064	-0,003
-472,489	96,600	0,108	0,089
-471,474	-105,566	0,087	-0,014
-470,459	800,000	-0,052	-0,107
-469,445	-189,392	0,044	-0,000
-468,430	58,682	-0,091	0,064
-467,416	-200,000	-0,009	0,046
-466,401	-104,460	-0,007	0,001
-465,386	188,084	0,016	-0,017
-464,372	-36,228	-0,101	0,039
-463,357	238,627	-0,024	0,029
-462,343	101,009	-0,152	-0,127
-461,328	168,308	0,077	-0,079
-460,313	-200,000	-0,011	-0,112
-459,299	220,540	0,074	-0,085
-458,284	800,000	0,015	-0,045
-457,270	-200,000	0,009	0,030
-456,255	-60,246	-0,059	-0,018
-455,241	464,697	0,096	-0,155
-454,226	-81,589	-0,127	-0,030
-453,211	-200,000	-0,053	-0,173
-452,197	51,472	0,138	0,094
-451,182	196,096	0,128	-0,140
-450,168	800,000	-0,012	0,033
-449,153	-87,152	0,041	-0,009
-448,138	-200,000	-0,010	0,088
-447,124	-166,864	-0,029	0,001
-446,109	-8,463	0,024	0,011
-445,095	117,916	0,038	-0,033
-444,080	671,916	-0,034	0,063
-443,065	-92,007	0,124	-0,025
-442,051	-200,000	-0,024	0,097
-441,036	-95,269	0,140	0,027
-440,022	-119,491	-0,222	-0,027
-439,007	-200,000	-0,007	-0,156
-437,992	383,124	-0,046	0,068
-436,978	-24,860	-0,122	0,052
-435,963	800,000	0,041	-0,090
-434,949	800,000	0,014	0,035
-433,934	-113,806	-0,174	0,024
-432,919	413,980	-0,102	-0,156
-431,905	-200,000	-0,037	-0,168
-430,890	-86,828	0,128	-0,028
-429,876	-200,000	-0,032	0,118
-428,861	128,433	-0,007	0,006
-427,846	-200,000	0,001	-0,043
-426,832	271,109	-0,092	-0,116
-425,817	-53,373	-0,042	0,014
-424,803	-24,239	-0,025	-0,011
-423,788	800,000	0,004	0,011
-422,773	-120,102	0,050	0,006
-421,759	-3,207	0,145	0,072
-420,744	-200,000	0,005	-0,028
-419,730	-200,000	0,027	0,088
-418,715	-200,000	-0,003	-0,041
-417,701	20,499	0,026	0,015
-416,686	90,907	0,123	0,099
-415,671	-58,061	0,152	0,047
-414,657	45,121	-0,062	-0,041
-413,642	800,000	0,051	0,115
-412,628	-200,000	-0,003	-0,032
-411,613	87,666	-0,008	-0,006
-410,598	-26,863	0,057	-0,024
-409,584	236,343	0,059	0,070
-408,569	-200,000	0,007	0,032
-407,555	-130,833	0,099	0,009
-406,540	311,768	-0,053	0,071
-405,525	384,982	-0,041	-0,061
-404,511	264,206	0,110	0,138
-403,496	318,565	-0,063	-0,086
-402,482	-200,000	0,008	0,046
-401,467	60,184	0,081	0,057
-400,452	268,183	0,046	0,058
-399,438	31,466	0,028	-0,017
-398,423	-125,814	-0,032	0,003
-397,409	425,185	-0,082	-0,128
-396,394	154,203	-0,027	-0,026
-395,379	92,423	0,076	0,061
-394,365	800,000	0,027	-0,072
-393,350	-98,710	0,112	0,020
-392,336	590,771	-0,017	0,030
-391,321	702,090	0,016	-0,031
-390,306	-158,973	-0,095	-0,004
-389,292	-200,000	0,008	-0,161
-388,277	131,281	0,102	-0,094
-387,263	614,729	0,021	0,037
-386,248	-200,000	-0,021	0,122
-385,233	-153,411	0,087	-0,004
-384,219	13,735	-0,063	0,035
-383,204	228,545	0,030	0,035
-382,190	-200,000	-0,029	-0,095
-381,175	55,360	0,091	0,063
-380,160	-200,000	0,003	-0,035
-379,146	-3,614	0,248	-0,123
-378,131	800,000	0,035	-0,083
-377,117	67,284	0,081	-0,059
-376,102	-200,000	-0,006	-0,039
-375,088	800,000	-0,017	-0,045
-374,073	-200,000	0,009	-0,159
-373,058	-90,043	0,207	-0,043
-372,044	28,396	-0,031	-0,019
-371,029	-200,000	-0,005	0,018
-370,015	2,083	0,011	0,006
-369,000	-200,000	-0,047	0,151
-367,985	36,787	-0,070	0,044
-366,971	-74,735	-0,161	0,041
-365,956	46,865	-0,021	0,014
-364,942	800,000	-0,055	0,138
-363,927	301,084	-0,038	0,051
-362,912	741,693	-0,095	-0,184
-361,898	-200,000	-0,026	-0,117
-360,883	142,725	-0,034	0,032
-359,869	178,596	0,024	0,025
-358,854	-72,498	-0,084	-0,022
-357,839	164,214	0,046	0,046
-356,825	800,000	0,033	0,097
-355,810	1,096	0,065	0,033
-354,796	228,371	0,054	0,063
-353,781	29,179	0,050	0,030
-352,766	-137,874	-0,042	-0,003
-351,752	-200,000	-0,052	-0,166
-350,737	800,000	0,054	0,163
-349,723	-0,244	0,044	-0,023
-348,708	-200,000	-0,007	-0,088
-347,693	-80,035	-0,078	0,019
-346,679	800,000	-0,030	-0,070
-345,664	42,712	0,080	0,052
-344,650	-117,360	0,115	-0,015
-343,635	144,285	-0,058	0,055
-342,620	295,067	-0,034	0,045
-341,606	-17,278	0,093	-0,042
-340,591	262,214	-0,112	-0,140
-339,577	-200,000	-0,016	-0,089
-338,562	-119,885	-0,083	0,010
-337,548	180,687	-0,120	0,127
-336,533	800,000	-0,026	-0,065
-335,518	-90,305	0,023	-0,005
-334,504	120,652	-0,029	-0,026
-333,489	800,000	0,019	0,043
-332,475	277,727	-0,059	-0,076
-331,460	213,613	-0,025	-0,029
-330,445	800,000	0,070	-0,161
-329,431	800,000	-0,018	-0,047
-328,416	376,952	0,050	0,073
-327,402	-64,210	0,056	-0,016
-326,387	37,154	-0,047	0,030
-325,372	-56,436	0,181	-0,057
-324,358	-200,000	-0,000	0,145
-323,343	223,573	0,020	0,023
-322,329	-200,000	-0,011	0,156
-321,314	-200,000	0,012	0,079
-320,299	-70,236	0,085	0,023
-319,285	85,031	0,064	0,050
-318,270	-200,000	-0,030	-0,125
-317,256	125,425	0,074	-0,067
-316,241	-132,260	-0,069	0,006
-315,226	-82,762	0,063	-0,015
-314,212	48,132	0,066	0,044
-313,197	146,522	0,052	0,050
-312,183	275,786	0,037	0,047
-311,168	-117,685	-0,083	0,011
-310,153	106,851	0,041	0,035
-309,139	-83,190	-0,095	0,022
-308,124	235,177	-0,026	0,030
-307,110	55,920	0,082	0,057
-306,095	-200,000	-0,008	0,096
-305,080	230,175	-0,067	0,078
-304,066	-200,000	-0,007	-0,086
-303,051	-91,216	-0,058	0,012
-302,037	-200,000	0,027	-0,159
-301,022	208,640	-0,104	0,116
-300,008	17,163	0,063	-0,035
-298,993	-200,000	0,004	-0,080
-297,978	-91,596	-0,088	0,018
-296,964	181,866	-0,044	0,046
-295,949	615,101	0,063	-0,114
-294,935	-4,119	-0,079	-0,039
-293,920	-60,239	0,149	-0,045
-292,905	-0,782	0,017	-0,008
-291,891	240,563	0,028	0,033
-290,876	412,689	0,033	0,051
-289,862	-88,932	-0,010	0,002
-288,847	-200,000	-0,006	-0,056
-287,832	54,249	0,085	-0,058
-286,818	-140,148	-0,065	0,005
-285,803	203,273	-0,034	0,037
-284,789	-200,000	0,011	0,156
-283,774	-200,000	0,008	0,194
-282,759	-61,063	-0,059	0,018
-281,745	14,651	-0,066	-0,037
-280,730	-15,865	0,137	0,062
-279,716	648,990	-0,035	0,064
-278,701	-200,000	-0,019	-0,131
-277,686	800,000	-0,075	0,165
-276,672	-200,000	0,010	0,116
-275,657	-95,620	-0,114	0,022
-274,643	-200,000	0,009	0,091
-273,628	353,395	-0,063	-0,089
-272,613	-200,000	-0,039	-0,148
-271,599	32,442	-0,062	-0,038
-270,584	-1,196	0,039	0,020
-269,570	-1,154	0,099	0,050
-268,555	-200,000	-0,033	0,131
-267,540	229,263	-0,080	-0,094
-266,526	138,477	0,078	-0,073
-265,511	-28,705	-0,027	-0,011
-264,497	-200,000	-0,016	-0,056
-263,482	-200,000	0,013	0,156
-262,467	-200,000	-0,035	0,178
-261,453	287,453	-0,126	0,164
-260,438	-200,000	0,017	0,098
-259,424	-38,903	0,051	-0,019
-258,409	-75,562	-0,104	0,026
-257,395	380,949	-0,067	0,098
-256,380	440,383	0,078	0,122
-255,365	-59,121	0,164	0,050
-254,351	135,409	-0,071	-0,066
-253,336	-200,000	0,020	-0,072
-252,322	-200,000	0,005	-0,017
-251,307	-200,000	-0,016	-0,150
-250,292	86,812	-0,076	-0,060
-249,278	278,932	0,024	0,031
-248,263	-200,000	0,009	-0,037
-247,249	-40,166	0,189	-0,070
-246,234	43,883	-0,117	-0,076
-245,219	158,008	-0,028	-0,027
-244,205	202,142	0,072	-0,079
-243,190	-134,887	-0,077	-0,007
-242,176	36,200	0,160	0,100
-241,161	231,468	-0,061	-0,071
-240,146	463,822	-0,038	-0,061
-239,132	-128,810	-0,081	-0,008
-238,117	-65,134	0,073	0,021
-237,103	488,751	0,051	-0,083
-236,088	-200,000	-0,010	-0,044
-235,073	-200,000	0,012	0,148
-234,059	255,532	-0,042	0,052
-233,044	-200,000	-0,012	0,047
-232,030	530,161	-0,039	-0,067
-231,015	183,781	0,144	-0,152
-230,000	800,000	0,041	-0,094
-228,986	259,491	-0,027	-0,033
-227,971	134,906	-0,072	0,067
-226,957	-116,474	0,063	-0,008
-225,942	309,150	-0,047	0,062
-224,927	-70,969	0,083	0,022
-223,913	21,986	0,044	-0,026
-222,898	-200,000	-0,018	-0,171
-221,884	39,470	0,171	-0,109
-220,869	-200,000	-0,003	-0,048
-219,855	183,216	-0,035	-0,037
-218,840	-131,488	-0,017	-0,002
-217,825	800,000	0,007	-0,017
-216,811	-200,000	0,023	0,136
-215,796	-200,000	-0,014	0,104
-214,782	183,212	0,101	-0,107
-213,767	-200,000	0,021	-0,078
-212,752	64,898	0,059	-0,042
-211,738	300,787	0,072	0,095
-210,723	-200,000	0,022	0,103
-209,709	-200,000	-0,017	-0,197
-208,694	94,437	0,053	-0,043
-207,679	20,038	0,095	0,055
-206,665	-200,000	-0,030	-0,101
-205,650	-95,071	0,078	-0,015
-204,636	-178,608	0,085	-0,001
-203,621	-200,000	-0,004	0,088
-202,606	800,000	-0,056	-0,146
-201,592	-112,943	0,165	0,023
-200,577	-200,000	0,002	0,164
-199,563	-55,557	0,107	-0,034
-198,548	-80,307	-0,098	-0,023
-197,533	458,554	0,024	0,038
-196,519	-200,000	-0,003	-0,077
-195,504	187,005	-0,018	-0,019
-194,490	-56,030	-0,028	0,009
-193,475	-162,142	0,115	-0,004
-192,460	59,068	0,100	-0,070
-191,446	800,000	0,051	-0,115
-190,431	-200,000	0,046	0,162
-189,417	-53,187	-0,181	-0,059
-188,402	-200,000	-0,004	-0,084
-187,387	10,861	0,075	0,040
-186,373	-93,024	0,091	0,018
-185,358	12,541	-0,103	0,057
-184,344	-45,150	0,074	0,026
-183,329	-57,322	-0,026	-0,008
-182,315	614,888	-0,029	0,053
-181,300	-140,669	-0,050	0,004
-180,285	-200,000	-0,022	-0,092
-179,271	226,128	-0,081	-0,094
-178,256	-151,417	0,113	-0,006
-177,242	44,231	0,076	0,050
-176,227	143,654	0,176	0,167
-175,212	87,626	-0,110	-0,087
-174,198	-2,915	-0,099	0,049
-173,183	363,924	-0,052	-0,074
-172,169	112,130	-0,033	-0,028
-171,154	-104,747	-0,078	0,013
-170,139	105,860	0,085	-0,071
-169,125	22,921	-0,089	-0,052
-168,110	800,000	-0,020	0,049
-167,096	-200,000	0,050	0,202
-166,081	-200,000	0,027	-0,113
-165,066	544,779	-0,052	-0,089
-164,052	665,572	0,015	-0,028
-163,037	189,342	-0,050	-0,054
-162,023	-110,611	0,152	-0,022
-161,008	800,000	0,038	-0,077
-159,993	-200,000	-0,002	0,037
-158,979	695,093	-0,043	0,081
-157,964	53,794	0,059	-0,040
-156,950	-64,697	-0,106	-0,030
-155,935	-60,305	0,055	-0,017
-154,920	364,225	0,042	0,060
-153,906	-24,309	-0,046	0,019
-152,891	-200,000	0,004	0,056
-151,877	800,000	0,060	-0,167
-150,862	800,000	-0,097	-0,204
-149,847	-200,000	0,039	0,170
-148,833	164,909	0,064	0,064
-147,818	-37,217	0,136	0,052
-146,804	-200,000	0,015	-0,052
-145,789	-200,000	-0,005	-0,065
-144,775	-200,000	0,004	-0,118
-143,760	546,408	0,020	-0,035
-142,745	-107,588	0,152	-0,023
-141,731	-200,000	-0,035	-0,135
-140,716	-152,864	-0,055	-0,003
-139,702	130,986	0,030	-0,027
-138,687	-16,493	-0,092	0,041
-137,672	-200,000	-0,013	-0,113
-136,658	-138,742	-0,156	0,012
-135,643	520,427	-0,072	-0,121
-134,629	-69,510	0,033	0,009
-133,614	-41,772	-0,108	0,039
-132,599	336,770	-0,015	0,020
-131,585	584,150	0,010	0,017
-130,570	164,141	0,038	0,038
-129,556	120,140	0,049	-0,044
-128,541	-200,000	-0,002	0,088
-127,526	421,468	-0,069	-0,105
-126,512	-158,031	-0,030	-0,001
-125,497	-143,476	-0,193	-0,013
-124,483	800,000	0,042	0,112
-123,468	-10,563	0,120	0,056
-122,453	800,000	0,045	-0,105
-121,439	-200,000	0,017	-0,080
-120,424	86,266	-0,049	-0,038
-119,410	213,493	-0,004	0,004
-118,395	-200,000	0,012	0,037
-117,380	-200,000	0,016	0,166
-116,366	800,000	0,061	0,123
-115,351	-17,682	-0,078	-0,035
-114,337	702,844	-0,032	-0,060
-113,322	800,000	-0,027	-0,058
-112,307	-96,396	0,033	-0,006
-111,293	-10,062	-0,060	0,028
-110,278	-200,000	-0,019	0,072
-109,264	-200,000	0,028	0,139
-108,249	-200,000	-0,027	0,117
-107,234	696,418	-0,018	-0,033
-106,220	134,730	-0,072	-0,067
-105,205	83,639	0,054	-0,042
-104,191	154,021	0,097	0,094
-103,176	71,871	-0,085	0,063
-102,162	-200,000	0,010	0,047
-101,147	-200,000	-0,006	0,038
-100,132	-200,000	-0,030	-0,123
-99,118	410,690	-0,075	-0,113
-98,103	353,067	-0,093	-0,131
-97,089	-33,047	0,088	-0,035
-96,074	-200,000	0,011	-0,036
-95,059	-103,348	-0,116	0,019
-94,045	24,426	-0,037	0,022
-93,030	72,785	0,054	-0,040
-92,016	800,000	0,044	-0,102
-91,001	172,825	-0,044	0,045
-89,986	-58,384	0,134	-0,041
-88,972	-41,082	-0,087	0,032
-87,957	377,099	0,040	-0,058
-86,943	55,225	-0,092	-0,063
-85,928	160,621	-0,088	-0,087
-84,913	-200,000	0,007	-0,096
-83,899	-200,000	-0,028	-0,211
-82,884	-4,732	0,035	0,017
-81,870	800,000	0,032	0,071
-80,855	-119,873	-0,082	0,010
-79,840	-51,871	-0,108	-0,035
-78,826	278,052	0,026	-0,033
-77,811	-67,299	0,130	-0,036
-76,797	317,269	0,052	-0,070
-75,782	-130,314	0,099	-0,009
-74,767	74,873	0,052	-0,039
-73,753	-200,000	-0,018	-0,108
-72,738	-200,000	-0,009	-0,061
-71,724	-200,000	0,002	-0,085
-70,709	13,696	-0,076	-0,042
-69,694	115,181	0,006	0,005
-68,680	-39,080	0,069	0,026
-67,665	363,283	0,047	0,066
-66,651	-200,000	-0,019	0,086
-65,636	800,000	0,025	-0,075
-64,622	-161,694	0,096	0,003
-63,607	75,165	-0,217	-0,162
-62,592	-200,000	0,005	0,017
-61,578	72,377	0,043	0,032
-60,563	-200,000	0,020	-0,102
-59,549	800,000	-0,065	0,145
-58,534	-38,140	-1,559	-0,583
-57,519	388,987	-1,411	-2,077
-56,505	-200,000	-0,580	-4,514
-55,490	221,848	0,951	1,085
-54,476	800,000	4,907	11,340
-53,461	-200,000	18,819	309,106
-52,446	800,000	738,815	2309,899
-51,432	570,838	1655,028	2864,693
-50,417	78,953	1670,277	1265,309
-49,403	21,972	1543,015	888,958
-48,388	15,876	1465,606	814,737
-47,373	17,878	1455,712	818,874
-46,359	16,934	1445,817	808,748
-45,344	14,118	1441,337	792,724
-44,330	14,053	1439,160	791,186
-43,315	14,038	1437,664	790,262
-42,300	14,049	1435,820	789,270
-41,286	14,079	1434,695	788,763
-40,271	14,031	1433,392	787,784
-39,257	14,042	1432,137	787,116
-38,242	14,135	1430,672	786,722
-37,227	14,101	1429,680	785,986
-36,213	14,120	1428,289	785,281
-35,198	14,085	1427,048	784,399
-34,184	14,131	1426,466	784,267
-33,169	14,072	1424,791	783,033
-32,154	14,095	1423,874	782,611
-31,140	14,112	1422,580	781,946
-30,125	14,145	1421,506	781,481
-29,111	14,132	1420,275	780,714
-28,096	14,080	1419,238	779,865
-27,082	14,029	1418,174	779,012
-26,067	14,023	1416,981	778,297
-25,052	14,014	1415,962	777,665
-24,038	13,997	1415,164	777,112
-23,023	13,976	1414,013	776,351
-22,009	13,986	1413,132	775,884
-20,994	13,994	1412,029	775,284
-19,979	13,986	1411,274	774,801
-18,965	13,935	1410,351	774,028
-17,950	13,955	1409,332	773,528
-16,936	13,942	1408,355	772,903
-15,921	13,923	1407,436	772,280
-14,906	13,905	1406,560	771,682
-13,892	13,930	1405,426	771,145
-12,877	13,968	1404,714	770,902
-11,863	13,904	1403,767	770,056
-10,848	13,906	1403,046	769,636
-9,833	13,875	1402,028	768,906
-8,819	13,882	1401,025	768,356
-7,804	13,853	1400,185	767,732
-6,790	13,848	1399,030	767,041
-5,775	13,857	1398,033	766,505
-4,760	13,825	1397,161	765,849
-3,746	13,843	1396,161	765,356
-2,731	13,819	1395,669	764,943
-1,717	13,845	1394,539	764,414
-0,702	13,811	1392,826	763,290
0,313	17,652	1310,771	736,127
1,327	34,082	705,577	434,310
2,342	52,179	124,068	83,585
3,356	2,080	16,645	8,481
4,371	3,128	3,370	1,729
5,386	50,028	0,510	0,340
6,400	-200,000	0,017	0,210
7,415	-58,584	-0,203	-0,062
8,429	197,151	-0,214	-0,231
9,444	36,002	-0,363	-0,225
10,459	83,620	-0,242	-0,186
11,473	49,935	-0,356	-0,237
12,488	119,494	-0,142	-0,124
13,502	9,238	-0,373	-0,199
14,517	173,134	-0,287	-0,293
15,531	154,155	-0,300	-0,291
16,546	100,596	-0,391	-0,321
17,561	132,600	-0,463	-0,422
18,575	-124,100	-0,264	-0,029
19,590	38,841	-0,183	-0,115
20,604	-1,678	-0,259	-0,129
21,619	98,990	-0,440	-0,359
22,634	10,653	-0,579	-0,311
23,648	188,359	-0,410	-0,434
24,663	45,132	-0,503	-0,327
25,677	174,734	-0,287	-0,294
26,692	115,752	-0,373	-0,322
27,707	31,309	-0,398	-0,241
28,721	178,655	-0,270	-0,279
29,736	-5,921	-0,424	-0,204
30,750	170,320	-0,376	-0,380
31,765	79,986	-0,529	-0,401
32,780	48,017	-0,245	-0,161
33,794	272,995	-0,282	-0,353
34,809	378,120	-0,256	-0,370
35,823	177,191	-0,337	-0,347
36,838	53,339	-0,421	-0,284
37,853	40,572	-0,383	-0,243
38,867	23,830	-0,377	-0,219
39,882	255,730	-0,309	-0,374
40,896	30,353	-0,414	-0,249
41,911	85,246	-0,357	-0,276
42,926	-1,698	-0,417	-0,207
43,940	51,276	-0,396	-0,264
44,955	-2,973	-0,402	-0,197
45,969	223,513	-0,229	-0,261
46,984	141,652	-0,256	-0,239
47,999	30,018	-0,434	-0,260
49,013	60,512	-0,390	-0,272
50,028	9,998	-0,343	-0,183
51,042	-3,728	-0,373	-0,182
52,057	24,409	-0,450	-0,262
53,071	68,076	-0,325	-0,234
54,086	-18,006	-0,306	-0,134
55,101	-0,737	-0,303	-0,151
56,115	288,211	-0,258	-0,330
57,130	93,578	-0,382	-0,304
58,144	4,836	-0,481	-0,248
59,159	129,751	-0,287	-0,258
60,174	-10,109	-0,342	-0,159
61,188	42,472	-0,362	-0,231
62,203	-9,734	-0,372	-0,174
63,217	-51,385	-0,273	-0,089
64,232	214,155	-0,360	-0,402
65,247	25,830	-0,346	-0,202
66,261	8,736	-0,403	-0,213
67,276	-39,090	-0,341	-0,126
68,290	195,394	-0,156	-0,167
69,305	23,668	-0,269	-0,155
70,320	258,131	-0,254	-0,309
71,334	151,968	-0,279	-0,268
72,349	-14,745	-0,300	-0,135
73,363	41,173	-0,342	-0,217
74,378	339,142	-0,223	-0,307
75,393	103,479	-0,306	-0,252
76,407	97,003	-0,275	-0,221
77,422	-191,357	-0,367	-0,003
78,436	41,459	-0,278	-0,177
79,451	70,322	-0,305	-0,221
80,466	16,255	-0,353	-0,195
81,480	98,845	-0,369	-0,300
82,495	138,820	-0,396	-0,366
83,509	31,970	-0,369	-0,223
84,524	50,555	-0,305	-0,202
85,539	167,796	-0,214	-0,214
86,553	239,857	-0,153	-0,179
87,568	-25,174	-0,317	-0,131
88,582	135,797	-0,328	-0,300
89,597	71,991	-0,238	-0,174
90,611	142,041	-0,191	-0,178
91,626	123,658	-0,307	-0,271
92,641	-10,872	-0,247	-0,114
93,655	-12,455	-0,321	-0,147
94,670	-125,019	-0,383	-0,041
95,684	95,048	-0,332	-0,265
96,699	-8,775	-0,348	-0,163
97,714	-9,344	-0,308	-0,144
98,728	4,013	-0,309	-0,158
99,743	-64,265	-0,203	-0,058
100,757	90,759	-0,263	-0,207
101,772	43,147	-0,258	-0,165
102,787	48,153	-0,193	-0,127
103,801	352,583	-0,157	-0,219
104,816	237,382	-0,276	-0,321
105,830	-18,924	-0,296	-0,129
106,845	-157,479	-0,250	0,010
107,860	61,845	-0,302	-0,211
108,874	173,024	-0,136	-0,138
109,889	-79,555	-0,265	-0,062
110,903	-30,332	-0,282	-0,112
111,918	-20,154	-0,248	-0,107
112,933	-83,500	-0,371	-0,083
113,947	130,045	-0,220	-0,197
114,962	178,135	-0,269	-0,276
115,976	84,801	-0,331	-0,254
116,991	331,075	-0,272	-0,368
118,006	95,309	-0,319	-0,255
119,020	189,024	-0,124	-0,130
120,035	-10,783	-0,287	-0,132
121,049	104,978	-0,248	-0,205
122,064	78,262	-0,216	-0,161
123,079	207,040	-0,183	-0,200
124,093	17,432	-0,325	-0,180
125,108	189,767	-0,256	-0,269
126,122	133,989	-0,210	-0,191
127,137	579,644	-0,142	-0,245
128,151	-39,235	-0,211	-0,077
129,166	-45,686	-0,222	-0,076
130,181	239,693	-0,182	-0,213
131,195	58,336	-0,215	-0,148
132,210	316,989	-0,179	-0,237
133,224	158,468	-0,286	-0,278
134,239	-138,671	-0,280	-0,021
135,254	179,602	-0,258	-0,264
136,268	28,950	-0,210	-0,124
137,283	74,436	-0,284	-0,209
138,297	77,168	-0,325	-0,242
139,312	134,329	-0,220	-0,199
140,327	-15,393	-0,363	-0,161
141,341	-29,395	-0,205	-0,082
142,356	13,989	-0,269	-0,146
143,370	-67,648	-0,209	-0,057
144,385	-0,805	-0,216	-0,107
145,400	166,066	-0,285	-0,282
146,414	165,259	-0,238	-0,235
147,429	7,965	-0,400	-0,209
148,443	-41,249	-0,212	-0,076
149,458	-79,016	-0,160	-0,038
150,473	287,891	-0,226	-0,287
151,487	-140,824	-0,241	-0,017
152,502	-26,817	-0,327	-0,133
153,516	444,936	-0,146	-0,225
154,531	-30,527	-0,207	-0,081
155,546	191,731	-0,150	-0,158
156,560	358,100	-0,174	-0,243
157,575	-32,300	-0,235	-0,091
158,589	66,562	-0,214	-0,151
159,604	-11,190	-0,224	-0,103
160,619	-1,164	-0,209	-0,103
161,633	182,558	-0,216	-0,222
162,648	64,543	-0,168	-0,118
163,662	41,662	-0,238	-0,150
164,677	50,992	-0,226	-0,150
165,692	-139,264	-0,201	0,015
166,706	-6,547	-0,319	-0,151
167,721	22,505	-0,297	-0,169
168,735	104,689	-0,242	-0,199
169,750	125,819	-0,237	-0,209
170,764	-7,153	-0,275	-0,130
171,779	65,969	-0,149	-0,105
172,794	104,872	-0,165	-0,136
173,808	-85,083	-0,195	-0,042
174,823	239,385	-0,218	-0,253
175,837	224,746	-0,216	-0,244
176,852	219,236	-0,240	-0,268
177,867	-200,000	-0,035	-0,197
178,881	-9,740	-0,149	-0,069
179,896	-92,074	-0,263	-0,051
180,910	-200,000	-0,295	-0,001
181,925	-7,819	-0,260	-0,122
182,940	-14,596	-0,303	-0,135
183,954	158,689	-0,191	-0,185
184,969	122,436	-0,190	-0,165
185,983	-81,060	-0,203	-0,046
186,998	309,090	-0,103	-0,134
188,013	-71,361	-0,276	-0,072
189,027	-84,138	-0,200	-0,044
190,042	204,004	-0,162	-0,175
191,056	159,738	-0,192	-0,186
192,071	800,000	-0,151	-0,317
193,086	125,198	-0,140	-0,123
194,100	-144,500	-0,225	-0,014
195,115	124,302	-0,220	-0,193
196,129	74,119	-0,209	-0,153
197,144	44,691	-0,251	-0,161
198,159	175,811	-0,094	-0,095
199,173	208,517	-0,118	-0,129
200,188	-141,081	-0,171	-0,012
201,202	-103,539	-0,189	-0,031
202,217	178,390	-0,204	-0,207
203,232	183,755	-0,212	-0,218
204,246	21,334	-0,213	-0,120
205,261	-200,000	-0,112	-0,345
206,275	91,104	-0,264	-0,206
207,290	39,145	-0,250	-0,155
208,304	58,313	-0,168	-0,114
209,319	48,103	-0,083	-0,054
210,334	136,261	-0,140	-0,127
211,348	462,362	-0,159	-0,247
212,363	-66,482	-0,240	-0,066
213,377	-62,833	-0,284	-0,081
214,392	30,208	-0,161	-0,095
215,407	-49,705	-0,274	-0,090
216,421	-20,978	-0,112	-0,048
217,436	-47,086	-0,178	-0,060
218,450	174,372	-0,217	-0,218
219,465	156,490	-0,176	-0,168
220,480	112,520	-0,221	-0,185
221,494	800,000	-0,068	-0,191
222,509	8,134	-0,217	-0,113
223,523	350,111	-0,110	-0,151
224,538	-18,885	-0,232	-0,100
225,553	243,862	-0,233	-0,272
226,567	135,131	-0,182	-0,164
227,582	418,239	-0,109	-0,162
228,596	192,455	-0,137	-0,143
229,611	-100,298	-0,136	-0,023
230,626	-9,457	-0,183	-0,084
231,640	-21,660	-0,139	0,058
232,655	91,469	-0,157	-0,122
233,669	88,689	-0,227	-0,175
234,684	-42,406	-0,226	-0,080
235,699	-41,795	-0,197	-0,070
236,713	29,153	-0,193	-0,113
237,728	-200,000	-0,044	-0,178
238,742	-39,149	-0,124	-0,045
239,757	106,190	-0,155	-0,127
240,772	-81,193	-0,145	-0,033
241,786	188,708	-0,126	-0,131
242,801	22,911	-0,252	-0,143
243,815	-200,000	0,027	-0,086
244,830	245,452	-0,093	-0,108
245,844	59,866	-0,132	-0,090
246,859	-30,857	-0,213	-0,083
247,874	-13,370	-0,237	-0,106
248,888	233,503	-0,243	-0,278
249,903	-18,882	-0,286	-0,123
250,917	139,154	-0,168	-0,153
251,932	-114,482	-0,074	-0,010
252,947	-200,000	-0,034	-0,263
253,961	268,296	-0,257	-0,312
254,976	209,237	-0,214	-0,233
255,990	203,132	-0,166	-0,178
257,005	18,204	-0,100	-0,055
258,020	-75,175	-0,320	-0,079
259,034	707,010	-0,098	-0,180
260,049	-16,229	-0,209	-0,092
261,063	25,081	-0,106	-0,061
262,078	378,548	-0,195	-0,277
263,093	786,604	-0,136	-0,259
264,107	258,632	-0,171	-0,204
265,122	10,927	-0,133	-0,070
266,136	171,770	-0,158	-0,157
267,151	-90,675	-0,280	-0,055
268,166	-70,531	-0,287	-0,075
269,180	128,812	-0,206	-0,181
270,195	184,056	-0,127	-0,130
271,209	160,524	-0,187	-0,181
272,224	360,998	-0,165	-0,230
273,239	-107,170	-0,063	-0,009
274,253	181,357	-0,151	-0,154
275,268	-28,059	-0,151	-0,060
276,282	106,386	-0,177	-0,145
277,297	188,804	-0,180	-0,186
278,312	800,000	-0,071	-0,146
279,326	-80,228	-0,285	-0,065
280,341	-200,000	-0,089	-0,302
281,355	-155,550	-0,098	0,004
282,370	-103,628	-0,195	0,031
283,384	-22,243	-0,201	-0,084
284,399	122,205	-0,241	-0,208
285,414	53,033	-0,144	-0,095
286,428	-35,719	-0,228	-0,085
287,443	12,523	-0,178	-0,095
288,457	-74,123	-0,272	-0,068
289,472	-105,126	-0,191	0,030
290,487	-58,422	-0,177	-0,053
291,501	-95,637	-0,205	0,037
292,516	476,736	-0,096	-0,151
293,530	479,641	-0,106	-0,166
294,545	111,175	-0,109	-0,091
295,560	54,794	-0,162	-0,108
296,574	800,000	-0,094	-0,188
297,589	-89,905	-0,129	-0,026
298,603	35,468	-0,169	-0,102
299,618	31,750	-0,138	-0,082
300,633	92,634	-0,153	-0,119
301,647	138,768	-0,104	0,094
302,662	64,986	-0,196	-0,137
303,676	-107,933	-0,209	-0,031
304,691	-72,495	-0,231	-0,058
305,706	0,877	-0,249	-0,123
306,720	112,747	-0,132	-0,110
307,735	-54,187	-0,151	-0,047
308,749	97,848	-0,202	-0,160
309,764	-200,000	-0,028	-0,207
310,779	-141,370	-0,079	-0,005
311,793	333,683	-0,074	-0,099
312,808	308,880	-0,126	-0,163
313,822	260,169	-0,079	-0,095
314,837	371,052	-0,094	-0,132
315,852	132,243	-0,141	-0,125
316,866	-129,791	-0,159	0,015
317,881	-200,000	-0,174	0,000
318,895	-10,970	-0,148	-0,067
319,910	184,222	-0,209	-0,213
320,925	97,678	-0,276	-0,218
321,939	169,207	-0,138	-0,136
322,954	-129,804	-0,093	-0,009
323,968	106,481	-0,190	-0,155
324,983	130,591	-0,162	-0,143
325,997	184,618	-0,118	-0,120
327,012	146,142	-0,186	-0,172
328,027	185,039	-0,102	-0,104
329,041	800,000	-0,091	-0,249
330,056	159,819	-0,041	-0,039
331,070	-16,534	0,050	-0,022
332,085	104,975	-0,218	-0,177
333,100	284,957	-0,088	-0,109
334,114	-43,160	-0,081	-0,028
335,129	151,450	-0,128	-0,120
336,143	116,445	-0,236	-0,199
337,158	-144,228	-0,199	-0,013
338,173	47,003	-0,158	0,101
339,187	331,327	-0,068	-0,091
340,202	677,968	-0,105	-0,188
341,216	-4,472	-0,150	-0,071
342,231	549,884	-0,097	-0,160
343,246	800,000	-0,102	-0,202
344,260	-200,000	-0,036	-0,181
345,275	799,448	-0,040	0,076
346,289	168,713	-0,129	0,127
347,304	145,177	-0,089	-0,081
348,319	245,683	-0,118	-0,137
349,333	-89,222	-0,263	-0,053
350,348	-200,000	0,005	-0,016
351,362	-58,751	-0,164	-0,048
352,377	121,354	-0,098	-0,084
353,392	92,357	-0,152	-0,118
354,406	14,885	-0,093	0,050
355,421	208,960	1312,875	1412,258
356,435	160,806	1473,380	1412,759
