DTS Sentinel unit serial number:	SN410029Multiplexer serial number:	ORYXHardware model number:	OX2-SRSoftware version number:	ORYX F/W v4,00 Oryx Data Collector v3.7.2.0data status	okinstallation	B3 Nyhavnadifferential loss correction	single-endedforward channel	channel 1reverse channel	N/Adate	2023/12/03time	16:27:30forward acquisition time	300,00reverse acquisition time	0,00gamma	499,1914k internal	0,3197k external	0,3197temperature offset calibration	1,0000default loss term (dB/km)	0,3820temperature slope calibration	1,0000multiplexer offset coefficient	1,0000multiplexer slope coefficient	1,0000fibre end	0,00T internal ref (°C)	15,34T ext. ref 1 (°C)	-0,17T ext. ref 2 (°C)	-0,19length (m)	temperature (°C)	Stokes	anti-Stokes-744,400	249,908	-0,179	-0,222
-743,385	-200,000	0,009	0,364
-742,371	259,722	-0,141	-0,178
-741,356	800,000	0,130	0,296
-740,342	17,400	-0,194	-0,112
-739,327	-200,000	-0,009	0,339
-738,312	93,280	-0,214	-0,176
-737,298	381,161	-0,134	0,201
-736,283	800,000	-0,140	-0,284
-735,269	-200,000	0,024	0,399
-734,254	800,000	-0,124	-0,380
-733,239	6,512	-0,188	0,101
-732,225	748,517	-0,094	-0,186
-731,210	-34,083	0,097	0,039
-730,196	2,140	0,122	0,064
-729,181	-24,105	0,058	0,025
-728,167	-110,168	-0,142	0,021
-727,152	-80,924	0,053	-0,013
-726,137	78,349	-0,097	-0,075
-725,123	-21,360	-0,102	-0,045
-724,108	-200,000	0,002	-0,118
-723,094	-200,000	-0,034	-0,166
-722,079	67,703	-0,082	-0,061
-721,064	-200,000	-0,019	0,167
-720,050	-133,342	-0,088	0,008
-719,035	8,363	-0,141	-0,077
-718,021	-200,000	-0,017	-0,067
-717,006	-121,989	-0,114	-0,013
-715,991	-39,406	-0,165	-0,063
-714,977	185,242	0,041	0,044
-713,962	-200,000	0,007	-0,071
-712,948	800,000	-0,018	-0,039
-711,933	-41,821	0,046	0,017
-710,918	5,612	-0,152	0,082
-709,904	800,000	-0,015	-0,045
-708,889	-43,459	-0,009	0,003
-707,875	-200,000	0,060	-0,224
-706,860	-161,396	-0,051	0,002
-705,845	91,436	0,095	-0,078
-704,831	-200,000	0,009	0,058
-703,816	30,673	-0,217	0,135
-702,802	0,331	0,094	-0,049
-701,787	-200,000	-0,038	-0,153
-700,772	-200,000	0,003	-0,136
-699,758	39,202	0,094	0,061
-698,743	-31,736	-0,037	0,015
-697,729	401,807	0,034	-0,052
-696,714	-17,300	0,035	-0,016
-695,699	161,605	0,085	-0,086
-694,685	-200,000	-0,007	-0,125
-693,670	315,787	-0,056	0,077
-692,656	-24,467	-0,085	0,037
-691,641	-200,000	-0,003	-0,067
-690,627	440,512	0,083	-0,132
-689,612	-14,000	0,092	-0,043
-688,597	800,000	0,019	-0,046
-687,583	546,807	-0,030	0,053
-686,568	170,109	-0,081	0,084
-685,554	21,371	0,058	-0,034
-684,539	800,000	-0,041	-0,083
-683,524	104,114	0,110	-0,094
-682,510	-200,000	-0,060	-0,204
-681,495	800,000	0,019	-0,039
-680,481	-200,000	0,018	-0,062
-679,466	158,990	-0,034	-0,034
-678,451	-200,000	0,014	0,214
-677,437	-200,000	0,040	-0,135
-676,422	-65,118	-0,031	-0,009
-675,408	52,709	0,031	0,021
-674,393	30,885	0,045	-0,028
-673,378	-21,546	0,060	0,026
-672,364	800,000	0,064	-0,167
-671,349	-121,181	-0,133	-0,016
-670,335	-47,964	0,060	-0,021
-669,320	-200,000	-0,009	0,092
-668,305	781,986	-0,042	0,084
-667,291	-66,027	0,114	-0,033
-666,276	-200,000	-0,032	-0,162
-665,262	0,013	-0,175	-0,090
-664,247	181,535	-0,013	0,014
-663,232	177,093	-0,062	-0,066
-662,218	800,000	0,025	0,067
-661,203	18,334	-0,117	0,068
-660,189	-200,000	-0,007	0,093
-659,174	800,000	0,017	0,043
-658,159	-200,000	-0,026	0,095
-657,145	-48,560	0,114	0,040
-656,130	800,000	-0,038	0,098
-655,116	-132,386	0,162	0,015
-654,101	-200,000	-0,002	0,114
-653,086	-136,534	0,074	-0,006
-652,072	41,513	0,094	0,062
-651,057	239,862	0,032	0,039
-650,043	800,000	-0,020	0,056
-649,028	800,000	0,013	-0,034
-648,014	800,000	-0,032	0,098
-646,999	7,978	0,160	0,087
-645,984	-27,101	-0,098	0,041
-644,970	-200,000	0,000	-0,027
-643,955	-200,000	0,003	-0,112
-642,941	-200,000	-0,012	-0,175
-641,926	191,225	-0,088	-0,097
-640,911	-149,297	0,078	0,004
-639,897	461,185	0,042	0,068
-638,882	800,000	0,005	-0,014
-637,868	800,000	-0,009	0,023
-636,853	-200,000	-0,016	-0,181
-635,838	800,000	-0,037	-0,097
-634,824	321,050	-0,061	-0,084
-633,809	388,782	-0,055	-0,083
-632,795	421,793	0,040	-0,063
-631,780	640,568	0,050	-0,093
-630,765	-193,850	-0,167	-0,001
-629,751	-200,000	0,027	-0,159
-628,736	108,227	-0,100	-0,087
-627,722	800,000	-0,017	-0,042
-626,707	800,000	-0,033	0,094
-625,692	-200,000	0,019	-0,102
-624,678	46,745	-0,089	-0,060
-623,663	31,448	-0,052	-0,032
-622,649	-125,865	-0,115	0,012
-621,634	-200,000	0,026	-0,102
-620,619	800,000	-0,025	0,060
-619,605	-142,384	0,067	0,005
-618,590	-121,404	0,070	-0,008
-617,576	77,409	0,064	-0,049
-616,561	38,281	0,080	0,052
-615,546	102,890	-0,080	0,067
-614,532	-127,063	0,169	-0,018
-613,517	-1,506	-0,226	-0,115
-612,503	-200,000	-0,009	-0,148
-611,488	684,947	0,025	0,047
-610,474	-200,000	0,006	-0,019
-609,459	-200,000	0,008	-0,114
-608,444	-200,000	-0,018	-0,126
-607,430	33,082	-0,101	-0,063
-606,415	-144,961	-0,087	-0,006
-605,401	24,714	0,081	-0,048
-604,386	-200,000	0,009	-0,071
-603,371	-200,000	-0,015	-0,082
-602,357	800,000	-0,044	-0,131
-601,342	-40,275	0,030	-0,011
-600,328	-92,312	-0,174	0,035
-599,313	800,000	0,045	-0,125
-598,298	800,000	-0,067	-0,193
-597,284	130,324	0,033	-0,031
-596,269	-167,210	-0,125	-0,004
-595,255	458,617	-0,032	0,051
-594,240	302,999	-0,033	0,044
-593,225	-30,186	0,048	0,019
-592,211	277,554	0,041	0,054
-591,196	-0,762	0,101	-0,052
-590,182	205,781	-0,094	0,106
-589,167	-200,000	-0,031	0,120
-588,152	800,000	0,039	0,099
-587,138	800,000	-0,027	0,083
-586,123	800,000	0,002	-0,005
-585,109	-68,962	-0,160	-0,044
-584,094	16,492	0,124	-0,071
-583,079	-129,489	0,102	-0,010
-582,065	-200,000	0,019	0,090
-581,050	-81,963	-0,034	0,008
-580,036	135,883	0,047	-0,044
-579,021	-137,088	-0,211	-0,017
-578,006	-37,929	-0,106	-0,040
-576,992	-112,141	0,077	0,011
-575,977	-87,279	0,104	-0,023
-574,963	-138,598	0,182	-0,014
-573,948	342,984	0,039	-0,056
-572,934	800,000	-0,052	0,127
-571,919	-156,994	-0,169	0,007
-570,904	-200,000	0,010	-0,086
-569,890	150,394	-0,011	-0,011
-568,875	154,094	0,048	-0,048
-567,861	85,628	0,111	-0,088
-566,846	800,000	-0,014	-0,029
-565,831	291,160	0,047	-0,062
-564,817	318,665	-0,133	-0,182
-563,802	-200,000	-0,017	-0,104
-562,788	-8,835	-0,144	-0,069
-561,773	-200,000	-0,044	0,140
-560,758	-193,206	0,095	-0,001
-559,744	-37,016	0,125	-0,048
-558,729	180,177	0,051	0,054
-557,715	-18,680	-0,110	-0,050
-556,700	19,927	0,043	-0,025
-555,685	-177,787	0,058	-0,001
-554,671	-56,565	-0,031	-0,010
-553,656	257,688	-0,037	-0,045
-552,642	366,658	0,039	0,057
-551,627	-200,000	-0,006	0,090
-550,612	800,000	-0,007	-0,023
-549,598	390,677	-0,036	0,054
-548,583	-45,522	-0,042	0,015
-547,569	-91,520	-0,062	0,013
-546,554	-123,621	-0,064	0,007
-545,539	-200,000	0,027	0,148
-544,525	-55,982	-0,074	0,024
-543,510	-171,214	-0,122	0,003
-542,496	71,466	-0,082	-0,061
-541,481	-40,662	0,070	0,026
-540,466	41,090	-0,062	-0,040
-539,452	-136,095	-0,036	-0,003
-538,437	-15,144	0,053	-0,025
-537,423	14,344	0,082	-0,046
-536,408	79,522	-0,164	0,127
-535,393	52,473	-0,027	-0,019
-534,379	-61,165	-0,119	0,036
-533,364	-84,930	0,049	0,011
-532,350	-200,000	0,018	0,067
-531,335	-28,005	0,070	0,029
-530,321	-75,333	0,054	0,014
-529,306	-200,000	0,012	0,070
-528,291	-200,000	-0,022	-0,141
-527,277	-200,000	-0,014	0,100
-526,262	-200,000	-0,001	-0,115
-525,248	220,852	0,030	-0,035
-524,233	79,898	0,058	0,045
-523,218	513,381	-0,056	0,094
-522,204	-200,000	0,018	-0,102
-521,189	-200,000	-0,007	-0,024
-520,175	196,401	-0,080	-0,088
-519,160	63,279	-0,077	0,055
-518,145	800,000	0,026	0,067
-517,131	-200,000	-0,007	0,029
-516,116	-200,000	0,009	0,036
-515,102	-200,000	0,004	0,025
-514,087	227,924	0,054	-0,063
-513,072	800,000	-0,046	-0,100
-512,058	-200,000	0,016	0,085
-511,043	-46,323	0,060	-0,021
-510,029	800,000	0,069	-0,176
-509,014	-159,807	-0,052	0,002
-507,999	-200,000	0,045	0,151
-506,985	-174,131	-0,195	-0,004
-505,970	-200,000	0,002	-0,085
-504,956	-200,000	0,008	0,048
-503,941	800,000	-0,049	-0,107
-502,926	-200,000	0,018	0,145
-501,912	29,888	0,125	0,077
-500,897	-59,154	0,067	0,021
-499,883	74,039	0,174	0,131
-498,868	-200,000	0,014	0,060
-497,853	354,136	-0,043	0,061
-496,839	800,000	0,054	0,124
-495,824	-61,746	-0,124	-0,037
-494,810	800,000	-0,013	0,037
-493,795	-200,000	0,016	-0,055
-492,781	-200,000	-0,009	-0,078
-491,766	-173,987	-0,117	0,002
-490,751	-200,000	-0,002	0,060
-489,737	199,591	-0,046	-0,051
-488,722	8,547	-0,086	0,047
-487,708	-35,956	0,045	-0,018
-486,693	-63,876	0,057	0,017
-485,678	19,039	-0,137	0,079
-484,664	-23,951	-0,059	0,025
-483,649	-200,000	-0,010	0,062
-482,635	-100,668	0,013	0,002
-481,620	-40,210	0,159	0,059
-480,605	800,000	0,072	0,190
-479,591	210,868	-0,110	0,125
-478,576	-65,176	-0,103	-0,030
-477,562	-84,528	0,047	0,011
-476,547	800,000	-0,034	-0,082
-475,532	-39,162	-0,033	0,012
-474,518	-200,000	0,007	-0,130
-473,503	800,000	0,044	0,104
-472,489	168,385	0,055	0,057
-471,474	800,000	0,055	0,131
-470,459	287,454	-0,140	-0,183
-469,445	137,825	0,078	0,073
-468,430	406,967	-0,015	-0,023
-467,416	-82,966	0,132	-0,031
-466,401	800,000	-0,063	0,147
-465,386	90,892	-0,025	-0,020
-464,372	371,092	-0,041	0,060
-463,357	-19,839	0,108	0,048
-462,343	219,425	-0,074	-0,085
-461,328	21,527	0,073	-0,043
-460,313	104,677	0,046	-0,039
-459,299	-38,666	0,115	0,044
-458,284	299,749	0,031	0,041
-457,270	379,811	0,082	0,122
-456,255	74,659	-0,152	0,115
-455,241	86,931	0,030	0,024
-454,226	318,588	-0,010	0,014
-453,211	-200,000	-0,018	-0,076
-452,197	-156,262	0,103	-0,005
-451,182	139,603	0,049	-0,046
-450,168	-200,000	-0,010	0,050
-449,153	-200,000	-0,003	0,073
-448,138	-200,000	0,010	0,115
-447,124	118,307	-0,058	-0,051
-446,109	-200,000	0,022	-0,122
-445,095	210,271	0,029	-0,033
-444,080	282,094	-0,011	0,014
-443,065	-20,473	0,020	0,009
-442,051	-98,290	-0,149	-0,027
-441,036	192,056	0,037	-0,040
-440,022	-200,000	0,000	0,129
-439,007	800,000	0,010	0,023
-437,992	748,994	-0,064	-0,124
-436,978	-72,279	0,039	-0,010
-435,963	-66,198	-0,106	-0,030
-434,949	-64,223	-0,072	0,021
-433,934	-79,343	0,067	0,016
-432,919	-72,100	0,050	0,013
-431,905	-140,698	0,140	-0,010
-430,890	246,987	0,116	-0,141
-429,876	91,099	-0,040	0,032
-428,861	-161,136	0,013	0,000
-427,846	69,031	0,131	-0,097
-426,832	367,960	-0,121	-0,177
-425,817	460,962	0,061	0,099
-424,803	-73,187	0,136	-0,035
-423,788	63,317	-0,108	-0,078
-422,773	-149,305	0,005	0,000
-421,759	322,950	0,130	0,178
-420,744	69,870	-0,102	-0,076
-419,730	112,013	-0,109	-0,095
-418,715	270,550	-0,087	-0,111
-417,701	92,707	0,035	0,028
-416,686	-200,000	-0,034	0,147
-415,671	202,352	0,074	0,082
-414,657	800,000	-0,050	0,115
-413,642	-200,000	0,013	0,070
-412,628	800,000	0,010	0,028
-411,613	-102,294	0,081	0,014
-410,598	-12,492	-0,057	0,027
-409,584	55,992	0,018	0,012
-408,569	800,000	-0,021	-0,062
-407,555	-200,000	0,009	0,193
-406,540	-200,000	0,002	0,084
-405,525	-200,000	0,011	-0,146
-404,511	116,379	0,078	-0,069
-403,496	800,000	-0,056	-0,173
-402,482	-200,000	0,010	0,046
-401,467	-16,936	-0,093	-0,042
-400,452	-93,175	-0,041	0,008
-399,438	41,627	0,033	-0,021
-398,423	-200,000	0,010	0,035
-397,409	141,643	-0,031	-0,030
-396,394	800,000	0,048	0,133
-395,379	377,690	0,066	-0,097
-394,365	800,000	-0,061	0,176
-393,350	-200,000	0,018	0,064
-392,336	343,627	0,062	0,087
-391,321	606,409	-0,018	-0,032
-390,306	541,328	0,027	-0,047
-389,292	-83,149	0,094	0,022
-388,277	133,260	0,076	-0,070
-387,263	-143,001	-0,068	0,005
-386,248	379,592	0,063	0,092
-385,233	800,000	0,049	0,154
-384,219	521,594	0,037	-0,063
-383,204	800,000	-0,034	0,097
-382,190	230,161	0,051	-0,060
-381,175	621,928	0,095	-0,172
-380,160	800,000	0,032	-0,077
-379,146	492,400	-0,031	0,051
-378,131	259,401	-0,048	-0,060
-377,117	-200,000	0,017	0,072
-376,102	-200,000	0,013	0,054
-375,088	-200,000	-0,011	-0,112
-374,073	-124,974	-0,189	0,021
-373,058	-95,502	0,044	0,008
-372,044	12,699	0,130	-0,072
-371,029	418,328	-0,025	-0,039
-370,015	-76,409	-0,126	-0,032
-369,000	-177,324	0,080	0,001
-367,985	172,189	-0,027	-0,028
-366,971	390,972	0,059	0,087
-365,956	322,790	0,085	0,116
-364,942	68,065	0,088	0,065
-363,927	-200,000	0,004	-0,069
-362,912	230,900	0,025	0,029
-361,898	-200,000	-0,024	0,107
-360,883	800,000	-0,036	-0,075
-359,869	800,000	0,038	-0,104
-358,854	800,000	0,068	-0,170
-357,839	537,028	0,036	-0,062
-356,825	-62,872	0,069	0,020
-355,810	-75,271	-0,142	-0,036
-354,796	-200,000	-0,018	-0,149
-353,781	272,225	0,026	-0,033
-352,766	81,097	0,053	-0,041
-351,752	-200,000	0,007	-0,051
-350,737	195,754	0,031	-0,033
-349,723	202,995	0,025	-0,028
-348,708	148,060	-0,117	-0,113
-347,693	800,000	0,049	-0,116
-346,679	-93,496	-0,141	0,028
-345,664	80,363	-0,056	-0,043
-344,650	-200,000	-0,001	-0,076
-343,635	3,980	0,118	-0,062
-342,620	171,936	0,107	0,110
-341,606	-34,474	0,119	-0,046
-340,591	800,000	0,025	0,064
-339,577	-200,000	-0,037	-0,135
-338,562	637,035	0,025	0,045
-337,548	800,000	-0,045	0,094
-336,533	-97,253	0,047	-0,009
-335,518	359,027	0,056	0,081
-334,504	-117,130	0,113	0,015
-333,489	470,434	0,019	0,031
-332,475	-200,000	0,009	0,062
-331,460	188,807	0,064	0,069
-330,445	61,323	-0,135	-0,096
-329,431	-134,816	-0,021	-0,002
-328,416	-200,000	0,016	0,097
-327,402	-114,717	-0,066	0,009
-326,387	643,863	-0,022	-0,041
-325,372	-200,000	0,006	0,109
-324,358	79,230	-0,029	0,022
-323,343	-27,967	-0,052	-0,021
-322,329	-72,464	-0,062	-0,016
-321,314	-200,000	-0,010	-0,127
-320,299	800,000	0,035	0,094
-319,285	-87,434	-0,052	0,011
-318,270	-200,000	-0,002	-0,055
-317,256	296,335	0,143	-0,188
-316,241	-95,181	-0,181	0,035
-315,226	800,000	0,032	0,087
-314,212	201,013	-0,029	-0,033
-313,197	718,946	0,043	0,081
-312,183	-200,000	-0,004	0,121
-311,168	-200,000	0,004	-0,032
-310,153	-163,335	-0,093	0,003
-309,139	800,000	-0,008	0,022
-308,124	162,727	0,079	-0,080
-307,110	-200,000	0,002	0,126
-306,095	-200,000	0,016	-0,064
-305,080	-172,261	-0,127	-0,003
-304,066	-200,000	0,008	0,055
-303,051	654,117	-0,052	-0,096
-302,037	-55,464	-0,084	0,027
-301,022	-36,903	-0,096	0,037
-300,008	-45,994	0,087	0,030
-298,993	137,929	0,098	0,092
-297,978	800,000	0,035	0,089
-296,964	-2,055	0,165	0,083
-295,949	-58,923	0,118	0,036
-294,935	65,513	-0,094	0,068
-293,920	-200,000	0,000	0,131
-292,905	17,351	0,077	0,044
-291,891	-22,356	0,197	0,085
-290,876	107,686	-0,060	-0,051
-289,862	-104,852	0,109	-0,018
-288,847	43,837	0,113	0,074
-287,832	-99,948	-0,053	-0,009
-286,818	123,222	-0,026	-0,023
-285,803	-59,146	0,069	-0,021
-284,789	-161,554	-0,088	0,003
-283,774	207,829	0,075	0,083
-282,759	-28,425	0,083	0,034
-281,745	202,794	0,041	0,046
-280,730	185,073	0,045	-0,047
-279,716	-13,557	0,090	0,042
-278,701	42,684	-0,006	0,004
-277,686	167,045	-0,040	0,041
-276,672	-5,636	-0,095	-0,047
-275,657	-200,000	-0,002	0,144
-274,643	-128,631	-0,109	0,011
-273,628	800,000	0,027	-0,055
-272,613	-200,000	0,010	-0,077
-271,599	-119,016	-0,052	-0,006
-270,584	595,993	-0,114	0,203
-269,570	118,834	0,048	0,043
-268,555	107,590	0,019	-0,016
-267,540	800,000	-0,034	-0,092
-266,526	93,147	-0,161	-0,130
-265,511	43,727	-0,091	-0,059
-264,497	-200,000	0,005	-0,038
-263,482	-32,044	0,068	-0,027
-262,467	-2,518	-0,103	0,051
-261,453	38,563	-0,083	0,053
-260,438	318,868	-0,017	0,023
-259,424	216,864	0,026	-0,029
-258,409	162,619	0,024	-0,024
-257,395	-172,738	0,104	-0,002
-256,380	124,312	-0,042	0,038
-255,365	602,059	0,029	0,051
-254,351	63,515	0,140	0,100
-253,336	800,000	-0,026	-0,061
-252,322	-11,371	-0,055	0,026
-251,307	-200,000	-0,023	-0,123
-250,292	800,000	0,023	0,057
-249,278	119,825	0,071	0,063
-248,263	-200,000	-0,001	0,141
-247,249	800,000	0,032	0,068
-246,234	9,645	-0,043	-0,023
-245,219	285,763	-0,016	0,021
-244,205	-102,272	-0,182	0,031
-243,190	-54,361	-0,062	-0,020
-242,176	-200,000	0,009	0,072
-241,161	310,200	0,080	0,108
-240,146	-200,000	-0,028	-0,094
-239,132	67,326	0,069	-0,050
-238,117	800,000	0,048	-0,103
-237,103	-51,863	-0,194	0,064
-236,088	-132,371	0,111	0,010
-235,073	-153,586	0,032	-0,002
-234,059	-73,957	0,159	-0,041
-233,044	94,100	0,083	-0,067
-232,030	-105,536	-0,157	0,025
-231,015	800,000	-0,059	-0,127
-230,000	154,333	-0,059	-0,058
-228,986	-200,000	-0,054	-0,196
-227,971	10,556	-0,071	-0,039
-226,957	800,000	-0,036	-0,075
-225,942	678,346	0,082	0,153
-224,927	800,000	-0,017	0,034
-223,913	-132,734	-0,124	-0,011
-222,898	-200,000	-0,009	-0,067
-221,884	-137,587	-0,044	0,004
-220,869	800,000	0,033	0,069
-219,855	17,864	0,056	0,032
-218,840	800,000	-0,025	-0,053
-217,825	-200,000	-0,013	-0,106
-216,811	339,169	0,047	-0,066
-215,796	-5,601	-0,096	-0,047
-214,782	-67,811	0,041	-0,011
-213,767	-146,042	0,159	-0,010
-212,752	236,426	0,089	0,106
-211,738	-200,000	0,013	-0,055
-210,723	142,353	-0,098	0,093
-209,709	111,136	0,092	-0,079
-208,694	45,345	-0,086	-0,056
-207,679	-200,000	0,010	0,203
-206,665	127,751	-0,062	0,057
-205,650	-200,000	0,047	0,158
-204,636	81,611	0,072	0,055
-203,621	120,854	0,070	-0,062
-202,606	-17,473	-0,060	-0,027
-201,592	-35,641	-0,148	-0,057
-200,577	46,546	-0,061	-0,040
-199,563	272,903	0,119	0,150
-198,548	800,000	-0,050	0,133
-197,533	283,775	0,031	0,040
-196,519	132,480	0,108	-0,099
-195,504	-123,342	-0,070	0,008
-194,490	-200,000	-0,006	0,076
-193,475	77,185	-0,060	0,045
-192,460	-20,760	-0,093	-0,041
-191,446	32,055	-0,135	-0,083
-190,431	-19,867	0,061	-0,027
-189,417	800,000	0,050	0,155
-188,402	-88,485	-0,083	0,017
-187,387	-200,000	-0,009	-0,057
-186,373	-112,357	0,121	-0,017
-185,358	-108,459	-0,073	0,011
-184,344	-117,796	0,095	0,012
-183,329	-200,000	-0,010	0,138
-182,315	-200,000	-0,009	0,091
-181,300	-25,671	0,071	-0,030
-180,285	513,450	0,017	0,029
-179,271	-200,000	0,008	0,062
-178,256	11,482	-0,123	-0,067
-177,242	59,727	-0,030	0,021
-176,227	-141,338	0,087	-0,006
-175,212	-148,939	0,104	0,006
-174,198	800,000	0,033	-0,068
-173,183	165,907	0,122	-0,123
-172,169	-200,000	-0,003	-0,137
-171,154	41,816	-0,099	0,064
-170,139	-47,450	-0,068	0,023
-169,125	-37,778	0,120	0,045
-168,110	-139,571	-0,151	0,011
-167,096	-200,000	-0,012	0,092
-166,081	675,532	-0,076	0,141
-165,066	-200,000	0,001	-0,064
-164,052	234,923	-0,045	-0,053
-163,037	-5,336	0,110	-0,054
-162,023	-49,965	0,113	-0,038
-161,008	-200,000	0,000	0,205
-159,993	28,209	0,085	-0,051
-158,979	-200,000	0,005	0,055
-157,964	-77,939	0,099	-0,024
-156,950	-29,460	0,093	0,038
-155,935	-34,961	0,129	-0,050
-154,920	370,962	-0,059	0,086
-153,906	286,185	-0,051	0,065
-152,891	390,401	-0,061	-0,090
-151,877	-200,000	0,037	-0,131
-150,862	84,058	-0,038	-0,029
-149,847	514,771	-0,053	-0,089
-148,833	-10,263	-0,035	0,016
-147,818	252,039	0,072	0,087
-146,804	-200,000	-0,021	-0,078
-145,789	-200,000	0,015	0,116
-144,775	-106,742	-0,098	0,015
-143,760	-64,465	0,116	-0,033
-142,745	47,515	-0,086	0,057
-141,731	-23,677	-0,112	0,048
-140,716	406,500	-0,060	0,090
-139,702	-55,797	0,135	0,043
-138,687	69,231	0,067	-0,049
-137,672	-200,000	-0,007	-0,055
-136,658	-157,691	-0,058	0,002
-135,643	348,363	0,033	-0,046
-134,629	-112,178	-0,143	0,020
-133,614	390,207	0,045	0,067
-132,599	800,000	-0,054	-0,165
-131,585	513,891	-0,044	-0,073
-130,570	-200,000	0,013	-0,109
-129,556	-106,356	-0,042	0,007
-128,541	506,473	0,084	-0,139
-127,526	-200,000	-0,001	0,030
-126,512	232,159	0,027	0,032
-125,497	186,837	-0,029	-0,031
-124,483	192,674	-0,093	0,100
-123,468	24,661	-0,039	-0,023
-122,453	-14,649	0,082	-0,038
-121,439	-200,000	-0,008	-0,124
-120,424	-58,490	0,054	-0,017
-119,410	-128,926	0,126	0,012
-118,395	520,039	0,033	0,054
-117,380	800,000	0,068	0,165
-116,366	800,000	-0,018	0,037
-115,351	-91,195	0,101	-0,020
-114,337	40,825	-0,064	-0,041
-113,322	-200,000	-0,010	0,059
-112,307	-118,256	-0,061	0,008
-111,293	-68,761	0,104	0,028
-110,278	-136,585	0,066	0,005
-109,264	-200,000	0,005	0,065
-108,249	700,973	-0,032	-0,060
-107,234	77,227	-0,035	-0,026
-106,220	-200,000	-0,021	-0,110
-105,205	9,156	0,126	0,067
-104,191	177,378	0,060	-0,062
-103,176	800,000	0,043	0,091
-102,162	-121,931	-0,086	0,010
-101,147	-50,674	-0,018	0,006
-100,132	73,227	0,084	0,062
-99,118	56,530	-0,110	-0,076
-98,103	190,893	-0,139	0,149
-97,089	8,494	-0,099	0,053
-96,074	-32,113	-0,121	-0,048
-95,059	310,902	0,059	-0,079
-94,045	-106,146	-0,033	-0,005
-93,030	800,000	-0,044	-0,127
-92,016	65,637	-0,056	-0,040
-91,001	-115,392	0,080	0,011
-89,986	-200,000	0,018	0,065
-88,972	270,494	0,081	-0,102
-87,957	314,824	0,017	-0,023
-86,943	122,195	0,035	-0,031
-85,928	-120,628	-0,106	0,013
-84,913	41,936	-0,050	-0,032
-83,899	61,453	0,040	-0,028
-82,884	-200,000	0,010	0,091
-81,870	81,794	0,027	-0,021
-80,855	175,762	-0,017	0,018
-79,840	50,895	-0,078	0,053
-78,826	-200,000	0,032	0,168
-77,811	800,000	-0,038	-0,100
-76,797	-65,954	0,155	-0,044
-75,782	566,250	-0,068	-0,117
-74,767	82,093	0,090	0,069
-73,753	-125,756	-0,073	0,008
-72,738	81,669	0,088	0,067
-71,724	-22,479	-0,035	-0,015
-70,709	81,491	-0,034	-0,026
-69,694	282,681	-0,073	-0,094
-68,680	-69,245	0,066	-0,018
-67,665	192,715	0,027	0,028
-66,651	-200,000	0,003	0,025
-65,636	-200,000	-0,033	-0,115
-64,622	123,526	0,081	-0,072
-63,607	162,575	-0,044	-0,044
-62,592	800,000	0,071	-0,161
-61,578	291,956	0,018	-0,023
-60,563	-141,009	0,089	-0,006
-59,549	-200,000	0,008	0,109
-58,534	-48,033	-1,454	-0,496
-57,519	350,000	-1,480	-2,079
-56,505	-200,000	-0,470	-4,480
-55,490	119,562	1,061	0,932
-54,476	800,000	4,664	10,972
-53,461	-200,000	18,018	285,072
-52,446	800,000	726,117	2224,210
-51,432	555,836	1641,604	2813,154
-50,417	79,699	1663,564	1264,885
-49,403	23,205	1537,174	892,467
-48,388	17,183	1460,742	818,940
-47,373	17,986	1450,712	817,149
-46,359	17,403	1441,433	809,099
-45,344	15,441	1436,582	796,984
-44,330	15,400	1434,613	795,663
-43,315	15,403	1432,925	794,708
-42,300	15,423	1431,320	793,886
-41,286	15,427	1430,189	793,242
-40,271	15,406	1429,008	792,458
-39,257	15,384	1427,620	791,552
-38,242	15,478	1426,182	791,169
-37,227	15,447	1425,103	790,393
-36,213	15,460	1423,710	789,648
-35,198	15,411	1422,811	788,889
-34,184	15,464	1421,886	788,595
-33,169	15,448	1420,322	787,621
-32,154	15,448	1419,603	787,188
-31,140	15,462	1418,087	786,382
-30,125	15,503	1416,983	785,933
-29,111	15,441	1415,741	784,920
-28,096	15,448	1414,620	784,301
-27,082	15,392	1413,702	783,498
-26,067	15,385	1412,394	782,712
-25,052	15,401	1411,417	782,211
-24,038	15,347	1410,587	781,470
-23,023	15,349	1409,342	780,755
-22,009	15,338	1408,200	780,042
-20,994	15,337	1407,458	779,597
-19,979	15,320	1406,707	779,067
-18,965	15,283	1405,635	778,270
-17,950	15,271	1404,655	777,643
-16,936	15,305	1403,740	777,265
-15,921	15,289	1402,536	776,490
-14,906	15,245	1401,774	775,834
-13,892	15,276	1400,753	775,383
-12,877	15,236	1399,986	774,742
-11,863	15,259	1398,961	774,250
-10,848	15,268	1397,960	773,705
-9,833	15,243	1397,100	773,085
-8,819	15,233	1395,975	772,386
-7,804	15,216	1395,078	771,780
-6,790	15,175	1394,231	771,087
-5,775	15,163	1393,035	770,343
-4,760	15,183	1392,250	769,968
-3,746	15,166	1391,648	769,530
-2,731	15,188	1390,601	769,022
-1,717	15,144	1389,864	768,377
-0,702	15,149	1387,941	767,308
0,313	19,010	1307,743	740,823
1,327	35,482	707,202	438,835
2,342	54,818	124,850	85,216
3,356	3,396	16,651	8,563
4,371	25,496	3,231	1,899
5,386	111,297	0,331	0,282
6,400	-200,000	-0,004	0,040
7,415	128,969	-0,195	-0,176
8,429	68,647	-0,251	-0,182
9,444	49,346	-0,418	-0,278
10,459	51,466	-0,307	-0,206
11,473	-109,638	-0,244	-0,036
12,488	6,989	-0,271	-0,143
13,502	-36,339	-0,273	-0,104
14,517	17,695	-0,313	-0,176
15,531	147,424	-0,333	-0,318
16,546	-59,062	-0,493	-0,150
17,561	246,572	-0,337	-0,403
18,575	-46,633	-0,283	-0,097
19,590	42,864	-0,262	-0,168
20,604	70,750	-0,211	-0,155
21,619	75,721	-0,319	-0,238
22,634	34,389	-0,569	-0,350
23,648	117,781	-0,395	-0,344
24,663	186,000	-0,331	-0,349
25,677	79,095	-0,425	-0,321
26,692	2,786	-0,458	-0,234
27,707	60,560	-0,287	-0,200
28,721	36,907	-0,367	-0,229
29,736	56,868	-0,506	-0,347
30,750	144,328	-0,297	-0,280
31,765	156,307	-0,314	-0,306
32,780	9,271	-0,417	-0,222
33,794	221,754	-0,208	-0,237
34,809	119,897	-0,326	-0,286
35,823	73,579	-0,457	-0,337
36,838	84,925	-0,442	-0,342
37,853	84,860	-0,365	-0,282
38,867	31,194	-0,420	-0,254
39,882	152,937	-0,379	-0,366
40,896	-48,191	-0,355	-0,120
41,911	-19,866	-0,267	-0,116
42,926	-18,750	-0,373	-0,163
43,940	-74,668	-0,378	-0,095
44,955	92,762	-0,390	-0,310
45,969	113,843	-0,298	-0,255
46,984	137,308	-0,330	-0,305
47,999	45,497	-0,328	-0,213
49,013	114,851	-0,294	-0,253
50,028	203,725	-0,222	-0,243
51,042	11,790	-0,393	-0,212
52,057	-12,052	-0,441	-0,203
53,071	48,614	-0,355	-0,234
54,086	84,631	-0,367	-0,283
55,101	30,283	-0,341	-0,205
56,115	-18,969	-0,282	-0,123
57,130	-59,833	-0,378	-0,113
58,144	10,161	-0,482	-0,257
59,159	172,461	-0,348	-0,354
60,174	74,394	-0,395	-0,292
61,188	128,025	-0,398	-0,357
62,203	-45,463	-0,312	-0,108
63,217	6,982	-0,420	-0,220
64,232	26,310	-0,242	-0,142
65,247	7,342	-0,329	-0,173
66,261	62,914	-0,260	-0,183
67,276	200,196	-0,318	-0,344
68,290	101,828	-0,367	-0,302
69,305	266,721	-0,196	-0,242
70,320	7,871	-0,328	-0,173
71,334	505,090	-0,189	-0,309
72,349	71,713	-0,304	-0,222
73,363	202,255	-0,274	-0,298
74,378	-36,678	-0,358	-0,135
75,393	160,979	-0,201	-0,198
76,407	-107,150	-0,426	-0,065
77,422	-131,837	-0,314	-0,029
78,436	168,965	-0,226	-0,227
79,451	-59,772	-0,375	-0,112
80,466	-28,832	-0,358	-0,144
81,480	115,701	-0,264	-0,227
82,495	134,398	-0,218	-0,199
83,509	-152,760	-0,261	0,013
84,524	307,058	-0,185	-0,243
85,539	-67,105	-0,433	-0,119
86,553	33,101	-0,311	-0,189
87,568	294,069	-0,263	-0,338
88,582	-55,119	-0,330	-0,104
89,597	102,823	-0,296	-0,243
90,611	70,321	-0,136	-0,099
91,626	-14,625	-0,301	-0,135
92,641	26,236	-0,289	-0,169
93,655	-58,170	-0,213	-0,065
94,670	-5,038	-0,282	-0,136
95,684	326,040	-0,174	-0,235
96,699	84,829	-0,317	-0,244
97,714	36,309	-0,318	-0,196
98,728	-110,530	-0,243	-0,035
99,743	264,394	-0,236	-0,289
100,757	361,019	-0,200	-0,282
101,772	143,219	-0,289	-0,270
102,787	100,596	-0,199	-0,162
103,801	118,724	-0,189	-0,164
104,816	70,433	-0,248	-0,180
105,830	-126,229	-0,272	-0,028
106,845	-1,924	-0,279	-0,137
107,860	800,000	-0,110	-0,259
108,874	-25,510	-0,328	-0,135
109,889	140,032	-0,266	-0,246
110,903	-6,126	-0,339	-0,162
111,918	-18,355	-0,230	-0,100
112,933	-86,216	-0,374	-0,080
113,947	31,052	-0,201	-0,121
114,962	132,067	-0,201	-0,182
115,976	84,755	-0,168	-0,129
116,991	107,141	-0,299	-0,249
118,006	117,804	-0,204	-0,176
119,020	76,558	-0,281	-0,209
120,035	36,480	-0,224	-0,138
121,049	-73,999	-0,259	-0,065
122,064	-72,357	-0,181	-0,047
123,079	39,470	-0,253	-0,159
124,093	106,056	-0,278	-0,230
125,108	98,872	-0,225	-0,182
126,122	198,830	-0,166	-0,179
127,137	45,877	-0,175	-0,113
128,151	64,417	-0,309	-0,218
129,166	129,893	-0,187	-0,168
130,181	297,510	-0,185	-0,239
131,195	258,609	-0,200	-0,242
132,210	89,142	-0,198	-0,154
133,224	800,000	-0,043	-0,110
134,239	274,625	-0,172	-0,213
135,254	-27,001	-0,283	-0,115
136,268	-84,304	-0,231	-0,051
137,283	162,049	-0,191	-0,187
138,297	-89,217	-0,276	-0,057
139,312	33,419	-0,293	-0,177
140,327	-63,821	-0,301	-0,086
141,341	121,580	-0,257	-0,224
142,356	406,521	-0,146	-0,217
143,370	-58,740	-0,280	-0,084
144,385	47,626	-0,274	-0,178
145,400	51,430	-0,291	-0,193
146,414	23,948	-0,416	-0,239
147,429	59,511	-0,306	-0,211
148,443	-14,346	-0,238	-0,107
149,458	44,267	-0,285	-0,183
150,473	-49,144	-0,200	-0,067
151,487	160,346	-0,237	-0,232
152,502	53,936	-0,354	-0,238
153,516	13,007	-0,231	-0,124
154,531	33,537	-0,378	-0,229
155,546	67,864	-0,161	-0,115
156,560	587,556	-0,125	-0,217
157,575	120,162	-0,167	-0,145
158,589	180,964	-0,190	-0,196
159,604	117,423	-0,279	-0,240
160,619	348,159	-0,116	-0,160
161,633	80,857	-0,274	-0,206
162,648	168,217	-0,174	-0,173
163,662	800,000	-0,068	-0,162
164,677	32,326	-0,199	-0,120
165,692	800,000	-0,124	-0,350
166,706	71,034	-0,257	-0,185
167,721	57,153	-0,214	-0,146
168,735	706,699	-0,254	-0,470
169,750	25,082	-0,263	-0,152
170,764	14,899	-0,219	-0,119
171,779	92,284	-0,177	-0,139
172,794	800,000	-0,106	-0,273
173,808	159,842	-0,217	-0,211
174,823	321,945	-0,204	-0,272
175,837	70,820	-0,249	-0,180
176,852	50,851	-0,295	-0,195
177,867	-45,908	-0,147	-0,050
178,881	95,078	-0,139	-0,110
179,896	151,839	-0,272	-0,259
180,910	578,411	-0,067	-0,114
181,925	92,945	-0,281	-0,221
182,940	162,537	-0,226	-0,221
183,954	-11,538	-0,269	-0,123
184,969	169,365	-0,153	-0,152
185,983	221,755	-0,054	-0,061
186,998	-200,000	-0,001	-0,065
188,013	-3,460	-0,273	-0,132
189,027	59,796	-0,272	-0,187
190,042	180,647	-0,262	-0,268
191,056	270,108	-0,070	-0,086
192,071	200,710	-0,187	-0,201
193,086	-52,709	-0,237	-0,076
194,100	194,986	-0,192	-0,203
195,115	114,398	-0,159	-0,135
196,129	-36,260	-0,284	-0,106
197,144	176,155	-0,193	-0,196
198,159	-36,229	-0,251	-0,094
199,173	40,957	-0,125	0,078
200,188	548,313	-0,050	-0,083
201,202	121,730	-0,171	-0,149
202,217	111,316	-0,364	-0,305
203,232	-72,362	-0,225	-0,058
204,246	4,771	-0,300	-0,153
205,261	-7,794	-0,173	-0,081
206,275	-85,014	-0,342	-0,074
207,290	232,128	-0,168	-0,192
208,304	64,353	-0,174	-0,122
209,319	-68,386	-0,138	0,037
210,334	58,537	-0,237	-0,161
211,348	72,078	-0,170	-0,123
212,363	249,884	-0,193	-0,228
213,377	388,418	-0,224	-0,323
214,392	32,753	-0,210	-0,126
215,407	455,795	-0,090	-0,139
216,421	385,475	-0,096	-0,137
217,436	23,149	-0,188	-0,107
218,450	23,963	-0,270	-0,154
219,465	800,000	-0,181	-0,368
220,480	104,391	-0,156	-0,127
221,494	-64,912	-0,208	-0,058
222,509	-200,000	-0,017	-0,199
223,523	-64,714	-0,181	-0,051
224,538	800,000	-0,090	-0,275
225,553	0,885	-0,216	-0,107
226,567	126,678	-0,229	-0,201
227,582	800,000	-0,046	-0,117
228,596	77,768	-0,135	-0,100
229,611	-69,028	-0,240	-0,064
230,626	158,472	-0,145	-0,140
231,640	119,980	-0,160	-0,138
232,655	-95,920	-0,273	-0,050
233,669	204,650	-0,201	-0,216
234,684	396,765	-0,154	-0,223
235,699	324,747	-0,184	-0,245
236,713	800,000	-0,060	-0,163
237,728	97,850	-0,116	-0,092
238,742	-25,168	-0,319	-0,131
239,757	159,700	-0,285	-0,275
240,772	-55,655	-0,312	-0,096
241,786	393,128	-0,126	-0,183
242,801	-35,002	-0,138	-0,052
243,815	479,136	-0,014	-0,022
244,830	323,601	-0,127	-0,169
245,844	52,297	-0,249	-0,165
246,859	-21,449	-0,150	-0,063
247,874	111,407	-0,293	-0,245
248,888	132,187	-0,174	-0,155
249,903	-74,018	-0,156	-0,039
250,917	220,808	-0,123	-0,137
251,932	330,486	-0,173	-0,231
252,947	17,600	-0,254	-0,139
253,961	351,975	-0,201	-0,277
254,976	468,518	-0,211	-0,329
255,990	424,201	-0,166	-0,248
257,005	625,004	-0,103	-0,181
258,020	161,109	-0,211	-0,204
259,034	264,365	-0,103	-0,124
260,049	-1,243	-0,303	-0,148
261,063	300,113	-0,214	-0,274
262,078	74,190	-0,149	-0,109
263,093	714,692	-0,093	-0,172
264,107	-14,328	-0,166	-0,074
265,122	427,626	-0,163	-0,244
266,136	-148,179	-0,192	0,011
267,151	358,788	-0,178	-0,246
268,166	181,084	-0,096	-0,098
269,180	63,160	-0,243	-0,168
270,195	440,955	-0,178	-0,271
271,209	174,227	-0,113	-0,113
272,224	210,385	-0,067	-0,073
273,239	33,641	-0,120	-0,072
274,253	29,055	-0,236	-0,138
275,268	-8,389	-0,238	-0,110
276,282	100,292	-0,124	-0,100
277,297	390,072	-0,184	-0,265
278,312	101,767	-0,169	-0,136
279,326	-80,017	-0,214	-0,049
280,341	-13,327	-0,173	-0,077
281,355	-40,331	-0,256	-0,091
282,370	44,623	-0,079	-0,050
283,384	148,635	-0,185	-0,173
284,399	-200,000	0,015	-0,134
285,414	-159,083	-0,137	-0,005
286,428	0,701	-0,127	-0,063
287,443	800,000	-0,058	-0,137
288,457	800,000	-0,071	-0,135
289,472	17,616	-0,192	-0,105
290,487	-107,700	-0,204	-0,030
291,501	679,854	-0,098	-0,177
292,516	-15,056	-0,174	-0,076
293,530	150,278	-0,121	-0,113
294,545	-200,000	-0,045	-0,159
295,560	-11,392	-0,098	-0,044
296,574	800,000	-0,016	-0,046
297,589	-86,026	-0,218	-0,046
298,603	233,039	-0,060	-0,069
299,618	362,706	-0,143	-0,199
300,633	168,292	-0,199	-0,196
301,647	243,813	-0,115	-0,134
302,662	800,000	-0,015	0,039
303,676	29,452	-0,130	-0,076
304,691	302,479	-0,105	-0,134
305,706	51,176	-0,245	-0,160
306,720	90,012	-0,196	-0,151
307,735	-18,014	-0,109	-0,047
308,749	106,121	-0,073	-0,059
309,764	561,681	-0,037	-0,062
310,779	-140,421	-0,096	0,007
311,793	-12,214	-0,158	-0,071
312,808	800,000	-0,144	-0,286
313,822	800,000	-0,047	-0,106
314,837	45,008	-0,223	-0,141
315,852	-70,839	-0,147	-0,038
316,866	53,116	-0,153	-0,101
317,881	143,730	-0,064	-0,059
318,895	144,341	-0,059	0,054
319,910	-139,988	-0,207	-0,015
320,925	57,441	-0,142	-0,096
321,939	340,605	-0,202	-0,273
322,954	-101,931	-0,171	-0,028
323,968	280,146	-0,060	-0,074
324,983	96,212	-0,113	-0,089
325,997	125,405	-0,078	-0,068
327,012	-200,000	-0,067	-0,290
328,027	-0,315	-0,298	-0,145
329,041	-81,224	-0,107	0,024
330,056	-200,000	-0,036	-0,181
331,070	11,121	-0,079	-0,041
332,085	79,840	-0,067	0,050
333,100	-115,015	-0,199	0,026
334,114	140,177	-0,132	-0,120
335,129	578,772	-0,097	-0,163
336,143	-103,802	-0,263	-0,042
337,158	113,938	-0,171	-0,143
338,173	524,145	-0,100	-0,162
339,187	-28,643	-0,235	-0,092
340,202	99,434	-0,306	-0,243
341,216	200,831	-0,188	-0,199
342,231	-42,505	-0,265	-0,093
343,246	-106,910	-0,066	-0,010
344,260	16,480	-0,181	-0,098
345,275	66,512	-0,043	0,030
346,289	513,444	-0,070	-0,113
347,304	42,633	-0,125	-0,078
348,319	14,521	-0,207	-0,111
349,333	330,257	-0,167	-0,221
350,348	15,259	-0,227	-0,122
351,362	-95,291	-0,182	-0,033
352,377	264,923	-0,079	-0,094
353,392	189,573	-0,084	0,086
354,406	-57,326	-0,183	-0,055
355,421	210,381	1313,031	1417,712
356,435	161,953	1473,580	1418,221
