DTS Sentinel unit serial number:	SN410029Multiplexer serial number:	ORYXHardware model number:	OX2-SRSoftware version number:	ORYX F/W v4,00 Oryx Data Collector v3.7.2.0data status	okinstallation	B3 Nyhavnadifferential loss correction	single-endedforward channel	channel 1reverse channel	N/Adate	2023/11/29time	17:57:30forward acquisition time	300,00reverse acquisition time	0,00gamma	499,1914k internal	0,3210k external	0,3210temperature offset calibration	1,0000default loss term (dB/km)	0,3820temperature slope calibration	1,0000multiplexer offset coefficient	1,0000multiplexer slope coefficient	1,0000fibre end	0,00T internal ref (°C)	11,24T ext. ref 1 (°C)	-4,01T ext. ref 2 (°C)	-4,09length (m)	temperature (°C)	Stokes	anti-Stokes-744,400	229,362	-0,144	-0,171
-743,385	-200,000	-0,068	0,286
-742,371	229,046	-0,162	-0,192
-741,356	-200,000	-0,030	0,351
-740,342	11,729	-0,165	-0,091
-739,327	800,000	-0,108	0,282
-738,312	313,461	-0,221	-0,303
-737,298	221,492	-0,138	0,161
-736,283	42,421	-0,295	-0,194
-735,269	-200,000	0,037	0,403
-734,254	578,938	-0,158	-0,282
-733,239	-54,766	-0,157	-0,051
-732,225	47,453	-0,072	-0,049
-731,210	95,752	-0,057	0,047
-730,196	-111,175	-0,117	-0,017
-729,181	-114,397	0,060	0,008
-728,167	-153,311	-0,149	0,007
-727,152	-200,000	0,039	-0,183
-726,137	800,000	-0,059	-0,126
-725,123	-88,271	-0,156	0,034
-724,108	122,946	-0,110	-0,100
-723,094	0,148	-0,069	-0,036
-722,079	396,001	0,011	-0,016
-721,064	608,449	-0,075	-0,136
-720,050	800,000	-0,017	0,052
-719,035	-91,211	-0,099	0,020
-718,021	417,400	-0,098	-0,152
-717,006	-0,966	-0,104	-0,053
-715,991	800,000	-0,057	-0,131
-714,977	-121,205	-0,039	-0,005
-713,962	-200,000	0,045	0,188
-712,948	-52,639	0,044	0,015
-711,933	-40,847	-0,114	0,042
-710,918	81,977	-0,056	-0,044
-709,904	-115,887	0,046	-0,006
-708,889	800,000	-0,032	0,098
-707,875	800,000	-0,028	-0,068
-706,860	323,489	-0,078	0,107
-705,845	77,387	0,121	0,093
-704,831	-129,752	0,074	-0,007
-703,816	800,000	-0,037	0,115
-702,802	-124,674	-0,034	-0,004
-701,787	-179,590	-0,122	0,002
-700,772	-128,873	0,049	0,005
-699,758	-200,000	0,012	0,127
-698,743	-153,850	0,052	-0,003
-697,729	101,616	-0,113	0,095
-696,714	37,000	-0,096	0,061
-695,699	206,130	-0,049	0,056
-694,685	448,712	-0,017	-0,028
-693,670	153,986	-0,004	-0,004
-692,656	-8,900	0,091	-0,044
-691,641	83,257	0,099	0,078
-690,627	-32,815	-0,099	0,039
-689,612	800,000	0,008	0,023
-688,597	-118,586	-0,062	-0,008
-687,583	57,796	-0,148	0,104
-686,568	-36,117	-0,023	-0,009
-685,554	-200,000	-0,003	0,043
-684,539	800,000	0,016	0,040
-683,524	-6,898	-0,097	0,048
-682,510	406,094	-0,015	0,023
-681,495	547,378	-0,043	0,074
-680,481	-78,030	-0,172	0,043
-679,466	182,812	-0,062	-0,067
-678,451	-96,622	-0,027	-0,005
-677,437	-200,000	0,008	0,125
-676,422	-33,975	0,046	-0,018
-675,408	-200,000	-0,004	-0,081
-674,393	65,810	-0,121	0,089
-673,378	-82,872	-0,162	0,038
-672,364	86,782	-0,092	-0,074
-671,349	24,070	-0,010	0,006
-670,335	40,519	0,027	0,018
-669,320	-200,000	-0,003	0,048
-668,305	-200,000	-0,010	-0,091
-667,291	800,000	-0,024	-0,048
-666,276	-200,000	0,001	-0,099
-665,262	-200,000	-0,020	-0,136
-664,247	-42,402	-0,040	-0,015
-663,232	-200,000	-0,006	-0,179
-662,218	164,378	0,173	-0,177
-661,203	23,691	-0,117	-0,069
-660,189	184,158	-0,063	-0,068
-659,174	-200,000	-0,023	-0,259
-658,159	219,038	-0,038	-0,044
-657,145	-200,000	-0,020	0,095
-656,130	800,000	0,038	0,086
-655,116	-86,007	0,064	0,014
-654,101	-121,776	-0,095	-0,011
-653,086	208,254	-0,060	0,068
-652,072	-200,000	0,002	-0,013
-651,057	-200,000	-0,010	0,056
-650,043	800,000	-0,037	-0,117
-649,028	-200,000	-0,048	-0,226
-648,014	800,000	0,012	0,030
-646,999	-200,000	-0,000	0,076
-645,984	-200,000	0,021	-0,133
-644,970	-14,360	0,070	-0,032
-643,955	-200,000	0,002	0,021
-642,941	800,000	-0,039	-0,080
-641,926	-84,086	0,039	0,009
-640,911	800,000	0,045	0,097
-639,897	-200,000	0,022	0,142
-638,882	-8,813	-0,024	0,012
-637,868	30,634	0,129	-0,080
-636,853	154,672	-0,112	-0,111
-635,838	-200,000	0,010	-0,115
-634,824	-72,051	-0,093	-0,025
-633,809	-55,770	-0,052	-0,017
-632,795	800,000	0,029	-0,082
-631,780	277,667	-0,039	0,051
-630,765	800,000	0,032	-0,070
-629,751	-33,803	-0,099	0,039
-628,736	-3,904	-0,130	-0,065
-627,722	-31,106	-0,028	0,011
-626,707	96,194	0,037	-0,030
-625,692	-18,292	-0,078	0,035
-624,678	153,504	0,078	-0,077
-623,663	-200,000	0,039	-0,209
-622,649	800,000	0,037	-0,108
-621,634	191,339	0,102	-0,111
-620,619	-41,453	-0,062	-0,023
-619,605	-200,000	-0,007	-0,141
-618,590	320,488	0,023	0,032
-617,576	800,000	-0,018	0,039
-616,561	68,798	-0,079	0,058
-615,546	42,631	-0,020	0,013
-614,532	-77,603	-0,109	-0,027
-613,517	298,129	0,053	0,070
-612,503	-149,401	0,104	0,006
-611,488	-103,105	0,085	-0,014
-610,474	-37,008	0,076	-0,029
-609,459	209,920	-0,008	0,009
-608,444	-8,694	-0,057	-0,028
-607,430	-200,000	0,020	-0,098
-606,415	137,754	0,053	-0,050
-605,401	143,765	0,076	-0,073
-604,386	25,370	0,067	0,040
-603,371	-37,710	0,121	0,046
-602,357	437,379	0,048	0,075
-601,342	344,188	-0,094	-0,133
-600,328	-69,001	-0,186	-0,051
-599,313	-200,000	0,012	-0,105
-598,298	-200,000	-0,017	-0,083
-597,284	543,300	-0,063	0,108
-596,269	800,000	-0,038	0,099
-595,255	-200,000	0,032	-0,133
-594,240	-125,932	-0,083	-0,009
-593,225	-200,000	-0,018	-0,083
-592,211	800,000	-0,029	0,071
-591,196	245,675	0,008	0,010
-590,182	301,372	0,087	0,116
-589,167	49,983	0,080	0,054
-588,152	228,088	0,024	0,028
-587,138	219,322	0,022	-0,026
-586,123	800,000	0,024	-0,064
-585,109	-120,847	-0,137	-0,016
-584,094	58,067	0,163	-0,115
-583,079	174,739	0,042	-0,044
-582,065	508,120	-0,088	0,149
-581,050	435,087	-0,016	0,026
-580,036	437,843	-0,082	-0,129
-579,021	800,000	-0,018	0,037
-578,006	320,825	-0,044	0,060
-576,992	-154,631	-0,152	0,007
-575,977	-200,000	0,009	-0,090
-574,963	800,000	0,056	0,123
-573,948	5,118	0,044	0,023
-572,934	-137,846	-0,160	-0,013
-571,919	38,608	-0,081	-0,052
-570,904	35,392	0,126	-0,079
-569,890	-14,324	-0,047	-0,022
-568,875	-200,000	0,009	-0,037
-567,861	-200,000	0,019	0,212
-566,846	-54,826	0,141	-0,046
-565,831	139,133	-0,025	0,024
-564,817	-31,998	0,066	-0,026
-563,802	-200,000	-0,012	-0,118
-562,788	800,000	0,047	-0,094
-561,773	-200,000	0,005	-0,019
-560,758	516,032	-0,056	0,095
-559,744	-24,707	0,107	0,046
-558,729	800,000	0,027	0,069
-557,715	-118,097	-0,044	0,006
-556,700	17,868	-0,020	0,012
-555,685	47,649	-0,036	-0,024
-554,671	-114,906	0,156	0,021
-553,656	-60,677	0,148	-0,045
-552,642	751,805	-0,057	0,112
-551,627	-72,897	0,168	0,044
-550,612	19,949	-0,036	-0,021
-549,598	-200,000	-0,020	-0,078
-548,583	-200,000	0,001	0,014
-547,569	-27,403	0,018	0,007
-546,554	22,825	-0,096	0,057
-545,539	-200,000	0,029	0,145
-544,525	-94,683	0,084	0,016
-543,510	154,751	-0,054	-0,054
-542,496	-160,977	-0,051	0,002
-541,481	258,452	-0,061	0,076
-540,466	-46,185	-0,064	0,023
-539,452	-45,633	0,054	-0,019
-538,437	-52,415	-0,129	0,043
-537,423	46,020	-0,046	0,030
-536,408	-25,323	0,016	0,007
-535,393	800,000	-0,018	0,038
-534,379	348,256	-0,050	-0,071
-533,364	-81,573	0,055	0,013
-532,350	800,000	-0,041	-0,089
-531,335	-60,633	0,087	-0,026
-530,321	19,883	-0,066	0,038
-529,306	-57,081	-0,220	-0,069
-528,291	800,000	0,062	-0,136
-527,277	28,400	-0,077	-0,046
-526,262	-159,044	-0,037	-0,001
-525,248	-200,000	-0,000	-0,018
-524,233	487,906	-0,026	0,043
-523,218	288,186	0,074	0,096
-522,204	107,494	-0,064	-0,054
-521,189	166,314	-0,120	0,122
-520,175	456,695	0,051	-0,081
-519,160	438,739	-0,030	-0,048
-518,145	800,000	-0,006	0,014
-517,131	134,360	0,049	-0,046
-516,116	483,496	0,089	0,146
-515,102	800,000	-0,024	0,051
-514,087	422,173	0,046	-0,071
-513,072	358,463	0,010	0,014
-512,058	-200,000	-0,127	-0,000
-511,043	-200,000	-0,008	-0,096
-510,029	15,427	0,077	-0,043
-509,014	-200,000	-0,008	0,052
-507,999	-123,175	-0,175	0,020
-506,985	-200,000	-0,013	-0,105
-505,970	460,007	0,027	-0,044
-504,956	-200,000	-0,009	-0,046
-503,941	224,499	0,069	0,080
-502,926	12,228	-0,072	0,040
-501,912	-166,421	0,057	-0,002
-500,897	716,912	0,060	-0,115
-499,883	59,469	-0,100	-0,070
-498,868	12,673	-0,115	-0,064
-497,853	800,000	-0,035	-0,078
-496,839	-16,732	0,032	-0,015
-495,824	-42,751	0,125	-0,045
-494,810	11,454	-0,102	0,056
-493,795	-200,000	0,018	0,108
-492,781	172,568	-0,105	0,108
-491,766	800,000	-0,014	-0,027
-490,751	135,653	0,064	-0,060
-489,737	472,028	0,037	0,061
-488,722	-200,000	0,024	0,087
-487,708	614,889	0,056	0,102
-486,693	-105,042	-0,134	0,022
-485,678	-101,539	-0,071	-0,012
-484,664	-12,772	-0,068	-0,032
-483,649	189,158	-0,066	-0,071
-482,635	800,000	-0,025	-0,078
-481,620	185,164	0,013	0,014
-480,605	-81,041	0,084	-0,020
-479,591	587,883	0,040	0,071
-478,576	-28,526	-0,127	0,052
-477,562	800,000	-0,034	-0,089
-476,547	42,912	-0,027	-0,017
-475,532	-29,555	0,093	0,038
-474,518	-200,000	0,009	-0,158
-473,503	-200,000	-0,012	0,049
-472,489	12,470	0,036	-0,020
-471,474	294,980	-0,029	-0,038
-470,459	-200,000	0,012	-0,043
-469,445	734,096	-0,035	-0,068
-468,430	-200,000	-0,012	0,075
-467,416	-200,000	0,014	0,073
-466,401	-200,000	-0,013	-0,086
-465,386	194,323	-0,013	-0,014
-464,372	-200,000	0,008	0,101
-463,357	128,626	0,050	0,046
-462,343	23,181	0,037	0,022
-461,328	-5,959	-0,058	0,028
-460,313	327,338	0,051	-0,070
-459,299	-141,904	0,206	0,015
-458,284	-200,000	0,044	0,175
-457,270	-77,596	0,105	-0,026
-456,255	-10,971	-0,093	0,044
-455,241	-200,000	0,013	-0,154
-454,226	237,269	0,067	-0,080
-453,211	731,212	0,038	-0,074
-452,197	-185,985	0,120	0,001
-451,182	800,000	0,045	0,126
-450,168	-164,977	-0,143	0,004
-449,153	156,789	-0,039	-0,038
-448,138	-200,000	0,009	-0,086
-447,124	800,000	-0,047	-0,123
-446,109	-200,000	0,009	0,060
-445,095	-200,000	0,015	0,104
-444,080	-83,265	0,052	0,012
-443,065	-100,707	0,040	-0,007
-442,051	800,000	-0,049	0,097
-441,036	-149,895	-0,105	0,006
-440,022	800,000	-0,020	0,040
-439,007	800,000	0,044	0,123
-437,992	51,667	-0,043	0,030
-436,978	-142,746	0,228	-0,016
-435,963	75,300	-0,033	0,025
-434,949	58,300	-0,050	-0,035
-433,934	481,474	-0,074	-0,121
-432,919	346,307	0,032	0,045
-431,905	-200,000	-0,002	-0,105
-430,890	139,103	0,056	-0,053
-429,876	144,080	0,118	0,113
-428,861	422,854	0,066	0,102
-427,846	257,158	-0,016	0,019
-426,832	-200,000	0,011	0,046
-425,817	-200,000	-0,002	0,114
-424,803	-200,000	-0,003	0,057
-423,788	-160,178	0,140	-0,005
-422,773	21,611	0,035	0,020
-421,759	-47,864	-0,082	0,028
-420,744	-200,000	0,006	0,056
-419,730	-44,252	-0,102	0,036
-418,715	-138,551	-0,077	-0,006
-417,701	51,353	0,117	-0,080
-416,686	286,761	0,013	0,017
-415,671	-81,281	-0,114	0,027
-414,657	255,534	-0,054	0,066
-413,642	226,747	0,034	0,040
-412,628	533,745	-0,066	0,112
-411,613	269,647	-0,072	-0,090
-410,598	-76,175	0,054	0,014
-409,584	-155,128	-0,027	0,001
-408,569	800,000	-0,032	-0,097
-407,555	-138,448	0,130	-0,010
-406,540	72,224	0,054	0,040
-405,525	146,237	0,010	-0,010
-404,511	35,336	-0,131	-0,082
-403,496	495,844	0,059	-0,098
-402,482	800,000	0,039	-0,121
-401,467	800,000	0,043	0,086
-400,452	-200,000	0,011	-0,046
-399,438	181,866	0,042	0,044
-398,423	-44,399	-0,086	-0,031
-397,409	201,744	-0,089	-0,098
-396,394	-200,000	0,015	-0,094
-395,379	-17,107	-0,048	-0,022
-394,365	-200,000	-0,021	0,153
-393,350	226,996	-0,025	-0,030
-392,336	-200,000	-0,027	0,145
-391,321	200,519	-0,107	-0,117
-390,306	800,000	0,017	-0,038
-389,292	800,000	0,019	-0,051
-388,277	-109,277	0,114	0,017
-387,263	217,818	0,078	0,089
-386,248	-48,648	-0,157	-0,054
-385,233	-113,994	-0,133	-0,018
-384,219	800,000	-0,047	0,099
-383,204	-200,000	0,036	-0,124
-382,190	-200,000	0,006	-0,073
-381,175	-116,560	0,068	0,009
-380,160	253,138	-0,034	-0,041
-379,146	107,863	0,140	0,120
-378,131	631,402	-0,073	0,134
-377,117	-35,060	0,129	0,050
-376,102	356,815	0,044	-0,063
-375,088	800,000	0,027	-0,053
-374,073	-33,511	-0,041	0,016
-373,058	-65,954	0,079	0,022
-372,044	200,988	0,088	0,097
-371,029	-200,000	0,052	0,174
-370,015	39,328	0,066	-0,042
-369,000	112,927	0,049	-0,042
-367,985	64,008	0,058	-0,042
-366,971	133,377	0,099	-0,092
-365,956	800,000	-0,011	-0,024
-364,942	198,769	0,144	-0,157
-363,927	-200,000	0,005	-0,080
-362,912	800,000	0,033	0,078
-361,898	219,692	0,056	-0,064
-360,883	-101,318	-0,100	-0,017
-359,869	-104,312	-0,067	0,011
-358,854	15,341	0,105	-0,059
-357,839	-85,306	-0,041	-0,009
-356,825	689,206	0,098	0,184
-355,810	43,724	-0,108	0,071
-354,796	800,000	-0,023	0,065
-353,781	27,603	-0,079	0,047
-352,766	-200,000	0,000	-0,101
-351,752	-80,632	-0,128	0,030
-350,737	-99,275	0,134	-0,024
-349,723	-200,000	0,017	0,094
-348,708	196,695	0,041	-0,045
-347,693	-200,000	-0,014	-0,093
-346,679	-85,801	-0,062	-0,014
-345,664	358,422	0,041	-0,059
-344,650	-200,000	-0,035	-0,192
-343,635	238,212	-0,095	0,113
-342,620	-200,000	-0,005	-0,035
-341,606	149,446	0,030	0,029
-340,591	273,619	-0,041	0,051
-339,577	210,616	0,096	-0,107
-338,562	-128,808	-0,046	-0,005
-337,548	-200,000	-0,007	0,046
-336,533	800,000	0,061	0,159
-335,518	254,671	-0,083	0,101
-334,504	-36,522	0,102	-0,039
-333,489	-37,846	0,096	0,036
-332,475	-6,736	0,101	-0,049
-331,460	6,948	-0,031	0,016
-330,445	-200,000	0,020	0,068
-329,431	-200,000	0,007	0,058
-328,416	140,369	0,106	0,100
-327,402	63,716	-0,143	0,102
-326,387	264,812	-0,020	0,025
-325,372	273,757	-0,084	-0,107
-324,358	248,122	-0,103	0,124
-323,343	9,413	0,097	-0,052
-322,329	503,412	-0,023	0,039
-321,314	-82,953	0,030	0,007
-320,299	-200,000	0,039	0,172
-319,285	-56,114	-0,138	0,044
-318,270	-115,676	-0,020	0,003
-317,256	-111,589	-0,051	0,007
-316,241	95,878	-0,048	-0,039
-315,226	800,000	-0,035	0,090
-314,212	91,809	0,069	0,055
-313,197	31,241	0,090	-0,055
-312,183	104,984	-0,080	-0,067
-311,168	-134,136	-0,162	0,014
-310,153	800,000	0,033	0,084
-309,139	800,000	-0,013	-0,038
-308,124	76,071	-0,051	0,039
-307,110	81,226	0,041	-0,032
-306,095	800,000	-0,027	-0,078
-305,080	-200,000	0,011	-0,106
-304,066	800,000	-0,025	-0,052
-303,051	658,844	0,027	0,050
-302,037	-158,527	0,103	0,004
-301,022	-106,612	-0,030	0,005
-300,008	94,890	-0,044	0,036
-298,993	-145,035	0,183	0,012
-297,978	36,117	0,094	0,059
-296,964	456,918	-0,033	0,052
-295,949	10,748	-0,068	-0,037
-294,935	-43,648	-0,127	-0,045
-293,920	-200,000	0,007	-0,084
-292,905	-128,410	0,071	-0,007
-291,891	706,482	-0,022	0,041
-290,876	-73,461	0,131	0,034
-289,862	-200,000	-0,023	-0,110
-288,847	-49,762	0,032	0,011
-287,832	215,544	-0,040	-0,046
-286,818	-1,554	-0,039	-0,019
-285,803	580,728	0,071	0,124
-284,789	153,611	-0,051	0,050
-283,774	-111,648	0,074	-0,011
-282,759	1,414	-0,130	-0,066
-281,745	432,184	0,046	-0,071
-280,730	-144,619	0,074	-0,005
-279,716	-44,557	-0,143	0,050
-278,701	-200,000	-0,031	0,215
-277,686	-24,011	0,162	0,069
-276,672	-200,000	0,125	0,000
-275,657	257,880	-0,062	-0,076
-274,643	-200,000	-0,009	-0,078
-273,628	34,400	-0,042	-0,026
-272,613	39,025	-0,044	-0,028
-271,599	-116,835	0,065	-0,008
-270,584	-146,054	0,099	-0,006
-269,570	252,139	-0,045	0,055
-268,555	-200,000	-0,029	0,158
-267,540	-39,432	0,083	-0,031
-266,526	-200,000	0,022	-0,076
-265,511	-30,099	-0,022	-0,009
-264,497	671,238	-0,039	-0,073
-263,482	800,000	-0,038	0,079
-262,467	109,005	0,097	-0,083
-261,453	-21,463	-0,089	-0,039
-260,438	-65,427	0,015	0,004
-259,424	544,602	-0,085	-0,145
-258,409	254,069	0,024	-0,030
-257,395	-200,000	-0,024	0,223
-256,380	194,726	0,069	0,075
-255,365	-155,075	0,065	-0,003
-254,351	800,000	-0,023	-0,067
-253,336	-200,000	-0,023	0,109
-252,322	261,238	0,005	-0,006
-251,307	-200,000	0,011	-0,049
-250,292	12,619	0,089	-0,049
-249,278	64,971	0,022	-0,016
-248,263	-200,000	-0,003	0,091
-247,249	-38,930	-0,176	0,065
-246,234	347,952	-0,043	0,060
-245,219	800,000	0,033	0,089
-244,205	-73,357	-0,040	0,010
-243,190	800,000	-0,021	-0,046
-242,176	-200,000	-0,003	0,210
-241,161	-200,000	-0,002	-0,122
-240,146	-200,000	-0,000	-0,021
-239,132	-31,554	0,148	-0,059
-238,117	454,091	-0,037	-0,058
-237,103	-200,000	0,001	0,039
-236,088	-200,000	-0,017	-0,086
-235,073	509,670	0,076	0,127
-234,059	-163,240	0,057	-0,002
-233,044	-23,278	-0,053	-0,023
-232,030	496,044	0,051	0,084
-231,015	-39,990	0,128	-0,047
-230,000	-27,060	-0,056	-0,023
-228,986	463,407	-0,033	-0,053
-227,971	29,150	0,061	-0,037
-226,957	-25,399	-0,088	-0,037
-225,942	-22,888	-0,100	-0,042
-224,927	-200,000	-0,007	-0,032
-223,913	800,000	-0,038	-0,080
-222,898	-77,615	-0,109	0,027
-221,884	99,890	-0,115	0,095
-220,869	386,955	0,009	0,014
-219,855	120,034	-0,130	0,114
-218,840	116,666	0,034	-0,030
-217,825	800,000	0,037	-0,084
-216,811	755,453	-0,080	-0,154
-215,796	-200,000	-0,006	-0,112
-214,782	170,757	0,110	-0,113
-213,767	537,414	-0,004	-0,008
-212,752	449,112	-0,066	0,104
-211,738	-68,477	0,093	0,025
-210,723	-200,000	0,000	-0,108
-209,709	19,170	0,056	0,032
-208,694	-200,000	-0,020	-0,099
-207,679	-80,582	-0,084	-0,020
-206,665	-134,391	-0,072	0,006
-205,650	528,391	0,098	0,165
-204,636	-200,000	-0,019	0,126
-203,621	237,330	0,019	-0,023
-202,606	-52,585	-0,082	0,027
-201,592	-200,000	0,017	0,056
-200,577	-5,048	-0,033	0,016
-199,563	800,000	-0,026	0,056
-198,548	345,259	-0,019	0,027
-197,533	-27,562	0,087	-0,036
-196,519	74,507	0,041	-0,031
-195,504	130,957	-0,084	0,077
-194,490	171,659	-0,030	-0,031
-193,475	-200,000	0,008	-0,102
-192,460	-200,000	0,012	0,143
-191,446	-97,370	0,165	-0,030
-190,431	-200,000	-0,004	0,085
-189,417	-200,000	0,040	0,227
-188,402	358,989	-0,052	0,074
-187,387	391,139	-0,071	-0,105
-186,373	657,497	-0,039	-0,071
-185,358	28,089	0,021	-0,012
-184,344	346,857	0,060	0,084
-183,329	373,287	0,029	0,042
-182,315	-122,359	-0,052	-0,006
-181,300	129,078	0,048	-0,043
-180,285	-23,991	-0,036	0,015
-179,271	-17,377	-0,015	0,007
-178,256	-200,000	0,000	0,014
-177,242	683,421	0,018	-0,033
-176,227	226,044	0,026	-0,031
-175,212	37,539	0,101	-0,063
-174,198	-136,754	0,098	0,008
-173,183	147,700	-0,040	-0,038
-172,169	800,000	-0,008	-0,023
-171,154	164,007	-0,053	0,053
-170,139	88,547	0,092	0,073
-169,125	-200,000	-0,002	0,060
-168,110	-70,408	0,133	0,036
-167,096	-200,000	-0,009	-0,036
-166,081	-200,000	0,040	-0,156
-165,066	511,662	-0,060	-0,100
-164,052	587,655	-0,076	-0,133
-163,037	491,866	-0,039	-0,064
-162,023	800,000	0,061	0,170
-161,008	-200,000	0,009	0,081
-159,993	-200,000	-0,025	0,137
-158,979	800,000	-0,060	-0,129
-157,964	800,000	-0,011	0,028
-156,950	-22,693	-0,080	0,034
-155,935	5,526	0,100	0,052
-154,920	38,216	-0,037	-0,023
-153,906	310,845	-0,117	0,156
-152,891	-200,000	-0,005	0,133
-151,877	555,192	-0,062	-0,106
-150,862	20,006	0,019	-0,011
-149,847	-31,320	-0,066	-0,026
-148,833	-200,000	0,008	0,098
-147,818	45,462	0,153	0,100
-146,804	-125,889	-0,039	0,004
-145,789	-105,799	0,071	0,011
-144,775	109,810	-0,027	-0,023
-143,760	-16,885	-0,131	0,058
-142,745	-200,000	0,013	0,086
-141,731	85,487	-0,044	0,034
-140,716	57,843	0,060	-0,042
-139,702	69,840	-0,106	0,077
-138,687	19,796	0,093	0,053
-137,672	-119,172	-0,128	0,016
-136,658	-42,166	-0,065	0,023
-135,643	205,669	0,065	-0,071
-134,629	137,605	0,073	-0,068
-133,614	-49,044	0,059	0,020
-132,599	-200,000	-0,028	0,160
-131,585	800,000	-0,079	0,166
-130,570	800,000	0,005	0,012
-129,556	177,615	0,145	0,149
-128,541	-126,120	0,054	0,006
-127,526	-102,479	-0,078	0,013
-126,512	47,255	0,026	-0,017
-125,497	-200,000	-0,007	0,116
-124,483	282,646	0,108	0,137
-123,468	-16,969	0,042	-0,019
-122,453	3,837	-0,039	0,020
-121,439	440,881	-0,070	0,109
-120,424	100,107	0,044	-0,036
-119,410	-200,000	0,020	0,104
-118,395	-136,303	0,009	0,001
-117,380	-200,000	0,024	0,123
-116,366	241,498	0,056	-0,066
-115,351	-200,000	0,012	-0,059
-114,337	-200,000	0,022	-0,113
-113,322	-71,462	-0,098	0,026
-112,307	37,136	0,087	0,055
-111,293	-53,173	-0,123	-0,040
-110,278	355,776	-0,030	-0,042
-109,264	752,650	-0,057	-0,109
-108,249	192,992	-0,072	-0,077
-107,234	397,186	-0,031	0,046
-106,220	-200,000	-0,008	0,058
-105,205	85,439	0,064	-0,050
-104,191	90,132	0,081	-0,064
-103,176	-166,775	-0,108	-0,003
-102,162	628,403	-0,014	-0,024
-101,147	-200,000	-0,013	-0,062
-100,132	86,473	-0,106	0,082
-99,118	262,011	-0,012	0,014
-98,103	800,000	0,092	-0,209
-97,089	-174,544	-0,085	-0,002
-96,074	800,000	0,019	0,046
-95,059	181,268	0,067	-0,070
-94,045	-200,000	0,014	-0,094
-93,030	153,983	-0,067	0,065
-92,016	184,896	-0,117	-0,123
-91,001	79,762	-0,064	-0,049
-89,986	-200,000	0,008	-0,116
-88,972	-8,729	-0,035	-0,016
-87,957	196,420	-0,091	0,098
-86,943	60,172	-0,058	0,041
-85,928	154,166	-0,121	-0,117
-84,913	-200,000	-0,006	-0,025
-83,899	-102,355	0,051	0,009
-82,884	44,979	0,053	-0,034
-81,870	746,141	-0,060	0,115
-80,855	-200,000	0,017	0,125
-79,840	800,000	0,042	0,097
-78,826	-125,117	0,060	0,006
-77,811	-200,000	-0,015	-0,089
-76,797	800,000	0,048	-0,118
-75,782	-200,000	0,030	0,113
-74,767	91,155	-0,087	0,069
-73,753	-200,000	0,015	0,155
-72,738	-200,000	0,015	0,091
-71,724	-51,489	0,109	-0,036
-70,709	45,559	-0,081	0,053
-69,694	800,000	0,015	0,030
-68,680	594,045	-0,069	0,120
-67,665	-9,723	-0,147	0,069
-66,651	-81,969	-0,037	0,009
-65,636	-16,556	0,031	-0,014
-64,622	-200,000	-0,003	-0,036
-63,607	289,592	-0,022	-0,028
-62,592	-89,945	-0,097	-0,020
-61,578	-200,000	-0,002	0,027
-60,563	-30,022	-0,110	0,044
-59,549	-200,000	0,003	0,052
-58,534	36,768	-1,764	-1,099
-57,519	449,423	-1,325	-2,071
-56,505	-200,000	-0,284	-4,404
-55,490	333,713	0,922	1,263
-54,476	800,000	5,089	11,281
-53,461	-200,000	20,653	327,787
-52,446	800,000	753,959	2316,253
-51,432	551,487	1659,595	2823,862
-50,417	73,899	1663,922	1230,753
-49,403	19,068	1537,185	868,026
-48,388	13,125	1459,771	795,559
-47,373	18,845	1450,670	818,038
-46,359	16,052	1439,851	798,610
-45,344	11,381	1435,700	774,031
-44,330	11,235	1433,935	772,351
-43,315	11,281	1431,841	771,414
-42,300	11,295	1430,119	770,520
-41,286	11,284	1429,142	769,911
-40,271	11,282	1427,603	769,042
-39,257	11,265	1426,176	768,162
-38,242	11,333	1425,179	767,916
-37,227	11,323	1424,088	767,252
-36,213	11,309	1422,723	766,421
-35,198	11,291	1421,834	765,824
-34,184	11,363	1420,770	765,563
-33,169	11,298	1419,313	764,441
-32,154	11,329	1418,434	764,084
-31,140	11,351	1417,284	763,534
-30,125	11,368	1416,084	762,939
-29,111	11,367	1415,090	762,371
-28,096	11,376	1413,762	761,664
-27,082	11,290	1412,680	760,649
-26,067	11,278	1411,834	760,108
-25,052	11,264	1410,703	759,402
-24,038	11,272	1409,643	758,836
-23,023	11,284	1408,600	758,302
-22,009	11,245	1407,379	757,436
-20,994	11,224	1406,650	756,915
-19,979	11,258	1405,674	756,514
-18,965	11,264	1404,699	755,989
-17,950	11,270	1403,744	755,471
-16,936	11,206	1403,137	754,817
-15,921	11,193	1402,027	754,130
-14,906	11,226	1401,039	753,724
-13,892	11,229	1400,025	753,164
-12,877	11,173	1399,317	752,489
-11,863	11,192	1398,519	752,118
-10,848	11,112	1397,913	751,394
-9,833	11,138	1396,774	750,874
-8,819	11,090	1396,009	750,207
-7,804	11,038	1395,098	749,449
-6,790	11,117	1393,791	749,083
-5,775	11,101	1392,756	748,420
-4,760	11,081	1391,868	747,824
-3,746	11,113	1390,925	747,434
-2,731	11,089	1390,098	746,850
-1,717	11,096	1389,235	746,388
-0,702	11,088	1387,502	745,390
0,313	15,067	1301,791	717,594
1,327	31,251	693,960	419,395
2,342	48,654	120,454	79,540
3,356	-0,186	16,497	8,253
4,371	6,736	3,318	1,736
5,386	-0,315	0,785	0,392
6,400	593,501	0,291	0,509
7,415	-160,661	-0,371	0,014
8,429	73,109	-0,171	-0,126
9,444	179,479	-0,255	-0,264
10,459	94,304	-0,218	-0,174
11,473	50,701	-0,267	-0,178
12,488	57,059	-0,267	-0,183
13,502	62,834	-0,219	-0,155
14,517	-33,018	-0,413	-0,161
15,531	-35,133	-0,455	-0,174
16,546	89,503	-0,364	-0,286
17,561	19,446	-0,469	-0,265
18,575	63,067	-0,247	-0,174
19,590	180,532	-0,210	-0,217
20,604	-162,837	-0,197	0,007
21,619	53,819	-0,350	-0,236
22,634	30,000	-0,590	-0,353
23,648	233,999	-0,302	-0,351
24,663	30,231	-0,329	-0,198
25,677	-113,362	-0,319	-0,044
26,692	241,116	-0,291	-0,343
27,707	120,843	-0,241	-0,211
28,721	174,404	-0,297	-0,302
29,736	12,159	-0,364	-0,197
30,750	124,052	-0,343	-0,303
31,765	69,835	-0,411	-0,298
32,780	18,021	-0,419	-0,234
33,794	90,663	-0,327	-0,257
34,809	-16,866	-0,431	-0,191
35,823	50,458	-0,397	-0,264
36,838	101,425	-0,303	-0,248
37,853	289,722	-0,352	-0,450
38,867	172,066	-0,336	-0,340
39,882	254,520	-0,253	-0,305
40,896	69,695	-0,360	-0,261
41,911	-31,463	-0,422	-0,166
42,926	38,794	-0,383	-0,240
43,940	510,329	-0,256	-0,420
44,955	84,435	-0,438	-0,336
45,969	24,839	-0,358	-0,208
46,984	7,805	-0,350	-0,184
47,999	128,584	-0,245	-0,219
49,013	141,653	-0,315	-0,293
50,028	29,691	-0,306	-0,182
51,042	-39,751	-0,398	-0,145
52,057	35,567	-0,425	-0,262
53,071	128,634	-0,339	-0,303
54,086	68,094	-0,335	-0,241
55,101	58,244	-0,283	-0,194
56,115	111,636	-0,362	-0,307
57,130	136,390	-0,254	-0,233
58,144	134,406	-0,314	-0,286
59,159	80,277	-0,411	-0,310
60,174	112,541	-0,364	-0,309
61,188	126,535	-0,384	-0,342
62,203	-50,690	-0,477	-0,157
63,217	-89,838	-0,390	-0,079
64,232	15,243	-0,359	-0,197
65,247	26,508	-0,389	-0,228
66,261	5,818	-0,307	-0,159
67,276	41,806	-0,344	-0,218
68,290	4,713	-0,331	-0,170
69,305	-26,914	-0,433	-0,176
70,320	-104,270	-0,299	-0,048
71,334	-31,521	-0,321	-0,126
72,349	180,804	-0,421	-0,434
73,363	135,241	-0,276	-0,251
74,378	-116,627	-0,374	-0,048
75,393	-36,506	-0,434	-0,163
76,407	145,848	-0,266	-0,250
77,422	200,977	-0,196	-0,211
78,436	-12,932	-0,296	-0,134
79,451	-52,948	-0,411	-0,132
80,466	133,565	-0,333	-0,302
81,480	124,139	-0,305	-0,269
82,495	-3,622	-0,330	-0,160
83,509	75,272	-0,406	-0,300
84,524	-6,694	-0,320	-0,152
85,539	-20,234	-0,315	-0,135
86,553	-4,176	-0,306	-0,148
87,568	221,029	-0,225	-0,254
88,582	235,662	-0,257	-0,298
89,597	-1,468	-0,379	-0,187
90,611	-7,983	-0,303	-0,143
91,626	-7,680	-0,319	-0,150
92,641	-57,922	-0,368	-0,112
93,655	33,364	-0,322	-0,195
94,670	61,973	-0,275	-0,191
95,684	47,038	-0,247	-0,161
96,699	92,374	-0,336	-0,265
97,714	-154,331	-0,218	0,010
98,728	561,028	-0,100	-0,170
99,743	-30,629	-0,297	-0,117
100,757	169,249	-0,148	-0,148
101,772	-31,561	-0,325	-0,127
102,787	27,090	-0,359	-0,210
103,801	217,783	-0,248	-0,277
104,816	-16,425	-0,296	-0,131
105,830	31,877	-0,238	-0,143
106,845	503,488	-0,161	-0,261
107,860	170,297	-0,215	-0,215
108,874	111,883	-0,293	-0,247
109,889	-72,023	-0,392	-0,101
110,903	21,679	-0,277	-0,157
111,918	36,093	-0,338	-0,207
112,933	-97,356	-0,248	-0,045
113,947	-16,649	-0,292	-0,129
114,962	466,082	-0,117	-0,184
115,976	8,464	-0,235	-0,123
116,991	-39,996	-0,482	-0,175
118,006	192,643	-0,223	-0,235
119,020	19,862	-0,304	-0,170
120,035	-95,842	-0,167	-0,031
121,049	145,591	-0,142	-0,133
122,064	40,658	-0,178	-0,112
123,079	12,289	-0,347	-0,186
124,093	349,195	-0,172	-0,238
125,108	-96,860	-0,361	-0,066
126,122	-0,729	-0,324	-0,160
127,137	363,623	-0,184	-0,259
128,151	-67,070	-0,206	-0,056
129,166	4,689	-0,173	-0,088
130,181	-88,395	-0,131	-0,027
131,195	186,157	-0,268	-0,278
132,210	27,005	-0,395	-0,231
133,224	-14,559	-0,151	-0,067
134,239	15,049	-0,264	-0,144
135,254	-40,658	-0,242	-0,087
136,268	385,914	-0,154	-0,223
137,283	239,087	-0,137	-0,159
138,297	219,427	-0,158	-0,177
139,312	-47,804	-0,407	-0,137
140,327	89,043	-0,214	-0,166
141,341	-53,514	-0,366	-0,116
142,356	194,392	-0,237	-0,251
143,370	96,461	-0,210	-0,168
144,385	32,663	-0,293	-0,176
145,400	-21,589	-0,263	-0,111
146,414	140,621	-0,253	-0,233
147,429	19,721	-0,313	-0,175
148,443	523,961	-0,150	-0,246
149,458	326,569	-0,188	-0,252
150,473	-169,820	-0,333	-0,008
151,487	-71,492	-0,296	-0,077
152,502	-51,557	-0,250	-0,081
153,516	134,828	-0,250	-0,226
154,531	253,481	-0,177	-0,211
155,546	-140,723	-0,065	-0,005
156,560	-117,087	-0,242	-0,030
157,575	38,717	-0,278	-0,172
158,589	76,971	-0,197	-0,146
159,604	159,256	-0,229	-0,222
160,619	82,410	-0,337	-0,254
161,633	-16,706	-0,331	-0,145
162,648	-3,099	-0,227	-0,110
163,662	-164,169	-0,211	-0,007
164,677	175,369	-0,165	-0,166
165,692	215,736	-0,203	-0,225
166,706	-1,539	-0,261	-0,127
167,721	315,526	-0,184	-0,241
168,735	294,706	-0,218	-0,278
169,750	101,297	-0,274	-0,222
170,764	800,000	-0,112	-0,236
171,779	-64,398	-0,243	-0,068
172,794	14,370	-0,273	-0,148
173,808	64,273	-0,245	-0,171
174,823	438,110	-0,181	-0,275
175,837	-93,496	-0,282	-0,054
176,852	58,391	-0,231	-0,157
177,867	39,940	-0,228	-0,142
178,881	371,439	-0,137	-0,193
179,896	673,882	-0,168	-0,304
180,910	106,536	-0,234	-0,192
181,925	106,180	-0,220	-0,181
182,940	-102,833	-0,305	-0,050
183,954	-60,392	-0,241	-0,071
184,969	-200,000	-0,032	-0,277
185,983	-192,571	-0,215	0,001
186,998	-16,763	-0,211	-0,092
188,013	-128,049	-0,181	-0,018
189,027	-2,771	-0,257	-0,124
190,042	85,041	-0,226	-0,172
191,056	38,924	-0,261	-0,161
192,071	725,961	-0,131	-0,244
193,086	-71,278	-0,357	-0,092
194,100	22,337	-0,143	-0,081
195,115	-19,080	-0,359	-0,154
196,129	298,572	-0,193	-0,247
197,144	501,789	-0,173	-0,278
198,159	-200,000	-0,070	-0,288
199,173	800,000	-0,064	-0,174
200,188	245,262	-0,050	-0,059
201,202	165,164	-0,191	-0,187
202,217	186,392	-0,234	-0,242
203,232	141,445	-0,171	-0,157
204,246	11,783	-0,382	-0,203
205,261	-83,724	-0,347	-0,076
206,275	-31,566	-0,224	-0,087
207,290	46,573	-0,189	-0,121
208,304	242,450	-0,217	-0,252
209,319	229,016	-0,153	-0,173
210,334	436,380	-0,150	-0,227
211,348	38,417	-0,153	-0,094
212,363	124,494	-0,280	-0,244
213,377	212,793	-0,190	-0,208
214,392	-200,000	-0,143	0,000
215,407	134,496	-0,089	-0,080
216,421	93,740	-0,216	-0,170
217,436	15,717	-0,268	-0,146
218,450	-200,000	-0,021	-0,083
219,465	11,405	-0,167	-0,088
220,480	-106,205	-0,186	0,029
221,494	-13,534	-0,127	-0,057
222,509	109,736	-0,049	0,040
223,523	130,339	-0,199	-0,176
224,538	228,571	-0,117	-0,133
225,553	115,783	-0,304	-0,257
226,567	-12,749	-0,249	-0,112
227,582	800,000	-0,102	-0,204
228,596	800,000	-0,068	-0,199
229,611	84,989	-0,237	-0,180
230,626	-0,222	-0,226	-0,111
231,640	378,374	-0,166	-0,236
232,655	174,915	-0,201	-0,202
233,669	35,111	-0,387	-0,234
234,684	-135,499	-0,223	0,018
235,699	28,196	-0,138	-0,081
236,713	-200,000	-0,059	-0,208
237,728	732,527	-0,092	-0,170
238,742	104,253	-0,148	-0,120
239,757	73,511	-0,295	-0,213
240,772	376,190	-0,127	-0,180
241,786	-22,000	-0,284	-0,119
242,801	170,134	-0,144	-0,142
243,815	117,787	-0,260	-0,221
244,830	-130,772	-0,192	-0,018
245,844	172,435	-0,147	-0,146
246,859	79,264	-0,269	-0,199
247,874	70,161	-0,171	-0,122
248,888	800,000	-0,097	-0,285
249,903	408,450	-0,142	-0,208
250,917	800,000	-0,125	-0,254
251,932	114,194	-0,230	-0,193
252,947	-20,719	-0,196	-0,083
253,961	13,351	-0,236	-0,126
254,976	800,000	-0,135	-0,271
255,990	233,960	-0,194	-0,221
257,005	567,465	-0,161	-0,270
258,020	-62,989	-0,079	-0,022
259,034	-26,324	-0,212	-0,086
260,049	-147,155	-0,144	0,008
261,063	127,794	-0,093	-0,082
262,078	-5,686	-0,321	-0,151
263,093	94,877	-0,172	-0,135
264,107	169,402	-0,146	-0,144
265,122	397,801	-0,082	-0,119
266,136	0,553	-0,194	-0,095
267,151	353,182	-0,121	-0,166
268,166	16,455	-0,174	-0,094
269,180	52,758	-0,271	-0,178
270,195	445,743	-0,092	-0,141
271,209	-52,579	-0,115	0,036
272,224	-38,410	-0,156	-0,057
273,239	800,000	-0,085	-0,191
274,253	-37,605	-0,153	0,056
275,268	-7,115	-0,100	-0,046
276,282	491,930	-0,108	-0,170
277,297	-19,956	-0,156	-0,066
278,312	-137,518	-0,150	-0,012
279,326	-38,981	-0,164	-0,059
280,341	-74,335	-0,207	-0,051
281,355	-185,983	-0,213	-0,002
282,370	155,711	-0,188	-0,179
283,384	466,176	-0,105	-0,163
284,399	472,722	-0,140	-0,218
285,414	131,691	-0,165	-0,146
286,428	-120,091	-0,127	0,015
287,443	126,697	-0,190	-0,166
288,457	93,495	-0,173	-0,135
289,472	59,036	-0,112	-0,075
290,487	336,081	-0,136	-0,182
291,501	107,724	-0,206	-0,168
292,516	800,000	-0,099	-0,239
293,530	623,709	-0,120	-0,209
294,545	-61,672	-0,117	-0,034
295,560	-200,000	-0,019	-0,072
296,574	86,827	-0,210	-0,160
297,589	104,273	-0,152	-0,123
298,603	59,129	-0,143	-0,097
299,618	-200,000	-0,093	-0,415
300,633	-30,866	-0,179	-0,069
301,647	706,392	0,022	-0,040
302,662	-148,811	-0,056	-0,003
303,676	71,433	-0,101	-0,072
304,691	38,727	-0,192	-0,117
305,706	-200,000	-0,065	-0,263
306,720	200,594	-0,198	-0,209
307,735	800,000	-0,069	-0,146
308,749	379,182	-0,054	0,076
309,764	-183,390	-0,088	0,001
310,779	-65,354	-0,180	-0,050
311,793	95,890	-0,194	-0,152
312,808	348,954	-0,197	-0,268
313,822	156,899	-0,242	-0,230
314,837	-140,176	-0,284	-0,020
315,852	-44,526	-0,235	-0,080
316,866	-106,909	-0,176	-0,026
317,881	130,219	-0,111	-0,097
318,895	-200,000	-0,012	-0,140
319,910	-0,914	-0,268	-0,130
320,925	67,631	-0,217	-0,152
321,939	-35,434	-0,340	-0,126
322,954	-38,736	-0,150	-0,054
323,968	-200,000	-0,001	-0,100
324,983	25,625	-0,123	-0,070
325,997	155,877	-0,145	-0,137
327,012	151,786	-0,160	-0,149
328,027	190,886	-0,099	-0,102
329,041	-159,532	-0,183	-0,007
330,056	-200,000	-0,030	-0,197
331,070	52,123	-0,089	-0,058
332,085	190,526	-0,096	-0,099
333,100	800,000	-0,052	-0,129
334,114	-147,445	-0,130	0,007
335,129	172,650	-0,117	-0,116
336,143	7,813	-0,066	0,034
337,158	176,686	-0,103	-0,103
338,173	-53,316	-0,124	0,039
339,187	260,832	-0,128	-0,152
340,202	-200,000	-0,006	-0,153
341,216	42,439	-0,159	-0,099
342,231	-141,165	-0,112	-0,008
343,246	-17,708	-0,145	-0,062
344,260	-30,159	-0,095	0,037
345,275	800,000	-0,065	-0,190
346,289	46,412	-0,150	-0,095
347,304	377,278	-0,118	-0,166
348,319	-48,857	-0,225	-0,073
349,333	-46,923	-0,165	-0,055
350,348	716,002	-0,077	-0,140
351,362	-14,218	-0,229	-0,101
352,377	800,000	-0,020	-0,054
353,392	-75,561	-0,182	0,044
354,406	251,041	-0,082	-0,096
355,421	207,616	1308,299	1398,740
356,435	159,719	1468,225	1399,222
