DTS Sentinel unit serial number:	SN410029Multiplexer serial number:	ORYXHardware model number:	OX2-SRSoftware version number:	ORYX F/W v4,00 Oryx Data Collector v3.7.2.0data status	okinstallation	B3 Nyhavnadifferential loss correction	single-endedforward channel	channel 1reverse channel	N/Adate	2023/12/02time	12:17:30forward acquisition time	300,00reverse acquisition time	0,00gamma	499,1914k internal	0,3199k external	0,3199temperature offset calibration	1,0000default loss term (dB/km)	0,3820temperature slope calibration	1,0000multiplexer offset coefficient	1,0000multiplexer slope coefficient	1,0000fibre end	0,00T internal ref (°C)	14,01T ext. ref 1 (°C)	-0,72T ext. ref 2 (°C)	-0,73length (m)	temperature (°C)	Stokes	anti-Stokes-744,400	678,363	-0,123	-0,235
-743,385	-200,000	-0,033	0,259
-742,371	208,057	-0,186	-0,212
-741,356	-200,000	0,035	0,283
-740,342	715,714	-0,143	-0,278
-739,327	-200,000	-0,032	0,321
-738,312	155,661	-0,219	-0,220
-737,298	-200,000	0,056	0,283
-736,283	211,807	-0,245	-0,281
-735,269	800,000	0,083	0,194
-734,254	304,332	-0,196	-0,265
-733,239	410,511	-0,173	0,268
-732,225	800,000	-0,062	-0,163
-731,210	-200,000	-0,011	0,091
-730,196	-2,703	0,120	0,061
-729,181	8,517	-0,081	0,044
-728,167	-200,000	-0,020	-0,088
-727,152	41,671	0,113	-0,075
-726,137	612,741	0,026	-0,047
-725,123	127,164	-0,078	-0,072
-724,108	-95,174	0,025	-0,005
-723,094	-45,932	-0,182	-0,065
-722,079	-200,000	-0,006	-0,114
-721,064	-200,000	0,003	0,078
-720,050	193,251	0,017	-0,019
-719,035	-45,284	-0,097	0,035
-718,021	617,385	-0,071	-0,129
-717,006	-128,739	-0,122	0,012
-715,991	602,108	-0,038	0,070
-714,977	-51,268	-0,139	0,047
-713,962	-149,079	-0,114	-0,007
-712,948	800,000	-0,027	-0,078
-711,933	-200,000	-0,004	0,072
-710,918	688,864	0,034	-0,065
-709,904	-200,000	-0,001	-0,009
-708,889	-200,000	-0,015	-0,096
-707,875	-200,000	-0,030	-0,109
-706,860	26,316	0,012	-0,007
-705,845	-165,391	0,253	0,008
-704,831	-200,000	0,028	0,099
-703,816	429,942	0,043	0,068
-702,802	-38,844	-0,252	0,096
-701,787	-62,879	-0,090	-0,027
-700,772	584,573	-0,061	0,109
-699,758	-200,000	-0,004	0,114
-698,743	800,000	0,035	0,098
-697,729	-171,963	0,108	0,003
-696,714	-98,422	-0,108	0,020
-695,699	800,000	0,046	-0,132
-694,685	18,377	0,103	0,060
-693,670	15,513	-0,157	0,089
-692,656	-200,000	-0,029	-0,142
-691,641	-96,830	0,074	0,014
-690,627	800,000	-0,016	0,036
-689,612	-7,149	-0,095	-0,047
-688,597	-200,000	-0,002	0,067
-687,583	-200,000	-0,025	-0,107
-686,568	-102,956	-0,079	-0,014
-685,554	191,269	0,085	-0,093
-684,539	-119,693	-0,059	0,007
-683,524	598,348	-0,033	0,060
-682,510	66,608	-0,112	-0,083
-681,495	149,969	-0,061	0,060
-680,481	373,227	-0,058	-0,086
-679,466	-200,000	0,071	-0,258
-678,451	-200,000	-0,009	0,076
-677,437	141,940	0,028	-0,027
-676,422	-24,013	0,076	-0,033
-675,408	425,050	0,008	-0,013
-674,393	-150,218	-0,115	0,006
-673,378	223,030	-0,121	-0,142
-672,364	81,654	-0,053	-0,042
-671,349	-200,000	0,000	-0,048
-670,335	108,652	-0,025	-0,021
-669,320	-88,813	0,053	0,011
-668,305	-110,997	0,161	-0,024
-667,291	800,000	0,027	0,082
-666,276	-11,687	-0,112	0,053
-665,262	-200,000	-0,018	-0,066
-664,247	435,748	-0,091	-0,145
-663,232	69,842	-0,119	-0,089
-662,218	-200,000	0,002	-0,051
-661,203	77,806	0,031	0,024
-660,189	-1,021	-0,088	0,045
-659,174	-18,487	0,062	-0,028
-658,159	-83,291	0,063	0,015
-657,145	666,031	0,043	0,081
-656,130	-200,000	-0,027	-0,096
-655,116	220,151	0,023	0,027
-654,101	-109,427	-0,084	0,013
-653,086	69,267	0,030	-0,023
-652,072	82,446	0,123	-0,097
-651,057	235,336	-0,084	-0,101
-650,043	212,167	-0,031	0,036
-649,028	-99,730	0,144	0,026
-648,014	-153,592	0,086	-0,004
-646,999	110,078	-0,077	0,067
-645,984	529,904	0,048	-0,082
-644,970	-112,150	-0,133	-0,019
-643,955	333,684	0,068	0,096
-642,941	-200,000	-0,016	-0,155
-641,926	177,139	-0,019	0,020
-640,911	442,199	0,009	0,014
-639,897	-200,000	0,016	-0,109
-638,882	-200,000	-0,017	-0,186
-637,868	40,914	-0,057	-0,037
-636,853	73,554	-0,066	-0,050
-635,838	-200,000	0,024	-0,158
-634,824	-200,000	-0,021	-0,107
-633,809	-63,918	-0,112	-0,033
-632,795	800,000	0,039	-0,083
-631,780	275,745	-0,058	0,075
-630,765	191,364	-0,024	-0,026
-629,751	-200,000	-0,026	-0,096
-628,736	174,687	-0,105	-0,111
-627,722	800,000	-0,030	-0,066
-626,707	-200,000	0,018	-0,108
-625,692	-200,000	-0,008	-0,039
-624,678	2,874	0,089	0,047
-623,663	-200,000	0,020	-0,078
-622,649	22,957	-0,087	-0,051
-621,634	-200,000	-0,001	-0,036
-620,619	-103,173	0,057	-0,010
-619,605	108,371	-0,165	0,142
-618,590	432,585	-0,042	-0,067
-617,576	236,804	0,112	0,135
-616,561	800,000	-0,049	0,142
-615,546	-151,850	-0,079	-0,004
-614,532	-48,576	-0,111	0,039
-613,517	147,452	0,029	0,028
-612,503	117,064	-0,097	0,086
-611,488	215,449	0,093	0,107
-610,474	388,616	0,059	0,089
-609,459	702,701	-0,033	0,064
-608,444	-111,083	-0,049	0,007
-607,430	-200,000	0,014	-0,232
-606,415	501,660	-0,019	0,031
-605,401	-200,000	-0,021	0,075
-604,386	584,469	0,037	0,066
-603,371	800,000	-0,047	0,096
-602,357	-52,749	0,046	0,015
-601,342	-4,149	-0,032	-0,016
-600,328	489,365	0,083	-0,137
-599,313	248,467	0,026	-0,031
-598,298	-109,422	-0,095	-0,014
-597,284	-200,000	0,001	-0,089
-596,269	106,886	-0,004	-0,003
-595,255	168,217	0,075	0,077
-594,240	-143,503	-0,085	-0,006
-593,225	-46,425	0,046	-0,016
-592,211	-23,890	-0,071	-0,030
-591,196	-121,194	-0,129	-0,015
-590,182	-46,069	0,073	-0,026
-589,167	-200,000	-0,009	-0,054
-588,152	-139,336	0,031	-0,002
-587,138	251,740	0,111	0,136
-586,123	-200,000	0,035	-0,154
-585,109	92,492	-0,110	-0,089
-584,094	-200,000	0,017	-0,097
-583,079	155,980	0,130	0,129
-582,065	-200,000	0,044	0,150
-581,050	-200,000	-0,001	-0,031
-580,036	-32,443	0,110	0,044
-579,021	21,281	0,057	-0,033
-578,006	-200,000	0,040	-0,143
-576,992	231,858	-0,057	-0,067
-575,977	265,908	0,114	-0,144
-574,963	52,689	0,072	0,050
-573,948	800,000	0,041	0,117
-572,934	-84,624	-0,040	-0,009
-571,919	800,000	0,026	-0,063
-570,904	-200,000	-0,009	0,049
-569,890	-99,522	-0,094	0,017
-568,875	-200,000	0,017	0,123
-567,861	115,841	0,150	0,133
-566,846	-64,271	0,045	0,013
-565,831	-200,000	-0,010	-0,079
-564,817	-46,573	-0,058	0,020
-563,802	-200,000	0,004	-0,092
-562,788	292,312	-0,063	0,083
-561,773	1,462	0,069	-0,036
-560,758	-200,000	-0,015	0,137
-559,744	-200,000	-0,007	-0,025
-558,729	800,000	0,057	0,159
-557,715	384,338	-0,039	-0,059
-556,700	-86,841	-0,099	0,022
-555,685	89,033	-0,104	0,083
-554,671	800,000	0,048	-0,113
-553,656	800,000	0,047	0,139
-552,642	-59,589	-0,099	0,030
-551,627	-61,331	0,193	0,058
-550,612	800,000	0,015	0,044
-549,598	-125,796	-0,123	-0,013
-548,583	377,366	0,090	-0,133
-547,569	800,000	0,032	-0,092
-546,554	145,178	0,121	-0,117
-545,539	800,000	-0,043	0,109
-544,525	800,000	0,029	-0,062
-543,510	24,812	-0,018	0,011
-542,496	-200,000	0,027	-0,111
-541,481	800,000	0,043	-0,095
-540,466	461,254	-0,075	-0,122
-539,452	544,091	-0,073	0,126
-538,437	-150,172	-0,108	-0,006
-537,423	-200,000	0,004	0,105
-536,408	89,868	-0,119	-0,096
-535,393	68,813	-0,106	-0,078
-534,379	-200,000	0,012	0,126
-533,364	-200,000	0,007	-0,024
-532,350	62,218	-0,040	-0,029
-531,335	352,476	0,063	0,091
-530,321	331,120	0,035	-0,049
-529,306	49,708	-0,191	-0,129
-528,291	635,539	0,064	-0,118
-527,277	-200,000	-0,032	-0,151
-526,262	800,000	-0,044	0,096
-525,248	319,513	-0,047	0,065
-524,233	-121,581	-0,086	-0,010
-523,218	269,881	0,045	0,057
-522,204	426,937	-0,038	0,059
-521,189	-3,018	0,026	0,013
-520,175	39,792	-0,123	-0,080
-519,160	369,377	-0,035	0,052
-518,145	800,000	-0,024	-0,059
-517,131	800,000	0,031	0,082
-516,116	-152,753	0,107	0,005
-515,102	11,961	0,030	-0,016
-514,087	-116,818	-0,058	0,008
-513,072	456,204	0,048	-0,077
-512,058	-94,435	-0,144	-0,028
-511,043	-129,875	-0,101	-0,010
-510,029	-5,148	0,066	0,032
-509,014	-166,069	0,021	-0,001
-507,999	192,724	-0,080	0,087
-506,985	119,491	0,071	-0,064
-505,970	-200,000	-0,003	-0,064
-504,956	800,000	-0,055	-0,118
-503,941	-200,000	0,011	-0,041
-502,926	-200,000	-0,004	0,034
-501,912	-200,000	0,000	0,064
-500,897	-105,463	0,085	0,014
-499,883	-200,000	-0,001	-0,031
-498,868	-200,000	0,008	-0,100
-497,853	279,408	-0,017	-0,022
-496,839	-38,499	0,159	-0,060
-495,824	38,642	0,025	0,016
-494,810	-200,000	0,006	-0,092
-493,795	585,744	-0,030	0,054
-492,781	784,638	-0,045	-0,090
-491,766	87,832	0,026	-0,021
-490,751	-146,855	0,111	-0,007
-489,737	11,240	-0,070	-0,038
-488,722	800,000	0,043	-0,108
-487,708	359,012	0,032	-0,046
-486,693	-188,456	0,047	-0,000
-485,678	-200,000	-0,001	-0,013
-484,664	730,295	-0,041	0,079
-483,649	-200,000	-0,002	-0,030
-482,635	-200,000	0,023	0,109
-481,620	-55,967	-0,090	-0,029
-480,605	716,783	0,071	0,136
-479,591	-200,000	0,031	0,190
-478,576	6,798	0,048	-0,026
-477,562	-4,145	0,094	0,047
-476,547	-200,000	-0,024	-0,096
-475,532	-200,000	0,013	-0,052
-474,518	22,833	0,063	-0,037
-473,503	800,000	0,088	0,192
-472,489	-164,249	0,079	-0,003
-471,474	216,757	-0,072	0,082
-470,459	-200,000	0,005	-0,091
-469,445	503,288	-0,061	-0,101
-468,430	-154,259	0,095	-0,005
-467,416	-148,875	0,030	0,002
-466,401	-200,000	0,002	-0,018
-465,386	800,000	-0,019	-0,043
-464,372	64,756	-0,134	-0,097
-463,357	-29,790	-0,074	-0,030
-462,343	-2,436	-0,059	-0,030
-461,328	-200,000	0,016	0,083
-460,313	134,241	-0,070	0,065
-459,299	-200,000	-0,008	-0,083
-458,284	-200,000	0,008	0,034
-457,270	78,079	-0,109	0,083
-456,255	130,775	-0,013	0,012
-455,241	-197,426	-0,155	-0,001
-454,226	-49,652	0,136	-0,046
-453,211	136,948	-0,179	-0,169
-452,197	318,571	-0,024	0,033
-451,182	-200,000	0,007	0,137
-450,168	-200,000	-0,017	-0,066
-449,153	-111,693	0,111	-0,016
-448,138	-5,477	-0,008	0,004
-447,124	-141,257	0,096	-0,007
-446,109	-200,000	-0,005	-0,100
-445,095	118,474	-0,008	0,007
-444,080	-53,213	0,064	-0,021
-443,065	800,000	0,058	-0,134
-442,051	134,725	-0,041	0,039
-441,036	29,617	0,071	-0,044
-440,022	800,000	-0,039	0,092
-439,007	786,542	0,015	-0,029
-437,992	502,865	0,035	0,058
-436,978	186,578	0,045	-0,048
-435,963	-200,000	0,000	-0,044
-434,949	-94,894	-0,119	-0,023
-433,934	800,000	-0,003	0,007
-432,919	103,640	-0,049	0,041
-431,905	33,435	0,063	0,039
-430,890	-130,732	0,128	0,012
-429,876	-76,858	0,172	0,043
-428,861	-200,000	0,022	0,143
-427,846	-26,737	-0,078	-0,032
-426,832	0,617	0,009	-0,005
-425,817	274,414	-0,030	-0,039
-424,803	596,057	-0,087	0,155
-423,788	-190,137	0,031	0,000
-422,773	-152,232	0,060	-0,003
-421,759	557,147	-0,113	0,196
-420,744	444,117	-0,080	0,126
-419,730	-200,000	0,019	-0,097
-418,715	249,774	-0,080	0,098
-417,701	-200,000	-0,007	0,084
-416,686	-1,356	-0,046	-0,023
-415,671	680,176	0,041	0,077
-414,657	-200,000	0,012	0,044
-413,642	257,259	-0,054	-0,067
-412,628	-41,993	-0,069	-0,025
-411,613	-200,000	0,010	-0,062
-410,598	-143,314	0,086	-0,006
-409,584	-76,335	0,017	-0,004
-408,569	181,324	0,066	-0,069
-407,555	-117,859	0,150	-0,019
-406,540	-94,721	-0,098	-0,019
-405,525	-200,000	0,007	0,136
-404,511	215,178	-0,049	-0,056
-403,496	-23,521	-0,148	0,064
-402,482	-200,000	0,015	0,061
-401,467	-61,839	0,071	-0,021
-400,452	-200,000	0,026	0,204
-399,438	-83,069	-0,069	-0,016
-398,423	-200,000	-0,044	-0,153
-397,409	138,057	-0,079	-0,074
-396,394	-200,000	-0,014	-0,081
-395,379	-200,000	0,012	0,127
-394,365	800,000	0,031	0,072
-393,350	-103,464	-0,081	0,014
-392,336	201,986	0,061	-0,067
-391,321	-200,000	-0,000	0,067
-390,306	55,003	-0,101	-0,070
-389,292	-200,000	-0,013	-0,251
-388,277	-200,000	-0,002	0,061
-387,263	-200,000	0,014	-0,059
-386,248	138,157	0,070	-0,066
-385,233	8,795	0,023	-0,013
-384,219	216,153	-0,066	-0,075
-383,204	186,596	-0,009	0,009
-382,190	800,000	-0,030	-0,080
-381,175	191,300	0,087	0,094
-380,160	161,826	0,047	0,048
-379,146	25,028	0,151	0,090
-378,131	359,239	-0,033	-0,048
-377,117	23,834	0,033	0,019
-376,102	245,724	0,036	-0,043
-375,088	-45,469	-0,041	0,014
-374,073	-115,108	-0,123	-0,017
-373,058	-200,000	-0,007	0,077
-372,044	-23,645	0,104	0,044
-371,029	800,000	-0,033	-0,084
-370,015	-200,000	-0,003	-0,087
-369,000	36,909	-0,085	-0,054
-367,985	43,940	-0,100	-0,066
-366,971	-153,099	-0,041	-0,002
-365,956	-23,655	0,107	0,046
-364,942	172,768	-0,049	-0,051
-363,927	800,000	0,010	-0,031
-362,912	-64,411	-0,083	-0,024
-361,898	-44,580	0,137	0,049
-360,883	-54,149	-0,151	-0,049
-359,869	49,442	0,014	0,009
-358,854	-200,000	-0,000	-0,042
-357,839	-79,216	0,193	0,047
-356,825	-200,000	-0,003	-0,061
-355,810	47,304	-0,093	0,062
-354,796	143,801	-0,055	0,052
-353,781	-200,000	0,029	0,103
-352,766	-200,000	0,032	-0,129
-351,752	-99,661	0,120	-0,021
-350,737	-200,000	-0,009	0,046
-349,723	11,532	0,061	-0,033
-348,708	-56,148	0,140	0,044
-347,693	-23,144	0,082	-0,035
-346,679	343,321	-0,023	0,032
-345,664	201,272	-0,092	-0,102
-344,650	-200,000	-0,009	-0,099
-343,635	800,000	0,023	0,051
-342,620	71,548	-0,143	0,106
-341,606	-200,000	0,003	0,046
-340,591	-200,000	-0,003	0,109
-339,577	-94,977	0,065	-0,013
-338,562	211,065	-0,049	-0,055
-337,548	233,008	0,087	-0,103
-336,533	800,000	0,055	0,150
-335,518	689,097	0,135	0,254
-334,504	800,000	0,019	0,044
-333,489	599,085	0,034	0,062
-332,475	177,761	0,091	-0,096
-331,460	450,674	0,070	-0,111
-330,445	11,367	-0,054	-0,030
-329,431	240,061	-0,082	0,098
-328,416	29,403	0,079	-0,048
-327,402	-29,084	-0,033	-0,014
-326,387	-94,520	-0,124	-0,024
-325,372	-140,688	0,060	-0,004
-324,358	800,000	-0,038	0,103
-323,343	206,724	0,032	-0,036
-322,329	-200,000	0,007	0,052
-321,314	-200,000	0,030	0,102
-320,299	-46,981	-0,047	-0,016
-319,285	-75,285	0,058	-0,015
-318,270	-200,000	-0,001	-0,149
-317,256	442,603	-0,043	0,068
-316,241	-48,319	0,026	0,009
-315,226	-121,804	0,146	-0,017
-314,212	-52,507	0,081	0,027
-313,197	55,984	0,039	-0,027
-312,183	-115,927	-0,074	-0,010
-311,168	-61,242	-0,190	0,057
-310,153	9,549	-0,121	0,066
-309,139	451,294	-0,084	-0,133
-308,124	800,000	0,015	0,046
-307,110	483,178	0,031	0,051
-306,095	-116,915	0,080	0,010
-305,080	-193,016	0,039	-0,000
-304,066	-200,000	0,021	-0,133
-303,051	-25,005	0,054	-0,023
-302,037	23,277	0,058	0,034
-301,022	-33,772	-0,061	-0,024
-300,008	-60,835	0,170	-0,051
-298,993	-200,000	0,022	0,081
-297,978	1,283	-0,092	0,047
-296,964	137,997	0,055	0,051
-295,949	58,629	-0,034	-0,024
-294,935	-200,000	0,016	-0,119
-293,920	96,635	-0,125	0,103
-292,905	25,317	-0,165	0,098
-291,891	-100,413	-0,033	-0,006
-290,876	-200,000	-0,020	0,112
-289,862	-200,000	-0,030	0,280
-288,847	11,121	0,030	0,016
-287,832	580,384	-0,008	-0,014
-286,818	-39,060	-0,051	0,019
-285,803	544,049	0,035	0,061
-284,789	800,000	0,028	0,067
-283,774	800,000	0,021	-0,043
-282,759	-200,000	-0,008	-0,090
-281,745	-200,000	0,007	0,115
-280,730	800,000	0,051	0,151
-279,716	-200,000	0,011	0,101
-278,701	-200,000	0,006	-0,047
-277,686	330,970	0,020	-0,028
-276,672	800,000	-0,046	0,097
-275,657	296,921	-0,026	0,034
-274,643	796,661	-0,041	-0,082
-273,628	-2,696	0,032	0,016
-272,613	191,579	0,070	0,076
-271,599	131,926	-0,013	-0,012
-270,584	-200,000	0,007	0,028
-269,570	800,000	0,042	0,101
-268,555	261,280	0,017	-0,021
-267,540	-78,875	0,015	0,004
-266,526	-2,193	-0,055	-0,027
-265,511	-200,000	0,001	-0,103
-264,497	-44,403	0,099	-0,035
-263,482	-200,000	0,044	0,167
-262,467	223,924	0,089	0,103
-261,453	491,465	0,014	0,023
-260,438	456,582	-0,025	-0,040
-259,424	-47,812	-0,103	-0,036
-258,409	-200,000	0,025	-0,095
-257,395	-56,216	-0,053	0,017
-256,380	-200,000	-0,006	0,036
-255,365	286,827	0,067	-0,087
-254,351	-200,000	0,002	-0,036
-253,336	179,263	-0,019	-0,020
-252,322	800,000	0,023	0,056
-251,307	-200,000	0,025	0,112
-250,292	-200,000	-0,010	-0,038
-249,278	-200,000	-0,023	0,093
-248,263	-71,640	-0,037	0,010
-247,249	800,000	-0,057	-0,154
-246,234	800,000	-0,027	0,082
-245,219	-40,402	-0,206	0,076
-244,205	800,000	-0,027	0,073
-243,190	-148,072	0,119	0,007
-242,176	-28,938	0,149	-0,061
-241,161	-62,964	0,087	0,025
-240,146	-121,224	0,196	-0,023
-239,132	553,432	0,067	0,116
-238,117	-49,209	-0,088	-0,030
-237,103	-81,182	0,095	-0,022
-236,088	51,142	-0,072	-0,049
-235,073	-200,000	-0,023	0,137
-234,059	127,200	-0,032	-0,029
-233,044	593,100	-0,022	0,038
-232,030	370,105	-0,032	0,046
-231,015	-200,000	-0,001	0,172
-230,000	-200,000	0,008	-0,073
-228,986	-66,604	0,054	0,015
-227,971	-25,417	-0,063	-0,026
-226,957	800,000	0,038	0,098
-225,942	61,717	0,076	-0,054
-224,927	-140,762	-0,093	0,007
-223,913	75,612	0,052	-0,039
-222,898	-200,000	0,022	-0,253
-221,884	145,995	-0,044	-0,042
-220,869	-87,572	0,020	-0,004
-219,855	161,564	0,083	-0,083
-218,840	800,000	0,043	-0,101
-217,825	-153,335	-0,078	-0,004
-216,811	-200,000	-0,005	-0,122
-215,796	68,830	-0,176	-0,129
-214,782	-107,602	0,047	0,007
-213,767	800,000	0,046	0,107
-212,752	198,456	0,043	0,047
-211,738	57,222	0,116	-0,081
-210,723	-53,359	-0,063	0,020
-209,709	117,285	-0,054	0,047
-208,694	236,511	-0,128	0,151
-207,679	164,178	0,020	-0,020
-206,665	800,000	-0,011	-0,028
-205,650	630,289	0,016	0,029
-204,636	295,933	0,083	0,108
-203,621	-200,000	0,010	-0,049
-202,606	204,775	0,098	-0,109
-201,592	-130,335	-0,039	-0,004
-200,577	452,941	0,031	0,049
-199,563	47,867	0,109	-0,072
-198,548	234,448	-0,052	0,061
-197,533	-200,000	0,018	0,071
-196,519	-111,333	-0,076	0,011
-195,504	-200,000	0,034	-0,127
-194,490	-74,939	-0,122	-0,031
-193,475	-200,000	0,017	-0,066
-192,460	-123,973	0,046	-0,005
-191,446	67,681	0,114	0,083
-190,431	7,660	-0,058	-0,031
-189,417	-200,000	0,011	-0,091
-188,402	316,466	-0,076	-0,103
-187,387	277,303	-0,075	-0,095
-186,373	145,056	-0,045	-0,043
-185,358	450,066	0,035	0,055
-184,344	529,918	0,062	-0,105
-183,329	800,000	0,032	0,079
-182,315	331,436	0,067	-0,092
-181,300	-161,537	0,049	-0,002
-180,285	800,000	-0,034	0,076
-179,271	800,000	-0,052	-0,106
-178,256	-200,000	0,023	0,075
-177,242	-33,915	-0,042	-0,016
-176,227	-200,000	0,019	0,136
-175,212	-200,000	0,007	0,109
-174,198	-200,000	0,030	0,120
-173,183	-27,170	-0,129	-0,053
-172,169	1,675	0,069	-0,035
-171,154	165,806	0,027	-0,027
-170,139	88,808	0,054	0,043
-169,125	-200,000	0,023	0,129
-168,110	476,888	-0,056	-0,090
-167,096	-200,000	-0,042	0,142
-166,081	247,723	-0,065	0,079
-165,066	-69,715	-0,103	0,028
-164,052	86,640	0,046	-0,036
-163,037	636,230	0,038	-0,069
-162,023	193,828	-0,027	0,029
-161,008	-164,425	0,057	0,002
-159,993	20,377	0,119	-0,068
-158,979	25,140	-0,040	-0,023
-157,964	-85,985	-0,073	-0,016
-156,950	-36,850	-0,061	-0,023
-155,935	763,628	0,050	0,098
-154,920	800,000	0,061	0,137
-153,906	345,023	-0,061	-0,086
-152,891	20,991	-0,079	-0,045
-151,877	-25,341	0,073	0,031
-150,862	42,526	-0,036	-0,023
-149,847	-142,530	-0,081	-0,006
-148,833	-200,000	0,015	-0,090
-147,818	213,927	-0,022	-0,025
-146,804	499,779	0,044	0,072
-145,789	82,214	0,130	0,100
-144,775	-80,909	-0,036	0,009
-143,760	-125,007	-0,117	-0,013
-142,745	-120,805	0,106	0,013
-141,731	176,388	-0,033	-0,034
-140,716	-176,446	0,143	0,003
-139,702	-200,000	-0,077	0,257
-138,687	-200,000	0,020	0,165
-137,672	189,675	-0,056	0,059
-136,658	374,027	0,018	-0,026
-135,643	-72,080	0,141	0,037
-134,629	-83,607	-0,040	0,009
-133,614	-200,000	0,002	0,130
-132,599	161,212	-0,112	0,111
-131,585	-71,921	0,130	0,034
-130,570	-200,000	0,011	-0,108
-129,556	27,857	-0,134	-0,080
-128,541	-200,000	0,025	-0,088
-127,526	429,253	0,035	0,054
-126,512	-200,000	0,011	-0,048
-125,497	-200,000	0,028	0,111
-124,483	21,459	0,094	-0,054
-123,468	800,000	0,024	-0,067
-122,453	100,268	-0,109	-0,090
-121,439	-89,384	-0,057	-0,012
-120,424	119,223	-0,101	0,088
-119,410	-200,000	-0,006	-0,052
-118,395	10,000	0,111	0,060
-117,380	571,534	-0,072	0,125
-116,366	-47,964	0,117	0,040
-115,351	800,000	0,009	0,027
-114,337	-162,108	-0,075	-0,003
-113,322	-57,905	-0,100	-0,031
-112,307	482,849	0,064	0,104
-111,293	-200,000	-0,033	0,147
-110,278	800,000	0,053	0,105
-109,264	-29,417	-0,060	0,024
-108,249	621,931	0,027	-0,049
-107,234	800,000	-0,053	-0,107
-106,220	-18,370	0,006	0,003
-105,205	800,000	-0,032	-0,073
-104,191	61,640	0,095	0,067
-103,176	72,845	0,192	0,142
-102,162	800,000	-0,046	0,110
-101,147	-76,313	-0,097	0,024
-100,132	-200,000	0,004	-0,113
-99,118	800,000	0,054	-0,116
-98,103	129,047	0,042	-0,038
-97,089	800,000	0,039	0,116
-96,074	-14,523	0,164	0,075
-95,059	800,000	-0,006	-0,015
-94,045	-200,000	-0,021	-0,082
-93,030	-73,807	-0,158	-0,040
-92,016	-79,978	0,068	-0,016
-91,001	311,098	0,039	0,052
-89,986	-68,514	0,136	0,037
-88,972	-92,307	0,137	-0,027
-87,957	-43,415	-0,054	0,019
-86,943	254,756	-0,043	0,052
-85,928	-76,550	-0,055	0,014
-84,913	-156,111	-0,132	-0,006
-83,899	800,000	0,026	-0,070
-82,884	-200,000	-0,010	0,072
-81,870	16,098	-0,091	-0,051
-80,855	-200,000	-0,015	0,060
-79,840	223,704	0,109	0,125
-78,826	-22,687	-0,041	-0,018
-77,811	-200,000	0,014	0,057
-76,797	-41,870	0,073	0,026
-75,782	800,000	-0,032	0,096
-74,767	-75,615	0,085	0,021
-73,753	179,125	-0,085	0,088
-72,738	68,475	-0,087	-0,063
-71,724	-200,000	-0,006	-0,154
-70,709	89,327	-0,055	-0,043
-69,694	-200,000	-0,007	-0,023
-68,680	-66,022	-0,028	-0,008
-67,665	110,535	-0,066	0,057
-66,651	800,000	0,033	0,101
-65,636	9,853	-0,108	0,058
-64,622	-12,092	0,072	-0,033
-63,607	-187,597	-0,139	0,001
-62,592	-27,548	-0,132	-0,054
-61,578	392,361	0,028	0,041
-60,563	-200,000	0,022	0,080
-59,549	323,503	-0,039	0,052
-58,534	-8,733	-1,526	-0,723
-57,519	312,073	-1,534	-2,045
-56,505	-200,000	-0,693	-4,486
-55,490	137,891	1,037	0,963
-54,476	800,000	4,812	11,292
-53,461	-200,000	18,749	306,682
-52,446	800,000	737,902	2302,340
-51,432	569,930	1653,864	2861,484
-50,417	78,963	1669,609	1265,135
-49,403	21,991	1542,413	888,903
-48,388	15,911	1465,070	814,787
-47,373	17,802	1455,198	818,398
-46,359	16,911	1445,266	808,508
-45,344	14,153	1440,712	792,725
-44,330	14,074	1438,961	791,350
-43,315	14,075	1437,012	790,253
-42,300	14,067	1435,573	789,392
-41,286	14,092	1434,258	788,758
-40,271	14,079	1432,846	787,886
-39,257	14,045	1431,628	787,024
-38,242	14,083	1430,395	786,494
-37,227	14,139	1429,228	786,090
-36,213	14,114	1428,068	785,302
-35,198	14,144	1426,648	784,634
-34,184	14,123	1425,813	784,042
-33,169	14,058	1424,606	783,040
-32,154	14,130	1423,389	782,682
-31,140	14,137	1422,107	781,978
-30,125	14,174	1420,931	781,474
-29,111	14,151	1419,924	780,781
-28,096	14,113	1418,692	779,893
-27,082	14,014	1417,862	778,938
-26,067	14,019	1416,612	778,247
-25,052	14,038	1415,570	777,733
-24,038	14,029	1414,384	777,008
-23,023	13,989	1413,530	776,320
-22,009	14,029	1412,529	775,926
-20,994	13,998	1411,746	775,317
-19,979	14,020	1411,007	774,985
-18,965	13,968	1410,003	774,162
-17,950	13,971	1409,010	773,598
-16,936	13,961	1408,139	773,041
-15,921	13,948	1406,796	772,213
-14,906	13,946	1405,927	771,696
-13,892	13,931	1404,991	771,082
-12,877	13,945	1404,242	770,706
-11,863	13,918	1403,391	770,083
-10,848	13,917	1402,428	769,519
-9,833	13,962	1401,556	769,221
-8,819	13,896	1400,444	768,271
-7,804	13,851	1399,757	767,655
-6,790	13,870	1398,390	766,964
-5,775	13,834	1397,587	766,323
-4,760	13,855	1396,733	765,925
-3,746	13,884	1395,690	765,454
-2,731	13,839	1394,823	764,740
-1,717	13,820	1394,164	764,260
-0,702	13,800	1392,371	763,154
0,313	17,666	1310,452	736,171
1,327	34,066	705,563	434,360
2,342	52,393	124,106	83,713
3,356	2,377	16,672	8,512
4,371	-17,321	3,308	1,469
5,386	19,998	0,564	0,321
6,400	-200,000	-0,026	0,115
7,415	-99,934	-0,338	-0,059
8,429	125,404	-0,272	-0,243
9,444	111,068	-0,398	-0,339
10,459	-93,936	-0,264	-0,051
11,473	-17,011	-0,212	-0,094
12,488	99,595	-0,194	-0,158
13,502	-24,548	-0,171	-0,072
14,517	-18,020	-0,511	-0,226
15,531	75,719	-0,362	-0,270
16,546	54,851	-0,386	-0,263
17,561	396,279	-0,248	-0,367
18,575	56,347	-0,284	-0,195
19,590	621,451	-0,138	-0,246
20,604	-171,356	-0,248	0,006
21,619	84,801	-0,444	-0,343
22,634	100,625	-0,377	-0,309
23,648	107,745	-0,463	-0,389
24,663	358,759	-0,284	-0,402
25,677	55,005	-0,446	-0,304
26,692	139,141	-0,154	-0,143
27,707	173,089	-0,274	-0,279
28,721	-8,218	-0,377	-0,178
29,736	96,712	-0,365	-0,295
30,750	134,841	-0,431	-0,395
31,765	106,891	-0,446	-0,374
32,780	214,171	-0,253	-0,283
33,794	125,600	-0,357	-0,318
34,809	102,701	-0,429	-0,354
35,823	111,259	-0,292	-0,249
36,838	117,149	-0,434	-0,376
37,853	212,515	-0,370	-0,412
38,867	177,383	-0,254	-0,262
39,882	51,604	-0,229	-0,154
40,896	19,373	-0,517	-0,292
41,911	34,958	-0,391	-0,241
42,926	68,641	-0,348	-0,252
43,940	169,712	-0,353	-0,356
44,955	38,445	-0,438	-0,275
45,969	98,077	-0,256	-0,208
46,984	26,097	-0,393	-0,231
47,999	89,614	-0,247	-0,194
49,013	15,755	-0,344	-0,190
50,028	59,575	-0,302	-0,210
51,042	122,042	-0,321	-0,282
52,057	33,759	-0,386	-0,236
53,071	61,886	-0,308	-0,216
54,086	47,170	-0,330	-0,216
55,101	96,022	-0,193	-0,155
56,115	26,371	-0,342	-0,201
57,130	55,938	-0,303	-0,207
58,144	86,336	-0,370	-0,287
59,159	61,751	-0,429	-0,301
60,174	-82,322	-0,458	-0,104
61,188	23,739	-0,392	-0,227
62,203	-86,455	-0,320	-0,069
63,217	132,792	-0,272	-0,247
64,232	16,148	-0,384	-0,213
65,247	133,141	-0,275	-0,250
66,261	100,422	-0,372	-0,304
67,276	-20,704	-0,357	-0,154
68,290	-57,366	-0,411	-0,126
69,305	-75,172	-0,429	-0,107
70,320	-59,511	-0,422	-0,127
71,334	163,342	-0,221	-0,218
72,349	131,902	-0,247	-0,223
73,363	101,332	-0,297	-0,243
74,378	93,691	-0,308	-0,245
75,393	36,358	-0,331	-0,205
76,407	-144,581	-0,330	-0,021
77,422	97,745	-0,258	-0,209
78,436	488,212	-0,131	-0,211
79,451	165,278	-0,280	-0,279
80,466	-20,971	-0,459	-0,197
81,480	18,844	-0,317	-0,178
82,495	-8,273	-0,199	-0,094
83,509	18,883	-0,270	-0,152
84,524	-112,480	-0,271	-0,038
85,539	-29,979	-0,340	-0,135
86,553	140,521	-0,145	-0,135
87,568	194,670	-0,367	-0,391
88,582	135,331	-0,185	-0,169
89,597	72,071	-0,275	-0,201
90,611	-147,168	-0,447	-0,026
91,626	-54,009	-0,241	-0,077
92,641	-57,899	-0,282	-0,086
93,655	20,440	-0,274	-0,155
94,670	17,209	-0,172	-0,096
95,684	37,755	-0,359	-0,223
96,699	57,367	-0,278	-0,191
97,714	8,223	-0,283	-0,149
98,728	-24,193	-0,302	-0,126
99,743	-20,634	-0,213	-0,091
100,757	31,339	-0,359	-0,216
101,772	2,217	-0,290	-0,147
102,787	177,184	-0,196	-0,200
103,801	-73,714	-0,278	-0,070
104,816	201,972	-0,206	-0,223
105,830	74,202	-0,219	-0,161
106,845	-7,624	-0,184	-0,087
107,860	125,343	-0,222	-0,197
108,874	15,649	-0,329	-0,181
109,889	48,868	-0,295	-0,194
110,903	-30,960	-0,258	-0,102
111,918	266,857	-0,277	-0,341
112,933	202,819	-0,269	-0,292
113,947	230,386	-0,210	-0,242
114,962	119,046	-0,263	-0,228
115,976	30,795	-0,347	-0,208
116,991	10,346	-0,248	-0,132
118,006	504,217	-0,305	-0,496
119,020	73,615	-0,277	-0,203
120,035	0,899	-0,263	-0,131
121,049	-48,574	-0,213	-0,071
122,064	137,572	-0,162	-0,148
123,079	63,715	-0,190	-0,134
124,093	198,738	-0,278	-0,299
125,108	-40,708	-0,222	-0,080
126,122	321,938	-0,133	-0,178
127,137	27,281	-0,268	-0,157
128,151	49,981	-0,145	-0,096
129,166	-160,519	-0,312	-0,011
130,181	23,270	-0,188	-0,108
131,195	23,406	-0,339	-0,194
132,210	-103,566	-0,273	-0,044
133,224	87,435	-0,232	-0,180
134,239	61,456	-0,259	-0,180
135,254	-41,909	-0,160	-0,057
136,268	-87,612	-0,096	0,020
137,283	-67,956	-0,210	-0,057
138,297	23,514	-0,364	-0,209
139,312	212,345	-0,260	-0,288
140,327	-44,225	-0,338	-0,118
141,341	138,823	-0,217	-0,199
142,356	88,712	-0,185	-0,144
143,370	50,292	-0,275	-0,182
144,385	43,843	-0,200	-0,128
145,400	71,860	-0,254	-0,184
146,414	263,448	-0,262	-0,319
147,429	79,870	-0,258	-0,194
148,443	262,307	-0,277	-0,337
149,458	-4,193	-0,201	-0,097
150,473	-156,918	-0,310	-0,013
151,487	111,575	-0,211	-0,178
152,502	153,358	-0,200	-0,191
153,516	5,522	-0,261	-0,134
154,531	-82,233	-0,271	-0,061
155,546	14,014	-0,183	-0,099
156,560	143,880	-0,186	-0,173
157,575	45,833	-0,221	-0,143
158,589	-119,814	-0,350	-0,042
159,604	-0,158	-0,274	-0,136
160,619	69,979	-0,336	-0,242
161,633	7,234	-0,286	-0,149
162,648	76,698	-0,216	-0,160
163,662	-83,034	-0,303	-0,068
164,677	-58,438	-0,254	-0,076
165,692	-110,107	-0,255	-0,037
166,706	193,460	-0,260	-0,275
167,721	65,722	-0,360	-0,254
168,735	-44,017	-0,143	-0,050
169,750	24,794	-0,295	-0,170
170,764	454,185	-0,128	-0,199
171,779	31,470	-0,238	-0,143
172,794	-1,827	-0,249	-0,122
173,808	288,357	-0,227	-0,287
174,823	520,520	-0,141	-0,232
175,837	-52,059	-0,305	-0,098
176,852	446,025	-0,176	-0,271
177,867	800,000	-0,089	-0,181
178,881	-200,000	-0,075	-0,241
179,896	329,956	-0,120	-0,161
180,910	11,004	-0,265	-0,141
181,925	165,432	-0,155	-0,153
182,940	55,962	-0,258	-0,174
183,954	550,679	-0,164	-0,275
184,969	-58,696	-0,235	-0,071
185,983	-112,826	-0,190	-0,026
186,998	800,000	-0,143	-0,284
188,013	-25,509	-0,180	-0,074
189,027	-83,490	-0,236	-0,052
190,042	133,582	-0,217	-0,195
191,056	201,176	-0,231	-0,248
192,071	-200,000	-0,067	-0,217
193,086	-37,792	-0,206	-0,076
194,100	131,800	-0,116	-0,104
195,115	-67,655	-0,220	-0,060
196,129	104,025	-0,189	-0,154
197,144	200,299	-0,220	-0,236
198,159	86,047	-0,108	-0,082
199,173	96,928	-0,199	-0,159
200,188	259,182	-0,158	-0,190
201,202	154,950	-0,124	-0,119
202,217	269,266	-0,124	-0,152
203,232	-35,839	-0,350	-0,131
204,246	234,773	-0,178	-0,204
205,261	10,732	-0,276	-0,146
206,275	48,470	-0,216	-0,140
207,290	238,005	-0,218	-0,252
208,304	-42,597	-0,109	-0,038
209,319	-84,480	-0,242	0,053
210,334	109,083	-0,171	-0,142
211,348	303,613	-0,286	-0,370
212,363	60,163	-0,216	-0,148
213,377	54,581	-0,226	-0,151
214,392	-20,084	-0,224	-0,095
215,407	685,387	-0,127	-0,231
216,421	15,536	-0,256	-0,139
217,436	142,781	-0,196	-0,181
218,450	113,616	-0,179	-0,151
219,465	264,485	-0,171	-0,207
220,480	150,233	-0,196	-0,185
221,494	74,113	-0,194	-0,141
222,509	-32,321	-0,225	-0,087
223,523	-104,089	-0,235	-0,038
224,538	91,463	-0,215	-0,168
225,553	131,021	-0,256	-0,228
226,567	-61,173	-0,210	-0,061
227,582	124,456	-0,204	-0,178
228,596	123,451	-0,132	-0,115
229,611	27,173	-0,186	-0,108
230,626	223,280	-0,089	-0,099
231,640	151,855	-0,153	-0,145
232,655	35,057	-0,224	-0,136
233,669	327,776	-0,189	-0,252
234,684	-200,000	-0,037	-0,317
235,699	194,251	-0,265	-0,279
236,713	-25,769	-0,217	-0,088
237,728	-36,103	-0,241	-0,090
238,742	243,895	-0,113	-0,132
239,757	103,941	-0,242	-0,197
240,772	228,305	-0,165	-0,186
241,786	231,242	-0,186	-0,212
242,801	152,839	-0,105	-0,100
243,815	-26,494	-0,222	-0,090
244,830	116,473	-0,194	-0,165
245,844	561,046	-0,113	-0,190
246,859	-36,165	-0,169	-0,063
247,874	52,677	-0,290	-0,192
248,888	-79,988	-0,241	-0,056
249,903	7,931	-0,230	-0,119
250,917	8,377	-0,098	0,051
251,932	-200,000	-0,075	-0,245
252,947	155,292	-0,121	-0,116
253,961	64,894	-0,247	-0,172
254,976	358,426	-0,151	-0,209
255,990	-119,588	-0,180	-0,021
257,005	34,855	-0,220	-0,133
258,020	63,341	-0,105	-0,073
259,034	65,682	-0,068	0,048
260,049	160,644	-0,178	-0,172
261,063	800,000	-0,118	-0,235
262,078	368,771	-0,145	-0,203
263,093	125,269	-0,136	-0,118
264,107	-66,652	-0,189	-0,051
265,122	-40,352	-0,237	-0,085
266,136	264,486	-0,123	-0,149
267,151	-134,632	-0,116	-0,010
268,166	135,940	-0,110	-0,099
269,180	265,793	-0,124	-0,150
270,195	-1,350	-0,229	-0,111
271,209	67,754	-0,227	-0,160
272,224	-200,000	-0,047	-0,294
273,239	-31,048	-0,151	-0,059
274,253	-39,226	-0,222	-0,080
275,268	74,263	-0,206	-0,149
276,282	91,133	-0,167	-0,129
277,297	729,786	-0,096	-0,178
278,312	332,334	-0,122	-0,163
279,326	-152,303	-0,285	-0,014
280,341	-30,306	-0,204	-0,080
281,355	43,684	-0,257	-0,162
282,370	-73,124	-0,164	-0,041
283,384	67,104	-0,307	-0,216
284,399	170,979	-0,142	-0,141
285,414	182,809	-0,153	-0,156
286,428	206,322	-0,192	-0,206
287,443	-84,085	-0,181	-0,039
288,457	-6,487	-0,170	-0,080
289,472	113,755	-0,128	-0,108
290,487	123,335	-0,138	-0,119
291,501	109,233	-0,169	-0,140
292,516	-60,502	-0,091	-0,026
293,530	14,384	-0,134	-0,072
294,545	67,887	-0,177	-0,125
295,560	550,052	-0,054	-0,089
296,574	800,000	-0,132	-0,268
297,589	-200,000	-0,022	-0,277
298,603	200,729	-0,150	-0,159
299,618	235,221	-0,184	-0,209
300,633	800,000	-0,132	-0,302
301,647	98,704	-0,139	-0,111
302,662	800,000	-0,078	-0,155
303,676	152,743	-0,070	-0,066
304,691	-24,595	-0,156	-0,064
305,706	-103,786	-0,154	0,025
306,720	211,746	-0,135	-0,147
307,735	84,167	-0,134	-0,101
308,749	124,728	-0,156	-0,135
309,764	-68,366	-0,134	0,036
310,779	407,444	-0,076	0,111
311,793	49,887	-0,180	-0,117
312,808	140,082	-0,132	-0,120
313,822	131,264	-0,184	-0,163
314,837	109,317	-0,052	-0,043
315,852	800,000	-0,077	-0,193
316,866	-200,000	-0,052	-0,164
317,881	-70,554	-0,137	-0,035
318,895	-64,297	-0,140	-0,039
319,910	213,192	-0,115	-0,125
320,925	81,110	-0,182	-0,135
321,939	800,000	-0,026	-0,071
322,954	800,000	-0,045	-0,115
323,968	27,071	-0,141	-0,081
324,983	-117,720	-0,133	-0,016
325,997	331,558	-0,090	-0,120
327,012	9,224	-0,176	-0,091
328,027	-65,384	-0,163	-0,045
329,041	-43,177	-0,111	-0,038
330,056	-19,138	-0,168	-0,071
331,070	489,612	-0,109	-0,172
332,085	148,056	-0,141	-0,131
333,100	72,190	-0,213	-0,152
334,114	198,745	-0,150	-0,159
335,129	-61,508	-0,184	-0,053
336,143	800,000	0,033	-0,071
337,158	297,325	-0,084	-0,106
338,173	210,590	-0,141	-0,152
339,187	-200,000	-0,032	-0,097
340,202	-200,000	0,000	-0,003
341,216	-120,574	-0,312	0,036
342,231	52,539	-0,191	0,125
343,246	236,489	-0,119	-0,136
344,260	313,232	-0,045	-0,058
345,275	800,000	-0,083	-0,177
346,289	243,688	-0,078	-0,090
347,304	123,253	-0,196	-0,169
348,319	176,748	-0,056	-0,056
349,333	532,053	-0,069	0,112
350,348	244,508	-0,145	-0,168
351,362	501,654	-0,064	-0,102
352,377	-16,793	-0,067	0,029
353,392	352,852	0,041	-0,056
354,406	800,000	-0,072	-0,212
355,421	210,058	1310,433	1413,261
356,435	161,698	1470,637	1413,770
