DTS Sentinel unit serial number:	SN410029Multiplexer serial number:	ORYXHardware model number:	OX2-SRSoftware version number:	ORYX F/W v4,00 Oryx Data Collector v3.7.2.0data status	okinstallation	B3 Nyhavnadifferential loss correction	single-endedforward channel	channel 1reverse channel	N/Adate	2023/12/03time	00:12:30forward acquisition time	300,00reverse acquisition time	0,00gamma	499,1914k internal	0,3201k external	0,3201temperature offset calibration	1,0000default loss term (dB/km)	0,3820temperature slope calibration	1,0000multiplexer offset coefficient	1,0000multiplexer slope coefficient	1,0000fibre end	0,00T internal ref (°C)	13,27T ext. ref 1 (°C)	-1,64T ext. ref 2 (°C)	-1,65length (m)	temperature (°C)	Stokes	anti-Stokes-744,400	411,644	-0,219	-0,340
-743,385	-200,000	-0,024	0,251
-742,371	221,208	-0,128	-0,150
-741,356	-200,000	-0,006	0,270
-740,342	454,594	-0,154	-0,249
-739,327	-200,000	-0,002	0,407
-738,312	-200,000	-0,053	-0,221
-737,298	800,000	-0,128	0,274
-736,283	139,697	-0,223	-0,214
-735,269	800,000	-0,096	0,218
-734,254	800,000	-0,151	-0,306
-733,239	-48,666	-0,274	0,095
-732,225	800,000	-0,121	-0,267
-731,210	-57,957	0,149	-0,047
-730,196	359,843	-0,074	-0,108
-729,181	-200,000	-0,004	0,038
-728,167	800,000	0,037	-0,087
-727,152	-200,000	0,030	-0,168
-726,137	-40,371	-0,113	0,042
-725,123	800,000	-0,042	-0,095
-724,108	800,000	-0,017	-0,036
-723,094	-200,000	0,012	-0,073
-722,079	-149,598	-0,051	0,003
-721,064	82,306	-0,016	0,013
-720,050	-200,000	-0,025	0,089
-719,035	70,506	-0,050	0,038
-718,021	-200,000	-0,007	-0,047
-717,006	-200,000	0,042	-0,154
-715,991	800,000	-0,042	-0,094
-714,977	4,235	0,091	-0,048
-713,962	166,076	-0,032	-0,033
-712,948	244,560	0,044	0,054
-711,933	551,193	-0,050	-0,087
-710,918	182,262	-0,010	0,011
-709,904	40,428	-0,009	0,006
-708,889	58,741	0,136	-0,097
-707,875	355,875	-0,053	-0,076
-706,860	-200,000	-0,001	-0,028
-705,845	-25,706	0,077	-0,033
-704,831	-173,891	-0,103	-0,002
-703,816	34,266	0,027	-0,017
-702,802	155,374	0,072	0,072
-701,787	235,110	0,006	-0,007
-700,772	79,323	-0,071	-0,055
-699,758	223,944	-0,021	-0,025
-698,743	49,674	-0,065	-0,045
-697,729	-150,586	-0,076	-0,004
-696,714	-200,000	0,012	0,048
-695,699	16,176	-0,078	-0,044
-694,685	69,607	-0,061	-0,046
-693,670	-24,444	-0,040	-0,017
-692,656	-200,000	-0,000	-0,028
-691,641	-200,000	0,012	-0,060
-690,627	-37,857	0,036	0,014
-689,612	-125,009	-0,225	0,025
-688,597	-11,265	-0,140	-0,067
-687,583	101,369	-0,040	-0,034
-686,568	-200,000	-0,001	-0,088
-685,554	800,000	0,054	-0,123
-684,539	-108,066	-0,030	-0,005
-683,524	551,351	0,053	0,093
-682,510	-124,165	-0,117	-0,013
-681,495	-200,000	-0,037	-0,126
-680,481	-200,000	0,004	-0,084
-679,466	17,306	-0,075	-0,043
-678,451	147,936	-0,098	-0,096
-677,437	-5,475	-0,072	0,036
-676,422	732,927	0,049	-0,096
-675,408	-200,000	-0,002	-0,031
-674,393	17,993	0,099	0,057
-673,378	57,513	-0,055	-0,039
-672,364	-200,000	0,035	-0,116
-671,349	-200,000	-0,005	-0,157
-670,335	800,000	-0,028	-0,078
-669,320	33,891	0,122	0,077
-668,305	-30,358	0,107	0,044
-667,291	-109,325	-0,057	-0,009
-666,276	176,908	0,072	0,076
-665,262	-12,442	-0,103	-0,049
-664,247	1,624	-0,095	-0,049
-663,232	618,201	0,050	0,091
-662,218	-200,000	-0,031	0,113
-661,203	-156,642	0,070	0,003
-660,189	9,753	0,097	-0,053
-659,174	-77,972	-0,141	0,035
-658,159	3,626	-0,085	-0,045
-657,145	-200,000	0,021	-0,143
-656,130	-115,642	0,083	-0,011
-655,116	503,329	0,045	-0,076
-654,101	756,407	0,021	0,041
-653,086	-200,000	-0,004	0,046
-652,072	645,045	0,065	-0,121
-651,057	-84,523	-0,096	-0,022
-650,043	792,953	-0,019	-0,038
-649,028	397,601	0,064	-0,097
-648,014	80,179	0,037	-0,029
-646,999	-135,198	0,065	0,006
-645,984	-81,393	0,123	-0,029
-644,970	729,303	-0,035	-0,069
-643,955	-103,109	0,079	0,013
-642,941	758,999	0,069	-0,136
-641,926	-113,794	-0,069	-0,010
-640,911	46,094	-0,041	0,027
-639,897	800,000	0,012	0,025
-638,882	800,000	-0,043	-0,117
-637,868	-200,000	0,013	-0,043
-636,853	704,728	-0,088	0,168
-635,838	219,494	-0,090	-0,104
-634,824	730,273	-0,037	-0,073
-633,809	800,000	0,015	0,045
-632,795	285,989	0,111	0,145
-631,780	41,626	0,041	-0,027
-630,765	-66,635	0,081	-0,023
-629,751	20,892	0,029	-0,017
-628,736	-200,000	0,012	0,107
-627,722	800,000	0,003	0,009
-626,707	-29,280	0,128	-0,053
-625,692	47,375	0,055	-0,037
-624,678	-107,773	-0,061	0,010
-623,663	800,000	-0,026	-0,062
-622,649	-187,163	-0,106	0,001
-621,634	68,272	-0,136	-0,101
-620,619	-46,144	0,103	-0,037
-619,605	800,000	0,030	-0,095
-618,590	-200,000	0,005	-0,081
-617,576	-48,348	-0,087	0,030
-616,561	137,395	-0,093	-0,088
-615,546	-200,000	-0,007	0,066
-614,532	311,744	0,081	-0,110
-613,517	-200,000	0,006	0,039
-612,503	-200,000	0,008	0,048
-611,488	-63,304	0,123	-0,036
-610,474	-70,529	-0,053	0,014
-609,459	345,511	-0,037	-0,052
-608,444	-200,000	0,010	-0,065
-607,430	-47,077	-0,131	0,046
-606,415	81,714	-0,046	-0,036
-605,401	70,158	0,025	0,019
-604,386	262,148	-0,053	-0,067
-603,371	397,396	-0,064	-0,098
-602,357	112,047	0,055	-0,048
-601,342	-91,299	-0,112	-0,023
-600,328	-33,934	-0,150	-0,060
-599,313	800,000	-0,021	-0,054
-598,298	688,917	0,056	-0,107
-597,284	72,129	0,079	0,059
-596,269	10,338	-0,086	-0,047
-595,255	-189,448	-0,079	0,001
-594,240	800,000	-0,026	0,055
-593,225	-200,000	-0,025	-0,097
-592,211	-80,782	-0,066	-0,016
-591,196	800,000	0,022	0,067
-590,182	378,393	0,035	0,052
-589,167	74,190	0,120	-0,091
-588,152	51,702	-0,062	0,043
-587,138	-86,772	0,166	0,036
-586,123	-19,685	-0,197	0,088
-585,109	-18,989	0,112	-0,050
-584,094	-120,160	-0,103	0,013
-583,079	-35,452	-0,048	-0,019
-582,065	-158,377	-0,080	0,003
-581,050	-102,074	0,087	0,015
-580,036	-152,115	-0,060	-0,003
-579,021	-22,251	0,138	-0,060
-578,006	-200,000	-0,026	-0,091
-576,992	588,020	-0,023	-0,041
-575,977	-200,000	-0,041	-0,134
-574,963	122,865	-0,113	-0,102
-573,948	800,000	-0,009	-0,023
-572,934	136,054	0,041	0,038
-571,919	800,000	-0,043	-0,089
-570,904	-71,618	-0,094	0,025
-569,890	-121,737	0,116	0,014
-568,875	-65,556	-0,118	-0,034
-567,861	-120,684	0,148	0,018
-566,846	7,086	0,072	-0,038
-565,831	-200,000	-0,026	0,175
-564,817	104,366	-0,059	0,050
-563,802	-40,883	0,080	0,030
-562,788	-101,274	0,114	0,020
-561,773	800,000	0,032	-0,078
-560,758	183,641	0,005	-0,005
-559,744	29,880	-0,093	-0,057
-558,729	-200,000	0,005	0,132
-557,715	800,000	-0,041	-0,094
-556,700	170,576	-0,092	-0,095
-555,685	-200,000	0,017	-0,177
-554,671	-65,578	-0,080	-0,023
-553,656	-126,355	0,089	0,009
-552,642	723,898	0,034	-0,066
-551,627	95,913	-0,099	0,081
-550,612	-162,402	-0,006	0,000
-549,598	578,416	-0,064	0,113
-548,583	-17,104	0,072	-0,033
-547,569	301,890	0,030	0,041
-546,554	-103,562	0,138	-0,023
-545,539	800,000	0,025	0,070
-544,525	-200,000	-0,024	-0,084
-543,510	148,107	-0,094	-0,091
-542,496	247,278	-0,042	-0,051
-541,481	134,094	-0,057	-0,054
-540,466	174,795	-0,064	0,067
-539,452	125,737	0,055	0,050
-538,437	800,000	-0,027	0,065
-537,423	800,000	-0,067	-0,146
-536,408	-200,000	-0,003	0,145
-535,393	800,000	0,014	0,037
-534,379	-115,090	-0,141	0,019
-533,364	87,290	0,021	-0,017
-532,350	92,315	0,003	-0,003
-531,335	345,369	-0,139	0,198
-530,321	723,371	0,063	0,121
-529,306	-166,912	-0,162	0,005
-528,291	-90,676	0,100	-0,021
-527,277	537,377	0,086	-0,147
-526,262	-109,278	-0,054	-0,008
-525,248	-110,040	0,135	0,020
-524,233	800,000	-0,040	0,111
-523,218	-152,036	-0,080	0,004
-522,204	642,004	0,026	-0,048
-521,189	34,358	0,046	-0,029
-520,175	-72,051	0,027	0,007
-519,160	22,884	-0,078	-0,046
-518,145	800,000	-0,048	0,134
-517,131	315,417	0,062	-0,084
-516,116	-51,674	-0,115	0,038
-515,102	-200,000	-0,055	0,205
-514,087	-200,000	-0,036	0,153
-513,072	-13,633	-0,068	0,032
-512,058	-200,000	0,001	0,042
-511,043	-200,000	0,001	0,045
-510,029	800,000	0,024	0,063
-509,014	-200,000	-0,008	0,056
-507,999	329,834	-0,019	-0,026
-506,985	227,795	0,084	-0,099
-505,970	-200,000	-0,036	-0,221
-504,956	800,000	-0,036	-0,103
-503,941	-138,133	0,100	-0,008
-502,926	-145,957	0,190	-0,012
-501,912	-64,270	0,039	-0,011
-500,897	150,365	-0,089	0,087
-499,883	-46,521	0,060	0,021
-498,868	134,883	-0,063	0,059
-497,853	800,000	-0,029	-0,062
-496,839	-92,507	0,062	-0,012
-495,824	182,732	0,048	-0,051
-494,810	-123,566	-0,178	-0,020
-493,795	93,060	-0,037	-0,030
-492,781	185,342	-0,027	-0,029
-491,766	144,433	-0,049	0,047
-490,751	-68,577	-0,035	-0,010
-489,737	-200,000	0,024	-0,122
-488,722	200,819	-0,031	0,035
-487,708	-200,000	-0,053	0,197
-486,693	61,727	-0,015	-0,010
-485,678	-200,000	0,015	0,093
-484,664	-95,436	-0,113	-0,022
-483,649	-200,000	-0,001	-0,142
-482,635	215,288	0,092	0,105
-481,620	-200,000	-0,012	0,094
-480,605	576,039	0,090	0,159
-479,591	-105,031	-0,135	-0,022
-478,576	180,358	0,057	0,060
-477,562	-200,000	-0,013	0,049
-476,547	-200,000	0,014	0,059
-475,532	-200,000	-0,010	0,041
-474,518	265,176	-0,038	0,048
-473,503	300,959	0,117	0,156
-472,489	-200,000	0,017	0,124
-471,474	180,599	-0,031	0,033
-470,459	409,851	-0,077	-0,117
-469,445	482,194	-0,117	-0,192
-468,430	800,000	0,011	-0,034
-467,416	762,360	0,078	-0,153
-466,401	-200,000	0,032	0,157
-465,386	-200,000	-0,008	0,044
-464,372	-200,000	0,045	0,163
-463,357	-200,000	-0,005	0,033
-462,343	-6,367	-0,062	-0,031
-461,328	-200,000	0,003	-0,063
-460,313	-48,601	-0,076	0,026
-459,299	-200,000	0,027	0,133
-458,284	239,666	0,084	0,101
-457,270	42,713	-0,128	-0,083
-456,255	198,502	0,062	-0,068
-455,241	-200,000	-0,032	-0,128
-454,226	319,692	0,070	-0,095
-453,211	570,817	0,098	-0,173
-452,197	8,971	0,144	-0,078
-451,182	-117,204	0,118	-0,015
-450,168	-46,131	0,048	0,017
-449,153	75,538	-0,036	-0,028
-448,138	-43,887	-0,111	0,040
-447,124	-6,678	-0,054	0,026
-446,109	-23,835	0,105	0,045
-445,095	-200,000	0,029	-0,118
-444,080	-53,921	0,072	-0,023
-443,065	800,000	0,048	0,131
-442,051	-200,000	0,002	0,010
-441,036	-200,000	-0,023	-0,085
-440,022	47,290	0,085	0,057
-439,007	-84,229	0,031	-0,007
-437,992	-200,000	-0,001	0,024
-436,978	8,099	0,083	0,045
-435,963	397,876	-0,064	-0,096
-434,949	-66,412	0,026	-0,007
-433,934	11,440	0,106	0,058
-432,919	6,609	-0,087	-0,046
-431,905	800,000	-0,034	0,075
-430,890	800,000	0,041	0,109
-429,876	575,502	0,046	0,080
-428,861	107,727	-0,084	0,072
-427,846	249,539	0,035	0,043
-426,832	-113,613	-0,158	0,022
-425,817	800,000	-0,013	0,026
-424,803	-200,000	0,011	0,044
-423,788	675,464	-0,019	-0,036
-422,773	14,510	-0,044	0,025
-421,759	-106,485	0,102	-0,016
-420,744	-5,309	-0,015	0,007
-419,730	323,564	-0,075	-0,103
-418,715	15,380	0,099	-0,056
-417,701	20,128	-0,048	-0,028
-416,686	121,678	0,029	-0,026
-415,671	-85,464	-0,193	0,043
-414,657	800,000	-0,018	0,036
-413,642	-110,506	-0,050	-0,007
-412,628	-119,840	-0,126	0,015
-411,613	-18,633	-0,102	-0,045
-410,598	-200,000	0,008	-0,048
-409,584	215,421	0,018	0,020
-408,569	61,187	0,097	0,069
-407,555	-61,306	0,173	0,052
-406,540	288,681	0,024	-0,032
-405,525	178,506	0,055	0,058
-404,511	800,000	-0,020	-0,041
-403,496	425,345	-0,015	-0,024
-402,482	101,125	0,118	0,098
-401,467	-61,157	-0,100	-0,030
-400,452	-200,000	-0,016	-0,053
-399,438	20,830	0,026	-0,015
-398,423	800,000	-0,049	-0,134
-397,409	106,934	-0,037	-0,031
-396,394	-200,000	0,024	-0,152
-395,379	160,701	-0,030	-0,030
-394,365	-9,886	0,053	0,025
-393,350	-200,000	0,024	0,118
-392,336	58,210	0,159	0,112
-391,321	102,064	-0,128	0,107
-390,306	-200,000	-0,007	0,025
-389,292	182,672	-0,090	0,095
-388,277	800,000	-0,043	-0,132
-387,263	676,316	0,019	-0,036
-386,248	800,000	0,062	0,178
-385,233	-200,000	-0,010	0,061
-384,219	-109,886	0,060	-0,009
-383,204	307,495	0,047	-0,064
-382,190	425,242	-0,053	0,082
-381,175	-200,000	-0,015	-0,073
-380,160	-200,000	-0,004	-0,127
-379,146	334,018	0,053	-0,073
-378,131	800,000	0,023	-0,067
-377,117	20,568	0,053	-0,031
-376,102	-35,659	0,034	-0,013
-375,088	-12,950	-0,133	-0,062
-374,073	-122,086	-0,049	-0,006
-373,058	-17,661	0,027	0,012
-372,044	-80,291	0,113	0,027
-371,029	-126,022	0,076	-0,008
-370,015	-200,000	-0,024	0,179
-369,000	-125,342	0,060	0,007
-367,985	205,603	0,092	-0,102
-366,971	-200,000	0,008	-0,102
-365,956	96,587	0,038	-0,031
-364,942	-58,973	-0,036	0,011
-363,927	-102,821	-0,049	-0,008
-362,912	-121,381	-0,063	0,007
-361,898	-106,584	-0,094	-0,015
-360,883	-88,467	-0,049	-0,010
-359,869	-200,000	-0,017	-0,140
-358,854	-200,000	-0,022	-0,107
-357,839	273,665	0,056	0,071
-356,825	-80,702	0,078	0,019
-355,810	188,205	-0,063	-0,067
-354,796	-87,684	-0,126	-0,027
-353,781	-104,345	0,052	-0,009
-352,766	-200,000	0,014	-0,076
-351,752	800,000	0,043	0,132
-350,737	800,000	0,061	0,144
-349,723	-113,403	-0,071	-0,010
-348,708	428,972	-0,040	0,062
-347,693	-30,949	0,029	-0,012
-346,679	-200,000	0,028	-0,149
-345,664	-200,000	-0,004	-0,101
-344,650	-133,235	0,108	-0,010
-343,635	7,606	0,056	-0,030
-342,620	-171,782	0,181	0,004
-341,606	800,000	0,039	0,082
-340,591	-200,000	-0,018	-0,143
-339,577	-55,972	-0,057	0,018
-338,562	716,345	-0,026	0,050
-337,548	-3,794	0,033	0,017
-336,533	-200,000	0,015	-0,107
-335,518	19,645	-0,044	0,025
-334,504	209,451	0,072	-0,081
-333,489	26,501	0,093	-0,056
-332,475	176,435	-0,073	-0,076
-331,460	-200,000	0,010	0,166
-330,445	598,206	-0,012	-0,021
-329,431	-200,000	-0,019	-0,100
-328,416	800,000	0,030	0,082
-327,402	800,000	-0,034	-0,085
-326,387	-111,720	0,133	-0,019
-325,372	99,487	-0,094	-0,078
-324,358	-200,000	0,021	-0,134
-323,343	95,372	0,035	0,029
-322,329	-200,000	0,004	-0,090
-321,314	609,725	0,054	0,097
-320,299	719,853	0,053	0,101
-319,285	800,000	0,026	0,054
-318,270	703,472	-0,020	-0,037
-317,256	-200,000	0,056	0,218
-316,241	-200,000	0,004	-0,116
-315,226	-107,959	0,169	-0,026
-314,212	576,143	0,035	0,061
-313,197	302,872	-0,105	0,139
-312,183	233,248	0,063	0,074
-311,168	-109,052	0,037	0,006
-310,153	-161,056	0,046	-0,002
-309,139	-200,000	0,005	0,073
-308,124	-200,000	0,001	0,016
-307,110	676,605	0,054	-0,101
-306,095	-200,000	-0,002	0,046
-305,080	-200,000	-0,016	0,118
-304,066	-200,000	-0,013	-0,109
-303,051	467,077	-0,048	0,076
-302,037	-200,000	-0,002	0,081
-301,022	29,971	-0,052	-0,032
-300,008	-80,810	0,070	0,016
-298,993	-154,604	0,078	-0,004
-297,978	-200,000	0,009	0,077
-296,964	371,962	-0,113	0,164
-295,949	-65,554	-0,013	-0,004
-294,935	800,000	-0,046	0,124
-293,920	162,390	0,081	0,082
-292,905	-44,341	-0,047	0,017
-291,891	-200,000	0,012	0,072
-290,876	412,247	0,055	-0,084
-289,862	223,166	-0,024	-0,027
-288,847	64,485	-0,090	-0,065
-287,832	-200,000	0,004	-0,157
-286,818	-200,000	-0,010	0,068
-285,803	-40,536	-0,019	0,007
-284,789	-52,876	0,208	0,068
-283,774	-200,000	0,028	0,117
-282,759	203,740	-0,022	-0,024
-281,745	-200,000	-0,009	-0,044
-280,730	2,796	-0,022	-0,011
-279,716	800,000	-0,026	0,074
-278,701	366,324	0,053	0,077
-277,686	292,173	-0,080	0,105
-276,672	-200,000	0,015	0,049
-275,657	-174,291	0,093	0,002
-274,643	-200,000	0,006	0,067
-273,628	800,000	-0,032	-0,072
-272,613	-200,000	-0,003	-0,112
-271,599	-59,289	-0,097	-0,030
-270,584	74,934	0,030	0,022
-269,570	-114,773	-0,031	0,004
-268,555	234,287	-0,133	0,157
-267,540	-200,000	-0,008	0,044
-266,526	174,687	-0,120	-0,124
-265,511	45,809	0,021	-0,014
-264,497	-23,081	-0,099	-0,043
-263,482	75,479	0,142	-0,107
-262,467	-200,000	-0,026	-0,124
-261,453	-200,000	-0,007	-0,107
-260,438	301,936	-0,079	0,105
-259,424	800,000	0,035	-0,069
-258,409	364,218	-0,044	-0,063
-257,395	725,334	0,057	-0,109
-256,380	-195,084	-0,185	-0,001
-255,365	800,000	0,045	-0,098
-254,351	-168,748	-0,049	-0,001
-253,336	-200,000	-0,025	-0,092
-252,322	800,000	-0,071	-0,178
-251,307	459,014	0,035	-0,055
-250,292	450,899	0,090	-0,142
-249,278	8,997	0,058	0,031
-248,263	-69,826	-0,038	0,010
-247,249	-96,005	0,129	-0,024
-246,234	-22,309	-0,010	0,004
-245,219	-62,549	0,101	0,030
-244,205	-63,984	0,090	-0,026
-243,190	-200,000	-0,010	0,081
-242,176	-200,000	-0,012	0,090
-241,161	-25,235	-0,102	-0,043
-240,146	49,146	-0,066	0,044
-239,132	-200,000	0,020	0,102
-238,117	0,266	0,017	-0,009
-237,103	124,165	0,033	-0,029
-236,088	-55,401	0,070	0,022
-235,073	800,000	0,022	0,061
-234,059	-200,000	0,020	0,089
-233,044	-1,210	-0,083	-0,042
-232,030	-200,000	0,008	-0,030
-231,015	-129,645	0,050	-0,005
-230,000	304,343	-0,074	-0,098
-228,986	145,086	-0,045	-0,043
-227,971	-70,692	0,055	0,015
-226,957	617,490	0,070	0,126
-225,942	90,996	-0,039	-0,031
-224,927	666,596	-0,019	0,035
-223,913	800,000	0,016	-0,044
-222,898	800,000	-0,038	-0,119
-221,884	666,194	0,033	-0,060
-220,869	-200,000	0,034	0,111
-219,855	92,721	0,116	0,093
-218,840	238,041	0,090	-0,107
-217,825	-200,000	-0,007	0,159
-216,811	800,000	0,059	0,128
-215,796	-200,000	0,031	-0,140
-214,782	-200,000	-0,014	-0,097
-213,767	381,633	-0,029	0,043
-212,752	800,000	0,052	0,155
-211,738	-200,000	0,019	0,137
-210,723	-159,275	-0,013	-0,000
-209,709	-100,127	-0,039	0,007
-208,694	-21,352	-0,102	0,044
-207,679	-200,000	0,001	0,120
-206,665	-200,000	0,000	0,142
-205,650	-200,000	-0,004	-0,017
-204,636	-177,441	-0,054	-0,001
-203,621	-200,000	0,018	-0,065
-202,606	-169,533	-0,087	0,002
-201,592	331,217	-0,048	0,065
-200,577	-18,167	-0,068	-0,030
-199,563	-200,000	-0,024	-0,132
-198,548	508,798	0,071	0,118
-197,533	-82,412	0,051	0,012
-196,519	425,955	0,060	0,092
-195,504	2,485	-0,084	0,043
-194,490	-200,000	0,017	-0,057
-193,475	39,687	-0,172	0,110
-192,460	-24,711	0,139	-0,058
-191,446	-200,000	-0,098	-0,000
-190,431	146,695	0,057	0,055
-189,417	-200,000	-0,020	-0,126
-188,402	-200,000	-0,033	-0,221
-187,387	110,978	-0,097	-0,083
-186,373	-170,158	-0,103	-0,003
-185,358	112,598	0,077	-0,066
-184,344	33,456	-0,069	-0,042
-183,329	-200,000	0,037	0,187
-182,315	105,411	-0,059	0,049
-181,300	74,384	0,069	0,051
-180,285	-105,983	-0,034	0,005
-179,271	175,070	-0,047	-0,049
-178,256	-200,000	0,015	0,060
-177,242	800,000	-0,055	0,122
-176,227	476,941	0,113	0,182
-175,212	17,399	-0,045	0,025
-174,198	260,324	-0,134	0,165
-173,183	-200,000	-0,001	-0,043
-172,169	94,927	-0,034	-0,028
-171,154	800,000	-0,027	-0,062
-170,139	-200,000	-0,009	-0,031
-169,125	387,111	0,092	0,135
-168,110	44,140	0,091	-0,060
-167,096	-102,525	0,126	0,021
-166,081	800,000	0,057	0,146
-165,066	-200,000	0,009	0,043
-164,052	-115,924	-0,119	-0,016
-163,037	149,432	0,050	-0,048
-162,023	-200,000	-0,039	0,169
-161,008	800,000	0,020	0,053
-159,993	-200,000	-0,011	0,052
-158,979	733,837	0,062	-0,119
-157,964	-200,000	0,010	0,109
-156,950	-113,131	0,182	-0,025
-155,935	306,246	-0,053	-0,071
-154,920	-113,310	-0,063	-0,009
-153,906	666,845	-0,015	-0,027
-152,891	-200,000	0,042	-0,153
-151,877	119,918	-0,127	0,112
-150,862	476,668	0,072	-0,116
-149,847	191,783	0,045	-0,049
-148,833	-200,000	0,017	0,195
-147,818	-200,000	0,012	0,055
-146,804	101,411	0,080	-0,066
-145,789	-118,382	-0,149	0,019
-144,775	-60,125	-0,114	-0,034
-143,760	800,000	-0,077	-0,219
-142,745	154,272	0,021	-0,021
-141,731	577,031	0,014	0,024
-140,716	-200,000	0,021	0,138
-139,702	334,643	0,058	0,080
-138,687	-90,797	-0,040	0,008
-137,672	-126,012	-0,109	-0,012
-136,658	800,000	-0,037	-0,073
-135,643	22,913	-0,124	-0,072
-134,629	278,568	0,094	-0,120
-133,614	800,000	-0,009	-0,023
-132,599	800,000	0,038	0,076
-131,585	197,886	-0,073	0,079
-130,570	59,280	0,101	-0,071
-129,556	-200,000	0,023	0,076
-128,541	-200,000	0,034	-0,117
-127,526	-54,044	-0,043	0,014
-126,512	-141,442	0,117	0,008
-125,497	-81,955	-0,091	-0,021
-124,483	-185,028	0,129	-0,001
-123,468	800,000	-0,039	-0,077
-122,453	-76,341	-0,101	-0,025
-121,439	-200,000	-0,000	-0,053
-120,424	335,935	0,050	0,069
-119,410	-95,894	0,085	0,016
-118,395	-200,000	0,020	-0,066
-117,380	800,000	0,038	0,077
-116,366	689,824	-0,040	0,074
-115,351	111,343	0,015	-0,012
-114,337	-95,283	-0,041	0,008
-113,322	-143,014	-0,082	-0,006
-112,307	517,694	0,076	-0,127
-111,293	-18,054	0,061	0,027
-110,278	42,540	0,090	-0,058
-109,264	800,000	0,041	-0,100
-108,249	-200,000	0,007	0,102
-107,234	-119,679	-0,089	0,011
-106,220	330,676	-0,049	0,067
-105,205	125,022	0,020	0,018
-104,191	156,792	0,067	0,065
-103,176	181,078	-0,063	0,066
-102,162	-200,000	-0,020	0,113
-101,147	11,599	0,038	-0,021
-100,132	-132,899	-0,140	0,013
-99,118	245,876	0,034	-0,040
-98,103	-46,766	-0,011	0,004
-97,089	-200,000	0,000	0,123
-96,074	-97,371	0,035	0,006
-95,059	288,984	0,047	-0,061
-94,045	257,755	-0,022	-0,027
-93,030	-18,720	0,078	-0,035
-92,016	436,323	-0,083	-0,128
-91,001	-37,954	0,062	-0,023
-89,986	-119,867	0,151	-0,018
-88,972	123,516	-0,047	0,042
-87,957	-116,171	0,069	-0,009
-86,943	-88,726	-0,128	0,027
-85,928	-118,848	0,153	-0,019
-84,913	5,180	0,060	-0,031
-83,899	295,980	-0,017	0,022
-82,884	-200,000	-0,006	0,044
-81,870	97,367	-0,052	-0,042
-80,855	-20,567	0,144	0,063
-79,840	-92,468	-0,098	0,019
-78,826	414,281	-0,041	-0,063
-77,811	40,928	-0,071	0,045
-76,797	98,559	-0,078	0,063
-75,782	228,701	-0,016	-0,018
-74,767	335,409	0,110	0,152
-73,753	-54,909	-0,055	-0,018
-72,738	-200,000	0,026	0,111
-71,724	181,805	-0,075	-0,079
-70,709	525,025	-0,122	0,205
-69,694	-134,853	-0,031	0,003
-68,680	-200,000	0,067	0,000
-67,665	320,903	0,036	0,049
-66,651	-200,000	0,010	0,093
-65,636	224,248	0,064	-0,074
-64,622	-97,508	-0,052	0,010
-63,607	-200,000	-0,023	-0,086
-62,592	157,993	0,029	0,028
-61,578	-20,539	0,040	0,017
-60,563	800,000	0,021	0,057
-59,549	-127,340	0,039	0,004
-58,534	-9,262	-1,698	-0,801
-57,519	441,279	-1,347	-2,094
-56,505	-200,000	-0,481	-4,558
-55,490	248,932	0,999	1,200
-54,476	800,000	5,078	11,390
-53,461	-200,000	19,195	320,243
-52,446	-200,000	740,678	2335,013
-51,432	573,375	1655,677	2869,689
-50,417	78,282	1671,093	1261,976
-49,403	21,257	1544,240	885,645
-48,388	15,177	1466,304	811,377
-47,373	17,957	1456,654	819,442
-46,359	16,717	1446,462	807,728
-45,344	13,363	1441,981	789,126
-44,330	13,276	1440,175	787,686
-43,315	13,287	1438,428	786,754
-42,300	13,338	1436,480	785,900
-41,286	13,370	1435,219	785,331
-40,271	13,274	1434,053	784,203
-39,257	13,302	1432,775	783,607
-38,242	13,313	1431,500	782,932
-37,227	13,343	1430,315	782,398
-36,213	13,362	1428,849	781,655
-35,198	13,314	1427,851	780,847
-34,184	13,409	1426,727	780,652
-33,169	13,346	1425,358	779,575
-32,154	13,406	1424,548	779,387
-31,140	13,405	1423,004	778,505
-30,125	13,425	1422,065	778,054
-29,111	13,419	1420,782	777,295
-28,096	13,351	1419,728	776,368
-27,082	13,356	1418,529	775,703
-26,067	13,307	1417,563	774,915
-25,052	13,267	1416,532	774,128
-24,038	13,284	1415,531	773,631
-23,023	13,289	1414,561	773,097
-22,009	13,248	1413,654	772,377
-20,994	13,266	1412,547	771,825
-19,979	13,235	1412,008	771,352
-18,965	13,274	1410,779	770,837
-17,950	13,261	1409,678	770,142
-16,936	13,205	1408,895	769,421
-15,921	13,200	1407,770	768,751
-14,906	13,222	1406,870	768,333
-13,892	13,254	1405,743	767,835
-12,877	13,207	1405,105	767,237
-11,863	13,200	1404,238	766,701
-10,848	13,172	1403,384	766,074
-9,833	13,206	1402,320	765,622
-8,819	13,122	1401,641	764,830
-7,804	13,112	1400,776	764,282
-6,790	13,153	1399,561	763,779
-5,775	13,155	1398,390	763,120
-4,760	13,077	1397,561	762,276
-3,746	13,090	1396,842	761,910
-2,731	13,130	1395,680	761,433
-1,717	13,082	1395,116	760,873
-0,702	13,061	1393,379	759,797
0,313	16,912	1310,127	732,243
1,327	33,171	703,875	430,991
2,342	50,879	123,328	82,542
3,356	1,283	16,660	8,440
4,371	8,598	3,316	1,761
5,386	-13,463	0,637	0,291
6,400	800,000	0,097	0,274
7,415	118,899	-0,329	-0,288
8,429	-54,326	-0,459	-0,146
9,444	-3,589	-0,280	-0,137
10,459	103,020	-0,302	-0,250
11,473	45,318	-0,329	-0,214
12,488	-50,115	-0,339	-0,113
13,502	-95,301	-0,318	-0,060
14,517	15,711	-0,316	-0,175
15,531	-28,437	-0,411	-0,167
16,546	27,193	-0,214	-0,126
17,561	3,008	-0,360	-0,184
18,575	-67,485	-0,211	-0,058
19,590	-22,088	-0,280	-0,120
20,604	-10,444	-0,351	-0,164
21,619	78,396	-0,488	-0,368
22,634	213,584	-0,319	-0,357
23,648	128,713	-0,358	-0,322
24,663	0,287	-0,431	-0,216
25,677	138,526	-0,284	-0,263
26,692	199,347	-0,401	-0,434
27,707	12,748	-0,425	-0,231
28,721	7,788	-0,455	-0,240
29,736	9,323	-0,410	-0,218
30,750	163,038	-0,361	-0,359
31,765	237,470	-0,265	-0,311
32,780	107,308	-0,366	-0,307
33,794	255,347	-0,271	-0,328
34,809	69,983	-0,453	-0,330
35,823	106,701	-0,401	-0,336
36,838	155,717	-0,344	-0,334
37,853	89,167	-0,307	-0,241
38,867	-10,884	-0,450	-0,209
39,882	42,906	-0,313	-0,201
40,896	56,698	-0,347	-0,238
41,911	206,681	-0,240	-0,264
42,926	47,663	-0,362	-0,238
43,940	133,270	-0,402	-0,366
44,955	53,629	-0,370	-0,250
45,969	113,616	-0,405	-0,347
46,984	77,623	-0,342	-0,256
47,999	12,417	-0,281	-0,152
49,013	18,394	-0,312	-0,175
50,028	87,895	-0,306	-0,239
51,042	29,426	-0,411	-0,245
52,057	-22,457	-0,425	-0,181
53,071	154,108	-0,324	-0,313
54,086	-50,637	-0,391	-0,129
55,101	55,745	-0,299	-0,204
56,115	127,638	-0,300	-0,269
57,130	80,224	-0,351	-0,265
58,144	90,645	-0,351	-0,277
59,159	84,069	-0,353	-0,271
60,174	-0,321	-0,506	-0,253
61,188	180,993	-0,342	-0,354
62,203	46,885	-0,381	-0,249
63,217	322,992	-0,255	-0,342
64,232	52,700	-0,256	-0,172
65,247	-5,114	-0,338	-0,163
66,261	140,357	-0,346	-0,321
67,276	37,753	-0,328	-0,205
68,290	-142,899	-0,281	-0,019
69,305	-62,404	-0,265	-0,077
70,320	73,376	-0,267	-0,196
71,334	55,096	-0,336	-0,228
72,349	15,520	-0,410	-0,226
73,363	-47,271	-0,353	-0,120
74,378	-84,503	-0,403	-0,089
75,393	-71,577	-0,231	-0,060
76,407	12,621	-0,283	-0,153
77,422	15,398	-0,264	-0,145
78,436	-127,525	-0,177	0,018
79,451	-62,237	-0,418	-0,122
80,466	175,869	-0,244	-0,249
81,480	47,057	-0,331	-0,216
82,495	135,414	-0,174	-0,159
83,509	220,207	-0,173	-0,195
84,524	194,237	-0,271	-0,289
85,539	95,648	-0,280	-0,224
86,553	-2,431	-0,282	-0,138
87,568	-98,081	-0,357	-0,064
88,582	28,795	-0,354	-0,210
89,597	78,483	-0,350	-0,262
90,611	-29,760	-0,385	-0,153
91,626	173,719	-0,185	-0,188
92,641	-50,117	-0,220	-0,073
93,655	258,421	-0,248	-0,300
94,670	162,530	-0,271	-0,267
95,684	-50,379	-0,353	-0,116
96,699	22,927	-0,167	-0,096
97,714	305,846	-0,174	-0,227
98,728	57,459	-0,267	-0,183
99,743	4,181	-0,322	-0,165
100,757	9,973	-0,296	-0,157
101,772	48,852	-0,306	-0,201
102,787	0,939	-0,301	-0,151
103,801	-45,616	-0,231	-0,080
104,816	131,290	-0,171	-0,155
105,830	132,345	-0,255	-0,230
106,845	355,925	-0,117	-0,164
107,860	-12,759	-0,297	-0,135
108,874	46,606	-0,222	-0,144
109,889	42,354	-0,273	-0,174
110,903	82,170	-0,390	-0,296
111,918	138,538	-0,231	-0,213
112,933	1,567	-0,301	-0,151
113,947	208,725	-0,210	-0,230
114,962	5,760	-0,393	-0,203
115,976	125,459	-0,207	-0,183
116,991	11,061	-0,372	-0,199
118,006	372,587	-0,183	-0,262
119,020	92,895	-0,220	-0,174
120,035	-182,077	-0,248	-0,003
121,049	504,325	-0,134	-0,219
122,064	800,000	-0,112	-0,229
123,079	-30,651	-0,227	-0,089
124,093	43,436	-0,300	-0,192
125,108	395,283	-0,224	-0,328
126,122	69,809	-0,265	-0,191
127,137	757,277	-0,154	-0,294
128,151	633,117	-0,138	-0,245
129,166	194,147	-0,155	-0,165
130,181	20,967	-0,284	-0,161
131,195	52,926	-0,258	-0,172
132,210	-0,329	-0,390	-0,193
133,224	102,274	-0,347	-0,283
134,239	403,297	-0,166	-0,245
135,254	273,884	-0,201	-0,250
136,268	-44,791	-0,159	-0,055
137,283	55,250	-0,294	-0,199
138,297	174,945	-0,259	-0,262
139,312	153,259	-0,208	-0,199
140,327	92,192	-0,244	-0,192
141,341	345,053	-0,183	-0,252
142,356	-48,792	-0,300	-0,100
143,370	33,332	-0,280	-0,170
144,385	149,507	-0,230	-0,218
145,400	47,749	-0,321	-0,209
146,414	200,557	-0,345	-0,371
147,429	251,164	-0,194	-0,231
148,443	141,354	-0,146	-0,135
149,458	-35,093	-0,246	-0,093
150,473	121,751	-0,245	-0,214
151,487	149,368	-0,146	-0,138
152,502	-75,258	-0,257	-0,064
153,516	-84,923	-0,287	-0,062
154,531	-155,409	-0,317	-0,014
155,546	716,577	-0,107	-0,199
156,560	218,365	-0,125	-0,140
157,575	186,295	-0,115	-0,119
158,589	193,652	-0,209	-0,221
159,604	91,112	-0,217	-0,170
160,619	33,234	-0,305	-0,184
161,633	331,445	-0,132	-0,178
162,648	109,870	-0,156	-0,130
163,662	233,215	-0,150	-0,173
164,677	93,224	-0,262	-0,207
165,692	-19,775	-0,299	-0,128
166,706	142,656	-0,227	-0,210
167,721	70,444	-0,224	-0,161
168,735	-16,814	-0,397	-0,174
169,750	108,795	-0,208	-0,173
170,764	-24,546	-0,230	-0,095
171,779	43,072	-0,163	-0,103
172,794	6,624	-0,208	-0,107
173,808	210,658	-0,172	-0,189
174,823	2,469	-0,147	-0,074
175,837	28,201	-0,221	-0,130
176,852	-51,109	-0,309	-0,100
177,867	267,719	-0,239	-0,292
178,881	-34,046	-0,158	-0,060
179,896	-162,124	-0,198	-0,007
180,910	-200,000	-0,048	-0,164
181,925	131,856	-0,178	-0,159
182,940	76,694	-0,231	-0,171
183,954	134,912	-0,190	-0,172
184,969	41,802	-0,296	-0,187
185,983	50,556	-0,168	-0,111
186,998	-69,166	-0,250	-0,066
188,013	133,624	-0,171	-0,154
189,027	17,633	-0,245	-0,135
190,042	74,427	-0,336	-0,246
191,056	157,768	-0,102	-0,098
192,071	-60,396	-0,287	-0,084
193,086	-104,414	-0,281	-0,045
194,100	-35,671	-0,140	-0,053
195,115	306,001	-0,180	-0,233
196,129	764,055	-0,141	-0,268
197,144	159,828	-0,168	-0,163
198,159	196,964	-0,198	-0,210
199,173	311,124	-0,137	-0,179
200,188	429,818	-0,146	-0,220
201,202	107,533	-0,220	-0,182
202,217	35,550	-0,110	-0,067
203,232	-8,269	-0,184	-0,086
204,246	63,150	-0,249	-0,173
205,261	-9,180	-0,241	-0,111
206,275	-154,782	-0,239	0,011
207,290	188,039	-0,178	-0,185
208,304	-53,200	-0,151	-0,048
209,319	-146,359	-0,243	0,015
210,334	-19,724	-0,277	-0,119
211,348	76,811	-0,180	-0,133
212,363	128,114	-0,207	-0,183
213,377	532,121	-0,164	-0,270
214,392	83,345	-0,228	-0,172
215,407	-106,069	-0,146	-0,023
216,421	190,914	-0,130	-0,136
217,436	149,067	-0,273	-0,257
218,450	241,530	-0,248	-0,289
219,465	372,831	-0,103	-0,146
220,480	-83,723	-0,189	-0,041
221,494	-62,194	-0,254	-0,073
222,509	691,202	-0,093	-0,170
223,523	0,478	-0,150	-0,074
224,538	-88,035	-0,138	-0,029
225,553	96,387	-0,312	-0,248
226,567	116,188	-0,224	-0,190
227,582	-97,581	-0,238	-0,042
228,596	271,413	-0,089	-0,108
229,611	407,926	-0,185	-0,273
230,626	100,538	-0,213	-0,172
231,640	77,721	-0,249	-0,184
232,655	171,387	-0,221	-0,220
233,669	390,077	-0,239	-0,344
234,684	230,413	-0,156	-0,177
235,699	76,179	-0,201	-0,147
236,713	-32,580	-0,097	-0,037
237,728	-129,861	-0,127	0,012
238,742	13,467	-0,168	-0,090
239,757	60,198	-0,174	-0,119
240,772	117,689	-0,280	-0,239
241,786	51,385	-0,100	-0,066
242,801	-69,367	-0,230	0,061
243,815	71,029	-0,107	-0,077
244,830	146,302	-0,167	-0,155
245,844	-106,360	-0,149	-0,023
246,859	92,950	-0,226	-0,177
247,874	178,199	-0,215	-0,217
248,888	22,137	-0,255	-0,144
249,903	-24,753	-0,199	-0,081
250,917	-175,061	-0,115	0,002
251,932	51,321	-0,203	-0,133
252,947	800,000	-0,054	-0,121
253,961	-200,000	-0,025	-0,116
254,976	244,030	-0,174	-0,203
255,990	-71,507	-0,189	-0,049
257,005	46,022	-0,116	-0,074
258,020	800,000	-0,063	-0,141
259,034	-141,826	-0,207	-0,014
260,049	-200,000	-0,058	-0,222
261,063	194,486	-0,100	-0,105
262,078	-9,601	-0,175	-0,080
263,093	65,333	-0,225	-0,157
264,107	1,377	-0,221	-0,109
265,122	695,085	-0,124	-0,226
266,136	214,987	-0,132	-0,145
267,151	149,372	-0,122	-0,115
268,166	189,011	-0,138	-0,143
269,180	-146,486	-0,182	-0,011
270,195	172,377	-0,174	-0,173
271,209	161,714	-0,071	-0,069
272,224	3,164	-0,170	-0,085
273,239	2,254	-0,082	-0,041
274,253	54,002	-0,146	-0,097
275,268	133,352	-0,232	-0,207
276,282	335,897	-0,225	-0,303
277,297	77,032	-0,188	-0,138
278,312	290,987	-0,126	-0,159
279,326	-200,000	-0,054	-0,257
280,341	800,000	-0,100	-0,249
281,355	178,765	-0,145	-0,147
282,370	237,356	-0,126	-0,144
283,384	7,961	-0,214	-0,111
284,399	32,890	-0,229	-0,136
285,414	-141,901	-0,134	-0,009
286,428	75,356	-0,132	-0,096
287,443	493,233	-0,103	-0,164
288,457	-39,750	-0,159	-0,057
289,472	135,369	-0,075	-0,067
290,487	-53,978	-0,245	-0,077
291,501	222,035	-0,098	-0,109
292,516	269,046	-0,161	-0,196
293,530	-19,191	-0,144	-0,061
294,545	-200,000	-0,030	-0,122
295,560	-172,949	-0,176	-0,004
296,574	191,167	-0,142	-0,147
297,589	-200,000	-0,056	-0,197
298,603	-83,216	-0,156	-0,034
299,618	-36,872	-0,217	-0,080
300,633	96,851	-0,158	-0,125
301,647	94,239	-0,038	0,030
302,662	416,221	-0,104	-0,154
303,676	587,031	-0,066	-0,113
304,691	-58,919	-0,213	-0,063
305,706	83,607	-0,133	-0,100
306,720	214,607	-0,177	-0,194
307,735	334,067	-0,151	-0,202
308,749	157,836	-0,127	-0,121
309,764	-27,244	-0,145	-0,058
310,779	154,421	-0,189	-0,178
311,793	285,992	-0,141	-0,176
312,808	-13,218	-0,164	-0,073
313,822	-96,930	-0,187	0,033
314,837	197,147	-0,138	-0,145
315,852	210,921	-0,084	-0,091
316,866	-198,127	-0,264	-0,001
317,881	164,519	-0,115	-0,111
318,895	37,554	-0,122	-0,074
319,910	536,195	-0,083	-0,136
320,925	46,365	-0,139	-0,089
321,939	726,773	-0,043	-0,078
322,954	-110,484	-0,166	0,023
323,968	-200,000	0,009	-0,047
324,983	370,264	-0,046	-0,065
325,997	-200,000	-0,045	-0,164
327,012	-81,362	-0,058	0,013
328,027	70,397	-0,127	-0,090
329,041	21,645	-0,163	-0,091
330,056	-200,000	0,011	-0,209
331,070	-200,000	-0,024	-0,176
332,085	70,513	-0,184	-0,131
333,100	183,218	-0,072	-0,073
334,114	30,647	-0,115	-0,067
335,129	200,425	-0,151	-0,159
336,143	119,292	-0,148	-0,126
337,158	144,728	-0,184	-0,169
338,173	-117,942	-0,113	-0,014
339,187	-200,000	-0,028	-0,181
340,202	-200,000	-0,010	-0,057
341,216	-200,000	-0,011	-0,108
342,231	99,975	-0,138	-0,110
343,246	-25,730	-0,111	-0,045
344,260	125,127	-0,070	-0,061
345,275	347,078	-0,136	-0,184
346,289	-200,000	-0,056	-0,177
347,304	-112,834	-0,089	-0,012
348,319	109,967	-0,143	-0,117
349,333	-200,000	-0,051	-0,173
350,348	-11,582	-0,142	-0,064
351,362	-170,404	-0,117	-0,003
352,377	-200,000	0,029	-0,098
353,392	-13,971	-0,161	0,071
354,406	23,912	-0,176	-0,099
355,421	211,199	1312,893	1418,453
356,435	162,610	1473,415	1418,935
