DTS Sentinel unit serial number:	SN410029Multiplexer serial number:	ORYXHardware model number:	OX2-SRSoftware version number:	ORYX F/W v4,00 Oryx Data Collector v3.7.2.0data status	okinstallation	B3 Nyhavnadifferential loss correction	single-endedforward channel	channel 1reverse channel	N/Adate	2023/12/03time	23:12:30forward acquisition time	300,00reverse acquisition time	0,00gamma	499,1914k internal	0,3201k external	0,3201temperature offset calibration	1,0000default loss term (dB/km)	0,3820temperature slope calibration	1,0000multiplexer offset coefficient	1,0000multiplexer slope coefficient	1,0000fibre end	0,00T internal ref (°C)	13,00T ext. ref 1 (°C)	-2,32T ext. ref 2 (°C)	-2,37length (m)	temperature (°C)	Stokes	anti-Stokes-744,400	487,728	-0,149	-0,248
-743,385	-200,000	-0,053	0,424
-742,371	800,000	-0,135	-0,321
-741,356	-200,000	-0,014	0,269
-740,342	171,293	-0,275	-0,287
-739,327	-200,000	-0,011	0,308
-738,312	341,327	-0,140	-0,199
-737,298	-200,000	0,015	0,310
-736,283	104,060	-0,283	-0,241
-735,269	552,497	-0,104	0,183
-734,254	121,030	-0,104	-0,094
-733,239	-84,106	-0,205	0,047
-732,225	384,711	-0,140	-0,211
-731,210	247,167	0,105	0,129
-730,196	80,604	0,073	0,057
-729,181	800,000	-0,068	-0,163
-728,167	800,000	-0,030	-0,084
-727,152	-200,000	-0,040	-0,127
-726,137	800,000	-0,017	-0,049
-725,123	-108,271	-0,128	-0,020
-724,108	75,075	0,132	-0,101
-723,094	131,286	-0,068	-0,064
-722,079	511,649	-0,103	-0,175
-721,064	-23,469	-0,186	-0,081
-720,050	133,354	0,048	-0,045
-719,035	499,481	0,045	0,076
-718,021	281,713	-0,071	-0,092
-717,006	445,936	-0,075	-0,120
-715,991	-122,113	-0,060	-0,007
-714,977	358,160	-0,087	-0,126
-713,962	-61,252	0,049	-0,015
-712,948	-200,000	0,100	0,000
-711,933	89,013	-0,070	-0,056
-710,918	129,527	-0,063	-0,058
-709,904	354,723	0,025	-0,036
-708,889	-8,866	-0,184	-0,089
-707,875	23,863	0,045	0,027
-706,860	-84,767	-0,042	0,010
-705,845	28,171	-0,057	0,035
-704,831	562,926	0,069	0,121
-703,816	56,221	-0,045	0,032
-702,802	-127,083	-0,077	-0,008
-701,787	227,425	0,068	-0,081
-700,772	230,169	-0,117	-0,139
-699,758	-178,067	-0,053	-0,001
-698,743	66,509	-0,108	0,080
-697,729	-98,968	0,139	-0,025
-696,714	80,435	-0,091	-0,071
-695,699	120,043	0,057	-0,052
-694,685	-42,995	-0,196	-0,072
-693,670	-176,125	-0,108	0,002
-692,656	-138,185	-0,138	-0,011
-691,641	27,480	0,094	0,057
-690,627	278,433	0,034	0,044
-689,612	33,363	-0,112	0,071
-688,597	-150,573	0,015	-0,001
-687,583	-200,000	0,016	-0,053
-686,568	-104,078	-0,094	-0,016
-685,554	-98,216	-0,188	0,035
-684,539	1,277	0,133	0,069
-683,524	-200,000	0,007	0,066
-682,510	-183,285	0,100	0,001
-681,495	215,565	-0,065	0,075
-680,481	530,869	0,041	0,071
-679,466	-200,000	0,009	0,089
-678,451	-5,744	-0,047	-0,023
-677,437	430,829	-0,112	-0,177
-676,422	-10,042	0,049	0,023
-675,408	-167,333	-0,118	-0,003
-674,393	441,592	-0,041	-0,065
-673,378	-200,000	-0,013	-0,056
-672,364	-200,000	-0,050	0,000
-671,349	800,000	-0,047	-0,129
-670,335	-164,486	-0,088	0,003
-669,320	280,646	0,084	0,109
-668,305	45,149	-0,076	-0,050
-667,291	-200,000	0,013	-0,160
-666,276	223,299	-0,065	-0,076
-665,262	-200,000	-0,004	-0,064
-664,247	4,724	-0,092	-0,049
-663,232	-200,000	0,006	0,113
-662,218	-52,881	0,158	0,053
-661,203	245,945	0,025	-0,030
-660,189	24,795	-0,075	0,045
-659,174	353,341	-0,142	-0,205
-658,159	-200,000	0,025	-0,086
-657,145	30,648	-0,017	-0,011
-656,130	-80,455	-0,061	0,015
-655,116	19,365	-0,092	0,053
-654,101	29,118	0,017	-0,011
-653,086	-74,350	0,070	-0,018
-652,072	-200,000	-0,029	-0,141
-651,057	-64,534	0,075	-0,022
-650,043	-200,000	0,014	0,055
-649,028	-200,000	0,007	-0,096
-648,014	48,994	0,076	-0,051
-646,999	398,291	-0,067	0,101
-645,984	-3,630	0,036	0,018
-644,970	-58,197	0,051	-0,016
-643,955	77,973	0,098	-0,076
-642,941	57,458	0,007	-0,005
-641,926	148,616	-0,083	0,081
-640,911	800,000	-0,010	-0,026
-639,897	255,725	0,047	-0,059
-638,882	-5,690	0,055	-0,027
-637,868	-134,290	-0,073	-0,006
-636,853	-200,000	0,012	-0,120
-635,838	-15,218	-0,196	-0,090
-634,824	640,179	-0,050	-0,093
-633,809	-200,000	-0,007	-0,063
-632,795	-200,000	0,039	-0,141
-631,780	-160,214	0,120	-0,005
-630,765	71,915	-0,059	0,045
-629,751	92,947	-0,064	0,052
-628,736	233,766	-0,092	-0,109
-627,722	212,331	0,056	0,065
-626,707	620,532	0,048	-0,087
-625,692	-200,000	-0,005	-0,043
-624,678	-15,721	0,065	-0,030
-623,663	85,429	0,056	-0,044
-622,649	270,713	0,036	0,046
-621,634	-168,632	-0,042	-0,001
-620,619	107,881	0,047	0,041
-619,605	-178,427	0,168	-0,003
-618,590	333,330	0,028	-0,039
-617,576	165,491	-0,046	0,047
-616,561	178,470	0,078	0,082
-615,546	-149,566	-0,149	0,008
-614,532	800,000	-0,042	-0,092
-613,517	276,106	-0,075	-0,096
-612,503	800,000	-0,024	-0,052
-611,488	303,257	0,091	0,122
-610,474	-51,095	-0,065	0,022
-609,459	-200,000	-0,001	0,121
-608,444	-200,000	-0,007	0,041
-607,430	-111,990	-0,164	0,024
-606,415	152,396	0,062	-0,061
-605,401	-81,615	-0,096	-0,023
-604,386	-35,921	0,093	0,036
-603,371	175,882	-0,032	0,034
-602,357	-200,000	-0,035	0,209
-601,342	-104,942	-0,058	-0,009
-600,328	-48,451	-0,073	-0,025
-599,313	650,358	-0,106	-0,197
-598,298	-18,240	-0,120	-0,054
-597,284	-75,991	0,227	0,058
-596,269	-189,663	0,116	0,001
-595,255	-200,000	-0,001	0,007
-594,240	93,648	0,078	0,064
-593,225	800,000	-0,052	-0,112
-592,211	800,000	-0,068	-0,156
-591,196	204,794	-0,047	0,053
-590,182	-200,000	0,018	-0,120
-589,167	800,000	-0,045	-0,128
-588,152	366,334	-0,041	-0,060
-587,138	-200,000	0,018	0,119
-586,123	-90,786	-0,117	-0,024
-585,109	157,728	-0,066	0,066
-584,094	-115,042	-0,101	-0,014
-583,079	167,148	-0,005	-0,005
-582,065	51,554	0,116	-0,080
-581,050	173,458	-0,040	-0,042
-580,036	-37,808	0,061	-0,023
-579,021	413,515	-0,048	-0,073
-578,006	136,901	-0,137	-0,129
-576,992	159,739	-0,112	0,112
-575,977	31,064	0,012	0,007
-574,963	8,013	-0,076	0,041
-573,948	340,620	0,108	0,152
-572,934	-200,000	0,034	0,156
-571,919	-200,000	-0,021	0,099
-570,904	800,000	-0,044	-0,094
-569,890	194,323	0,041	0,045
-568,875	-200,000	0,007	-0,062
-567,861	87,661	-0,073	0,059
-566,846	-77,915	0,083	-0,020
-565,831	-200,000	0,015	0,072
-564,817	392,656	0,018	-0,028
-563,802	388,869	-0,019	-0,028
-562,788	800,000	-0,048	-0,099
-561,773	470,032	0,075	-0,123
-560,758	-6,732	0,071	0,035
-559,744	-200,000	-0,006	-0,050
-558,729	67,158	-0,087	-0,064
-557,715	-18,696	0,086	0,039
-556,700	-133,090	-0,125	-0,011
-555,685	65,223	0,112	-0,082
-554,671	133,635	-0,103	-0,096
-553,656	11,914	-0,026	0,014
-552,642	-68,173	0,054	0,015
-551,627	647,916	-0,042	-0,078
-550,612	-23,188	-0,105	-0,045
-549,598	-71,498	0,031	0,008
-548,583	195,682	0,086	-0,095
-547,569	60,522	-0,036	-0,026
-546,554	-200,000	0,010	0,043
-545,539	-57,121	-0,041	-0,013
-544,525	-37,973	-0,104	-0,040
-543,510	209,673	0,011	0,012
-542,496	305,531	-0,022	0,030
-541,481	800,000	0,035	-0,096
-540,466	-60,190	0,122	0,037
-539,452	212,875	0,065	0,074
-538,437	-12,816	0,123	0,058
-537,423	-95,423	-0,095	0,018
-536,408	-113,489	-0,021	0,003
-535,393	-35,092	-0,074	-0,029
-534,379	800,000	0,014	-0,042
-533,364	-200,000	-0,013	-0,058
-532,350	-81,408	-0,126	0,030
-531,335	-183,542	0,095	0,001
-530,321	123,204	0,034	0,031
-529,306	-200,000	-0,003	0,035
-528,291	172,841	-0,071	0,074
-527,277	-26,009	0,021	-0,009
-526,262	-200,000	-0,018	-0,196
-525,248	800,000	0,045	0,140
-524,233	327,043	0,061	0,084
-523,218	800,000	0,037	0,099
-522,204	118,174	0,053	-0,047
-521,189	21,970	-0,126	-0,074
-520,175	-200,000	-0,029	0,102
-519,160	-200,000	-0,023	-0,103
-518,145	-22,183	0,146	-0,064
-517,131	-200,000	-0,003	0,134
-516,116	-200,000	0,031	0,000
-515,102	-154,970	-0,112	-0,005
-514,087	-57,418	0,073	-0,023
-513,072	-27,738	0,112	-0,047
-512,058	-200,000	-0,009	0,100
-511,043	-200,000	0,031	-0,107
-510,029	-6,760	0,068	-0,033
-509,014	229,055	0,062	0,074
-507,999	-23,519	-0,103	0,044
-506,985	-43,978	-0,032	-0,012
-505,970	-48,120	-0,114	-0,039
-504,956	-35,477	0,091	-0,035
-503,941	800,000	-0,011	0,028
-502,926	800,000	0,027	0,061
-501,912	-97,343	-0,026	0,005
-500,897	-125,349	-0,005	-0,001
-499,883	-83,914	-0,026	0,006
-498,868	139,973	-0,077	-0,073
-497,853	-66,077	0,068	-0,019
-496,839	-200,000	0,031	-0,101
-495,824	83,873	0,045	0,036
-494,810	24,940	0,097	-0,058
-493,795	235,780	-0,018	-0,021
-492,781	-119,805	0,145	0,018
-491,766	-189,408	0,113	-0,001
-490,751	78,772	-0,134	0,103
-489,737	113,508	0,067	0,059
-488,722	194,833	0,105	0,115
-487,708	-200,000	-0,002	-0,019
-486,693	-121,893	-0,186	0,022
-485,678	800,000	0,011	0,023
-484,664	-74,418	-0,105	-0,027
-483,649	104,134	-0,092	-0,078
-482,635	334,093	-0,046	-0,064
-481,620	109,268	0,036	0,031
-480,605	800,000	-0,051	0,113
-479,591	-68,675	0,051	-0,014
-478,576	196,564	0,042	-0,046
-477,562	-156,710	-0,041	-0,002
-476,547	6,376	0,027	-0,015
-475,532	-200,000	-0,019	-0,069
-474,518	73,828	0,064	-0,048
-473,503	-18,590	0,079	0,035
-472,489	33,317	-0,073	-0,045
-471,474	-77,226	0,045	-0,011
-470,459	102,594	-0,038	0,032
-469,445	-34,157	0,034	-0,013
-468,430	800,000	0,034	0,087
-467,416	-200,000	0,008	-0,095
-466,401	332,361	-0,040	-0,056
-465,386	-200,000	0,003	0,012
-464,372	-1,521	-0,125	-0,063
-463,357	246,090	-0,024	-0,029
-462,343	85,006	0,120	0,095
-461,328	800,000	-0,016	0,043
-460,313	-200,000	0,001	-0,085
-459,299	147,973	0,081	0,079
-458,284	-68,669	0,057	0,016
-457,270	-36,244	0,037	0,014
-456,255	-200,000	-0,008	-0,076
-455,241	-33,820	-0,110	-0,043
-454,226	142,946	0,047	-0,045
-453,211	-148,950	-0,052	-0,003
-452,197	-90,664	-0,090	-0,019
-451,182	26,873	0,180	0,108
-450,168	-11,596	-0,159	0,075
-449,153	800,000	0,048	0,117
-448,138	-101,304	-0,168	0,029
-447,124	37,501	-0,096	-0,061
-446,109	0,425	0,158	-0,081
-445,095	582,969	0,049	-0,087
-444,080	-200,000	-0,005	0,072
-443,065	486,427	-0,046	-0,076
-442,051	-200,000	-0,001	-0,026
-441,036	-53,999	-0,056	-0,018
-440,022	664,654	-0,074	0,138
-439,007	506,015	0,021	0,036
-437,992	-200,000	0,005	0,047
-436,978	-17,595	0,041	0,018
-435,963	800,000	-0,048	-0,148
-434,949	-200,000	0,010	-0,168
-433,934	-200,000	-0,037	-0,146
-432,919	800,000	-0,048	-0,124
-431,905	800,000	0,049	0,104
-430,890	109,980	0,085	-0,073
-429,876	-200,000	-0,002	-0,114
-428,861	450,043	0,067	0,106
-427,846	800,000	0,049	0,135
-426,832	118,829	-0,064	-0,057
-425,817	-91,328	0,056	0,011
-424,803	168,795	0,026	-0,026
-423,788	-176,410	0,093	0,002
-422,773	-64,353	-0,109	0,032
-421,759	393,832	0,065	0,097
-420,744	-200,000	0,001	0,018
-419,730	800,000	0,020	0,053
-418,715	-4,675	0,022	-0,011
-417,701	800,000	0,086	-0,173
-416,686	-68,968	0,061	0,017
-415,671	9,063	-0,047	0,026
-414,657	18,483	0,078	0,045
-413,642	89,311	-0,054	-0,043
-412,628	324,043	0,032	-0,044
-411,613	-178,468	-0,117	0,002
-410,598	-70,688	0,056	-0,015
-409,584	-102,193	-0,089	-0,015
-408,569	-87,673	0,075	0,016
-407,555	170,016	0,054	0,055
-406,540	-200,000	0,015	-0,071
-405,525	149,034	-0,092	-0,090
-404,511	369,503	0,056	-0,082
-403,496	-45,319	-0,040	-0,014
-402,482	343,272	-0,014	-0,020
-401,467	800,000	0,069	-0,143
-400,452	-83,614	0,123	-0,028
-399,438	-25,607	0,110	-0,046
-398,423	47,016	-0,077	-0,051
-397,409	690,801	-0,037	-0,069
-396,394	-71,308	0,071	-0,019
-395,379	-138,932	-0,064	0,005
-394,365	-200,000	0,046	0,174
-393,350	-59,185	0,076	-0,023
-392,336	150,229	0,101	0,098
-391,321	132,076	0,026	0,024
-390,306	-200,000	0,014	-0,117
-389,292	800,000	-0,022	0,050
-388,277	353,067	0,040	-0,057
-387,263	-10,268	0,099	0,047
-386,248	-200,000	0,008	0,097
-385,233	-200,000	0,004	0,128
-384,219	392,720	0,037	-0,056
-383,204	-200,000	0,002	-0,078
-382,190	-184,130	0,051	0,001
-381,175	800,000	-0,041	0,087
-380,160	-84,253	-0,134	0,030
-379,146	-200,000	-0,004	0,179
-378,131	800,000	0,019	0,048
-377,117	-68,910	-0,137	0,038
-376,102	396,747	-0,002	-0,003
-375,088	-200,000	-0,024	-0,086
-374,073	-82,693	-0,142	0,033
-373,058	-200,000	0,007	-0,072
-372,044	26,916	-0,039	0,024
-371,029	472,738	0,082	0,133
-370,015	-91,055	-0,072	-0,015
-369,000	15,355	-0,063	-0,035
-367,985	307,239	-0,049	-0,065
-366,971	-200,000	-0,002	-0,079
-365,956	800,000	0,022	-0,047
-364,942	-123,983	-0,107	0,012
-363,927	-200,000	0,011	0,041
-362,912	-200,000	0,000	0,106
-361,898	123,855	-0,047	0,042
-360,883	-200,000	0,005	0,025
-359,869	-200,000	-0,035	0,144
-358,854	-200,000	0,075	-0,000
-357,839	800,000	-0,027	0,080
-356,825	-200,000	-0,039	0,171
-355,810	-124,825	-0,022	0,002
-354,796	79,246	-0,040	0,031
-353,781	194,086	-0,073	0,079
-352,766	800,000	0,040	-0,092
-351,752	689,069	-0,067	0,126
-350,737	118,552	0,019	0,017
-349,723	55,616	0,070	-0,048
-348,708	800,000	-0,052	0,132
-347,693	32,766	-0,031	0,019
-346,679	-120,360	-0,157	0,019
-345,664	-113,965	0,176	0,024
-344,650	-200,000	0,010	-0,049
-343,635	492,156	0,035	0,058
-342,620	800,000	0,078	0,241
-341,606	-200,000	-0,005	0,027
-340,591	103,477	-0,061	0,052
-339,577	-102,231	0,165	-0,028
-338,562	800,000	-0,027	-0,065
-337,548	800,000	-0,024	-0,071
-336,533	24,013	-0,128	0,076
-335,518	-100,384	0,089	0,016
-334,504	800,000	-0,055	0,145
-333,489	447,901	-0,102	-0,161
-332,475	83,216	-0,108	-0,084
-331,460	122,437	-0,089	-0,079
-330,445	109,589	-0,047	0,040
-329,431	-35,005	0,063	0,025
-328,416	33,763	-0,072	0,045
-327,402	51,734	-0,021	0,014
-326,387	-0,838	0,066	0,033
-325,372	188,684	0,006	-0,006
-324,358	800,000	-0,051	-0,162
-323,343	-200,000	0,005	-0,092
-322,329	187,436	-0,031	-0,033
-321,314	800,000	-0,040	-0,083
-320,299	112,825	0,063	0,055
-319,285	-155,143	-0,081	-0,004
-318,270	26,250	-0,094	0,056
-317,256	-200,000	-0,001	-0,020
-316,241	36,772	0,047	0,030
-315,226	-200,000	0,007	0,045
-314,212	-97,333	0,143	0,026
-313,197	-82,777	0,038	-0,009
-312,183	-200,000	0,008	-0,134
-311,168	93,561	-0,049	0,039
-310,153	-146,747	-0,194	-0,012
-309,139	18,956	-0,085	-0,049
-308,124	-148,953	-0,113	-0,006
-307,110	-200,000	0,121	-0,000
-306,095	-185,482	-0,084	-0,001
-305,080	-200,000	0,002	0,173
-304,066	425,058	-0,093	0,144
-303,051	-61,653	-0,147	0,044
-302,037	246,439	-0,030	-0,036
-301,022	-200,000	0,005	0,084
-300,008	-13,821	-0,092	0,042
-298,993	654,653	0,049	0,089
-297,978	-68,389	0,039	0,011
-296,964	-5,920	-0,200	-0,097
-295,949	-126,661	0,161	0,017
-294,935	-23,221	-0,133	0,057
-293,920	623,094	-0,060	-0,108
-292,905	714,686	0,071	0,136
-291,891	18,324	0,062	0,035
-290,876	-200,000	0,007	-0,064
-289,862	-118,155	-0,196	0,025
-288,847	-200,000	-0,117	-0,000
-287,832	-200,000	0,006	-0,046
-286,818	-200,000	0,015	0,051
-285,803	-80,973	0,049	0,011
-284,789	135,236	0,041	-0,038
-283,774	800,000	-0,029	0,084
-282,759	45,329	0,085	0,056
-281,745	800,000	-0,052	-0,152
-280,730	188,655	0,119	-0,127
-279,716	-86,419	-0,090	0,020
-278,701	800,000	-0,055	0,131
-277,686	185,553	0,063	-0,067
-276,672	456,503	-0,066	-0,105
-275,657	329,559	0,021	0,029
-274,643	-200,000	-0,013	-0,106
-273,628	572,312	0,025	0,043
-272,613	36,109	0,057	-0,035
-271,599	-200,000	-0,026	0,088
-270,584	800,000	-0,020	0,049
-269,570	-155,137	0,181	0,008
-268,555	800,000	0,018	0,057
-267,540	280,514	0,048	0,062
-266,526	-155,208	0,032	0,001
-265,511	-98,235	0,035	-0,006
-264,497	-186,100	0,123	-0,001
-263,482	671,141	0,065	0,120
-262,467	800,000	0,005	0,011
-261,453	800,000	0,045	-0,090
-260,438	-95,172	0,091	0,017
-259,424	255,992	-0,031	-0,038
-258,409	-26,640	-0,094	-0,039
-257,395	-19,390	0,018	-0,008
-256,380	128,361	-0,046	-0,042
-255,365	-83,003	0,076	-0,017
-254,351	74,227	0,022	0,016
-253,336	311,803	0,079	-0,107
-252,322	-88,266	-0,206	-0,044
-251,307	10,750	0,120	0,065
-250,292	-119,670	0,047	0,006
-249,278	-34,159	0,073	0,028
-248,263	711,188	0,043	0,081
-247,249	207,696	0,103	0,115
-246,234	-200,000	-0,009	-0,027
-245,219	-200,000	0,024	-0,166
-244,205	800,000	0,024	-0,048
-243,190	-200,000	-0,004	-0,027
-242,176	-200,000	0,046	0,206
-241,161	25,256	-0,098	0,058
-240,146	417,184	0,002	0,003
-239,132	260,346	0,079	0,097
-238,117	409,054	-0,071	0,107
-237,103	-30,634	-0,033	-0,013
-236,088	800,000	0,057	0,157
-235,073	554,583	0,047	-0,081
-234,059	800,000	0,014	0,028
-233,044	-58,983	0,088	0,027
-232,030	-102,297	0,032	0,005
-231,015	-200,000	0,009	-0,043
-230,000	-14,976	0,115	-0,052
-228,986	-3,634	-0,071	-0,035
-227,971	32,966	0,042	0,026
-226,957	-200,000	0,041	0,167
-225,942	-54,765	-0,056	-0,018
-224,927	21,920	0,085	-0,049
-223,913	104,707	0,082	-0,069
-222,898	161,081	-0,080	-0,080
-221,884	191,773	0,060	0,065
-220,869	450,038	0,025	-0,040
-219,855	800,000	0,006	-0,017
-218,840	595,100	0,050	-0,089
-217,825	-80,195	0,036	0,009
-216,811	393,575	-0,027	0,040
-215,796	800,000	-0,072	-0,202
-214,782	-200,000	0,006	-0,139
-213,767	-200,000	-0,031	0,110
-212,752	-200,000	-0,010	0,064
-211,738	-24,180	0,138	0,058
-210,723	-39,633	-0,090	0,034
-209,709	800,000	-0,034	0,083
-208,694	6,048	-0,163	-0,086
-207,679	240,226	-0,032	-0,038
-206,665	82,398	0,114	-0,088
-205,650	800,000	0,021	0,060
-204,636	151,968	-0,050	0,049
-203,621	800,000	-0,017	0,043
-202,606	-37,007	0,059	0,022
-201,592	-43,835	0,101	0,036
-200,577	168,507	0,059	-0,059
-199,563	402,353	-0,052	-0,077
-198,548	-10,623	0,068	-0,032
-197,533	800,000	0,027	0,077
-196,519	128,493	0,116	0,106
-195,504	-12,592	-0,139	0,065
-194,490	-15,742	0,045	-0,021
-193,475	-143,077	-0,015	0,001
-192,460	-76,974	0,032	-0,008
-191,446	-200,000	-0,007	-0,056
-190,431	-200,000	0,020	0,080
-189,417	-200,000	0,012	-0,184
-188,402	457,159	-0,005	0,009
-187,387	-200,000	-0,049	-0,164
-186,373	-184,974	-0,151	-0,002
-185,358	132,277	0,051	0,047
-184,344	315,942	0,038	-0,051
-183,329	800,000	0,028	0,057
-182,315	726,355	-0,060	0,114
-181,300	-83,562	-0,129	-0,029
-180,285	522,523	0,067	0,112
-179,271	800,000	-0,028	-0,070
-178,256	-200,000	-0,005	0,152
-177,242	-200,000	0,001	0,112
-176,227	284,401	0,046	-0,059
-175,212	55,015	0,201	0,138
-174,198	800,000	0,022	-0,046
-173,183	-200,000	-0,001	-0,039
-172,169	25,628	0,089	-0,053
-171,154	445,784	-0,030	0,047
-170,139	-200,000	0,023	0,118
-169,125	330,389	-0,047	0,065
-168,110	35,335	0,062	0,039
-167,096	-200,000	-0,018	-0,120
-166,081	-117,085	0,058	0,007
-165,066	-200,000	-0,001	-0,124
-164,052	-108,907	-0,124	-0,019
-163,037	800,000	0,047	0,139
-162,023	800,000	-0,028	-0,087
-161,008	92,104	0,044	-0,035
-159,993	263,234	0,056	-0,070
-158,979	-95,582	-0,091	-0,017
-157,964	-87,855	0,026	-0,005
-156,950	-200,000	0,033	-0,119
-155,935	800,000	0,069	0,156
-154,920	-200,000	-0,000	0,036
-153,906	215,540	-0,036	0,041
-152,891	128,436	-0,019	0,017
-151,877	-200,000	0,008	0,110
-150,862	-200,000	-0,033	-0,124
-149,847	377,163	0,109	-0,158
-148,833	-128,710	-0,180	0,018
-147,818	-14,847	0,098	-0,045
-146,804	-200,000	-0,037	0,151
-145,789	-200,000	0,009	0,082
-144,775	-200,000	-0,004	-0,043
-143,760	708,831	0,019	0,035
-142,745	800,000	0,038	-0,099
-141,731	800,000	0,023	-0,061
-140,716	4,660	0,120	0,062
-139,702	-200,000	0,030	0,108
-138,687	4,451	-0,055	0,028
-137,672	-200,000	-0,007	-0,049
-136,658	-200,000	0,035	-0,147
-135,643	68,267	-0,123	-0,089
-134,629	-200,000	0,006	0,034
-133,614	451,573	0,056	0,088
-132,599	-200,000	0,013	0,049
-131,585	-200,000	0,000	0,029
-130,570	394,017	-0,048	-0,072
-129,556	146,703	-0,061	-0,058
-128,541	-200,000	0,015	0,089
-127,526	-145,377	-0,040	-0,003
-126,512	-95,521	0,019	-0,004
-125,497	94,638	-0,017	-0,013
-124,483	115,387	-0,014	-0,012
-123,468	777,652	-0,073	-0,141
-122,453	263,826	-0,049	0,061
-121,439	92,211	0,080	-0,064
-120,424	-200,000	-0,026	-0,099
-119,410	208,712	0,094	-0,104
-118,395	-163,014	0,114	0,004
-117,380	207,596	-0,116	0,128
-116,366	-37,372	0,062	-0,023
-115,351	412,264	-0,079	-0,120
-114,337	800,000	-0,048	-0,137
-113,322	41,391	-0,041	-0,026
-112,307	-164,937	-0,088	0,003
-111,293	-196,427	-0,053	-0,000
-110,278	430,708	-0,037	0,056
-109,264	-200,000	0,030	0,101
-108,249	-142,360	-0,129	-0,009
-107,234	-139,106	-0,030	-0,002
-106,220	89,101	-0,096	0,076
-105,205	138,325	0,044	0,041
-104,191	-151,759	0,064	0,003
-103,176	-200,000	0,008	0,048
-102,162	-200,000	0,007	-0,078
-101,147	219,274	0,006	-0,007
-100,132	153,049	0,077	-0,075
-99,118	218,374	0,141	-0,160
-98,103	-24,164	0,071	0,030
-97,089	-27,728	0,073	0,030
-96,074	-20,334	0,131	0,057
-95,059	80,476	-0,030	-0,023
-94,045	-99,709	0,092	-0,016
-93,030	-200,000	-0,017	-0,230
-92,016	-185,682	-0,171	0,002
-91,001	-26,131	-0,106	-0,044
-89,986	162,775	0,057	0,057
-88,972	-200,000	0,009	0,167
-87,957	30,395	-0,054	-0,033
-86,943	-178,008	-0,208	0,003
-85,928	-125,823	-0,073	-0,008
-84,913	-147,675	0,081	0,005
-83,899	63,891	-0,048	0,034
-82,884	-106,759	-0,079	-0,012
-81,870	-47,140	0,073	-0,025
-80,855	-87,106	-0,131	0,028
-79,840	294,327	-0,044	-0,057
-78,826	-119,030	-0,111	-0,014
-77,811	-86,656	-0,025	-0,005
-76,797	-200,000	0,002	-0,130
-75,782	-200,000	-0,024	0,083
-74,767	-25,284	0,149	0,062
-73,753	-45,331	0,085	0,030
-72,738	-12,065	-0,046	-0,021
-71,724	328,208	-0,138	-0,189
-70,709	298,929	-0,045	0,059
-69,694	699,699	-0,062	-0,115
-68,680	800,000	0,037	-0,114
-67,665	-65,865	0,012	-0,003
-66,651	-200,000	-0,018	0,099
-65,636	34,964	-0,048	0,029
-64,622	800,000	-0,020	-0,050
-63,607	-93,197	0,088	-0,017
-62,592	800,000	-0,019	-0,046
-61,578	240,051	-0,030	0,035
-60,563	641,782	0,025	-0,046
-59,549	576,883	0,047	0,082
-58,534	-22,087	-1,760	-0,753
-57,519	507,863	-1,257	-2,073
-56,505	-200,000	-0,745	-4,693
-55,490	195,757	1,022	1,101
-54,476	800,000	4,912	11,384
-53,461	-200,000	19,429	323,876
-52,446	-200,000	744,344	2334,387
-51,432	568,040	1657,263	2860,931
-50,417	77,438	1671,194	1257,396
-49,403	20,922	1544,482	883,830
-48,388	14,830	1467,049	809,874
-47,373	18,124	1456,895	820,158
-46,359	16,601	1446,803	807,140
-45,344	13,117	1442,170	787,829
-44,330	13,056	1440,329	786,500
-43,315	13,019	1438,773	785,443
-42,300	13,024	1436,975	784,455
-41,286	13,064	1435,827	783,986
-40,271	13,011	1434,447	782,949
-39,257	13,024	1433,043	782,213
-38,242	13,076	1432,009	781,866
-37,227	13,087	1430,667	781,157
-36,213	13,112	1429,035	780,353
-35,198	13,104	1428,048	779,747
-34,184	13,076	1427,396	779,227
-33,169	13,053	1425,870	778,250
-32,154	13,129	1424,546	777,857
-31,140	13,117	1423,335	777,112
-30,125	13,120	1422,234	776,489
-29,111	13,109	1421,347	775,922
-28,096	13,105	1419,994	775,135
-27,082	13,036	1418,975	774,225
-26,067	13,040	1418,088	773,726
-25,052	13,063	1416,805	773,103
-24,038	12,964	1415,916	772,122
-23,023	12,991	1414,939	771,688
-22,009	12,995	1413,973	771,150
-20,994	12,987	1412,948	770,523
-19,979	12,983	1412,095	770,008
-18,965	12,936	1411,207	769,270
-17,950	12,984	1410,016	768,816
-16,936	12,953	1409,406	768,308
-15,921	12,935	1408,010	767,433
-14,906	12,963	1407,255	767,124
-13,892	12,961	1406,245	766,532
-12,877	12,952	1405,519	766,065
-11,863	12,926	1404,563	765,391
-10,848	12,933	1403,675	764,910
-9,833	12,918	1402,908	764,392
-8,819	12,874	1401,995	763,658
-7,804	12,843	1401,169	763,034
-6,790	12,842	1399,994	762,358
-5,775	12,853	1398,905	761,785
-4,760	12,851	1398,009	761,259
-3,746	12,833	1397,128	760,665
-2,731	12,818	1396,289	760,107
-1,717	12,766	1395,383	759,345
-0,702	12,763	1393,867	758,477
0,313	16,684	1309,585	730,749
1,327	32,988	701,995	429,304
2,342	50,854	122,674	82,072
3,356	5,017	16,517	8,572
4,371	-0,137	3,190	1,600
5,386	-0,382	0,560	0,280
6,400	266,475	0,174	0,215
7,415	52,233	-0,233	-0,157
8,429	126,652	-0,212	-0,190
9,444	-43,096	-0,407	-0,145
10,459	96,202	-0,274	-0,221
11,473	23,187	-0,452	-0,262
12,488	-32,942	-0,329	-0,128
13,502	10,447	-0,315	-0,169
14,517	16,543	-0,341	-0,190
15,531	28,788	-0,360	-0,215
16,546	38,675	-0,229	-0,144
17,561	108,335	-0,439	-0,370
18,575	-10,733	-0,226	-0,105
19,590	71,023	-0,222	-0,162
20,604	-128,702	-0,312	0,031
21,619	93,661	-0,448	-0,358
22,634	46,290	-0,465	-0,304
23,648	135,244	-0,427	-0,392
24,663	137,100	-0,335	-0,309
25,677	66,510	-0,427	-0,306
26,692	189,311	-0,239	-0,253
27,707	12,079	-0,328	-0,178
28,721	41,727	-0,380	-0,243
29,736	-5,899	-0,439	-0,211
30,750	189,818	-0,384	-0,407
31,765	-68,737	-0,355	-0,096
32,780	8,045	-0,468	-0,247
33,794	54,953	-0,295	-0,200
34,809	100,330	-0,277	-0,227
35,823	200,551	-0,333	-0,362
36,838	109,589	-0,382	-0,322
37,853	96,109	-0,404	-0,325
38,867	131,272	-0,368	-0,334
39,882	75,096	-0,280	-0,208
40,896	112,441	-0,330	-0,282
41,911	32,310	-0,418	-0,254
42,926	129,626	-0,291	-0,262
43,940	138,921	-0,369	-0,342
44,955	82,071	-0,297	-0,227
45,969	21,670	-0,325	-0,186
46,984	-8,729	-0,322	-0,152
47,999	43,172	-0,373	-0,239
49,013	-36,044	-0,215	-0,082
50,028	178,751	-0,254	-0,262
51,042	643,829	-0,174	-0,314
52,057	71,601	-0,369	-0,270
53,071	74,112	-0,369	-0,273
54,086	-24,662	-0,422	-0,176
55,101	32,313	-0,358	-0,217
56,115	90,360	-0,352	-0,277
57,130	13,351	-0,305	-0,166
58,144	218,375	-0,251	-0,282
59,159	153,424	-0,361	-0,348
60,174	89,622	-0,355	-0,279
61,188	146,376	-0,287	-0,271
62,203	114,719	-0,305	-0,261
63,217	163,677	-0,280	-0,277
64,232	107,174	-0,263	-0,220
65,247	117,390	-0,278	-0,241
66,261	155,564	-0,305	-0,296
67,276	250,475	-0,363	-0,435
68,290	172,708	-0,263	-0,266
69,305	-21,429	-0,314	-0,134
70,320	-48,641	-0,344	-0,116
71,334	167,287	-0,296	-0,296
72,349	-42,596	-0,292	-0,104
73,363	18,383	-0,368	-0,206
74,378	-38,369	-0,419	-0,155
75,393	-78,337	-0,393	-0,094
76,407	79,697	-0,273	-0,205
77,422	-46,126	-0,285	-0,098
78,436	17,978	-0,190	-0,106
79,451	-9,254	-0,328	-0,153
80,466	180,352	-0,257	-0,265
81,480	704,247	-0,136	-0,254
82,495	1,679	-0,250	-0,126
83,509	800,000	-0,082	-0,160
84,524	-130,198	-0,300	-0,028
85,539	4,544	-0,274	-0,141
86,553	73,119	-0,266	-0,195
87,568	-72,180	-0,360	-0,093
88,582	-96,738	-0,338	-0,062
89,597	-50,844	-0,311	-0,102
90,611	4,260	-0,303	-0,155
91,626	28,473	-0,219	-0,130
92,641	-6,209	-0,200	-0,095
93,655	17,685	-0,261	-0,145
94,670	40,347	-0,314	-0,198
95,684	49,300	-0,339	-0,223
96,699	-27,573	-0,365	-0,148
97,714	7,596	-0,299	-0,156
98,728	219,787	-0,211	-0,238
99,743	11,528	-0,253	-0,136
100,757	49,061	-0,239	-0,157
101,772	34,841	-0,311	-0,190
102,787	-8,509	-0,272	-0,127
103,801	288,020	-0,192	-0,244
104,816	-6,643	-0,228	-0,108
105,830	-106,492	-0,245	-0,038
106,845	-100,282	-0,201	-0,035
107,860	-108,665	-0,227	-0,034
108,874	-50,099	-0,326	-0,108
109,889	298,606	-0,189	-0,244
110,903	-107,402	-0,275	-0,042
111,918	132,056	-0,250	-0,225
112,933	800,000	-0,118	-0,264
113,947	800,000	-0,144	-0,285
114,962	-4,393	-0,318	-0,154
115,976	-104,027	-0,332	-0,054
116,991	-73,825	-0,314	-0,079
118,006	104,324	-0,211	-0,174
119,020	40,574	-0,182	-0,114
120,035	-100,174	-0,191	-0,033
121,049	20,210	-0,212	-0,120
122,064	0,469	-0,276	-0,138
123,079	78,883	-0,281	-0,211
124,093	60,985	-0,140	-0,097
125,108	164,002	-0,277	-0,273
126,122	-45,205	-0,333	-0,115
127,137	138,595	-0,209	-0,192
128,151	-146,238	-0,230	0,014
129,166	78,580	-0,195	-0,146
130,181	-23,462	-0,275	-0,115
131,195	44,572	-0,328	-0,210
132,210	66,173	-0,215	-0,153
133,224	-55,639	-0,279	-0,087
134,239	62,594	-0,404	-0,282
135,254	38,051	-0,237	-0,147
136,268	181,439	-0,215	-0,222
137,283	412,714	-0,168	-0,250
138,297	65,120	-0,305	-0,215
139,312	76,508	-0,335	-0,248
140,327	254,012	-0,249	-0,298
141,341	-70,758	-0,280	-0,073
142,356	50,709	-0,264	-0,174
143,370	54,378	-0,223	-0,150
144,385	-154,450	-0,135	-0,006
145,400	-7,260	-0,346	-0,163
146,414	25,695	-0,259	-0,150
147,429	155,534	-0,281	-0,270
148,443	134,840	-0,247	-0,224
149,458	284,992	-0,225	-0,284
150,473	-34,389	-0,414	-0,158
151,487	20,404	-0,221	-0,125
152,502	-21,717	-0,274	-0,116
153,516	221,448	-0,268	-0,301
154,531	46,737	-0,245	-0,158
155,546	147,460	-0,099	-0,093
156,560	800,000	-0,071	-0,171
157,575	70,877	-0,209	-0,151
158,589	177,274	-0,239	-0,243
159,604	23,492	-0,268	-0,153
160,619	257,408	-0,264	-0,317
161,633	281,565	-0,183	-0,230
162,648	84,773	-0,307	-0,234
163,662	-60,513	-0,161	-0,047
164,677	251,590	-0,124	-0,147
165,692	800,000	-0,126	-0,340
166,706	-61,860	-0,196	-0,057
167,721	145,328	-0,238	-0,222
168,735	-8,375	-0,297	-0,139
169,750	109,424	-0,218	-0,182
170,764	98,551	-0,238	-0,191
171,779	15,191	-0,186	-0,101
172,794	161,771	-0,200	-0,195
173,808	60,557	-0,184	-0,127
174,823	-49,895	-0,301	-0,099
175,837	800,000	-0,064	-0,155
176,852	500,979	-0,158	-0,255
177,867	65,859	-0,254	-0,179
178,881	61,349	-0,193	-0,134
179,896	-11,807	-0,246	-0,112
180,910	800,000	-0,145	-0,300
181,925	398,786	-0,173	-0,252
182,940	362,766	-0,163	-0,228
183,954	-32,872	-0,275	-0,106
184,969	3,011	-0,222	-0,112
185,983	800,000	-0,130	-0,278
186,998	-50,514	-0,228	-0,074
188,013	-1,546	-0,270	-0,132
189,027	53,415	-0,196	-0,131
190,042	155,883	-0,174	-0,167
191,056	82,817	-0,251	-0,190
192,071	-48,294	-0,103	-0,035
193,086	211,533	-0,128	-0,140
194,100	-26,810	-0,135	-0,055
195,115	237,221	-0,186	-0,215
196,129	79,354	-0,248	-0,185
197,144	36,516	-0,222	-0,136
198,159	103,923	-0,210	-0,171
199,173	85,866	-0,136	-0,104
200,188	165,621	-0,219	-0,216
201,202	41,199	-0,221	-0,138
202,217	48,871	-0,167	-0,108
203,232	78,762	-0,237	-0,176
204,246	43,652	-0,186	-0,118
205,261	86,543	-0,202	-0,154
206,275	309,253	-0,112	-0,146
207,290	339,202	-0,147	-0,199
208,304	139,032	-0,118	-0,107
209,319	247,277	-0,150	-0,177
210,334	-8,328	-0,159	-0,074
211,348	63,697	-0,251	-0,175
212,363	135,617	-0,242	-0,219
213,377	319,873	-0,158	-0,209
214,392	-25,427	-0,185	-0,076
215,407	215,039	-0,156	-0,172
216,421	46,919	-0,120	-0,077
217,436	-167,917	-0,298	0,008
218,450	27,318	-0,250	-0,146
219,465	70,809	-0,307	-0,220
220,480	423,973	-0,117	-0,175
221,494	-4,932	-0,192	-0,091
222,509	-80,216	-0,110	-0,025
223,523	-200,000	-0,022	-0,210
224,538	800,000	-0,081	-0,169
225,553	327,796	-0,187	-0,250
226,567	388,752	-0,136	-0,196
227,582	345,519	-0,220	-0,301
228,596	714,446	-0,087	-0,160
229,611	-106,580	-0,224	-0,034
230,626	14,643	-0,156	-0,084
231,640	-200,000	-0,037	-0,135
232,655	81,167	-0,218	-0,163
233,669	800,000	-0,088	-0,235
234,684	338,770	-0,097	-0,132
235,699	-114,878	-0,083	0,011
236,713	-57,966	-0,167	-0,050
237,728	-200,000	-0,036	-0,117
238,742	-52,615	-0,076	0,024
239,757	40,290	-0,219	-0,136
240,772	114,585	-0,268	-0,227
241,786	37,861	-0,246	-0,151
242,801	624,839	-0,076	-0,134
243,815	740,050	-0,093	-0,173
244,830	353,426	-0,198	-0,273
245,844	800,000	-0,049	-0,135
246,859	346,806	-0,099	-0,136
247,874	48,641	-0,244	-0,158
248,888	-200,000	-0,059	-0,185
249,903	46,518	-0,171	-0,110
250,917	-76,380	-0,200	-0,048
251,932	-52,689	-0,130	-0,041
252,947	-21,432	-0,168	-0,070
253,961	-103,610	-0,240	-0,039
254,976	62,007	-0,249	-0,171
255,990	80,096	-0,258	-0,191
257,005	11,485	-0,150	-0,080
258,020	-36,519	-0,059	-0,022
259,034	361,272	-0,090	-0,125
260,049	-30,686	-0,198	-0,077
261,063	241,918	-0,189	-0,218
262,078	-15,104	-0,263	-0,116
263,093	510,221	-0,117	-0,189
264,107	-21,272	-0,198	-0,083
265,122	-52,158	-0,084	-0,027
266,136	-109,828	-0,126	0,018
267,151	-159,298	-0,044	0,002
268,166	800,000	-0,116	-0,283
269,180	95,483	-0,161	-0,127
270,195	52,146	-0,092	-0,060
271,209	-200,000	-0,056	-0,176
272,224	57,680	-0,102	-0,069
273,239	-39,683	-0,189	-0,068
274,253	-48,680	-0,215	-0,071
275,268	64,565	-0,129	-0,090
276,282	-66,908	-0,160	-0,043
277,297	49,686	-0,206	-0,134
278,312	6,527	-0,295	-0,151
279,326	102,264	-0,181	-0,146
280,341	-99,541	-0,068	-0,012
281,355	-184,864	-0,168	-0,002
282,370	-90,997	-0,232	-0,046
283,384	439,074	-0,117	-0,178
284,399	12,888	-0,291	-0,155
285,414	93,959	-0,228	-0,178
286,428	116,509	-0,073	-0,061
287,443	209,970	-0,083	-0,089
288,457	80,370	-0,137	-0,101
289,472	101,327	-0,151	-0,121
290,487	44,573	-0,256	-0,162
291,501	625,950	-0,137	-0,240
292,516	412,381	-0,119	-0,174
293,530	33,580	-0,209	-0,125
294,545	139,127	-0,122	-0,111
295,560	31,024	-0,113	-0,067
296,574	46,950	-0,118	-0,075
297,589	-13,765	-0,152	-0,068
298,603	66,288	-0,146	-0,102
299,618	800,000	-0,113	-0,226
300,633	74,525	-0,129	-0,093
301,647	144,108	-0,080	-0,073
302,662	154,540	-0,092	-0,087
303,676	-18,701	-0,111	-0,047
304,691	43,856	-0,114	-0,072
305,706	128,657	-0,166	-0,146
306,720	29,350	-0,174	-0,102
307,735	-44,363	-0,132	-0,045
308,749	-79,884	-0,193	-0,044
309,764	52,237	-0,140	0,092
310,779	800,000	-0,044	-0,121
311,793	-110,526	-0,164	-0,023
312,808	47,908	-0,186	-0,119
313,822	-200,000	-0,019	-0,122
314,837	-52,234	-0,294	-0,093
315,852	-86,866	-0,126	-0,026
316,866	800,000	-0,057	-0,123
317,881	6,153	-0,216	-0,110
318,895	83,926	-0,244	-0,183
319,910	113,213	-0,171	-0,142
320,925	251,853	-0,157	-0,184
321,939	486,327	-0,126	-0,198
322,954	26,717	-0,170	-0,098
323,968	-11,172	-0,149	0,067
324,983	-55,507	-0,175	-0,054
325,997	-41,051	-0,124	-0,044
327,012	34,906	-0,127	-0,076
328,027	69,794	-0,155	-0,110
329,041	-18,353	-0,149	-0,064
330,056	13,172	-0,062	0,033
331,070	503,999	-0,085	-0,136
332,085	-80,923	-0,200	-0,045
333,100	568,617	-0,072	-0,120
334,114	470,488	-0,177	-0,274
335,129	170,087	-0,148	-0,145
336,143	-200,000	-0,001	0,031
337,158	800,000	-0,063	-0,171
338,173	-75,268	-0,126	0,031
339,187	792,050	-0,098	-0,186
340,202	242,774	-0,118	-0,136
341,216	-60,514	-0,305	-0,088
342,231	-16,939	-0,258	-0,111
343,246	578,323	-0,103	-0,173
344,260	-56,326	-0,092	-0,028
345,275	-64,315	-0,137	-0,038
346,289	-25,705	-0,154	-0,062
347,304	502,871	-0,066	-0,105
348,319	-21,025	-0,062	-0,026
349,333	368,311	-0,169	-0,235
350,348	129,161	-0,141	-0,123
351,362	174,011	-0,208	-0,206
352,377	800,000	-0,022	-0,049
353,392	-200,000	-0,023	-0,070
354,406	74,938	-0,192	-0,138
355,421	208,124	1313,950	1409,891
356,435	160,126	1474,582	1410,376
