DTS Sentinel unit serial number:	SN410029Multiplexer serial number:	ORYXHardware model number:	OX2-SRSoftware version number:	ORYX F/W v4,00 Oryx Data Collector v3.7.2.0data status	okinstallation	B3 Nyhavnadifferential loss correction	single-endedforward channel	channel 1reverse channel	N/Adate	2023/12/02time	19:57:30forward acquisition time	300,00reverse acquisition time	0,00gamma	499,1914k internal	0,3200k external	0,3200temperature offset calibration	1,0000default loss term (dB/km)	0,3820temperature slope calibration	1,0000multiplexer offset coefficient	1,0000multiplexer slope coefficient	1,0000fibre end	0,00T internal ref (°C)	13,31T ext. ref 1 (°C)	-1,81T ext. ref 2 (°C)	-1,82length (m)	temperature (°C)	Stokes	anti-Stokes-744,400	399,541	-0,187	-0,287
-743,385	-200,000	0,042	0,273
-742,371	630,983	-0,116	-0,214
-741,356	-200,000	0,036	0,390
-740,342	647,336	-0,130	-0,243
-739,327	-200,000	0,014	0,412
-738,312	199,610	-0,129	-0,144
-737,298	-200,000	-0,023	0,302
-736,283	352,282	-0,211	-0,305
-735,269	-200,000	0,007	0,439
-734,254	342,118	-0,151	-0,216
-733,239	-155,322	-0,161	0,007
-732,225	-200,000	-0,055	-0,241
-731,210	-68,350	0,043	0,012
-730,196	252,004	-0,074	-0,092
-729,181	74,195	-0,019	0,015
-728,167	49,551	-0,111	0,076
-727,152	198,275	0,044	0,049
-726,137	13,684	-0,191	-0,107
-725,123	-200,000	0,004	-0,155
-724,108	-49,539	-0,234	0,081
-723,094	-200,000	-0,034	-0,108
-722,079	800,000	0,056	-0,140
-721,064	373,535	-0,037	0,054
-720,050	-126,789	-0,073	-0,008
-719,035	78,998	0,021	-0,017
-718,021	-93,009	-0,061	0,012
-717,006	-200,000	-0,008	-0,143
-715,991	-37,173	-0,152	-0,059
-714,977	-96,248	-0,129	0,025
-713,962	619,022	0,059	0,108
-712,948	68,231	-0,103	-0,077
-711,933	4,369	-0,135	0,072
-710,918	-200,000	-0,002	0,109
-709,904	-84,296	-0,099	-0,023
-708,889	-86,391	-0,097	0,022
-707,875	57,357	-0,087	-0,062
-706,860	-168,548	0,011	-0,000
-705,845	-72,677	-0,012	-0,003
-704,831	274,130	-0,037	0,047
-703,816	-4,052	-0,161	-0,081
-702,802	-200,000	0,005	-0,018
-701,787	295,781	0,056	-0,075
-700,772	176,601	-0,073	0,077
-699,758	372,264	-0,049	-0,072
-698,743	57,487	0,029	0,021
-697,729	-200,000	-0,006	0,070
-696,714	352,108	-0,052	0,074
-695,699	-200,000	-0,009	-0,148
-694,685	174,654	0,109	-0,114
-693,670	-200,000	-0,026	-0,135
-692,656	236,331	-0,042	0,050
-691,641	-61,096	0,110	-0,033
-690,627	474,474	-0,057	-0,094
-689,612	400,747	-0,108	0,165
-688,597	58,214	0,062	0,044
-687,583	648,111	-0,071	-0,132
-686,568	-16,029	-0,107	-0,049
-685,554	309,786	0,146	-0,199
-684,539	800,000	-0,054	-0,117
-683,524	-200,000	0,016	0,055
-682,510	800,000	-0,018	-0,044
-681,495	134,135	-0,048	-0,045
-680,481	200,751	-0,125	-0,139
-679,466	-200,000	0,011	-0,130
-678,451	-139,155	-0,210	0,016
-677,437	31,497	0,130	-0,081
-676,422	-133,694	-0,033	0,003
-675,408	96,628	0,049	-0,041
-674,393	-200,000	0,001	-0,018
-673,378	-117,484	-0,163	-0,021
-672,364	133,996	0,103	-0,097
-671,349	800,000	0,042	-0,097
-670,335	661,367	-0,037	-0,070
-669,320	800,000	0,033	-0,088
-668,305	570,050	-0,031	-0,056
-667,291	22,908	-0,061	0,036
-666,276	800,000	-0,049	-0,103
-665,262	-17,172	-0,171	-0,078
-664,247	31,243	0,057	-0,035
-663,232	581,725	0,041	-0,073
-662,218	403,889	0,027	-0,041
-661,203	-200,000	0,001	0,148
-660,189	158,192	0,059	0,059
-659,174	-19,746	-0,140	-0,063
-658,159	92,724	-0,127	-0,104
-657,145	115,056	0,109	-0,096
-656,130	-124,095	-0,045	-0,005
-655,116	426,995	-0,040	-0,063
-654,101	-101,309	0,080	-0,014
-653,086	-200,000	0,005	-0,114
-652,072	153,217	0,018	-0,018
-651,057	800,000	0,019	0,043
-650,043	800,000	-0,067	-0,144
-649,028	800,000	-0,039	-0,113
-648,014	354,705	0,057	-0,083
-646,999	-200,000	-0,004	0,047
-645,984	482,534	-0,034	0,057
-644,970	-200,000	-0,007	0,148
-643,955	-200,000	-0,008	-0,139
-642,941	-89,004	0,093	-0,020
-641,926	800,000	0,020	0,048
-640,911	-128,602	-0,112	0,011
-639,897	-200,000	0,029	0,168
-638,882	-115,455	0,112	-0,015
-637,868	-200,000	-0,014	-0,079
-636,853	141,450	-0,108	-0,103
-635,838	-128,858	-0,048	-0,005
-634,824	-200,000	-0,001	0,006
-633,809	-86,563	-0,039	-0,008
-632,795	8,227	-0,078	0,042
-631,780	-100,012	0,075	0,013
-630,765	-94,831	-0,118	-0,023
-629,751	19,734	-0,080	-0,046
-628,736	800,000	0,018	-0,045
-627,722	-35,772	0,086	-0,034
-626,707	800,000	-0,035	-0,075
-625,692	-200,000	-0,001	0,011
-624,678	-200,000	0,039	0,201
-623,663	589,805	-0,044	0,078
-622,649	800,000	0,031	-0,085
-621,634	-200,000	-0,011	-0,079
-620,619	57,044	0,075	0,053
-619,605	-200,000	0,014	0,100
-618,590	211,718	0,027	-0,031
-617,576	-9,562	0,100	0,048
-616,561	-12,753	0,071	-0,033
-615,546	-200,000	-0,066	0,000
-614,532	27,048	-0,106	-0,064
-613,517	-200,000	0,019	-0,060
-612,503	27,218	-0,145	0,088
-611,488	543,151	0,065	0,113
-610,474	800,000	-0,038	0,116
-609,459	-200,000	-0,019	0,170
-608,444	800,000	-0,034	0,086
-607,430	114,895	-0,117	0,103
-606,415	154,504	0,049	0,049
-605,401	-192,681	-0,089	0,001
-604,386	327,310	0,026	0,035
-603,371	800,000	0,039	0,116
-602,357	-167,729	-0,083	0,002
-601,342	15,127	0,058	-0,033
-600,328	-104,873	-0,161	0,027
-599,313	138,945	0,034	-0,032
-598,298	800,000	0,063	-0,169
-597,284	-114,447	0,118	-0,016
-596,269	-85,913	-0,110	0,024
-595,255	-115,483	-0,108	-0,015
-594,240	800,000	0,027	-0,058
-593,225	199,202	-0,094	-0,104
-592,211	-200,000	0,007	0,042
-591,196	422,858	-0,012	-0,019
-590,182	99,338	0,116	-0,097
-589,167	-64,602	0,077	-0,023
-588,152	183,659	0,056	0,060
-587,138	-87,046	0,099	0,022
-586,123	-169,841	-0,205	-0,005
-585,109	51,229	-0,017	-0,012
-584,094	143,730	-0,037	-0,036
-583,079	71,309	0,051	0,038
-582,065	571,840	-0,066	0,116
-581,050	-200,000	-0,024	0,094
-580,036	21,708	-0,067	0,039
-579,021	800,000	-0,011	-0,032
-578,006	800,000	-0,061	-0,132
-576,992	-36,688	-0,151	-0,058
-575,977	-200,000	-0,007	-0,144
-574,963	-87,230	-0,058	0,013
-573,948	428,512	0,044	0,068
-572,934	377,221	0,007	-0,010
-571,919	-200,000	-0,012	0,053
-570,904	596,661	-0,037	0,066
-569,890	641,485	-0,047	-0,087
-568,875	-200,000	0,013	0,068
-567,861	-200,000	0,011	0,057
-566,846	-5,709	0,090	0,045
-565,831	-9,883	0,075	-0,036
-564,817	-200,000	-0,025	-0,223
-563,802	365,362	0,055	0,080
-562,788	202,062	-0,083	-0,092
-561,773	-200,000	-0,027	-0,098
-560,758	230,260	0,094	-0,112
-559,744	-90,117	-0,130	-0,027
-558,729	325,974	0,037	-0,051
-557,715	800,000	0,045	-0,119
-556,700	-76,416	-0,084	-0,021
-555,685	109,506	0,044	-0,038
-554,671	-53,263	-0,045	0,015
-553,656	-200,000	-0,031	0,101
-552,642	285,053	-0,047	0,062
-551,627	-200,000	-0,021	0,132
-550,612	135,402	-0,105	0,098
-549,598	-200,000	0,059	-0,262
-548,583	-200,000	-0,020	-0,103
-547,569	112,475	-0,112	-0,098
-546,554	800,000	-0,015	-0,040
-545,539	272,183	0,106	-0,136
-544,525	-78,684	-0,118	-0,029
-543,510	-23,529	-0,033	0,014
-542,496	800,000	-0,004	0,010
-541,481	800,000	0,027	0,071
-540,466	110,368	0,119	0,103
-539,452	-3,678	0,102	-0,051
-538,437	-200,000	0,006	0,091
-537,423	-200,000	-0,005	-0,100
-536,408	73,480	0,056	-0,043
-535,393	173,447	-0,071	-0,074
-534,379	107,893	0,072	0,062
-533,364	-173,118	0,092	-0,002
-532,350	-104,892	-0,066	0,011
-531,335	33,693	0,153	0,096
-530,321	627,305	-0,090	0,166
-529,306	199,347	0,095	-0,105
-528,291	-59,140	-0,025	-0,008
-527,277	-200,000	-0,002	0,016
-526,262	-200,000	-0,001	-0,042
-525,248	-19,786	0,167	-0,074
-524,233	-50,480	-0,135	0,046
-523,218	-116,210	0,083	-0,011
-522,204	-134,970	-0,139	-0,012
-521,189	-141,982	-0,065	0,005
-520,175	40,031	-0,054	0,035
-519,160	-200,000	0,032	0,150
-518,145	-200,000	-0,013	0,092
-517,131	-146,279	-0,016	-0,001
-516,116	800,000	0,061	0,125
-515,102	305,413	0,061	0,083
-514,087	72,423	0,095	0,071
-513,072	4,497	0,144	-0,076
-512,058	-25,132	-0,182	-0,077
-511,043	122,566	0,075	0,068
-510,029	-9,736	-0,064	-0,031
-509,014	-200,000	0,016	0,118
-507,999	-200,000	-0,022	0,072
-506,985	-200,000	0,004	-0,108
-505,970	320,611	0,050	0,068
-504,956	44,646	-0,072	-0,047
-503,941	63,767	-0,074	-0,053
-502,926	-58,082	-0,188	-0,059
-501,912	800,000	0,025	0,063
-500,897	-34,299	0,098	0,039
-499,883	362,166	0,157	0,227
-498,868	-103,633	-0,075	0,013
-497,853	-200,000	-0,006	-0,092
-496,839	-24,585	-0,052	-0,022
-495,824	38,115	0,142	0,091
-494,810	-200,000	0,004	0,023
-493,795	95,881	0,055	-0,045
-492,781	34,744	-0,061	0,038
-491,766	70,083	-0,025	0,019
-490,751	278,977	0,001	0,001
-489,737	368,907	0,064	0,094
-488,722	-200,000	0,023	0,131
-487,708	-36,595	0,167	-0,064
-486,693	-110,789	-0,093	0,014
-485,678	-144,898	-0,033	-0,002
-484,664	-200,000	-0,018	-0,069
-483,649	-113,239	-0,067	0,009
-482,635	-200,000	-0,012	-0,114
-481,620	221,065	0,082	0,095
-480,605	-200,000	0,010	-0,078
-479,591	311,219	0,006	-0,008
-478,576	92,794	0,078	0,063
-477,562	-200,000	0,017	-0,082
-476,547	91,903	0,053	-0,043
-475,532	-200,000	0,012	0,140
-474,518	-92,150	0,109	0,022
-473,503	65,180	0,038	-0,028
-472,489	-81,555	0,040	-0,009
-471,474	45,845	-0,035	0,023
-470,459	800,000	-0,017	-0,044
-469,445	-10,913	-0,050	0,024
-468,430	170,966	-0,032	-0,033
-467,416	-57,160	0,051	-0,016
-466,401	-200,000	0,028	0,325
-465,386	151,219	0,028	-0,028
-464,372	-200,000	-0,012	0,087
-463,357	517,233	0,045	0,077
-462,343	-140,827	-0,094	-0,007
-461,328	-101,977	0,061	-0,011
-460,313	418,338	-0,030	0,046
-459,299	-165,505	0,136	-0,004
-458,284	800,000	0,027	0,070
-457,270	151,008	0,037	-0,036
-456,255	-200,000	-0,048	-0,292
-455,241	-67,329	-0,088	-0,025
-454,226	3,848	-0,093	-0,049
-453,211	49,666	0,060	0,040
-452,197	-200,000	0,007	0,132
-451,182	64,030	0,023	-0,016
-450,168	800,000	-0,038	0,098
-449,153	182,725	-0,033	0,036
-448,138	-200,000	0,045	-0,212
-447,124	-200,000	0,026	-0,110
-446,109	-200,000	-0,011	-0,110
-445,095	227,701	-0,045	0,053
-444,080	34,640	0,098	0,061
-443,065	456,063	-0,058	0,092
-442,051	-200,000	0,007	-0,144
-441,036	-200,000	0,017	-0,107
-440,022	76,036	-0,025	0,019
-439,007	-183,024	-0,038	0,000
-437,992	-9,755	0,045	0,021
-436,978	662,022	0,090	0,167
-435,963	-44,291	0,077	0,028
-434,949	-200,000	0,000	0,073
-433,934	800,000	0,062	0,128
-432,919	16,392	-0,036	0,020
-431,905	123,758	0,030	-0,027
-430,890	188,537	-0,056	-0,060
-429,876	457,992	0,031	0,050
-428,861	8,756	-0,044	0,024
-427,846	-14,285	-0,111	-0,051
-426,832	422,410	-0,129	-0,200
-425,817	-26,147	0,027	0,011
-424,803	-29,199	-0,146	0,060
-423,788	-200,000	-0,001	0,090
-422,773	113,046	0,099	0,086
-421,759	64,251	-0,084	0,060
-420,744	482,762	0,048	-0,079
-419,730	186,574	-0,038	0,041
-418,715	-13,185	0,150	-0,070
-417,701	86,807	-0,091	-0,072
-416,686	8,613	-0,044	-0,024
-415,671	416,337	0,046	-0,071
-414,657	204,702	0,057	-0,063
-413,642	-37,139	-0,094	-0,036
-412,628	-200,000	0,022	-0,081
-411,613	-145,578	0,055	-0,003
-410,598	-200,000	-0,018	-0,115
-409,584	-200,000	0,008	0,026
-408,569	11,463	0,034	0,019
-407,555	-156,474	0,119	0,005
-406,540	30,000	0,039	-0,024
-405,525	-200,000	0,008	0,193
-404,511	339,343	0,044	-0,061
-403,496	338,557	-0,044	0,062
-402,482	328,517	0,052	-0,071
-401,467	283,886	0,034	0,044
-400,452	6,196	0,068	0,036
-399,438	-200,000	0,029	-0,112
-398,423	-200,000	-0,001	0,042
-397,409	-200,000	0,010	0,054
-396,394	-48,954	0,093	-0,032
-395,379	-24,390	-0,073	-0,031
-394,365	68,353	-0,057	-0,042
-393,350	-169,616	0,074	-0,002
-392,336	521,199	0,016	-0,027
-391,321	-200,000	-0,013	-0,048
-390,306	128,681	0,027	-0,025
-389,292	-46,733	-0,107	-0,037
-388,277	800,000	0,085	0,201
-387,263	379,349	-0,009	-0,014
-386,248	800,000	-0,034	0,076
-385,233	-5,091	0,100	0,049
-384,219	364,301	-0,025	-0,037
-383,204	-200,000	0,020	-0,080
-382,190	-23,907	0,005	0,002
-381,175	105,263	-0,070	0,060
-380,160	301,993	-0,029	0,039
-379,146	-39,182	0,138	0,052
-378,131	-200,000	0,024	0,088
-377,117	-200,000	0,018	-0,102
-376,102	-118,406	0,033	0,004
-375,088	232,198	-0,069	-0,082
-374,073	-200,000	-0,018	0,082
-373,058	-83,003	0,145	0,033
-372,044	67,372	-0,084	-0,061
-371,029	800,000	0,033	0,075
-370,015	-23,334	0,052	-0,022
-369,000	444,689	0,021	-0,032
-367,985	-53,694	0,114	0,037
-366,971	399,922	-0,087	0,131
-365,956	800,000	0,039	0,119
-364,942	-200,000	0,037	0,144
-363,927	-200,000	0,007	-0,034
-362,912	-44,122	0,127	0,046
-361,898	135,138	-0,110	-0,102
-360,883	215,782	-0,098	-0,111
-359,869	-200,000	-0,021	-0,116
-358,854	800,000	-0,012	0,035
-357,839	800,000	-0,060	-0,141
-356,825	519,575	0,040	0,067
-355,810	-66,818	-0,020	-0,006
-354,796	800,000	-0,006	-0,013
-353,781	-76,041	-0,215	-0,054
-352,766	-50,868	0,064	0,021
-351,752	-200,000	-0,011	-0,045
-350,737	800,000	-0,011	-0,034
-349,723	-47,331	0,110	0,038
-348,708	201,414	-0,068	0,075
-347,693	-200,000	0,015	-0,125
-346,679	29,768	0,044	0,027
-345,664	34,594	-0,079	-0,050
-344,650	104,321	-0,150	-0,127
-343,635	800,000	0,038	0,101
-342,620	-200,000	0,007	0,031
-341,606	800,000	-0,017	-0,050
-340,591	432,485	-0,095	0,149
-339,577	-200,000	0,008	-0,102
-338,562	800,000	0,003	-0,011
-337,548	238,164	-0,029	-0,034
-336,533	-107,569	0,113	0,017
-335,518	800,000	-0,042	0,103
-334,504	800,000	-0,013	0,035
-333,489	-200,000	-0,028	-0,139
-332,475	800,000	0,078	-0,204
-331,460	-21,664	0,090	0,039
-330,445	-60,899	0,111	0,033
-329,431	-27,297	0,176	0,073
-328,416	-200,000	0,040	0,219
-327,402	-125,077	0,069	0,007
-326,387	81,038	0,105	-0,081
-325,372	660,239	-0,028	-0,052
-324,358	800,000	-0,030	-0,060
-323,343	-200,000	0,012	-0,105
-322,329	-200,000	-0,004	0,038
-321,314	653,266	-0,045	0,082
-320,299	-3,073	0,032	-0,016
-319,285	51,609	-0,060	0,041
-318,270	-200,000	-0,013	-0,060
-317,256	-200,000	-0,003	0,045
-316,241	62,187	0,016	-0,011
-315,226	-200,000	-0,000	-0,057
-314,212	-151,971	0,195	0,010
-313,197	-200,000	0,005	0,128
-312,183	-200,000	0,003	-0,145
-311,168	800,000	0,030	-0,071
-310,153	-21,048	-0,009	-0,004
-309,139	800,000	-0,018	-0,039
-308,124	-104,179	-0,123	-0,020
-307,110	-94,212	0,210	-0,041
-306,095	800,000	0,025	-0,072
-305,080	-175,370	-0,122	-0,002
-304,066	-28,043	0,145	0,060
-303,051	800,000	-0,016	0,043
-302,037	291,061	0,055	0,072
-301,022	-200,000	0,000	-0,067
-300,008	-200,000	-0,016	0,095
-298,993	264,071	0,024	0,030
-297,978	-100,005	-0,088	0,016
-296,964	-116,480	-0,085	-0,011
-295,949	-52,795	0,082	-0,027
-294,935	-128,654	-0,171	-0,017
-293,920	-117,606	0,120	0,015
-292,905	800,000	-0,023	0,050
-291,891	143,975	-0,063	0,060
-290,876	251,377	0,052	-0,063
-289,862	69,280	-0,079	-0,058
-288,847	277,714	-0,029	-0,036
-287,832	144,973	-0,062	-0,060
-286,818	-180,830	0,066	-0,001
-285,803	-76,175	0,026	0,007
-284,789	-101,155	0,067	-0,012
-283,774	800,000	0,012	0,030
-282,759	92,678	-0,069	-0,056
-281,745	103,466	-0,114	-0,095
-280,730	68,059	-0,137	0,100
-279,716	-200,000	0,034	-0,131
-278,701	65,396	0,091	-0,066
-277,686	790,388	0,023	0,045
-276,672	98,285	0,037	0,031
-275,657	779,428	0,006	-0,012
-274,643	317,928	-0,056	-0,075
-273,628	800,000	0,041	-0,082
-272,613	-200,000	-0,003	-0,149
-271,599	42,557	0,071	-0,046
-270,584	25,901	0,040	0,023
-269,570	-35,258	0,103	-0,040
-268,555	-200,000	0,002	-0,071
-267,540	255,016	-0,071	-0,087
-266,526	152,751	-0,057	-0,055
-265,511	143,429	-0,038	-0,036
-264,497	25,069	-0,083	0,049
-263,482	800,000	0,044	-0,103
-262,467	-17,979	0,116	-0,052
-261,453	-200,000	-0,021	0,081
-260,438	-200,000	-0,015	0,117
-259,424	800,000	-0,077	0,152
-258,409	-200,000	0,018	0,132
-257,395	190,599	-0,125	0,135
-256,380	141,756	0,077	0,073
-255,365	245,919	0,018	0,021
-254,351	800,000	-0,048	0,139
-253,336	231,169	-0,047	-0,054
-252,322	-200,000	-0,001	-0,057
-251,307	-200,000	-0,009	0,073
-250,292	382,958	0,005	-0,007
-249,278	32,717	-0,058	0,036
-248,263	172,067	0,112	0,114
-247,249	-72,058	-0,084	0,022
-246,234	196,228	-0,030	-0,033
-245,219	575,574	-0,025	-0,043
-244,205	800,000	-0,015	-0,044
-243,190	368,605	-0,054	0,078
-242,176	-104,370	-0,064	0,011
-241,161	270,330	-0,097	-0,122
-240,146	1,605	0,149	0,076
-239,132	-200,000	-0,018	0,060
-238,117	33,314	0,081	-0,050
-237,103	385,149	0,012	0,018
-236,088	-200,000	0,028	-0,099
-235,073	10,926	0,029	0,016
-234,059	232,858	-0,021	-0,024
-233,044	-200,000	-0,024	0,137
-232,030	-71,034	0,075	0,020
-231,015	484,491	0,070	-0,113
-230,000	-200,000	-0,003	0,084
-228,986	597,107	0,051	0,090
-227,971	800,000	-0,016	0,035
-226,957	60,702	-0,145	0,103
-225,942	800,000	0,045	-0,102
-224,927	800,000	-0,038	-0,079
-223,913	-200,000	0,020	0,175
-222,898	800,000	-0,021	-0,042
-221,884	-200,000	-0,037	-0,166
-220,869	7,332	-0,073	0,039
-219,855	-21,251	0,027	-0,012
-218,840	166,633	0,068	-0,069
-217,825	545,131	0,063	-0,107
-216,811	-75,524	-0,046	-0,011
-215,796	800,000	-0,037	0,075
-214,782	797,256	0,029	-0,057
-213,767	-114,182	0,113	-0,015
-212,752	72,646	0,118	0,088
-211,738	-45,276	-0,058	-0,020
-210,723	389,786	0,071	0,105
-209,709	-111,487	-0,041	-0,006
-208,694	-53,131	-0,094	0,031
-207,679	800,000	0,023	-0,063
-206,665	220,625	-0,065	0,074
-205,650	-141,285	-0,037	0,003
-204,636	148,395	0,057	-0,055
-203,621	472,722	-0,030	0,048
-202,606	800,000	-0,010	-0,025
-201,592	87,901	-0,031	-0,025
-200,577	119,739	-0,054	-0,047
-199,563	-87,496	0,075	0,016
-198,548	433,504	-0,031	-0,048
-197,533	0,387	-0,088	-0,045
-196,519	-14,150	0,073	-0,033
-195,504	-200,000	-0,016	0,114
-194,490	-102,841	-0,190	-0,032
-193,475	-100,079	-0,066	-0,012
-192,460	631,799	-0,068	-0,123
-191,446	800,000	0,068	-0,184
-190,431	-139,876	0,069	-0,005
-189,417	-200,000	0,013	0,092
-188,402	-30,329	-0,043	-0,017
-187,387	48,920	-0,083	0,056
-186,373	800,000	-0,018	-0,043
-185,358	-9,178	-0,106	-0,050
-184,344	800,000	-0,022	-0,051
-183,329	-134,750	-0,098	0,008
-182,315	-35,241	-0,074	-0,028
-181,300	800,000	-0,013	-0,034
-180,285	-7,273	0,079	-0,038
-179,271	-200,000	-0,045	-0,149
-178,256	256,841	-0,070	0,086
-177,242	-51,583	-0,123	0,041
-176,227	-200,000	-0,015	0,147
-175,212	-124,413	0,098	-0,011
-174,198	-75,466	-0,014	0,003
-173,183	200,805	-0,035	-0,038
-172,169	-24,097	0,110	0,047
-171,154	-200,000	0,032	-0,129
-170,139	-4,509	-0,148	-0,072
-169,125	-200,000	0,017	0,069
-168,110	540,136	-0,033	0,056
-167,096	345,003	0,017	0,024
-166,081	26,602	0,161	-0,095
-165,066	127,600	-0,055	0,049
-164,052	-200,000	0,006	0,133
-163,037	-200,000	0,020	0,083
-162,023	43,990	0,095	0,062
-161,008	166,848	0,042	-0,043
-159,993	149,923	0,058	-0,056
-158,979	150,623	-0,127	-0,123
-157,964	-200,000	0,008	-0,059
-156,950	-200,000	0,013	-0,139
-155,935	-200,000	0,004	0,086
-154,920	14,250	0,022	0,012
-153,906	-50,325	0,084	0,028
-152,891	179,482	0,068	0,071
-151,877	-123,850	-0,089	0,010
-150,862	-93,148	-0,061	0,012
-149,847	800,000	-0,031	-0,078
-148,833	-16,293	0,089	0,040
-147,818	800,000	-0,053	0,132
-146,804	87,299	-0,167	0,132
-145,789	12,591	0,066	0,036
-144,775	-14,642	-0,078	-0,035
-143,760	-123,732	-0,065	0,007
-142,745	-137,487	0,155	0,012
-141,731	231,418	-0,039	0,045
-140,716	-200,000	-0,010	0,114
-139,702	467,954	0,097	0,155
-138,687	800,000	-0,039	0,080
-137,672	-109,267	-0,137	0,020
-136,658	9,884	0,028	-0,015
-135,643	-53,253	-0,098	-0,032
-134,629	-106,443	0,130	-0,020
-133,614	-200,000	-0,007	-0,023
-132,599	800,000	0,031	0,074
-131,585	60,333	0,067	0,047
-130,570	-200,000	-0,038	-0,194
-129,556	-200,000	-0,010	-0,034
-128,541	113,160	-0,062	-0,053
-127,526	156,418	0,026	0,026
-126,512	-57,933	-0,062	-0,019
-125,497	800,000	0,032	0,074
-124,483	-120,638	0,047	-0,006
-123,468	-59,288	-0,084	0,025
-122,453	42,863	0,045	0,029
-121,439	-200,000	0,009	-0,120
-120,424	162,508	-0,055	0,055
-119,410	-117,541	0,129	0,016
-118,395	-200,000	0,001	-0,208
-117,380	-38,464	-0,095	0,035
-116,366	800,000	-0,068	0,143
-115,351	-185,467	-0,139	0,001
-114,337	-76,082	-0,040	0,010
-113,322	305,227	0,095	0,125
-112,307	-87,010	-0,144	-0,031
-111,293	-200,000	-0,010	0,040
-110,278	-140,454	-0,060	0,004
-109,264	800,000	0,023	0,054
-108,249	45,804	-0,111	0,073
-107,234	61,889	-0,014	0,010
-106,220	-69,248	0,054	-0,015
-105,205	-200,000	-0,035	0,113
-104,191	249,361	0,097	0,117
-103,176	800,000	-0,018	0,043
-102,162	-104,751	-0,092	0,015
-101,147	-200,000	-0,018	-0,064
-100,132	484,438	0,007	0,011
-99,118	347,859	-0,044	-0,061
-98,103	71,144	0,069	-0,051
-97,089	259,713	-0,042	-0,051
-96,074	800,000	0,026	0,052
-95,059	-200,000	-0,011	0,165
-94,045	-200,000	-0,019	0,060
-93,030	-102,199	-0,112	-0,019
-92,016	-200,000	0,011	0,042
-91,001	-64,609	-0,032	-0,009
-89,986	40,634	-0,044	-0,028
-88,972	-200,000	0,002	0,164
-87,957	-162,725	0,125	0,004
-86,943	187,232	-0,090	0,096
-85,928	-200,000	0,005	-0,132
-84,913	184,164	-0,067	-0,071
-83,899	179,544	0,038	-0,039
-82,884	-128,030	-0,061	-0,006
-81,870	-95,032	-0,137	-0,026
-80,855	95,573	0,066	0,054
-79,840	-66,681	-0,133	0,037
-78,826	139,801	-0,066	-0,062
-77,811	800,000	0,021	-0,064
-76,797	-72,670	0,061	-0,016
-75,782	641,115	0,032	0,058
-74,767	183,240	0,095	0,100
-73,753	195,476	-0,160	0,173
-72,738	-56,249	0,115	-0,036
-71,724	-105,810	-0,113	0,018
-70,709	15,287	-0,075	-0,041
-69,694	-29,019	-0,106	0,043
-68,680	245,965	0,129	0,155
-67,665	800,000	0,027	0,077
-66,651	-121,328	-0,035	-0,004
-65,636	138,563	-0,077	0,072
-64,622	800,000	0,036	-0,072
-63,607	800,000	-0,072	-0,179
-62,592	-200,000	0,004	-0,152
-61,578	800,000	0,020	0,045
-60,563	-93,114	0,057	0,011
-59,549	-30,476	0,086	0,034
-58,534	-58,343	-1,789	-0,548
-57,519	363,352	-1,408	-2,009
-56,505	-200,000	-0,478	-4,523
-55,490	276,863	0,900	1,135
-54,476	800,000	4,970	11,301
-53,461	-200,000	19,150	320,469
-52,446	-200,000	741,233	2334,947
-51,432	572,611	1655,908	2868,669
-50,417	78,239	1671,074	1261,785
-49,403	21,316	1544,075	885,884
-48,388	15,157	1466,619	811,484
-47,373	17,974	1456,617	819,533
-46,359	16,678	1446,552	807,621
-45,344	13,424	1441,896	789,398
-44,330	13,350	1440,100	788,032
-43,315	13,366	1438,367	787,129
-42,300	13,363	1436,670	786,155
-41,286	13,381	1435,305	785,462
-40,271	13,357	1433,944	784,573
-39,257	13,375	1432,685	783,939
-38,242	13,427	1431,383	783,441
-37,227	13,410	1430,219	782,691
-36,213	13,401	1428,756	781,815
-35,198	13,417	1427,439	781,142
-34,184	13,410	1426,864	780,763
-33,169	13,380	1425,434	779,808
-32,154	13,412	1424,450	779,392
-31,140	13,423	1423,123	778,687
-30,125	13,482	1421,935	778,285
-29,111	13,423	1420,891	777,401
-28,096	13,395	1419,822	776,652
-27,082	13,352	1418,752	775,837
-26,067	13,334	1417,508	775,039
-25,052	13,407	1416,265	774,672
-24,038	13,327	1415,603	773,903
-23,023	13,310	1414,579	773,233
-22,009	13,316	1413,455	772,616
-20,994	13,311	1412,527	772,053
-19,979	13,327	1411,646	771,619
-18,965	13,282	1410,753	770,885
-17,950	13,269	1409,881	770,318
-16,936	13,252	1409,353	769,921
-15,921	13,271	1407,754	769,104
-14,906	13,240	1407,029	768,533
-13,892	13,267	1406,026	768,083
-12,877	13,270	1405,084	767,550
-11,863	13,249	1404,313	767,002
-10,848	13,227	1403,402	766,368
-9,833	13,185	1402,649	765,735
-8,819	13,163	1401,611	765,034
-7,804	13,173	1400,741	764,576
-6,790	13,101	1399,826	763,710
-5,775	13,168	1398,589	763,316
-4,760	13,149	1397,724	762,728
-3,746	13,166	1396,765	762,253
-2,731	13,166	1395,865	761,729
-1,717	13,119	1394,920	760,966
-0,702	13,124	1393,285	760,064
0,313	16,950	1310,005	732,368
1,327	33,157	703,786	430,922
2,342	51,599	123,176	82,725
3,356	1,065	16,580	8,387
4,371	9,902	3,205	1,716
5,386	-23,724	0,636	0,268
6,400	-200,000	0,089	0,350
7,415	-56,815	-0,347	-0,108
8,429	56,458	-0,251	-0,172
9,444	225,109	-0,233	-0,267
10,459	495,544	-0,139	-0,227
11,473	-90,755	-0,317	-0,064
12,488	39,908	-0,329	-0,208
13,502	76,969	-0,342	-0,257
14,517	81,512	-0,296	-0,226
15,531	67,129	-0,407	-0,293
16,546	46,149	-0,439	-0,287
17,561	83,855	-0,373	-0,288
18,575	-20,788	-0,264	-0,114
19,590	0,319	-0,275	-0,138
20,604	-46,648	-0,268	-0,092
21,619	85,065	-0,384	-0,298
22,634	-52,410	-0,402	-0,130
23,648	128,306	-0,418	-0,376
24,663	102,504	-0,484	-0,400
25,677	-41,897	-0,357	-0,128
26,692	-17,826	-0,277	-0,122
27,707	106,384	-0,289	-0,241
28,721	15,971	-0,403	-0,224
29,736	-11,309	-0,459	-0,213
30,750	177,977	-0,359	-0,370
31,765	-53,270	-0,450	-0,145
32,780	45,541	-0,381	-0,248
33,794	-1,517	-0,399	-0,198
34,809	625,933	-0,236	-0,422
35,823	5,510	-0,390	-0,203
36,838	22,203	-0,341	-0,196
37,853	58,663	-0,380	-0,263
38,867	134,379	-0,326	-0,298
39,882	183,359	-0,269	-0,281
40,896	-64,815	-0,164	-0,046
41,911	148,644	-0,424	-0,404
42,926	-45,785	-0,370	-0,128
43,940	0,385	-0,355	-0,178
44,955	25,611	-0,370	-0,217
45,969	41,421	-0,288	-0,183
46,984	201,439	-0,202	-0,220
47,999	241,218	-0,259	-0,305
49,013	45,078	-0,261	-0,169
50,028	43,103	-0,365	-0,234
51,042	-42,123	-0,431	-0,155
52,057	-42,055	-0,374	-0,134
53,071	116,305	-0,306	-0,264
54,086	142,806	-0,184	-0,172
55,101	-33,568	-0,355	-0,137
56,115	7,346	-0,438	-0,230
57,130	42,057	-0,342	-0,218
58,144	209,111	-0,245	-0,270
59,159	218,669	-0,235	-0,265
60,174	4,985	-0,382	-0,197
61,188	76,929	-0,288	-0,215
62,203	303,142	-0,260	-0,340
63,217	84,283	-0,304	-0,234
64,232	202,943	-0,220	-0,240
65,247	20,621	-0,352	-0,200
66,261	-36,206	-0,436	-0,165
67,276	45,889	-0,342	-0,222
68,290	-2,535	-0,290	-0,143
69,305	58,457	-0,209	-0,144
70,320	23,883	-0,399	-0,230
71,334	-76,615	-0,392	-0,096
72,349	5,661	-0,312	-0,162
73,363	-39,089	-0,394	-0,145
74,378	188,403	-0,350	-0,368
75,393	144,257	-0,389	-0,365
76,407	72,462	-0,296	-0,217
77,422	-26,106	-0,381	-0,157
78,436	104,349	-0,254	-0,210
79,451	-9,095	-0,360	-0,168
80,466	151,133	-0,318	-0,304
81,480	39,870	-0,312	-0,197
82,495	98,123	-0,362	-0,293
83,509	-28,881	-0,292	-0,117
84,524	13,184	-0,359	-0,195
85,539	-48,154	-0,317	-0,107
86,553	6,667	-0,193	-0,100
87,568	-14,793	-0,402	-0,180
88,582	57,599	-0,221	-0,152
89,597	87,636	-0,315	-0,245
90,611	-31,726	-0,236	-0,092
91,626	-24,139	-0,291	-0,122
92,641	-41,197	-0,335	-0,121
93,655	25,811	-0,270	-0,158
94,670	243,249	-0,267	-0,315
95,684	11,669	-0,449	-0,241
96,699	32,356	-0,364	-0,220
97,714	269,978	-0,263	-0,325
98,728	140,604	-0,219	-0,203
99,743	32,037	-0,189	-0,114
100,757	26,024	-0,300	-0,175
101,772	-23,676	-0,348	-0,146
102,787	77,321	-0,226	-0,168
103,801	105,997	-0,235	-0,195
104,816	-54,617	-0,305	-0,096
105,830	-72,898	-0,244	-0,062
106,845	75,952	-0,295	-0,218
107,860	30,644	-0,206	-0,123
108,874	82,454	-0,225	-0,171
109,889	121,239	-0,177	-0,155
110,903	76,514	-0,201	-0,149
111,918	-129,727	-0,277	0,026
112,933	-141,930	-0,202	-0,014
113,947	-33,980	-0,157	-0,060
114,962	129,948	-0,117	-0,105
115,976	-57,873	-0,285	-0,087
116,991	104,320	-0,372	-0,306
118,006	203,533	-0,250	-0,272
119,020	184,271	-0,310	-0,322
120,035	54,224	-0,330	-0,222
121,049	-38,629	-0,225	-0,083
122,064	4,293	-0,184	-0,094
123,079	-53,943	-0,330	-0,105
124,093	91,154	-0,353	-0,277
125,108	-25,477	-0,346	-0,142
126,122	151,591	-0,208	-0,199
127,137	100,696	-0,275	-0,223
128,151	6,120	-0,320	-0,165
129,166	-7,007	-0,315	-0,149
130,181	-13,488	-0,271	-0,123
131,195	-81,160	-0,353	-0,081
132,210	-64,997	-0,339	-0,095
133,224	49,580	-0,260	-0,171
134,239	81,114	-0,315	-0,237
135,254	-12,772	-0,218	-0,099
136,268	-22,586	-0,303	-0,128
137,283	-14,960	-0,253	-0,113
138,297	754,704	-0,154	-0,292
139,312	73,074	-0,225	-0,164
140,327	800,000	-0,178	-0,401
141,341	83,132	-0,260	-0,198
142,356	587,946	-0,080	-0,138
143,370	85,275	-0,231	-0,177
144,385	146,818	-0,235	-0,221
145,400	-7,661	-0,307	-0,145
146,414	-5,541	-0,440	-0,210
147,429	134,947	-0,269	-0,244
148,443	37,114	-0,184	-0,114
149,458	25,944	-0,271	-0,158
150,473	182,752	-0,168	-0,173
151,487	22,124	-0,200	-0,113
152,502	176,647	-0,260	-0,264
153,516	89,234	-0,320	-0,249
154,531	131,440	-0,254	-0,228
155,546	546,518	-0,169	-0,283
156,560	77,545	-0,244	-0,181
157,575	-71,963	-0,324	-0,084
158,589	397,663	-0,187	-0,274
159,604	140,392	-0,194	-0,179
160,619	42,138	-0,259	-0,164
161,633	-106,979	-0,390	0,060
162,648	-24,737	-0,283	-0,117
163,662	35,048	-0,206	-0,125
164,677	360,837	-0,181	-0,253
165,692	-17,325	-0,261	-0,114
166,706	148,560	-0,251	-0,237
167,721	-102,511	-0,146	-0,024
168,735	60,792	-0,263	-0,182
169,750	173,049	-0,099	-0,099
170,764	-11,894	-0,339	-0,154
171,779	-106,339	-0,257	-0,040
172,794	-47,390	-0,267	-0,090
173,808	-74,552	-0,298	-0,074
174,823	-4,991	-0,308	-0,147
175,837	248,859	-0,249	-0,295
176,852	72,934	-0,183	-0,133
177,867	333,581	-0,180	-0,244
178,881	191,254	-0,225	-0,236
179,896	205,444	-0,269	-0,292
180,910	-154,401	-0,298	0,014
181,925	208,163	-0,203	-0,221
182,940	18,286	-0,324	-0,180
183,954	235,541	-0,149	-0,172
184,969	28,468	-0,283	-0,166
185,983	9,730	-0,190	-0,100
186,998	146,519	-0,161	-0,151
188,013	70,106	-0,204	-0,147
189,027	57,567	-0,315	-0,214
190,042	157,942	-0,132	-0,127
191,056	-200,000	-0,014	-0,172
192,071	8,073	-0,265	-0,138
193,086	304,108	-0,160	-0,207
194,100	-12,656	-0,155	-0,070
195,115	87,301	-0,330	-0,254
196,129	362,244	-0,101	-0,141
197,144	7,833	-0,243	-0,126
198,159	37,347	-0,204	-0,126
199,173	238,537	-0,165	-0,191
200,188	-188,288	-0,332	0,003
201,202	-112,401	-0,088	-0,012
202,217	-135,322	-0,186	0,015
203,232	192,123	-0,194	-0,204
204,246	93,695	-0,161	-0,127
205,261	-14,433	-0,197	-0,088
206,275	-81,382	-0,183	-0,042
207,290	-83,947	-0,101	-0,022
208,304	-100,432	-0,245	-0,042
209,319	482,357	-0,099	-0,156
210,334	59,458	-0,244	-0,167
211,348	206,870	-0,247	-0,268
212,363	286,347	-0,144	-0,181
213,377	76,843	-0,213	-0,157
214,392	160,201	-0,127	-0,123
215,407	305,461	-0,141	-0,182
216,421	364,260	-0,100	-0,141
217,436	-9,069	-0,277	-0,128
218,450	273,787	-0,075	-0,092
219,465	90,078	-0,173	-0,134
220,480	143,721	-0,205	-0,190
221,494	40,026	-0,169	-0,105
222,509	-104,521	-0,173	-0,027
223,523	6,634	-0,250	-0,129
224,538	-108,443	-0,268	-0,040
225,553	122,472	-0,243	-0,211
226,567	185,270	-0,270	-0,279
227,582	347,018	-0,199	-0,272
228,596	296,160	-0,222	-0,283
229,611	199,092	-0,250	-0,266
230,626	-11,607	-0,232	-0,105
231,640	-17,409	-0,195	-0,085
232,655	-111,258	-0,235	-0,033
233,669	125,729	-0,233	-0,204
234,684	308,778	-0,121	-0,157
235,699	54,277	-0,197	-0,131
236,713	-178,335	-0,182	-0,003
237,728	153,534	-0,235	-0,223
238,742	17,995	-0,267	-0,147
239,757	55,303	-0,204	-0,136
240,772	224,788	-0,146	-0,164
241,786	-68,954	-0,291	-0,077
242,801	51,729	-0,095	-0,062
243,815	198,442	-0,147	-0,156
244,830	10,205	-0,232	-0,122
245,844	128,127	-0,192	-0,169
246,859	43,905	-0,196	-0,124
247,874	219,226	-0,195	-0,216
248,888	201,734	-0,235	-0,251
249,903	27,337	-0,104	-0,060
250,917	42,301	-0,181	-0,114
251,932	-128,373	-0,217	0,021
252,947	-31,176	-0,180	-0,070
253,961	34,148	-0,216	-0,130
254,976	198,612	-0,180	-0,191
255,990	170,573	-0,172	-0,171
257,005	800,000	-0,069	-0,194
258,020	376,571	-0,162	-0,229
259,034	245,986	-0,192	-0,224
260,049	-146,146	-0,114	-0,007
261,063	78,912	-0,140	-0,104
262,078	-34,220	-0,292	-0,110
263,093	800,000	-0,097	-0,205
264,107	663,582	-0,137	-0,246
265,122	800,000	-0,048	-0,097
266,136	-117,927	-0,227	0,028
267,151	-129,671	-0,189	0,018
268,166	68,602	-0,189	-0,134
269,180	74,087	-0,174	-0,126
270,195	-10,742	-0,245	-0,112
271,209	7,797	-0,207	-0,107
272,224	-200,000	-0,045	-0,169
273,239	576,340	-0,049	0,083
274,253	27,787	-0,117	-0,068
275,268	71,938	-0,129	-0,093
276,282	42,369	-0,213	-0,134
277,297	37,531	-0,141	-0,086
278,312	411,474	-0,156	-0,230
279,326	32,288	-0,165	-0,098
280,341	259,938	-0,110	-0,132
281,355	-137,176	-0,227	0,018
282,370	221,573	-0,142	-0,157
283,384	150,500	-0,174	-0,163
284,399	111,930	-0,250	-0,209
285,414	235,927	-0,220	-0,251
286,428	-76,521	-0,210	-0,050
287,443	18,505	-0,090	0,049
288,457	-42,157	-0,131	-0,046
289,472	-139,314	-0,200	-0,015
290,487	800,000	-0,113	-0,218
291,501	143,764	-0,156	-0,143
292,516	-39,050	-0,133	-0,048
293,530	745,483	-0,131	-0,245
294,545	109,753	-0,058	-0,048
295,560	41,713	-0,149	0,093
296,574	-200,000	-0,028	-0,115
297,589	-164,959	-0,159	0,005
298,603	117,693	-0,179	-0,152
299,618	-24,373	-0,133	-0,055
300,633	-200,000	-0,047	-0,192
301,647	349,516	-0,074	-0,101
302,662	633,448	-0,091	-0,159
303,676	-200,000	0,006	-0,180
304,691	-105,506	-0,189	-0,029
305,706	-137,980	-0,195	-0,015
306,720	-166,857	-0,072	-0,002
307,735	209,362	-0,144	-0,156
308,749	55,539	-0,067	-0,045
309,764	163,399	-0,177	-0,172
310,779	-14,029	-0,212	-0,094
311,793	-63,102	-0,224	-0,063
312,808	114,709	-0,128	-0,108
313,822	62,669	-0,162	-0,111
314,837	25,436	-0,262	-0,149
315,852	326,790	-0,166	-0,220
316,866	238,597	-0,133	-0,153
317,881	315,545	-0,078	-0,102
318,895	-127,959	-0,134	-0,013
319,910	-14,945	-0,177	-0,078
320,925	-47,784	-0,215	-0,071
321,939	531,273	-0,103	-0,168
322,954	19,306	-0,145	-0,080
323,968	-197,227	-0,119	-0,001
324,983	-58,333	-0,055	0,016
325,997	316,429	-0,135	-0,176
327,012	-65,891	-0,150	-0,041
328,027	342,539	-0,066	-0,089
329,041	-114,482	-0,220	-0,029
330,056	-112,242	-0,052	0,007
331,070	-111,856	-0,058	-0,008
332,085	36,647	-0,130	-0,079
333,100	21,902	-0,204	-0,114
334,114	-13,464	-0,058	0,026
335,129	-60,062	-0,234	0,068
336,143	-97,026	-0,176	-0,031
337,158	0,990	-0,131	-0,064
338,173	-77,660	-0,106	0,025
339,187	414,295	-0,096	-0,141
340,202	62,449	-0,099	-0,068
341,216	213,324	-0,101	-0,109
342,231	219,683	-0,151	-0,166
343,246	113,296	-0,127	-0,106
344,260	229,496	-0,111	-0,124
345,275	800,000	0,005	-0,012
346,289	-127,926	-0,123	-0,012
347,304	-110,932	-0,194	-0,027
348,319	153,842	-0,165	-0,155
349,333	800,000	-0,064	-0,126
350,348	-53,685	-0,286	-0,089
351,362	236,099	-0,157	-0,179
352,377	-39,638	-0,166	-0,059
353,392	-118,431	-0,061	-0,007
354,406	757,086	0,014	0,026
355,421	208,597	1312,832	1410,566
356,435	160,515	1473,311	1411,060
