DTS Sentinel unit serial number:	SN410029Multiplexer serial number:	ORYXHardware model number:	OX2-SRSoftware version number:	ORYX F/W v4,00 Oryx Data Collector v3.7.2.0data status	okinstallation	B3 Nyhavnadifferential loss correction	single-endedforward channel	channel 1reverse channel	N/Adate	2023/12/03time	21:32:30forward acquisition time	300,00reverse acquisition time	0,00gamma	499,1914k internal	0,3199k external	0,3199temperature offset calibration	1,0000default loss term (dB/km)	0,3820temperature slope calibration	1,0000multiplexer offset coefficient	1,0000multiplexer slope coefficient	1,0000fibre end	0,00T internal ref (°C)	13,54T ext. ref 1 (°C)	-1,94T ext. ref 2 (°C)	-1,97length (m)	temperature (°C)	Stokes	anti-Stokes-744,400	87,941	-0,253	-0,204
-743,385	-200,000	0,079	0,266
-742,371	131,583	-0,173	-0,161
-741,356	-200,000	-0,008	0,288
-740,342	232,572	-0,284	-0,341
-739,327	655,267	0,174	0,326
-738,312	-30,963	-0,270	-0,110
-737,298	-200,000	0,057	0,416
-736,283	20,087	-0,263	-0,154
-735,269	-200,000	0,062	0,327
-734,254	192,949	-0,228	-0,251
-733,239	-96,598	-0,239	0,045
-732,225	800,000	-0,096	-0,242
-731,210	-200,000	-0,010	0,128
-730,196	91,850	0,073	-0,060
-729,181	105,910	-0,060	0,052
-728,167	357,776	-0,010	0,014
-727,152	456,312	0,003	0,005
-726,137	-5,084	-0,082	0,041
-725,123	-48,886	-0,099	0,034
-724,108	-77,880	0,158	0,039
-723,094	-19,949	-0,169	-0,075
-722,079	336,466	0,079	-0,112
-721,064	11,863	-0,118	0,066
-720,050	-200,000	0,033	0,132
-719,035	800,000	-0,020	-0,056
-718,021	800,000	-0,080	-0,164
-717,006	-69,923	-0,079	0,022
-715,991	-44,293	-0,131	-0,048
-714,977	800,000	0,040	-0,091
-713,962	117,260	0,036	0,032
-712,948	12,428	0,041	-0,023
-711,933	-14,722	0,030	-0,014
-710,918	-146,401	-0,093	-0,006
-709,904	498,682	0,043	0,073
-708,889	163,054	-0,071	-0,073
-707,875	-162,831	0,089	0,003
-706,860	8,988	-0,071	-0,039
-705,845	-200,000	0,018	0,107
-704,831	-15,542	-0,073	-0,034
-703,816	-200,000	0,011	0,148
-702,802	-130,414	0,128	-0,012
-701,787	45,443	-0,072	-0,048
-700,772	-200,000	0,005	-0,086
-699,758	800,000	0,031	-0,079
-698,743	800,000	-0,013	-0,037
-697,729	308,594	-0,044	-0,060
-696,714	106,372	0,058	-0,050
-695,699	-200,000	0,020	-0,080
-694,685	800,000	0,014	0,028
-693,670	-200,000	0,002	-0,102
-692,656	-86,580	0,073	0,016
-691,641	800,000	0,022	-0,063
-690,627	-200,000	-0,005	0,019
-689,612	-200,000	0,008	0,173
-688,597	-200,000	0,005	0,127
-687,583	800,000	-0,059	0,153
-686,568	-72,977	-0,025	-0,007
-685,554	800,000	0,062	-0,147
-684,539	-200,000	-0,027	0,139
-683,524	-65,011	-0,068	-0,020
-682,510	-200,000	0,009	-0,071
-681,495	-10,531	-0,092	0,044
-680,481	-24,275	0,104	-0,045
-679,466	800,000	-0,016	0,045
-678,451	88,601	-0,032	-0,025
-677,437	800,000	0,024	-0,048
-676,422	216,347	0,037	-0,043
-675,408	-200,000	-0,007	-0,179
-674,393	800,000	0,069	-0,192
-673,378	-13,655	-0,201	-0,094
-672,364	651,524	-0,031	-0,059
-671,349	-37,923	0,029	-0,011
-670,335	392,572	0,066	-0,100
-669,320	-11,466	0,084	0,040
-668,305	800,000	0,030	-0,065
-667,291	-200,000	0,007	-0,077
-666,276	-122,642	-0,086	-0,010
-665,262	46,895	0,008	0,005
-664,247	121,748	-0,123	-0,112
-663,232	119,898	0,035	-0,031
-662,218	649,936	0,021	0,040
-661,203	-200,000	-0,003	-0,051
-660,189	-200,000	-0,028	0,102
-659,174	219,032	-0,040	0,047
-658,159	289,175	-0,068	-0,090
-657,145	-138,431	-0,183	-0,014
-656,130	-81,804	0,033	-0,008
-655,116	800,000	0,031	0,079
-654,101	383,487	0,024	-0,036
-653,086	479,135	-0,047	0,077
-652,072	72,647	0,046	-0,035
-651,057	62,335	-0,078	-0,056
-650,043	-200,000	-0,004	-0,025
-649,028	-28,786	-0,097	-0,040
-648,014	712,027	-0,003	0,005
-646,999	-7,273	0,015	0,007
-645,984	329,709	0,041	0,057
-644,970	-138,270	-0,082	0,006
-643,955	-103,716	-0,084	-0,014
-642,941	800,000	-0,045	-0,108
-641,926	-200,000	-0,025	-0,082
-640,911	-21,018	0,077	-0,034
-639,897	543,841	0,052	0,090
-638,882	800,000	0,062	0,139
-637,868	-113,303	-0,115	0,016
-636,853	-116,825	0,054	-0,007
-635,838	-200,000	-0,005	-0,141
-634,824	229,545	0,012	0,014
-633,809	-81,901	0,076	0,018
-632,795	-200,000	0,008	0,123
-631,780	-55,214	-0,046	0,015
-630,765	191,191	-0,038	-0,042
-629,751	88,608	-0,108	-0,087
-628,736	10,277	-0,095	-0,052
-627,722	-93,096	-0,077	-0,015
-626,707	-50,162	0,076	-0,026
-625,692	103,175	0,093	0,079
-624,678	-200,000	0,013	0,142
-623,663	-101,437	-0,104	0,018
-622,649	577,027	-0,079	-0,141
-621,634	-200,000	0,033	0,106
-620,619	1,562	-0,102	-0,053
-619,605	-200,000	-0,021	-0,129
-618,590	-53,470	0,135	0,044
-617,576	-200,000	-0,010	0,102
-616,561	74,793	-0,056	0,042
-615,546	-129,303	-0,080	0,008
-614,532	534,951	-0,022	-0,038
-613,517	394,665	-0,052	0,078
-612,503	132,870	0,050	-0,047
-611,488	123,007	0,109	0,099
-610,474	800,000	0,026	-0,057
-609,459	180,427	-0,077	-0,082
-608,444	-54,729	-0,140	-0,046
-607,430	800,000	0,055	-0,148
-606,415	369,534	0,022	-0,032
-605,401	-200,000	0,001	0,068
-604,386	-200,000	0,033	-0,121
-603,371	800,000	0,030	-0,072
-602,357	493,380	0,010	0,017
-601,342	386,398	0,072	-0,108
-600,328	13,124	-0,121	0,067
-599,313	210,049	0,063	0,071
-598,298	-200,000	-0,006	0,022
-597,284	-200,000	0,008	-0,105
-596,269	-73,580	0,066	-0,017
-595,255	-200,000	-0,005	0,086
-594,240	800,000	0,035	-0,084
-593,225	-31,898	-0,158	-0,064
-592,211	-140,564	-0,119	0,009
-591,196	785,874	0,071	-0,141
-590,182	-200,000	-0,004	0,086
-589,167	-139,209	-0,032	-0,002
-588,152	800,000	-0,028	0,082
-587,138	96,839	-0,041	0,034
-586,123	-200,000	-0,038	-0,159
-585,109	-37,849	-0,099	-0,038
-584,094	-200,000	0,012	0,102
-583,079	800,000	-0,029	-0,080
-582,065	-200,000	0,042	0,145
-581,050	538,285	-0,027	0,047
-580,036	-27,096	-0,072	0,030
-579,021	-102,344	-0,115	0,020
-578,006	-146,452	-0,092	0,006
-576,992	800,000	-0,010	0,021
-575,977	-134,627	0,046	0,004
-574,963	422,605	-0,054	0,084
-573,948	2,765	0,128	0,067
-572,934	-180,110	-0,035	0,001
-571,919	118,505	0,045	-0,041
-570,904	-158,818	-0,067	-0,003
-569,890	800,000	0,014	-0,042
-568,875	-73,821	0,021	-0,005
-567,861	19,995	0,107	-0,062
-566,846	712,562	-0,070	0,134
-565,831	-11,516	-0,055	0,026
-564,817	169,621	-0,085	-0,088
-563,802	-200,000	0,008	-0,134
-562,788	62,410	-0,012	0,009
-561,773	264,825	0,039	0,050
-560,758	309,194	0,030	0,040
-559,744	-200,000	-0,019	0,067
-558,729	800,000	0,012	-0,035
-557,715	-200,000	-0,005	0,033
-556,700	-99,132	-0,097	0,017
-555,685	-200,000	0,006	-0,046
-554,671	800,000	-0,018	-0,051
-553,656	-158,771	0,117	0,005
-552,642	-200,000	-0,021	0,116
-551,627	156,137	0,060	0,060
-550,612	800,000	0,030	0,096
-549,598	-200,000	-0,028	-0,159
-548,583	24,396	-0,025	0,015
-547,569	-20,508	-0,077	-0,034
-546,554	-117,573	0,143	0,018
-545,539	678,600	-0,058	0,110
-544,525	800,000	-0,027	-0,060
-543,510	122,347	-0,026	-0,023
-542,496	603,724	-0,041	0,074
-541,481	800,000	-0,041	-0,089
-540,466	-163,961	0,053	-0,002
-539,452	-51,010	0,081	-0,027
-538,437	800,000	0,065	0,151
-537,423	-62,671	0,172	0,051
-536,408	231,981	0,032	-0,038
-535,393	392,099	-0,043	-0,065
-534,379	800,000	-0,030	0,079
-533,364	478,247	0,030	-0,049
-532,350	41,519	0,124	0,081
-531,335	175,602	0,087	0,091
-530,321	-200,000	-0,004	0,067
-529,306	-200,000	0,011	0,047
-528,291	-27,459	-0,106	-0,044
-527,277	-25,016	-0,032	-0,014
-526,262	339,117	-0,012	0,017
-525,248	800,000	-0,030	0,062
-524,233	-178,512	-0,007	-0,000
-523,218	-10,224	-0,062	-0,029
-522,204	-200,000	0,010	-0,051
-521,189	-81,311	0,094	0,022
-520,175	-200,000	-0,007	-0,085
-519,160	-172,397	-0,044	-0,001
-518,145	31,537	0,133	0,082
-517,131	539,362	0,083	0,143
-516,116	-149,845	0,010	-0,001
-515,102	256,515	-0,046	-0,058
-514,087	-200,000	0,009	0,069
-513,072	-120,162	-0,091	0,011
-512,058	-53,372	-0,078	-0,026
-511,043	-70,867	-0,046	-0,013
-510,029	19,682	-0,088	0,051
-509,014	800,000	-0,013	-0,026
-507,999	800,000	-0,029	0,088
-506,985	-200,000	-0,022	-0,073
-505,970	-200,000	-0,014	-0,169
-504,956	800,000	0,021	0,057
-503,941	-107,291	-0,120	-0,019
-502,926	-200,000	-0,007	0,081
-501,912	-104,086	0,257	-0,043
-500,897	80,845	-0,051	-0,040
-499,883	800,000	-0,038	-0,095
-498,868	488,302	-0,015	-0,024
-497,853	-200,000	-0,015	-0,080
-496,839	6,603	0,036	-0,019
-495,824	65,232	0,107	0,078
-494,810	670,427	-0,048	0,089
-493,795	-200,000	0,043	0,144
-492,781	7,814	0,070	-0,038
-491,766	-200,000	-0,042	-0,215
-490,751	-67,157	0,064	-0,018
-489,737	-110,371	-0,059	0,009
-488,722	-200,000	0,023	-0,103
-487,708	-200,000	0,010	0,114
-486,693	267,558	0,096	0,122
-485,678	-16,297	-0,056	0,025
-484,664	-42,256	-0,052	0,019
-483,649	456,279	0,016	-0,025
-482,635	-200,000	0,016	0,141
-481,620	-57,042	0,109	0,035
-480,605	370,080	-0,041	0,060
-479,591	212,671	0,079	0,090
-478,576	105,053	-0,081	-0,068
-477,562	540,000	-0,075	-0,129
-476,547	46,208	-0,089	-0,060
-475,532	-89,527	-0,123	0,026
-474,518	-200,000	0,053	0,233
-473,503	-200,000	0,013	0,071
-472,489	83,513	0,065	-0,051
-471,474	-200,000	0,003	0,012
-470,459	-118,041	-0,103	0,013
-469,445	-200,000	0,016	-0,056
-468,430	800,000	-0,010	0,024
-467,416	800,000	0,047	0,149
-466,401	493,801	0,082	0,137
-465,386	-200,000	0,006	-0,027
-464,372	800,000	-0,018	0,043
-463,357	161,196	-0,078	0,078
-462,343	80,919	0,083	0,064
-461,328	-111,537	-0,067	0,010
-460,313	800,000	0,075	-0,152
-459,299	-132,826	0,026	-0,002
-458,284	22,943	-0,020	-0,012
-457,270	295,916	-0,021	-0,028
-456,255	-200,000	0,003	-0,121
-455,241	184,381	-0,106	0,113
-454,226	-200,000	-0,000	-0,026
-453,211	-94,024	-0,144	0,028
-452,197	-131,316	0,076	0,007
-451,182	545,032	0,053	-0,092
-450,168	-19,940	0,024	-0,011
-449,153	-200,000	-0,001	-0,042
-448,138	800,000	-0,080	0,184
-447,124	-16,934	-0,066	-0,030
-446,109	177,515	-0,050	-0,052
-445,095	-200,000	0,008	-0,093
-444,080	-200,000	0,029	-0,102
-443,065	-73,951	-0,094	-0,024
-442,051	-200,000	0,015	-0,084
-441,036	98,675	0,039	0,032
-440,022	800,000	-0,052	-0,146
-439,007	-18,747	0,049	-0,022
-437,992	-4,302	0,077	0,038
-436,978	290,408	0,039	0,051
-435,963	-118,790	0,159	-0,020
-434,949	-105,385	0,053	0,009
-433,934	-131,191	-0,131	0,012
-432,919	268,003	-0,019	0,024
-431,905	-200,000	-0,012	0,069
-430,890	-55,894	0,205	-0,065
-429,876	96,218	0,015	0,012
-428,861	321,617	-0,112	0,153
-427,846	166,152	-0,059	0,061
-426,832	719,772	-0,017	0,033
-425,817	607,025	-0,036	0,065
-424,803	800,000	-0,025	0,061
-423,788	64,900	0,145	0,105
-422,773	-178,446	0,072	0,001
-421,759	-200,000	0,026	0,088
-420,744	-200,000	0,005	0,193
-419,730	-200,000	0,030	-0,111
-418,715	-7,818	-0,132	-0,064
-417,701	-25,573	0,150	-0,064
-416,686	-33,935	0,057	-0,022
-415,671	-18,394	-0,107	0,048
-414,657	52,878	0,119	0,082
-413,642	-186,221	-0,125	0,001
-412,628	-28,889	-0,186	0,076
-411,613	136,513	0,066	-0,062
-410,598	-63,657	-0,031	-0,009
-409,584	-200,000	-0,012	0,058
-408,569	800,000	0,014	-0,028
-407,555	-102,276	-0,151	-0,026
-406,540	-135,827	-0,075	-0,006
-405,525	-41,045	-0,108	0,040
-404,511	-43,161	0,094	0,034
-403,496	-20,648	-0,045	-0,020
-402,482	-200,000	0,000	-0,084
-401,467	-131,449	-0,053	0,005
-400,452	-45,165	0,054	-0,019
-399,438	-35,407	-0,063	0,024
-398,423	-200,000	-0,002	0,104
-397,409	-144,291	-0,130	-0,009
-396,394	-200,000	0,006	-0,140
-395,379	-85,713	0,100	-0,022
-394,365	168,077	0,024	-0,024
-393,350	800,000	-0,059	0,124
-392,336	-127,615	0,092	0,009
-391,321	800,000	-0,065	-0,184
-390,306	800,000	0,035	-0,079
-389,292	-200,000	0,013	-0,084
-388,277	-200,000	-0,002	0,109
-387,263	800,000	0,043	-0,092
-386,248	-26,935	0,163	0,068
-385,233	-105,185	-0,107	-0,017
-384,219	-200,000	-0,027	0,159
-383,204	-200,000	-0,002	0,070
-382,190	800,000	-0,032	-0,082
-381,175	-155,318	0,087	0,004
-380,160	-200,000	-0,006	-0,043
-379,146	53,643	0,034	-0,023
-378,131	-66,781	-0,027	0,008
-377,117	-200,000	0,010	-0,039
-376,102	0,343	-0,123	0,063
-375,088	643,689	0,023	0,042
-374,073	462,310	0,114	-0,183
-373,058	13,959	0,008	0,004
-372,044	-143,811	0,089	0,006
-371,029	-200,000	0,007	0,086
-370,015	-29,639	-0,157	0,064
-369,000	207,335	-0,072	-0,081
-367,985	334,325	0,007	-0,010
-366,971	448,590	-0,044	0,070
-365,956	18,638	0,045	-0,026
-364,942	-200,000	0,033	-0,127
-363,927	800,000	-0,041	0,094
-362,912	-24,170	-0,053	0,023
-361,898	-200,000	0,000	0,051
-360,883	429,852	-0,063	-0,099
-359,869	-186,531	-0,096	0,001
-358,854	494,430	0,060	-0,100
-357,839	72,544	-0,043	-0,032
-356,825	712,519	0,064	0,123
-355,810	-200,000	-0,003	0,042
-354,796	-200,000	0,032	-0,119
-353,781	800,000	-0,013	0,029
-352,766	800,000	0,067	-0,154
-351,752	800,000	0,043	-0,123
-350,737	-1,069	0,074	0,037
-349,723	700,914	0,047	0,089
-348,708	359,400	0,118	0,170
-347,693	48,238	0,071	0,048
-346,679	-140,873	-0,144	0,010
-345,664	-200,000	-0,012	-0,068
-344,650	-58,130	0,079	0,024
-343,635	800,000	0,015	0,032
-342,620	800,000	0,006	0,014
-341,606	434,769	0,081	-0,126
-340,591	-74,129	-0,024	0,006
-339,577	333,079	-0,059	0,082
-338,562	93,096	-0,054	0,043
-337,548	800,000	-0,020	-0,050
-336,533	55,647	-0,017	-0,012
-335,518	364,563	0,084	-0,121
-334,504	-200,000	0,013	-0,055
-333,489	800,000	-0,028	0,084
-332,475	-200,000	-0,016	-0,061
-331,460	199,358	-0,004	0,005
-330,445	154,484	-0,069	-0,068
-329,431	-132,224	0,104	0,009
-328,416	800,000	-0,027	0,078
-327,402	149,402	0,087	-0,084
-326,387	-200,000	0,005	-0,037
-325,372	-200,000	-0,002	-0,024
-324,358	-200,000	0,011	-0,052
-323,343	269,995	0,104	0,131
-322,329	-179,242	0,071	-0,001
-321,314	800,000	0,029	0,068
-320,299	122,945	0,064	0,058
-319,285	24,439	0,077	-0,045
-318,270	102,917	-0,017	0,014
-317,256	443,561	-0,046	-0,073
-316,241	800,000	0,019	-0,040
-315,226	-126,084	0,053	0,006
-314,212	-200,000	0,005	0,158
-313,197	131,185	0,047	0,043
-312,183	487,836	-0,050	0,083
-311,168	800,000	-0,023	-0,054
-310,153	198,939	-0,034	0,037
-309,139	-200,000	-0,052	-0,219
-308,124	-200,000	0,032	0,114
-307,110	166,706	0,089	0,090
-306,095	159,900	0,071	0,071
-305,080	800,000	0,040	0,088
-304,066	-200,000	0,017	-0,065
-303,051	-3,159	-0,105	-0,052
-302,037	-83,581	-0,047	0,011
-301,022	-200,000	0,008	-0,026
-300,008	67,015	-0,094	0,069
-298,993	16,548	0,135	-0,076
-297,978	-200,000	-0,017	0,145
-296,964	184,583	-0,027	-0,029
-295,949	65,874	-0,241	-0,175
-294,935	-200,000	-0,007	-0,023
-293,920	8,099	0,172	0,092
-292,905	-144,739	0,033	0,002
-291,891	185,885	-0,102	0,108
-290,876	-63,511	0,054	-0,016
-289,862	-51,090	0,071	-0,024
-288,847	800,000	-0,061	-0,174
-287,832	-188,632	0,090	-0,001
-286,818	336,650	0,105	-0,146
-285,803	-112,915	0,033	-0,005
-284,789	800,000	-0,067	0,202
-283,774	326,739	-0,020	-0,028
-282,759	-200,000	-0,025	-0,108
-281,745	800,000	-0,023	-0,047
-280,730	-200,000	0,011	-0,099
-279,716	20,097	0,032	0,018
-278,701	-89,344	0,108	-0,022
-277,686	-200,000	0,011	0,142
-276,672	160,048	0,042	0,042
-275,657	-8,778	-0,093	0,044
-274,643	-157,193	0,111	0,005
-273,628	691,930	-0,082	-0,154
-272,613	-200,000	0,022	-0,081
-271,599	-10,949	-0,069	-0,032
-270,584	-200,000	0,019	-0,110
-269,570	-114,327	-0,133	-0,018
-268,555	-200,000	0,014	-0,115
-267,540	-200,000	-0,017	-0,086
-266,526	552,468	-0,078	-0,134
-265,511	213,148	0,065	-0,073
-264,497	-7,705	0,119	-0,057
-263,482	-74,571	0,231	-0,059
-262,467	56,419	0,064	0,044
-261,453	-200,000	0,024	0,082
-260,438	416,281	0,045	-0,069
-259,424	47,209	0,056	0,037
-258,409	-200,000	0,044	0,197
-257,395	41,387	-0,061	-0,040
-256,380	-200,000	0,000	0,125
-255,365	373,123	0,088	0,129
-254,351	87,068	0,066	0,052
-253,336	366,599	-0,072	-0,104
-252,322	-94,806	-0,049	0,009
-251,307	160,649	0,052	-0,052
-250,292	273,764	-0,018	-0,023
-249,278	359,712	0,095	0,135
-248,263	38,425	0,064	0,041
-247,249	-200,000	0,001	0,100
-246,234	238,767	-0,066	-0,079
-245,219	800,000	0,027	0,067
-244,205	281,374	-0,030	-0,039
-243,190	274,570	0,084	0,107
-242,176	129,203	0,019	0,017
-241,161	47,009	-0,040	0,027
-240,146	-78,763	0,124	-0,030
-239,132	-33,076	0,137	-0,054
-238,117	800,000	-0,008	0,017
-237,103	-200,000	-0,039	-0,150
-236,088	800,000	0,022	-0,053
-235,073	-200,000	-0,013	-0,043
-234,059	-200,000	0,026	-0,090
-233,044	-10,806	-0,055	0,026
-232,030	118,137	-0,121	0,106
-231,015	747,200	-0,038	0,073
-230,000	-200,000	-0,018	-0,122
-228,986	208,247	0,043	0,048
-227,971	-139,046	-0,044	-0,003
-226,957	-15,658	0,119	-0,054
-225,942	-56,885	-0,112	0,035
-224,927	800,000	-0,026	-0,053
-223,913	657,251	-0,030	0,056
-222,898	45,111	-0,126	-0,083
-221,884	172,779	0,116	-0,120
-220,869	296,467	-0,056	0,074
-219,855	-80,917	0,057	-0,013
-218,840	664,257	0,029	0,054
-217,825	800,000	0,048	0,119
-216,811	701,471	-0,101	-0,191
-215,796	-133,636	-0,129	-0,011
-214,782	116,963	-0,065	0,057
-213,767	-200,000	-0,010	0,039
-212,752	178,116	0,073	-0,076
-211,738	292,526	0,044	0,057
-210,723	-76,004	0,048	-0,012
-209,709	-71,872	-0,061	0,016
-208,694	597,511	-0,051	-0,090
-207,679	800,000	0,026	-0,056
-206,665	208,472	-0,046	-0,052
-205,650	-32,062	0,040	0,016
-204,636	371,724	-0,051	0,074
-203,621	90,056	-0,021	0,016
-202,606	-0,670	-0,058	-0,029
-201,592	59,014	0,056	0,039
-200,577	85,518	0,115	-0,090
-199,563	342,159	0,059	0,082
-198,548	-143,578	0,043	0,003
-197,533	800,000	-0,049	-0,145
-196,519	-40,865	0,122	-0,045
-195,504	-101,253	-0,035	-0,006
-194,490	362,888	0,087	-0,125
-193,475	156,907	-0,101	0,099
-192,460	800,000	0,032	0,069
-191,446	-126,602	-0,081	0,008
-190,431	529,488	-0,017	0,028
-189,417	16,678	0,147	-0,083
-188,402	226,272	0,024	0,028
-187,387	149,721	0,025	-0,024
-186,373	-133,151	-0,047	0,004
-185,358	-33,115	-0,092	0,036
-184,344	-200,000	-0,002	0,063
-183,329	98,105	-0,085	-0,070
-182,315	-19,788	0,041	-0,018
-181,300	534,766	-0,028	0,047
-180,285	800,000	0,016	-0,043
-179,271	158,698	-0,108	-0,107
-178,256	-200,000	0,022	-0,144
-177,242	309,437	0,032	-0,043
-176,227	-42,843	0,113	0,041
-175,212	-200,000	0,002	-0,067
-174,198	311,600	-0,035	-0,046
-173,183	-104,517	-0,068	0,011
-172,169	-200,000	0,009	-0,138
-171,154	-122,198	0,120	0,014
-170,139	-196,872	-0,139	0,001
-169,125	386,914	0,104	0,154
-168,110	-5,075	-0,139	0,068
-167,096	-165,233	-0,078	-0,002
-166,081	-179,024	0,029	-0,000
-165,066	203,871	-0,087	-0,096
-164,052	-76,631	0,062	0,015
-163,037	102,653	-0,079	-0,066
-162,023	785,867	0,036	0,071
-161,008	-200,000	0,009	0,050
-159,993	-200,000	0,007	0,036
-158,979	133,166	0,041	0,037
-157,964	94,253	-0,046	-0,037
-156,950	-200,000	0,027	0,157
-155,935	-180,156	-0,021	0,000
-154,920	297,201	-0,039	0,051
-153,906	800,000	0,041	0,087
-152,891	117,270	0,070	-0,062
-151,877	148,014	-0,007	0,007
-150,862	-200,000	0,012	-0,056
-149,847	-181,474	0,110	0,001
-148,833	-95,011	0,126	0,024
-147,818	35,965	-0,109	-0,068
-146,804	82,259	0,074	0,057
-145,789	800,000	0,010	0,020
-144,775	-200,000	-0,017	-0,082
-143,760	-71,100	-0,101	-0,027
-142,745	38,602	0,112	-0,071
-141,731	-127,052	0,023	-0,002
-140,716	256,782	0,039	0,048
-139,702	229,995	-0,067	0,078
-138,687	-200,000	-0,009	0,051
-137,672	-115,212	0,023	0,003
-136,658	-134,415	-0,108	0,009
-135,643	256,971	0,091	0,112
-134,629	130,411	0,091	0,083
-133,614	284,110	0,072	-0,092
-132,599	-35,591	-0,059	0,022
-131,585	-112,412	0,039	0,005
-130,570	-60,098	0,066	-0,020
-129,556	608,000	-0,091	-0,162
-128,541	23,699	-0,078	0,046
-127,526	-200,000	0,005	-0,113
-126,512	62,844	0,034	0,024
-125,497	-200,000	0,016	0,068
-124,483	27,376	-0,036	0,021
-123,468	-200,000	-0,009	0,078
-122,453	-7,277	-0,068	-0,033
-121,439	121,047	0,100	0,089
-120,424	414,925	-0,062	-0,095
-119,410	-137,388	-0,038	0,003
-118,395	800,000	0,015	0,046
-117,380	-200,000	-0,033	0,107
-116,366	800,000	0,075	0,157
-115,351	-73,280	-0,145	0,037
-114,337	800,000	0,030	-0,089
-113,322	-94,400	-0,023	0,004
-112,307	22,283	-0,056	0,032
-111,293	485,671	0,090	0,147
-110,278	397,980	0,012	-0,018
-109,264	-50,423	0,047	0,016
-108,249	60,298	0,081	0,057
-107,234	-200,000	-0,025	-0,102
-106,220	392,664	0,058	0,086
-105,205	-200,000	-0,016	-0,205
-104,191	238,769	0,081	0,095
-103,176	434,139	0,061	-0,094
-102,162	-110,451	-0,136	0,020
-101,147	208,521	0,031	0,035
-100,132	-200,000	0,004	-0,153
-99,118	96,344	0,011	0,009
-98,103	70,927	0,065	-0,048
-97,089	-83,889	0,065	0,015
-96,074	241,096	0,106	-0,126
-95,059	-101,880	0,071	-0,012
-94,045	110,614	-0,008	-0,007
-93,030	-200,000	0,000	-0,072
-92,016	132,163	0,084	-0,077
-91,001	800,000	-0,024	0,051
-89,986	-166,186	0,096	-0,003
-88,972	-8,624	0,021	-0,010
-87,957	539,477	0,044	-0,074
-86,943	125,601	0,110	0,099
-85,928	-93,311	0,042	-0,008
-84,913	800,000	0,009	0,018
-83,899	403,522	-0,097	0,146
-82,884	85,583	0,173	-0,135
-81,870	-12,213	-0,054	0,025
-80,855	-200,000	-0,006	0,046
-79,840	-67,734	-0,027	-0,007
-78,826	800,000	-0,056	0,126
-77,811	800,000	-0,035	-0,069
-76,797	-200,000	0,035	-0,133
-75,782	800,000	0,047	-0,119
-74,767	-200,000	0,025	0,122
-73,753	-200,000	0,007	-0,038
-72,738	-200,000	-0,040	0,179
-71,724	-47,115	-0,119	0,041
-70,709	-54,338	-0,063	0,020
-69,694	800,000	-0,019	-0,051
-68,680	-200,000	0,000	0,079
-67,665	-43,869	0,100	-0,035
-66,651	-109,493	0,227	0,034
-65,636	-200,000	-0,007	-0,042
-64,622	-200,000	0,003	0,032
-63,607	31,531	-0,055	0,033
-62,592	124,914	-0,024	-0,022
-61,578	-24,600	0,070	0,029
-60,563	730,882	-0,049	0,093
-59,549	-131,620	-0,081	-0,007
-58,534	-21,885	-1,499	-0,643
-57,519	460,771	-1,287	-2,039
-56,505	-200,000	-0,472	-4,527
-55,490	179,307	1,127	1,169
-54,476	800,000	4,970	11,142
-53,461	-200,000	18,952	318,366
-52,446	-200,000	740,345	2336,045
-51,432	574,851	1656,012	2874,588
-50,417	78,625	1671,674	1264,766
-49,403	21,500	1544,600	887,513
-48,388	15,379	1467,003	813,137
-47,373	17,930	1457,105	819,955
-46,359	16,754	1446,961	808,573
-45,344	13,664	1442,269	791,105
-44,330	13,565	1440,704	789,741
-43,315	13,592	1438,609	788,687
-42,300	13,619	1436,920	787,860
-41,286	13,609	1435,916	787,232
-40,271	13,588	1434,587	786,370
-39,257	13,575	1433,238	785,539
-38,242	13,676	1431,774	785,185
-37,227	13,617	1430,993	784,448
-36,213	13,654	1429,302	783,665
-35,198	13,611	1428,352	782,906
-34,184	13,671	1427,416	782,648
-33,169	13,597	1425,995	781,487
-32,154	13,688	1424,999	781,341
-31,140	13,680	1423,646	780,530
-30,125	13,658	1422,596	779,819
-29,111	13,659	1421,438	779,161
-28,096	13,627	1420,400	778,406
-27,082	13,612	1419,154	777,621
-26,067	13,571	1418,160	776,856
-25,052	13,552	1416,963	776,077
-24,038	13,549	1415,966	775,486
-23,023	13,489	1415,077	774,686
-22,009	13,525	1414,002	774,235
-20,994	13,540	1413,119	773,793
-19,979	13,501	1412,278	773,121
-18,965	13,547	1411,328	772,786
-17,950	13,503	1410,570	772,130
-16,936	13,522	1409,547	771,629
-15,921	13,473	1408,575	770,839
-14,906	13,434	1407,581	770,083
-13,892	13,494	1406,475	769,725
-12,877	13,461	1405,687	769,110
-11,863	13,517	1404,663	768,780
-10,848	13,453	1403,903	768,037
-9,833	13,461	1403,020	767,558
-8,819	13,367	1402,293	766,691
-7,804	13,370	1401,239	766,102
-6,790	13,392	1400,169	765,590
-5,775	13,370	1399,224	764,940
-4,760	13,340	1398,191	764,202
-3,746	13,353	1397,233	763,711
-2,731	13,337	1396,653	763,288
-1,717	13,366	1395,505	762,766
-0,702	13,331	1393,887	761,689
0,313	17,218	1310,690	734,237
1,327	33,456	704,421	432,185
2,342	51,138	123,324	82,681
3,356	4,472	16,641	8,612
4,371	4,752	3,339	1,731
5,386	4,260	0,604	0,312
6,400	126,034	0,141	0,127
7,415	89,825	-0,227	-0,179
8,429	22,293	-0,212	-0,122
9,444	85,322	-0,269	-0,209
10,459	31,772	-0,319	-0,194
11,473	24,641	-0,277	-0,162
12,488	-28,122	-0,287	-0,117
13,502	112,124	-0,311	-0,266
14,517	155,493	-0,287	-0,279
15,531	51,258	-0,399	-0,267
16,546	65,548	-0,259	-0,185
17,561	255,275	-0,311	-0,377
18,575	1,829	-0,220	-0,112
19,590	207,180	-0,206	-0,227
20,604	61,515	-0,208	-0,146
21,619	210,621	-0,307	-0,341
22,634	83,423	-0,451	-0,347
23,648	14,049	-0,464	-0,255
24,663	97,707	-0,355	-0,289
25,677	53,403	-0,347	-0,235
26,692	-11,899	-0,400	-0,184
27,707	0,811	-0,405	-0,204
28,721	65,197	-0,411	-0,293
29,736	85,089	-0,435	-0,337
30,750	100,504	-0,372	-0,305
31,765	196,459	-0,286	-0,308
32,780	65,459	-0,370	-0,264
33,794	190,994	-0,366	-0,389
34,809	40,373	-0,395	-0,251
35,823	102,778	-0,364	-0,301
36,838	356,623	-0,315	-0,445
37,853	-3,701	-0,464	-0,227
38,867	303,453	-0,243	-0,318
39,882	236,958	-0,283	-0,331
40,896	53,686	-0,350	-0,237
41,911	66,416	-0,330	-0,236
42,926	50,161	-0,364	-0,242
43,940	106,444	-0,294	-0,245
44,955	40,683	-0,502	-0,318
45,969	137,457	-0,410	-0,378
46,984	169,538	-0,286	-0,288
47,999	54,472	-0,275	-0,187
49,013	-7,562	-0,349	-0,166
50,028	22,675	-0,397	-0,229
51,042	68,808	-0,232	-0,168
52,057	155,104	-0,333	-0,323
53,071	331,415	-0,251	-0,343
54,086	120,474	-0,243	-0,213
55,101	-71,982	-0,392	-0,102
56,115	462,493	-0,228	-0,360
57,130	18,347	-0,358	-0,201
58,144	47,762	-0,438	-0,288
59,159	223,973	-0,245	-0,279
60,174	37,962	-0,402	-0,252
61,188	91,738	-0,230	-0,182
62,203	-5,052	-0,269	-0,130
63,217	-11,900	-0,319	-0,147
64,232	73,895	-0,356	-0,263
65,247	19,563	-0,370	-0,209
66,261	80,295	-0,308	-0,233
67,276	126,820	-0,342	-0,305
68,290	32,063	-0,296	-0,179
69,305	410,099	-0,144	-0,216
70,320	79,537	-0,348	-0,263
71,334	128,015	-0,332	-0,297
72,349	109,136	-0,280	-0,235
73,363	-70,814	-0,322	-0,085
74,378	131,171	-0,183	-0,165
75,393	80,535	-0,433	-0,327
76,407	-15,507	-0,350	-0,157
77,422	78,800	-0,283	-0,213
78,436	-11,776	-0,332	-0,153
79,451	146,461	-0,227	-0,214
80,466	89,868	-0,369	-0,289
81,480	242,263	-0,167	-0,197
82,495	-15,511	-0,294	-0,132
83,509	36,090	-0,242	-0,150
84,524	64,617	-0,307	-0,217
85,539	-29,652	-0,200	-0,080
86,553	47,796	-0,339	-0,222
87,568	52,160	-0,356	-0,238
88,582	181,357	-0,343	-0,355
89,597	271,886	-0,188	-0,234
90,611	20,270	-0,257	-0,145
91,626	-36,769	-0,317	-0,119
92,641	41,968	-0,237	-0,151
93,655	15,085	-0,275	-0,151
94,670	162,867	-0,307	-0,303
95,684	190,777	-0,228	-0,241
96,699	-69,196	-0,224	-0,060
97,714	70,484	-0,328	-0,238
98,728	-7,414	-0,257	-0,122
99,743	-33,595	-0,310	-0,119
100,757	-9,721	-0,183	-0,085
101,772	9,002	-0,221	-0,117
102,787	22,188	-0,293	-0,167
103,801	35,090	-0,351	-0,215
104,816	79,317	-0,286	-0,215
105,830	-42,409	-0,349	-0,124
106,845	-2,284	-0,372	-0,182
107,860	124,122	-0,234	-0,206
108,874	358,627	-0,192	-0,270
109,889	295,663	-0,250	-0,321
110,903	304,880	-0,226	-0,295
111,918	-61,538	-0,346	-0,101
112,933	78,127	-0,257	-0,192
113,947	357,504	-0,092	-0,129
114,962	-45,821	-0,209	-0,072
115,976	25,377	-0,255	-0,148
116,991	68,080	-0,256	-0,184
118,006	67,538	-0,245	-0,175
119,020	392,439	-0,163	-0,238
120,035	65,732	-0,246	-0,174
121,049	-3,458	-0,247	-0,120
122,064	-21,670	-0,247	-0,105
123,079	-15,585	-0,205	-0,091
124,093	131,659	-0,251	-0,226
125,108	227,818	-0,234	-0,267
126,122	42,762	-0,240	-0,153
127,137	19,888	-0,163	-0,092
128,151	-22,875	-0,203	-0,085
129,166	115,561	-0,176	-0,150
130,181	-52,575	-0,308	-0,099
131,195	105,484	-0,340	-0,281
132,210	67,154	-0,311	-0,221
133,224	90,025	-0,326	-0,255
134,239	31,130	-0,287	-0,172
135,254	87,030	-0,149	-0,115
136,268	478,454	-0,167	-0,266
137,283	38,068	-0,256	-0,159
138,297	-58,870	-0,309	-0,093
139,312	7,190	-0,345	-0,179
140,327	296,166	-0,199	-0,255
141,341	-10,605	-0,280	-0,129
142,356	44,055	-0,248	-0,159
143,370	257,197	-0,231	-0,278
144,385	156,572	-0,233	-0,225
145,400	-85,813	-0,402	-0,086
146,414	36,801	-0,232	-0,143
147,429	-150,067	-0,297	0,016
148,443	-98,438	-0,281	-0,050
149,458	111,917	-0,291	-0,245
150,473	249,646	-0,173	-0,206
151,487	-27,080	-0,226	-0,091
152,502	55,882	-0,224	-0,151
153,516	-104,556	-0,259	-0,041
154,531	285,828	-0,215	-0,272
155,546	-15,669	-0,243	-0,108
156,560	54,070	-0,170	-0,114
157,575	26,969	-0,279	-0,163
158,589	94,039	-0,243	-0,193
159,604	23,062	-0,224	-0,128
160,619	86,472	-0,274	-0,210
161,633	22,507	-0,192	-0,109
162,648	168,760	-0,120	-0,120
163,662	91,867	-0,267	-0,210
164,677	95,840	-0,202	-0,161
165,692	-62,510	-0,257	-0,074
166,706	-54,022	-0,194	-0,061
167,721	54,431	-0,245	-0,165
168,735	12,004	-0,205	-0,110
169,750	176,260	-0,154	-0,156
170,764	99,820	-0,167	-0,135
171,779	-15,116	-0,303	-0,135
172,794	125,840	-0,127	-0,112
173,808	88,373	-0,231	-0,179
174,823	63,659	-0,251	-0,175
175,837	263,296	-0,190	-0,230
176,852	452,436	-0,149	-0,231
177,867	46,471	-0,129	-0,083
178,881	318,062	-0,145	-0,191
179,896	-66,180	-0,155	-0,043
180,910	246,002	-0,230	-0,271
181,925	149,404	-0,216	-0,203
182,940	-47,019	-0,238	-0,080
183,954	42,410	-0,201	-0,127
184,969	642,778	-0,106	-0,189
185,983	306,618	-0,104	-0,135
186,998	174,660	-0,221	-0,223
188,013	50,968	-0,178	-0,118
189,027	43,849	-0,273	-0,174
190,042	44,763	-0,304	-0,194
191,056	337,374	-0,187	-0,254
192,071	145,904	-0,250	-0,233
193,086	134,785	-0,125	-0,113
194,100	185,590	-0,191	-0,197
195,115	94,099	-0,152	-0,120
196,129	-200,000	-0,271	-0,001
197,144	-3,229	-0,232	-0,112
198,159	342,815	-0,190	-0,259
199,173	107,017	-0,220	-0,182
200,188	-49,986	-0,250	-0,082
201,202	-200,000	-0,053	-0,174
202,217	135,129	-0,203	-0,184
203,232	87,135	-0,245	-0,188
204,246	-66,804	-0,270	-0,074
205,261	15,363	-0,253	-0,138
206,275	48,941	-0,291	-0,190
207,290	224,274	-0,139	-0,156
208,304	118,388	-0,202	-0,173
209,319	66,298	-0,170	-0,120
210,334	-7,889	-0,166	-0,078
211,348	-64,739	-0,246	-0,069
212,363	82,723	-0,259	-0,196
213,377	111,345	-0,189	-0,158
214,392	-117,331	-0,175	-0,022
215,407	-103,234	-0,217	-0,035
216,421	-106,077	-0,200	-0,031
217,436	397,694	-0,160	-0,233
218,450	800,000	-0,092	-0,264
219,465	210,050	-0,115	-0,125
220,480	800,000	-0,063	-0,123
221,494	4,164	-0,172	-0,087
222,509	155,775	-0,139	-0,133
223,523	-60,873	-0,281	-0,082
224,538	67,844	-0,175	-0,124
225,553	-36,955	-0,143	-0,053
226,567	-23,209	-0,302	-0,126
227,582	-166,685	-0,204	-0,006
228,596	58,918	-0,260	-0,177
229,611	-184,910	-0,163	-0,002
230,626	-8,570	-0,160	-0,074
231,640	35,412	-0,295	-0,179
232,655	120,603	-0,194	-0,167
233,669	108,247	-0,303	-0,251
234,684	116,593	-0,205	-0,174
235,699	800,000	-0,132	-0,282
236,713	285,728	-0,121	-0,151
237,728	333,078	-0,067	-0,090
238,742	-44,626	-0,235	-0,081
239,757	357,782	-0,087	-0,121
240,772	58,582	-0,268	-0,182
241,786	134,050	-0,140	-0,125
242,801	43,330	-0,135	-0,085
243,815	153,715	-0,155	-0,147
244,830	93,744	-0,158	-0,124
245,844	-16,411	-0,164	-0,072
246,859	80,576	-0,247	-0,185
247,874	43,051	-0,216	-0,136
248,888	539,745	-0,150	-0,248
249,903	192,463	-0,223	-0,233
250,917	132,762	-0,144	-0,128
251,932	267,255	-0,166	-0,202
252,947	-39,757	-0,147	-0,053
253,961	25,049	-0,262	-0,150
254,976	327,061	-0,224	-0,299
255,990	160,350	-0,193	-0,186
257,005	800,000	-0,094	-0,226
258,020	800,000	-0,089	-0,197
259,034	301,212	-0,229	-0,293
260,049	-72,988	-0,169	-0,043
261,063	800,000	-0,133	-0,277
262,078	44,705	-0,286	-0,182
263,093	-85,583	-0,188	-0,040
264,107	207,514	-0,183	-0,198
265,122	-4,800	-0,165	-0,078
266,136	285,928	-0,098	-0,122
267,151	-18,657	-0,133	-0,057
268,166	195,262	-0,159	-0,167
269,180	402,026	-0,189	-0,275
270,195	422,826	-0,147	-0,219
271,209	166,289	-0,214	-0,210
272,224	93,017	-0,098	-0,077
273,239	-57,689	-0,165	-0,050
274,253	203,575	-0,114	-0,122
275,268	36,283	-0,262	-0,159
276,282	727,597	-0,153	-0,283
277,297	-17,738	-0,252	-0,109
278,312	656,403	-0,083	-0,148
279,326	-1,448	-0,093	-0,045
280,341	-15,686	-0,158	-0,069
281,355	560,591	-0,081	-0,136
282,370	-3,941	-0,157	-0,075
283,384	-104,942	-0,203	-0,032
284,399	-76,525	-0,214	-0,052
285,414	-36,235	-0,148	0,055
286,428	-161,048	-0,225	0,008
287,443	-200,000	-0,002	-0,169
288,457	159,050	-0,113	-0,109
289,472	-74,396	-0,160	-0,040
290,487	646,822	-0,107	-0,190
291,501	30,024	-0,197	-0,115
292,516	-12,128	-0,150	-0,068
293,530	92,466	-0,118	-0,092
294,545	785,147	-0,039	-0,074
295,560	-200,000	0,013	-0,136
296,574	-42,626	-0,172	-0,060
297,589	-63,351	-0,234	-0,066
298,603	94,472	-0,192	-0,151
299,618	274,456	-0,173	-0,212
300,633	126,126	-0,180	-0,157
301,647	800,000	-0,125	-0,266
302,662	-200,000	0,021	-0,214
303,676	423,753	-0,097	-0,144
304,691	-163,212	-0,139	0,005
305,706	46,242	-0,154	-0,098
306,720	158,698	-0,200	-0,191
307,735	800,000	-0,111	-0,337
308,749	74,404	-0,153	-0,111
309,764	-200,000	-0,033	-0,140
310,779	326,230	0,024	-0,032
311,793	679,186	-0,138	-0,248
312,808	466,888	-0,090	-0,139
313,822	343,069	-0,178	-0,241
314,837	11,553	-0,140	-0,074
315,852	189,318	-0,136	-0,141
316,866	-180,880	-0,073	-0,001
317,881	-10,357	-0,147	-0,067
318,895	15,220	-0,302	-0,163
319,910	69,907	-0,095	-0,068
320,925	21,965	-0,097	-0,055
321,939	310,331	-0,111	-0,143
322,954	-37,267	-0,150	-0,055
323,968	-159,724	-0,119	-0,004
324,983	44,228	-0,091	-0,057
325,997	274,826	-0,065	-0,079
327,012	23,753	-0,140	-0,079
328,027	663,418	-0,110	-0,196
329,041	800,000	-0,056	-0,164
330,056	-61,774	-0,146	-0,042
331,070	-200,000	-0,014	-0,155
332,085	325,041	-0,118	-0,155
333,100	-21,693	-0,170	-0,071
334,114	212,548	-0,054	-0,058
335,129	-200,000	-0,008	-0,238
336,143	-20,436	-0,093	-0,039
337,158	28,881	-0,050	0,029
338,173	583,930	-0,026	-0,045
339,187	82,721	-0,116	-0,086
340,202	173,510	-0,059	-0,059
341,216	-119,329	-0,315	-0,037
342,231	556,582	-0,098	-0,164
343,246	-200,000	-0,055	-0,174
344,260	210,251	-0,121	-0,131
345,275	800,000	0,033	-0,080
346,289	-93,718	-0,293	-0,055
347,304	412,799	-0,039	-0,057
348,319	81,168	-0,116	-0,086
349,333	98,429	-0,259	-0,205
350,348	451,271	-0,063	-0,096
351,362	101,926	-0,058	-0,047
352,377	143,955	-0,089	-0,082
353,392	404,893	-0,068	-0,099
354,406	21,626	-0,090	0,050
355,421	208,543	1314,613	1412,938
356,435	160,467	1475,317	1413,421
