DTS Sentinel unit serial number:	SN410029Multiplexer serial number:	ORYXHardware model number:	OX2-SRSoftware version number:	ORYX F/W v4,00 Oryx Data Collector v3.7.2.0data status	okinstallation	B3 Nyhavnadifferential loss correction	single-endedforward channel	channel 1reverse channel	N/Adate	2023/12/01time	06:32:30forward acquisition time	300,00reverse acquisition time	0,00gamma	499,1914k internal	0,3213k external	0,3213temperature offset calibration	1,0000default loss term (dB/km)	0,3820temperature slope calibration	1,0000multiplexer offset coefficient	1,0000multiplexer slope coefficient	1,0000fibre end	0,00T internal ref (°C)	7,80T ext. ref 1 (°C)	-6,47T ext. ref 2 (°C)	-6,64length (m)	temperature (°C)	Stokes	anti-Stokes-744,400	800,000	-0,098	-0,287
-743,385	800,000	-0,122	0,259
-742,371	218,835	-0,115	-0,134
-741,356	555,556	0,122	0,213
-740,342	338,987	-0,164	-0,233
-739,327	800,000	-0,058	0,118
-738,312	124,934	-0,257	-0,234
-737,298	800,000	-0,045	0,129
-736,283	621,331	-0,150	-0,275
-735,269	-200,000	-0,030	0,316
-734,254	-200,000	0,043	-0,182
-733,239	-62,075	-0,148	0,044
-732,225	-200,000	-0,032	-0,197
-731,210	297,623	-0,061	0,081
-730,196	63,064	0,090	-0,065
-729,181	161,730	0,037	0,037
-728,167	-97,296	-0,167	0,031
-727,152	-13,601	-0,045	0,021
-726,137	-200,000	-0,030	-0,148
-725,123	192,823	-0,167	-0,183
-724,108	-87,477	-0,154	-0,033
-723,094	-200,000	0,003	-0,098
-722,079	14,511	0,052	-0,029
-721,064	-55,244	-0,109	0,035
-720,050	-93,460	0,048	-0,009
-719,035	-200,000	0,007	-0,149
-718,021	-22,383	-0,080	-0,035
-717,006	-200,000	-0,022	-0,086
-715,991	-200,000	-0,007	-0,157
-714,977	651,871	-0,089	-0,166
-713,962	108,839	-0,043	0,037
-712,948	-200,000	0,016	0,107
-711,933	800,000	0,027	0,071
-710,918	34,414	-0,070	-0,044
-709,904	-200,000	-0,022	0,100
-708,889	-136,306	-0,081	0,007
-707,875	-15,212	-0,240	-0,111
-706,860	-147,457	-0,065	0,004
-705,845	154,450	-0,077	0,076
-704,831	-44,813	0,027	0,010
-703,816	-64,911	0,111	0,032
-702,802	505,004	-0,067	0,112
-701,787	-46,667	-0,086	-0,030
-700,772	535,107	0,043	-0,074
-699,758	800,000	0,053	-0,108
-698,743	-49,601	0,128	-0,044
-697,729	-200,000	-0,029	-0,100
-696,714	22,424	0,125	-0,074
-695,699	-200,000	0,003	-0,041
-694,685	-200,000	0,029	-0,111
-693,670	-200,000	0,009	-0,066
-692,656	254,212	-0,102	-0,126
-691,641	188,476	-0,052	-0,056
-690,627	97,528	0,041	0,034
-689,612	230,918	0,069	-0,082
-688,597	-91,082	-0,102	-0,021
-687,583	81,790	-0,026	-0,020
-686,568	-76,239	-0,051	-0,013
-685,554	532,181	0,025	0,044
-684,539	-200,000	0,019	-0,104
-683,524	-144,005	-0,098	-0,007
-682,510	-143,875	0,126	0,008
-681,495	-200,000	-0,001	0,027
-680,481	117,278	-0,115	-0,102
-679,466	-200,000	0,031	-0,249
-678,451	-104,855	-0,068	0,011
-677,437	-200,000	-0,006	-0,020
-676,422	239,993	0,052	-0,063
-675,408	-200,000	-0,011	0,040
-674,393	75,303	0,046	-0,035
-673,378	-179,644	-0,119	-0,002
-672,364	-5,155	0,085	-0,042
-671,349	-117,346	-0,230	0,030
-670,335	-200,000	0,009	0,068
-669,320	800,000	0,046	0,108
-668,305	-93,963	-0,101	0,020
-667,291	-200,000	-0,008	-0,084
-666,276	247,921	0,055	-0,067
-665,262	89,294	-0,235	-0,189
-664,247	248,148	-0,092	-0,113
-663,232	-98,446	-0,044	-0,008
-662,218	62,909	0,059	0,043
-661,203	421,255	-0,013	0,021
-660,189	183,098	-0,056	-0,060
-659,174	800,000	-0,053	-0,107
-658,159	-170,249	0,102	-0,003
-657,145	294,873	-0,036	-0,048
-656,130	-200,000	0,015	-0,124
-655,116	170,313	0,086	-0,089
-654,101	800,000	-0,043	-0,098
-653,086	80,935	0,066	-0,052
-652,072	-151,337	-0,058	0,003
-651,057	174,825	-0,067	-0,070
-650,043	104,651	-0,089	-0,076
-649,028	6,454	-0,101	0,054
-648,014	-163,176	0,091	-0,003
-646,999	-200,000	-0,002	-0,116
-645,984	335,842	-0,078	0,110
-644,970	794,667	0,045	0,091
-643,955	108,510	0,056	0,048
-642,941	-200,000	-0,031	-0,141
-641,926	292,682	-0,036	-0,047
-640,911	79,681	0,098	-0,076
-639,897	800,000	-0,027	0,064
-638,882	17,301	-0,085	0,049
-637,868	167,988	0,122	-0,125
-636,853	635,018	-0,061	0,111
-635,838	-56,044	0,036	-0,012
-634,824	-34,144	0,054	-0,021
-633,809	71,368	0,057	-0,043
-632,795	169,958	-0,155	0,160
-631,780	83,342	0,091	-0,071
-630,765	-200,000	-0,020	0,145
-629,751	46,247	-0,128	0,086
-628,736	-200,000	0,003	0,073
-627,722	-120,015	0,040	-0,005
-626,707	-200,000	-0,007	-0,049
-625,692	-200,000	0,006	-0,107
-624,678	-136,081	0,062	-0,005
-623,663	-40,949	-0,037	-0,014
-622,649	-119,243	0,076	-0,009
-621,634	800,000	-0,017	-0,051
-620,619	-78,453	-0,084	0,021
-619,605	573,150	0,092	0,163
-618,590	-200,000	0,011	0,165
-617,576	700,034	-0,054	0,102
-616,561	800,000	-0,071	0,163
-615,546	-182,123	0,069	0,001
-614,532	-16,527	-0,141	-0,064
-613,517	-174,152	0,071	0,001
-612,503	462,040	0,076	0,123
-611,488	-200,000	0,006	0,030
-610,474	-200,000	0,010	-0,084
-609,459	13,002	0,085	0,047
-608,444	-200,000	0,025	-0,122
-607,430	5,178	-0,070	0,037
-606,415	-48,125	-0,016	-0,005
-605,401	-200,000	0,019	-0,231
-604,386	141,719	-0,049	0,047
-603,371	800,000	-0,028	-0,063
-602,357	800,000	0,060	-0,122
-601,342	800,000	-0,055	-0,121
-600,328	274,524	-0,075	0,096
-599,313	-200,000	0,005	-0,054
-598,298	110,635	0,007	0,006
-597,284	800,000	0,021	0,052
-596,269	141,992	0,036	-0,034
-595,255	26,360	-0,006	-0,003
-594,240	43,933	-0,131	0,086
-593,225	-200,000	-0,003	-0,036
-592,211	-200,000	0,030	-0,100
-591,196	-200,000	-0,008	0,049
-590,182	-200,000	-0,019	0,153
-589,167	106,713	-0,114	0,098
-588,152	59,140	0,078	0,055
-587,138	79,596	-0,054	0,041
-586,123	144,903	-0,151	-0,146
-585,109	31,489	0,038	0,023
-584,094	800,000	0,048	-0,144
-583,079	-73,435	0,123	-0,032
-582,065	718,102	0,095	-0,183
-581,050	-200,000	-0,009	-0,039
-580,036	312,075	-0,155	-0,210
-579,021	-170,971	-0,043	-0,001
-578,006	-200,000	-0,003	-0,179
-576,992	-200,000	-0,011	0,036
-575,977	-10,495	0,047	0,022
-574,963	52,906	0,047	0,033
-573,948	-200,000	-0,002	0,144
-572,934	78,829	-0,057	0,044
-571,919	800,000	-0,023	-0,069
-570,904	439,318	-0,130	-0,204
-569,890	471,340	0,066	-0,106
-568,875	442,483	0,054	0,085
-567,861	-145,812	0,065	0,004
-566,846	-200,000	-0,001	0,050
-565,831	-108,870	-0,234	0,036
-564,817	22,259	0,070	-0,041
-563,802	-200,000	-0,024	-0,080
-562,788	529,183	0,070	0,120
-561,773	763,212	0,053	-0,104
-560,758	2,301	0,126	-0,066
-559,744	287,995	0,063	-0,082
-558,729	-64,156	0,129	-0,038
-557,715	800,000	-0,072	-0,152
-556,700	-200,000	-0,021	-0,101
-555,685	227,351	-0,024	0,028
-554,671	217,366	0,094	-0,108
-553,656	-119,970	0,134	0,016
-552,642	136,922	-0,120	-0,113
-551,627	-200,000	0,001	-0,044
-550,612	157,383	-0,078	-0,077
-549,598	-74,573	0,142	-0,037
-548,583	800,000	-0,029	-0,075
-547,569	385,087	0,018	-0,026
-546,554	-200,000	-0,015	0,092
-545,539	466,454	-0,085	0,138
-544,525	301,828	0,080	-0,107
-543,510	218,935	0,055	0,063
-542,496	-25,414	-0,076	-0,032
-541,481	92,522	0,138	-0,112
-540,466	-143,088	-0,096	0,007
-539,452	-200,000	-0,019	-0,109
-538,437	248,398	-0,015	0,019
-537,423	-200,000	-0,040	0,139
-536,408	-43,248	-0,187	0,068
-535,393	444,107	0,064	0,102
-534,379	-107,711	0,160	-0,025
-533,364	366,763	-0,073	-0,107
-532,350	-45,241	-0,058	0,021
-531,335	335,596	-0,019	-0,026
-530,321	-54,552	-0,018	-0,006
-529,306	136,985	0,067	-0,063
-528,291	-54,669	-0,165	-0,053
-527,277	99,878	0,091	0,076
-526,262	303,885	-0,043	-0,058
-525,248	268,950	-0,049	0,062
-524,233	119,671	0,083	-0,074
-523,218	-200,000	-0,004	0,063
-522,204	-110,724	-0,049	-0,007
-521,189	-200,000	-0,001	-0,070
-520,175	800,000	-0,015	-0,046
-519,160	101,761	-0,093	-0,078
-518,145	199,947	0,033	0,037
-517,131	8,411	-0,067	0,036
-516,116	-50,372	-0,080	0,027
-515,102	35,388	0,035	0,022
-514,087	94,240	-0,108	0,088
-513,072	-200,000	-0,003	-0,022
-512,058	363,299	-0,034	-0,049
-511,043	149,414	-0,013	-0,013
-510,029	27,648	-0,023	-0,014
-509,014	-200,000	0,004	0,120
-507,999	51,631	0,151	0,103
-506,985	-122,119	-0,054	-0,006
-505,970	-65,696	-0,103	0,029
-504,956	-200,000	0,002	0,083
-503,941	-99,396	0,052	-0,009
-502,926	-200,000	0,008	-0,102
-501,912	429,289	0,117	0,182
-500,897	92,966	-0,051	0,042
-499,883	-144,510	-0,067	0,004
-498,868	36,946	-0,036	0,023
-497,853	238,304	0,018	-0,022
-496,839	-48,051	-0,058	-0,020
-495,824	369,164	0,017	-0,024
-494,810	725,790	-0,034	0,065
-493,795	-189,014	0,046	-0,000
-492,781	-82,833	0,096	0,022
-491,766	-200,000	0,011	-0,090
-490,751	-200,000	-0,026	-0,112
-489,737	-200,000	-0,015	0,064
-488,722	-200,000	-0,030	0,110
-487,708	88,755	-0,039	0,031
-486,693	-75,750	0,085	-0,021
-485,678	498,375	-0,014	0,023
-484,664	-200,000	-0,015	0,168
-483,649	-89,561	0,080	0,017
-482,635	-200,000	-0,004	-0,029
-481,620	179,220	0,073	0,077
-480,605	-200,000	-0,009	0,138
-479,591	427,749	0,045	0,070
-478,576	-5,090	0,071	-0,035
-477,562	-134,260	0,037	0,003
-476,547	43,255	-0,041	-0,027
-475,532	-42,653	-0,221	-0,080
-474,518	-200,000	0,007	0,134
-473,503	114,421	0,063	0,055
-472,489	95,662	-0,089	0,073
-471,474	148,534	0,066	-0,064
-470,459	313,599	-0,075	-0,102
-469,445	278,424	0,035	0,045
-468,430	-89,640	-0,159	0,033
-467,416	800,000	0,031	-0,064
-466,401	-200,000	0,037	-0,150
-465,386	-55,066	0,120	-0,039
-464,372	-200,000	0,001	0,013
-463,357	384,884	-0,022	-0,033
-462,343	-75,167	-0,137	-0,035
-461,328	-200,000	0,007	-0,154
-460,313	-200,000	0,012	-0,083
-459,299	-80,104	0,113	0,027
-458,284	242,825	0,047	0,057
-457,270	800,000	0,026	0,061
-456,255	-200,000	0,020	0,156
-455,241	154,563	-0,049	-0,048
-454,226	206,118	-0,087	0,097
-453,211	800,000	0,042	0,128
-452,197	-200,000	0,008	-0,039
-451,182	-13,504	0,070	0,032
-450,168	74,752	0,052	0,039
-449,153	144,344	-0,085	-0,081
-448,138	-200,000	0,034	-0,175
-447,124	-125,636	-0,091	0,010
-446,109	-200,000	-0,026	0,089
-445,095	1,724	0,062	0,032
-444,080	-109,288	0,133	-0,020
-443,065	50,058	0,037	0,025
-442,051	-167,559	0,155	0,004
-441,036	21,587	0,118	-0,069
-440,022	-121,156	-0,105	0,012
-439,007	394,405	0,037	-0,056
-437,992	110,535	-0,013	-0,011
-436,978	205,470	-0,038	0,042
-435,963	-76,646	-0,050	-0,013
-434,949	-200,000	0,002	-0,025
-433,934	-161,171	-0,115	0,004
-432,919	-200,000	-0,051	-0,189
-431,905	220,387	0,054	0,062
-430,890	-80,902	-0,118	-0,028
-429,876	-80,537	-0,110	-0,026
-428,861	800,000	0,060	0,127
-427,846	-172,066	-0,181	0,004
-426,832	35,877	-0,087	-0,055
-425,817	-200,000	0,089	-0,000
-424,803	182,977	0,067	0,071
-423,788	54,224	0,217	0,149
-422,773	-135,124	0,172	0,015
-421,759	800,000	-0,033	0,076
-420,744	800,000	-0,042	0,101
-419,730	-172,915	-0,085	0,002
-418,715	587,303	-0,024	-0,043
-417,701	-61,323	0,196	-0,059
-416,686	-200,000	-0,043	0,214
-415,671	592,372	0,038	0,068
-414,657	-200,000	0,004	0,155
-413,642	-200,000	0,022	0,113
-412,628	800,000	0,036	-0,103
-411,613	194,385	-0,118	-0,128
-410,598	-200,000	0,011	-0,124
-409,584	-200,000	-0,003	-0,062
-408,569	14,658	0,094	-0,052
-407,555	-1,988	-0,033	-0,017
-406,540	-66,850	0,164	-0,046
-405,525	278,429	-0,027	-0,035
-404,511	78,813	0,012	0,009
-403,496	596,510	-0,090	-0,160
-402,482	122,213	-0,025	-0,023
-401,467	735,552	-0,068	-0,131
-400,452	109,164	0,018	-0,015
-399,438	286,753	-0,043	0,056
-398,423	140,338	0,044	0,042
-397,409	-78,704	-0,193	-0,047
-396,394	-200,000	0,019	-0,103
-395,379	800,000	0,014	-0,038
-394,365	-33,632	0,126	-0,050
-393,350	-82,169	0,118	0,027
-392,336	212,454	-0,060	0,068
-391,321	262,671	-0,055	0,068
-390,306	800,000	0,010	0,031
-389,292	121,951	0,032	0,028
-388,277	501,587	-0,029	0,048
-387,263	81,513	0,084	0,065
-386,248	77,268	0,037	0,028
-385,233	39,089	-0,113	-0,072
-384,219	293,765	-0,054	0,071
-383,204	-168,866	-0,037	-0,001
-382,190	441,713	0,080	-0,125
-381,175	784,594	-0,042	0,082
-380,160	800,000	0,031	0,080
-379,146	800,000	0,059	0,150
-378,131	313,500	0,095	0,128
-377,117	246,364	-0,087	-0,105
-376,102	800,000	0,063	-0,187
-375,088	265,268	-0,016	0,019
-374,073	161,040	-0,082	-0,081
-373,058	707,843	-0,042	-0,080
-372,044	370,287	-0,035	-0,051
-371,029	-193,274	0,125	0,001
-370,015	176,225	-0,073	0,076
-369,000	-2,081	-0,116	0,058
-367,985	-71,249	0,098	0,026
-366,971	171,757	0,046	0,048
-365,956	-200,000	0,017	-0,137
-364,942	-20,833	-0,021	-0,009
-363,927	51,438	0,098	0,066
-362,912	-200,000	-0,006	0,034
-361,898	800,000	-0,034	0,100
-360,883	-200,000	-0,006	-0,081
-359,869	-200,000	-0,039	-0,148
-358,854	33,734	0,032	-0,020
-357,839	443,197	0,070	-0,110
-356,825	-7,371	0,232	-0,112
-355,810	-200,000	0,019	-0,105
-354,796	-141,469	-0,052	-0,004
-353,781	129,932	-0,081	0,074
-352,766	-16,423	-0,140	-0,063
-351,752	-200,000	0,012	-0,082
-350,737	137,319	0,065	0,060
-349,723	231,807	-0,048	-0,056
-348,708	-156,793	-0,003	0,000
-347,693	113,976	-0,116	0,100
-346,679	208,004	0,039	0,044
-345,664	800,000	0,024	-0,052
-344,650	193,569	0,143	0,155
-343,635	800,000	0,034	0,084
-342,620	-200,000	-0,006	0,099
-341,606	800,000	0,049	0,102
-340,591	148,176	0,049	-0,047
-339,577	10,151	0,104	0,056
-338,562	-80,228	-0,074	0,018
-337,548	800,000	-0,061	0,125
-336,533	-26,528	-0,037	0,016
-335,518	800,000	0,043	0,108
-334,504	376,266	0,078	0,113
-333,489	174,820	-0,111	0,115
-332,475	14,729	0,120	-0,067
-331,460	-200,000	0,021	-0,072
-330,445	121,762	0,060	-0,054
-329,431	-200,000	0,007	0,080
-328,416	4,962	-0,061	0,032
-327,402	-170,367	-0,029	-0,001
-326,387	-67,312	0,273	0,076
-325,372	51,555	0,067	0,046
-324,358	-200,000	-0,002	-0,088
-323,343	272,952	0,099	0,125
-322,329	-200,000	-0,010	0,137
-321,314	690,447	0,040	0,075
-320,299	-200,000	0,002	-0,012
-319,285	374,194	0,063	0,092
-318,270	282,621	0,088	0,113
-317,256	-132,162	-0,140	0,013
-316,241	800,000	-0,039	-0,107
-315,226	-89,310	0,045	-0,009
-314,212	-200,000	0,024	0,110
-313,197	-200,000	0,030	0,195
-312,183	-200,000	0,059	0,194
-311,168	800,000	0,035	0,081
-310,153	-200,000	0,008	-0,112
-309,139	-101,899	-0,076	0,013
-308,124	-200,000	0,015	0,122
-307,110	534,683	-0,118	0,200
-306,095	-119,277	0,081	-0,010
-305,080	-30,855	-0,130	0,052
-304,066	-33,256	-0,129	-0,051
-303,051	800,000	-0,057	-0,113
-302,037	-45,355	-0,095	0,033
-301,022	550,561	0,050	-0,085
-300,008	-200,000	-0,022	0,075
-298,993	-110,771	0,108	-0,016
-297,978	-42,203	0,020	-0,007
-296,964	34,420	-0,152	-0,094
-295,949	-41,796	-0,136	0,050
-294,935	231,006	0,028	-0,033
-293,920	800,000	0,047	0,124
-292,905	531,355	0,032	0,054
-291,891	-200,000	0,009	0,051
-290,876	-3,234	-0,104	0,051
-289,862	-135,598	-0,013	-0,001
-288,847	800,000	-0,078	-0,164
-287,832	-200,000	-0,019	-0,116
-286,818	-200,000	0,011	-0,087
-285,803	-154,709	0,042	0,002
-284,789	-200,000	-0,034	0,129
-283,774	141,280	-0,118	-0,111
-282,759	800,000	0,016	-0,047
-281,745	-116,808	0,077	0,010
-280,730	-64,208	-0,148	0,043
-279,716	-124,734	-0,100	-0,011
-278,701	-200,000	0,018	-0,146
-277,686	-200,000	-0,002	0,069
-276,672	63,101	-0,085	-0,061
-275,657	56,120	0,031	0,021
-274,643	235,538	-0,055	-0,065
-273,628	-7,239	-0,062	-0,030
-272,613	-14,729	-0,026	-0,012
-271,599	55,779	0,100	0,069
-270,584	-200,000	0,019	0,092
-269,570	-147,213	0,176	-0,010
-268,555	-200,000	-0,025	0,161
-267,540	65,285	-0,061	-0,044
-266,526	-173,774	-0,128	-0,003
-265,511	717,889	0,069	-0,131
-264,497	25,964	0,123	0,073
-263,482	709,695	-0,013	-0,025
-262,467	696,247	0,045	-0,084
-261,453	-20,277	0,094	-0,041
-260,438	-200,000	-0,029	-0,093
-259,424	800,000	-0,073	-0,221
-258,409	800,000	-0,068	-0,180
-257,395	259,633	-0,076	0,093
-256,380	-100,003	0,064	-0,011
-255,365	73,119	0,121	0,090
-254,351	-200,000	-0,016	-0,072
-253,336	800,000	0,036	-0,094
-252,322	-100,081	-0,096	-0,017
-251,307	-92,198	-0,059	0,012
-250,292	-200,000	0,004	-0,150
-249,278	-200,000	0,022	-0,179
-248,263	3,543	-0,103	-0,053
-247,249	-106,554	-0,161	-0,025
-246,234	-54,986	-0,168	0,054
-245,219	-200,000	-0,028	-0,148
-244,205	-3,424	-0,043	0,021
-243,190	153,677	0,091	-0,088
-242,176	-200,000	0,015	-0,182
-241,161	-152,448	0,112	-0,006
-240,146	-200,000	0,019	-0,111
-239,132	-200,000	0,026	0,086
-238,117	134,966	-0,156	0,144
-237,103	-200,000	0,007	-0,187
-236,088	-200,000	0,012	-0,065
-235,073	-46,483	-0,051	0,018
-234,059	-109,084	0,104	0,016
-233,044	-200,000	0,036	0,141
-232,030	800,000	-0,037	0,111
-231,015	356,112	-0,043	-0,061
-230,000	254,664	-0,053	-0,065
-228,986	-69,456	-0,135	0,037
-227,971	800,000	-0,010	-0,023
-226,957	149,063	-0,092	0,089
-225,942	372,523	0,027	0,039
-224,927	20,298	-0,111	-0,064
-223,913	59,873	0,127	-0,089
-222,898	546,490	0,057	0,098
-221,884	86,283	-0,101	0,079
-220,869	-6,058	0,081	0,039
-219,855	131,216	-0,114	0,104
-218,840	196,847	0,022	0,024
-217,825	739,361	0,038	-0,073
-216,811	-200,000	0,006	-0,093
-215,796	-24,449	-0,121	-0,051
-214,782	800,000	0,059	-0,119
-213,767	800,000	0,007	0,016
-212,752	800,000	0,035	0,094
-211,738	29,048	0,098	0,059
-210,723	154,668	0,073	0,072
-209,709	-77,173	-0,077	-0,019
-208,694	-69,167	-0,147	0,040
-207,679	362,602	-0,008	0,011
-206,665	87,349	-0,041	-0,032
-205,650	440,350	0,049	0,076
-204,636	48,788	0,037	0,024
-203,621	182,657	-0,113	0,119
-202,606	800,000	0,049	-0,110
-201,592	39,740	-0,031	-0,020
-200,577	11,140	0,083	0,045
-199,563	-200,000	0,013	0,068
-198,548	-47,319	0,231	0,079
-197,533	-124,387	0,183	0,020
-196,519	-72,795	-0,090	0,023
-195,504	800,000	0,029	-0,083
-194,490	-200,000	0,022	-0,081
-193,475	33,405	-0,168	-0,103
-192,460	-92,536	0,041	-0,008
-191,446	800,000	-0,020	0,053
-190,431	742,735	0,048	0,091
-189,417	800,000	0,055	0,115
-188,402	-102,551	-0,063	0,011
-187,387	-65,871	0,019	-0,005
-186,373	800,000	0,067	-0,164
-185,358	239,783	-0,046	0,054
-184,344	638,155	-0,009	-0,016
-183,329	219,306	0,080	0,090
-182,315	17,896	0,070	0,039
-181,300	-24,365	-0,142	-0,060
-180,285	-200,000	0,019	-0,063
-179,271	800,000	0,035	-0,073
-178,256	485,275	-0,038	0,062
-177,242	-179,149	0,095	-0,001
-176,227	-42,443	0,055	-0,020
-175,212	-12,457	0,153	-0,071
-174,198	120,343	-0,065	0,057
-173,183	800,000	-0,041	-0,087
-172,169	82,903	0,020	0,016
-171,154	416,223	-0,080	0,121
-170,139	-68,314	-0,022	0,006
-169,125	4,648	0,034	-0,017
-168,110	523,870	0,058	0,097
-167,096	-0,705	-0,035	0,018
-166,081	-200,000	-0,009	-0,027
-165,066	-200,000	0,031	0,105
-164,052	-102,799	0,040	0,007
-163,037	-200,000	0,005	0,074
-162,023	-200,000	0,011	0,078
-161,008	130,823	-0,109	-0,099
-159,993	288,515	-0,018	-0,024
-158,979	-19,243	0,068	0,030
-157,964	800,000	0,031	-0,087
-156,950	651,227	0,043	-0,078
-155,935	800,000	0,053	-0,159
-154,920	28,539	0,052	-0,031
-153,906	800,000	-0,005	-0,012
-152,891	800,000	0,043	0,124
-151,877	319,781	-0,044	-0,059
-150,862	511,660	-0,052	0,086
-149,847	-130,662	-0,091	-0,009
-148,833	-200,000	0,001	-0,140
-147,818	-35,523	0,146	-0,056
-146,804	163,297	0,026	0,026
-145,789	321,424	0,079	-0,107
-144,775	-200,000	0,002	-0,042
-143,760	-93,306	0,161	0,031
-142,745	-200,000	-0,029	-0,159
-141,731	329,432	-0,038	-0,051
-140,716	-200,000	0,020	0,141
-139,702	624,292	0,091	0,163
-138,687	-200,000	0,004	-0,026
-137,672	-200,000	-0,014	-0,123
-136,658	-200,000	0,001	-0,072
-135,643	800,000	0,039	0,084
-134,629	-200,000	-0,009	-0,073
-133,614	26,860	0,173	-0,103
-132,599	46,058	-0,022	0,014
-131,585	-22,343	-0,125	-0,053
-130,570	800,000	-0,044	-0,103
-129,556	197,314	-0,116	0,125
-128,541	189,841	-0,029	-0,031
-127,526	-82,548	-0,089	0,020
-126,512	220,964	0,027	-0,031
-125,497	-4,719	-0,061	-0,029
-124,483	256,749	0,037	-0,045
-123,468	-56,568	0,023	-0,007
-122,453	800,000	-0,031	-0,071
-121,439	-52,936	0,103	-0,033
-120,424	760,778	-0,037	-0,072
-119,410	-200,000	0,010	0,078
-118,395	-185,860	0,068	0,001
-117,380	-200,000	-0,048	0,201
-116,366	19,706	0,062	-0,035
-115,351	-59,263	-0,067	0,020
-114,337	-138,070	0,090	0,007
-113,322	-74,984	-0,049	-0,012
-112,307	240,790	-0,033	0,039
-111,293	275,047	0,053	0,066
-110,278	-200,000	0,025	0,086
-109,264	-16,910	-0,103	0,046
-108,249	-200,000	0,017	0,114
-107,234	80,217	-0,223	-0,169
-106,220	-200,000	0,015	-0,148
-105,205	-200,000	-0,043	-0,154
-104,191	-200,000	0,004	0,071
-103,176	800,000	-0,060	0,158
-102,162	-160,616	-0,107	0,004
-101,147	-151,988	0,043	-0,002
-100,132	650,907	-0,065	-0,119
-99,118	210,340	-0,098	0,109
-98,103	299,771	0,105	0,138
-97,089	-200,000	-0,006	0,135
-96,074	-88,991	0,046	0,010
-95,059	800,000	-0,035	0,073
-94,045	87,124	-0,142	-0,110
-93,030	800,000	0,046	-0,100
-92,016	-200,000	-0,024	-0,083
-91,001	-121,001	0,096	-0,011
-89,986	-68,971	0,111	0,030
-88,972	-200,000	0,004	0,126
-87,957	800,000	-0,035	0,086
-86,943	-121,342	0,155	0,018
-85,928	-115,754	-0,117	-0,015
-84,913	145,840	-0,183	-0,173
-83,899	-4,303	0,044	0,021
-82,884	800,000	0,047	0,124
-81,870	131,238	-0,036	-0,033
-80,855	347,257	0,103	0,144
-79,840	-200,000	0,047	0,167
-78,826	-163,666	-0,040	-0,001
-77,811	426,238	-0,064	0,097
-76,797	-200,000	-0,006	-0,106
-75,782	-27,878	-0,112	0,046
-74,767	-200,000	0,078	0,284
-73,753	-200,000	0,001	0,027
-72,738	-30,805	-0,175	0,070
-71,724	82,111	-0,098	-0,075
-70,709	-116,445	-0,014	0,002
-69,694	800,000	-0,046	0,139
-68,680	-112,913	0,071	0,010
-67,665	-71,716	0,106	-0,028
-66,651	-200,000	0,013	-0,062
-65,636	-200,000	-0,003	-0,101
-64,622	-200,000	-0,001	-0,025
-63,607	-200,000	-0,015	0,053
-62,592	645,292	0,036	0,066
-61,578	-121,864	-0,121	-0,014
-60,563	-113,459	0,096	0,013
-59,549	322,159	-0,123	0,166
-58,534	76,043	-2,123	-1,583
-57,519	544,739	-1,057	-1,788
-56,505	-200,000	-0,604	-4,527
-55,490	629,386	0,881	1,578
-54,476	800,000	5,314	11,725
-53,461	-200,000	22,638	347,795
-52,446	800,000	757,591	2285,926
-51,432	529,879	1642,399	2746,474
-50,417	67,370	1640,247	1178,963
-49,403	15,384	1518,383	838,001
-48,388	9,660	1444,514	769,768
-47,373	19,310	1437,520	811,952
-46,359	13,206	1425,851	776,556
-45,344	7,975	1421,875	749,643
-44,330	7,914	1419,857	748,259
-43,315	7,904	1418,032	747,223
-42,300	7,899	1416,468	746,344
-41,286	7,930	1415,039	745,707
-40,271	7,935	1413,778	745,036
-39,257	7,902	1412,835	744,357
-38,242	7,916	1411,545	743,712
-37,227	7,830	1410,791	742,881
-36,213	7,952	1409,020	742,494
-35,198	7,928	1408,011	741,820
-34,184	7,959	1406,990	741,397
-33,169	7,863	1405,821	740,300
-32,154	7,855	1405,047	739,828
-31,140	7,869	1403,785	739,199
-30,125	7,904	1402,527	738,672
-29,111	7,910	1401,142	737,938
-28,096	7,889	1400,077	737,253
-27,082	7,862	1399,034	736,547
-26,067	7,813	1397,926	735,706
-25,052	7,819	1396,922	735,175
-24,038	7,877	1395,680	734,763
-23,023	7,803	1394,936	733,997
-22,009	7,787	1394,059	733,436
-20,994	7,787	1392,789	732,738
-19,979	7,822	1392,030	732,469
-18,965	7,741	1391,128	731,592
-17,950	7,801	1389,877	731,185
-16,936	7,765	1389,146	730,603
-15,921	7,750	1388,094	729,952
-14,906	7,727	1387,439	729,470
-13,892	7,806	1385,969	729,035
-12,877	7,755	1385,508	728,530
-11,863	7,720	1384,849	727,990
-10,848	7,710	1383,752	727,339
-9,833	7,710	1382,742	726,782
-8,819	7,650	1382,087	726,133
-7,804	7,626	1381,163	725,508
-6,790	7,677	1380,121	725,166
-5,775	7,649	1379,037	724,437
-4,760	7,632	1378,150	723,866
-3,746	7,672	1377,112	723,473
-2,731	7,647	1376,231	722,866
-1,717	7,626	1375,533	722,377
-0,702	7,621	1373,755	721,390
0,313	11,576	1283,807	692,058
1,327	27,146	675,612	398,824
2,342	42,343	116,170	74,287
3,356	1,818	16,524	8,368
4,371	-2,396	3,955	1,947
5,386	9,846	1,487	0,793
6,400	800,000	0,322	0,737
7,415	18,178	-0,144	-0,081
8,429	46,575	-0,323	-0,210
9,444	15,545	-0,213	-0,117
10,459	253,773	-0,241	-0,291
11,473	-139,516	-0,256	-0,019
12,488	-177,000	-0,212	-0,004
13,502	-3,756	-0,385	-0,188
14,517	45,403	-0,302	-0,196
15,531	-160,438	-0,240	-0,009
16,546	258,334	-0,203	-0,246
17,561	204,999	-0,279	-0,305
18,575	205,685	-0,125	-0,137
19,590	517,552	-0,113	-0,187
20,604	-27,447	-0,254	-0,104
21,619	101,917	-0,463	-0,380
22,634	210,619	-0,476	-0,526
23,648	329,323	-0,255	-0,345
24,663	70,740	-0,363	-0,264
25,677	86,100	-0,399	-0,309
26,692	64,050	-0,319	-0,225
27,707	139,543	-0,385	-0,357
28,721	74,476	-0,306	-0,226
29,736	91,666	-0,353	-0,279
30,750	56,392	-0,334	-0,228
31,765	-2,578	-0,448	-0,220
32,780	47,155	-0,343	-0,224
33,794	181,435	-0,304	-0,315
34,809	319,319	-0,206	-0,275
35,823	43,791	-0,452	-0,290
36,838	186,627	-0,300	-0,314
37,853	32,594	-0,499	-0,302
38,867	258,837	-0,286	-0,347
39,882	-67,515	-0,454	-0,124
40,896	207,680	-0,268	-0,295
41,911	74,223	-0,274	-0,202
42,926	133,989	-0,262	-0,238
43,940	-16,418	-0,423	-0,188
44,955	191,689	-0,333	-0,353
45,969	78,332	-0,335	-0,251
46,984	-20,717	-0,248	-0,106
47,999	46,830	-0,337	-0,220
49,013	113,166	-0,361	-0,307
50,028	159,603	-0,206	-0,201
51,042	252,044	-0,283	-0,339
52,057	211,491	-0,277	-0,306
53,071	23,955	-0,391	-0,226
54,086	0,706	-0,344	-0,172
55,101	34,851	-0,248	-0,152
56,115	260,220	-0,233	-0,283
57,130	-8,166	-0,311	-0,146
58,144	116,797	-0,391	-0,337
59,159	174,303	-0,324	-0,328
60,174	102,674	-0,279	-0,229
61,188	244,360	-0,295	-0,348
62,203	-11,077	-0,336	-0,155
63,217	-6,393	-0,377	-0,179
64,232	-66,058	-0,382	-0,106
65,247	68,220	-0,360	-0,258
66,261	37,266	-0,306	-0,190
67,276	86,053	-0,326	-0,251
68,290	5,874	-0,442	-0,228
69,305	91,064	-0,333	-0,262
70,320	115,770	-0,292	-0,250
71,334	35,094	-0,304	-0,186
72,349	-13,005	-0,270	-0,122
73,363	84,482	-0,445	-0,341
74,378	11,813	-0,428	-0,229
75,393	241,125	-0,234	-0,274
76,407	-53,513	-0,311	-0,099
77,422	-77,692	-0,298	-0,072
78,436	249,246	-0,165	-0,196
79,451	99,276	-0,247	-0,200
80,466	161,351	-0,312	-0,306
81,480	295,841	-0,224	-0,287
82,495	294,837	-0,269	-0,346
83,509	26,570	-0,372	-0,217
84,524	99,219	-0,126	-0,102
85,539	130,751	-0,249	-0,224
86,553	-47,961	-0,383	-0,129
87,568	91,252	-0,287	-0,226
88,582	182,281	-0,221	-0,228
89,597	306,712	-0,215	-0,281
90,611	279,608	-0,165	-0,206
91,626	59,656	-0,238	-0,164
92,641	6,548	-0,222	-0,115
93,655	46,751	-0,253	-0,164
94,670	-50,693	-0,382	-0,125
95,684	6,339	-0,248	-0,128
96,699	36,033	-0,292	-0,179
97,714	127,981	-0,261	-0,232
98,728	315,884	-0,123	-0,163
99,743	98,369	-0,244	-0,196
100,757	82,473	-0,233	-0,176
101,772	138,494	-0,235	-0,216
102,787	88,941	-0,258	-0,201
103,801	25,110	-0,290	-0,168
104,816	-38,153	-0,253	-0,093
105,830	-18,458	-0,169	-0,074
106,845	46,300	-0,205	-0,132
107,860	-77,018	-0,245	-0,059
108,874	30,962	-0,213	-0,127
109,889	150,531	-0,303	-0,288
110,903	56,910	-0,343	-0,233
111,918	-35,907	-0,303	-0,114
112,933	-7,389	-0,389	-0,183
113,947	71,465	-0,216	-0,156
114,962	-126,811	-0,198	-0,020
115,976	61,776	-0,222	-0,154
116,991	101,359	-0,274	-0,222
118,006	150,759	-0,279	-0,264
119,020	201,086	-0,245	-0,264
120,035	800,000	-0,074	-0,158
121,049	139,002	-0,138	-0,126
122,064	-61,089	-0,289	-0,084
123,079	-59,000	-0,195	-0,058
124,093	49,879	-0,318	-0,208
125,108	64,455	-0,279	-0,196
126,122	-78,770	-0,208	-0,049
127,137	40,074	-0,283	-0,177
128,151	-14,238	-0,264	-0,118
129,166	44,871	-0,219	-0,140
130,181	40,873	-0,237	-0,149
131,195	800,000	-0,093	-0,237
132,210	58,104	-0,270	-0,184
133,224	53,327	-0,209	-0,139
134,239	650,309	-0,144	-0,257
135,254	-64,612	-0,377	-0,106
136,268	148,634	-0,202	-0,190
137,283	10,525	-0,209	-0,111
138,297	67,547	-0,148	-0,105
139,312	20,387	-0,304	-0,171
140,327	139,259	-0,279	-0,256
141,341	19,057	-0,320	-0,178
142,356	28,790	-0,197	-0,116
143,370	69,427	-0,216	-0,155
144,385	166,703	-0,153	-0,151
145,400	131,463	-0,243	-0,217
146,414	66,537	-0,327	-0,231
147,429	44,664	-0,233	-0,149
148,443	266,433	-0,202	-0,246
149,458	140,746	-0,196	-0,180
150,473	13,515	-0,193	-0,104
151,487	-168,049	-0,242	-0,006
152,502	26,634	-0,242	-0,140
153,516	18,960	-0,288	-0,160
154,531	27,125	-0,208	-0,121
155,546	91,425	-0,219	-0,171
156,560	27,732	-0,251	-0,147
157,575	137,535	-0,075	-0,068
158,589	18,864	-0,404	-0,224
159,604	-41,862	-0,287	-0,102
160,619	28,537	-0,314	-0,184
161,633	129,726	-0,130	-0,116
162,648	19,175	-0,238	-0,132
163,662	-171,727	-0,282	0,006
164,677	-65,011	-0,132	-0,037
165,692	-80,952	-0,378	-0,086
166,706	-65,722	-0,217	-0,060
167,721	32,098	-0,270	-0,161
168,735	-5,253	-0,385	-0,183
169,750	-59,269	-0,198	-0,059
170,764	-18,639	-0,216	-0,093
171,779	158,569	-0,227	-0,219
172,794	9,516	-0,288	-0,151
173,808	29,341	-0,249	-0,147
174,823	47,604	-0,229	-0,148
175,837	158,214	-0,198	-0,191
176,852	178,788	-0,240	-0,243
177,867	-94,730	-0,322	-0,060
178,881	-45,778	-0,142	-0,048
179,896	-20,058	-0,233	-0,099
180,910	45,473	-0,277	-0,177
181,925	251,072	-0,268	-0,317
182,940	41,328	-0,196	-0,123
183,954	34,778	-0,172	-0,104
184,969	800,000	-0,096	-0,211
185,983	148,021	-0,086	-0,081
186,998	-25,252	-0,294	-0,120
188,013	48,799	-0,274	-0,178
189,027	-61,270	-0,316	-0,092
190,042	55,539	-0,201	-0,135
191,056	342,385	-0,145	-0,198
192,071	800,000	-0,087	-0,201
193,086	438,712	-0,189	-0,287
194,100	146,043	-0,258	-0,240
195,115	236,019	-0,135	-0,155
196,129	-69,094	-0,187	-0,049
197,144	20,301	-0,301	-0,168
198,159	233,598	-0,124	-0,142
199,173	109,920	-0,139	-0,116
200,188	205,049	-0,084	-0,091
201,202	-155,943	-0,267	-0,012
202,217	189,086	-0,145	-0,151
203,232	357,081	-0,138	-0,191
204,246	38,600	-0,270	-0,166
205,261	209,597	-0,273	-0,297
206,275	97,319	-0,262	-0,208
207,290	-33,775	-0,255	-0,097
208,304	54,109	-0,119	-0,079
209,319	27,926	-0,272	-0,159
210,334	29,217	-0,238	-0,140
211,348	415,082	-0,200	-0,295
212,363	-126,291	-0,267	-0,027
213,377	26,462	-0,207	-0,120
214,392	317,133	-0,082	-0,107
215,407	40,831	-0,099	-0,062
216,421	-156,225	-0,156	-0,007
217,436	-33,143	-0,211	-0,081
218,450	72,073	-0,189	-0,136
219,465	25,058	-0,249	-0,142
220,480	149,721	-0,228	-0,214
221,494	-200,000	-0,037	-0,143
222,509	240,094	-0,156	-0,179
223,523	33,451	-0,243	-0,145
224,538	-162,048	-0,236	0,008
225,553	800,000	-0,114	-0,236
226,567	44,785	-0,305	-0,193
227,582	-82,108	-0,182	0,041
228,596	246,395	-0,139	-0,162
229,611	-98,881	-0,112	-0,020
230,626	-51,969	-0,161	-0,051
231,640	57,248	-0,241	-0,163
232,655	614,971	-0,113	-0,196
233,669	343,007	-0,138	-0,188
234,684	381,041	-0,136	-0,193
235,699	335,917	-0,073	-0,098
236,713	348,116	-0,126	-0,172
237,728	637,790	-0,103	-0,181
238,742	401,173	-0,145	-0,211
239,757	-121,391	-0,153	-0,017
240,772	15,620	-0,210	-0,114
241,786	800,000	-0,106	-0,258
242,801	800,000	-0,113	-0,240
243,815	518,413	-0,087	-0,140
244,830	23,345	-0,164	-0,093
245,844	-200,000	-0,047	-0,276
246,859	734,751	-0,132	-0,246
247,874	83,685	-0,273	-0,205
248,888	733,555	-0,124	-0,230
249,903	155,140	-0,183	-0,174
250,917	123,318	-0,048	-0,041
251,932	-81,597	-0,219	-0,049
252,947	-91,583	-0,139	0,027
253,961	205,269	-0,120	-0,129
254,976	247,447	-0,145	-0,169
255,990	-42,355	-0,199	-0,070
257,005	83,741	-0,162	-0,122
258,020	218,553	-0,175	-0,193
259,034	800,000	-0,050	-0,108
260,049	-65,443	-0,243	-0,067
261,063	-86,598	-0,234	-0,049
262,078	133,454	-0,146	-0,130
263,093	9,504	-0,179	-0,093
264,107	39,296	-0,109	-0,067
265,122	-98,373	-0,141	-0,025
266,136	338,257	-0,155	-0,209
267,151	121,382	-0,085	-0,073
268,166	-9,362	-0,173	-0,079
269,180	128,850	-0,195	-0,171
270,195	-45,146	-0,217	-0,074
271,209	128,942	-0,110	-0,097
272,224	146,183	-0,151	-0,139
273,239	20,608	-0,273	-0,152
274,253	467,732	-0,100	-0,155
275,268	-108,805	-0,130	-0,019
276,282	206,962	-0,128	-0,137
277,297	49,036	-0,234	-0,151
278,312	12,443	-0,251	-0,133
279,326	30,293	-0,064	-0,038
280,341	-200,000	-0,038	-0,115
281,355	-38,682	-0,155	0,056
282,370	-122,370	-0,133	-0,015
283,384	-18,619	-0,131	-0,056
284,399	99,541	-0,196	-0,156
285,414	-25,707	-0,220	-0,089
286,428	171,322	-0,106	-0,104
287,443	-200,000	-0,012	0,080
288,457	41,096	-0,091	-0,056
289,472	-55,719	-0,228	-0,070
290,487	-85,065	-0,203	-0,043
291,501	526,514	-0,146	-0,238
292,516	204,708	-0,160	-0,171
293,530	-128,513	-0,184	-0,018
294,545	-78,018	-0,206	-0,048
295,560	-12,693	-0,088	0,039
296,574	-83,991	-0,141	0,031
297,589	736,341	-0,110	-0,204
298,603	505,872	-0,161	-0,258
299,618	43,676	-0,159	-0,100
300,633	-122,750	-0,072	-0,008
301,647	-200,000	-0,006	-0,039
302,662	-169,764	-0,085	0,002
303,676	-0,475	-0,149	-0,073
304,691	481,027	-0,060	-0,094
305,706	307,034	-0,138	-0,177
306,720	800,000	-0,118	-0,251
307,735	461,203	-0,045	-0,069
308,749	-73,321	-0,096	0,024
309,764	-88,156	-0,280	-0,057
310,779	-94,337	-0,062	0,011
311,793	60,312	-0,092	-0,062
312,808	413,439	-0,112	-0,164
313,822	-200,000	-0,008	-0,085
314,837	35,987	-0,144	-0,087
315,852	732,783	-0,076	-0,141
316,866	93,226	-0,046	-0,036
317,881	-135,371	-0,222	0,018
318,895	-15,398	-0,154	-0,067
319,910	333,281	-0,090	-0,119
320,925	109,052	-0,154	-0,126
321,939	260,522	-0,083	-0,099
322,954	-103,659	-0,247	0,039
323,968	372,259	-0,043	-0,060
324,983	-33,619	-0,086	-0,032
325,997	37,705	-0,080	-0,048
327,012	-73,938	-0,210	-0,052
328,027	60,451	-0,204	-0,138
329,041	800,000	-0,087	-0,177
330,056	-200,000	-0,011	-0,103
331,070	62,542	-0,075	-0,051
332,085	-200,000	-0,041	-0,147
333,100	800,000	-0,060	-0,143
334,114	800,000	-0,101	-0,223
335,129	-200,000	-0,013	-0,255
336,143	800,000	-0,127	-0,279
337,158	377,790	-0,062	-0,087
338,173	-163,916	-0,033	-0,001
339,187	190,899	-0,153	-0,158
340,202	21,456	-0,172	-0,096
341,216	-2,275	-0,241	-0,115
342,231	-92,342	-0,130	-0,025
343,246	-39,898	-0,062	-0,022
344,260	210,861	-0,219	-0,236
345,275	-200,000	0,004	-0,069
346,289	42,547	-0,094	0,058
347,304	39,444	-0,112	-0,068
348,319	-92,205	-0,171	-0,033
349,333	231,175	-0,153	-0,171
350,348	466,624	-0,109	-0,167
351,362	-110,843	-0,047	-0,007
352,377	53,363	-0,050	-0,033
353,392	-200,000	-0,030	-0,193
354,406	-200,000	-0,081	-0,255
355,421	208,375	1309,145	1400,419
356,435	160,335	1469,119	1400,854
