DTS Sentinel unit serial number:	SN410029Multiplexer serial number:	ORYXHardware model number:	OX2-SRSoftware version number:	ORYX F/W v4,00 Oryx Data Collector v3.7.2.0data status	okinstallation	B3 Nyhavnadifferential loss correction	single-endedforward channel	channel 1reverse channel	N/Adate	2023/11/29time	17:17:30forward acquisition time	300,00reverse acquisition time	0,00gamma	499,1914k internal	0,3209k external	0,3209temperature offset calibration	1,0000default loss term (dB/km)	0,3820temperature slope calibration	1,0000multiplexer offset coefficient	1,0000multiplexer slope coefficient	1,0000fibre end	0,00T internal ref (°C)	11,37T ext. ref 1 (°C)	-3,84T ext. ref 2 (°C)	-3,97length (m)	temperature (°C)	Stokes	anti-Stokes-744,400	-3,827	-0,290	-0,145
-743,385	-200,000	-0,026	0,263
-742,371	58,119	-0,173	-0,123
-741,356	-200,000	-0,052	0,395
-740,342	29,733	-0,223	-0,137
-739,327	-200,000	0,005	0,204
-738,312	324,742	-0,186	-0,259
-737,298	-200,000	0,021	0,190
-736,283	107,035	-0,235	-0,203
-735,269	-200,000	-0,011	0,214
-734,254	95,717	-0,316	-0,261
-733,239	-28,098	-0,253	0,106
-732,225	-200,000	-0,011	-0,259
-731,210	488,466	0,021	0,036
-730,196	122,437	0,096	0,087
-729,181	71,286	-0,067	0,050
-728,167	-200,000	-0,006	-0,027
-727,152	-200,000	-0,030	-0,226
-726,137	-200,000	0,022	-0,184
-725,123	-26,851	-0,176	-0,074
-724,108	-70,313	-0,118	-0,032
-723,094	639,325	0,044	-0,082
-722,079	-77,533	-0,024	-0,006
-721,064	10,826	-0,037	-0,021
-720,050	22,752	0,091	-0,054
-719,035	-46,297	0,102	-0,036
-718,021	-28,561	-0,104	-0,043
-717,006	163,600	0,036	-0,036
-715,991	287,152	-0,063	-0,083
-714,977	800,000	-0,064	-0,150
-713,962	-192,318	-0,064	0,000
-712,948	-134,501	-0,062	0,005
-711,933	-3,617	0,097	0,049
-710,918	-200,000	-0,030	-0,137
-709,904	-60,602	-0,081	-0,025
-708,889	274,350	0,038	0,048
-707,875	-41,341	0,163	0,060
-706,860	-200,000	-0,002	-0,009
-705,845	-200,000	-0,060	-0,220
-704,831	-200,000	0,016	0,053
-703,816	-37,812	0,073	-0,028
-702,802	27,315	-0,046	0,028
-701,787	-71,421	0,108	-0,029
-700,772	-200,000	0,008	-0,026
-699,758	-89,866	0,138	0,029
-698,743	800,000	0,063	0,165
-697,729	800,000	-0,043	0,088
-696,714	23,153	0,097	0,058
-695,699	509,199	-0,045	-0,077
-694,685	414,337	-0,058	-0,090
-693,670	93,946	-0,093	-0,076
-692,656	-200,000	0,008	-0,055
-691,641	-85,810	-0,096	0,021
-690,627	-112,950	-0,089	-0,013
-689,612	610,098	-0,030	0,054
-688,597	447,160	-0,012	-0,020
-687,583	800,000	-0,026	-0,059
-686,568	238,860	-0,093	-0,112
-685,554	-36,447	0,032	-0,013
-684,539	-131,273	0,123	-0,012
-683,524	-142,631	-0,045	0,003
-682,510	-157,807	-0,105	-0,004
-681,495	-117,383	-0,124	0,016
-680,481	-200,000	0,034	-0,157
-679,466	421,627	-0,113	-0,176
-678,451	-146,418	0,061	0,004
-677,437	-58,479	0,104	-0,033
-676,422	105,369	-0,055	-0,047
-675,408	800,000	0,014	0,032
-674,393	-49,145	-0,060	-0,021
-673,378	-86,356	-0,078	-0,017
-672,364	231,219	-0,142	-0,169
-671,349	-137,403	-0,095	-0,008
-670,335	-200,000	0,041	0,154
-669,320	587,982	-0,034	0,060
-668,305	-11,053	-0,103	0,049
-667,291	-89,142	-0,230	-0,049
-666,276	-107,023	-0,238	-0,038
-665,262	435,896	-0,079	-0,124
-664,247	-33,539	-0,153	0,061
-663,232	-98,170	0,117	-0,022
-662,218	-134,594	0,098	0,009
-661,203	800,000	0,064	-0,172
-660,189	349,242	-0,070	-0,100
-659,174	122,012	-0,087	-0,079
-658,159	51,451	0,044	-0,030
-657,145	-127,449	-0,104	0,011
-656,130	216,550	0,022	0,025
-655,116	800,000	0,014	0,040
-654,101	80,790	-0,122	0,095
-653,086	-48,541	-0,088	-0,030
-652,072	-200,000	-0,007	-0,029
-651,057	-17,804	-0,092	-0,041
-650,043	37,240	-0,082	0,052
-649,028	-69,809	0,131	0,036
-648,014	-141,443	-0,075	0,005
-646,999	-5,257	0,012	-0,006
-645,984	-200,000	-0,008	0,139
-644,970	800,000	0,013	-0,038
-643,955	-129,377	-0,106	0,010
-642,941	-200,000	0,007	-0,039
-641,926	373,945	0,071	0,104
-640,911	-83,263	-0,124	0,029
-639,897	480,439	0,064	0,105
-638,882	-121,772	0,145	-0,017
-637,868	330,349	0,066	-0,092
-636,853	-38,258	-0,090	-0,034
-635,838	-109,857	-0,035	-0,005
-634,824	-28,214	-0,090	-0,037
-633,809	-200,000	0,003	0,015
-632,795	-16,817	0,090	-0,041
-631,780	-200,000	-0,037	0,258
-630,765	-145,650	-0,083	-0,005
-629,751	-28,034	-0,168	0,070
-628,736	800,000	0,028	-0,064
-627,722	18,452	-0,116	0,067
-626,707	494,184	-0,025	0,042
-625,692	-152,868	-0,088	-0,004
-624,678	-200,000	-0,023	-0,082
-623,663	-89,376	0,145	-0,030
-622,649	675,268	-0,052	0,099
-621,634	453,919	-0,120	-0,192
-620,619	-200,000	-0,031	-0,128
-619,605	-139,861	-0,072	-0,005
-618,590	49,628	-0,071	0,048
-617,576	81,799	0,019	-0,015
-616,561	59,644	-0,077	0,055
-615,546	800,000	0,035	-0,074
-614,532	73,613	0,038	-0,028
-613,517	-200,000	0,007	-0,093
-612,503	57,046	0,095	-0,066
-611,488	-119,754	-0,072	-0,009
-610,474	116,910	-0,080	0,071
-609,459	3,880	-0,032	0,017
-608,444	-36,325	0,098	-0,038
-607,430	-98,528	-0,179	0,033
-606,415	-57,230	-0,081	0,026
-605,401	-46,014	0,086	-0,030
-604,386	-200,000	-0,020	-0,134
-603,371	0,592	0,146	-0,075
-602,357	741,306	0,065	0,126
-601,342	-119,451	0,070	-0,009
-600,328	-200,000	0,005	-0,034
-599,313	40,184	-0,071	-0,046
-598,298	484,291	0,116	-0,192
-597,284	800,000	0,017	0,051
-596,269	-200,000	-0,013	0,128
-595,255	-200,000	0,001	-0,032
-594,240	677,203	0,049	-0,091
-593,225	78,294	-0,059	0,046
-592,211	-200,000	-0,031	-0,109
-591,196	-72,349	0,061	-0,016
-590,182	800,000	0,028	0,071
-589,167	245,380	-0,086	0,104
-588,152	-35,230	0,018	0,007
-587,138	-110,531	-0,091	0,013
-586,123	-66,489	-0,092	0,026
-585,109	14,235	-0,014	0,008
-584,094	3,916	-0,113	0,059
-583,079	-40,684	0,147	-0,055
-582,065	-200,000	0,009	-0,086
-581,050	800,000	-0,021	0,055
-580,036	150,203	-0,035	0,034
-579,021	-191,829	-0,065	-0,000
-578,006	296,011	0,022	-0,029
-576,992	21,508	0,094	0,055
-575,977	-200,000	0,016	-0,065
-574,963	-88,831	0,068	0,014
-573,948	-115,186	0,033	0,004
-572,934	96,022	-0,195	0,160
-571,919	800,000	-0,006	-0,013
-570,904	-200,000	0,026	-0,103
-569,890	544,719	0,045	0,079
-568,875	-200,000	-0,012	0,122
-567,861	-200,000	-0,011	0,066
-566,846	-200,000	0,049	0,224
-565,831	-200,000	-0,012	0,057
-564,817	-200,000	-0,001	-0,050
-563,802	-178,015	-0,110	-0,002
-562,788	204,935	-0,048	0,054
-561,773	-44,243	0,105	0,038
-560,758	74,017	-0,046	-0,035
-559,744	119,336	0,105	0,093
-558,729	800,000	0,034	-0,073
-557,715	-98,618	-0,152	-0,028
-556,700	24,449	0,054	-0,032
-555,685	-200,000	0,024	-0,089
-554,671	120,639	-0,065	0,058
-553,656	800,000	0,037	-0,102
-552,642	186,445	0,054	0,058
-551,627	800,000	0,046	0,123
-550,612	-200,000	0,008	0,105
-549,598	-150,762	0,074	0,004
-548,583	-200,000	0,027	-0,088
-547,569	-200,000	-0,013	-0,051
-546,554	81,658	0,095	-0,074
-545,539	-200,000	0,000	-0,042
-544,525	471,568	-0,067	-0,108
-543,510	32,878	-0,095	-0,059
-542,496	-200,000	-0,010	-0,086
-541,481	-117,509	-0,123	0,016
-540,466	-200,000	0,033	-0,106
-539,452	-200,000	-0,015	-0,077
-538,437	-144,674	0,018	0,001
-537,423	73,957	0,121	0,091
-536,408	-200,000	0,008	0,035
-535,393	-29,599	-0,089	-0,036
-534,379	129,911	-0,103	-0,095
-533,364	-200,000	0,014	-0,141
-532,350	-124,507	0,098	0,011
-531,335	-82,554	0,130	-0,030
-530,321	-52,443	-0,106	-0,035
-529,306	-200,000	0,002	-0,028
-528,291	-200,000	-0,008	-0,081
-527,277	314,871	0,007	0,009
-526,262	-200,000	-0,026	-0,216
-525,248	800,000	0,043	0,109
-524,233	-41,993	0,101	-0,037
-523,218	800,000	0,027	0,067
-522,204	-55,867	0,120	-0,038
-521,189	-200,000	0,009	-0,095
-520,175	491,014	-0,039	-0,064
-519,160	-200,000	0,037	-0,123
-518,145	64,529	0,150	-0,109
-517,131	556,313	-0,018	-0,031
-516,116	168,444	0,152	0,156
-515,102	286,767	0,054	-0,071
-514,087	-89,572	-0,049	-0,010
-513,072	36,985	0,116	0,074
-512,058	-159,684	-0,069	0,003
-511,043	124,465	0,073	0,066
-510,029	501,381	0,114	0,190
-509,014	-200,000	0,021	0,213
-507,999	-200,000	0,029	0,103
-506,985	800,000	-0,033	-0,098
-505,970	-200,000	-0,016	0,070
-504,956	-34,391	-0,100	0,039
-503,941	-45,474	0,030	0,010
-502,926	-137,664	0,180	0,014
-501,912	800,000	-0,022	-0,053
-500,897	329,689	-0,080	-0,111
-499,883	-36,071	-0,020	0,008
-498,868	-200,000	-0,011	-0,054
-497,853	63,391	0,055	0,040
-496,839	-200,000	0,036	-0,131
-495,824	359,301	-0,081	0,117
-494,810	800,000	-0,039	0,120
-493,795	-200,000	-0,013	-0,071
-492,781	484,380	-0,031	-0,050
-491,766	164,727	0,020	-0,021
-490,751	38,514	0,048	-0,030
-489,737	14,679	0,041	0,023
-488,722	175,392	0,043	0,045
-487,708	-103,612	-0,043	0,007
-486,693	13,389	-0,046	0,025
-485,678	800,000	0,049	-0,107
-484,664	55,040	0,063	-0,044
-483,649	-57,891	0,062	0,019
-482,635	-56,459	0,061	-0,019
-481,620	-200,000	0,006	-0,026
-480,605	-92,367	-0,135	-0,027
-479,591	-200,000	0,014	0,185
-478,576	-131,492	-0,061	-0,006
-477,562	181,973	-0,056	-0,060
-476,547	-96,795	0,072	0,013
-475,532	537,072	-0,044	0,075
-474,518	25,235	-0,076	-0,045
-473,503	671,192	0,023	0,043
-472,489	-170,139	-0,047	0,001
-471,474	800,000	-0,035	0,088
-470,459	-127,757	-0,117	-0,012
-469,445	467,285	-0,082	0,133
-468,430	13,755	0,021	0,012
-467,416	800,000	0,033	0,096
-466,401	-200,000	-0,005	0,058
-465,386	-200,000	-0,028	-0,094
-464,372	19,829	-0,123	0,071
-463,357	100,191	0,055	0,046
-462,343	800,000	0,049	0,099
-461,328	278,315	-0,082	-0,106
-460,313	-200,000	-0,018	0,143
-459,299	800,000	-0,043	0,095
-458,284	137,097	-0,099	0,093
-457,270	251,919	0,050	0,061
-456,255	-200,000	0,005	0,095
-455,241	-200,000	-0,010	-0,274
-454,226	-145,527	-0,208	0,013
-453,211	800,000	0,049	-0,108
-452,197	-87,481	0,042	0,009
-451,182	52,581	-0,115	0,079
-450,168	-200,000	-0,012	0,085
-449,153	800,000	0,033	-0,075
-448,138	800,000	-0,081	-0,197
-447,124	266,811	-0,112	-0,141
-446,109	2,393	0,033	0,017
-445,095	-200,000	0,012	-0,087
-444,080	-200,000	0,023	0,096
-443,065	-200,000	0,010	0,138
-442,051	145,525	-0,052	-0,050
-441,036	-42,288	-0,150	0,055
-440,022	-200,000	0,030	-0,160
-439,007	-66,283	-0,122	-0,035
-437,992	-5,631	0,032	-0,016
-436,978	233,916	0,063	-0,075
-435,963	-200,000	-0,010	0,066
-434,949	-46,018	0,042	0,015
-433,934	-10,822	-0,144	-0,068
-432,919	107,911	-0,045	-0,038
-431,905	-12,198	-0,127	0,059
-430,890	-200,000	0,030	0,177
-429,876	800,000	0,003	0,009
-428,861	-200,000	-0,006	0,103
-427,846	800,000	0,031	-0,075
-426,832	-200,000	-0,017	0,057
-425,817	800,000	-0,022	-0,056
-424,803	-93,340	0,070	-0,014
-423,788	-61,274	0,173	-0,052
-422,773	-200,000	0,001	0,081
-421,759	-33,838	0,099	0,039
-420,744	37,533	-0,089	-0,056
-419,730	800,000	-0,053	-0,145
-418,715	390,474	-0,017	0,026
-417,701	218,043	0,106	-0,121
-416,686	-190,266	0,125	0,001
-415,671	-200,000	-0,005	-0,051
-414,657	-200,000	-0,021	-0,211
-413,642	9,083	-0,036	0,019
-412,628	130,122	0,151	-0,139
-411,613	-200,000	-0,018	-0,107
-410,598	-166,767	0,049	-0,001
-409,584	800,000	0,056	0,146
-408,569	500,343	0,075	-0,124
-407,555	179,770	-0,143	-0,150
-406,540	800,000	-0,084	-0,207
-405,525	-200,000	-0,004	-0,047
-404,511	-90,820	0,028	0,006
-403,496	800,000	0,041	-0,107
-402,482	312,308	0,056	-0,075
-401,467	-200,000	-0,024	0,126
-400,452	-44,943	0,071	-0,025
-399,438	800,000	0,024	0,075
-398,423	196,595	-0,070	0,076
-397,409	-200,000	-0,023	0,113
-396,394	344,051	-0,115	-0,161
-395,379	-37,262	0,077	-0,029
-394,365	134,257	0,107	-0,099
-393,350	595,841	-0,033	-0,060
-392,336	77,424	-0,087	0,066
-391,321	-160,422	0,083	0,003
-390,306	-200,000	0,011	0,047
-389,292	141,035	0,041	-0,039
-388,277	-200,000	-0,013	-0,053
-387,263	-151,849	-0,159	0,008
-386,248	800,000	-0,032	-0,098
-385,233	-159,617	0,094	0,004
-384,219	263,813	-0,068	0,085
-383,204	-200,000	-0,001	0,098
-382,190	800,000	-0,018	-0,043
-381,175	800,000	0,017	0,039
-380,160	-200,000	0,005	0,051
-379,146	7,846	0,081	0,043
-378,131	-14,481	-0,121	0,055
-377,117	-200,000	0,017	0,094
-376,102	-200,000	-0,002	-0,125
-375,088	-1,755	0,058	-0,029
-374,073	229,716	0,047	-0,056
-373,058	-9,432	0,109	-0,052
-372,044	-162,988	0,048	-0,002
-371,029	800,000	-0,038	0,079
-370,015	800,000	-0,062	-0,193
-369,000	-200,000	0,007	0,030
-367,985	202,026	-0,071	0,078
-366,971	-18,598	-0,058	-0,026
-365,956	-23,969	0,078	0,033
-364,942	143,713	-0,050	0,048
-363,927	-60,840	0,093	0,028
-362,912	43,263	-0,102	0,066
-361,898	749,843	-0,017	-0,033
-360,883	-23,172	-0,068	-0,029
-359,869	160,808	-0,041	-0,041
-358,854	154,301	0,118	0,116
-357,839	-200,000	0,024	0,135
-356,825	243,738	0,024	0,029
-355,810	126,414	-0,111	0,100
-354,796	-115,678	-0,102	0,013
-353,781	391,548	0,062	-0,093
-352,766	274,497	-0,084	-0,106
-351,752	501,639	-0,057	-0,094
-350,737	134,382	0,108	0,100
-349,723	800,000	0,029	0,060
-348,708	-138,984	-0,103	0,008
-347,693	454,176	0,046	-0,072
-346,679	-80,709	-0,071	-0,017
-345,664	800,000	0,052	0,143
-344,650	-200,000	-0,009	0,103
-343,635	265,709	-0,031	0,039
-342,620	146,563	-0,021	0,020
-341,606	92,998	0,110	0,089
-340,591	-28,306	0,072	-0,029
-339,577	-181,001	-0,171	-0,002
-338,562	-54,153	0,071	-0,023
-337,548	165,725	-0,042	0,043
-336,533	-50,217	0,036	0,012
-335,518	-200,000	0,009	0,054
-334,504	17,385	0,038	0,021
-333,489	-77,135	-0,168	-0,042
-332,475	-200,000	-0,009	-0,120
-331,460	-114,967	-0,066	0,009
-330,445	-200,000	-0,009	0,098
-329,431	800,000	-0,052	-0,139
-328,416	180,166	0,081	0,084
-327,402	13,004	0,028	0,015
-326,387	800,000	0,056	-0,130
-325,372	-200,000	-0,050	-0,213
-324,358	800,000	-0,050	-0,100
-323,343	-105,971	-0,033	-0,005
-322,329	563,883	0,056	0,097
-321,314	-200,000	0,029	0,133
-320,299	69,758	0,042	-0,031
-319,285	-127,559	0,071	0,007
-318,270	-200,000	-0,005	0,139
-317,256	373,967	-0,035	-0,052
-316,241	-87,566	-0,098	0,021
-315,226	-200,000	0,012	0,059
-314,212	-200,000	-0,004	0,107
-313,197	-88,262	0,224	-0,047
-312,183	-16,216	0,076	0,034
-311,168	-79,835	-0,062	0,015
-310,153	0,286	0,050	-0,025
-309,139	647,818	0,045	0,082
-308,124	-200,000	0,027	0,117
-307,110	-183,889	-0,054	0,001
-306,095	-88,189	0,148	0,031
-305,080	-200,000	-0,001	-0,035
-304,066	-200,000	-0,007	-0,052
-303,051	-118,524	-0,037	0,005
-302,037	-105,512	-0,026	-0,004
-301,022	-122,597	0,022	-0,002
-300,008	19,247	-0,088	-0,050
-298,993	18,067	0,069	0,039
-297,978	-200,000	0,004	-0,084
-296,964	-200,000	-0,015	-0,052
-295,949	-50,303	0,082	-0,028
-294,935	-162,053	0,034	-0,001
-293,920	-126,315	0,143	0,015
-292,905	414,677	0,108	0,165
-291,891	-71,514	0,131	-0,035
-290,876	-200,000	-0,060	0,192
-289,862	765,751	-0,041	0,081
-288,847	800,000	0,045	0,100
-287,832	716,285	-0,065	0,124
-286,818	82,518	0,156	-0,121
-285,803	-81,626	-0,061	-0,014
-284,789	20,035	-0,116	0,066
-283,774	9,957	-0,154	0,083
-282,759	179,892	0,047	-0,049
-281,745	21,945	-0,046	-0,027
-280,730	-200,000	-0,036	-0,191
-279,716	-200,000	-0,001	-0,066
-278,701	-29,890	0,152	-0,061
-277,686	-136,480	-0,089	0,007
-276,672	251,457	0,055	-0,067
-275,657	302,386	0,038	-0,050
-274,643	-200,000	0,010	-0,100
-273,628	-7,992	-0,219	-0,105
-272,613	185,276	-0,108	-0,114
-271,599	92,929	0,115	-0,093
-270,584	168,022	-0,032	0,033
-269,570	221,013	0,033	-0,037
-268,555	476,135	0,043	0,069
-267,540	-181,811	-0,097	0,001
-266,526	800,000	0,020	-0,060
-265,511	-200,000	0,006	-0,034
-264,497	17,065	-0,100	-0,056
-263,482	97,825	-0,049	-0,040
-262,467	800,000	-0,016	0,036
-261,453	800,000	0,029	-0,085
-260,438	-55,015	-0,127	-0,040
-259,424	-200,000	-0,017	-0,057
-258,409	270,275	0,102	0,128
-257,395	800,000	-0,059	0,122
-256,380	-200,000	0,038	0,164
-255,365	-125,286	0,233	-0,025
-254,351	206,353	0,043	0,047
-253,336	1,037	-0,049	0,025
-252,322	36,901	-0,088	-0,056
-251,307	-123,747	0,048	-0,005
-250,292	195,394	0,161	0,174
-249,278	793,680	0,055	0,109
-248,263	555,332	0,066	0,113
-247,249	800,000	-0,029	0,058
-246,234	74,443	0,074	-0,056
-245,219	373,036	0,042	-0,061
-244,205	-200,000	-0,015	0,077
-243,190	-108,827	-0,103	-0,016
-242,176	63,327	0,077	-0,055
-241,161	302,163	-0,091	0,120
-240,146	-38,066	0,036	-0,013
-239,132	-200,000	-0,032	0,129
-238,117	800,000	0,070	-0,138
-237,103	-66,231	0,088	0,025
-236,088	518,507	-0,078	-0,130
-235,073	-102,796	0,176	0,029
-234,059	-33,452	-0,062	0,024
-233,044	68,149	0,164	0,119
-232,030	172,061	0,118	0,121
-231,015	341,209	-0,048	-0,066
-230,000	180,205	0,076	-0,079
-228,986	152,396	0,140	-0,136
-227,971	-29,935	0,106	0,043
-226,957	-92,750	0,218	0,043
-225,942	103,495	-0,073	-0,060
-224,927	685,986	-0,082	-0,153
-223,913	800,000	-0,022	-0,064
-222,898	-194,992	-0,142	0,001
-221,884	-178,708	-0,060	0,001
-220,869	-200,000	-0,013	0,053
-219,855	-200,000	-0,007	0,163
-218,840	173,866	0,030	0,031
-217,825	491,066	0,058	0,095
-216,811	-96,117	-0,084	-0,016
-215,796	-200,000	0,013	-0,123
-214,782	800,000	0,025	0,052
-213,767	115,299	0,036	0,032
-212,752	42,062	-0,077	0,050
-211,738	-144,460	0,113	0,007
-210,723	-78,015	-0,056	-0,014
-209,709	255,423	-0,074	0,091
-208,694	266,924	0,038	0,048
-207,679	198,476	-0,050	-0,054
-206,665	398,839	0,062	0,092
-205,650	-200,000	0,033	0,110
-204,636	-155,062	-0,089	0,004
-203,621	-200,000	0,003	-0,009
-202,606	-39,277	-0,156	-0,058
-201,592	-48,963	-0,050	0,017
-200,577	-200,000	-0,004	-0,079
-199,563	198,574	-0,040	-0,043
-198,548	800,000	0,049	0,105
-197,533	534,865	0,087	0,147
-196,519	339,544	0,071	0,099
-195,504	208,052	-0,003	0,004
-194,490	800,000	-0,013	-0,035
-193,475	-200,000	-0,003	-0,030
-192,460	61,216	-0,124	-0,088
-191,446	-200,000	0,008	0,067
-190,431	-98,462	-0,020	-0,004
-189,417	599,581	-0,005	0,009
-188,402	-200,000	0,030	0,156
-187,387	-37,589	-0,127	-0,048
-186,373	261,248	0,112	-0,138
-185,358	-165,804	0,133	0,004
-184,344	113,499	-0,040	-0,034
-183,329	-200,000	-0,016	0,058
-182,315	-200,000	0,027	0,122
-181,300	337,674	-0,027	0,037
-180,285	-200,000	0,013	-0,101
-179,271	122,754	-0,125	-0,111
-178,256	477,581	-0,046	0,075
-177,242	-200,000	-0,015	0,071
-176,227	-19,057	0,029	-0,013
-175,212	800,000	0,053	0,155
-174,198	800,000	0,011	-0,025
-173,183	-200,000	0,011	-0,067
-172,169	280,618	0,009	0,012
-171,154	-173,322	0,037	-0,001
-170,139	-200,000	0,035	-0,127
-169,125	138,809	-0,118	0,110
-168,110	-200,000	-0,029	-0,135
-167,096	-200,000	0,018	-0,198
-166,081	-43,749	-0,200	-0,071
-165,066	114,882	0,057	0,050
-164,052	360,565	0,033	0,047
-163,037	-200,000	0,007	-0,110
-162,023	513,243	0,017	0,029
-161,008	-200,000	-0,017	0,077
-159,993	800,000	0,020	0,045
-158,979	800,000	0,016	-0,037
-157,964	-136,512	-0,048	-0,004
-156,950	135,913	-0,076	-0,070
-155,935	287,500	-0,034	-0,044
-154,920	-200,000	0,016	-0,059
-153,906	111,475	0,144	0,123
-152,891	290,679	0,028	-0,036
-151,877	-144,225	-0,085	-0,006
-150,862	175,428	0,024	0,025
-149,847	37,548	-0,074	-0,047
-148,833	118,828	0,150	0,131
-147,818	-200,000	0,036	-0,120
-146,804	-200,000	0,005	0,115
-145,789	-200,000	-0,020	0,129
-144,775	-200,000	0,010	0,035
-143,760	505,682	0,074	-0,123
-142,745	728,422	0,022	0,041
-141,731	221,974	0,088	0,101
-140,716	4,116	0,079	-0,041
-139,702	126,126	-0,042	-0,038
-138,687	72,199	0,155	0,114
-137,672	-31,850	-0,085	0,034
-136,658	-149,432	-0,160	-0,009
-135,643	76,518	0,126	-0,094
-134,629	-124,623	-0,086	-0,009
-133,614	-200,000	0,017	0,088
-132,599	-60,471	-0,041	-0,012
-131,585	131,817	0,124	0,113
-130,570	-59,055	-0,173	-0,053
-129,556	183,520	0,089	-0,094
-128,541	-200,000	-0,005	-0,098
-127,526	479,323	0,042	0,068
-126,512	200,196	-0,082	-0,089
-125,497	94,049	0,093	0,075
-124,483	106,412	-0,027	-0,023
-123,468	-80,111	0,090	0,021
-122,453	-42,321	-0,019	-0,007
-121,439	-92,808	-0,154	-0,030
-120,424	8,099	-0,099	-0,052
-119,410	85,644	0,145	0,113
-118,395	-88,378	0,107	-0,022
-117,380	18,973	0,058	-0,033
-116,366	-23,199	0,036	-0,015
-115,351	-159,404	-0,084	-0,003
-114,337	204,368	-0,120	-0,132
-113,322	10,604	-0,078	-0,042
-112,307	-13,071	0,117	0,053
-111,293	661,850	0,051	-0,094
-110,278	-200,000	-0,020	0,114
-109,264	-108,591	0,133	0,020
-108,249	350,559	0,073	-0,102
-107,234	152,417	-0,165	-0,160
-106,220	17,670	-0,031	-0,018
-105,205	308,190	-0,046	0,061
-104,191	-200,000	0,015	0,061
-103,176	-200,000	-0,005	-0,081
-102,162	277,190	0,033	-0,041
-101,147	-200,000	0,000	0,185
-100,132	670,186	-0,045	0,082
-99,118	-200,000	-0,002	0,081
-98,103	-200,000	0,013	-0,048
-97,089	80,645	0,054	-0,041
-96,074	156,506	0,079	0,077
-95,059	-200,000	0,007	0,036
-94,045	-17,818	0,050	0,022
-93,030	-173,977	-0,085	-0,002
-92,016	-14,041	0,091	-0,041
-91,001	-200,000	-0,002	-0,074
-89,986	-63,461	-0,099	0,029
-88,972	-46,170	-0,020	0,007
-87,957	324,835	0,045	0,061
-86,943	800,000	-0,028	0,076
-85,928	18,786	-0,023	0,013
-84,913	-166,109	0,099	-0,003
-83,899	-93,422	0,082	0,016
-82,884	154,832	0,071	-0,069
-81,870	-200,000	0,012	0,092
-80,855	27,529	0,140	0,083
-79,840	-200,000	0,010	-0,110
-78,826	-89,427	-0,030	-0,006
-77,811	26,053	0,096	-0,057
-76,797	135,347	0,106	-0,098
-75,782	800,000	0,039	-0,087
-74,767	-200,000	0,005	0,060
-73,753	800,000	-0,054	0,168
-72,738	-200,000	0,021	0,089
-71,724	-200,000	-0,012	-0,045
-70,709	252,870	-0,019	0,023
-69,694	70,197	-0,113	0,083
-68,680	445,911	-0,044	-0,069
-67,665	800,000	0,060	0,119
-66,651	-58,237	0,143	-0,044
-65,636	-55,911	-0,029	0,009
-64,622	-147,998	-0,077	-0,004
-63,607	-4,845	-0,144	-0,070
-62,592	304,585	-0,039	0,051
-61,578	29,907	-0,082	0,049
-60,563	84,966	0,084	-0,065
-59,549	55,608	-0,055	0,038
-58,534	12,469	-1,979	-1,075
-57,519	511,849	-1,228	-2,027
-56,505	-200,000	-0,395	-4,319
-55,490	314,208	0,924	1,232
-54,476	800,000	5,071	11,153
-53,461	-200,000	20,420	327,630
-52,446	800,000	752,864	2314,503
-51,432	551,203	1658,291	2821,655
-50,417	73,983	1663,726	1231,303
-49,403	19,241	1536,801	868,872
-48,388	13,206	1459,677	796,071
-47,373	18,839	1450,267	817,958
-46,359	16,116	1439,699	799,003
-45,344	11,514	1435,193	774,558
-44,330	11,439	1433,498	773,257
-43,315	11,398	1431,713	772,067
-42,300	11,392	1429,974	771,070
-41,286	11,443	1428,600	770,541
-40,271	11,366	1427,418	769,506
-39,257	11,395	1426,011	768,855
-38,242	11,403	1425,087	768,365
-37,227	11,424	1423,871	767,779
-36,213	11,432	1422,693	767,148
-35,198	11,430	1421,484	766,455
-34,184	11,507	1420,496	766,257
-33,169	11,391	1419,153	764,956
-32,154	11,535	1418,077	765,023
-31,140	11,512	1416,825	764,210
-30,125	11,454	1416,008	763,466
-29,111	11,473	1414,535	762,733
-28,096	11,502	1413,512	762,285
-27,082	11,463	1412,391	761,468
-26,067	11,398	1411,452	760,626
-25,052	11,418	1410,374	760,110
-24,038	11,369	1409,326	759,284
-23,023	11,380	1408,254	758,727
-22,009	11,414	1407,233	758,306
-20,994	11,368	1406,410	757,618
-19,979	11,394	1405,466	757,199
-18,965	11,363	1404,454	756,482
-17,950	11,360	1403,567	755,959
-16,936	11,336	1402,813	755,413
-15,921	11,296	1401,672	754,580
-14,906	11,278	1400,899	754,053
-13,892	11,345	1399,723	753,698
-12,877	11,293	1399,166	753,126
-11,863	11,302	1398,202	752,622
-10,848	11,277	1397,144	751,908
-9,833	11,220	1396,440	751,233
-8,819	11,167	1395,845	750,638
-7,804	11,251	1394,494	750,271
-6,790	11,223	1393,623	749,642
-5,775	11,205	1392,539	748,944
-4,760	11,226	1391,501	748,453
-3,746	11,245	1390,594	748,025
-2,731	11,200	1389,935	747,433
-1,717	11,195	1389,033	746,894
-0,702	11,198	1387,209	745,898
0,313	15,176	1301,666	718,147
1,327	31,408	694,093	419,920
2,342	48,931	120,400	79,628
3,356	2,769	16,484	8,411
4,371	-6,781	3,344	1,599
5,386	26,864	0,900	0,531
6,400	-200,000	0,054	0,463
7,415	-61,162	-0,195	-0,058
8,429	-24,283	-0,386	-0,162
9,444	90,721	-0,345	-0,272
10,459	290,255	-0,185	-0,238
11,473	-124,899	-0,268	-0,029
12,488	-76,878	-0,306	-0,075
13,502	331,685	-0,290	-0,396
14,517	49,792	-0,369	-0,245
15,531	21,396	-0,400	-0,229
16,546	106,895	-0,320	-0,268
17,561	142,412	-0,388	-0,363
18,575	8,016	-0,201	-0,106
19,590	49,756	-0,329	-0,218
20,604	-64,358	-0,194	-0,055
21,619	-14,629	-0,461	-0,208
22,634	-26,362	-0,512	-0,210
23,648	26,764	-0,466	-0,274
24,663	53,192	-0,432	-0,291
25,677	2,639	-0,336	-0,171
26,692	95,235	-0,293	-0,235
27,707	90,617	-0,405	-0,320
28,721	35,248	-0,425	-0,262
29,736	66,003	-0,378	-0,269
30,750	120,346	-0,423	-0,369
31,765	169,421	-0,244	-0,246
32,780	26,306	-0,454	-0,266
33,794	54,398	-0,376	-0,255
34,809	17,224	-0,419	-0,234
35,823	91,664	-0,331	-0,262
36,838	29,400	-0,288	-0,172
37,853	102,056	-0,339	-0,279
38,867	139,878	-0,292	-0,270
39,882	800,000	-0,182	-0,379
40,896	137,965	-0,373	-0,343
41,911	11,886	-0,386	-0,208
42,926	-27,028	-0,448	-0,183
43,940	607,174	-0,284	-0,500
44,955	46,259	-0,394	-0,256
45,969	-66,322	-0,325	-0,090
46,984	212,208	-0,214	-0,237
47,999	70,354	-0,324	-0,235
49,013	-125,024	-0,335	-0,036
50,028	55,411	-0,386	-0,262
51,042	3,215	-0,440	-0,224
52,057	129,798	-0,375	-0,337
53,071	213,796	-0,298	-0,331
54,086	-37,800	-0,371	-0,138
55,101	-22,514	-0,320	-0,135
56,115	-19,538	-0,357	-0,155
57,130	15,327	-0,289	-0,159
58,144	-38,117	-0,381	-0,141
59,159	170,610	-0,374	-0,377
60,174	-1,166	-0,451	-0,223
61,188	43,236	-0,305	-0,195
62,203	34,812	-0,331	-0,203
63,217	46,143	-0,383	-0,248
64,232	174,868	-0,233	-0,237
65,247	72,920	-0,243	-0,178
66,261	161,393	-0,323	-0,318
67,276	336,170	-0,213	-0,291
68,290	21,140	-0,326	-0,185
69,305	164,101	-0,293	-0,290
70,320	-2,444	-0,297	-0,146
71,334	1,744	-0,328	-0,165
72,349	100,128	-0,207	-0,169
73,363	-31,016	-0,202	-0,079
74,378	55,988	-0,381	-0,259
75,393	20,518	-0,246	-0,139
76,407	110,342	-0,267	-0,225
77,422	78,746	-0,322	-0,241
78,436	7,883	-0,301	-0,158
79,451	50,213	-0,249	-0,165
80,466	97,036	-0,303	-0,244
81,480	84,863	-0,377	-0,289
82,495	39,071	-0,299	-0,187
83,509	18,426	-0,212	-0,118
84,524	294,432	-0,121	-0,155
85,539	93,407	-0,319	-0,253
86,553	24,931	-0,271	-0,157
87,568	-94,048	-0,289	-0,055
88,582	-21,931	-0,478	-0,202
89,597	9,575	-0,289	-0,153
90,611	34,416	-0,321	-0,196
91,626	49,923	-0,285	-0,188
92,641	41,021	-0,236	-0,149
93,655	-26,033	-0,298	-0,122
94,670	22,664	-0,290	-0,166
95,684	-35,787	-0,337	-0,127
96,699	-56,720	-0,347	-0,107
97,714	55,413	-0,110	-0,074
98,728	77,370	-0,152	-0,113
99,743	-6,492	-0,365	-0,173
100,757	-93,462	-0,322	-0,062
101,772	-159,834	-0,369	-0,014
102,787	48,459	-0,321	-0,210
103,801	14,210	-0,330	-0,179
104,816	-29,811	-0,303	-0,120
105,830	800,000	-0,030	-0,064
106,845	-105,079	-0,276	0,044
107,860	-20,891	-0,220	-0,094
108,874	82,804	-0,157	-0,119
109,889	-24,704	-0,280	-0,116
110,903	28,367	-0,317	-0,187
111,918	65,504	-0,235	-0,166
112,933	616,222	-0,127	-0,223
113,947	-59,187	-0,298	-0,089
114,962	46,859	-0,302	-0,196
115,976	-8,743	-0,312	-0,146
116,991	329,207	-0,227	-0,306
118,006	99,191	-0,277	-0,224
119,020	36,043	-0,213	-0,131
120,035	459,308	-0,103	-0,161
121,049	103,394	-0,187	-0,153
122,064	13,245	-0,254	-0,137
123,079	-163,577	-0,364	-0,012
124,093	114,705	-0,212	-0,180
125,108	108,675	-0,304	-0,253
126,122	261,008	-0,203	-0,245
127,137	82,984	-0,229	-0,174
128,151	70,658	-0,223	-0,161
129,166	-53,928	-0,265	-0,084
130,181	637,458	-0,124	-0,220
131,195	19,401	-0,389	-0,218
132,210	-25,939	-0,259	-0,106
133,224	190,261	-0,219	-0,230
134,239	133,181	-0,234	-0,211
135,254	193,035	-0,084	-0,089
136,268	-105,915	-0,226	-0,035
137,283	30,000	-0,186	-0,110
138,297	246,033	-0,193	-0,227
139,312	121,908	-0,328	-0,286
140,327	-10,893	-0,094	-0,043
141,341	426,086	-0,169	-0,255
142,356	-30,046	-0,233	-0,092
143,370	55,058	-0,242	-0,162
144,385	-190,698	-0,240	-0,002
145,400	245,302	-0,262	-0,308
146,414	283,803	-0,177	-0,222
147,429	22,428	-0,287	-0,163
148,443	150,522	-0,198	-0,188
149,458	350,510	-0,123	-0,170
150,473	-51,977	-0,278	-0,089
151,487	-12,914	-0,176	-0,080
152,502	-158,528	-0,131	-0,005
153,516	-3,417	-0,356	-0,172
154,531	116,959	-0,171	-0,146
155,546	-40,786	-0,221	-0,079
156,560	1,637	-0,229	-0,114
157,575	-66,106	-0,374	-0,103
158,589	301,756	-0,114	-0,147
159,604	34,428	-0,245	-0,148
160,619	83,306	-0,328	-0,248
161,633	98,908	-0,222	-0,178
162,648	-6,692	-0,184	-0,087
163,662	208,796	-0,223	-0,243
164,677	-58,711	-0,246	-0,074
165,692	210,135	-0,262	-0,286
166,706	55,256	-0,297	-0,199
167,721	85,650	-0,275	-0,210
168,735	166,473	-0,166	-0,164
169,750	521,699	-0,173	-0,283
170,764	99,859	-0,237	-0,190
171,779	199,626	-0,148	-0,158
172,794	-18,047	-0,259	-0,112
173,808	403,858	-0,112	-0,164
174,823	123,923	-0,253	-0,221
175,837	743,606	-0,123	-0,231
176,852	214,007	-0,181	-0,200
177,867	-110,265	-0,232	-0,033
178,881	125,810	-0,186	-0,163
179,896	-13,563	-0,167	-0,075
180,910	-39,763	-0,226	-0,082
181,925	-54,284	-0,248	-0,078
182,940	70,498	-0,273	-0,196
183,954	-171,714	-0,391	0,009
184,969	-118,707	-0,278	-0,034
185,983	-61,496	-0,156	-0,045
186,998	-120,979	-0,254	-0,029
188,013	-55,850	-0,234	-0,072
189,027	64,002	-0,282	-0,197
190,042	-0,088	-0,278	-0,137
191,056	104,840	-0,164	-0,134
192,071	8,372	-0,339	-0,176
193,086	-126,645	-0,138	-0,014
194,100	800,000	-0,055	-0,125
195,115	30,118	-0,131	-0,078
196,129	-20,308	-0,209	-0,089
197,144	222,524	-0,157	-0,175
198,159	-200,000	0,023	-0,082
199,173	-53,148	-0,241	-0,076
200,188	50,212	-0,147	-0,096
201,202	215,234	-0,212	-0,233
202,217	169,897	-0,092	-0,092
203,232	682,056	-0,140	-0,254
204,246	-89,989	-0,226	-0,045
205,261	-16,563	-0,184	-0,080
206,275	671,881	-0,094	-0,169
207,290	102,823	0,005	0,004
208,304	76,480	-0,152	-0,111
209,319	202,046	-0,185	-0,198
210,334	169,940	-0,226	-0,224
211,348	298,682	-0,129	-0,165
212,363	343,058	-0,204	-0,278
213,377	501,309	-0,098	-0,157
214,392	115,229	-0,191	-0,161
215,407	427,436	-0,195	-0,292
216,421	800,000	-0,114	-0,236
217,436	41,533	-0,285	-0,178
218,450	191,311	-0,198	-0,207
219,465	40,013	-0,165	-0,102
220,480	15,774	-0,204	-0,111
221,494	214,911	-0,081	-0,089
222,509	800,000	-0,079	-0,167
223,523	71,576	-0,238	-0,171
224,538	-116,723	-0,190	-0,024
225,553	-77,421	-0,279	-0,067
226,567	73,963	-0,281	-0,203
227,582	-14,292	-0,213	-0,095
228,596	601,506	-0,069	-0,120
229,611	-123,393	-0,189	-0,021
230,626	-27,077	-0,177	-0,071
231,640	-143,354	-0,245	0,016
232,655	-30,789	-0,273	-0,106
233,669	123,411	-0,188	-0,163
234,684	207,399	-0,205	-0,222
235,699	124,141	-0,146	-0,127
236,713	-110,181	-0,257	-0,037
237,728	-14,229	-0,184	-0,082
238,742	345,895	-0,179	-0,244
239,757	-16,820	-0,218	-0,095
240,772	711,775	-0,080	-0,147
241,786	-115,543	-0,219	-0,028
242,801	85,660	-0,195	-0,148
243,815	127,733	-0,237	-0,208
244,830	-84,588	-0,260	-0,056
245,844	-70,051	-0,226	-0,059
246,859	-69,947	-0,178	-0,047
247,874	-75,932	-0,237	-0,058
248,888	549,028	-0,170	-0,283
249,903	-145,469	-0,157	0,010
250,917	800,000	-0,052	-0,158
251,932	229,623	-0,172	-0,195
252,947	-139,508	-0,196	0,014
253,961	38,032	-0,261	-0,160
254,976	73,075	-0,231	-0,166
255,990	-88,195	-0,118	-0,024
257,005	68,196	-0,133	-0,094
258,020	-51,397	-0,183	-0,059
259,034	-129,182	-0,182	0,017
260,049	-132,561	-0,172	-0,015
261,063	-35,887	-0,282	-0,105
262,078	800,000	-0,066	-0,169
263,093	66,951	-0,239	-0,167
264,107	-142,359	-0,161	-0,011
265,122	7,432	-0,179	0,092
266,136	-61,815	-0,168	0,048
267,151	-41,900	-0,142	-0,050
268,166	313,512	-0,141	-0,184
269,180	395,490	-0,149	-0,215
270,195	-139,529	-0,162	-0,012
271,209	106,823	-0,078	0,064
272,224	-32,516	-0,175	-0,067
273,239	393,300	-0,115	-0,166
274,253	-15,572	-0,266	-0,117
275,268	394,061	-0,102	-0,147
276,282	105,485	-0,223	-0,181
277,297	319,463	-0,067	-0,087
278,312	-46,682	-0,118	-0,040
279,326	-27,980	-0,137	-0,054
280,341	166,366	-0,204	-0,199
281,355	-151,603	-0,151	-0,008
282,370	21,652	-0,238	-0,133
283,384	-200,000	-0,023	-0,146
284,399	-146,039	-0,191	-0,011
285,414	366,894	-0,113	-0,157
286,428	-178,875	-0,149	-0,002
287,443	-60,088	-0,239	-0,070
288,457	233,930	-0,226	-0,256
289,472	77,741	-0,157	-0,115
290,487	163,217	-0,132	-0,128
291,501	372,278	-0,176	-0,247
292,516	218,619	-0,154	-0,169
293,530	-200,000	-0,029	-0,208
294,545	158,756	-0,165	-0,158
295,560	82,150	-0,196	-0,146
296,574	-79,458	-0,117	-0,027
297,589	755,770	-0,059	-0,110
298,603	25,458	-0,241	-0,137
299,618	271,003	-0,177	-0,215
300,633	-65,739	-0,169	-0,046
301,647	-200,000	-0,080	-0,294
302,662	61,118	-0,178	-0,121
303,676	-136,977	-0,188	-0,015
304,691	-6,002	-0,236	-0,110
305,706	218,701	-0,179	-0,197
306,720	544,194	-0,158	-0,260
307,735	486,679	-0,134	-0,210
308,749	28,434	-0,067	-0,039
309,764	55,334	-0,199	-0,132
310,779	43,837	-0,230	-0,144
311,793	-200,000	-0,004	-0,173
312,808	170,895	-0,129	-0,127
313,822	800,000	-0,094	-0,256
314,837	73,994	-0,179	-0,129
315,852	-200,000	-0,035	-0,116
316,866	-139,569	-0,058	0,004
317,881	-200,000	-0,039	-0,133
318,895	800,000	-0,080	-0,222
319,910	800,000	-0,040	-0,079
320,925	488,548	-0,068	0,107
321,939	-96,479	-0,277	-0,050
322,954	800,000	-0,082	-0,167
323,968	-33,865	-0,024	0,009
324,983	253,165	-0,126	-0,148
325,997	-32,351	-0,314	-0,120
327,012	-143,708	-0,090	-0,006
328,027	-196,168	-0,190	-0,001
329,041	799,493	0,048	-0,091
330,056	475,073	-0,084	-0,131
331,070	-27,472	0,036	0,014
332,085	-200,000	-0,028	-0,163
333,100	269,729	-0,181	-0,218
334,114	137,014	-0,156	-0,140
335,129	-58,035	-0,303	-0,090
336,143	13,409	-0,094	-0,050
337,158	800,000	0,034	0,102
338,173	-200,000	-0,001	-0,041
339,187	-93,140	-0,150	0,028
340,202	592,454	-0,043	-0,073
341,216	-180,144	-0,230	-0,003
342,231	187,145	-0,217	-0,222
343,246	146,591	-0,231	-0,213
344,260	612,584	-0,056	-0,097
345,275	61,218	-0,070	-0,047
346,289	47,517	-0,166	-0,106
347,304	376,981	-0,111	-0,156
348,319	108,404	-0,116	-0,095
349,333	-41,477	-0,182	-0,064
350,348	451,043	-0,161	-0,244
351,362	800,000	-0,071	-0,140
352,377	800,000	-0,068	-0,137
353,392	-171,007	-0,152	-0,003
354,406	540,587	-0,090	-0,148
355,421	207,629	1308,535	1399,330
356,435	159,732	1468,491	1399,823
