DTS Sentinel unit serial number:	SN410029Multiplexer serial number:	ORYXHardware model number:	OX2-SRSoftware version number:	ORYX F/W v4,00 Oryx Data Collector v3.7.2.0data status	okinstallation	B3 Nyhavnadifferential loss correction	single-endedforward channel	channel 1reverse channel	N/Adate	2023/12/02time	06:12:30forward acquisition time	300,00reverse acquisition time	0,00gamma	499,1914k internal	0,3194k external	0,3194temperature offset calibration	1,0000default loss term (dB/km)	0,3820temperature slope calibration	1,0000multiplexer offset coefficient	1,0000multiplexer slope coefficient	1,0000fibre end	0,00T internal ref (°C)	16,04T ext. ref 1 (°C)	0,79T ext. ref 2 (°C)	0,78length (m)	temperature (°C)	Stokes	anti-Stokes-744,400	800,000	-0,157	-0,344
-743,385	-200,000	-0,054	0,296
-742,371	800,000	-0,075	-0,225
-741,356	-200,000	0,024	0,284
-740,342	286,332	-0,197	-0,260
-739,327	-200,000	-0,063	0,292
-738,312	16,691	-0,218	-0,125
-737,298	-200,000	0,109	0,364
-736,283	211,105	-0,281	-0,322
-735,269	-200,000	0,050	0,215
-734,254	171,273	-0,210	-0,220
-733,239	638,771	-0,153	0,284
-732,225	155,577	-0,166	-0,167
-731,210	-200,000	0,037	0,126
-730,196	-148,805	0,033	0,002
-729,181	-68,934	0,174	0,048
-728,167	318,194	-0,072	-0,100
-727,152	-200,000	0,013	-0,102
-726,137	124,474	-0,119	-0,109
-725,123	370,251	-0,017	-0,025
-724,108	-58,853	-0,152	0,047
-723,094	39,083	-0,113	-0,073
-722,079	-200,000	0,015	-0,125
-721,064	-68,872	-0,107	-0,030
-720,050	719,407	0,094	0,183
-719,035	598,587	-0,023	0,041
-718,021	-41,821	-0,063	0,023
-717,006	127,161	-0,026	-0,024
-715,991	-70,163	-0,053	0,014
-714,977	385,136	-0,069	0,104
-713,962	-32,691	-0,170	0,069
-712,948	-6,512	-0,104	-0,052
-711,933	-200,000	0,039	0,157
-710,918	800,000	-0,029	-0,077
-709,904	-44,654	-0,106	-0,038
-708,889	-45,547	-0,292	-0,105
-707,875	-200,000	0,005	0,065
-706,860	800,000	0,017	0,037
-705,845	268,811	0,051	0,066
-704,831	338,119	0,054	0,077
-703,816	533,593	-0,040	-0,069
-702,802	800,000	-0,028	-0,062
-701,787	-200,000	0,011	-0,069
-700,772	52,415	-0,020	0,014
-699,758	-131,965	0,044	0,004
-698,743	-144,897	0,034	0,002
-697,729	-200,000	0,008	0,053
-696,714	4,271	-0,035	-0,018
-695,699	-29,230	-0,061	-0,025
-694,685	175,134	0,046	0,048
-693,670	-82,048	-0,107	0,025
-692,656	800,000	0,049	0,112
-691,641	109,304	0,107	-0,093
-690,627	800,000	-0,044	-0,093
-689,612	167,403	-0,113	0,117
-688,597	-142,627	0,035	0,002
-687,583	513,571	-0,044	-0,075
-686,568	-95,312	-0,074	-0,014
-685,554	-97,509	0,167	0,031
-684,539	365,075	-0,043	-0,064
-683,524	54,193	-0,033	0,023
-682,510	-119,476	-0,042	-0,005
-681,495	-200,000	0,030	-0,125
-680,481	800,000	-0,038	-0,086
-679,466	294,947	-0,027	0,035
-678,451	125,386	0,128	0,117
-677,437	199,616	0,022	0,024
-676,422	258,784	0,081	0,101
-675,408	-35,701	0,083	0,032
-674,393	-146,549	0,132	-0,008
-673,378	-200,000	0,028	-0,188
-672,364	180,776	-0,077	-0,082
-671,349	368,564	0,057	-0,084
-670,335	-26,005	0,026	0,011
-669,320	-100,579	-0,089	0,016
-668,305	-41,317	-0,129	-0,048
-667,291	800,000	-0,087	-0,224
-666,276	-147,763	-0,167	0,010
-665,262	-29,797	-0,040	-0,016
-664,247	291,307	0,116	-0,153
-663,232	151,462	0,076	-0,075
-662,218	-200,000	0,004	0,077
-661,203	-200,000	-0,016	0,118
-660,189	-6,618	0,137	-0,067
-659,174	-143,556	-0,057	-0,004
-658,159	215,220	-0,072	-0,083
-657,145	524,643	-0,064	-0,110
-656,130	256,177	0,026	-0,032
-655,116	132,429	0,106	0,100
-654,101	-147,491	0,058	-0,003
-653,086	800,000	-0,029	-0,071
-652,072	647,344	0,068	-0,127
-651,057	238,586	0,017	-0,021
-650,043	117,529	-0,109	-0,097
-649,028	48,918	-0,030	-0,021
-648,014	800,000	0,035	-0,112
-646,999	271,331	0,033	0,042
-645,984	10,949	-0,029	0,016
-644,970	280,298	-0,039	-0,051
-643,955	310,588	-0,043	0,059
-642,941	381,533	-0,028	-0,041
-641,926	-5,525	-0,138	0,069
-640,911	-64,754	-0,047	-0,014
-639,897	85,975	0,107	-0,086
-638,882	-142,932	-0,093	0,006
-637,868	-54,735	-0,141	-0,046
-636,853	59,761	-0,035	-0,025
-635,838	305,904	-0,071	-0,097
-634,824	795,052	-0,044	-0,089
-633,809	-200,000	0,035	0,115
-632,795	-200,000	-0,013	0,075
-631,780	-200,000	-0,010	0,083
-630,765	-2,436	-0,030	0,015
-629,751	97,445	-0,066	0,055
-628,736	339,396	-0,034	-0,048
-627,722	86,277	0,048	0,038
-626,707	134,160	0,033	-0,031
-625,692	770,485	-0,049	0,096
-624,678	800,000	0,051	0,108
-623,663	-12,004	0,069	-0,033
-622,649	118,361	-0,042	-0,037
-621,634	-121,807	-0,059	0,007
-620,619	-101,648	0,091	0,016
-619,605	-29,754	0,096	-0,039
-618,590	114,464	0,017	-0,015
-617,576	425,366	0,039	-0,061
-616,561	-200,000	0,022	-0,074
-615,546	123,002	-0,106	-0,096
-614,532	800,000	-0,036	-0,098
-613,517	129,910	0,099	-0,092
-612,503	-200,000	-0,019	-0,160
-611,488	750,683	0,036	0,071
-610,474	-30,988	-0,122	0,050
-609,459	-76,158	-0,093	-0,024
-608,444	123,423	0,046	-0,042
-607,430	-200,000	-0,014	-0,057
-606,415	800,000	-0,044	-0,094
-605,401	185,526	-0,055	-0,059
-604,386	29,185	0,026	0,016
-603,371	-75,786	0,109	-0,028
-602,357	-33,356	-0,196	0,078
-601,342	131,262	-0,090	-0,084
-600,328	25,680	-0,062	-0,037
-599,313	-200,000	0,001	-0,160
-598,298	247,681	-0,033	0,041
-597,284	-116,977	-0,048	0,006
-596,269	37,999	0,090	0,058
-595,255	181,840	0,102	0,109
-594,240	-124,173	-0,075	-0,008
-593,225	122,652	-0,086	-0,078
-592,211	800,000	0,025	-0,059
-591,196	124,488	-0,052	0,048
-590,182	138,669	0,077	0,073
-589,167	215,184	-0,097	0,112
-588,152	-173,961	0,079	-0,002
-587,138	24,868	-0,033	0,020
-586,123	36,611	0,082	-0,053
-585,109	-146,412	-0,196	-0,012
-584,094	726,073	-0,030	-0,059
-583,079	246,765	0,044	-0,054
-582,065	-200,000	0,045	0,157
-581,050	-44,931	-0,142	0,051
-580,036	-18,253	0,109	0,049
-579,021	-200,000	-0,007	-0,056
-578,006	51,667	0,012	-0,009
-576,992	309,594	-0,062	-0,084
-575,977	-169,939	0,026	-0,001
-574,963	37,562	0,055	-0,035
-573,948	800,000	0,034	-0,089
-572,934	-200,000	0,007	0,059
-571,919	-200,000	-0,005	-0,147
-570,904	-200,000	0,023	-0,107
-569,890	648,581	-0,038	-0,071
-568,875	800,000	0,021	-0,050
-567,861	26,681	-0,028	-0,017
-566,846	-44,636	-0,151	0,054
-565,831	-200,000	0,007	-0,148
-564,817	127,676	-0,165	-0,152
-563,802	239,664	0,047	-0,057
-562,788	8,112	-0,146	-0,079
-561,773	800,000	-0,044	0,135
-560,758	207,940	0,008	0,009
-559,744	-73,258	0,051	-0,013
-558,729	-200,000	0,002	0,058
-557,715	264,112	0,075	0,095
-556,700	-115,181	0,099	0,013
-555,685	43,812	-0,056	0,037
-554,671	-200,000	-0,011	0,106
-553,656	51,405	-0,066	-0,045
-552,642	663,762	0,019	-0,035
-551,627	-129,958	-0,026	-0,003
-550,612	-200,000	-0,011	0,072
-549,598	103,165	-0,137	-0,116
-548,583	-4,324	0,047	0,023
-547,569	-31,850	-0,105	-0,042
-546,554	-200,000	-0,002	0,048
-545,539	-10,832	0,040	0,019
-544,525	-37,394	-0,082	0,032
-543,510	-18,521	0,033	0,015
-542,496	-15,104	-0,067	-0,031
-541,481	-89,879	-0,188	-0,039
-540,466	-89,395	0,038	-0,008
-539,452	-200,000	0,027	0,089
-538,437	-135,799	-0,117	-0,010
-537,423	151,193	-0,033	-0,032
-536,408	-200,000	-0,035	0,122
-535,393	-72,416	-0,094	-0,025
-534,379	225,309	-0,124	-0,146
-533,364	234,854	0,083	-0,099
-532,350	-200,000	0,001	0,021
-531,335	-200,000	-0,014	0,056
-530,321	800,000	0,024	-0,069
-529,306	800,000	0,044	-0,118
-528,291	-200,000	0,008	0,084
-527,277	800,000	-0,053	0,122
-526,262	-93,241	-0,071	0,014
-525,248	122,566	0,090	-0,081
-524,233	46,037	0,034	0,023
-523,218	380,230	0,069	0,103
-522,204	-152,954	0,042	-0,002
-521,189	-200,000	0,016	0,061
-520,175	77,836	-0,070	-0,054
-519,160	-32,665	0,138	-0,055
-518,145	214,137	0,069	-0,079
-517,131	-26,206	0,060	0,025
-516,116	2,308	0,015	0,008
-515,102	-64,308	0,036	-0,010
-514,087	-48,882	0,145	0,050
-513,072	-73,411	-0,102	0,027
-512,058	54,666	-0,063	-0,044
-511,043	77,059	-0,106	0,081
-510,029	-25,970	-0,105	-0,045
-509,014	20,921	-0,037	0,022
-507,999	800,000	0,032	-0,065
-506,985	144,060	0,016	0,015
-505,970	-87,061	-0,047	-0,010
-504,956	638,282	0,058	0,106
-503,941	-200,000	0,000	0,039
-502,926	-200,000	-0,005	0,129
-501,912	512,071	0,035	0,059
-500,897	800,000	-0,006	-0,013
-499,883	-111,638	-0,160	-0,023
-498,868	152,372	-0,124	-0,122
-497,853	191,886	-0,054	-0,059
-496,839	-82,615	0,079	0,018
-495,824	-161,599	0,094	0,003
-494,810	-200,000	0,003	-0,011
-493,795	-200,000	-0,022	-0,074
-492,781	-200,000	0,005	0,019
-491,766	353,523	-0,059	-0,085
-490,751	-200,000	-0,032	-0,147
-489,737	-132,370	-0,030	-0,003
-488,722	-97,322	0,058	0,011
-487,708	800,000	0,047	0,105
-486,693	118,618	0,059	0,052
-485,678	-200,000	0,003	-0,034
-484,664	-60,374	0,082	-0,025
-483,649	-200,000	0,017	-0,067
-482,635	-25,604	-0,068	0,029
-481,620	243,527	0,015	0,019
-480,605	9,776	0,058	-0,032
-479,591	-200,000	-0,026	0,142
-478,576	-200,000	-0,003	-0,046
-477,562	-200,000	0,042	-0,141
-476,547	-130,911	-0,134	0,013
-475,532	-26,074	0,100	0,042
-474,518	800,000	-0,018	-0,048
-473,503	147,215	-0,023	-0,023
-472,489	-200,000	0,006	0,025
-471,474	-124,002	-0,233	-0,026
-470,459	-200,000	-0,037	0,138
-469,445	62,513	-0,026	0,019
-468,430	-12,049	-0,101	0,048
-467,416	-5,464	0,105	0,052
-466,401	-131,998	-0,138	-0,013
-465,386	210,471	-0,145	0,165
-464,372	-69,390	0,110	-0,030
-463,357	-200,000	0,000	-0,065
-462,343	-29,062	0,080	0,033
-461,328	-200,000	0,008	0,094
-460,313	-0,068	-0,016	-0,008
-459,299	-38,149	0,142	0,054
-458,284	584,732	0,022	0,039
-457,270	545,275	-0,051	0,089
-456,255	-21,484	-0,071	-0,031
-455,241	-77,351	-0,075	0,019
-454,226	-120,388	0,052	0,006
-453,211	132,643	0,022	-0,020
-452,197	138,464	-0,044	0,042
-451,182	-200,000	-0,004	-0,031
-450,168	77,344	-0,161	-0,123
-449,153	-90,179	0,143	0,030
-448,138	-200,000	0,002	0,008
-447,124	108,816	0,078	-0,067
-446,109	-200,000	0,009	-0,129
-445,095	51,126	0,138	0,094
-444,080	430,684	0,120	0,187
-443,065	198,895	-0,010	0,012
-442,051	-200,000	-0,020	0,102
-441,036	485,331	-0,051	0,083
-440,022	606,281	-0,052	-0,094
-439,007	608,077	0,033	0,059
-437,992	552,925	-0,057	0,099
-436,978	-200,000	0,012	-0,046
-435,963	-200,000	-0,015	0,162
-434,949	340,928	0,096	0,135
-433,934	683,615	0,030	0,057
-432,919	-200,000	-0,006	-0,117
-431,905	-24,661	-0,040	-0,017
-430,890	-200,000	0,003	0,051
-429,876	64,115	-0,046	-0,033
-428,861	-200,000	-0,004	0,054
-427,846	355,210	-0,034	0,049
-426,832	800,000	-0,018	0,048
-425,817	-200,000	-0,034	-0,113
-424,803	31,236	-0,111	-0,068
-423,788	1,439	0,076	0,039
-422,773	-62,999	0,125	-0,037
-421,759	-200,000	-0,009	-0,070
-420,744	136,505	0,026	0,025
-419,730	129,796	-0,025	-0,023
-418,715	-200,000	0,015	-0,092
-417,701	258,234	0,064	-0,079
-416,686	438,455	0,067	0,106
-415,671	130,317	0,052	0,048
-414,657	-200,000	-0,003	-0,014
-413,642	12,258	-0,045	-0,025
-412,628	591,452	-0,019	0,034
-411,613	146,480	0,027	0,026
-410,598	800,000	0,016	-0,049
-409,584	69,254	0,101	0,074
-408,569	-200,000	0,014	0,044
-407,555	-200,000	-0,016	0,092
-406,540	322,132	-0,042	0,058
-405,525	388,408	0,050	-0,074
-404,511	-76,318	-0,096	0,024
-403,496	435,676	-0,022	-0,035
-402,482	-200,000	0,002	0,040
-401,467	-127,189	-0,011	-0,001
-400,452	89,959	0,048	-0,039
-399,438	55,331	0,166	0,115
-398,423	-90,818	0,118	0,024
-397,409	800,000	0,014	0,038
-396,394	-200,000	0,006	-0,063
-395,379	57,973	0,073	-0,052
-394,365	39,910	-0,060	-0,039
-393,350	731,032	0,057	0,110
-392,336	-22,172	-0,162	0,070
-391,321	-172,527	-0,093	-0,002
-390,306	800,000	-0,066	-0,147
-389,292	420,741	0,060	-0,093
-388,277	111,168	0,059	-0,051
-387,263	-200,000	0,002	-0,047
-386,248	-110,002	0,088	0,013
-385,233	-170,533	0,049	-0,001
-384,219	-200,000	-0,000	-0,011
-383,204	-23,987	0,066	0,028
-382,190	34,998	-0,057	0,036
-381,175	713,138	0,044	0,084
-380,160	-13,130	0,108	-0,050
-379,146	-26,958	-0,103	-0,043
-378,131	-63,409	-0,080	-0,024
-377,117	-200,000	0,016	-0,087
-376,102	458,546	0,042	-0,068
-375,088	63,053	-0,045	-0,032
-374,073	-93,927	0,136	-0,027
-373,058	-200,000	-0,001	0,021
-372,044	74,654	0,048	-0,036
-371,029	-200,000	-0,013	0,114
-370,015	636,096	-0,024	-0,044
-369,000	-24,072	-0,066	0,028
-367,985	62,593	-0,061	0,044
-366,971	91,121	0,114	-0,092
-365,956	148,243	0,061	-0,060
-364,942	92,416	0,066	0,053
-363,927	-200,000	0,019	0,129
-362,912	-82,441	0,166	-0,038
-361,898	-108,840	0,045	0,007
-360,883	406,725	-0,014	-0,022
-359,869	83,711	-0,058	-0,046
-358,854	800,000	-0,011	0,031
-357,839	282,871	0,027	0,035
-356,825	-109,225	0,059	0,009
-355,810	46,995	-0,056	0,037
-354,796	-109,629	-0,152	-0,023
-353,781	-169,763	0,080	0,002
-352,766	-200,000	-0,000	-0,096
-351,752	-200,000	-0,019	-0,119
-350,737	-200,000	-0,014	-0,045
-349,723	218,175	0,093	0,107
-348,708	800,000	-0,016	-0,042
-347,693	-134,017	-0,085	0,007
-346,679	418,990	0,030	0,046
-345,664	153,684	0,081	-0,080
-344,650	-200,000	0,034	0,149
-343,635	-115,615	0,154	0,020
-342,620	-29,924	0,228	0,093
-341,606	-38,417	0,172	-0,065
-340,591	-200,000	-0,027	0,112
-339,577	116,751	-0,045	0,040
-338,562	334,886	0,083	0,115
-337,548	225,128	-0,077	-0,090
-336,533	60,129	0,025	0,018
-335,518	-200,000	0,000	-0,054
-334,504	-82,627	0,141	0,033
-333,489	-135,643	-0,167	0,014
-332,475	800,000	-0,125	-0,269
-331,460	-26,655	0,118	-0,049
-330,445	-145,609	-0,055	-0,003
-329,431	251,888	0,056	-0,069
-328,416	800,000	0,025	-0,071
-327,402	-200,000	-0,010	0,143
-326,387	-137,149	-0,069	0,006
-325,372	800,000	-0,052	-0,154
-324,358	188,246	-0,108	0,116
-323,343	800,000	-0,031	0,085
-322,329	772,835	0,047	0,092
-321,314	-189,859	0,037	0,000
-320,299	-90,533	-0,077	0,016
-319,285	129,116	-0,102	-0,093
-318,270	-200,000	0,017	-0,096
-317,256	800,000	-0,059	-0,146
-316,241	-200,000	-0,010	-0,050
-315,226	153,806	0,109	-0,107
-314,212	585,968	0,062	-0,109
-313,197	96,291	0,075	0,062
-312,183	800,000	0,058	0,123
-311,168	173,034	-0,084	0,086
-310,153	282,824	-0,093	-0,120
-309,139	800,000	0,001	0,003
-308,124	-107,109	0,186	-0,029
-307,110	-59,930	-0,050	-0,015
-306,095	-3,762	0,010	-0,005
-305,080	800,000	-0,020	0,056
-304,066	188,181	0,041	-0,043
-303,051	-42,774	0,093	0,034
-302,037	800,000	0,034	0,079
-301,022	-143,211	0,076	0,005
-300,008	552,162	0,037	0,063
-298,993	-70,625	0,206	0,055
-297,978	-200,000	0,009	0,030
-296,964	106,092	-0,059	-0,050
-295,949	393,431	-0,076	-0,114
-294,935	-54,387	0,225	-0,073
-293,920	-111,281	-0,080	0,012
-292,905	-57,819	0,104	0,032
-291,891	-114,390	-0,122	0,017
-290,876	-82,879	0,042	-0,010
-289,862	-141,908	0,063	-0,004
-288,847	552,518	-0,026	0,045
-287,832	800,000	-0,025	-0,077
-286,818	132,062	0,026	0,024
-285,803	-90,816	-0,118	-0,024
-284,789	221,210	0,075	-0,087
-283,774	151,330	-0,057	0,055
-282,759	-60,169	0,062	-0,019
-281,745	25,422	0,033	-0,020
-280,730	-20,321	-0,086	0,038
-279,716	-200,000	0,019	-0,105
-278,701	-29,850	0,098	-0,040
-277,686	-200,000	-0,002	-0,059
-276,672	-105,256	-0,080	0,013
-275,657	366,098	0,076	0,111
-274,643	800,000	-0,008	0,026
-273,628	-200,000	0,003	0,022
-272,613	-200,000	0,011	0,085
-271,599	-200,000	-0,005	-0,057
-270,584	-126,103	-0,008	-0,001
-269,570	158,074	-0,011	-0,010
-268,555	648,518	-0,038	-0,070
-267,540	121,533	-0,122	-0,109
-266,526	800,000	-0,041	-0,128
-265,511	-69,649	-0,150	-0,041
-264,497	128,361	-0,029	0,026
-263,482	-67,850	-0,016	-0,005
-262,467	-53,784	0,111	0,036
-261,453	-160,927	-0,111	0,004
-260,438	98,462	-0,015	0,013
-259,424	-200,000	-0,040	-0,164
-258,409	259,456	0,028	0,035
-257,395	210,467	-0,114	0,128
-256,380	800,000	-0,065	0,172
-255,365	-200,000	0,014	0,070
-254,351	440,632	-0,113	0,177
-253,336	96,753	-0,042	-0,034
-252,322	-200,000	-0,069	-0,225
-251,307	594,990	-0,040	-0,072
-250,292	-142,910	0,192	0,013
-249,278	-93,066	-0,064	0,013
-248,263	-200,000	0,013	0,105
-247,249	506,867	-0,063	-0,104
-246,234	-177,488	-0,034	-0,001
-245,219	-101,398	0,015	0,003
-244,205	114,486	-0,054	-0,047
-243,190	-200,000	-0,005	0,104
-242,176	137,118	0,173	0,162
-241,161	-67,523	-0,083	0,023
-240,146	-15,733	0,117	-0,053
-239,132	313,577	-0,045	0,061
-238,117	-180,618	0,065	0,001
-237,103	39,490	-0,034	-0,022
-236,088	800,000	0,021	-0,049
-235,073	94,913	0,064	0,052
-234,059	511,698	0,008	-0,013
-233,044	-200,000	-0,004	0,124
-232,030	11,536	0,059	-0,032
-231,015	9,437	0,079	0,043
-230,000	275,324	-0,044	0,056
-228,986	-65,163	0,177	0,051
-227,971	40,481	-0,091	-0,059
-226,957	-75,849	-0,062	-0,016
-225,942	800,000	0,047	0,094
-224,927	228,516	0,045	0,053
-223,913	107,955	0,089	-0,076
-222,898	-13,818	-0,085	-0,039
-221,884	-200,000	-0,046	-0,147
-220,869	72,433	0,055	-0,041
-219,855	195,601	0,098	-0,106
-218,840	-200,000	0,018	-0,074
-217,825	-200,000	-0,040	-0,140
-216,811	-200,000	-0,016	-0,137
-215,796	451,599	-0,037	0,059
-214,782	-200,000	-0,004	-0,023
-213,767	350,567	-0,030	0,043
-212,752	548,566	-0,035	0,060
-211,738	232,194	0,098	0,115
-210,723	76,345	0,116	0,088
-209,709	-200,000	-0,007	-0,101
-208,694	456,200	-0,028	-0,044
-207,679	800,000	0,014	-0,036
-206,665	243,296	0,062	0,074
-205,650	-200,000	-0,003	0,153
-204,636	12,726	0,154	0,085
-203,621	223,849	0,095	0,109
-202,606	-200,000	0,005	0,121
-201,592	-200,000	-0,061	0,244
-200,577	-200,000	-0,015	-0,080
-199,563	240,043	0,059	0,070
-198,548	-200,000	-0,022	0,135
-197,533	636,456	0,085	-0,154
-196,519	462,448	-0,034	0,054
-195,504	58,856	-0,108	0,075
-194,490	-200,000	0,042	-0,211
-193,475	-177,694	-0,124	-0,002
-192,460	129,713	0,015	0,014
-191,446	-32,893	-0,060	0,024
-190,431	-200,000	0,022	0,105
-189,417	234,926	0,106	0,125
-188,402	519,932	0,046	0,078
-187,387	-200,000	0,037	0,120
-186,373	-200,000	0,004	-0,111
-185,358	-151,403	0,119	0,006
-184,344	265,244	0,015	0,018
-183,329	83,251	0,131	-0,102
-182,315	-152,305	0,059	0,003
-181,300	57,892	-0,064	0,045
-180,285	-101,745	-0,086	0,015
-179,271	-108,870	-0,108	-0,016
-178,256	800,000	0,029	-0,081
-177,242	588,938	-0,048	-0,085
-176,227	-200,000	0,017	0,092
-175,212	332,663	-0,064	-0,089
-174,198	-82,296	0,126	-0,029
-173,183	-200,000	-0,014	0,115
-172,169	287,918	-0,039	0,051
-171,154	281,378	0,053	0,068
-170,139	-94,162	0,094	-0,018
-169,125	705,463	-0,050	-0,094
-168,110	-33,502	0,095	-0,037
-167,096	-200,000	0,005	-0,030
-166,081	-125,016	-0,060	0,006
-165,066	-200,000	-0,004	-0,053
-164,052	-95,501	-0,059	0,011
-163,037	-138,736	-0,131	-0,010
-162,023	53,616	0,132	0,090
-161,008	18,971	0,060	0,034
-159,993	134,736	-0,053	0,049
-158,979	23,256	-0,039	0,023
-157,964	-9,704	-0,077	-0,036
-156,950	-200,000	0,005	0,018
-155,935	800,000	0,041	-0,115
-154,920	800,000	-0,034	0,092
-153,906	231,003	0,074	0,086
-152,891	-200,000	-0,012	0,110
-151,877	2,162	-0,043	-0,022
-150,862	61,994	0,016	0,012
-149,847	800,000	0,017	-0,042
-148,833	-190,750	0,127	0,001
-147,818	76,161	0,077	0,058
-146,804	-200,000	0,020	0,148
-145,789	-89,838	-0,087	-0,018
-144,775	-7,310	0,154	-0,074
-143,760	42,321	-0,148	-0,096
-142,745	-200,000	-0,015	-0,104
-141,731	-126,680	-0,070	0,007
-140,716	475,535	0,086	0,139
-139,702	-82,495	0,211	-0,048
-138,687	-200,000	-0,000	0,048
-137,672	-200,000	0,019	0,106
-136,658	-70,426	0,062	0,017
-135,643	800,000	-0,057	-0,164
-134,629	800,000	-0,012	-0,024
-133,614	-200,000	0,010	0,087
-132,599	251,900	0,091	0,111
-131,585	57,894	0,008	-0,005
-130,570	-95,925	-0,159	-0,030
-129,556	341,077	-0,094	-0,131
-128,541	674,959	-0,045	-0,083
-127,526	76,771	0,081	-0,061
-126,512	474,682	0,132	0,213
-125,497	348,959	0,037	-0,052
-124,483	-88,489	0,166	0,035
-123,468	-70,156	-0,130	-0,035
-122,453	-26,789	-0,048	-0,020
-121,439	5,335	0,064	-0,033
-120,424	209,775	0,066	-0,074
-119,410	-200,000	0,009	-0,039
-118,395	-200,000	0,005	0,167
-117,380	-200,000	-0,014	0,050
-116,366	453,392	0,026	0,041
-115,351	139,167	-0,203	-0,190
-114,337	-80,481	-0,034	-0,008
-113,322	639,656	-0,048	0,087
-112,307	-43,028	0,053	0,019
-111,293	601,686	-0,028	0,049
-110,278	800,000	0,025	0,051
-109,264	-180,525	0,074	0,001
-108,249	800,000	-0,042	-0,095
-107,234	65,131	-0,047	0,034
-106,220	-200,000	-0,078	-0,246
-105,205	96,515	0,029	-0,024
-104,191	-200,000	0,000	-0,166
-103,176	17,270	0,082	0,046
-102,162	553,785	0,019	0,033
-101,147	214,766	0,091	0,102
-100,132	-200,000	-0,027	-0,123
-99,118	-70,649	-0,095	-0,025
-98,103	74,703	0,038	-0,029
-97,089	76,027	-0,103	0,077
-96,074	-200,000	-0,002	0,027
-95,059	-147,210	-0,049	-0,003
-94,045	149,408	0,089	0,086
-93,030	5,803	-0,089	0,047
-92,016	185,843	-0,122	-0,129
-91,001	20,285	0,041	-0,024
-89,986	17,217	0,075	0,042
-88,972	150,926	0,043	0,042
-87,957	-172,058	-0,061	0,001
-86,943	-119,769	-0,091	-0,011
-85,928	1,701	-0,063	0,032
-84,913	16,074	-0,075	0,042
-83,899	199,406	0,136	-0,148
-82,884	-200,000	0,035	0,125
-81,870	800,000	0,023	0,047
-80,855	-84,066	0,025	-0,006
-79,840	252,943	-0,060	0,072
-78,826	-145,094	-0,092	-0,006
-77,811	-200,000	-0,002	0,008
-76,797	-200,000	-0,019	0,078
-75,782	462,502	0,102	-0,162
-74,767	9,288	-0,099	0,053
-73,753	-48,320	0,059	-0,020
-72,738	138,994	0,107	-0,100
-71,724	210,137	0,029	-0,032
-70,709	91,550	0,085	-0,068
-69,694	-79,943	0,065	-0,015
-68,680	-80,538	-0,043	-0,010
-67,665	167,478	0,048	0,048
-66,651	-200,000	0,026	0,119
-65,636	-200,000	0,005	-0,138
-64,622	-200,000	0,013	-0,105
-63,607	-61,547	-0,117	-0,035
-62,592	-137,374	0,101	-0,008
-61,578	622,504	-0,015	0,027
-60,563	-127,766	0,054	-0,005
-59,549	549,739	-0,051	0,088
-58,534	-56,298	-1,415	-0,444
-57,519	339,552	-1,662	-2,306
-56,505	-200,000	-0,495	-4,316
-55,490	82,065	0,963	0,740
-54,476	800,000	4,798	11,289
-53,461	-200,000	17,628	281,672
-52,446	800,000	720,216	2225,480
-51,432	563,736	1634,724	2820,126
-50,417	81,167	1658,582	1269,766
-49,403	23,937	1532,444	894,305
-48,388	17,861	1455,962	820,345
-47,373	18,332	1445,305	816,570
-46,359	17,953	1436,116	809,541
-45,344	16,159	1431,506	798,372
-44,330	16,125	1429,324	796,966
-43,315	16,125	1427,708	796,033
-42,300	16,131	1426,031	795,095
-41,286	16,189	1424,957	794,735
-40,271	16,125	1423,644	793,668
-39,257	16,128	1422,260	792,882
-38,242	16,161	1421,010	792,310
-37,227	16,166	1419,769	791,611
-36,213	16,191	1418,303	790,878
-35,198	16,155	1417,239	790,086
-34,184	16,173	1416,246	789,585
-33,169	16,108	1415,066	788,588
-32,154	16,148	1414,280	788,310
-31,140	16,134	1412,765	787,366
-30,125	16,225	1411,526	787,073
-29,111	16,144	1410,323	785,988
-28,096	16,151	1409,408	785,480
-27,082	16,047	1408,451	784,431
-26,067	16,049	1407,275	783,754
-25,052	16,094	1406,122	783,292
-24,038	16,101	1405,092	782,719
-23,023	16,049	1404,062	781,873
-22,009	16,021	1403,221	781,241
-20,994	15,974	1402,290	780,471
-19,979	15,960	1401,528	779,951
-18,965	16,017	1400,264	779,482
-17,950	15,957	1399,611	778,810
-16,936	15,997	1398,340	778,256
-15,921	16,004	1397,026	777,529
-14,906	15,993	1395,978	776,861
-13,892	15,985	1395,433	776,490
-12,877	15,950	1394,457	775,756
-11,863	15,985	1393,567	775,393
-10,848	15,978	1392,555	774,765
-9,833	15,939	1391,683	774,067
-8,819	15,935	1390,673	773,457
-7,804	15,951	1389,585	772,895
-6,790	15,886	1388,665	772,053
-5,775	15,873	1387,680	771,416
-4,760	15,905	1386,844	771,067
-3,746	15,886	1386,019	770,490
-2,731	15,837	1385,350	769,865
-1,717	15,872	1384,218	769,365
-0,702	15,859	1382,492	768,315
0,313	19,649	1303,322	741,811
1,327	36,152	706,724	440,513
2,342	55,658	125,204	85,876
3,356	4,317	16,614	8,604
4,371	13,424	3,065	1,680
5,386	-84,405	0,542	0,120
6,400	800,000	-0,029	0,088
7,415	64,747	-0,234	-0,167
8,429	159,314	-0,204	-0,202
9,444	-56,492	-0,257	-0,080
10,459	-95,241	-0,351	-0,066
11,473	259,772	-0,237	-0,290
12,488	54,897	-0,341	-0,233
13,502	80,805	-0,293	-0,224
14,517	-49,552	-0,437	-0,147
15,531	147,522	-0,375	-0,358
16,546	-32,898	-0,480	-0,188
17,561	147,721	-0,323	-0,308
18,575	77,636	-0,239	-0,180
19,590	-124,802	-0,225	-0,024
20,604	16,150	-0,226	-0,126
21,619	10,452	-0,476	-0,256
22,634	133,725	-0,420	-0,385
23,648	308,329	-0,351	-0,465
24,663	98,045	-0,344	-0,280
25,677	120,300	-0,362	-0,318
26,692	108,443	-0,363	-0,307
27,707	70,888	-0,348	-0,255
28,721	150,965	-0,388	-0,373
29,736	15,340	-0,439	-0,243
30,750	209,963	-0,342	-0,380
31,765	190,403	-0,304	-0,324
32,780	35,981	-0,344	-0,214
33,794	-16,526	-0,359	-0,160
34,809	53,767	-0,404	-0,274
35,823	101,664	-0,404	-0,333
36,838	192,894	-0,353	-0,378
37,853	49,770	-0,471	-0,313
38,867	89,016	-0,383	-0,301
39,882	106,128	-0,328	-0,275
40,896	89,614	-0,435	-0,343
41,911	358,861	-0,155	-0,219
42,926	109,826	-0,297	-0,251
43,940	228,988	-0,247	-0,285
44,955	34,025	-0,436	-0,268
45,969	43,261	-0,459	-0,296
46,984	13,688	-0,267	-0,146
47,999	32,626	-0,414	-0,252
49,013	185,320	-0,178	-0,187
50,028	144,681	-0,347	-0,328
51,042	-8,629	-0,342	-0,162
52,057	-2,678	-0,416	-0,205
53,071	247,994	-0,297	-0,355
54,086	89,493	-0,370	-0,291
55,101	-125,049	-0,170	-0,018
56,115	88,630	-0,355	-0,278
57,130	310,195	-0,291	-0,385
58,144	68,031	-0,446	-0,322
59,159	-18,222	-0,458	-0,202
60,174	3,990	-0,394	-0,203
61,188	15,072	-0,401	-0,221
62,203	102,912	-0,337	-0,278
63,217	-37,756	-0,296	-0,111
64,232	254,216	-0,218	-0,263
65,247	130,287	-0,293	-0,265
66,261	74,167	-0,381	-0,282
67,276	266,921	-0,293	-0,362
68,290	-61,372	-0,377	-0,111
69,305	66,387	-0,278	-0,199
70,320	71,112	-0,311	-0,227
71,334	-10,130	-0,462	-0,216
72,349	85,280	-0,406	-0,314
73,363	-3,772	-0,402	-0,196
74,378	74,599	-0,385	-0,285
75,393	28,466	-0,315	-0,187
76,407	170,577	-0,285	-0,288
77,422	43,228	-0,250	-0,160
78,436	34,298	-0,362	-0,222
79,451	363,348	-0,280	-0,398
80,466	180,684	-0,383	-0,396
81,480	14,955	-0,439	-0,241
82,495	679,607	-0,192	-0,354
83,509	75,687	-0,297	-0,221
84,524	66,746	-0,252	-0,180
85,539	68,236	-0,230	-0,166
86,553	278,884	-0,148	-0,186
87,568	113,492	-0,260	-0,222
88,582	-9,587	-0,249	-0,117
89,597	204,181	-0,251	-0,274
90,611	621,905	-0,119	-0,211
91,626	211,557	-0,171	-0,190
92,641	237,923	-0,171	-0,200
93,655	-37,822	-0,297	-0,110
94,670	65,677	-0,416	-0,296
95,684	70,029	-0,352	-0,256
96,699	598,704	-0,075	-0,132
97,714	-38,908	-0,298	-0,110
98,728	-101,167	-0,246	-0,042
99,743	28,363	-0,331	-0,196
100,757	-98,819	-0,337	-0,060
101,772	85,680	-0,261	-0,202
102,787	41,178	-0,295	-0,187
103,801	-11,603	-0,372	-0,171
104,816	93,855	-0,155	-0,124
105,830	29,156	-0,284	-0,169
106,845	174,489	-0,296	-0,301
107,860	7,084	-0,314	-0,164
108,874	143,467	-0,218	-0,204
109,889	126,328	-0,320	-0,285
110,903	396,864	-0,217	-0,319
111,918	70,863	-0,336	-0,244
112,933	100,408	-0,168	-0,137
113,947	54,299	-0,227	-0,153
114,962	265,452	-0,151	-0,186
115,976	120,540	-0,256	-0,223
116,991	172,986	-0,251	-0,254
118,006	-29,057	-0,256	-0,103
119,020	246,032	-0,153	-0,181
120,035	-2,198	-0,314	-0,154
121,049	-23,507	-0,304	-0,128
122,064	188,312	-0,188	-0,197
123,079	-14,442	-0,224	-0,101
124,093	262,131	-0,222	-0,271
125,108	42,932	-0,299	-0,191
126,122	-200,000	-0,118	-0,382
127,137	40,229	-0,260	-0,164
128,151	44,489	-0,181	-0,116
129,166	-16,612	-0,289	-0,128
130,181	54,832	-0,370	-0,250
131,195	82,011	-0,268	-0,203
132,210	399,733	-0,299	-0,440
133,224	200,071	-0,236	-0,254
134,239	125,711	-0,187	-0,165
135,254	-17,320	-0,357	-0,157
136,268	-92,025	-0,287	-0,056
137,283	53,517	-0,208	-0,140
138,297	294,235	-0,204	-0,261
139,312	43,074	-0,316	-0,202
140,327	217,443	-0,196	-0,219
141,341	194,517	-0,176	-0,187
142,356	13,444	-0,281	-0,152
143,370	-154,683	-0,270	-0,012
144,385	128,140	-0,238	-0,212
145,400	-133,934	-0,336	-0,029
146,414	782,531	-0,100	-0,192
147,429	99,159	-0,296	-0,239
148,443	172,155	-0,208	-0,210
149,458	-37,815	-0,233	-0,086
150,473	289,757	-0,246	-0,313
151,487	38,489	-0,163	-0,102
152,502	196,519	-0,190	-0,203
153,516	540,068	-0,172	-0,287
154,531	339,731	-0,246	-0,337
155,546	188,952	-0,208	-0,219
156,560	-29,035	-0,170	-0,068
157,575	22,393	-0,269	-0,154
158,589	312,367	-0,166	-0,219
159,604	-37,488	-0,223	-0,083
160,619	92,189	-0,294	-0,231
161,633	119,130	-0,233	-0,201
162,648	129,220	-0,224	-0,200
163,662	3,191	-0,166	-0,084
164,677	54,370	-0,090	-0,061
165,692	-68,222	-0,361	-0,098
166,706	119,635	-0,181	-0,157
167,721	207,847	-0,193	-0,210
168,735	155,542	-0,225	-0,217
169,750	105,608	-0,254	-0,210
170,764	313,215	-0,175	-0,230
171,779	37,761	-0,187	-0,116
172,794	295,325	-0,253	-0,325
173,808	179,270	-0,051	-0,052
174,823	-135,819	-0,195	0,016
175,837	-11,508	-0,253	-0,116
176,852	87,578	-0,293	-0,226
177,867	95,522	-0,193	-0,154
178,881	55,007	-0,132	-0,089
179,896	32,100	-0,246	-0,148
180,910	-31,598	-0,240	-0,094
181,925	143,110	-0,310	-0,288
182,940	205,448	-0,283	-0,307
183,954	-93,699	-0,244	-0,046
184,969	128,328	-0,232	-0,206
185,983	-200,000	-0,013	-0,137
186,998	-79,585	-0,238	-0,056
188,013	250,554	-0,190	-0,225
189,027	-140,454	-0,342	0,024
190,042	-15,185	-0,339	-0,151
191,056	90,362	-0,239	-0,187
192,071	154,600	-0,205	-0,196
193,086	-91,025	-0,187	-0,037
194,100	19,676	-0,262	-0,147
195,115	25,594	-0,139	-0,081
196,129	19,874	-0,356	-0,199
197,144	51,547	-0,186	-0,123
198,159	392,998	-0,176	-0,256
199,173	87,528	-0,096	-0,074
200,188	-48,605	-0,262	-0,087
201,202	-200,000	-0,031	-0,169
202,217	-20,199	-0,186	-0,079
203,232	-65,399	-0,123	-0,034
204,246	420,434	-0,205	-0,308
205,261	-44,267	-0,270	-0,094
206,275	11,065	-0,170	-0,090
207,290	56,813	-0,143	-0,097
208,304	585,884	-0,089	-0,153
209,319	-83,441	-0,272	-0,060
210,334	33,508	-0,301	-0,181
211,348	478,121	-0,123	-0,194
212,363	79,851	-0,228	-0,170
213,377	-25,904	-0,252	-0,103
214,392	31,243	-0,161	-0,096
215,407	275,458	-0,165	-0,204
216,421	102,325	-0,212	-0,172
217,436	63,333	-0,294	-0,205
218,450	260,403	-0,193	-0,232
219,465	198,705	-0,237	-0,253
220,480	124,336	-0,146	-0,128
221,494	-200,000	-0,067	-0,211
222,509	42,421	-0,130	-0,082
223,523	45,760	-0,247	-0,159
224,538	20,074	-0,293	-0,164
225,553	139,242	-0,199	-0,182
226,567	73,862	-0,268	-0,195
227,582	-21,380	-0,292	-0,124
228,596	-42,594	-0,135	-0,048
229,611	309,998	-0,199	-0,259
230,626	48,556	-0,136	-0,089
231,640	161,012	-0,251	-0,244
232,655	98,539	-0,180	-0,144
233,669	-61,786	-0,202	-0,058
234,684	-10,486	-0,191	-0,088
235,699	418,083	-0,107	-0,159
236,713	-87,162	-0,208	-0,044
237,728	0,481	-0,166	-0,082
238,742	-43,170	-0,291	-0,102
239,757	11,396	-0,301	-0,160
240,772	1,844	-0,259	-0,129
241,786	91,222	-0,210	-0,164
242,801	-200,000	-0,019	-0,124
243,815	-38,228	-0,202	-0,074
244,830	48,767	-0,310	-0,202
245,844	-15,156	-0,273	-0,121
246,859	103,427	-0,141	-0,115
247,874	545,004	-0,166	-0,276
248,888	61,563	-0,263	-0,181
249,903	290,748	-0,159	-0,201
250,917	-104,504	-0,151	-0,024
251,932	99,682	-0,121	-0,097
252,947	199,496	-0,212	-0,226
253,961	18,645	-0,170	-0,094
254,976	596,523	-0,146	-0,252
255,990	13,582	-0,163	-0,088
257,005	132,053	-0,213	-0,190
258,020	127,384	-0,146	-0,128
259,034	12,705	-0,046	-0,024
260,049	229,708	-0,171	-0,194
261,063	-69,569	-0,188	-0,049
262,078	93,058	-0,160	-0,125
263,093	-200,000	-0,075	-0,254
264,107	-110,310	-0,168	-0,024
265,122	28,502	-0,114	-0,067
266,136	-33,763	-0,140	-0,053
267,151	603,535	-0,157	-0,272
268,166	-88,911	-0,226	-0,046
269,180	30,365	-0,201	-0,119
270,195	37,905	-0,124	-0,076
271,209	70,484	-0,218	-0,156
272,224	10,850	-0,144	-0,076
273,239	12,811	-0,183	-0,098
274,253	434,742	-0,073	-0,110
275,268	197,807	-0,170	-0,180
276,282	800,000	-0,051	-0,118
277,297	159,544	-0,150	-0,145
278,312	67,963	-0,264	-0,187
279,326	334,308	-0,197	-0,265
280,341	489,855	-0,049	-0,077
281,355	25,838	-0,194	-0,111
282,370	97,057	-0,133	-0,106
283,384	-20,788	-0,284	-0,120
284,399	-59,663	-0,165	-0,049
285,414	139,644	-0,215	-0,196
286,428	296,782	-0,145	-0,185
287,443	-102,956	-0,289	-0,047
288,457	40,431	-0,170	-0,106
289,472	-7,889	-0,108	-0,050
290,487	-20,093	-0,193	-0,082
291,501	61,792	-0,208	-0,143
292,516	168,124	-0,119	-0,117
293,530	-129,672	-0,072	0,007
294,545	164,875	-0,186	-0,182
295,560	104,239	-0,105	-0,085
296,574	506,096	-0,110	-0,177
297,589	800,000	-0,053	-0,131
298,603	422,772	-0,153	-0,228
299,618	125,693	-0,087	-0,076
300,633	107,978	-0,170	-0,140
301,647	61,254	-0,112	-0,077
302,662	-17,901	-0,067	0,029
303,676	800,000	-0,087	-0,181
304,691	-137,283	-0,182	-0,014
305,706	139,669	-0,144	-0,131
306,720	238,476	-0,245	-0,281
307,735	-23,216	-0,175	-0,072
308,749	373,014	-0,115	-0,162
309,764	107,424	-0,093	-0,076
310,779	-169,765	-0,169	-0,004
311,793	-131,655	-0,128	0,011
312,808	800,000	-0,091	-0,181
313,822	424,646	-0,175	-0,261
314,837	130,580	-0,133	-0,117
315,852	800,000	-0,073	-0,146
316,866	6,840	-0,118	-0,061
317,881	-24,149	-0,149	-0,061
318,895	-200,000	-0,040	-0,172
319,910	-52,010	-0,203	-0,065
320,925	-51,579	-0,253	0,081
321,939	-63,692	-0,173	-0,049
322,954	11,813	-0,114	-0,060
323,968	-94,774	-0,135	-0,025
324,983	-36,837	-0,044	0,016
325,997	297,859	-0,166	-0,211
327,012	53,255	-0,233	-0,154
328,027	16,408	-0,207	-0,112
329,041	284,565	-0,140	-0,173
330,056	100,669	-0,204	-0,164
331,070	-200,000	-0,045	-0,179
332,085	65,532	-0,242	-0,169
333,100	-75,957	-0,159	-0,039
334,114	-43,320	-0,173	-0,060
335,129	-200,000	-0,014	-0,231
336,143	47,731	-0,259	-0,166
337,158	-65,186	-0,128	-0,035
338,173	800,000	-0,096	-0,186
339,187	227,821	-0,077	-0,087
340,202	305,772	-0,106	-0,136
341,216	270,323	-0,145	-0,176
342,231	203,268	-0,108	-0,115
343,246	-2,863	-0,160	-0,077
344,260	242,468	-0,085	-0,099
345,275	101,251	0,098	-0,079
346,289	800,000	-0,076	-0,160
347,304	-101,393	-0,148	0,025
348,319	800,000	-0,076	-0,217
349,333	141,021	-0,168	-0,153
350,348	465,825	-0,048	-0,074
351,362	327,811	-0,120	-0,159
352,377	8,981	-0,085	0,044
353,392	492,933	-0,121	-0,192
354,406	172,319	-0,096	-0,095
355,421	207,929	1314,145	1412,867
356,435	159,970	1474,839	1413,396
