DTS Sentinel unit serial number:	SN410029Multiplexer serial number:	ORYXHardware model number:	OX2-SRSoftware version number:	ORYX F/W v4,00 Oryx Data Collector v3.7.2.0data status	okinstallation	B3 Nyhavnadifferential loss correction	single-endedforward channel	channel 1reverse channel	N/Adate	2023/12/05time	03:02:30forward acquisition time	300,00reverse acquisition time	0,00gamma	499,1914k internal	0,3201k external	0,3201temperature offset calibration	1,0000default loss term (dB/km)	0,3820temperature slope calibration	1,0000multiplexer offset coefficient	1,0000multiplexer slope coefficient	1,0000fibre end	0,00T internal ref (°C)	14,05T ext. ref 1 (°C)	-0,69T ext. ref 2 (°C)	-0,71length (m)	temperature (°C)	Stokes	anti-Stokes-744,400	800,000	-0,123	-0,363
-743,385	-200,000	0,039	0,177
-742,371	112,666	-0,292	-0,257
-741,356	-200,000	-0,014	0,174
-740,342	-200,000	-0,097	-0,341
-739,327	-200,000	-0,010	0,291
-738,312	112,251	-0,227	-0,199
-737,298	-200,000	0,056	0,268
-736,283	112,422	-0,268	-0,236
-735,269	-200,000	0,029	0,313
-734,254	-197,831	-0,300	0,001
-733,239	-88,238	-0,148	0,032
-732,225	-200,000	-0,010	-0,149
-731,210	800,000	0,028	0,088
-730,196	586,683	0,075	-0,134
-729,181	210,187	-0,064	-0,073
-728,167	800,000	0,021	-0,044
-727,152	-200,000	-0,005	-0,097
-726,137	-200,000	0,001	-0,113
-725,123	-120,133	-0,073	0,009
-724,108	50,173	-0,026	-0,018
-723,094	39,289	-0,125	-0,081
-722,079	800,000	0,036	-0,106
-721,064	-59,761	-0,015	0,005
-720,050	-75,371	-0,160	0,041
-719,035	55,779	0,059	0,041
-718,021	-200,000	0,020	-0,182
-717,006	31,130	-0,067	-0,042
-715,991	730,217	-0,057	-0,111
-714,977	130,885	-0,048	-0,045
-713,962	-48,787	0,061	0,021
-712,948	-184,648	-0,042	-0,000
-711,933	-103,767	-0,137	0,023
-710,918	-200,000	-0,006	-0,021
-709,904	179,932	-0,127	-0,135
-708,889	800,000	-0,047	-0,141
-707,875	-200,000	0,034	-0,140
-706,860	17,842	-0,045	0,026
-705,845	-40,568	-0,097	-0,037
-704,831	-64,967	0,092	-0,027
-703,816	-6,919	0,059	0,029
-702,802	-157,825	-0,052	-0,002
-701,787	800,000	-0,010	-0,032
-700,772	161,434	0,020	0,020
-699,758	12,385	-0,116	0,065
-698,743	-93,836	0,100	0,020
-697,729	56,914	0,069	0,049
-696,714	-200,000	0,016	-0,146
-695,699	-23,412	0,072	0,031
-694,685	11,005	-0,039	0,022
-693,670	340,040	-0,101	-0,144
-692,656	310,193	-0,055	-0,075
-691,641	72,680	0,108	-0,081
-690,627	800,000	0,022	0,052
-689,612	-200,000	0,009	0,059
-688,597	-123,806	-0,072	-0,008
-687,583	133,068	-0,066	-0,062
-686,568	716,098	-0,019	0,036
-685,554	-200,000	0,009	-0,103
-684,539	-118,194	0,026	-0,003
-683,524	-200,000	0,005	-0,067
-682,510	-200,000	0,006	0,029
-681,495	273,583	0,034	0,044
-680,481	-137,319	0,091	-0,007
-679,466	92,542	-0,091	-0,074
-678,451	-200,000	0,026	0,107
-677,437	-200,000	0,130	-0,000
-676,422	-63,502	-0,087	-0,026
-675,408	383,536	0,100	0,149
-674,393	-9,806	-0,024	0,012
-673,378	45,155	-0,228	-0,152
-672,364	116,187	-0,059	-0,052
-671,349	18,281	-0,058	-0,034
-670,335	50,597	0,063	-0,043
-669,320	407,175	-0,006	0,009
-668,305	-71,588	-0,074	-0,020
-667,291	150,477	-0,084	0,082
-666,276	800,000	-0,045	0,090
-665,262	407,822	0,031	-0,048
-664,247	-200,000	-0,030	-0,114
-663,232	54,472	-0,101	-0,070
-662,218	800,000	0,014	-0,032
-661,203	-92,935	0,081	-0,016
-660,189	-49,799	-0,020	0,007
-659,174	6,157	-0,112	-0,060
-658,159	-103,723	-0,120	0,020
-657,145	-197,552	-0,104	-0,000
-656,130	-200,000	0,012	-0,089
-655,116	626,023	-0,060	0,110
-654,101	-200,000	0,002	0,045
-653,086	-200,000	0,034	-0,221
-652,072	101,665	-0,023	-0,019
-651,057	122,092	-0,163	-0,148
-650,043	-200,000	0,003	0,111
-649,028	800,000	0,016	0,033
-648,014	352,949	0,045	0,064
-646,999	181,276	-0,028	-0,030
-645,984	783,298	-0,065	-0,129
-644,970	-0,195	-0,194	-0,100
-643,955	-28,742	-0,094	-0,039
-642,941	341,288	0,045	-0,064
-641,926	18,673	0,096	-0,055
-640,911	-200,000	-0,008	0,091
-639,897	800,000	-0,019	0,049
-638,882	-200,000	-0,009	-0,056
-637,868	800,000	-0,013	0,027
-636,853	-200,000	-0,048	-0,219
-635,838	-56,526	-0,046	-0,015
-634,824	-54,906	0,084	0,027
-633,809	-200,000	-0,036	0,135
-632,795	233,765	-0,015	0,018
-631,780	-57,474	-0,105	0,033
-630,765	364,874	0,041	-0,060
-629,751	800,000	-0,063	-0,131
-628,736	-200,000	0,008	-0,098
-627,722	-200,000	0,065	-0,216
-626,707	-200,000	-0,004	0,102
-625,692	657,211	-0,104	-0,195
-624,678	151,646	0,049	0,049
-623,663	278,781	-0,049	0,064
-622,649	-200,000	0,004	0,080
-621,634	-200,000	-0,034	-0,150
-620,619	148,209	-0,062	-0,060
-619,605	225,237	-0,072	0,084
-618,590	100,771	0,079	-0,067
-617,576	120,331	-0,048	-0,043
-616,561	28,812	-0,073	0,045
-615,546	-8,757	0,045	-0,022
-614,532	297,419	-0,032	0,042
-613,517	-13,126	-0,080	-0,037
-612,503	438,609	0,069	-0,110
-611,488	-59,257	0,038	0,012
-610,474	-123,397	0,105	-0,012
-609,459	800,000	0,019	-0,044
-608,444	800,000	0,038	-0,101
-607,430	-61,118	-0,156	-0,047
-606,415	31,985	0,080	-0,050
-605,401	-200,000	-0,030	0,131
-604,386	-170,032	-0,089	0,002
-603,371	-200,000	0,012	0,109
-602,357	597,830	0,081	0,146
-601,342	36,620	-0,112	-0,072
-600,328	270,057	-0,052	-0,066
-599,313	219,748	-0,045	-0,053
-598,298	16,170	-0,124	-0,070
-597,284	10,495	-0,032	0,018
-596,269	-88,465	-0,045	0,010
-595,255	202,687	-0,030	0,034
-594,240	-70,931	-0,078	0,021
-593,225	149,058	0,081	-0,079
-592,211	-200,000	0,006	-0,142
-591,196	-95,876	-0,055	0,011
-590,182	192,500	0,072	0,079
-589,167	58,616	0,053	0,038
-588,152	275,466	0,090	0,116
-587,138	-61,057	-0,139	0,042
-586,123	-200,000	-0,028	0,121
-585,109	97,712	-0,113	-0,094
-584,094	560,130	0,038	-0,066
-583,079	-200,000	0,016	0,118
-582,065	-200,000	0,013	0,135
-581,050	800,000	0,037	0,107
-580,036	-200,000	0,031	-0,115
-579,021	528,899	-0,032	-0,056
-578,006	800,000	-0,076	-0,157
-576,992	800,000	-0,074	-0,165
-575,977	-200,000	0,026	-0,130
-574,963	-200,000	-0,003	-0,057
-573,948	-200,000	-0,005	0,054
-572,934	-200,000	-0,000	-0,065
-571,919	-80,376	-0,088	-0,021
-570,904	800,000	-0,029	-0,078
-569,890	800,000	-0,034	-0,072
-568,875	-70,737	0,051	-0,014
-567,861	-200,000	0,014	-0,090
-566,846	-200,000	-0,002	-0,024
-565,831	94,931	-0,087	-0,071
-564,817	-50,506	-0,180	-0,061
-563,802	-17,493	0,057	0,026
-562,788	-25,290	-0,129	0,055
-561,773	-63,563	-0,106	0,031
-560,758	800,000	0,039	0,081
-559,744	612,578	0,092	0,168
-558,729	-200,000	-0,000	0,143
-557,715	328,863	-0,052	-0,072
-556,700	-68,967	0,083	-0,023
-555,685	800,000	-0,019	-0,045
-554,671	-114,198	0,081	-0,011
-553,656	-26,372	0,125	0,053
-552,642	800,000	0,063	0,134
-551,627	-122,607	-0,059	-0,007
-550,612	19,805	0,052	0,030
-549,598	-191,079	-0,042	0,000
-548,583	-200,000	0,019	0,088
-547,569	800,000	-0,047	-0,138
-546,554	-62,292	0,198	0,059
-545,539	681,350	0,022	0,042
-544,525	142,072	0,005	-0,005
-543,510	385,072	0,076	0,114
-542,496	800,000	-0,074	-0,159
-541,481	400,129	-0,037	0,056
-540,466	144,291	0,065	0,063
-539,452	-108,997	0,144	-0,022
-538,437	94,054	0,040	0,033
-537,423	800,000	-0,029	-0,088
-536,408	162,827	0,104	-0,105
-535,393	43,490	-0,076	-0,050
-534,379	-56,772	0,053	0,017
-533,364	-1,744	0,128	-0,065
-532,350	-115,818	-0,036	-0,005
-531,335	159,845	-0,033	0,033
-530,321	-200,000	-0,004	-0,027
-529,306	-21,811	-0,087	0,038
-528,291	-200,000	0,022	-0,091
-527,277	-102,058	-0,082	-0,014
-526,262	101,096	-0,058	0,049
-525,248	337,291	0,042	0,059
-524,233	-32,446	-0,086	0,034
-523,218	-200,000	-0,003	-0,124
-522,204	-90,035	0,105	0,022
-521,189	-35,602	-0,123	-0,048
-520,175	267,131	0,087	0,110
-519,160	-200,000	-0,010	-0,094
-518,145	-71,843	0,125	0,033
-517,131	61,839	0,090	0,064
-516,116	-8,334	-0,046	0,022
-515,102	15,367	-0,084	0,047
-514,087	-200,000	-0,015	0,088
-513,072	-200,000	-0,003	-0,084
-512,058	800,000	-0,009	0,021
-511,043	800,000	-0,013	-0,034
-510,029	-200,000	-0,018	0,147
-509,014	32,779	0,098	0,061
-507,999	-11,300	0,037	0,017
-506,985	64,874	-0,110	0,080
-505,970	69,351	-0,123	-0,091
-504,956	-67,710	0,042	-0,012
-503,941	647,742	0,042	0,078
-502,926	-200,000	0,004	-0,022
-501,912	305,180	0,041	0,055
-500,897	-106,859	0,150	0,024
-499,883	800,000	0,048	0,108
-498,868	166,260	-0,036	-0,037
-497,853	243,637	-0,041	0,049
-496,839	-145,647	0,091	-0,006
-495,824	324,816	0,058	-0,080
-494,810	-200,000	0,000	0,026
-493,795	-200,000	-0,051	-0,201
-492,781	-200,000	-0,004	0,074
-491,766	-71,966	-0,050	0,013
-490,751	800,000	-0,035	0,076
-489,737	743,112	-0,023	-0,044
-488,722	-200,000	0,019	-0,104
-487,708	217,277	0,057	0,065
-486,693	-88,510	0,049	0,010
-485,678	-143,948	-0,035	0,002
-484,664	-79,807	-0,072	-0,017
-483,649	-172,393	0,152	-0,003
-482,635	157,033	0,027	0,027
-481,620	800,000	0,078	-0,160
-480,605	-78,080	0,083	0,020
-479,591	202,348	0,080	0,089
-478,576	-200,000	0,012	-0,076
-477,562	-200,000	0,025	0,082
-476,547	-30,120	-0,040	0,016
-475,532	62,673	0,139	0,100
-474,518	11,269	0,010	-0,006
-473,503	-200,000	-0,013	0,054
-472,489	-200,000	-0,021	0,163
-471,474	110,669	-0,054	-0,046
-470,459	248,723	-0,075	-0,092
-469,445	131,707	-0,127	-0,117
-468,430	28,219	-0,089	-0,054
-467,416	-200,000	-0,003	0,099
-466,401	715,323	0,086	0,164
-465,386	-200,000	-0,031	0,175
-464,372	-130,608	0,133	-0,013
-463,357	800,000	0,018	0,046
-462,343	-135,623	-0,137	0,012
-461,328	80,833	0,106	-0,082
-460,313	258,634	0,040	0,050
-459,299	185,545	0,019	-0,020
-458,284	-46,366	-0,066	-0,023
-457,270	784,959	-0,093	0,185
-456,255	207,447	0,071	0,079
-455,241	-200,000	-0,044	-0,183
-454,226	305,334	0,077	-0,104
-453,211	71,199	-0,088	-0,066
-452,197	800,000	0,040	0,092
-451,182	-183,751	0,050	-0,001
-450,168	-19,528	0,120	0,053
-449,153	-170,358	0,037	-0,001
-448,138	189,174	-0,087	-0,094
-447,124	-6,176	-0,048	0,023
-446,109	-102,935	-0,045	-0,008
-445,095	783,606	0,028	-0,056
-444,080	285,734	-0,040	-0,052
-443,065	-61,839	-0,067	-0,020
-442,051	33,697	-0,014	0,009
-441,036	556,983	0,038	0,067
-440,022	15,427	-0,141	-0,079
-439,007	800,000	0,014	-0,042
-437,992	4,237	0,142	0,075
-436,978	800,000	0,073	0,166
-435,963	50,290	-0,094	-0,064
-434,949	160,781	0,026	-0,026
-433,934	-200,000	-0,016	0,086
-432,919	800,000	-0,029	0,060
-431,905	-200,000	-0,014	-0,054
-430,890	69,751	0,091	-0,067
-429,876	405,427	0,028	0,042
-428,861	-82,048	0,210	0,049
-427,846	-200,000	0,003	0,019
-426,832	800,000	-0,012	0,035
-425,817	-87,032	-0,141	-0,031
-424,803	-129,709	0,124	-0,012
-423,788	45,300	-0,020	0,013
-422,773	-200,000	0,051	0,240
-421,759	147,726	0,116	0,113
-420,744	332,142	0,072	0,100
-419,730	-200,000	-0,030	0,136
-418,715	159,469	0,051	-0,051
-417,701	113,570	0,063	-0,055
-416,686	-200,000	0,017	-0,058
-415,671	-166,675	0,210	0,006
-414,657	800,000	-0,057	-0,175
-413,642	50,933	0,071	-0,048
-412,628	-54,886	-0,097	0,031
-411,613	120,699	-0,087	0,077
-410,598	62,052	0,024	-0,017
-409,584	37,432	0,075	-0,047
-408,569	-51,486	0,143	0,048
-407,555	800,000	0,025	0,075
-406,540	73,693	0,051	0,039
-405,525	143,656	-0,078	0,075
-404,511	269,797	-0,091	-0,115
-403,496	-200,000	0,028	-0,128
-402,482	-127,346	-0,029	0,003
-401,467	-106,895	0,050	0,008
-400,452	152,071	-0,089	0,087
-399,438	-119,673	0,062	-0,008
-398,423	264,840	0,038	0,048
-397,409	-200,000	-0,003	-0,108
-396,394	-51,309	-0,155	-0,052
-395,379	-200,000	-0,000	0,094
-394,365	148,874	0,154	-0,149
-393,350	-200,000	-0,006	0,063
-392,336	-43,840	-0,124	0,045
-391,321	-200,000	-0,002	0,025
-390,306	-200,000	0,005	-0,025
-389,292	-109,529	0,037	0,006
-388,277	-113,849	-0,081	0,011
-387,263	235,947	0,088	-0,105
-386,248	769,184	-0,024	-0,047
-385,233	42,385	0,050	0,033
-384,219	-96,848	-0,045	0,008
-383,204	800,000	-0,020	-0,045
-382,190	788,196	-0,042	-0,083
-381,175	116,368	0,049	-0,043
-380,160	132,077	0,123	0,113
-379,146	384,397	-0,102	0,152
-378,131	-200,000	-0,002	0,045
-377,117	800,000	0,011	0,023
-376,102	800,000	-0,026	-0,063
-375,088	-31,893	-0,034	-0,014
-374,073	-50,398	0,089	0,030
-373,058	22,656	-0,113	0,066
-372,044	-200,000	0,028	-0,092
-371,029	237,157	-0,068	0,080
-370,015	8,943	-0,020	-0,011
-369,000	61,773	-0,171	-0,122
-367,985	125,370	0,037	-0,034
-366,971	-69,406	0,127	-0,035
-365,956	-200,000	0,003	0,054
-364,942	12,596	0,145	0,080
-363,927	-139,340	0,045	0,003
-362,912	-166,648	-0,023	-0,001
-361,898	-73,140	-0,034	-0,009
-360,883	354,709	-0,069	0,099
-359,869	-200,000	0,028	-0,179
-358,854	-200,000	-0,003	0,032
-357,839	-70,438	0,114	-0,031
-356,825	-65,720	-0,015	0,004
-355,810	-66,582	0,124	0,035
-354,796	-200,000	0,000	-0,013
-353,781	-200,000	-0,006	-0,063
-352,766	800,000	0,034	-0,078
-351,752	800,000	-0,016	-0,036
-350,737	571,361	0,118	0,206
-349,723	390,679	0,032	-0,047
-348,708	23,592	-0,035	-0,021
-347,693	-169,600	-0,066	-0,002
-346,679	-200,000	0,017	0,070
-345,664	-200,000	-0,011	0,050
-344,650	-93,078	-0,131	-0,026
-343,635	-200,000	0,001	0,139
-342,620	64,280	0,080	0,058
-341,606	800,000	0,028	-0,065
-340,591	-130,085	-0,153	0,015
-339,577	-177,210	0,034	0,001
-338,562	68,831	-0,088	0,064
-337,548	60,885	-0,065	0,046
-336,533	120,297	-0,067	-0,059
-335,518	-85,039	0,038	0,008
-334,504	-14,564	-0,018	-0,008
-333,489	800,000	-0,028	0,065
-332,475	800,000	-0,012	-0,032
-331,460	800,000	-0,046	-0,117
-330,445	-106,349	-0,103	-0,016
-329,431	-200,000	-0,008	0,047
-328,416	328,590	-0,046	0,063
-327,402	-200,000	0,048	0,174
-326,387	-77,224	0,053	0,013
-325,372	118,168	-0,038	0,033
-324,358	-200,000	-0,013	-0,062
-323,343	-33,884	-0,168	0,066
-322,329	-53,713	0,060	-0,019
-321,314	60,256	-0,040	0,028
-320,299	-200,000	0,044	0,152
-319,285	549,674	0,022	0,038
-318,270	15,436	0,124	-0,069
-317,256	-200,000	0,002	-0,014
-316,241	528,671	-0,028	0,048
-315,226	800,000	0,032	0,086
-314,212	203,647	-0,051	-0,056
-313,197	-200,000	-0,013	-0,072
-312,183	97,697	-0,043	0,036
-311,168	132,358	-0,091	-0,084
-310,153	442,463	0,077	-0,121
-309,139	-200,000	-0,007	-0,160
-308,124	230,375	0,079	-0,093
-307,110	33,387	0,009	-0,005
-306,095	800,000	-0,018	-0,037
-305,080	-57,496	-0,075	-0,023
-304,066	800,000	-0,022	0,066
-303,051	81,830	0,036	-0,028
-302,037	529,567	0,069	-0,117
-301,022	16,748	-0,028	-0,016
-300,008	-200,000	-0,033	0,142
-298,993	-200,000	0,004	-0,046
-297,978	-200,000	0,016	0,062
-296,964	50,481	0,127	-0,085
-295,949	800,000	-0,018	-0,053
-294,935	800,000	-0,041	-0,085
-293,920	154,373	0,103	-0,101
-292,905	-200,000	0,004	-0,028
-291,891	129,363	-0,084	-0,077
-290,876	800,000	0,020	-0,059
-289,862	-200,000	0,004	0,077
-288,847	-26,445	-0,172	-0,072
-287,832	-200,000	-0,022	0,072
-286,818	103,263	-0,074	0,062
-285,803	370,079	0,035	0,051
-284,789	-93,922	-0,125	-0,024
-283,774	-200,000	0,001	-0,131
-282,759	2,679	0,055	0,028
-281,745	-200,000	-0,038	-0,193
-280,730	-200,000	-0,010	-0,124
-279,716	763,635	-0,059	-0,115
-278,701	217,372	0,092	0,105
-277,686	800,000	0,024	0,052
-276,672	-9,516	0,122	0,058
-275,657	59,833	-0,111	-0,078
-274,643	-200,000	-0,033	-0,104
-273,628	-200,000	0,008	-0,116
-272,613	-200,000	-0,007	-0,033
-271,599	-200,000	-0,020	-0,082
-270,584	-114,804	0,138	0,019
-269,570	-200,000	-0,004	0,137
-268,555	617,127	0,087	0,157
-267,540	-21,053	-0,071	-0,031
-266,526	-200,000	0,019	-0,148
-265,511	-200,000	-0,015	-0,070
-264,497	800,000	0,033	-0,083
-263,482	-101,961	0,137	0,023
-262,467	-125,283	0,074	0,008
-261,453	413,000	-0,066	0,100
-260,438	619,298	-0,026	0,047
-259,424	60,318	-0,077	-0,054
-258,409	-124,708	-0,103	-0,011
-257,395	733,530	0,006	-0,011
-256,380	800,000	0,067	0,143
-255,365	261,936	0,078	0,096
-254,351	353,344	-0,037	-0,052
-253,336	800,000	-0,063	-0,131
-252,322	-200,000	0,027	-0,091
-251,307	800,000	0,024	-0,063
-250,292	-40,694	-0,061	0,022
-249,278	-200,000	-0,011	0,121
-248,263	-76,729	0,103	-0,026
-247,249	-200,000	-0,002	0,097
-246,234	175,415	0,043	-0,045
-245,219	716,283	-0,015	0,028
-244,205	-200,000	0,004	-0,123
-243,190	-200,000	-0,027	0,109
-242,176	95,704	-0,036	-0,029
-241,161	-110,260	0,160	-0,024
-240,146	800,000	-0,025	0,052
-239,132	-200,000	-0,003	-0,082
-238,117	54,541	0,056	-0,039
-237,103	800,000	0,039	-0,085
-236,088	-200,000	-0,014	0,075
-235,073	-200,000	-0,005	0,172
-234,059	340,813	-0,015	0,021
-233,044	-147,324	0,011	-0,001
-232,030	308,373	-0,092	-0,122
-231,015	-200,000	0,038	-0,178
-230,000	-74,972	-0,136	0,035
-228,986	98,885	0,047	-0,038
-227,971	-28,755	-0,031	0,013
-226,957	-107,843	0,132	0,020
-225,942	272,154	-0,077	0,097
-224,927	-200,000	-0,007	-0,106
-223,913	-136,099	0,041	0,003
-222,898	-9,480	-0,072	-0,034
-221,884	-11,828	-0,127	-0,059
-220,869	800,000	-0,006	-0,019
-219,855	-200,000	-0,011	-0,035
-218,840	-169,524	0,009	-0,000
-217,825	-200,000	0,052	-0,190
-216,811	-56,204	-0,088	-0,028
-215,796	-66,203	-0,134	0,038
-214,782	57,824	0,067	-0,047
-213,767	206,592	0,045	0,050
-212,752	65,026	0,043	-0,031
-211,738	209,110	0,083	0,093
-210,723	5,813	-0,076	0,040
-209,709	-42,738	0,008	-0,003
-208,694	347,661	-0,023	-0,033
-207,679	-200,000	0,019	-0,113
-206,665	-109,582	0,082	-0,012
-205,650	800,000	-0,051	-0,108
-204,636	-90,300	0,048	0,010
-203,621	-200,000	0,030	0,156
-202,606	-200,000	0,007	-0,042
-201,592	264,054	-0,023	-0,029
-200,577	-200,000	-0,018	0,074
-199,563	149,256	0,054	-0,052
-198,548	800,000	0,042	0,120
-197,533	139,026	0,115	0,108
-196,519	-12,907	-0,178	0,082
-195,504	-117,901	-0,031	0,004
-194,490	532,450	-0,010	0,016
-193,475	4,409	-0,066	0,034
-192,460	-40,307	0,010	-0,004
-191,446	800,000	0,011	-0,023
-190,431	132,553	0,025	0,023
-189,417	-29,108	0,129	0,052
-188,402	304,885	0,041	0,055
-187,387	800,000	0,018	0,037
-186,373	149,842	-0,096	-0,093
-185,358	800,000	-0,028	0,063
-184,344	-200,000	-0,002	-0,021
-183,329	-45,655	0,112	-0,039
-182,315	-200,000	-0,009	0,198
-181,300	-96,805	-0,063	0,012
-180,285	146,280	-0,115	0,109
-179,271	294,334	-0,032	-0,041
-178,256	18,994	0,044	0,025
-177,242	-200,000	0,000	-0,002
-176,227	-200,000	0,014	0,114
-175,212	0,766	0,054	0,027
-174,198	-200,000	0,015	0,159
-173,183	-26,698	-0,032	-0,013
-172,169	-45,862	-0,141	0,049
-171,154	-200,000	0,004	0,014
-170,139	800,000	0,040	0,104
-169,125	31,599	0,165	0,101
-168,110	86,458	0,078	0,061
-167,096	-200,000	-0,025	0,087
-166,081	-23,205	0,083	0,036
-165,066	-165,096	-0,044	-0,001
-164,052	-9,346	0,079	-0,037
-163,037	286,658	-0,089	-0,114
-162,023	800,000	0,029	-0,058
-161,008	-137,498	-0,119	0,009
-159,993	-55,462	-0,141	-0,045
-158,979	334,102	0,067	0,092
-157,964	-200,000	-0,024	-0,088
-156,950	800,000	0,005	-0,011
-155,935	-90,439	0,047	-0,010
-154,920	-200,000	0,053	0,185
-153,906	-43,094	0,056	0,020
-152,891	-200,000	-0,030	0,116
-151,877	-9,449	-0,070	-0,033
-150,862	-200,000	-0,019	0,108
-149,847	-166,757	-0,132	-0,004
-148,833	297,678	0,015	0,020
-147,818	96,725	0,102	0,083
-146,804	-200,000	0,019	0,084
-145,789	533,069	-0,061	0,103
-144,775	-80,489	-0,059	0,014
-143,760	800,000	-0,019	0,053
-142,745	276,998	0,073	-0,092
-141,731	289,941	-0,050	-0,065
-140,716	35,822	0,132	0,082
-139,702	800,000	0,072	0,171
-138,687	48,435	-0,047	0,031
-137,672	216,187	0,061	0,069
-136,658	-200,000	0,015	-0,059
-135,643	-42,597	0,046	0,017
-134,629	-200,000	0,006	0,032
-133,614	-74,075	-0,105	0,027
-132,599	454,986	0,056	0,089
-131,585	-126,571	-0,064	0,007
-130,570	-200,000	0,006	0,059
-129,556	-200,000	0,013	0,051
-128,541	562,286	-0,047	-0,081
-127,526	713,706	0,007	-0,014
-126,512	-200,000	0,005	0,076
-125,497	-34,746	0,126	-0,049
-124,483	-121,709	0,071	0,008
-123,468	715,331	0,032	0,060
-122,453	67,729	-0,126	-0,091
-121,439	800,000	0,014	-0,028
-120,424	644,571	-0,039	0,071
-119,410	276,381	0,033	0,041
-118,395	117,402	0,020	0,018
-117,380	230,600	-0,072	-0,083
-116,366	-13,690	0,077	0,035
-115,351	143,407	-0,053	-0,050
-114,337	5,759	0,013	0,007
-113,322	-31,398	-0,125	-0,049
-112,307	800,000	-0,011	-0,031
-111,293	6,048	0,057	-0,030
-110,278	72,311	-0,076	-0,056
-109,264	-200,000	0,010	0,061
-108,249	231,382	-0,030	-0,034
-107,234	800,000	-0,045	0,115
-106,220	22,974	-0,068	-0,040
-105,205	340,409	0,058	-0,080
-104,191	-200,000	-0,021	-0,078
-103,176	-200,000	0,024	0,159
-102,162	169,116	0,042	-0,042
-101,147	-44,721	-0,095	-0,033
-100,132	-118,886	-0,012	-0,001
-99,118	64,497	-0,006	0,004
-98,103	-200,000	-0,002	-0,147
-97,089	589,172	0,093	0,163
-96,074	-200,000	-0,006	-0,062
-95,059	448,561	-0,068	0,107
-94,045	676,238	-0,025	-0,046
-93,030	-58,353	-0,173	-0,053
-92,016	30,422	-0,057	-0,035
-91,001	-200,000	0,021	-0,066
-89,986	305,570	-0,054	0,071
-88,972	-73,220	-0,107	-0,028
-87,957	-200,000	-0,020	0,085
-86,943	359,074	-0,043	-0,061
-85,928	-200,000	-0,010	0,048
-84,913	-159,570	-0,045	-0,002
-83,899	-200,000	0,002	0,039
-82,884	-51,200	0,048	0,016
-81,870	699,248	0,073	0,137
-80,855	-200,000	0,022	0,192
-79,840	-200,000	0,038	0,120
-78,826	66,529	-0,127	0,092
-77,811	135,438	0,043	-0,040
-76,797	718,132	0,053	0,100
-75,782	204,599	0,073	0,081
-74,767	-68,848	0,091	0,025
-73,753	390,697	0,069	0,102
-72,738	76,599	0,066	-0,050
-71,724	-200,000	-0,026	-0,091
-70,709	-147,850	0,113	0,007
-69,694	107,804	-0,052	0,044
-68,680	-62,056	0,080	0,023
-67,665	-200,000	0,036	0,151
-66,651	249,403	0,066	-0,080
-65,636	-200,000	0,002	-0,052
-64,622	214,529	-0,128	0,144
-63,607	-97,806	-0,090	-0,016
-62,592	-34,853	-0,100	0,039
-61,578	-52,067	-0,073	0,024
-60,563	168,618	0,076	0,077
-59,549	-200,000	0,021	0,101
-58,534	-31,422	-1,660	-0,658
-57,519	343,030	-1,508	-2,097
-56,505	-200,000	-0,543	-4,725
-55,490	187,448	0,942	0,996
-54,476	800,000	4,994	11,368
-53,461	-200,000	18,890	307,026
-52,446	800,000	737,576	2299,697
-51,432	568,773	1653,472	2855,997
-50,417	79,026	1670,236	1264,831
-49,403	22,043	1543,300	888,907
-48,388	15,944	1465,964	814,738
-47,373	17,739	1456,049	817,864
-46,359	16,832	1446,172	807,936
-45,344	14,130	1441,719	792,479
-44,330	14,093	1439,804	791,221
-43,315	14,104	1438,083	790,296
-42,300	14,115	1436,226	789,297
-41,286	14,171	1435,154	788,941
-40,271	14,139	1433,608	787,908
-39,257	14,126	1432,436	787,172
-38,242	14,146	1431,481	786,709
-37,227	14,149	1430,120	785,947
-36,213	14,162	1428,632	785,156
-35,198	14,155	1427,729	784,598
-34,184	14,166	1426,669	784,034
-33,169	14,069	1425,601	782,959
-32,154	14,172	1424,273	782,687
-31,140	14,193	1422,901	781,997
-30,125	14,189	1421,849	781,371
-29,111	14,193	1420,697	780,727
-28,096	14,160	1419,616	779,944
-27,082	14,065	1418,739	778,984
-26,067	14,060	1417,670	778,345
-25,052	14,085	1416,468	777,769
-24,038	14,073	1415,489	777,143
-23,023	14,076	1414,481	776,575
-22,009	14,061	1413,611	775,998
-20,994	14,003	1412,745	775,219
-19,979	14,042	1411,945	774,932
-18,965	14,045	1410,823	774,300
-17,950	13,996	1409,940	773,553
-16,936	13,994	1408,886	772,936
-15,921	13,997	1407,612	772,221
-14,906	13,948	1406,914	771,580
-13,892	13,998	1405,907	771,230
-12,877	13,999	1405,152	770,786
-11,863	14,022	1404,052	770,261
-10,848	13,981	1403,297	769,627
-9,833	13,939	1402,298	768,850
-8,819	13,891	1401,525	768,175
-7,804	13,871	1400,694	767,597
-6,790	13,923	1399,408	767,101
-5,775	13,889	1398,518	766,425
-4,760	13,937	1397,493	766,056
-3,746	13,893	1396,593	765,329
-2,731	13,901	1395,926	764,971
-1,717	13,871	1394,941	764,261
-0,702	13,912	1393,262	763,500
0,313	17,665	1310,934	735,801
1,327	33,998	705,566	433,829
2,342	51,860	124,035	83,383
3,356	2,928	16,672	8,536
4,371	6,948	3,178	1,670
5,386	-10,320	0,449	0,210
6,400	514,595	0,099	0,164
7,415	-97,074	-0,280	-0,051
8,429	193,324	-0,314	-0,337
9,444	71,053	-0,271	-0,199
10,459	-149,304	-0,277	-0,015
11,473	4,633	-0,187	-0,096
12,488	-61,538	-0,236	-0,069
13,502	-65,156	-0,350	-0,099
14,517	480,337	-0,221	-0,355
15,531	203,470	-0,362	-0,396
16,546	44,577	-0,372	-0,241
17,561	62,869	-0,387	-0,273
18,575	-62,782	-0,177	-0,052
19,590	800,000	-0,158	-0,363
20,604	-92,490	-0,299	-0,059
21,619	65,613	-0,373	-0,266
22,634	268,076	-0,270	-0,335
23,648	15,630	-0,404	-0,224
24,663	46,369	-0,402	-0,263
25,677	10,471	-0,347	-0,186
26,692	-8,122	-0,408	-0,193
27,707	23,970	-0,344	-0,200
28,721	56,532	-0,426	-0,292
29,736	133,576	-0,353	-0,323
30,750	16,062	-0,393	-0,218
31,765	20,862	-0,506	-0,288
32,780	73,897	-0,380	-0,281
33,794	68,629	-0,328	-0,237
34,809	53,335	-0,286	-0,193
35,823	27,682	-0,393	-0,233
36,838	153,275	-0,233	-0,225
37,853	92,999	-0,372	-0,297
38,867	140,859	-0,318	-0,296
39,882	52,627	-0,351	-0,236
40,896	333,086	-0,256	-0,350
41,911	218,524	-0,177	-0,199
42,926	11,591	-0,403	-0,217
43,940	35,253	-0,446	-0,275
44,955	154,740	-0,393	-0,381
45,969	194,578	-0,326	-0,349
46,984	319,552	-0,252	-0,337
47,999	47,173	-0,382	-0,250
49,013	121,118	-0,286	-0,251
50,028	59,164	-0,343	-0,237
51,042	-95,347	-0,446	-0,084
52,057	18,449	-0,362	-0,203
53,071	278,722	-0,261	-0,328
54,086	-17,955	-0,305	-0,134
55,101	-10,026	-0,308	-0,144
56,115	32,424	-0,332	-0,201
57,130	152,758	-0,292	-0,281
58,144	135,068	-0,204	-0,186
59,159	264,537	-0,363	-0,446
60,174	137,000	-0,228	-0,210
61,188	168,484	-0,305	-0,306
62,203	40,577	-0,349	-0,221
63,217	21,243	-0,216	-0,123
64,232	96,708	-0,284	-0,229
65,247	26,364	-0,396	-0,232
66,261	248,412	-0,293	-0,350
67,276	37,901	-0,346	-0,216
68,290	3,905	-0,272	-0,139
69,305	73,660	-0,374	-0,276
70,320	137,191	-0,285	-0,262
71,334	-3,158	-0,252	-0,123
72,349	150,473	-0,314	-0,300
73,363	335,498	-0,264	-0,361
74,378	297,828	-0,260	-0,337
75,393	5,976	-0,348	-0,180
76,407	-64,538	-0,215	-0,061
77,422	-4,869	-0,419	-0,202
78,436	-65,718	-0,348	-0,097
79,451	1,519	-0,193	-0,097
80,466	69,189	-0,436	-0,315
81,480	109,927	-0,316	-0,266
82,495	-16,195	-0,295	-0,131
83,509	43,929	-0,274	-0,176
84,524	-52,531	-0,253	-0,082
85,539	64,665	-0,302	-0,213
86,553	-98,260	-0,284	-0,051
87,568	129,515	-0,260	-0,233
88,582	92,844	-0,331	-0,262
89,597	-0,668	-0,412	-0,204
90,611	-18,290	-0,249	-0,109
91,626	-113,313	-0,252	-0,034
92,641	-75,265	-0,266	-0,066
93,655	118,414	-0,291	-0,252
94,670	143,996	-0,261	-0,245
95,684	87,619	-0,353	-0,274
96,699	-46,015	-0,301	-0,104
97,714	387,340	-0,186	-0,270
98,728	114,256	-0,297	-0,254
99,743	25,914	-0,304	-0,177
100,757	199,064	-0,212	-0,228
101,772	571,773	-0,159	-0,272
102,787	-11,985	-0,342	-0,156
103,801	139,765	-0,255	-0,235
104,816	-43,137	-0,298	-0,105
105,830	-40,266	-0,257	-0,093
106,845	-95,258	-0,245	-0,046
107,860	92,458	-0,226	-0,179
108,874	-78,475	-0,236	-0,056
109,889	474,452	-0,170	-0,270
110,903	-58,587	-0,223	-0,067
111,918	37,800	-0,330	-0,205
112,933	-70,856	-0,221	-0,058
113,947	286,218	-0,126	-0,160
114,962	-7,100	-0,352	-0,167
115,976	112,910	-0,231	-0,196
116,991	67,997	-0,303	-0,217
118,006	69,500	-0,295	-0,213
119,020	332,823	-0,119	-0,162
120,035	32,086	-0,270	-0,162
121,049	77,186	-0,184	-0,137
122,064	15,504	-0,297	-0,163
123,079	7,729	-0,168	-0,088
124,093	7,517	-0,161	-0,084
125,108	243,704	-0,205	-0,241
126,122	218,193	-0,169	-0,189
127,137	54,869	-0,166	-0,112
128,151	-106,094	-0,188	-0,029
129,166	-27,066	-0,229	-0,093
130,181	48,020	-0,313	-0,204
131,195	229,416	-0,303	-0,347
132,210	87,892	-0,287	-0,222
133,224	-57,620	-0,280	-0,085
134,239	-97,053	-0,317	-0,057
135,254	-115,040	-0,167	-0,022
136,268	464,632	-0,218	-0,342
137,283	-16,560	-0,234	-0,103
138,297	180,819	-0,186	-0,191
139,312	275,687	-0,195	-0,242
140,327	202,689	-0,228	-0,246
141,341	-32,547	-0,208	-0,081
142,356	131,023	-0,304	-0,273
143,370	-136,030	-0,294	-0,024
144,385	-15,315	-0,415	-0,184
145,400	178,733	-0,323	-0,330
146,414	800,000	-0,128	-0,342
147,429	-14,330	-0,364	-0,163
148,443	17,447	-0,329	-0,182
149,458	152,826	-0,218	-0,209
150,473	15,281	-0,323	-0,176
151,487	146,674	-0,161	-0,151
152,502	115,675	-0,321	-0,274
153,516	247,342	-0,216	-0,255
154,531	420,067	-0,147	-0,220
155,546	202,506	-0,286	-0,309
156,560	-56,150	-0,262	-0,081
157,575	800,000	-0,095	-0,241
158,589	113,744	-0,255	-0,216
159,604	140,781	-0,262	-0,242
160,619	-57,198	-0,389	-0,119
161,633	-6,477	-0,313	-0,148
162,648	336,817	-0,128	-0,174
163,662	98,070	-0,203	-0,163
164,677	46,532	-0,220	-0,142
165,692	-69,226	-0,225	-0,060
166,706	-64,817	-0,207	-0,058
167,721	152,702	-0,224	-0,214
168,735	75,120	-0,278	-0,204
169,750	64,401	-0,165	-0,116
170,764	800,000	-0,077	-0,180
171,779	-134,842	-0,148	-0,012
172,794	-44,983	-0,227	-0,078
173,808	800,000	-0,091	-0,232
174,823	45,692	-0,236	-0,152
175,837	389,880	-0,120	-0,174
176,852	17,863	-0,260	-0,144
177,867	-110,727	-0,262	-0,037
178,881	24,050	-0,260	-0,149
179,896	-76,761	-0,329	-0,080
180,910	90,417	-0,219	-0,171
181,925	-68,727	-0,276	-0,074
182,940	101,878	-0,211	-0,172
183,954	125,948	-0,140	-0,123
184,969	96,437	-0,234	-0,186
185,983	-200,000	-0,047	-0,219
186,998	30,474	-0,250	-0,149
188,013	33,895	-0,274	-0,166
189,027	101,551	-0,225	-0,182
190,042	305,909	-0,213	-0,277
191,056	557,271	-0,139	-0,233
192,071	26,542	-0,289	-0,168
193,086	191,424	-0,085	-0,089
194,100	-9,587	-0,286	-0,132
195,115	20,654	-0,200	-0,112
196,129	108,375	-0,249	-0,207
197,144	46,950	-0,177	-0,114
198,159	-66,054	-0,292	-0,080
199,173	477,613	-0,173	-0,273
200,188	-118,269	-0,086	-0,011
201,202	139,253	-0,181	-0,166
202,217	128,196	-0,106	-0,094
203,232	2,614	-0,240	-0,120
204,246	671,786	-0,122	-0,221
205,261	-52,350	-0,209	-0,067
206,275	-90,122	-0,150	-0,030
207,290	167,690	-0,217	-0,214
208,304	206,624	-0,140	-0,152
209,319	195,714	-0,193	-0,204
210,334	268,068	-0,073	-0,089
211,348	314,565	-0,174	-0,228
212,363	207,024	-0,170	-0,184
213,377	744,595	-0,157	-0,295
214,392	71,918	-0,146	-0,105
215,407	37,394	-0,260	-0,160
216,421	-57,677	-0,148	-0,045
217,436	-148,582	-0,211	0,012
218,450	86,074	-0,207	-0,158
219,465	195,166	-0,161	-0,170
220,480	107,420	-0,235	-0,194
221,494	84,897	-0,197	-0,149
222,509	176,951	-0,065	-0,066
223,523	-77,138	-0,202	-0,049
224,538	333,717	-0,091	-0,123
225,553	595,500	-0,111	-0,191
226,567	43,786	-0,239	-0,151
227,582	-45,887	-0,107	-0,036
228,596	127,497	-0,206	-0,181
229,611	800,000	-0,033	-0,072
230,626	-142,425	-0,166	-0,011
231,640	125,643	-0,194	-0,169
232,655	400,307	-0,121	-0,177
233,669	329,898	-0,151	-0,201
234,684	273,946	-0,133	-0,164
235,699	444,597	-0,095	-0,145
236,713	-67,134	-0,224	-0,061
237,728	104,905	-0,140	-0,115
238,742	-50,500	-0,287	-0,093
239,757	71,498	-0,266	-0,191
240,772	16,879	-0,194	-0,106
241,786	304,208	-0,098	-0,126
242,801	640,393	-0,150	-0,265
243,815	131,955	-0,162	-0,145
244,830	-41,937	-0,205	-0,072
245,844	-159,160	-0,240	-0,009
246,859	370,189	-0,127	-0,179
247,874	254,421	-0,180	-0,213
248,888	-18,552	-0,124	-0,054
249,903	156,574	-0,059	-0,056
250,917	-80,370	-0,120	-0,027
251,932	-47,634	-0,124	-0,041
252,947	160,714	-0,197	-0,191
253,961	173,911	-0,119	-0,119
254,976	327,857	-0,162	-0,215
255,990	109,864	-0,185	-0,154
257,005	138,184	-0,213	-0,194
258,020	800,000	-0,060	-0,120
259,034	179,813	-0,176	-0,179
260,049	-171,207	-0,204	-0,005
261,063	143,900	-0,099	-0,091
262,078	200,331	-0,046	-0,048
263,093	-72,319	-0,201	-0,051
264,107	4,732	-0,142	-0,072
265,122	-48,686	-0,175	-0,058
266,136	137,559	-0,209	-0,189
267,151	60,733	-0,144	-0,099
268,166	-156,674	-0,138	0,006
269,180	50,732	-0,131	-0,085
270,195	355,372	-0,070	-0,097
271,209	-31,818	-0,298	-0,115
272,224	-137,615	-0,226	-0,017
273,239	95,882	-0,108	-0,085
274,253	-96,881	-0,101	-0,018
275,268	-194,285	-0,248	-0,001
276,282	10,722	-0,294	-0,155
277,297	-1,324	-0,174	-0,085
278,312	43,499	-0,125	-0,079
279,326	252,350	-0,112	-0,132
280,341	800,000	-0,024	-0,050
281,355	179,814	-0,150	-0,152
282,370	353,255	-0,164	-0,225
283,384	347,256	-0,096	-0,131
284,399	81,964	-0,196	-0,147
285,414	-1,682	-0,086	0,042
286,428	373,298	-0,084	-0,118
287,443	800,000	-0,031	-0,079
288,457	-88,811	-0,048	0,010
289,472	307,470	-0,177	-0,228
290,487	151,846	-0,231	-0,217
291,501	250,724	-0,306	-0,360
292,516	54,110	-0,215	-0,142
293,530	129,029	-0,042	-0,037
294,545	669,968	-0,101	-0,182
295,560	70,054	-0,201	-0,143
296,574	50,844	-0,145	0,094
297,589	-69,046	-0,227	-0,060
298,603	-33,785	-0,173	-0,065
299,618	-88,731	-0,159	-0,032
300,633	39,576	-0,198	-0,122
301,647	800,000	-0,015	-0,039
302,662	-89,311	-0,224	-0,045
303,676	-0,924	-0,214	-0,104
304,691	84,732	-0,101	-0,076
305,706	57,027	-0,091	-0,061
306,720	206,324	-0,117	-0,126
307,735	-69,802	-0,185	0,048
308,749	23,944	-0,208	-0,118
309,764	-64,508	-0,067	-0,019
310,779	-114,353	-0,090	0,012
311,793	-26,393	-0,213	-0,086
312,808	282,657	-0,117	-0,145
313,822	243,792	-0,115	-0,133
314,837	32,267	-0,199	-0,118
315,852	-106,429	-0,070	-0,011
316,866	39,193	-0,210	-0,129
317,881	-31,166	-0,110	-0,042
318,895	-48,222	-0,174	-0,058
319,910	141,025	-0,117	-0,107
320,925	-78,711	-0,144	-0,034
321,939	800,000	-0,040	-0,088
322,954	36,703	-0,034	-0,020
323,968	208,428	-0,112	-0,121
324,983	264,131	-0,101	-0,121
325,997	119,353	-0,077	-0,065
327,012	-86,333	-0,208	-0,044
328,027	241,942	-0,096	-0,110
329,041	378,524	-0,015	-0,022
330,056	-32,243	-0,138	0,053
331,070	30,168	-0,122	-0,072
332,085	36,686	-0,141	-0,085
333,100	13,795	-0,057	-0,030
334,114	-7,907	-0,159	-0,073
335,129	-35,919	-0,186	-0,069
336,143	-200,000	-0,058	-0,179
337,158	-6,161	-0,137	-0,064
338,173	122,372	-0,125	0,107
339,187	-100,541	-0,088	0,015
340,202	741,970	-0,010	-0,019
341,216	339,938	-0,151	-0,203
342,231	294,185	-0,115	-0,144
343,246	5,919	-0,190	-0,096
344,260	-141,058	-0,221	0,015
345,275	344,304	-0,125	-0,169
346,289	-68,971	-0,082	0,021
347,304	-78,494	-0,044	0,010
348,319	113,770	-0,099	-0,083
349,333	800,000	-0,128	-0,246
350,348	-87,905	-0,154	-0,031
351,362	-200,000	-0,057	-0,178
352,377	-143,003	-0,083	-0,005
353,392	-200,000	0,013	-0,257
354,406	800,000	-0,088	-0,207
355,421	208,193	1315,392	1411,717
356,435	160,184	1476,201	1412,211
