DTS Sentinel unit serial number:	SN410029Multiplexer serial number:	ORYXHardware model number:	OX2-SRSoftware version number:	ORYX F/W v4,00 Oryx Data Collector v3.7.2.0data status	okinstallation	B3 Nyhavnadifferential loss correction	single-endedforward channel	channel 1reverse channel	N/Adate	2023/11/30time	12:47:30forward acquisition time	300,00reverse acquisition time	0,00gamma	499,1914k internal	0,3213k external	0,3213temperature offset calibration	1,0000default loss term (dB/km)	0,3820temperature slope calibration	1,0000multiplexer offset coefficient	1,0000multiplexer slope coefficient	1,0000fibre end	0,00T internal ref (°C)	9,94T ext. ref 1 (°C)	-4,01T ext. ref 2 (°C)	-4,08length (m)	temperature (°C)	Stokes	anti-Stokes-744,400	-200,000	-0,069	-0,332
-743,385	-200,000	0,079	0,268
-742,371	279,570	-0,146	-0,189
-741,356	-200,000	-0,067	0,297
-740,342	800,000	-0,110	-0,265
-739,327	800,000	-0,109	0,338
-738,312	717,630	-0,138	-0,267
-737,298	-200,000	-0,042	0,211
-736,283	476,592	-0,120	-0,198
-735,269	-200,000	-0,062	0,234
-734,254	21,863	-0,192	-0,113
-733,239	11,548	-0,230	0,128
-732,225	-200,000	-0,032	-0,144
-731,210	800,000	0,076	0,154
-730,196	131,471	0,057	-0,053
-729,181	285,562	-0,059	0,077
-728,167	39,400	-0,025	0,016
-727,152	800,000	-0,067	-0,140
-726,137	57,522	-0,117	0,083
-725,123	800,000	-0,022	-0,054
-724,108	410,020	-0,074	-0,113
-723,094	-200,000	0,002	-0,016
-722,079	800,000	-0,041	-0,114
-721,064	800,000	0,031	-0,069
-720,050	492,882	-0,056	-0,093
-719,035	800,000	-0,019	-0,046
-718,021	10,010	-0,083	0,046
-717,006	-200,000	-0,012	-0,153
-715,991	-9,329	-0,128	-0,062
-714,977	-200,000	-0,043	-0,194
-713,962	445,250	-0,013	-0,021
-712,948	206,320	-0,041	-0,046
-711,933	800,000	-0,064	-0,134
-710,918	232,712	0,096	-0,115
-709,904	275,747	-0,036	-0,047
-708,889	469,932	0,074	-0,120
-707,875	-33,404	0,034	-0,014
-706,860	-25,494	-0,140	-0,060
-705,845	800,000	-0,015	-0,044
-704,831	800,000	-0,034	-0,076
-703,816	-90,853	-0,124	0,026
-702,802	26,773	-0,089	-0,054
-701,787	115,363	-0,092	-0,081
-700,772	800,000	-0,055	-0,122
-699,758	615,775	0,047	-0,085
-698,743	238,611	0,085	-0,102
-697,729	224,091	0,089	0,104
-696,714	64,682	-0,059	-0,043
-695,699	116,165	-0,071	0,063
-694,685	109,130	0,066	-0,057
-693,670	-91,878	-0,099	-0,020
-692,656	764,112	-0,050	0,099
-691,641	-55,842	0,132	-0,042
-690,627	-135,737	-0,079	-0,007
-689,612	611,670	-0,035	0,064
-688,597	-12,730	-0,118	-0,055
-687,583	-200,000	0,022	-0,160
-686,568	-55,909	-0,112	-0,036
-685,554	-200,000	0,004	-0,036
-684,539	800,000	0,029	-0,063
-683,524	-200,000	-0,014	0,093
-682,510	166,779	0,010	-0,011
-681,495	800,000	0,046	0,121
-680,481	-173,804	-0,079	0,002
-679,466	-121,303	-0,104	0,012
-678,451	313,653	-0,029	-0,040
-677,437	160,843	-0,002	-0,002
-676,422	181,593	0,092	0,098
-675,408	-200,000	0,026	0,119
-674,393	383,817	-0,054	-0,080
-673,378	176,931	-0,056	0,059
-672,364	800,000	0,032	0,093
-671,349	-104,319	-0,138	-0,023
-670,335	800,000	0,039	0,117
-669,320	-200,000	-0,007	0,111
-668,305	-200,000	-0,003	0,069
-667,291	-200,000	0,018	-0,066
-666,276	-200,000	-0,001	-0,046
-665,262	-120,183	-0,069	-0,008
-664,247	-200,000	0,004	0,030
-663,232	-200,000	-0,049	-0,213
-662,218	73,174	-0,063	-0,048
-661,203	118,217	-0,027	-0,024
-660,189	-20,542	0,084	0,037
-659,174	198,715	-0,052	0,057
-658,159	-12,911	0,131	-0,061
-657,145	31,635	-0,141	-0,087
-656,130	1,746	0,078	-0,041
-655,116	6,955	0,129	-0,069
-654,101	115,187	-0,137	0,121
-653,086	-200,000	-0,016	0,110
-652,072	-200,000	0,000	-0,041
-651,057	675,728	-0,094	-0,177
-650,043	-200,000	0,016	-0,090
-649,028	800,000	-0,060	0,135
-648,014	78,444	0,117	0,090
-646,999	718,850	-0,068	0,132
-645,984	418,962	-0,014	0,022
-644,970	-7,786	0,052	-0,025
-643,955	92,841	-0,110	-0,090
-642,941	156,651	0,055	0,055
-641,926	-128,431	-0,060	0,006
-640,911	-109,502	-0,091	0,014
-639,897	18,614	0,110	0,063
-638,882	-200,000	-0,019	-0,091
-637,868	-200,000	0,001	0,033
-636,853	214,695	-0,011	0,013
-635,838	-180,901	0,048	0,001
-634,824	800,000	0,028	0,069
-633,809	139,971	0,098	0,093
-632,795	-26,587	0,109	0,046
-631,780	-61,088	-0,088	0,026
-630,765	538,703	-0,055	-0,095
-629,751	800,000	-0,040	-0,101
-628,736	-200,000	-0,024	-0,101
-627,722	45,577	-0,064	0,042
-626,707	65,697	-0,086	0,063
-625,692	-25,338	-0,101	-0,043
-624,678	-131,782	0,108	0,010
-623,663	-200,000	0,031	-0,114
-622,649	-200,000	0,009	-0,115
-621,634	59,144	-0,114	0,081
-620,619	19,009	-0,012	0,007
-619,605	9,546	0,091	-0,050
-618,590	592,136	-0,036	0,064
-617,576	-127,538	0,035	0,004
-616,561	559,681	-0,022	0,038
-615,546	484,464	-0,053	-0,087
-614,532	-152,046	-0,175	0,009
-613,517	-0,004	0,076	0,039
-612,503	40,635	0,125	-0,081
-611,488	800,000	0,037	-0,084
-610,474	729,352	0,015	0,028
-609,459	-56,176	-0,126	0,040
-608,444	189,643	-0,030	0,033
-607,430	800,000	-0,062	-0,145
-606,415	-200,000	-0,032	-0,150
-605,401	-133,239	0,052	0,005
-604,386	-143,218	0,101	-0,007
-603,371	-47,348	-0,058	-0,020
-602,357	800,000	-0,069	-0,148
-601,342	-200,000	0,004	0,020
-600,328	7,601	-0,145	0,078
-599,313	800,000	0,049	-0,150
-598,298	-22,473	0,129	-0,056
-597,284	94,552	-0,060	-0,049
-596,269	-30,520	-0,079	0,032
-595,255	-88,642	-0,009	-0,002
-594,240	-83,785	0,043	-0,010
-593,225	238,252	-0,044	-0,053
-592,211	74,368	0,091	-0,069
-591,196	-159,867	0,027	-0,001
-590,182	-13,549	0,150	0,070
-589,167	-200,000	-0,042	0,199
-588,152	-200,000	0,011	0,124
-587,138	71,147	0,080	-0,060
-586,123	-114,802	-0,093	-0,013
-585,109	56,208	0,028	0,020
-584,094	-200,000	0,030	-0,100
-583,079	646,358	0,076	0,141
-582,065	756,158	-0,041	0,081
-581,050	-43,965	-0,021	0,007
-580,036	268,283	0,048	-0,061
-579,021	157,053	-0,122	-0,121
-578,006	136,725	-0,090	0,085
-576,992	180,984	-0,076	-0,081
-575,977	-20,728	-0,070	-0,031
-574,963	-95,333	0,117	-0,022
-573,948	14,129	0,072	0,040
-572,934	-107,917	-0,085	0,013
-571,919	-128,689	-0,109	0,011
-570,904	-75,706	0,101	0,026
-569,890	800,000	0,031	-0,085
-568,875	172,414	-0,044	-0,045
-567,861	430,811	0,069	-0,108
-566,846	-200,000	0,013	0,076
-565,831	-1,613	0,073	-0,037
-564,817	-157,756	-0,014	-0,001
-563,802	-200,000	-0,025	0,146
-562,788	792,092	0,054	0,108
-561,773	99,179	-0,098	-0,082
-560,758	-111,567	-0,091	-0,013
-559,744	39,818	-0,090	0,058
-558,729	162,543	-0,037	0,038
-557,715	222,326	-0,042	-0,049
-556,700	-125,817	-0,027	0,003
-555,685	-200,000	0,021	-0,075
-554,671	-17,370	0,071	-0,032
-553,656	-131,906	0,097	0,009
-552,642	245,501	-0,006	0,007
-551,627	122,497	0,082	-0,073
-550,612	-200,000	0,012	-0,119
-549,598	401,733	-0,098	-0,148
-548,583	267,599	0,073	-0,093
-547,569	-84,125	0,059	-0,013
-546,554	-79,370	-0,071	-0,017
-545,539	-163,008	0,138	-0,005
-544,525	-200,000	-0,049	0,175
-543,510	-132,848	-0,114	0,010
-542,496	-200,000	-0,007	-0,041
-541,481	450,294	0,060	-0,095
-540,466	525,794	0,008	-0,014
-539,452	800,000	0,066	0,138
-538,437	325,245	0,089	-0,122
-537,423	-58,325	0,088	0,027
-536,408	264,365	0,028	0,035
-535,393	-200,000	-0,006	-0,053
-534,379	16,891	0,045	-0,025
-533,364	97,507	-0,044	0,037
-532,350	290,019	0,092	0,120
-531,335	265,713	-0,031	-0,039
-530,321	-200,000	0,022	0,102
-529,306	-22,280	-0,103	-0,045
-528,291	42,304	-0,031	0,020
-527,277	-68,222	-0,050	-0,014
-526,262	-200,000	-0,011	-0,133
-525,248	298,601	-0,042	-0,055
-524,233	-23,242	0,062	0,027
-523,218	-150,962	-0,102	-0,005
-522,204	-200,000	-0,014	0,053
-521,189	-100,975	-0,177	0,031
-520,175	127,063	0,048	0,044
-519,160	-200,000	-0,007	-0,086
-518,145	-200,000	0,026	-0,096
-517,131	800,000	0,029	0,058
-516,116	339,629	0,047	0,066
-515,102	-54,961	-0,137	0,044
-514,087	-200,000	-0,003	-0,102
-513,072	725,292	-0,089	-0,171
-512,058	-56,034	0,062	0,020
-511,043	369,266	-0,028	0,041
-510,029	52,562	-0,002	-0,001
-509,014	20,505	0,142	0,082
-507,999	-200,000	0,004	0,042
-506,985	-76,296	0,057	0,014
-505,970	282,849	-0,121	-0,157
-504,956	-200,000	-0,005	-0,036
-503,941	39,066	0,133	0,085
-502,926	-200,000	0,029	0,176
-501,912	243,194	0,074	0,089
-500,897	-200,000	-0,018	0,106
-499,883	439,145	0,004	-0,006
-498,868	171,013	-0,105	-0,108
-497,853	207,082	0,071	-0,080
-496,839	566,024	0,063	-0,111
-495,824	15,770	0,055	-0,031
-494,810	-200,000	0,020	0,122
-493,795	-43,027	0,198	0,072
-492,781	800,000	-0,038	0,080
-491,766	-60,293	-0,054	0,016
-490,751	-200,000	0,032	-0,112
-489,737	27,358	0,011	-0,006
-488,722	279,089	-0,052	0,067
-487,708	505,096	-0,019	0,031
-486,693	800,000	0,041	-0,106
-485,678	394,391	-0,095	0,142
-484,664	800,000	0,025	0,079
-483,649	-43,712	-0,170	-0,061
-482,635	458,973	-0,044	-0,070
-481,620	490,539	0,019	0,032
-480,605	23,146	0,081	-0,048
-479,591	-27,859	0,087	0,036
-478,576	-160,238	-0,163	-0,006
-477,562	-180,380	-0,116	-0,002
-476,547	-136,471	-0,064	0,005
-475,532	-35,174	0,125	-0,049
-474,518	-200,000	-0,007	0,237
-473,503	623,225	0,059	0,106
-472,489	-95,174	0,121	0,023
-471,474	-101,741	0,164	0,028
-470,459	-143,390	0,034	-0,002
-469,445	507,261	0,064	-0,107
-468,430	-200,000	0,017	0,099
-467,416	-148,021	0,149	-0,009
-466,401	174,493	0,125	0,130
-465,386	-91,456	0,044	0,009
-464,372	59,509	0,167	-0,118
-463,357	-176,320	0,087	-0,002
-462,343	-200,000	0,003	-0,084
-461,328	-44,713	-0,013	0,005
-460,313	-111,690	0,081	0,012
-459,299	800,000	-0,047	0,099
-458,284	718,189	0,012	0,023
-457,270	-96,924	-0,072	-0,013
-456,255	-46,783	-0,113	-0,039
-455,241	-70,412	-0,093	-0,025
-454,226	41,862	0,057	-0,037
-453,211	406,738	0,036	-0,054
-452,197	387,214	-0,085	-0,126
-451,182	-172,342	0,098	0,002
-450,168	-200,000	0,010	-0,069
-449,153	-124,268	-0,116	0,013
-448,138	63,239	-0,077	-0,055
-447,124	-118,132	0,060	-0,008
-446,109	107,798	0,032	0,028
-445,095	-200,000	0,002	0,173
-444,080	-100,732	0,062	0,011
-443,065	-133,913	-0,005	0,000
-442,051	40,587	0,065	0,042
-441,036	147,435	-0,134	0,129
-440,022	298,437	-0,035	-0,046
-439,007	78,189	-0,035	0,027
-437,992	225,185	0,043	-0,050
-436,978	-112,549	-0,041	0,006
-435,963	-165,868	0,120	0,004
-434,949	144,617	-0,089	-0,085
-433,934	-17,410	0,102	0,046
-432,919	-8,154	-0,110	-0,053
-431,905	142,165	-0,049	0,047
-430,890	-186,730	0,073	-0,001
-429,876	123,218	-0,098	0,088
-428,861	273,090	0,049	0,062
-427,846	-72,959	-0,095	-0,025
-426,832	-200,000	0,004	0,046
-425,817	-163,748	0,123	0,004
-424,803	71,345	-0,051	-0,038
-423,788	-48,901	0,082	0,028
-422,773	-200,000	0,018	0,103
-421,759	19,605	-0,072	0,041
-420,744	800,000	-0,033	0,086
-419,730	211,327	-0,090	-0,101
-418,715	624,302	0,029	0,052
-417,701	799,088	0,089	0,177
-416,686	-188,103	-0,101	0,001
-415,671	-73,266	0,120	0,031
-414,657	112,403	0,011	-0,009
-413,642	431,826	0,035	0,054
-412,628	709,020	-0,033	0,062
-411,613	800,000	-0,018	-0,045
-410,598	326,935	-0,082	-0,112
-409,584	-121,643	0,094	0,011
-408,569	144,608	-0,060	0,057
-407,555	-200,000	-0,035	-0,122
-406,540	191,438	0,028	0,030
-405,525	-200,000	0,004	0,094
-404,511	-165,836	-0,030	0,001
-403,496	279,704	-0,020	0,026
-402,482	-200,000	0,009	-0,181
-401,467	396,097	0,084	0,126
-400,452	800,000	0,043	0,094
-399,438	-77,304	-0,045	0,011
-398,423	551,872	-0,087	-0,150
-397,409	-96,849	-0,123	0,023
-396,394	142,687	0,034	-0,032
-395,379	800,000	-0,024	-0,074
-394,365	5,023	0,068	-0,036
-393,350	-55,336	-0,032	-0,010
-392,336	-156,570	0,098	0,004
-391,321	-200,000	0,006	-0,026
-390,306	-34,194	-0,147	-0,058
-389,292	800,000	0,026	0,060
-388,277	-200,000	0,002	-0,050
-387,263	-200,000	0,011	0,143
-386,248	-200,000	-0,000	0,038
-385,233	-200,000	-0,004	0,030
-384,219	331,922	-0,065	-0,089
-383,204	-43,935	-0,061	0,022
-382,190	800,000	0,046	0,095
-381,175	-200,000	0,005	-0,062
-380,160	34,956	0,115	0,072
-379,146	692,172	0,062	-0,117
-378,131	-116,165	0,153	0,020
-377,117	-21,979	0,062	-0,027
-376,102	-200,000	0,007	-0,166
-375,088	156,374	-0,054	-0,054
-374,073	-122,095	0,043	-0,005
-373,058	224,605	0,100	0,115
-372,044	-200,000	-0,005	0,175
-371,029	80,611	0,129	0,099
-370,015	-200,000	0,008	-0,110
-369,000	31,866	-0,042	0,026
-367,985	110,984	-0,069	0,059
-366,971	-200,000	0,000	-0,093
-365,956	-200,000	0,010	0,047
-364,942	800,000	-0,022	-0,047
-363,927	58,606	0,126	0,088
-362,912	-200,000	-0,024	0,086
-361,898	576,375	-0,096	-0,168
-360,883	800,000	0,041	-0,127
-359,869	-200,000	-0,011	-0,086
-358,854	-31,009	0,020	0,008
-357,839	-200,000	0,005	0,063
-356,825	-23,419	0,046	0,019
-355,810	-164,807	-0,019	-0,001
-354,796	384,742	0,024	0,036
-353,781	-88,053	0,031	-0,007
-352,766	75,041	-0,165	0,124
-351,752	-200,000	0,010	0,116
-350,737	653,763	-0,009	-0,016
-349,723	201,334	0,077	0,084
-348,708	84,393	-0,157	-0,123
-347,693	-118,718	-0,077	-0,010
-346,679	225,753	-0,031	0,036
-345,664	141,437	0,098	0,092
-344,650	-200,000	-0,201	0,000
-343,635	13,910	0,095	-0,053
-342,620	309,412	0,027	0,035
-341,606	-9,963	-0,134	0,064
-340,591	-111,456	0,048	0,007
-339,577	510,162	0,056	0,094
-338,562	800,000	-0,034	-0,079
-337,548	-150,624	-0,080	-0,004
-336,533	-50,068	0,225	0,076
-335,518	800,000	-0,010	0,028
-334,504	22,467	0,101	-0,059
-333,489	800,000	-0,035	0,093
-332,475	-26,034	-0,072	-0,030
-331,460	79,403	-0,097	0,074
-330,445	-40,332	-0,095	0,035
-329,431	-200,000	-0,006	-0,096
-328,416	520,714	0,013	-0,021
-327,402	-200,000	0,019	0,086
-326,387	-69,500	0,091	-0,025
-325,372	111,026	-0,076	-0,066
-324,358	348,543	0,061	0,086
-323,343	-200,000	0,042	-0,161
-322,329	-200,000	-0,001	0,082
-321,314	232,892	-0,044	0,052
-320,299	-78,177	0,114	0,028
-319,285	-200,000	-0,003	-0,017
-318,270	181,150	-0,080	0,084
-317,256	-33,968	-0,037	-0,015
-316,241	222,759	-0,086	-0,099
-315,226	-35,866	-0,028	0,011
-314,212	81,586	-0,109	-0,084
-313,197	-200,000	0,035	0,236
-312,183	-200,000	-0,006	0,044
-311,168	9,511	0,098	0,053
-310,153	-29,504	-0,080	-0,032
-309,139	-200,000	-0,011	0,052
-308,124	-200,000	0,013	0,081
-307,110	-45,942	0,119	-0,042
-306,095	-29,630	-0,047	0,019
-305,080	-200,000	-0,019	0,082
-304,066	-139,996	-0,145	-0,011
-303,051	-200,000	0,043	0,177
-302,037	-35,612	0,098	0,038
-301,022	-200,000	0,004	0,052
-300,008	10,875	0,115	0,062
-298,993	25,436	0,057	0,034
-297,978	800,000	-0,080	0,183
-296,964	-200,000	-0,000	-0,004
-295,949	-200,000	0,023	-0,131
-294,935	164,039	0,075	-0,075
-293,920	800,000	-0,019	-0,055
-292,905	116,355	0,113	0,098
-291,891	-200,000	0,078	0,000
-290,876	-200,000	0,012	0,046
-289,862	264,520	0,066	-0,082
-288,847	204,961	-0,060	-0,066
-287,832	-74,240	-0,141	-0,036
-286,818	-141,726	0,060	0,004
-285,803	30,060	-0,076	0,046
-284,789	208,257	-0,049	0,054
-283,774	53,458	0,155	0,106
-282,759	3,226	-0,041	-0,021
-281,745	-41,636	-0,071	0,026
-280,730	139,165	-0,082	-0,077
-279,716	-4,206	0,118	-0,058
-278,701	-62,529	0,142	-0,042
-277,686	-110,822	-0,023	-0,003
-276,672	-82,191	0,158	0,036
-275,657	800,000	-0,032	-0,096
-274,643	306,867	-0,101	-0,134
-273,628	-114,561	-0,070	0,009
-272,613	-200,000	-0,006	0,028
-271,599	-41,878	0,134	0,049
-270,584	-51,392	0,027	0,009
-269,570	101,562	0,058	0,048
-268,555	140,806	0,086	-0,081
-267,540	-119,107	-0,117	-0,014
-266,526	-200,000	0,025	-0,112
-265,511	-86,201	-0,087	-0,019
-264,497	355,888	-0,035	-0,050
-263,482	243,096	-0,006	0,007
-262,467	259,890	0,045	0,055
-261,453	-169,956	-0,063	0,002
-260,438	800,000	-0,048	-0,114
-259,424	-200,000	0,005	-0,231
-258,409	-51,011	-0,095	-0,032
-257,395	-157,736	0,149	0,006
-256,380	80,745	-0,045	-0,035
-255,365	467,327	-0,066	0,105
-254,351	800,000	0,021	-0,047
-253,336	157,418	-0,034	0,033
-252,322	800,000	-0,031	-0,064
-251,307	62,353	-0,173	0,123
-250,292	-2,823	-0,013	0,006
-249,278	81,210	-0,041	0,031
-248,263	-6,592	0,022	0,011
-247,249	-9,196	0,093	0,044
-246,234	-52,891	-0,202	0,066
-245,219	-0,328	0,162	-0,081
-244,205	800,000	-0,028	-0,064
-243,190	309,101	0,086	-0,115
-242,176	-200,000	-0,030	-0,123
-241,161	430,376	0,051	0,079
-240,146	0,062	0,025	-0,012
-239,132	-200,000	-0,014	-0,069
-238,117	38,956	0,029	-0,018
-237,103	52,193	0,008	-0,006
-236,088	1,061	0,048	-0,025
-235,073	152,580	-0,044	-0,043
-234,059	80,302	-0,019	0,015
-233,044	-88,729	-0,116	-0,024
-232,030	324,694	-0,062	-0,085
-231,015	-17,893	0,038	0,017
-230,000	167,966	-0,071	0,072
-228,986	-25,614	-0,022	-0,009
-227,971	-200,000	-0,008	0,040
-226,957	69,791	0,020	-0,015
-225,942	-17,574	0,069	-0,031
-224,927	475,151	-0,036	-0,058
-223,913	77,778	0,037	-0,028
-222,898	442,052	0,014	-0,023
-221,884	463,248	0,063	-0,100
-220,869	-78,569	0,011	0,003
-219,855	-170,253	0,126	-0,003
-218,840	-91,672	0,088	-0,018
-217,825	144,082	-0,070	-0,067
-216,811	-79,910	0,068	-0,016
-215,796	229,021	-0,094	-0,109
-214,782	475,121	-0,057	-0,092
-213,767	69,125	0,071	-0,052
-212,752	800,000	0,016	-0,051
-211,738	-200,000	-0,002	-0,053
-210,723	105,433	-0,037	0,031
-209,709	-200,000	0,016	0,053
-208,694	-200,000	-0,030	-0,149
-207,679	686,052	-0,035	-0,064
-206,665	-20,428	0,048	-0,021
-205,650	-200,000	0,002	-0,012
-204,636	-100,614	-0,039	-0,007
-203,621	-91,823	0,127	-0,025
-202,606	-94,651	-0,084	-0,016
-201,592	14,038	-0,025	-0,014
-200,577	14,558	-0,097	-0,054
-199,563	-200,000	0,028	-0,135
-198,548	139,797	0,078	-0,073
-197,533	-93,567	-0,057	0,011
-196,519	216,409	-0,101	0,114
-195,504	-73,128	-0,144	0,037
-194,490	301,926	-0,076	-0,100
-193,475	-110,941	0,068	-0,010
-192,460	-200,000	-0,020	-0,090
-191,446	238,039	0,059	-0,069
-190,431	-25,002	0,034	0,014
-189,417	3,211	-0,018	0,009
-188,402	22,492	-0,036	-0,021
-187,387	31,005	-0,256	-0,155
-186,373	-200,000	0,030	-0,114
-185,358	287,615	0,087	-0,111
-184,344	-87,399	0,053	-0,011
-183,329	750,220	0,032	0,061
-182,315	374,057	0,097	0,140
-181,300	-166,178	-0,115	0,003
-180,285	99,357	0,107	-0,087
-179,271	44,318	-0,083	0,054
-178,256	800,000	0,022	-0,067
-177,242	800,000	0,027	0,057
-176,227	800,000	-0,028	0,062
-175,212	483,992	0,054	0,087
-174,198	-200,000	-0,007	0,233
-173,183	-200,000	-0,009	0,028
-172,169	476,233	-0,032	0,052
-171,154	41,026	-0,091	0,058
-170,139	-56,218	0,085	-0,027
-169,125	800,000	-0,041	0,117
-168,110	232,605	-0,010	0,011
-167,096	-200,000	0,016	-0,061
-166,081	-163,007	-0,076	-0,003
-165,066	-18,318	-0,115	0,051
-164,052	282,982	-0,033	0,042
-163,037	800,000	0,031	0,088
-162,023	257,333	-0,036	0,044
-161,008	-84,038	-0,065	0,015
-159,993	-122,981	0,098	-0,011
-158,979	-96,821	-0,098	0,018
-157,964	-200,000	-0,007	0,114
-156,950	-200,000	-0,001	0,053
-155,935	11,584	0,061	0,033
-154,920	-200,000	-0,003	-0,013
-153,906	-32,460	0,113	0,045
-152,891	243,138	-0,049	-0,058
-151,877	-116,193	-0,050	0,007
-150,862	-62,604	-0,118	0,034
-149,847	800,000	0,019	-0,056
-148,833	542,504	0,065	0,111
-147,818	256,768	0,043	0,053
-146,804	-200,000	-0,014	0,055
-145,789	162,534	0,056	0,056
-144,775	-200,000	-0,006	0,136
-143,760	800,000	-0,062	-0,139
-142,745	103,531	-0,011	-0,009
-141,731	-48,026	0,082	-0,028
-140,716	170,594	-0,028	-0,028
-139,702	-94,709	0,044	0,008
-138,687	-106,335	0,017	-0,003
-137,672	800,000	-0,073	0,151
-136,658	222,415	-0,072	0,083
-135,643	-200,000	0,001	0,067
-134,629	86,836	0,023	0,018
-133,614	150,918	0,044	0,042
-132,599	-200,000	-0,010	0,081
-131,585	800,000	0,061	0,121
-130,570	-200,000	-0,013	0,105
-129,556	-175,845	-0,032	-0,001
-128,541	185,966	-0,064	0,068
-127,526	-200,000	0,014	0,096
-126,512	-152,953	0,115	0,006
-125,497	219,718	0,050	-0,056
-124,483	400,233	0,027	-0,041
-123,468	800,000	0,077	0,179
-122,453	-79,110	-0,138	0,033
-121,439	123,956	0,056	-0,050
-120,424	-11,657	0,074	-0,034
-119,410	-200,000	0,005	0,036
-118,395	-108,638	0,230	-0,035
-117,380	169,127	-0,067	0,068
-116,366	76,898	0,094	0,070
-115,351	-30,609	-0,145	0,058
-114,337	317,489	-0,084	-0,113
-113,322	13,359	0,073	-0,040
-112,307	-200,000	0,003	0,132
-111,293	431,498	0,048	0,074
-110,278	-37,115	-0,003	0,001
-109,264	-200,000	0,004	0,139
-108,249	312,817	0,010	-0,013
-107,234	-153,757	-0,107	0,005
-106,220	-77,728	-0,023	0,006
-105,205	-200,000	0,019	-0,062
-104,191	-79,187	0,015	-0,004
-103,176	-193,329	0,154	-0,001
-102,162	28,133	0,130	0,078
-101,147	58,609	0,040	0,028
-100,132	-174,617	-0,134	0,003
-99,118	710,816	-0,056	-0,105
-98,103	190,959	-0,011	-0,012
-97,089	-63,622	-0,071	0,021
-96,074	800,000	0,012	0,027
-95,059	-200,000	-0,008	0,056
-94,045	-200,000	0,013	0,068
-93,030	55,127	-0,148	-0,101
-92,016	202,864	-0,040	-0,044
-91,001	-200,000	0,001	-0,025
-89,986	298,997	-0,039	0,051
-88,972	-200,000	0,021	0,070
-87,957	421,844	0,037	-0,056
-86,943	-200,000	0,022	-0,161
-85,928	176,014	-0,040	-0,041
-84,913	-200,000	0,000	-0,028
-83,899	-11,835	0,067	0,031
-82,884	800,000	-0,014	0,027
-81,870	77,057	-0,068	0,051
-80,855	500,030	-0,050	0,081
-79,840	-200,000	-0,015	-0,169
-78,826	156,247	-0,110	-0,108
-77,811	55,298	0,094	-0,064
-76,797	118,669	-0,015	0,013
-75,782	538,054	0,027	-0,045
-74,767	-200,000	0,025	0,134
-73,753	126,500	0,058	0,052
-72,738	181,900	-0,094	-0,098
-71,724	46,109	0,087	-0,057
-70,709	800,000	0,005	0,011
-69,694	74,838	0,145	-0,108
-68,680	93,398	0,080	0,064
-67,665	155,245	0,121	0,118
-66,651	-84,784	-0,168	0,037
-65,636	-67,314	0,043	-0,012
-64,622	204,808	-0,030	-0,033
-63,607	60,428	-0,091	-0,063
-62,592	137,555	-0,088	0,081
-61,578	169,580	-0,030	0,031
-60,563	800,000	0,043	0,097
-59,549	13,708	0,096	0,052
-58,534	38,716	-1,971	-1,238
-57,519	784,522	-1,116	-2,169
-56,505	-200,000	-0,448	-4,397
-55,490	535,243	0,894	1,502
-54,476	800,000	5,159	11,260
-53,461	-200,000	21,473	343,399
-52,446	800,000	761,344	2365,787
-51,432	560,180	1664,598	2847,573
-50,417	73,518	1662,587	1226,641
-49,403	17,894	1535,611	860,354
-48,388	11,741	1459,223	787,796
-47,373	19,569	1450,579	820,666
-46,359	15,381	1439,677	794,551
-45,344	10,033	1435,493	766,745
-44,330	9,990	1433,691	765,546
-43,315	9,960	1431,935	764,434
-42,300	9,963	1430,090	763,434
-41,286	10,034	1428,883	763,097
-40,271	9,956	1427,737	762,085
-39,257	10,006	1426,442	761,601
-38,242	10,003	1425,319	760,957
-37,227	9,983	1424,498	760,395
-36,213	10,039	1422,787	759,713
-35,198	10,054	1421,696	759,175
-34,184	10,036	1420,902	758,635
-33,169	10,006	1419,450	757,685
-32,154	10,017	1418,233	757,059
-31,140	10,022	1417,087	756,440
-30,125	10,076	1416,102	756,140
-29,111	10,035	1414,776	755,209
-28,096	10,025	1413,645	754,528
-27,082	9,933	1412,527	753,469
-26,067	9,969	1411,590	753,108
-25,052	9,976	1410,499	752,529
-24,038	9,966	1409,480	751,911
-23,023	9,959	1408,720	751,441
-22,009	9,982	1407,527	750,883
-20,994	9,912	1406,533	749,995
-19,979	9,932	1405,734	749,634
-18,965	9,913	1404,692	748,959
-17,950	9,970	1403,532	748,575
-16,936	9,906	1403,014	747,974
-15,921	9,833	1402,140	747,136
-14,906	9,866	1400,986	746,644
-13,892	9,933	1399,904	746,349
-12,877	9,882	1399,397	745,813
-11,863	9,902	1398,421	745,356
-10,848	9,868	1397,562	744,709
-9,833	9,812	1396,604	743,909
-8,819	9,829	1395,752	743,507
-7,804	9,756	1394,856	742,664
-6,790	9,777	1393,874	742,209
-5,775	9,830	1392,638	741,766
-4,760	9,792	1391,857	741,145
-3,746	9,783	1390,911	740,567
-2,731	9,753	1390,117	739,980
-1,717	9,743	1389,143	739,383
-0,702	9,779	1387,402	738,594
0,313	13,957	1300,279	711,290
1,327	30,457	690,818	415,309
2,342	47,539	119,721	78,555
3,356	0,741	16,628	8,362
4,371	-4,650	3,500	1,697
5,386	-27,720	1,068	0,435
6,400	800,000	0,277	0,593
7,415	333,429	-0,153	-0,209
8,429	-182,875	-0,258	-0,003
9,444	-22,862	-0,339	-0,144
10,459	29,484	-0,193	-0,116
11,473	-70,431	-0,263	-0,070
12,488	36,004	-0,252	-0,156
13,502	12,828	-0,233	-0,127
14,517	220,444	-0,198	-0,223
15,531	235,896	-0,241	-0,281
16,546	-42,788	-0,375	-0,133
17,561	138,315	-0,299	-0,276
18,575	10,466	-0,190	-0,101
19,590	199,568	-0,160	-0,173
20,604	20,888	-0,269	-0,153
21,619	35,380	-0,477	-0,294
22,634	47,155	-0,426	-0,279
23,648	-2,413	-0,389	-0,191
24,663	139,699	-0,329	-0,305
25,677	60,518	-0,362	-0,252
26,692	-14,223	-0,377	-0,170
27,707	248,446	-0,284	-0,338
28,721	18,623	-0,544	-0,305
29,736	52,644	-0,458	-0,307
30,750	16,652	-0,358	-0,199
31,765	26,051	-0,317	-0,185
32,780	21,304	-0,398	-0,227
33,794	1,663	-0,398	-0,201
34,809	-2,727	-0,366	-0,179
35,823	112,865	-0,267	-0,227
36,838	130,600	-0,367	-0,331
37,853	163,823	-0,380	-0,376
38,867	351,324	-0,222	-0,310
39,882	82,196	-0,239	-0,182
40,896	21,200	-0,344	-0,196
41,911	134,264	-0,128	-0,116
42,926	5,742	-0,265	-0,137
43,940	-33,038	-0,321	-0,125
44,955	-31,896	-0,413	-0,162
45,969	177,284	-0,213	-0,218
46,984	11,158	-0,484	-0,259
47,999	31,922	-0,434	-0,262
49,013	86,469	-0,382	-0,295
50,028	158,011	-0,221	-0,215
51,042	739,601	-0,207	-0,392
52,057	98,540	-0,347	-0,281
53,071	90,128	-0,364	-0,285
54,086	100,096	-0,288	-0,234
55,101	130,055	-0,324	-0,291
56,115	135,910	-0,310	-0,283
57,130	117,918	-0,266	-0,230
58,144	-16,998	-0,346	-0,153
59,159	48,590	-0,360	-0,236
60,174	-22,664	-0,392	-0,165
61,188	-39,642	-0,388	-0,142
62,203	-73,901	-0,324	-0,082
63,217	39,432	-0,424	-0,266
64,232	103,522	-0,296	-0,244
65,247	22,806	-0,371	-0,213
66,261	178,940	-0,273	-0,280
67,276	96,580	-0,269	-0,216
68,290	137,348	-0,324	-0,298
69,305	18,540	-0,336	-0,188
70,320	27,814	-0,301	-0,177
71,334	-4,883	-0,335	-0,161
72,349	-52,649	-0,346	-0,111
73,363	84,473	-0,261	-0,200
74,378	105,773	-0,381	-0,316
75,393	-71,799	-0,321	-0,083
76,407	11,799	-0,352	-0,189
77,422	-99,706	-0,319	-0,055
78,436	13,730	-0,336	-0,182
79,451	119,216	-0,183	-0,158
80,466	47,467	-0,281	-0,183
81,480	84,152	-0,326	-0,250
82,495	328,180	-0,192	-0,259
83,509	108,844	-0,251	-0,210
84,524	47,169	-0,350	-0,228
85,539	229,937	-0,174	-0,200
86,553	60,405	-0,317	-0,219
87,568	95,228	-0,218	-0,174
88,582	-33,009	-0,476	-0,184
89,597	162,006	-0,226	-0,222
90,611	-116,612	-0,237	-0,030
91,626	-55,890	-0,298	-0,092
92,641	-35,018	-0,267	-0,101
93,655	17,504	-0,307	-0,170
94,670	97,362	-0,318	-0,255
95,684	-2,968	-0,407	-0,198
96,699	201,242	-0,228	-0,246
97,714	46,429	-0,217	-0,140
98,728	800,000	-0,078	-0,175
99,743	-15,275	-0,175	0,078
100,757	116,284	-0,220	-0,189
101,772	28,170	-0,248	-0,146
102,787	12,705	-0,342	-0,184
103,801	94,115	-0,194	-0,154
104,816	-52,072	-0,389	-0,125
105,830	-19,333	-0,288	-0,124
106,845	198,713	-0,188	-0,201
107,860	-84,131	-0,241	-0,053
108,874	208,629	-0,210	-0,230
109,889	5,608	-0,335	-0,172
110,903	53,654	-0,322	-0,215
111,918	45,168	-0,338	-0,217
112,933	83,612	-0,246	-0,187
113,947	143,384	-0,210	-0,196
114,962	228,468	-0,143	-0,163
115,976	-37,249	-0,204	-0,076
116,991	109,055	-0,367	-0,306
118,006	89,117	-0,252	-0,196
119,020	86,802	-0,235	-0,181
120,035	-7,479	-0,309	-0,145
121,049	43,742	-0,161	-0,103
122,064	-50,683	-0,238	-0,078
123,079	46,457	-0,216	-0,139
124,093	147,625	-0,231	-0,217
125,108	82,951	-0,320	-0,242
126,122	33,993	-0,222	-0,135
127,137	99,860	-0,268	-0,217
128,151	-38,440	-0,309	-0,113
129,166	76,115	-0,206	-0,152
130,181	17,501	-0,302	-0,167
131,195	50,795	-0,319	-0,210
132,210	16,298	-0,166	-0,091
133,224	-5,577	-0,247	-0,118
134,239	22,219	-0,364	-0,206
135,254	-12,759	-0,247	-0,112
136,268	59,489	-0,331	-0,227
137,283	93,120	-0,193	-0,152
138,297	133,503	-0,170	-0,153
139,312	90,351	-0,282	-0,219
140,327	-15,594	-0,409	-0,181
141,341	81,575	-0,284	-0,214
142,356	19,294	-0,230	-0,128
143,370	706,841	-0,093	-0,171
144,385	-124,522	-0,261	0,028
145,400	8,793	-0,269	-0,141
146,414	28,647	-0,334	-0,196
147,429	5,459	-0,268	-0,137
148,443	-39,016	-0,341	-0,124
149,458	56,345	-0,238	-0,161
150,473	43,916	-0,084	-0,053
151,487	412,986	-0,200	-0,297
152,502	108,971	-0,301	-0,250
153,516	-27,796	-0,246	-0,099
154,531	238,671	-0,201	-0,233
155,546	76,302	-0,291	-0,214
156,560	197,987	-0,321	-0,341
157,575	-127,336	-0,281	-0,028
158,589	625,877	-0,132	-0,233
159,604	481,102	-0,164	-0,259
160,619	164,097	-0,241	-0,236
161,633	38,229	-0,204	-0,126
162,648	126,990	-0,186	-0,164
163,662	25,786	-0,168	-0,097
164,677	-11,616	-0,274	-0,124
165,692	-66,034	-0,273	-0,075
166,706	-11,551	-0,239	-0,109
167,721	176,437	-0,208	-0,210
168,735	29,894	-0,199	-0,117
169,750	34,477	-0,300	-0,182
170,764	-50,942	-0,133	0,043
171,779	-65,831	-0,168	-0,046
172,794	-49,463	-0,184	-0,061
173,808	76,244	-0,194	-0,143
174,823	422,964	-0,165	-0,247
175,837	244,734	-0,185	-0,217
176,852	235,992	-0,180	-0,207
177,867	54,764	-0,274	-0,183
178,881	-13,459	-0,083	-0,037
179,896	800,000	-0,073	-0,196
180,910	1,357	-0,259	-0,129
181,925	-55,371	-0,239	-0,074
182,940	88,983	-0,207	-0,160
183,954	370,284	-0,108	-0,152
184,969	-48,046	-0,181	-0,060
185,983	464,072	-0,194	-0,303
186,998	75,773	-0,139	-0,102
188,013	-200,000	-0,287	-0,000
189,027	129,540	-0,178	-0,158
190,042	328,194	-0,194	-0,259
191,056	-90,810	-0,291	-0,058
192,071	-170,989	-0,245	0,006
193,086	179,629	-0,107	-0,108
194,100	16,507	-0,119	-0,065
195,115	55,714	-0,197	-0,132
196,129	35,048	-0,218	-0,132
197,144	323,805	-0,176	-0,233
198,159	195,076	-0,147	-0,155
199,173	-8,604	-0,330	-0,153
200,188	-127,985	-0,204	0,020
201,202	800,000	-0,066	-0,172
202,217	-11,892	-0,202	-0,092
203,232	709,129	-0,149	-0,273
204,246	79,733	-0,214	-0,159
205,261	119,909	-0,226	-0,194
206,275	-46,486	-0,162	-0,055
207,290	800,000	-0,095	-0,186
208,304	-135,537	-0,313	-0,025
209,319	-118,246	-0,248	-0,030
210,334	-175,637	-0,174	0,003
211,348	-200,000	-0,037	-0,204
212,363	26,164	-0,121	-0,070
213,377	-43,096	-0,243	-0,085
214,392	-200,000	0,022	-0,190
215,407	37,830	-0,194	-0,119
216,421	-76,756	-0,127	-0,031
217,436	45,200	-0,200	-0,127
218,450	-10,315	-0,351	-0,161
219,465	76,753	-0,213	-0,156
220,480	140,137	-0,217	-0,198
221,494	-10,531	-0,293	-0,134
222,509	102,428	-0,070	-0,057
223,523	-95,772	-0,138	0,025
224,538	383,305	-0,121	-0,173
225,553	187,238	-0,256	-0,264
226,567	117,617	-0,222	-0,189
227,582	127,271	-0,182	-0,160
228,596	111,427	-0,117	-0,098
229,611	87,921	-0,229	-0,176
230,626	-61,035	-0,291	-0,084
231,640	-81,735	-0,260	-0,058
232,655	62,193	-0,236	-0,163
233,669	61,505	-0,168	-0,115
234,684	264,282	-0,249	-0,300
235,699	336,365	-0,182	-0,245
236,713	3,596	-0,134	-0,067
237,728	415,372	-0,158	-0,233
238,742	94,027	-0,176	-0,137
239,757	177,531	-0,195	-0,196
240,772	100,005	-0,268	-0,214
241,786	261,788	-0,162	-0,195
242,801	111,726	-0,154	-0,128
243,815	238,516	-0,181	-0,208
244,830	72,549	-0,054	-0,039
245,844	104,625	-0,172	-0,140
246,859	34,445	-0,247	-0,149
247,874	-138,997	-0,160	0,012
248,888	439,821	-0,156	-0,236
249,903	143,860	-0,200	-0,184
250,917	184,128	-0,136	-0,139
251,932	332,535	-0,145	-0,194
252,947	800,000	-0,056	-0,127
253,961	168,426	-0,189	-0,186
254,976	238,192	-0,152	-0,174
255,990	476,869	-0,132	-0,207
257,005	23,465	-0,196	-0,111
258,020	-72,868	-0,209	-0,053
259,034	-200,000	-0,023	-0,091
260,049	800,000	-0,093	-0,258
261,063	214,221	-0,169	-0,184
262,078	213,142	-0,241	-0,262
263,093	-88,420	-0,020	-0,004
264,107	-200,000	-0,047	-0,251
265,122	-16,721	-0,201	-0,087
266,136	-102,484	-0,288	-0,047
267,151	202,419	-0,177	-0,188
268,166	128,051	-0,135	-0,118
269,180	158,744	-0,203	-0,195
270,195	-62,646	-0,192	-0,055
271,209	-76,432	-0,228	-0,055
272,224	800,000	-0,109	-0,213
273,239	800,000	-0,090	-0,201
274,253	686,533	-0,077	-0,140
275,268	66,234	-0,241	-0,168
276,282	65,752	-0,251	-0,175
277,297	28,614	-0,111	0,065
278,312	-200,000	-0,036	-0,119
279,326	487,419	-0,106	-0,167
280,341	357,092	-0,150	-0,206
281,355	69,487	-0,125	-0,088
282,370	-24,567	-0,181	-0,074
283,384	-50,769	-0,187	-0,060
284,399	20,357	-0,054	-0,030
285,414	800,000	-0,065	-0,165
286,428	147,258	-0,145	-0,134
287,443	61,805	-0,105	0,072
288,457	53,625	-0,239	-0,158
289,472	-122,826	-0,184	-0,020
290,487	508,947	-0,082	-0,132
291,501	800,000	-0,115	-0,226
292,516	-128,528	-0,188	-0,018
293,530	52,252	-0,201	-0,131
294,545	99,662	-0,155	-0,123
295,560	94,107	-0,176	-0,137
296,574	251,808	-0,102	-0,119
297,589	800,000	-0,031	-0,078
298,603	-89,756	-0,260	-0,052
299,618	-51,456	-0,198	-0,063
300,633	13,787	-0,176	-0,094
301,647	800,000	-0,022	0,056
302,662	-48,424	-0,110	-0,036
303,676	204,393	-0,115	-0,122
304,691	389,891	-0,155	-0,221
305,706	177,125	-0,268	-0,268
306,720	-110,067	-0,127	0,018
307,735	-25,348	-0,163	-0,066
308,749	292,523	0,017	-0,021
309,764	-113,045	-0,199	-0,027
310,779	5,950	-0,099	-0,050
311,793	111,075	-0,144	-0,119
312,808	213,785	-0,222	-0,241
313,822	789,678	-0,122	-0,231
314,837	11,062	-0,184	-0,096
315,852	303,837	-0,099	-0,126
316,866	-200,000	0,009	-0,133
317,881	800,000	-0,034	-0,097
318,895	323,960	-0,128	-0,168
319,910	-76,482	-0,141	-0,034
320,925	437,099	-0,175	-0,262
321,939	638,214	-0,071	-0,125
322,954	222,350	-0,115	-0,127
323,968	-162,568	-0,087	-0,003
324,983	-64,797	-0,167	-0,046
325,997	800,000	-0,084	-0,159
327,012	761,056	-0,044	-0,082
328,027	-73,559	-0,213	-0,053
329,041	541,491	-0,126	-0,206
330,056	-14,242	-0,139	-0,061
331,070	191,860	-0,079	0,082
332,085	290,663	-0,037	-0,046
333,100	63,982	-0,108	-0,075
334,114	-41,019	-0,134	-0,047
335,129	261,558	-0,028	0,033
336,143	-58,462	-0,102	0,030
337,158	445,282	-0,057	-0,086
338,173	-35,088	-0,064	-0,024
339,187	298,410	-0,112	-0,141
340,202	-200,000	0,026	-0,114
341,216	800,000	-0,072	-0,191
342,231	26,874	-0,157	-0,090
343,246	97,930	-0,123	-0,097
344,260	-166,524	-0,107	-0,003
345,275	-2,822	-0,080	0,038
346,289	-175,259	-0,127	-0,002
347,304	-45,285	-0,234	-0,079
348,319	189,789	-0,076	-0,078
349,333	157,005	-0,131	-0,124
350,348	-60,280	-0,097	-0,028
351,362	112,618	-0,105	-0,087
352,377	-16,336	-0,053	0,023
353,392	-183,109	-0,105	0,001
354,406	-136,657	-0,080	-0,006
355,421	207,591	1311,482	1400,716
356,435	159,701	1471,780	1401,194
