DTS Sentinel unit serial number:	SN410029Multiplexer serial number:	ORYXHardware model number:	OX2-SRSoftware version number:	ORYX F/W v4,00 Oryx Data Collector v3.7.2.0data status	okinstallation	B3 Nyhavnadifferential loss correction	single-endedforward channel	channel 1reverse channel	N/Adate	2023/11/29time	12:17:30forward acquisition time	300,00reverse acquisition time	0,00gamma	499,1914k internal	0,3212k external	0,3212temperature offset calibration	1,0000default loss term (dB/km)	0,3820temperature slope calibration	1,0000multiplexer offset coefficient	1,0000multiplexer slope coefficient	1,0000fibre end	0,00T internal ref (°C)	9,77T ext. ref 1 (°C)	-4,57T ext. ref 2 (°C)	-4,69length (m)	temperature (°C)	Stokes	anti-Stokes-744,400	257,400	-0,273	-0,341
-743,385	-34,173	0,082	0,033
-742,371	492,190	-0,167	-0,279
-741,356	-200,000	0,090	0,350
-740,342	300,980	-0,146	-0,196
-739,327	-200,000	-0,031	0,179
-738,312	150,328	-0,226	-0,223
-737,298	776,444	-0,117	0,233
-736,283	56,860	-0,287	-0,202
-735,269	-200,000	0,074	0,403
-734,254	-25,431	-0,179	-0,076
-733,239	22,470	-0,126	0,074
-732,225	-200,000	0,043	-0,215
-731,210	30,202	0,134	0,083
-730,196	591,835	-0,018	0,032
-729,181	-115,984	-0,070	-0,009
-728,167	-200,000	0,001	-0,020
-727,152	-31,525	0,058	0,023
-726,137	800,000	-0,042	-0,104
-725,123	-117,887	-0,212	-0,027
-724,108	-200,000	0,004	-0,063
-723,094	266,257	-0,038	-0,048
-722,079	614,975	-0,043	0,079
-721,064	-101,239	-0,049	-0,009
-720,050	437,140	0,058	0,092
-719,035	-134,120	-0,142	-0,013
-718,021	800,000	-0,008	0,022
-717,006	800,000	-0,032	-0,087
-715,991	-200,000	-0,033	-0,143
-714,977	-200,000	0,013	-0,096
-713,962	-99,814	0,110	0,020
-712,948	245,580	0,029	-0,035
-711,933	-200,000	-0,003	0,057
-710,918	0,124	-0,141	0,073
-709,904	0,380	-0,146	0,075
-708,889	173,590	0,072	-0,075
-707,875	-200,000	-0,005	0,078
-706,860	321,210	0,042	-0,059
-705,845	-200,000	0,005	-0,087
-704,831	21,419	0,091	0,053
-703,816	-93,411	-0,125	-0,025
-702,802	161,761	0,031	0,032
-701,787	268,650	-0,057	-0,073
-700,772	-65,450	-0,035	0,010
-699,758	800,000	0,027	0,063
-698,743	-54,754	-0,060	-0,019
-697,729	-33,330	0,110	0,044
-696,714	17,346	-0,049	0,028
-695,699	693,450	-0,033	-0,063
-694,685	-121,706	-0,113	-0,013
-693,670	-78,528	0,101	-0,025
-692,656	432,599	-0,069	-0,108
-691,641	27,947	0,083	0,050
-690,627	169,850	-0,018	0,018
-689,612	-200,000	-0,005	0,103
-688,597	105,400	0,061	-0,052
-687,583	-200,000	-0,031	-0,134
-686,568	-200,000	-0,001	-0,132
-685,554	-109,111	0,114	0,017
-684,539	502,270	-0,103	-0,172
-683,524	114,785	0,107	-0,094
-682,510	-51,451	0,122	0,041
-681,495	-86,305	-0,023	-0,005
-680,481	639,646	0,035	-0,065
-679,466	-8,665	-0,154	-0,075
-678,451	284,177	-0,064	-0,084
-677,437	-101,755	-0,025	-0,004
-676,422	69,364	0,152	-0,113
-675,408	641,707	0,044	-0,081
-674,393	616,875	-0,040	-0,073
-673,378	151,198	-0,108	-0,106
-672,364	-200,000	0,012	-0,086
-671,349	521,882	-0,023	0,039
-670,335	-200,000	-0,034	-0,129
-669,320	-200,000	-0,001	0,022
-668,305	-31,365	0,025	-0,010
-667,291	-56,606	0,094	0,030
-666,276	800,000	-0,041	-0,096
-665,262	-122,948	-0,126	-0,015
-664,247	-200,000	0,003	0,045
-663,232	209,372	0,133	-0,151
-662,218	-200,000	0,011	-0,139
-661,203	72,605	-0,067	0,051
-660,189	410,842	0,094	-0,145
-659,174	-200,000	-0,015	-0,107
-658,159	-124,754	-0,158	0,017
-657,145	-76,767	-0,028	0,007
-656,130	-121,139	-0,090	-0,011
-655,116	-93,308	0,082	0,016
-654,101	-27,356	0,089	0,037
-653,086	-200,000	-0,011	0,061
-652,072	52,577	-0,088	-0,060
-651,057	-11,702	-0,106	-0,050
-650,043	-200,000	-0,008	-0,142
-649,028	-79,423	-0,145	-0,035
-648,014	178,259	0,043	-0,046
-646,999	-200,000	-0,022	0,095
-645,984	-91,250	-0,097	0,020
-644,970	238,987	0,039	-0,047
-643,955	5,008	-0,096	-0,051
-642,941	-200,000	0,005	-0,060
-641,926	369,254	-0,035	0,052
-640,911	-200,000	0,026	-0,151
-639,897	-200,000	0,019	-0,086
-638,882	200,551	0,015	-0,016
-637,868	800,000	-0,040	-0,115
-636,853	464,887	-0,037	0,060
-635,838	254,790	0,074	0,091
-634,824	-85,867	-0,089	-0,020
-633,809	564,311	0,022	0,039
-632,795	-133,773	-0,063	-0,006
-631,780	577,344	-0,058	0,103
-630,765	800,000	-0,086	-0,211
-629,751	286,573	0,037	-0,048
-628,736	536,024	0,051	-0,088
-627,722	693,590	0,038	-0,072
-626,707	96,841	0,049	-0,041
-625,692	3,634	-0,032	0,017
-624,678	63,023	-0,046	0,033
-623,663	244,047	0,048	0,058
-622,649	34,740	0,040	0,025
-621,634	-95,512	0,009	-0,002
-620,619	575,909	-0,075	-0,132
-619,605	-96,167	-0,138	-0,026
-618,590	326,517	0,130	0,180
-617,576	704,254	0,041	-0,078
-616,561	201,032	0,021	0,023
-615,546	-17,895	0,029	0,013
-614,532	-200,000	-0,023	-0,096
-613,517	-200,000	-0,007	-0,099
-612,503	-138,663	0,140	-0,011
-611,488	-200,000	0,009	-0,055
-610,474	-1,916	0,030	0,015
-609,459	-200,000	0,020	0,098
-608,444	-159,115	-0,074	0,003
-607,430	-101,013	0,063	0,011
-606,415	275,089	0,014	0,018
-605,401	6,551	0,061	0,033
-604,386	-200,000	0,013	0,088
-603,371	-100,933	0,158	-0,028
-602,357	-25,027	-0,093	0,039
-601,342	-11,911	0,159	-0,075
-600,328	19,543	-0,094	-0,054
-599,313	800,000	-0,036	-0,101
-598,298	-115,956	-0,017	-0,002
-597,284	-200,000	-0,009	0,118
-596,269	-53,834	0,145	0,047
-595,255	-149,971	-0,058	0,003
-594,240	-20,930	0,084	0,037
-593,225	262,513	-0,070	-0,087
-592,211	-91,680	-0,097	0,020
-591,196	-200,000	-0,016	0,078
-590,182	-76,503	0,019	-0,005
-589,167	800,000	-0,018	-0,057
-588,152	-94,604	0,140	-0,027
-587,138	-200,000	-0,011	0,070
-586,123	183,656	-0,119	-0,127
-585,109	-107,523	-0,124	0,019
-584,094	800,000	0,052	-0,158
-583,079	-135,772	-0,117	0,010
-582,065	43,774	0,173	0,114
-581,050	-49,966	-0,052	-0,018
-580,036	76,327	0,059	-0,045
-579,021	800,000	0,035	-0,076
-578,006	-200,000	-0,013	-0,162
-576,992	70,705	0,093	0,070
-575,977	315,978	-0,064	-0,087
-574,963	800,000	0,051	0,134
-573,948	-200,000	-0,028	0,193
-572,934	-67,581	-0,025	0,007
-571,919	-1,829	0,055	0,028
-570,904	-200,000	-0,027	0,100
-569,890	-200,000	0,009	-0,082
-568,875	-200,000	-0,003	0,009
-567,861	796,405	-0,031	-0,062
-566,846	71,060	-0,106	-0,079
-565,831	82,827	0,056	0,044
-564,817	4,115	-0,086	-0,045
-563,802	732,765	0,013	0,026
-562,788	-182,682	-0,111	-0,001
-561,773	-30,177	-0,123	0,050
-560,758	-200,000	0,204	-0,001
-559,744	434,761	0,009	0,014
-558,729	-12,884	0,070	0,033
-557,715	321,795	-0,108	-0,148
-556,700	800,000	-0,034	-0,094
-555,685	182,593	-0,045	-0,048
-554,671	179,482	0,054	-0,057
-553,656	800,000	0,036	-0,092
-552,642	-200,000	0,021	0,071
-551,627	11,791	-0,113	0,062
-550,612	800,000	-0,012	0,035
-549,598	-200,000	0,011	0,040
-548,583	-66,611	0,077	-0,022
-547,569	800,000	-0,031	-0,097
-546,554	-53,109	-0,097	-0,032
-545,539	-200,000	-0,003	-0,082
-544,525	-200,000	-0,002	-0,038
-543,510	308,750	-0,026	0,036
-542,496	38,392	-0,112	0,072
-541,481	-38,609	0,106	-0,040
-540,466	39,937	-0,055	0,035
-539,452	254,046	-0,030	0,037
-538,437	-195,306	0,167	-0,001
-537,423	800,000	-0,029	0,082
-536,408	264,608	0,017	-0,022
-535,393	69,327	-0,087	0,064
-534,379	-59,128	-0,130	0,040
-533,364	32,792	-0,045	0,028
-532,350	540,950	-0,044	-0,075
-531,335	31,670	0,130	0,080
-530,321	76,302	-0,079	0,060
-529,306	-200,000	0,016	-0,090
-528,291	115,339	-0,037	0,033
-527,277	231,733	0,032	-0,038
-526,262	-109,617	-0,055	0,008
-525,248	723,379	-0,017	0,033
-524,233	-3,374	-0,127	-0,063
-523,218	76,468	-0,053	-0,040
-522,204	800,000	0,024	0,062
-521,189	-142,228	-0,053	0,004
-520,175	-200,000	0,002	-0,079
-519,160	182,284	-0,034	0,036
-518,145	458,349	0,091	0,146
-517,131	-200,000	-0,009	-0,074
-516,116	-46,737	-0,043	0,015
-515,102	800,000	-0,071	0,155
-514,087	-200,000	-0,005	-0,045
-513,072	-200,000	0,008	-0,162
-512,058	103,386	-0,043	-0,036
-511,043	-200,000	-0,019	0,114
-510,029	-82,435	0,125	-0,029
-509,014	-130,941	-0,093	0,009
-507,999	-200,000	0,005	-0,116
-506,985	439,652	-0,045	-0,071
-505,970	149,663	0,077	-0,075
-504,956	97,533	-0,041	0,034
-503,941	371,154	0,035	-0,051
-502,926	-200,000	0,014	-0,062
-501,912	-200,000	-0,021	-0,080
-500,897	109,641	-0,198	0,170
-499,883	-75,408	-0,063	-0,016
-498,868	52,579	-0,051	-0,035
-497,853	-13,201	-0,042	0,019
-496,839	-125,224	-0,048	-0,005
-495,824	-200,000	-0,013	0,054
-494,810	-200,000	0,032	0,106
-493,795	-148,520	-0,120	0,007
-492,781	-119,171	-0,198	0,025
-491,766	106,606	0,048	-0,041
-490,751	-96,424	-0,058	-0,011
-489,737	-200,000	-0,022	-0,168
-488,722	-200,000	0,016	-0,052
-487,708	-75,375	-0,015	-0,004
-486,693	-200,000	0,001	0,016
-485,678	308,382	-0,040	-0,054
-484,664	16,279	-0,154	-0,087
-483,649	-14,885	-0,085	0,039
-482,635	-200,000	0,022	-0,172
-481,620	-200,000	-0,010	0,090
-480,605	9,795	0,085	0,046
-479,591	-200,000	0,005	-0,019
-478,576	-191,617	0,119	-0,001
-477,562	-200,000	-0,015	0,221
-476,547	373,698	0,079	-0,115
-475,532	250,868	0,021	0,026
-474,518	204,494	0,059	0,065
-473,503	-36,879	0,096	-0,037
-472,489	800,000	0,035	0,095
-471,474	-200,000	0,001	0,044
-470,459	-200,000	-0,031	-0,236
-469,445	800,000	-0,026	-0,058
-468,430	225,508	-0,071	-0,082
-467,416	-200,000	-0,019	-0,087
-466,401	351,094	-0,038	0,054
-465,386	-200,000	0,002	0,022
-464,372	367,561	0,036	-0,052
-463,357	402,118	0,045	-0,068
-462,343	293,094	-0,052	-0,068
-461,328	12,741	0,099	-0,054
-460,313	-175,352	0,144	-0,003
-459,299	-46,880	-0,057	-0,020
-458,284	-42,181	-0,098	-0,036
-457,270	7,932	0,115	-0,062
-456,255	154,175	-0,061	0,060
-455,241	-200,000	-0,173	0,000
-454,226	-133,998	0,128	-0,011
-453,211	-200,000	-0,026	0,088
-452,197	-147,071	0,146	-0,009
-451,182	65,407	-0,023	0,017
-450,168	-200,000	0,015	0,084
-449,153	84,703	-0,128	-0,100
-448,138	507,392	-0,071	0,118
-447,124	223,117	-0,029	-0,033
-446,109	-10,401	-0,096	0,045
-445,095	88,501	0,062	0,050
-444,080	-102,268	-0,028	0,005
-443,065	-200,000	-0,022	-0,118
-442,051	-57,501	-0,033	-0,010
-441,036	-135,412	-0,238	0,020
-440,022	-200,000	-0,007	-0,035
-439,007	303,343	0,039	-0,051
-437,992	-41,297	0,080	-0,029
-436,978	97,229	0,012	-0,010
-435,963	-200,000	0,016	-0,122
-434,949	-200,000	0,016	-0,102
-433,934	8,915	0,031	0,017
-432,919	-200,000	0,035	-0,135
-431,905	215,540	0,062	-0,070
-430,890	11,515	0,029	-0,016
-429,876	-98,373	0,301	-0,055
-428,861	367,891	0,107	0,155
-427,846	-76,291	-0,157	0,039
-426,832	119,737	0,054	0,048
-425,817	166,957	-0,065	0,066
-424,803	-200,000	0,004	-0,051
-423,788	-54,445	0,095	-0,031
-422,773	328,139	0,047	0,065
-421,759	-200,000	0,013	0,096
-420,744	-200,000	-0,017	0,104
-419,730	227,945	-0,110	0,128
-418,715	-200,000	-0,004	0,032
-417,701	43,130	0,092	-0,060
-416,686	348,938	0,113	-0,160
-415,671	7,206	0,073	0,039
-414,657	-200,000	-0,005	0,056
-413,642	-200,000	-0,005	-0,142
-412,628	463,757	0,049	-0,078
-411,613	266,985	0,089	-0,112
-410,598	-60,224	-0,038	-0,011
-409,584	800,000	0,055	0,113
-408,569	-87,671	0,081	0,017
-407,555	50,199	0,126	0,085
-406,540	373,945	0,077	0,113
-405,525	-200,000	-0,012	-0,098
-404,511	293,775	-0,090	-0,118
-403,496	-116,867	-0,044	0,006
-402,482	-85,657	0,051	-0,011
-401,467	-96,067	0,071	0,013
-400,452	-92,579	-0,053	0,010
-399,438	201,779	-0,046	0,051
-398,423	191,494	0,024	-0,026
-397,409	800,000	-0,016	0,043
-396,394	55,037	-0,140	-0,097
-395,379	-200,000	-0,006	0,023
-394,365	-200,000	0,001	-0,037
-393,350	387,307	0,081	0,121
-392,336	-200,000	0,002	0,054
-391,321	-8,724	-0,126	0,060
-390,306	-144,972	0,183	-0,012
-389,292	140,537	-0,052	-0,049
-388,277	96,975	-0,094	-0,077
-387,263	660,065	-0,030	0,056
-386,248	-200,000	0,002	0,034
-385,233	-153,917	-0,110	-0,005
-384,219	-26,910	-0,024	-0,010
-383,204	550,352	-0,015	0,026
-382,190	272,550	-0,053	0,068
-381,175	-156,062	0,098	0,004
-380,160	-60,354	-0,019	0,006
-379,146	-106,072	0,070	0,011
-378,131	800,000	0,033	0,096
-377,117	-200,000	-0,029	-0,130
-376,102	-103,540	0,060	-0,010
-375,088	67,886	-0,009	0,006
-374,073	-200,000	0,002	-0,103
-373,058	-5,774	-0,042	0,020
-372,044	268,409	0,120	0,151
-371,029	-93,974	0,135	-0,026
-370,015	238,881	-0,066	0,078
-369,000	607,337	-0,088	-0,157
-367,985	-200,000	-0,006	-0,146
-366,971	-200,000	0,003	-0,088
-365,956	-200,000	-0,007	-0,076
-364,942	-200,000	0,027	0,108
-363,927	-72,513	-0,067	0,017
-362,912	-139,137	0,218	-0,017
-361,898	54,065	-0,141	-0,097
-360,883	37,225	0,051	-0,032
-359,869	-151,040	0,084	-0,004
-358,854	555,311	-0,033	-0,057
-357,839	200,845	0,041	0,045
-356,825	485,220	0,026	0,043
-355,810	-53,225	-0,120	0,039
-354,796	-6,365	-0,076	0,037
-353,781	-36,685	0,200	0,076
-352,766	-91,174	-0,172	-0,035
-351,752	123,951	0,036	0,033
-350,737	-200,000	-0,038	0,199
-349,723	800,000	0,030	0,086
-348,708	800,000	-0,048	0,104
-347,693	-75,695	-0,064	0,016
-346,679	56,141	-0,063	-0,044
-345,664	-138,913	-0,056	0,004
-344,650	-128,655	0,150	-0,015
-343,635	-110,170	0,148	-0,022
-342,620	326,695	-0,004	-0,006
-341,606	571,742	-0,055	0,096
-340,591	497,473	-0,062	0,102
-339,577	175,849	-0,136	-0,141
-338,562	-13,481	-0,036	-0,016
-337,548	-64,734	0,074	-0,021
-336,533	-200,000	-0,014	0,048
-335,518	-200,000	0,008	-0,033
-334,504	800,000	0,003	-0,007
-333,489	-84,566	-0,068	-0,015
-332,475	148,894	-0,048	-0,047
-331,460	-130,440	-0,120	-0,011
-330,445	35,946	0,106	0,067
-329,431	49,748	0,053	-0,036
-328,416	-200,000	0,007	-0,117
-327,402	9,415	0,050	-0,027
-326,387	433,380	-0,056	0,088
-325,372	800,000	-0,020	0,051
-324,358	-200,000	0,010	0,060
-323,343	59,466	0,200	0,141
-322,329	-67,839	0,107	0,030
-321,314	46,095	0,118	0,078
-320,299	800,000	-0,036	0,105
-319,285	375,265	0,032	-0,047
-318,270	-9,967	0,116	-0,055
-317,256	3,326	-0,050	-0,026
-316,241	-127,790	-0,137	-0,014
-315,226	16,057	-0,056	0,032
-314,212	109,590	0,122	0,104
-313,197	800,000	0,020	-0,054
-312,183	21,571	0,050	-0,029
-311,168	112,948	-0,152	0,132
-310,153	63,818	-0,030	-0,021
-309,139	-28,560	0,014	-0,006
-308,124	800,000	0,019	-0,042
-307,110	126,405	0,090	0,081
-306,095	800,000	-0,035	0,070
-305,080	55,201	0,072	-0,050
-304,066	-56,893	-0,072	0,023
-303,051	-9,883	0,080	0,038
-302,037	637,116	-0,059	0,108
-301,022	39,531	0,065	0,041
-300,008	-25,769	-0,097	0,040
-298,993	-13,210	0,083	0,038
-297,978	75,484	0,030	0,022
-296,964	119,626	-0,087	0,076
-295,949	-41,386	0,032	0,012
-294,935	-54,769	-0,078	0,025
-293,920	-175,105	0,115	-0,002
-292,905	-92,607	0,069	0,014
-291,891	-200,000	-0,011	-0,044
-290,876	-200,000	0,022	0,174
-289,862	-77,328	0,114	0,028
-288,847	9,856	-0,096	-0,052
-287,832	-64,187	0,018	-0,005
-286,818	448,422	0,025	-0,040
-285,803	-33,419	0,096	-0,037
-284,789	71,258	0,093	0,068
-283,774	800,000	0,066	0,157
-282,759	-200,000	0,024	-0,108
-281,745	352,935	-0,072	-0,103
-280,730	-200,000	-0,015	-0,070
-279,716	-97,910	0,109	0,020
-278,701	800,000	0,034	0,083
-277,686	36,846	0,079	0,050
-276,672	168,651	0,057	0,058
-275,657	-1,086	-0,045	0,023
-274,643	28,137	0,006	-0,003
-273,628	152,393	-0,115	-0,112
-272,613	564,695	-0,017	0,029
-271,599	-67,998	0,083	-0,023
-270,584	201,695	0,148	0,162
-269,570	323,099	-0,016	-0,021
-268,555	75,053	0,083	0,062
-267,540	302,404	-0,017	-0,022
-266,526	113,486	-0,027	0,023
-265,511	-90,382	-0,159	-0,033
-264,497	411,871	-0,023	-0,035
-263,482	724,489	-0,016	-0,030
-262,467	-116,476	0,032	0,004
-261,453	381,232	0,116	0,170
-260,438	39,825	-0,102	0,065
-259,424	8,680	-0,149	0,080
-258,409	122,942	-0,016	0,014
-257,395	800,000	0,054	-0,107
-256,380	2,848	0,022	0,011
-255,365	-54,803	-0,075	-0,024
-254,351	-43,258	0,061	0,022
-253,336	50,419	-0,066	-0,044
-252,322	60,329	-0,108	-0,076
-251,307	229,097	-0,039	0,045
-250,292	800,000	-0,027	0,066
-249,278	-200,000	0,009	0,069
-248,263	487,811	0,030	-0,048
-247,249	148,719	-0,145	0,140
-246,234	-200,000	-0,031	-0,146
-245,219	70,936	-0,114	0,084
-244,205	557,346	-0,056	-0,096
-243,190	145,542	0,115	0,109
-242,176	506,650	0,070	0,115
-241,161	539,999	-0,028	0,047
-240,146	800,000	0,048	0,134
-239,132	-200,000	0,024	-0,084
-238,117	800,000	-0,012	0,037
-237,103	800,000	0,059	-0,145
-236,088	446,296	0,056	-0,088
-235,073	-200,000	0,032	0,108
-234,059	-200,000	-0,013	-0,045
-233,044	25,238	-0,031	0,018
-232,030	-117,891	0,054	-0,007
-231,015	384,161	-0,014	0,020
-230,000	-200,000	-0,014	-0,130
-228,986	13,450	0,105	0,057
-227,971	140,170	-0,154	0,144
-226,957	68,314	-0,126	0,092
-225,942	-19,233	0,289	-0,127
-224,927	104,375	-0,025	0,021
-223,913	-95,701	0,059	0,011
-222,898	63,288	0,098	-0,070
-221,884	800,000	0,029	0,073
-220,869	474,371	0,052	0,083
-219,855	16,040	0,113	0,063
-218,840	-200,000	-0,023	0,086
-217,825	-200,000	0,001	0,104
-216,811	-200,000	0,025	-0,151
-215,796	-121,313	-0,076	-0,009
-214,782	285,573	0,048	0,061
-213,767	64,636	0,022	0,015
-212,752	78,869	0,099	-0,075
-211,738	800,000	-0,036	-0,097
-210,723	761,609	0,029	-0,057
-209,709	-200,000	-0,029	0,157
-208,694	1,595	0,038	-0,019
-207,679	800,000	-0,019	-0,048
-206,665	-62,467	-0,185	0,054
-205,650	800,000	0,098	0,214
-204,636	16,057	0,096	-0,054
-203,621	20,184	-0,083	-0,048
-202,606	6,436	-0,104	0,055
-201,592	-3,664	-0,038	-0,019
-200,577	-200,000	0,039	-0,148
-199,563	672,063	0,074	0,136
-198,548	800,000	0,080	0,163
-197,533	800,000	-0,070	0,151
-196,519	99,795	-0,095	0,078
-195,504	368,425	0,047	-0,068
-194,490	249,474	-0,047	-0,057
-193,475	800,000	-0,087	-0,220
-192,460	800,000	0,038	0,089
-191,446	-46,971	-0,012	0,004
-190,431	-200,000	-0,004	0,071
-189,417	243,197	-0,071	0,084
-188,402	-200,000	0,012	-0,125
-187,387	-44,272	0,042	0,015
-186,373	-80,701	0,048	0,011
-185,358	-5,148	-0,144	-0,070
-184,344	800,000	0,029	-0,072
-183,329	132,606	-0,003	0,003
-182,315	17,179	0,064	0,036
-181,300	233,145	0,086	-0,101
-180,285	140,826	-0,017	0,016
-179,271	8,516	-0,066	-0,035
-178,256	-200,000	-0,027	-0,093
-177,242	3,057	-0,059	-0,030
-176,227	-119,718	0,123	0,015
-175,212	724,780	0,027	0,052
-174,198	-13,096	-0,061	0,028
-173,183	-200,000	0,018	-0,066
-172,169	-200,000	0,038	-0,118
-171,154	-129,883	-0,089	0,009
-170,139	-123,031	-0,159	0,018
-169,125	663,578	-0,039	0,071
-168,110	-200,000	0,025	-0,088
-167,096	87,833	0,033	-0,026
-166,081	37,627	0,028	-0,018
-165,066	212,579	-0,098	-0,110
-164,052	-200,000	-0,001	-0,040
-163,037	-69,374	0,036	-0,010
-162,023	-200,000	0,057	0,180
-161,008	-107,698	-0,037	-0,006
-159,993	800,000	-0,036	-0,074
-158,979	-59,695	0,023	0,007
-157,964	800,000	0,019	0,054
-156,950	-6,760	-0,027	-0,013
-155,935	800,000	0,054	-0,114
-154,920	572,976	0,036	-0,062
-153,906	-47,691	0,127	0,043
-152,891	-33,932	0,033	-0,013
-151,877	109,512	-0,056	0,047
-150,862	-12,754	-0,071	-0,033
-149,847	-200,000	-0,004	0,042
-148,833	-40,202	0,111	0,041
-147,818	146,695	-0,095	0,090
-146,804	112,852	0,051	-0,044
-145,789	378,492	-0,073	0,106
-144,775	800,000	-0,037	-0,078
-143,760	75,032	0,044	0,033
-142,745	236,466	-0,042	-0,049
-141,731	-68,278	0,102	0,028
-140,716	83,870	0,102	0,079
-139,702	211,413	-0,020	-0,022
-138,687	1,159	0,108	0,055
-137,672	148,064	-0,080	0,076
-136,658	731,226	-0,055	0,105
-135,643	-200,000	0,000	-0,063
-134,629	94,394	-0,017	-0,014
-133,614	-63,889	0,114	0,033
-132,599	246,646	0,106	0,127
-131,585	3,906	-0,021	-0,011
-130,570	77,953	0,033	-0,025
-129,556	267,640	0,006	0,008
-128,541	-167,730	-0,086	0,002
-127,526	523,294	0,105	0,175
-126,512	800,000	-0,030	0,082
-125,497	800,000	0,034	0,102
-124,483	50,523	0,156	-0,105
-123,468	-200,000	-0,047	0,155
-122,453	117,907	0,075	-0,065
-121,439	127,124	0,015	0,014
-120,424	800,000	-0,035	0,108
-119,410	545,519	0,025	-0,043
-118,395	-169,424	-0,012	0,000
-117,380	-200,000	0,008	0,225
-116,366	335,295	0,049	-0,068
-115,351	351,409	-0,021	-0,029
-114,337	534,702	-0,031	-0,053
-113,322	171,507	-0,094	0,096
-112,307	800,000	0,055	-0,133
-111,293	-41,906	-0,049	0,018
-110,278	-167,304	0,054	-0,002
-109,264	136,129	-0,071	0,065
-108,249	-200,000	0,008	0,030
-107,234	144,302	-0,050	0,047
-106,220	-200,000	-0,034	-0,166
-105,205	-44,598	0,070	-0,025
-104,191	657,479	-0,044	-0,080
-103,176	-200,000	-0,009	0,081
-102,162	-96,099	0,053	0,010
-101,147	558,858	0,060	-0,104
-100,132	-200,000	-0,015	0,076
-99,118	-32,906	-0,132	0,052
-98,103	13,037	0,140	0,077
-97,089	-200,000	-0,009	-0,097
-96,074	-15,391	0,066	-0,030
-95,059	75,116	0,025	-0,019
-94,045	367,537	-0,042	0,060
-93,030	-200,000	-0,007	-0,085
-92,016	800,000	0,018	0,045
-91,001	-200,000	0,007	0,161
-89,986	800,000	0,005	-0,012
-88,972	667,812	0,035	0,065
-87,957	800,000	0,008	0,022
-86,943	36,664	-0,152	0,095
-85,928	290,743	-0,101	-0,130
-84,913	194,684	-0,030	0,032
-83,899	367,074	-0,040	0,057
-82,884	-200,000	0,008	-0,043
-81,870	-174,498	0,060	-0,001
-80,855	-200,000	0,007	0,099
-79,840	-150,164	-0,048	-0,003
-78,826	41,192	-0,098	0,063
-77,811	48,931	0,116	-0,077
-76,797	-84,650	0,102	0,023
-75,782	-200,000	0,014	0,154
-74,767	-115,650	0,112	0,015
-73,753	-200,000	-0,012	-0,084
-72,738	-28,263	-0,125	-0,051
-71,724	800,000	0,011	-0,030
-70,709	-200,000	0,015	0,052
-69,694	25,090	-0,094	-0,055
-68,680	-26,274	0,110	0,045
-67,665	524,974	-0,040	0,067
-66,651	272,046	-0,033	-0,042
-65,636	-92,624	-0,049	0,010
-64,622	-200,000	0,009	-0,129
-63,607	-94,510	0,065	-0,012
-62,592	724,080	-0,030	-0,057
-61,578	-76,812	-0,055	-0,013
-60,563	-200,000	0,028	0,140
-59,549	-200,000	-0,009	-0,029
-58,534	36,583	-2,078	-1,292
-57,519	557,535	-1,126	-1,924
-56,505	-200,000	-0,240	-4,312
-55,490	471,177	0,864	1,376
-54,476	800,000	5,039	11,316
-53,461	-200,000	21,535	343,100
-52,446	800,000	762,635	2363,192
-51,432	556,752	1663,722	2839,843
-50,417	72,844	1660,534	1222,039
-49,403	17,610	1534,013	858,264
-48,388	11,590	1457,605	786,413
-47,373	19,429	1449,073	819,376
-46,359	15,155	1437,802	792,665
-45,344	9,874	1433,999	765,404
-44,330	9,818	1432,068	764,074
-43,315	9,816	1430,341	763,117
-42,300	9,823	1428,506	762,138
-41,286	9,817	1427,434	761,507
-40,271	9,805	1425,995	760,653
-39,257	9,761	1425,182	759,980
-38,242	9,853	1423,630	759,558
-37,227	9,832	1422,444	758,796
-36,213	9,821	1421,280	758,093
-35,198	9,858	1420,064	757,591
-34,184	9,920	1419,096	757,337
-33,169	9,822	1417,802	756,152
-32,154	9,872	1416,794	755,822
-31,140	9,883	1415,552	755,178
-30,125	9,892	1414,398	754,577
-29,111	9,907	1413,187	753,971
-28,096	9,833	1411,986	752,952
-27,082	9,790	1410,913	752,149
-26,067	9,778	1409,990	751,569
-25,052	9,785	1408,946	751,016
-24,038	9,824	1407,982	750,659
-23,023	9,829	1406,872	750,060
-22,009	9,810	1405,746	749,340
-20,994	9,861	1404,893	749,092
-19,979	9,837	1403,972	748,459
-18,965	9,777	1402,964	747,612
-17,950	9,786	1402,037	747,134
-16,936	9,767	1401,359	746,651
-15,921	9,679	1400,468	745,741
-14,906	9,671	1399,521	745,167
-13,892	9,781	1398,195	744,943
-12,877	9,726	1397,804	744,448
-11,863	9,707	1396,661	743,723
-10,848	9,672	1395,992	743,177
-9,833	9,649	1395,025	742,525
-8,819	9,588	1394,375	741,867
-7,804	9,651	1393,082	741,439
-6,790	9,606	1392,329	740,801
-5,775	9,668	1390,992	740,350
-4,760	9,619	1390,190	739,665
-3,746	9,593	1389,246	739,012
-2,731	9,661	1388,331	738,813
-1,717	9,656	1387,615	738,380
-0,702	9,617	1385,662	737,129
0,313	13,668	1298,158	709,087
1,327	29,767	688,691	412,600
2,342	46,131	119,055	77,606
3,356	1,098	16,471	8,305
4,371	10,905	3,630	1,949
5,386	23,920	0,954	0,553
6,400	-200,000	0,139	0,817
7,415	-94,920	-0,272	-0,051
8,429	40,017	-0,239	-0,151
9,444	171,173	-0,329	-0,333
10,459	-15,613	-0,344	-0,154
11,473	24,311	-0,269	-0,156
12,488	-35,262	-0,310	-0,118
13,502	11,375	-0,177	-0,095
14,517	-66,301	-0,214	-0,060
15,531	3,594	-0,493	-0,252
16,546	10,732	-0,265	-0,142
17,561	404,732	-0,218	-0,324
18,575	-58,748	-0,152	-0,046
19,590	154,273	-0,229	-0,222
20,604	-63,756	-0,240	-0,069
21,619	7,823	-0,402	-0,212
22,634	83,189	-0,477	-0,365
23,648	122,928	-0,282	-0,248
24,663	206,373	-0,299	-0,328
25,677	42,909	-0,330	-0,211
26,692	86,422	-0,327	-0,253
27,707	121,857	-0,321	-0,282
28,721	104,543	-0,346	-0,286
29,736	140,119	-0,363	-0,337
30,750	51,055	-0,491	-0,327
31,765	17,220	-0,164	-0,091
32,780	28,121	-0,408	-0,242
33,794	22,894	-0,372	-0,214
34,809	-75,095	-0,429	-0,107
35,823	18,052	-0,444	-0,248
36,838	115,554	-0,286	-0,246
37,853	-6,548	-0,536	-0,256
38,867	-47,076	-0,275	-0,094
39,882	-36,946	-0,339	-0,127
40,896	-15,425	-0,236	-0,106
41,911	25,700	-0,323	-0,188
42,926	34,038	-0,332	-0,203
43,940	485,384	-0,238	-0,383
44,955	72,337	-0,309	-0,226
45,969	110,032	-0,318	-0,268
46,984	73,141	-0,366	-0,268
47,999	375,622	-0,222	-0,319
49,013	-33,874	-0,378	-0,146
50,028	124,011	-0,332	-0,293
51,042	203,606	-0,351	-0,382
52,057	-22,421	-0,362	-0,153
53,071	186,402	-0,206	-0,215
54,086	122,342	-0,362	-0,318
55,101	265,319	-0,130	-0,159
56,115	205,580	-0,241	-0,263
57,130	-21,074	-0,322	-0,138
58,144	176,204	-0,314	-0,320
59,159	115,004	-0,311	-0,267
60,174	33,592	-0,407	-0,247
61,188	146,399	-0,319	-0,301
62,203	226,051	-0,296	-0,338
63,217	62,871	-0,199	-0,139
64,232	-130,206	-0,337	-0,032
65,247	187,071	-0,370	-0,387
66,261	267,290	-0,199	-0,244
67,276	-21,668	-0,306	-0,130
68,290	129,191	-0,347	-0,311
69,305	114,132	-0,286	-0,244
70,320	36,993	-0,285	-0,176
71,334	746,498	-0,157	-0,298
72,349	19,082	-0,423	-0,237
73,363	57,335	-0,296	-0,202
74,378	-30,102	-0,323	-0,128
75,393	-61,568	-0,342	-0,100
76,407	71,940	-0,328	-0,239
77,422	94,425	-0,164	-0,130
78,436	-135,521	-0,230	-0,019
79,451	143,095	-0,288	-0,269
80,466	145,304	-0,221	-0,208
81,480	25,371	-0,355	-0,206
82,495	128,606	-0,308	-0,274
83,509	-160,278	-0,217	-0,008
84,524	800,000	-0,092	-0,188
85,539	-55,444	-0,210	-0,065
86,553	-158,304	-0,311	-0,012
87,568	-112,128	-0,297	-0,041
88,582	136,664	-0,311	-0,284
89,597	94,320	-0,314	-0,250
90,611	47,055	-0,193	-0,125
91,626	115,425	-0,183	-0,157
92,641	-7,088	-0,346	-0,164
93,655	-149,615	-0,253	0,014
94,670	-51,856	-0,285	-0,092
95,684	590,883	-0,207	-0,358
96,699	175,498	-0,271	-0,275
97,714	333,823	-0,258	-0,350
98,728	-160,968	-0,213	-0,008
99,743	259,910	-0,269	-0,326
100,757	24,354	-0,271	-0,156
101,772	188,572	-0,223	-0,233
102,787	72,566	-0,365	-0,266
103,801	210,112	-0,209	-0,230
104,816	-58,082	-0,229	-0,069
105,830	784,523	-0,108	-0,208
106,845	631,612	-0,131	-0,232
107,860	-25,626	-0,304	-0,125
108,874	384,853	-0,148	-0,214
109,889	-12,289	-0,331	-0,151
110,903	9,707	-0,227	-0,120
111,918	-24,172	-0,253	-0,105
112,933	120,254	-0,174	-0,151
113,947	52,456	-0,237	-0,157
114,962	79,088	-0,238	-0,178
115,976	125,539	-0,244	-0,215
116,991	229,856	-0,189	-0,216
118,006	118,583	-0,247	-0,212
119,020	-1,032	-0,230	-0,113
120,035	-0,241	-0,211	-0,104
121,049	8,021	-0,258	-0,135
122,064	-88,359	-0,261	-0,054
123,079	243,345	-0,197	-0,231
124,093	67,953	-0,317	-0,226
125,108	74,126	-0,338	-0,248
126,122	527,777	-0,204	-0,336
127,137	-33,655	-0,321	-0,123
128,151	800,000	-0,084	-0,198
129,166	-0,714	-0,235	-0,116
130,181	25,870	-0,212	-0,123
131,195	154,847	-0,269	-0,258
132,210	170,025	-0,228	-0,228
133,224	-200,000	-0,094	-0,343
134,239	100,629	-0,164	-0,133
135,254	-45,825	-0,292	-0,100
136,268	76,876	-0,221	-0,163
137,283	344,899	-0,078	-0,107
138,297	21,113	-0,215	-0,121
139,312	215,758	-0,277	-0,307
140,327	169,685	-0,190	-0,189
141,341	150,499	-0,242	-0,229
142,356	226,640	-0,263	-0,298
143,370	231,669	-0,220	-0,251
144,385	790,190	-0,105	-0,202
145,400	13,637	-0,286	-0,154
146,414	-6,953	-0,269	-0,127
147,429	-30,291	-0,254	-0,100
148,443	257,452	-0,163	-0,195
149,458	194,931	-0,112	-0,119
150,473	373,250	-0,123	-0,175
151,487	-41,010	-0,235	-0,084
152,502	42,575	-0,302	-0,191
153,516	177,919	-0,281	-0,286
154,531	-43,129	-0,276	-0,097
155,546	109,293	-0,224	-0,187
156,560	-13,352	-0,250	-0,113
157,575	1,553	-0,163	-0,081
158,589	170,432	-0,209	-0,209
159,604	128,892	-0,210	-0,186
160,619	78,197	-0,281	-0,209
161,633	142,834	-0,321	-0,297
162,648	12,800	-0,175	-0,094
163,662	-27,440	-0,155	-0,062
164,677	72,112	-0,240	-0,173
165,692	180,502	-0,204	-0,209
166,706	12,973	-0,357	-0,192
167,721	148,284	-0,218	-0,205
168,735	58,870	-0,285	-0,195
169,750	51,180	-0,181	-0,119
170,764	52,849	-0,247	-0,164
171,779	443,944	-0,120	-0,184
172,794	-89,745	-0,276	-0,056
173,808	-119,125	-0,200	0,024
174,823	-178,514	-0,443	0,007
175,837	-5,463	-0,277	-0,131
176,852	-16,618	-0,180	-0,079
177,867	-54,533	-0,137	-0,043
178,881	-31,793	-0,325	-0,126
179,896	81,616	-0,244	-0,183
180,910	-45,931	-0,257	-0,088
181,925	41,057	-0,221	-0,138
182,940	186,373	-0,200	-0,207
183,954	130,680	-0,167	-0,149
184,969	768,867	-0,127	-0,241
185,983	-2,792	-0,149	-0,072
186,998	19,228	-0,239	-0,133
188,013	800,000	-0,106	-0,247
189,027	214,016	-0,186	-0,205
190,042	656,130	-0,099	-0,178
191,056	439,258	-0,191	-0,289
192,071	147,462	-0,130	-0,122
193,086	379,306	-0,111	-0,159
194,100	-65,648	-0,217	-0,060
195,115	-200,000	-0,052	-0,175
196,129	64,854	-0,220	-0,154
197,144	247,694	-0,170	-0,199
198,159	195,359	-0,234	-0,247
199,173	110,353	-0,253	-0,211
200,188	-38,836	-0,223	-0,081
201,202	-37,064	-0,140	-0,052
202,217	630,457	-0,138	-0,243
203,232	90,206	-0,266	-0,206
204,246	132,308	-0,225	-0,201
205,261	5,871	-0,124	-0,063
206,275	179,353	-0,141	-0,144
207,290	-194,459	-0,248	0,001
208,304	-200,000	-0,031	-0,116
209,319	-148,049	-0,171	0,010
210,334	800,000	-0,102	-0,199
211,348	103,894	-0,224	-0,182
212,363	500,609	-0,163	-0,262
213,377	365,804	-0,139	-0,194
214,392	-10,042	-0,219	-0,101
215,407	800,000	-0,051	-0,119
216,421	292,399	-0,151	-0,190
217,436	53,881	-0,200	-0,133
218,450	79,222	-0,108	-0,080
219,465	59,916	-0,218	-0,149
220,480	-200,000	-0,059	-0,187
221,494	-58,799	-0,218	-0,065
222,509	-9,913	-0,146	-0,067
223,523	-154,462	-0,193	0,009
224,538	74,305	-0,264	-0,192
225,553	65,023	-0,205	-0,143
226,567	68,459	-0,184	-0,130
227,582	60,663	-0,215	-0,147
228,596	61,097	-0,185	-0,127
229,611	-92,022	-0,155	0,030
230,626	-200,000	-0,017	-0,094
231,640	103,321	-0,210	-0,170
232,655	82,192	-0,187	-0,140
233,669	-22,280	-0,254	-0,106
234,684	-42,709	-0,163	-0,057
235,699	-200,000	-0,035	-0,106
236,713	800,000	-0,114	-0,286
237,728	128,716	-0,190	-0,167
238,742	86,808	-0,104	0,080
239,757	79,961	-0,321	-0,238
240,772	106,124	-0,167	-0,136
241,786	-82,235	-0,173	0,039
242,801	421,899	-0,157	-0,234
243,815	159,328	-0,191	-0,184
244,830	64,625	-0,209	-0,145
245,844	131,415	-0,177	-0,157
246,859	369,467	-0,148	-0,207
247,874	6,875	-0,183	-0,094
248,888	135,356	-0,144	-0,129
249,903	-44,888	-0,243	-0,083
250,917	-55,603	-0,121	-0,037
251,932	353,235	-0,026	-0,035
252,947	800,000	-0,028	-0,077
253,961	353,332	-0,137	-0,189
254,976	188,511	-0,152	-0,157
255,990	121,952	-0,215	-0,185
257,005	-39,138	-0,172	-0,062
258,020	160,040	-0,199	-0,191
259,034	-56,029	-0,188	-0,057
260,049	-104,950	-0,145	-0,023
261,063	-136,266	-0,261	0,021
262,078	199,757	-0,186	-0,197
263,093	800,000	-0,087	-0,196
264,107	47,834	-0,164	-0,105
265,122	17,118	-0,102	0,056
266,136	119,019	-0,132	-0,112
267,151	301,935	-0,093	-0,118
268,166	-61,019	-0,236	-0,068
269,180	15,079	-0,075	-0,040
270,195	84,368	-0,160	-0,120
271,209	757,479	-0,122	-0,228
272,224	785,915	-0,077	-0,147
273,239	161,300	-0,082	-0,079
274,253	-50,422	-0,138	-0,044
275,268	-9,966	-0,069	-0,032
276,282	-200,000	-0,042	-0,202
277,297	127,052	-0,170	-0,149
278,312	96,024	-0,205	-0,161
279,326	37,526	-0,138	-0,084
280,341	320,386	-0,101	-0,132
281,355	45,387	-0,105	-0,066
282,370	-53,057	-0,102	-0,032
283,384	163,160	-0,173	-0,168
284,399	-30,211	-0,157	-0,061
285,414	800,000	-0,070	-0,134
286,428	800,000	-0,079	-0,222
287,443	-95,466	-0,156	-0,029
288,457	91,471	-0,098	-0,076
289,472	48,929	-0,116	-0,075
290,487	553,882	-0,110	-0,182
291,501	78,354	-0,223	-0,164
292,516	362,549	-0,108	-0,150
293,530	171,149	-0,128	-0,127
294,545	5,590	-0,225	-0,114
295,560	-200,000	0,016	-0,130
296,574	-67,285	-0,119	-0,032
297,589	800,000	-0,059	-0,131
298,603	155,081	-0,155	-0,146
299,618	113,885	-0,126	-0,105
300,633	-183,582	-0,088	0,001
301,647	58,954	-0,075	-0,051
302,662	-165,528	-0,205	-0,006
303,676	58,916	-0,089	-0,060
304,691	-14,773	-0,257	-0,113
305,706	164,913	-0,170	-0,165
306,720	138,633	-0,143	-0,129
307,735	337,435	-0,122	-0,164
308,749	-123,346	-0,082	0,009
309,764	60,123	-0,128	-0,087
310,779	-31,531	-0,064	-0,025
311,793	-40,476	-0,112	-0,040
312,808	149,135	-0,166	-0,154
313,822	254,227	-0,186	-0,218
314,837	444,847	-0,186	-0,282
315,852	214,059	-0,167	-0,182
316,866	524,559	-0,075	-0,121
317,881	190,140	-0,045	-0,047
318,895	-69,005	-0,234	-0,061
319,910	-84,466	-0,216	-0,046
320,925	92,837	-0,104	-0,081
321,939	-200,000	-0,008	-0,100
322,954	7,007	-0,133	-0,068
323,968	-148,719	-0,057	-0,003
324,983	92,692	-0,091	-0,070
325,997	-9,939	-0,209	-0,095
327,012	250,683	-0,151	-0,176
328,027	-43,305	-0,132	-0,046
329,041	-200,000	-0,026	-0,112
330,056	22,484	-0,120	-0,067
331,070	28,469	-0,186	-0,108
332,085	64,752	-0,149	-0,103
333,100	-141,586	-0,142	-0,010
334,114	800,000	-0,100	-0,223
335,129	800,000	-0,096	-0,221
336,143	-122,530	-0,076	-0,008
337,158	247,073	-0,125	-0,145
338,173	75,989	-0,099	-0,072
339,187	-41,118	-0,176	0,062
340,202	-81,621	-0,157	-0,035
341,216	-173,763	-0,051	0,001
342,231	502,415	-0,140	-0,221
343,246	800,000	-0,106	-0,249
344,260	800,000	-0,043	-0,129
345,275	6,096	-0,045	0,023
346,289	-97,838	-0,067	-0,012
347,304	-7,545	-0,240	-0,111
348,319	-104,836	-0,243	-0,038
349,333	17,637	-0,173	0,094
350,348	76,989	-0,126	-0,092
351,362	396,491	-0,069	-0,099
352,377	289,877	-0,061	-0,076
353,392	221,300	-0,066	-0,073
354,406	-200,000	-0,052	-0,184
355,421	207,761	1306,136	1395,914
356,435	159,838	1465,778	1396,383
