DTS Sentinel unit serial number:	SN410029Multiplexer serial number:	ORYXHardware model number:	OX2-SRSoftware version number:	ORYX F/W v4,00 Oryx Data Collector v3.7.2.0data status	okinstallation	B3 Nyhavnadifferential loss correction	single-endedforward channel	channel 1reverse channel	N/Adate	2023/11/30time	15:12:30forward acquisition time	300,00reverse acquisition time	0,00gamma	499,1914k internal	0,3208k external	0,3208temperature offset calibration	1,0000default loss term (dB/km)	0,3820temperature slope calibration	1,0000multiplexer offset coefficient	1,0000multiplexer slope coefficient	1,0000fibre end	0,00T internal ref (°C)	12,23T ext. ref 1 (°C)	-1,89T ext. ref 2 (°C)	-1,93length (m)	temperature (°C)	Stokes	anti-Stokes-744,400	-112,471	-0,351	-0,050
-743,385	122,045	-0,166	0,151
-742,371	800,000	-0,081	-0,214
-741,356	-200,000	-0,131	0,474
-740,342	7,458	-0,246	-0,133
-739,327	453,853	0,144	0,232
-738,312	-200,000	-0,068	-0,223
-737,298	-200,000	-0,073	0,330
-736,283	-200,000	-0,071	-0,233
-735,269	-200,000	-0,074	0,368
-734,254	172,022	-0,158	-0,165
-733,239	83,844	-0,156	0,123
-732,225	567,410	-0,152	-0,269
-731,210	248,885	0,066	0,081
-730,196	-60,454	-0,082	0,025
-729,181	385,306	-0,054	-0,081
-728,167	-200,000	0,005	0,050
-727,152	772,992	0,061	-0,122
-726,137	154,797	0,024	-0,023
-725,123	395,321	-0,076	-0,115
-724,108	-174,646	-0,130	-0,003
-723,094	800,000	-0,069	-0,155
-722,079	800,000	0,008	-0,024
-721,064	213,443	0,071	-0,082
-720,050	-200,000	-0,026	0,175
-719,035	-200,000	0,009	0,102
-718,021	-27,366	-0,125	-0,052
-717,006	403,912	-0,080	-0,122
-715,991	212,653	-0,137	-0,157
-714,977	-82,795	-0,188	0,044
-713,962	151,561	-0,062	-0,061
-712,948	800,000	-0,051	-0,162
-711,933	800,000	-0,056	0,115
-710,918	-86,712	-0,131	-0,029
-709,904	-28,039	-0,044	0,019
-708,889	739,772	-0,079	-0,154
-707,875	156,149	-0,066	-0,066
-706,860	-200,000	0,010	0,108
-705,845	-137,004	0,076	0,006
-704,831	474,433	0,105	-0,172
-703,816	-142,437	-0,076	0,005
-702,802	-30,389	0,137	-0,056
-701,787	-80,018	-0,063	0,015
-700,772	-200,000	0,008	0,034
-699,758	-200,000	-0,026	0,127
-698,743	-195,255	-0,072	-0,000
-697,729	-200,000	-0,008	0,032
-696,714	-118,222	-0,067	0,009
-695,699	-62,009	0,069	-0,021
-694,685	-200,000	0,014	-0,050
-693,670	329,131	-0,064	-0,089
-692,656	800,000	0,020	0,056
-691,641	-67,244	0,074	-0,021
-690,627	-79,639	0,120	-0,029
-689,612	-114,775	0,120	0,016
-688,597	-8,236	-0,092	-0,045
-687,583	48,696	-0,076	-0,051
-686,568	-200,000	-0,034	-0,116
-685,554	-12,672	-0,158	-0,074
-684,539	-200,000	-0,008	-0,060
-683,524	-136,884	0,127	0,010
-682,510	-160,688	0,127	0,005
-681,495	-200,000	-0,019	0,062
-680,481	-101,144	-0,121	0,021
-679,466	-2,291	-0,128	-0,065
-678,451	-200,000	-0,010	-0,172
-677,437	-32,265	0,143	-0,058
-676,422	-200,000	-0,007	0,200
-675,408	10,656	-0,135	-0,075
-674,393	298,885	-0,088	-0,118
-673,378	-200,000	0,001	0,041
-672,364	25,102	-0,124	-0,074
-671,349	-90,722	0,035	0,007
-670,335	27,939	-0,039	0,024
-669,320	-200,000	0,014	0,072
-668,305	-52,998	0,169	-0,056
-667,291	-78,140	-0,080	-0,020
-666,276	-112,739	-0,107	-0,015
-665,262	-200,000	-0,000	-0,095
-664,247	335,154	-0,026	0,037
-663,232	-181,991	0,019	-0,000
-662,218	-102,650	0,126	0,022
-661,203	327,152	-0,031	0,043
-660,189	800,000	-0,051	0,116
-659,174	67,042	-0,118	0,087
-658,159	-196,629	-0,104	-0,000
-657,145	-120,876	0,043	0,005
-656,130	-28,108	0,001	-0,000
-655,116	-105,071	0,031	0,005
-654,101	-9,481	-0,127	-0,061
-653,086	800,000	0,027	-0,081
-652,072	63,008	-0,102	0,074
-651,057	588,872	-0,066	0,119
-650,043	-81,968	0,129	0,030
-649,028	-26,832	0,070	-0,029
-648,014	-162,467	-0,060	-0,002
-646,999	-200,000	-0,002	0,123
-645,984	800,000	0,034	0,093
-644,970	743,162	0,038	-0,074
-643,955	800,000	-0,036	-0,089
-642,941	-200,000	0,029	-0,104
-641,926	-200,000	-0,026	-0,108
-640,911	53,639	0,071	-0,049
-639,897	-64,324	0,093	0,027
-638,882	-200,000	-0,015	0,215
-637,868	-18,756	-0,064	0,029
-636,853	800,000	0,019	-0,049
-635,838	-200,000	0,003	0,011
-634,824	800,000	0,034	-0,069
-633,809	-200,000	0,043	-0,156
-632,795	603,911	0,062	0,113
-631,780	-69,209	-0,066	0,018
-630,765	772,161	0,023	-0,045
-629,751	-200,000	-0,035	0,123
-628,736	111,766	0,074	-0,065
-627,722	-47,535	-0,019	-0,007
-626,707	-55,215	0,068	-0,022
-625,692	157,785	0,045	-0,045
-624,678	210,936	0,058	0,066
-623,663	-35,020	-0,043	0,017
-622,649	800,000	-0,043	-0,089
-621,634	-60,178	0,081	0,025
-620,619	-147,062	0,018	-0,001
-619,605	418,854	0,048	-0,074
-618,590	-115,401	0,112	0,015
-617,576	234,265	-0,056	-0,067
-616,561	-93,466	-0,052	-0,010
-615,546	-87,319	-0,060	0,013
-614,532	-200,000	0,010	-0,115
-613,517	-95,154	-0,098	0,019
-612,503	-200,000	0,001	-0,011
-611,488	188,871	-0,062	0,067
-610,474	119,122	0,061	0,054
-609,459	97,046	-0,054	0,044
-608,444	223,599	-0,021	-0,024
-607,430	86,706	0,033	-0,026
-606,415	-21,171	-0,085	-0,038
-605,401	-89,424	-0,045	0,010
-604,386	327,327	0,016	0,022
-603,371	82,725	0,089	-0,070
-602,357	-200,000	-0,011	0,051
-601,342	-200,000	-0,021	-0,109
-600,328	-54,563	0,075	0,024
-599,313	118,747	0,040	-0,036
-598,298	-200,000	0,004	0,191
-597,284	-138,122	-0,024	0,002
-596,269	-200,000	-0,010	0,036
-595,255	-3,577	0,058	0,029
-594,240	119,113	-0,059	0,052
-593,225	53,907	-0,068	-0,047
-592,211	-104,873	0,054	0,009
-591,196	-128,632	-0,094	-0,009
-590,182	-200,000	0,004	0,048
-589,167	-55,785	0,087	-0,028
-588,152	189,831	0,078	-0,085
-587,138	-13,777	-0,008	-0,004
-586,123	-159,986	-0,144	0,006
-585,109	-47,294	-0,073	0,025
-584,094	-200,000	0,014	-0,079
-583,079	-97,793	-0,080	-0,015
-582,065	450,739	-0,052	-0,083
-581,050	246,269	-0,093	0,114
-580,036	548,505	0,026	-0,045
-579,021	30,039	0,082	-0,050
-578,006	-200,000	-0,022	-0,126
-576,992	178,762	-0,111	-0,117
-575,977	-18,864	0,094	-0,042
-574,963	-200,000	-0,040	0,128
-573,948	145,216	-0,070	0,068
-572,934	-66,930	-0,054	0,015
-571,919	-175,325	0,030	-0,001
-570,904	232,509	-0,107	-0,127
-569,890	800,000	0,080	0,212
-568,875	198,225	0,055	0,060
-567,861	800,000	-0,021	-0,051
-566,846	-97,227	0,067	0,013
-565,831	-59,991	-0,033	0,010
-564,817	32,815	0,039	-0,024
-563,802	36,216	0,053	0,034
-562,788	-53,981	-0,029	0,009
-561,773	-42,257	0,054	-0,020
-560,758	-200,000	0,019	-0,126
-559,744	64,412	0,032	0,023
-558,729	145,565	0,067	0,065
-557,715	15,528	-0,061	0,035
-556,700	800,000	-0,051	-0,107
-555,685	800,000	-0,009	-0,024
-554,671	63,452	-0,125	-0,090
-553,656	110,990	0,048	-0,042
-552,642	-200,000	-0,001	0,082
-551,627	-200,000	0,005	-0,070
-550,612	-131,894	-0,039	-0,004
-549,598	259,994	0,063	-0,078
-548,583	-69,871	-0,120	0,033
-547,569	800,000	-0,064	-0,128
-546,554	220,821	-0,065	0,076
-545,539	-200,000	-0,017	0,058
-544,525	-200,000	-0,008	0,154
-543,510	-113,872	-0,138	0,019
-542,496	800,000	-0,061	-0,159
-541,481	800,000	0,060	-0,122
-540,466	54,580	-0,087	-0,061
-539,452	-103,530	0,023	-0,004
-538,437	-200,000	0,017	0,165
-537,423	186,411	-0,137	0,147
-536,408	-44,143	-0,103	0,037
-535,393	-200,000	0,010	0,037
-534,379	201,688	-0,070	-0,077
-533,364	800,000	0,039	-0,115
-532,350	172,192	-0,088	0,091
-531,335	583,351	0,054	-0,096
-530,321	-200,000	0,042	0,241
-529,306	462,417	-0,048	-0,077
-528,291	-200,000	0,003	-0,063
-527,277	800,000	-0,038	-0,091
-526,262	11,637	-0,130	-0,072
-525,248	419,598	0,048	0,074
-524,233	-200,000	-0,060	-0,000
-523,218	-49,023	0,020	-0,007
-522,204	-2,895	-0,160	-0,080
-521,189	-29,481	-0,085	-0,035
-520,175	66,273	-0,070	-0,051
-519,160	529,543	-0,026	-0,045
-518,145	-200,000	-0,005	0,096
-517,131	-200,000	-0,008	-0,068
-516,116	800,000	-0,027	0,080
-515,102	-37,079	0,020	-0,007
-514,087	-200,000	0,004	-0,099
-513,072	-200,000	-0,008	-0,087
-512,058	61,558	0,013	-0,009
-511,043	-200,000	0,020	0,146
-510,029	800,000	0,049	0,145
-509,014	-200,000	-0,012	0,067
-507,999	-200,000	-0,015	0,107
-506,985	61,836	-0,078	-0,056
-505,970	-23,508	0,069	0,030
-504,956	-200,000	-0,001	0,115
-503,941	770,715	0,068	-0,134
-502,926	-200,000	0,025	0,130
-501,912	79,953	-0,131	0,101
-500,897	800,000	-0,039	0,086
-499,883	-200,000	-0,009	0,032
-498,868	-116,628	-0,026	0,003
-497,853	-71,982	0,042	0,011
-496,839	28,506	0,117	0,071
-495,824	98,849	0,081	0,067
-494,810	-91,264	-0,115	0,023
-493,795	294,283	0,062	-0,082
-492,781	60,526	-0,126	0,090
-491,766	5,969	0,101	-0,054
-490,751	-94,497	-0,151	-0,029
-489,737	25,052	0,069	0,041
-488,722	426,551	-0,064	-0,099
-487,708	-81,621	-0,058	0,014
-486,693	207,176	0,047	0,052
-485,678	61,892	-0,118	0,085
-484,664	273,907	-0,096	0,122
-483,649	-200,000	-0,009	0,063
-482,635	200,694	-0,022	0,024
-481,620	250,810	0,054	-0,066
-480,605	335,738	0,074	-0,103
-479,591	-200,000	-0,021	0,086
-478,576	-200,000	-0,008	-0,064
-477,562	-200,000	0,061	-0,194
-476,547	-98,027	-0,157	-0,029
-475,532	800,000	0,050	0,131
-474,518	800,000	0,073	0,177
-473,503	-28,863	0,108	0,045
-472,489	161,808	-0,095	0,096
-471,474	-73,946	0,134	-0,035
-470,459	800,000	0,037	0,099
-469,445	-51,128	-0,196	-0,066
-468,430	6,484	-0,108	-0,057
-467,416	-200,000	0,024	-0,150
-466,401	138,404	0,014	0,013
-465,386	98,146	-0,125	-0,103
-464,372	-143,468	-0,130	-0,009
-463,357	-92,981	-0,178	-0,035
-462,343	86,786	0,093	-0,074
-461,328	-200,000	0,001	0,016
-460,313	284,977	-0,058	0,075
-459,299	-45,404	-0,037	0,013
-458,284	-200,000	-0,041	0,154
-457,270	-71,575	-0,091	0,024
-456,255	191,071	0,080	-0,087
-455,241	-149,991	-0,076	-0,004
-454,226	97,178	-0,122	-0,100
-453,211	-200,000	-0,009	-0,126
-452,197	90,111	0,090	-0,072
-451,182	-200,000	0,028	0,129
-450,168	-4,646	-0,037	-0,018
-449,153	16,767	0,032	-0,018
-448,138	800,000	-0,071	-0,145
-447,124	-83,876	-0,079	0,018
-446,109	-178,791	-0,086	0,001
-445,095	320,254	-0,013	-0,018
-444,080	800,000	0,063	0,128
-443,065	-104,520	0,028	0,005
-442,051	126,844	-0,027	0,024
-441,036	350,905	-0,101	0,144
-440,022	454,810	-0,050	-0,079
-439,007	183,757	-0,034	0,036
-437,992	800,000	0,036	-0,089
-436,978	-200,000	0,014	-0,049
-435,963	-200,000	-0,027	-0,118
-434,949	-200,000	0,006	-0,032
-433,934	-195,866	-0,102	0,001
-432,919	800,000	0,042	0,102
-431,905	20,908	0,048	-0,028
-430,890	-123,905	0,064	-0,007
-429,876	-8,980	0,051	0,025
-428,861	-164,903	0,050	-0,002
-427,846	-29,221	-0,099	0,041
-426,832	800,000	0,058	0,182
-425,817	-115,652	0,104	-0,014
-424,803	328,287	-0,079	0,108
-423,788	-44,086	0,051	0,018
-422,773	800,000	0,071	0,168
-421,759	92,207	0,125	-0,101
-420,744	-130,727	0,120	-0,011
-419,730	-105,670	-0,042	-0,007
-418,715	107,023	0,032	-0,027
-417,701	164,097	-0,140	-0,141
-416,686	800,000	0,050	-0,123
-415,671	24,257	0,094	0,056
-414,657	632,695	0,078	-0,142
-413,642	-36,264	-0,020	-0,008
-412,628	-26,273	0,191	-0,080
-411,613	732,680	-0,028	0,055
-410,598	33,035	-0,090	-0,056
-409,584	-32,880	0,058	0,023
-408,569	800,000	0,039	-0,120
-407,555	565,090	-0,039	-0,068
-406,540	-200,000	-0,021	0,092
-405,525	529,789	0,045	-0,076
-404,511	-105,761	0,075	-0,012
-403,496	800,000	-0,032	-0,066
-402,482	16,145	0,142	-0,080
-401,467	-200,000	-0,004	-0,044
-400,452	795,279	0,037	0,073
-399,438	-200,000	-0,014	0,154
-398,423	800,000	0,037	0,091
-397,409	-105,808	-0,102	0,016
-396,394	130,278	-0,060	-0,055
-395,379	115,146	-0,112	-0,098
-394,365	-200,000	0,013	0,043
-393,350	-135,466	-0,116	-0,010
-392,336	800,000	-0,006	0,019
-391,321	1,828	0,136	0,070
-390,306	-96,371	-0,085	0,016
-389,292	-200,000	0,002	0,051
-388,277	-148,077	0,088	-0,005
-387,263	219,882	0,028	0,032
-386,248	-200,000	0,003	-0,050
-385,233	800,000	0,031	0,064
-384,219	-137,916	-0,008	-0,001
-383,204	336,964	0,052	0,072
-382,190	-137,309	0,057	-0,005
-381,175	-8,771	0,103	0,049
-380,160	95,290	0,019	-0,015
-379,146	-24,818	-0,002	0,001
-378,131	-200,000	0,036	-0,121
-377,117	-200,000	-0,020	0,074
-376,102	-109,792	-0,183	-0,027
-375,088	-200,000	0,022	-0,091
-374,073	-200,000	0,001	0,086
-373,058	800,000	0,017	0,034
-372,044	224,856	0,114	-0,133
-371,029	800,000	-0,011	-0,032
-370,015	122,410	-0,074	-0,066
-369,000	-200,000	0,003	-0,092
-367,985	-200,000	-0,010	0,058
-366,971	-61,850	0,114	-0,034
-365,956	-120,701	0,102	-0,012
-364,942	-128,388	-0,142	-0,014
-363,927	-200,000	-0,008	-0,053
-362,912	-57,189	0,081	0,025
-361,898	-200,000	-0,016	-0,086
-360,883	-12,899	-0,099	-0,046
-359,869	220,624	-0,071	-0,081
-358,854	-135,037	0,123	0,010
-357,839	800,000	0,015	0,032
-356,825	-27,420	0,025	-0,010
-355,810	327,694	-0,024	0,033
-354,796	800,000	-0,028	0,074
-353,781	-159,314	0,210	-0,008
-352,766	259,899	-0,047	-0,058
-351,752	800,000	-0,017	-0,048
-350,737	72,269	0,070	0,052
-349,723	-200,000	-0,004	0,128
-348,708	-200,000	0,025	0,118
-347,693	-200,000	0,043	-0,160
-346,679	652,941	-0,052	0,097
-345,664	-84,970	-0,072	-0,016
-344,650	752,462	-0,051	0,098
-343,635	165,441	0,086	0,087
-342,620	700,673	0,078	0,148
-341,606	59,383	-0,075	-0,053
-340,591	-200,000	-0,013	-0,181
-339,577	169,428	0,065	0,066
-338,562	788,639	-0,028	0,056
-337,548	69,996	0,094	0,069
-336,533	326,392	0,070	-0,096
-335,518	800,000	0,033	0,096
-334,504	800,000	-0,017	-0,033
-333,489	506,718	0,008	0,014
-332,475	-200,000	0,019	-0,087
-331,460	266,838	0,044	-0,055
-330,445	54,077	-0,056	-0,038
-329,431	-49,301	0,061	-0,021
-328,416	-200,000	-0,023	0,175
-327,402	800,000	-0,014	-0,029
-326,387	-18,317	0,133	-0,059
-325,372	-4,880	-0,108	0,053
-324,358	-11,240	-0,051	-0,024
-323,343	-200,000	0,030	-0,097
-322,329	-200,000	0,016	-0,061
-321,314	-143,374	0,158	-0,011
-320,299	30,455	0,100	-0,061
-319,285	800,000	0,022	0,060
-318,270	800,000	0,017	0,040
-317,256	800,000	-0,061	0,153
-316,241	-200,000	-0,004	-0,110
-315,226	-26,115	0,146	0,061
-314,212	-200,000	-0,003	0,035
-313,197	164,350	0,106	-0,107
-312,183	-73,150	0,033	0,008
-311,168	467,743	-0,026	-0,042
-310,153	-200,000	0,014	-0,153
-309,139	-19,787	-0,083	-0,036
-308,124	175,935	0,091	0,094
-307,110	800,000	-0,031	0,096
-306,095	800,000	0,052	0,135
-305,080	-200,000	0,016	0,166
-304,066	-200,000	-0,011	0,074
-303,051	800,000	0,041	-0,102
-302,037	-166,043	-0,103	-0,003
-301,022	-200,000	-0,004	0,052
-300,008	-89,369	0,205	0,043
-298,993	602,176	0,017	-0,030
-297,978	156,261	-0,138	0,136
-296,964	-200,000	0,109	-0,000
-295,949	-200,000	0,039	0,132
-294,935	357,537	0,057	-0,081
-293,920	378,344	-0,060	-0,088
-292,905	511,051	-0,012	0,019
-291,891	125,603	0,047	0,042
-290,876	7,722	-0,053	-0,028
-289,862	316,645	-0,005	0,007
-288,847	-200,000	-0,096	-0,000
-287,832	426,366	0,029	0,045
-286,818	-145,475	-0,085	0,005
-285,803	800,000	-0,045	0,107
-284,789	-140,022	0,075	-0,006
-283,774	386,679	-0,041	-0,061
-282,759	41,067	-0,022	0,014
-281,745	-200,000	-0,029	-0,113
-280,730	83,441	0,090	-0,070
-279,716	-194,366	-0,168	0,001
-278,701	-44,187	-0,062	0,022
-277,686	106,845	-0,019	0,016
-276,672	-6,325	-0,158	0,077
-275,657	396,175	-0,041	-0,061
-274,643	-23,725	0,027	-0,012
-273,628	-200,000	0,012	0,091
-272,613	-67,341	0,070	-0,019
-271,599	-53,762	0,139	-0,045
-270,584	275,005	0,025	0,032
-269,570	320,109	0,100	0,136
-268,555	-65,142	-0,028	-0,008
-267,540	-92,616	-0,098	0,020
-266,526	-200,000	0,008	-0,114
-265,511	-6,672	0,068	-0,033
-264,497	-92,091	0,151	0,030
-263,482	-86,644	0,098	0,021
-262,467	800,000	0,021	0,054
-261,453	438,879	0,028	0,044
-260,438	63,609	-0,039	0,028
-259,424	-200,000	0,038	-0,125
-258,409	291,011	0,130	-0,169
-257,395	-200,000	-0,021	-0,076
-256,380	-200,000	0,008	0,074
-255,365	800,000	0,019	-0,057
-254,351	634,320	-0,016	0,029
-253,336	-33,282	0,066	0,026
-252,322	72,744	0,059	-0,044
-251,307	-188,239	0,106	0,001
-250,292	79,104	-0,078	-0,060
-249,278	93,014	-0,054	-0,044
-248,263	-97,074	-0,096	-0,018
-247,249	242,436	-0,067	-0,080
-246,234	-61,876	0,192	-0,057
-245,219	-200,000	-0,014	-0,122
-244,205	-116,068	-0,058	0,008
-243,190	-200,000	-0,001	0,006
-242,176	75,765	0,116	0,087
-241,161	729,325	-0,047	0,090
-240,146	154,989	-0,055	0,054
-239,132	800,000	-0,033	0,076
-238,117	-200,000	-0,011	-0,062
-237,103	-200,000	0,001	-0,104
-236,088	-200,000	-0,000	0,121
-235,073	-142,753	0,057	-0,004
-234,059	-157,701	0,045	0,002
-233,044	-200,000	0,006	0,170
-232,030	180,238	-0,122	0,128
-231,015	-31,100	-0,067	0,027
-230,000	226,802	-0,082	0,095
-228,986	485,644	0,039	-0,064
-227,971	197,153	0,086	0,093
-226,957	-27,219	0,053	-0,022
-225,942	24,368	-0,057	-0,034
-224,927	518,173	-0,045	0,075
-223,913	155,695	-0,042	-0,041
-222,898	-200,000	0,115	0,000
-221,884	-130,098	-0,042	0,004
-220,869	-141,957	0,078	0,005
-219,855	-200,000	0,012	0,090
-218,840	54,774	-0,113	0,077
-217,825	10,502	0,047	-0,026
-216,811	800,000	0,021	0,055
-215,796	-3,912	0,082	-0,040
-214,782	-200,000	0,024	-0,081
-213,767	-200,000	0,015	-0,112
-212,752	112,501	0,071	-0,061
-211,738	-200,000	0,026	0,097
-210,723	144,241	-0,088	0,083
-209,709	6,879	-0,066	0,035
-208,694	-16,054	-0,068	-0,030
-207,679	-149,005	-0,185	-0,010
-206,665	-200,000	0,028	0,112
-205,650	-145,537	0,116	0,007
-204,636	-200,000	-0,005	0,087
-203,621	-200,000	0,009	-0,072
-202,606	-200,000	-0,019	-0,075
-201,592	208,574	-0,083	-0,092
-200,577	800,000	0,019	0,045
-199,563	800,000	-0,043	0,089
-198,548	67,484	0,068	0,049
-197,533	-200,000	0,039	0,158
-196,519	-146,511	0,115	0,007
-195,504	174,489	0,105	-0,108
-194,490	800,000	-0,048	-0,121
-193,475	291,945	-0,022	0,028
-192,460	-200,000	-0,010	-0,056
-191,446	339,786	0,068	0,094
-190,431	-200,000	0,009	0,067
-189,417	-187,318	0,121	0,001
-188,402	111,366	-0,048	-0,041
-187,387	-33,042	0,124	-0,048
-186,373	-103,521	-0,079	-0,013
-185,358	-50,727	-0,092	-0,031
-184,344	-200,000	-0,002	-0,064
-183,329	210,625	-0,045	0,051
-182,315	-75,483	-0,140	0,035
-181,300	-200,000	-0,013	-0,075
-180,285	40,793	-0,055	-0,035
-179,271	78,618	0,056	-0,043
-178,256	109,205	-0,107	-0,091
-177,242	81,319	-0,056	0,043
-176,227	-200,000	0,015	-0,078
-175,212	73,721	0,070	0,052
-174,198	-200,000	0,007	0,024
-173,183	402,494	-0,061	0,091
-172,169	-124,770	-0,022	-0,002
-171,154	538,958	-0,049	-0,083
-170,139	-173,835	-0,007	-0,000
-169,125	487,441	0,074	0,121
-168,110	-154,605	0,138	-0,006
-167,096	42,043	-0,057	0,037
-166,081	-200,000	-0,009	-0,045
-165,066	-200,000	-0,004	0,014
-164,052	-154,776	-0,043	-0,002
-163,037	-84,767	0,083	-0,018
-162,023	152,264	0,023	-0,022
-161,008	-200,000	0,032	-0,121
-159,993	-90,049	0,029	-0,006
-158,979	-200,000	0,008	-0,180
-157,964	-37,578	-0,067	-0,025
-156,950	-89,508	-0,089	-0,018
-155,935	24,695	0,039	0,023
-154,920	-44,386	0,198	-0,070
-153,906	140,007	0,059	0,055
-152,891	-200,000	-0,000	-0,012
-151,877	-200,000	-0,006	0,047
-150,862	-200,000	-0,004	-0,064
-149,847	800,000	-0,044	-0,128
-148,833	-80,833	-0,115	-0,027
-147,818	-9,965	0,092	-0,043
-146,804	-34,265	-0,141	0,055
-145,789	-102,058	0,092	0,016
-144,775	480,901	0,073	0,117
-143,760	-125,316	-0,087	0,009
-142,745	-200,000	0,007	-0,056
-141,731	-16,217	0,069	-0,031
-140,716	46,923	-0,085	-0,056
-139,702	314,782	-0,004	0,005
-138,687	-191,688	-0,103	-0,001
-137,672	599,740	-0,011	0,020
-136,658	-100,859	-0,050	0,009
-135,643	17,326	0,074	0,041
-134,629	-200,000	-0,008	0,068
-133,614	103,020	0,095	0,079
-132,599	12,855	-0,069	0,038
-131,585	-68,121	-0,100	-0,027
-130,570	90,917	0,048	0,038
-129,556	-200,000	-0,000	-0,078
-128,541	-189,650	-0,198	-0,002
-127,526	502,763	0,063	-0,103
-126,512	800,000	-0,045	0,108
-125,497	-114,651	0,094	0,013
-124,483	-31,195	0,178	0,071
-123,468	-17,703	0,024	0,011
-122,453	15,878	-0,060	0,034
-121,439	-73,614	-0,123	0,031
-120,424	-200,000	-0,005	0,106
-119,410	-38,715	-0,026	0,010
-118,395	-200,000	-0,012	-0,042
-117,380	-0,907	0,061	-0,030
-116,366	-69,511	-0,025	0,007
-115,351	-26,049	0,062	-0,026
-114,337	-200,000	-0,040	-0,132
-113,322	-200,000	-0,013	-0,050
-112,307	69,736	-0,113	-0,082
-111,293	397,948	0,108	0,161
-110,278	-200,000	-0,042	-0,138
-109,264	-1,589	0,154	0,077
-108,249	800,000	-0,024	-0,058
-107,234	-200,000	-0,031	-0,147
-106,220	164,385	-0,056	0,056
-105,205	-200,000	-0,002	0,038
-104,191	-132,966	-0,083	0,007
-103,176	800,000	0,014	0,036
-102,162	-200,000	0,005	0,080
-101,147	763,502	-0,020	0,038
-100,132	-200,000	0,020	-0,183
-99,118	-200,000	-0,032	-0,111
-98,103	-200,000	0,006	0,114
-97,089	46,715	-0,038	0,025
-96,074	800,000	0,046	-0,122
-95,059	365,470	0,083	0,119
-94,045	-86,029	-0,058	0,013
-93,030	800,000	0,043	-0,101
-92,016	287,584	-0,051	-0,065
-91,001	-138,446	0,018	0,001
-89,986	372,153	-0,040	-0,057
-88,972	197,045	0,133	0,143
-87,957	-53,214	-0,112	0,036
-86,943	278,066	0,015	-0,018
-85,928	-61,065	-0,153	-0,045
-84,913	231,971	-0,067	-0,078
-83,899	311,423	-0,067	0,089
-82,884	86,624	0,077	0,060
-81,870	-200,000	0,003	0,120
-80,855	-200,000	0,018	-0,131
-79,840	137,363	0,131	-0,121
-78,826	544,951	0,027	0,047
-77,811	-166,420	-0,117	-0,003
-76,797	172,380	0,086	-0,087
-75,782	46,738	0,063	-0,041
-74,767	-200,000	0,008	0,028
-73,753	737,297	-0,055	0,105
-72,738	-191,116	-0,203	-0,001
-71,724	-66,382	0,161	0,045
-70,709	268,395	0,069	-0,085
-69,694	450,590	0,037	0,058
-68,680	50,707	0,148	0,099
-67,665	26,301	-0,060	0,036
-66,651	318,775	0,078	-0,104
-65,636	800,000	0,023	-0,050
-64,622	-122,670	-0,083	-0,009
-63,607	800,000	0,033	-0,079
-62,592	79,414	0,058	-0,044
-61,578	113,848	-0,046	0,040
-60,563	-95,101	0,092	0,017
-59,549	-32,892	0,211	0,083
-58,534	4,079	-1,727	-0,890
-57,519	438,691	-1,398	-2,162
-56,505	-200,000	-0,449	-4,414
-55,490	298,828	0,802	1,046
-54,476	800,000	5,071	11,262
-53,461	-200,000	19,915	330,710
-52,446	800,000	747,463	2326,457
-51,432	558,964	1655,797	2834,525
-50,417	75,821	1666,089	1242,928
-49,403	20,126	1539,005	874,968
-48,388	14,057	1461,412	801,472
-47,373	18,724	1451,408	818,384
-46,359	16,672	1441,059	802,737
-45,344	12,367	1436,590	779,700
-44,330	12,260	1434,676	778,120
-43,315	12,236	1433,042	777,089
-42,300	12,285	1431,319	776,359
-41,286	12,316	1430,086	775,808
-40,271	12,264	1428,774	774,815
-39,257	12,284	1427,222	774,041
-38,242	12,273	1426,435	773,529
-37,227	12,323	1425,132	773,029
-36,213	12,304	1423,904	772,242
-35,198	12,307	1422,624	771,532
-34,184	12,343	1421,659	771,148
-33,169	12,298	1420,476	770,263
-32,154	12,363	1419,187	769,841
-31,140	12,369	1418,063	769,227
-30,125	12,382	1416,849	768,602
-29,111	12,370	1415,760	767,922
-28,096	12,329	1414,806	767,184
-27,082	12,299	1413,641	766,379
-26,067	12,253	1412,666	765,605
-25,052	12,237	1411,631	764,940
-24,038	12,251	1410,414	764,314
-23,023	12,264	1409,482	763,840
-22,009	12,235	1408,409	763,093
-20,994	12,195	1407,691	762,487
-19,979	12,224	1406,706	762,059
-18,965	12,220	1405,709	761,469
-17,950	12,225	1404,921	761,035
-16,936	12,229	1403,895	760,465
-15,921	12,207	1402,858	759,775
-14,906	12,196	1401,876	759,162
-13,892	12,225	1400,938	758,756
-12,877	12,173	1400,272	758,122
-11,863	12,147	1399,263	757,428
-10,848	12,171	1398,437	757,059
-9,833	12,124	1397,582	756,350
-8,819	12,073	1396,584	755,541
-7,804	12,049	1396,085	755,130
-6,790	12,064	1394,640	754,388
-5,775	12,107	1393,704	754,052
-4,760	12,047	1392,958	753,340
-3,746	12,052	1391,954	752,793
-2,731	12,040	1391,248	752,323
-1,717	12,020	1390,457	751,774
-0,702	12,059	1388,412	750,819
0,313	16,028	1304,124	723,477
1,327	32,225	697,847	424,220
2,342	49,714	121,776	80,874
3,356	2,389	16,620	8,463
4,371	21,359	3,166	1,812
5,386	-45,835	0,720	0,250
6,400	-200,000	0,041	0,537
7,415	-54,015	-0,318	-0,102
8,429	174,883	-0,271	-0,277
9,444	163,762	-0,255	-0,253
10,459	78,145	-0,199	-0,150
11,473	110,632	-0,259	-0,220
12,488	20,826	-0,222	-0,126
13,502	-72,690	-0,278	-0,072
14,517	-48,453	-0,243	-0,082
15,531	6,312	-0,451	-0,235
16,546	-35,251	-0,467	-0,178
17,561	92,699	-0,392	-0,312
18,575	80,769	-0,162	-0,123
19,590	212,621	-0,166	-0,185
20,604	-142,811	-0,212	-0,014
21,619	36,083	-0,500	-0,310
22,634	96,376	-0,459	-0,370
23,648	91,158	-0,399	-0,315
24,663	178,043	-0,298	-0,307
25,677	-14,185	-0,366	-0,165
26,692	154,030	-0,352	-0,341
27,707	-58,889	-0,419	-0,127
28,721	156,417	-0,293	-0,285
29,736	-23,858	-0,401	-0,168
30,750	207,597	-0,388	-0,427
31,765	24,156	-0,349	-0,202
32,780	228,320	-0,306	-0,351
33,794	45,698	-0,381	-0,247
34,809	26,078	-0,400	-0,235
35,823	42,017	-0,360	-0,229
36,838	4,935	-0,387	-0,200
37,853	319,212	-0,233	-0,312
38,867	139,249	-0,257	-0,238
39,882	114,772	-0,250	-0,215
40,896	93,339	-0,366	-0,291
41,911	164,792	-0,370	-0,368
42,926	86,532	-0,350	-0,271
43,940	130,152	-0,378	-0,341
44,955	39,407	-0,343	-0,216
45,969	163,574	-0,313	-0,310
46,984	152,521	-0,377	-0,363
47,999	354,939	-0,196	-0,275
49,013	239,668	-0,288	-0,338
50,028	-3,815	-0,359	-0,174
51,042	102,306	-0,326	-0,267
52,057	325,836	-0,275	-0,372
53,071	4,734	-0,375	-0,193
54,086	149,491	-0,329	-0,313
55,101	108,456	-0,318	-0,266
56,115	-40,866	-0,429	-0,155
57,130	114,534	-0,278	-0,238
58,144	27,789	-0,383	-0,226
59,159	16,261	-0,422	-0,233
60,174	352,918	-0,284	-0,397
61,188	116,717	-0,402	-0,346
62,203	75,404	-0,397	-0,294
63,217	51,537	-0,280	-0,187
64,232	83,593	-0,297	-0,227
65,247	81,560	-0,247	-0,187
66,261	-81,856	-0,301	-0,069
67,276	81,220	-0,324	-0,246
68,290	-60,061	-0,303	-0,090
69,305	104,186	-0,270	-0,223
70,320	146,000	-0,183	-0,172
71,334	51,009	-0,365	-0,242
72,349	109,364	-0,288	-0,242
73,363	-100,503	-0,456	-0,078
74,378	37,552	-0,296	-0,184
75,393	30,247	-0,300	-0,180
76,407	20,550	-0,230	-0,130
77,422	-97,035	-0,209	-0,038
78,436	4,144	-0,326	-0,167
79,451	-53,591	-0,396	-0,126
80,466	-70,322	-0,317	-0,084
81,480	-89,396	-0,439	-0,090
82,495	36,987	-0,395	-0,244
83,509	-58,181	-0,239	-0,072
84,524	-38,579	-0,346	-0,127
85,539	-139,108	-0,220	-0,016
86,553	96,053	-0,293	-0,234
87,568	-9,006	-0,277	-0,130
88,582	30,036	-0,353	-0,210
89,597	247,633	-0,213	-0,253
90,611	-6,379	-0,263	-0,125
91,626	122,513	-0,247	-0,217
92,641	52,115	-0,197	-0,132
93,655	145,145	-0,177	-0,166
94,670	-54,791	-0,266	-0,084
95,684	103,282	-0,235	-0,193
96,699	-60,786	-0,450	-0,133
97,714	-14,818	-0,380	-0,170
98,728	-163,947	-0,285	-0,009
99,743	-19,207	-0,374	-0,162
100,757	-55,063	-0,413	-0,129
101,772	76,690	-0,158	-0,117
102,787	-52,765	-0,295	-0,095
103,801	86,943	-0,229	-0,177
104,816	99,799	-0,316	-0,256
105,830	-26,733	-0,302	-0,123
106,845	4,267	-0,294	-0,150
107,860	-60,481	-0,375	-0,111
108,874	225,949	-0,337	-0,382
109,889	483,429	-0,202	-0,322
110,903	147,790	-0,229	-0,216
111,918	83,323	-0,233	-0,178
112,933	118,961	-0,226	-0,195
113,947	473,718	-0,099	-0,157
114,962	5,146	-0,245	-0,126
115,976	77,816	-0,279	-0,208
116,991	207,442	-0,226	-0,247
118,006	236,798	-0,203	-0,235
119,020	-17,180	-0,300	-0,132
120,035	800,000	-0,067	-0,180
121,049	-12,511	-0,269	-0,122
122,064	-38,613	-0,343	-0,126
123,079	29,083	-0,239	-0,141
124,093	-69,946	-0,286	-0,076
125,108	-146,453	-0,318	-0,019
126,122	203,386	-0,278	-0,301
127,137	12,960	-0,162	-0,087
128,151	-129,503	-0,210	-0,020
129,166	46,992	-0,174	-0,113
130,181	157,128	-0,187	-0,180
131,195	-8,577	-0,284	-0,133
132,210	91,640	-0,285	-0,224
133,224	119,802	-0,278	-0,241
134,239	248,972	-0,133	-0,157
135,254	-66,769	-0,250	-0,069
136,268	108,701	-0,206	-0,172
137,283	40,372	-0,200	-0,125
138,297	-23,373	-0,320	-0,134
139,312	76,351	-0,197	-0,146
140,327	42,115	-0,317	-0,201
141,341	-76,396	-0,252	-0,061
142,356	202,338	-0,120	-0,129
143,370	-57,000	-0,188	-0,058
144,385	117,238	-0,162	-0,139
145,400	-20,585	-0,259	-0,111
146,414	136,068	-0,202	-0,183
147,429	-88,610	-0,259	-0,053
148,443	161,164	-0,225	-0,220
149,458	451,075	-0,132	-0,204
150,473	-166,671	-0,257	-0,007
151,487	14,031	-0,285	-0,154
152,502	-69,293	-0,384	-0,102
153,516	94,116	-0,287	-0,227
154,531	7,755	-0,146	-0,076
155,546	71,087	-0,248	-0,179
156,560	368,059	-0,176	-0,248
157,575	58,330	-0,175	-0,119
158,589	109,212	-0,210	-0,175
159,604	-1,731	-0,083	-0,041
160,619	122,945	-0,199	-0,174
161,633	137,505	-0,258	-0,235
162,648	294,430	-0,237	-0,302
163,662	55,734	-0,252	-0,170
164,677	159,529	-0,159	-0,155
165,692	-155,748	-0,176	0,008
166,706	275,808	-0,147	-0,182
167,721	35,529	-0,214	-0,131
168,735	321,368	-0,190	-0,252
169,750	283,196	-0,217	-0,271
170,764	34,169	-0,183	-0,111
171,779	61,681	-0,172	-0,119
172,794	-35,697	-0,220	-0,083
173,808	-11,624	-0,319	-0,145
174,823	8,511	-0,167	-0,087
175,837	-23,192	-0,241	-0,100
176,852	265,917	-0,208	-0,253
177,867	61,293	-0,207	-0,143
178,881	-9,652	-0,235	-0,108
179,896	452,984	-0,098	-0,152
180,910	-41,467	-0,250	-0,089
181,925	0,481	-0,222	-0,110
182,940	24,454	-0,269	-0,154
183,954	253,724	-0,219	-0,260
184,969	12,792	-0,141	-0,075
185,983	62,844	-0,183	-0,127
186,998	51,277	-0,328	-0,216
188,013	68,303	-0,130	-0,093
189,027	89,912	-0,258	-0,200
190,042	800,000	-0,114	-0,224
191,056	50,067	-0,256	-0,168
192,071	181,289	-0,262	-0,268
193,086	690,441	-0,129	-0,236
194,100	0,446	-0,228	-0,112
195,115	209,343	-0,149	-0,162
196,129	80,438	-0,242	-0,181
197,144	87,841	-0,278	-0,213
198,159	318,176	-0,151	-0,199
199,173	41,495	-0,205	-0,129
200,188	-9,940	-0,284	-0,131
201,202	102,866	-0,106	-0,086
202,217	22,773	-0,192	-0,109
203,232	77,312	-0,303	-0,223
204,246	660,917	-0,174	-0,312
205,261	45,156	-0,182	-0,116
206,275	-200,000	-0,060	-0,229
207,290	38,319	-0,233	-0,144
208,304	-84,948	-0,235	-0,051
209,319	175,281	-0,101	-0,102
210,334	-70,356	-0,214	-0,056
211,348	237,083	-0,143	-0,165
212,363	124,189	-0,132	-0,115
213,377	800,000	-0,089	-0,265
214,392	132,203	-0,176	-0,157
215,407	-6,714	-0,189	0,089
216,421	800,000	-0,091	-0,209
217,436	-92,594	-0,213	-0,041
218,450	166,196	-0,115	-0,113
219,465	-115,787	-0,236	-0,030
220,480	-181,056	-0,244	-0,003
221,494	44,184	-0,214	-0,136
222,509	146,180	-0,121	-0,113
223,523	11,170	-0,273	-0,144
224,538	5,950	-0,187	-0,096
225,553	-200,000	-0,074	-0,289
226,567	-21,061	-0,119	-0,050
227,582	800,000	-0,139	-0,333
228,596	196,733	-0,090	-0,095
229,611	152,103	-0,131	-0,124
230,626	163,770	-0,144	-0,140
231,640	150,494	-0,251	-0,236
232,655	-71,894	-0,263	-0,067
233,669	95,465	-0,291	-0,230
234,684	200,534	-0,194	-0,206
235,699	315,907	-0,158	-0,207
236,713	-22,786	-0,114	-0,047
237,728	-148,386	-0,061	-0,003
238,742	2,064	-0,225	-0,112
239,757	-79,196	-0,220	-0,051
240,772	-54,756	-0,312	-0,097
241,786	-200,000	-0,019	-0,150
242,801	28,537	-0,253	-0,147
243,815	-200,000	-0,040	-0,198
244,830	-128,769	-0,167	-0,016
245,844	386,042	-0,111	-0,159
246,859	26,501	-0,305	-0,176
247,874	58,550	-0,279	-0,189
248,888	-200,000	-0,102	-0,426
249,903	-6,266	-0,170	-0,080
250,917	-128,536	-0,227	-0,022
251,932	800,000	-0,086	-0,179
252,947	42,458	-0,129	-0,081
253,961	169,263	-0,186	-0,183
254,976	194,280	-0,208	-0,218
255,990	69,461	-0,192	-0,136
257,005	-123,347	-0,185	-0,020
258,020	800,000	-0,082	-0,178
259,034	476,878	-0,151	-0,236
260,049	274,196	-0,125	-0,153
261,063	223,562	-0,202	-0,226
262,078	144,457	-0,275	-0,253
263,093	223,615	-0,156	-0,174
264,107	183,754	-0,147	-0,150
265,122	-137,582	-0,170	-0,013
266,136	-108,587	-0,126	-0,019
267,151	208,304	-0,111	-0,120
268,166	84,439	-0,192	-0,145
269,180	150,229	-0,220	-0,206
270,195	285,922	-0,136	-0,170
271,209	-200,000	-0,019	-0,285
272,224	14,107	-0,047	-0,025
273,239	800,000	-0,093	-0,208
274,253	332,096	-0,129	-0,172
275,268	-2,292	-0,179	-0,086
276,282	190,116	-0,189	-0,196
277,297	-200,000	-0,070	-0,285
278,312	107,475	-0,180	-0,147
279,326	-200,000	-0,039	-0,137
280,341	122,052	-0,097	-0,083
281,355	79,948	-0,216	-0,160
282,370	367,690	-0,184	-0,257
283,384	-3,094	-0,307	-0,147
284,399	800,000	-0,080	-0,171
285,414	251,234	-0,157	-0,184
286,428	-10,250	-0,174	0,079
287,443	109,474	-0,172	-0,142
288,457	-73,790	-0,166	0,041
289,472	-50,309	-0,171	0,055
290,487	144,908	-0,206	-0,189
291,501	2,525	-0,234	-0,116
292,516	-66,754	-0,135	-0,037
293,530	-84,502	-0,081	0,017
294,545	-29,466	-0,032	-0,013
295,560	-200,000	-0,011	-0,113
296,574	54,913	-0,123	0,081
297,589	107,035	-0,208	-0,170
298,603	30,578	-0,232	-0,136
299,618	3,895	-0,113	-0,057
300,633	-59,663	-0,134	-0,039
301,647	118,872	-0,121	-0,103
302,662	594,363	0,020	0,035
303,676	-138,165	-0,189	0,014
304,691	-57,994	-0,164	-0,049
305,706	95,593	-0,234	-0,183
306,720	131,210	-0,176	-0,156
307,735	352,674	-0,177	-0,241
308,749	-9,401	-0,124	-0,057
309,764	159,919	-0,108	-0,104
310,779	-46,871	-0,124	-0,042
311,793	-81,917	-0,085	0,019
312,808	588,620	-0,088	-0,150
313,822	-101,640	-0,136	-0,023
314,837	-39,618	-0,225	-0,080
315,852	-200,000	0,017	-0,094
316,866	55,051	-0,169	-0,112
317,881	-68,665	-0,136	0,036
318,895	800,000	-0,099	-0,226
319,910	-77,629	-0,224	-0,053
320,925	800,000	-0,043	-0,087
321,939	-81,925	-0,231	0,051
322,954	-200,000	-0,033	-0,169
323,968	37,202	-0,058	-0,035
324,983	800,000	-0,064	-0,163
325,997	5,239	-0,249	-0,125
327,012	800,000	-0,080	-0,219
328,027	133,241	-0,146	-0,130
329,041	-108,900	-0,245	-0,035
330,056	-200,000	-0,007	-0,154
331,070	800,000	-0,063	-0,174
332,085	-74,290	-0,168	0,041
333,100	-20,318	-0,099	0,042
334,114	62,492	-0,155	-0,106
335,129	-200,000	-0,031	-0,105
336,143	-22,900	-0,197	-0,081
337,158	34,199	-0,205	-0,122
338,173	800,000	-0,028	0,060
339,187	800,000	-0,081	-0,198
340,202	-155,310	-0,154	0,007
341,216	130,321	-0,105	-0,092
342,231	-36,414	-0,194	-0,071
343,246	800,000	-0,109	-0,276
344,260	298,890	-0,116	-0,147
345,275	-200,000	-0,033	-0,133
346,289	-200,000	-0,002	-0,136
347,304	-123,710	-0,160	0,017
348,319	94,125	-0,085	-0,066
349,333	259,167	-0,137	-0,162
350,348	800,000	-0,036	-0,102
351,362	-200,000	-0,035	-0,113
352,377	620,854	-0,068	-0,118
353,392	15,565	-0,068	0,037
354,406	99,373	-0,159	-0,125
355,421	205,356	1313,725	1398,537
356,435	157,887	1474,322	1399,032
