DTS Sentinel unit serial number:	SN410029Multiplexer serial number:	ORYXHardware model number:	OX2-SRSoftware version number:	ORYX F/W v4,00 Oryx Data Collector v3.7.2.0data status	okinstallation	B3 Nyhavnadifferential loss correction	single-endedforward channel	channel 1reverse channel	N/Adate	2023/11/30time	23:27:30forward acquisition time	300,00reverse acquisition time	0,00gamma	499,1914k internal	0,3211k external	0,3211temperature offset calibration	1,0000default loss term (dB/km)	0,3820temperature slope calibration	1,0000multiplexer offset coefficient	1,0000multiplexer slope coefficient	1,0000fibre end	0,00T internal ref (°C)	9,62T ext. ref 1 (°C)	-5,49T ext. ref 2 (°C)	-5,62length (m)	temperature (°C)	Stokes	anti-Stokes-744,400	676,151	-0,161	-0,304
-743,385	-200,000	-0,016	0,384
-742,371	62,650	-0,149	-0,108
-741,356	-200,000	0,059	0,402
-740,342	220,584	-0,133	-0,155
-739,327	-200,000	-0,064	0,222
-738,312	-200,000	-0,109	-0,359
-737,298	-200,000	-0,103	0,386
-736,283	138,966	-0,247	-0,235
-735,269	-200,000	-0,006	0,235
-734,254	88,058	-0,213	-0,171
-733,239	-113,652	-0,300	0,042
-732,225	-200,000	-0,039	-0,151
-731,210	800,000	0,085	0,182
-730,196	8,318	-0,088	-0,048
-729,181	800,000	-0,004	0,013
-728,167	98,478	-0,040	0,033
-727,152	-104,937	0,093	0,015
-726,137	167,590	-0,060	0,062
-725,123	137,023	-0,213	-0,201
-724,108	240,119	-0,144	-0,175
-723,094	-0,878	-0,040	-0,021
-722,079	-101,723	-0,068	-0,012
-721,064	-200,000	-0,012	0,041
-720,050	127,760	0,088	-0,081
-719,035	383,615	0,025	0,038
-718,021	-200,000	0,001	-0,086
-717,006	-200,000	-0,042	-0,150
-715,991	-200,000	-0,019	-0,085
-714,977	-90,517	-0,120	-0,025
-713,962	236,892	-0,068	-0,082
-712,948	381,608	-0,017	0,025
-711,933	-29,356	-0,112	-0,046
-710,918	-64,201	-0,185	-0,054
-709,904	62,902	-0,030	-0,022
-708,889	451,115	-0,086	-0,138
-707,875	-14,334	-0,052	0,024
-706,860	-55,471	0,172	-0,056
-705,845	138,839	-0,055	0,053
-704,831	-140,127	0,093	0,007
-703,816	-29,322	-0,085	-0,035
-702,802	7,247	0,092	-0,049
-701,787	-13,862	-0,106	-0,049
-700,772	310,599	-0,073	0,100
-699,758	-200,000	0,001	-0,005
-698,743	800,000	-0,030	-0,070
-697,729	59,076	0,040	0,028
-696,714	154,335	0,044	0,043
-695,699	-200,000	-0,010	0,110
-694,685	800,000	0,049	-0,112
-693,670	-200,000	0,013	-0,155
-692,656	56,489	0,060	-0,042
-691,641	33,372	-0,029	-0,018
-690,627	-120,720	-0,035	-0,004
-689,612	-0,316	-0,045	-0,023
-688,597	231,924	-0,038	0,045
-687,583	-200,000	-0,012	-0,056
-686,568	171,324	-0,144	0,150
-685,554	800,000	-0,038	-0,093
-684,539	410,721	0,065	-0,100
-683,524	334,082	-0,040	-0,057
-682,510	-200,000	0,006	-0,063
-681,495	-73,805	0,020	-0,005
-680,481	-117,315	-0,120	-0,016
-679,466	457,146	-0,021	-0,034
-678,451	-200,000	0,032	-0,143
-677,437	49,597	-0,051	-0,034
-676,422	800,000	-0,127	0,264
-675,408	102,976	-0,058	0,049
-674,393	-22,929	0,035	-0,015
-673,378	50,103	0,013	0,009
-672,364	-4,838	-0,092	-0,046
-671,349	-200,000	-0,009	-0,062
-670,335	-121,971	0,220	0,026
-669,320	281,485	-0,041	0,053
-668,305	800,000	-0,013	0,036
-667,291	-50,825	-0,085	-0,029
-666,276	-64,142	-0,125	0,037
-665,262	-200,000	0,040	-0,180
-664,247	-68,235	-0,165	-0,046
-663,232	-106,890	-0,006	-0,001
-662,218	146,311	0,020	0,019
-661,203	-181,516	0,058	-0,001
-660,189	107,931	-0,056	-0,048
-659,174	-200,000	0,004	-0,141
-658,159	406,880	-0,077	-0,118
-657,145	15,913	-0,050	-0,028
-656,130	-0,919	-0,117	-0,060
-655,116	284,519	0,028	0,037
-654,101	-8,197	0,021	-0,010
-653,086	13,658	-0,083	0,046
-652,072	441,855	-0,024	-0,038
-651,057	-14,868	-0,075	-0,035
-650,043	800,000	-0,033	-0,071
-649,028	765,810	0,008	0,015
-648,014	-31,288	0,114	-0,046
-646,999	99,417	0,043	0,036
-645,984	698,782	0,008	0,015
-644,970	-67,226	-0,091	-0,026
-643,955	443,926	-0,071	-0,113
-642,941	764,264	-0,049	-0,096
-641,926	138,941	-0,119	-0,113
-640,911	-108,323	-0,060	-0,009
-639,897	105,848	0,045	0,038
-638,882	800,000	-0,033	0,085
-637,868	800,000	-0,038	0,094
-636,853	431,932	-0,060	-0,095
-635,838	-105,951	0,046	-0,007
-634,824	-200,000	0,009	0,142
-633,809	-200,000	-0,019	0,062
-632,795	181,832	-0,022	-0,024
-631,780	800,000	0,006	-0,016
-630,765	182,116	-0,077	0,082
-629,751	79,728	-0,096	0,074
-628,736	-140,792	-0,054	0,004
-627,722	131,124	0,046	-0,043
-626,707	-200,000	0,008	0,083
-625,692	505,706	0,084	0,140
-624,678	-53,744	-0,080	-0,026
-623,663	800,000	0,032	0,070
-622,649	-103,412	-0,159	-0,027
-621,634	-3,572	-0,179	-0,090
-620,619	304,797	-0,080	-0,108
-619,605	141,371	0,086	0,082
-618,590	-111,642	-0,182	0,026
-617,576	-91,842	-0,077	0,016
-616,561	-200,000	-0,022	0,150
-615,546	697,545	-0,023	0,045
-614,532	155,340	-0,133	-0,132
-613,517	-200,000	-0,012	-0,149
-612,503	-200,000	-0,034	-0,140
-611,488	-28,020	0,086	-0,036
-610,474	-21,247	0,088	0,039
-609,459	-200,000	0,023	-0,100
-608,444	612,456	0,094	-0,171
-607,430	-200,000	-0,009	-0,094
-606,415	-59,425	-0,149	0,046
-605,401	108,227	-0,012	-0,010
-604,386	-80,764	-0,117	0,028
-603,371	259,242	-0,061	-0,075
-602,357	-200,000	0,023	0,087
-601,342	-200,000	0,020	0,078
-600,328	-200,000	-0,001	-0,078
-599,313	-84,038	-0,051	-0,012
-598,298	-29,616	-0,025	-0,010
-597,284	-62,260	0,123	-0,037
-596,269	-29,916	0,047	0,019
-595,255	800,000	0,043	0,134
-594,240	-51,500	-0,077	-0,026
-593,225	15,784	-0,132	-0,075
-592,211	-93,022	0,118	-0,023
-591,196	800,000	0,025	0,061
-590,182	-53,234	-0,109	0,036
-589,167	481,098	-0,058	0,095
-588,152	397,290	-0,029	-0,043
-587,138	65,497	-0,060	0,044
-586,123	-105,777	0,040	-0,006
-585,109	-200,000	0,010	0,097
-584,094	-200,000	0,002	0,070
-583,079	203,193	0,065	-0,073
-582,065	21,670	0,101	0,059
-581,050	193,151	-0,053	0,057
-580,036	78,795	-0,098	0,076
-579,021	94,844	-0,074	-0,061
-578,006	-116,636	-0,119	-0,016
-576,992	233,442	-0,081	0,096
-575,977	-150,304	0,147	0,008
-574,963	-200,000	-0,016	0,079
-573,948	800,000	0,034	0,107
-572,934	-162,090	-0,064	-0,002
-571,919	105,149	-0,057	-0,048
-570,904	-200,000	0,020	-0,076
-569,890	214,477	0,032	0,037
-568,875	172,438	0,075	-0,078
-567,861	-200,000	0,020	0,000
-566,846	-200,000	-0,002	0,103
-565,831	22,503	-0,063	0,037
-564,817	189,370	0,049	-0,053
-563,802	275,230	-0,057	-0,072
-562,788	457,329	0,070	-0,112
-561,773	29,873	0,047	0,029
-560,758	-200,000	0,008	-0,031
-559,744	510,176	0,017	-0,029
-558,729	-86,734	0,077	-0,017
-557,715	800,000	0,050	-0,117
-556,700	-82,636	0,071	-0,016
-555,685	-200,000	-0,020	-0,123
-554,671	800,000	-0,037	-0,101
-553,656	5,637	0,058	0,031
-552,642	800,000	-0,019	0,059
-551,627	56,536	-0,089	-0,062
-550,612	-158,636	0,018	0,001
-549,598	-53,218	-0,072	-0,024
-548,583	-200,000	-0,025	-0,125
-547,569	-200,000	-0,032	-0,159
-546,554	92,691	0,113	0,091
-545,539	-79,262	-0,064	0,016
-544,525	-130,990	-0,052	0,005
-543,510	140,313	-0,088	0,083
-542,496	113,766	-0,115	-0,100
-541,481	-127,059	-0,039	-0,004
-540,466	2,047	0,047	0,024
-539,452	22,659	-0,047	0,027
-538,437	214,473	-0,060	-0,068
-537,423	800,000	0,022	-0,044
-536,408	800,000	-0,050	-0,116
-535,393	178,694	-0,011	-0,011
-534,379	185,675	-0,061	-0,065
-533,364	-200,000	-0,002	-0,079
-532,350	12,093	0,055	0,030
-531,335	-158,365	0,099	-0,004
-530,321	34,250	-0,019	0,012
-529,306	-200,000	-0,008	0,041
-528,291	214,119	0,069	-0,079
-527,277	800,000	0,030	-0,080
-526,262	54,940	-0,085	-0,059
-525,248	8,159	0,140	-0,075
-524,233	37,880	0,145	0,093
-523,218	263,276	-0,063	0,079
-522,204	-57,092	0,086	-0,027
-521,189	800,000	0,047	-0,140
-520,175	273,269	0,033	-0,042
-519,160	378,229	0,077	0,114
-518,145	800,000	0,035	0,075
-517,131	616,223	0,038	0,069
-516,116	-200,000	0,001	-0,039
-515,102	73,742	-0,036	0,027
-514,087	165,655	-0,121	-0,124
-513,072	-200,000	-0,036	-0,125
-512,058	788,152	-0,010	0,020
-511,043	-111,868	0,104	0,015
-510,029	-200,000	0,031	0,098
-509,014	800,000	-0,044	-0,092
-507,999	-200,000	0,004	0,079
-506,985	-8,450	-0,052	0,025
-505,970	176,127	0,068	-0,071
-504,956	-200,000	-0,015	-0,153
-503,941	-128,916	-0,105	0,010
-502,926	-152,152	0,045	0,002
-501,912	-200,000	0,023	0,120
-500,897	-200,000	0,045	0,171
-499,883	-54,467	-0,097	-0,031
-498,868	-200,000	-0,017	0,060
-497,853	602,092	-0,074	-0,133
-496,839	-164,819	0,101	0,003
-495,824	-148,360	-0,147	-0,009
-494,810	-74,212	-0,177	-0,046
-493,795	800,000	-0,020	0,061
-492,781	-200,000	-0,004	-0,031
-491,766	10,443	-0,073	-0,040
-490,751	-200,000	-0,003	-0,093
-489,737	-171,600	-0,066	-0,002
-488,722	235,670	0,009	0,010
-487,708	248,205	-0,049	0,059
-486,693	-68,123	0,062	-0,017
-485,678	-87,613	-0,031	0,007
-484,664	26,408	0,034	-0,020
-483,649	-143,158	-0,095	-0,006
-482,635	496,425	-0,017	0,028
-481,620	-27,399	-0,057	-0,024
-480,605	115,869	0,010	0,009
-479,591	-178,783	0,008	-0,000
-478,576	49,300	0,126	-0,085
-477,562	355,514	-0,091	-0,130
-476,547	112,212	-0,098	-0,085
-475,532	-84,022	0,212	-0,048
-474,518	303,016	-0,013	0,017
-473,503	15,551	0,061	0,034
-472,489	235,652	-0,089	0,105
-471,474	-9,933	0,085	0,040
-470,459	-10,697	0,139	-0,066
-469,445	220,400	0,023	-0,027
-468,430	210,495	0,016	0,018
-467,416	743,042	-0,012	0,022
-466,401	14,806	-0,109	0,061
-465,386	-200,000	0,003	0,133
-464,372	-148,139	0,152	-0,009
-463,357	148,368	0,026	0,025
-462,343	97,797	0,024	-0,020
-461,328	-200,000	0,002	0,035
-460,313	500,551	0,014	-0,024
-459,299	-200,000	0,017	0,178
-458,284	-200,000	-0,002	-0,007
-457,270	125,018	0,074	0,067
-456,255	-95,562	0,113	0,021
-455,241	-200,000	0,002	0,006
-454,226	36,068	-0,108	-0,068
-453,211	-33,013	0,042	-0,017
-452,197	112,122	0,108	0,093
-451,182	-121,299	-0,037	0,004
-450,168	-110,826	0,178	0,026
-449,153	-200,000	-0,008	0,185
-448,138	732,447	-0,040	0,076
-447,124	45,571	-0,068	0,045
-446,109	800,000	-0,037	0,076
-445,095	79,456	0,009	0,007
-444,080	446,516	0,011	-0,018
-443,065	-97,070	-0,032	0,006
-442,051	-200,000	0,006	0,107
-441,036	-200,000	0,025	-0,097
-440,022	-149,145	-0,076	0,004
-439,007	-141,050	-0,135	-0,010
-437,992	97,109	0,068	0,056
-436,978	413,302	0,074	-0,113
-435,963	-156,379	0,124	0,005
-434,949	-200,000	0,017	0,079
-433,934	387,740	-0,089	0,132
-432,919	-200,000	0,001	-0,030
-431,905	-2,974	0,093	0,046
-430,890	278,682	-0,010	0,012
-429,876	-44,677	0,113	-0,040
-428,861	522,658	0,093	0,157
-427,846	452,258	-0,008	-0,013
-426,832	-200,000	-0,006	0,057
-425,817	-33,092	-0,076	0,030
-424,803	201,578	-0,026	0,029
-423,788	167,041	0,036	0,037
-422,773	11,170	-0,037	0,020
-421,759	368,248	-0,027	-0,039
-420,744	655,869	-0,010	0,019
-419,730	-200,000	0,018	-0,082
-418,715	-200,000	-0,033	-0,158
-417,701	693,292	0,073	-0,137
-416,686	509,609	-0,027	0,045
-415,671	-74,616	-0,162	-0,041
-414,657	-68,615	0,086	-0,024
-413,642	220,731	-0,029	-0,033
-412,628	-200,000	0,025	-0,099
-411,613	2,512	0,097	-0,050
-410,598	-200,000	-0,009	0,083
-409,584	-86,659	-0,031	-0,007
-408,569	47,005	0,133	0,089
-407,555	211,780	0,069	-0,077
-406,540	-156,371	-0,010	-0,000
-405,525	17,368	0,059	0,034
-404,511	209,575	0,026	0,029
-403,496	-200,000	-0,004	0,070
-402,482	69,245	-0,118	-0,087
-401,467	686,404	0,053	0,099
-400,452	101,604	-0,021	0,018
-399,438	-200,000	-0,018	0,117
-398,423	800,000	0,039	-0,085
-397,409	-200,000	-0,003	-0,049
-396,394	-44,634	0,152	-0,054
-395,379	800,000	-0,042	0,108
-394,365	146,207	0,060	-0,058
-393,350	114,989	0,157	0,137
-392,336	314,380	-0,026	-0,036
-391,321	-162,649	-0,058	0,002
-390,306	-200,000	0,007	-0,091
-389,292	76,310	-0,053	0,040
-388,277	99,052	-0,080	0,066
-387,263	-200,000	0,018	0,060
-386,248	-200,000	-0,000	0,053
-385,233	800,000	0,026	0,072
-384,219	66,743	0,036	-0,026
-383,204	-200,000	0,022	0,084
-382,190	-200,000	-0,022	-0,092
-381,175	-200,000	0,032	-0,107
-380,160	117,092	0,066	0,058
-379,146	-177,049	0,059	0,001
-378,131	55,611	0,118	0,082
-377,117	-200,000	-0,005	0,046
-376,102	-43,637	-0,088	-0,032
-375,088	168,412	-0,069	-0,071
-374,073	-67,131	0,068	0,019
-373,058	96,864	-0,073	-0,059
-372,044	25,778	0,132	0,078
-371,029	800,000	-0,017	-0,049
-370,015	231,469	0,064	0,075
-369,000	-64,707	-0,098	-0,028
-367,985	-200,000	-0,042	-0,217
-366,971	-200,000	-0,020	-0,138
-365,956	101,721	0,102	0,085
-364,942	126,582	0,089	0,080
-363,927	82,590	-0,065	-0,051
-362,912	-17,664	-0,041	-0,018
-361,898	800,000	-0,047	0,118
-360,883	524,684	0,007	-0,011
-359,869	128,833	0,095	-0,086
-358,854	271,131	-0,063	-0,080
-357,839	67,413	0,072	0,052
-356,825	-200,000	-0,009	0,070
-355,810	-200,000	-0,024	0,111
-354,796	-200,000	-0,008	-0,027
-353,781	49,869	0,018	-0,012
-352,766	-200,000	-0,003	-0,162
-351,752	57,689	0,118	-0,083
-350,737	-51,547	0,115	0,038
-349,723	5,640	-0,076	-0,040
-348,708	-200,000	-0,012	-0,103
-347,693	800,000	0,014	-0,033
-346,679	-200,000	-0,006	0,019
-345,664	-200,000	-0,030	-0,117
-344,650	-10,875	0,075	-0,035
-343,635	-111,821	0,037	0,005
-342,620	-200,000	0,002	-0,048
-341,606	-70,485	0,128	0,034
-340,591	219,675	-0,006	0,007
-339,577	652,989	0,009	0,017
-338,562	-101,223	-0,077	0,013
-337,548	-200,000	-0,023	0,095
-336,533	381,609	0,101	0,149
-335,518	176,732	0,068	0,071
-334,504	-200,000	-0,033	-0,143
-333,489	352,445	0,075	-0,107
-332,475	-159,980	0,047	0,002
-331,460	-96,943	-0,080	-0,015
-330,445	-200,000	0,016	0,079
-329,431	45,089	0,062	0,041
-328,416	54,042	-0,080	-0,055
-327,402	-57,552	-0,160	-0,050
-326,387	120,500	-0,069	0,061
-325,372	-200,000	-0,024	0,085
-324,358	279,429	-0,100	0,127
-323,343	-200,000	-0,003	-0,132
-322,329	197,629	-0,073	-0,079
-321,314	800,000	0,019	0,043
-320,299	-115,529	-0,096	-0,013
-319,285	-98,930	0,068	0,012
-318,270	30,787	0,067	-0,041
-317,256	-200,000	-0,030	0,108
-316,241	800,000	-0,041	0,101
-315,226	-91,698	0,064	0,013
-314,212	-200,000	-0,023	0,099
-313,197	-62,459	0,030	-0,009
-312,183	311,215	-0,036	0,049
-311,168	800,000	-0,019	-0,047
-310,153	367,151	-0,099	-0,143
-309,139	50,980	-0,085	0,058
-308,124	17,864	0,077	-0,043
-307,110	-200,000	0,047	0,157
-306,095	579,279	0,020	-0,035
-305,080	-32,420	-0,091	0,036
-304,066	193,117	-0,068	0,073
-303,051	117,887	-0,031	-0,027
-302,037	-71,630	0,070	-0,019
-301,022	800,000	-0,039	-0,080
-300,008	-200,000	0,006	0,070
-298,993	-58,240	-0,131	0,040
-297,978	-200,000	-0,038	0,171
-296,964	-200,000	0,021	0,138
-295,949	163,033	0,053	0,053
-294,935	-40,067	-0,101	0,037
-293,920	-111,985	0,092	-0,013
-292,905	245,011	0,106	0,127
-291,891	672,267	0,012	0,022
-290,876	183,497	0,169	0,178
-289,862	-200,000	-0,007	-0,080
-288,847	134,096	0,088	0,081
-287,832	215,929	-0,086	-0,097
-286,818	125,720	0,168	-0,151
-285,803	-48,895	0,027	-0,009
-284,789	-66,649	-0,067	0,019
-283,774	-200,000	-0,024	-0,094
-282,759	-161,540	0,024	-0,001
-281,745	102,172	0,054	0,045
-280,730	165,504	-0,077	-0,077
-279,716	-134,877	-0,134	0,011
-278,701	251,137	-0,094	-0,114
-277,686	-59,645	0,143	0,043
-276,672	800,000	-0,041	0,090
-275,657	105,599	0,078	-0,065
-274,643	230,171	-0,112	-0,130
-273,628	189,366	-0,032	0,034
-272,613	212,763	-0,113	-0,128
-271,599	377,365	0,053	0,077
-270,584	-189,741	0,053	0,000
-269,570	800,000	0,030	0,066
-268,555	-9,429	-0,029	-0,014
-267,540	-200,000	-0,010	0,066
-266,526	800,000	0,052	-0,109
-265,511	122,680	0,043	0,039
-264,497	-62,658	-0,066	-0,019
-263,482	-58,444	0,094	-0,029
-262,467	-19,467	0,124	-0,055
-261,453	800,000	0,015	-0,036
-260,438	-44,541	0,107	-0,038
-259,424	-200,000	-0,012	0,077
-258,409	238,904	-0,026	-0,031
-257,395	127,541	0,135	0,122
-256,380	-50,600	0,079	-0,026
-255,365	197,243	0,033	0,036
-254,351	-60,594	-0,066	-0,020
-253,336	532,097	0,041	0,069
-252,322	-25,177	-0,094	0,039
-251,307	250,955	-0,122	-0,148
-250,292	293,584	0,056	-0,073
-249,278	29,146	-0,169	0,102
-248,263	-200,000	0,040	0,149
-247,249	-92,105	0,195	-0,039
-246,234	42,193	-0,170	-0,110
-245,219	-200,000	-0,006	-0,138
-244,205	-200,000	0,031	-0,169
-243,190	-50,297	-0,082	-0,027
-242,176	-27,794	0,047	0,019
-241,161	-200,000	0,010	0,066
-240,146	233,300	0,121	0,141
-239,132	-200,000	0,005	0,036
-238,117	-158,245	0,075	-0,003
-237,103	-200,000	-0,012	0,096
-236,088	-200,000	-0,013	-0,044
-235,073	94,949	0,052	0,042
-234,059	31,456	0,070	-0,043
-233,044	-200,000	0,010	0,097
-232,030	-200,000	-0,026	0,156
-231,015	69,268	0,043	0,031
-230,000	-185,789	-0,061	0,001
-228,986	79,563	0,043	0,033
-227,971	-200,000	0,001	-0,067
-226,957	-156,300	-0,124	-0,005
-225,942	-154,159	0,027	0,001
-224,927	2,867	0,017	0,009
-223,913	-48,052	-0,064	-0,022
-222,898	290,114	0,015	0,020
-221,884	45,315	-0,069	0,045
-220,869	275,718	0,047	-0,059
-219,855	800,000	0,040	0,084
-218,840	-200,000	-0,007	0,044
-217,825	800,000	0,018	0,039
-216,811	541,749	0,076	-0,129
-215,796	-60,222	-0,209	-0,063
-214,782	420,921	0,056	0,086
-213,767	80,466	0,058	0,044
-212,752	154,900	0,085	0,083
-211,738	-73,143	0,090	0,023
-210,723	-200,000	0,013	-0,197
-209,709	185,363	-0,051	-0,054
-208,694	210,023	-0,013	0,015
-207,679	133,796	-0,120	0,111
-206,665	430,333	0,074	-0,115
-205,650	480,441	-0,022	0,035
-204,636	800,000	-0,016	0,041
-203,621	456,600	0,012	-0,019
-202,606	-9,397	-0,053	-0,025
-201,592	-122,143	-0,039	-0,004
-200,577	-46,397	-0,027	-0,009
-199,563	125,813	0,024	-0,022
-198,548	-200,000	0,047	0,158
-197,533	-200,000	-0,029	0,115
-196,519	-200,000	0,021	-0,088
-195,504	269,900	-0,036	-0,045
-194,490	312,531	-0,052	-0,070
-193,475	31,966	0,060	0,037
-192,460	-138,323	0,072	-0,006
-191,446	-125,080	0,055	-0,006
-190,431	168,213	-0,099	-0,100
-189,417	-200,000	-0,008	0,070
-188,402	446,704	-0,031	0,049
-187,387	800,000	0,042	-0,093
-186,373	288,764	-0,064	-0,083
-185,358	155,049	0,034	0,033
-184,344	-200,000	0,011	-0,085
-183,329	-200,000	0,036	0,155
-182,315	83,003	0,110	0,085
-181,300	-200,000	-0,026	0,136
-180,285	-93,319	-0,097	-0,019
-179,271	262,162	-0,073	0,090
-178,256	-100,050	-0,086	-0,015
-177,242	68,361	0,110	0,080
-176,227	-91,009	0,142	-0,029
-175,212	-54,900	-0,134	0,043
-174,198	84,219	0,056	0,043
-173,183	-67,683	0,061	0,017
-172,169	132,458	0,060	-0,055
-171,154	-23,695	-0,056	-0,024
-170,139	253,911	-0,063	-0,077
-169,125	379,071	0,062	-0,091
-168,110	800,000	0,024	0,049
-167,096	24,130	0,114	-0,067
-166,081	-25,025	0,017	-0,007
-165,066	312,928	-0,107	-0,143
-164,052	-200,000	0,022	-0,075
-163,037	-5,870	-0,087	-0,042
-162,023	21,520	0,221	0,127
-161,008	-200,000	0,000	0,037
-159,993	-34,692	0,019	0,007
-158,979	-200,000	0,037	-0,217
-157,964	800,000	-0,074	-0,195
-156,950	-91,469	-0,037	-0,007
-155,935	184,629	-0,030	0,031
-154,920	-200,000	0,001	-0,163
-153,906	800,000	-0,076	0,171
-152,891	-103,426	-0,086	-0,014
-151,877	-109,681	0,073	-0,011
-150,862	-18,678	-0,053	-0,023
-149,847	739,839	0,034	-0,065
-148,833	-112,754	-0,095	0,013
-147,818	-126,591	0,120	0,012
-146,804	353,698	0,026	0,037
-145,789	673,588	-0,038	-0,070
-144,775	128,873	-0,098	0,089
-143,760	216,948	0,072	-0,081
-142,745	800,000	-0,004	0,010
-141,731	800,000	-0,055	0,141
-140,716	-105,614	0,129	-0,020
-139,702	-167,857	0,105	-0,003
-138,687	-200,000	0,020	0,151
-137,672	-141,083	-0,067	0,005
-136,658	-200,000	0,003	-0,071
-135,643	-147,176	-0,135	0,008
-134,629	87,634	0,060	-0,047
-133,614	-38,201	-0,075	0,028
-132,599	-200,000	-0,031	0,185
-131,585	-64,685	0,014	0,004
-130,570	652,336	-0,016	-0,029
-129,556	338,725	0,027	-0,037
-128,541	-70,130	-0,183	0,049
-127,526	-119,440	0,035	-0,004
-126,512	193,288	0,060	0,064
-125,497	92,074	-0,099	0,079
-124,483	53,518	0,106	0,072
-123,468	-200,000	-0,038	0,136
-122,453	702,610	0,066	0,124
-121,439	256,446	-0,080	-0,097
-120,424	-200,000	-0,008	-0,085
-119,410	800,000	0,016	0,045
-118,395	38,173	0,156	-0,098
-117,380	-200,000	-0,010	-0,051
-116,366	-55,981	-0,019	-0,006
-115,351	269,629	0,057	-0,071
-114,337	97,140	0,077	-0,063
-113,322	219,374	0,050	-0,057
-112,307	-132,697	-0,101	0,009
-111,293	-200,000	0,002	0,076
-110,278	-106,029	-0,135	0,021
-109,264	-13,144	-0,072	0,033
-108,249	-73,330	0,080	0,021
-107,234	-200,000	0,019	0,081
-106,220	-106,906	-0,027	0,004
-105,205	800,000	0,015	0,037
-104,191	-200,000	-0,002	-0,105
-103,176	58,395	0,101	0,070
-102,162	-31,376	0,137	-0,054
-101,147	-200,000	-0,008	-0,033
-100,132	-200,000	0,004	-0,021
-99,118	-72,879	-0,051	-0,013
-98,103	-200,000	-0,004	-0,024
-97,089	-49,349	-0,034	-0,011
-96,074	-110,937	0,104	-0,015
-95,059	800,000	-0,024	-0,068
-94,045	172,303	-0,020	-0,021
-93,030	109,640	-0,039	-0,033
-92,016	-2,314	0,069	0,034
-91,001	-131,829	0,121	-0,011
-89,986	-135,527	-0,031	0,003
-88,972	90,526	-0,029	0,023
-87,957	-200,000	-0,005	0,028
-86,943	490,386	0,081	0,132
-85,928	-122,285	-0,163	0,019
-84,913	771,981	0,010	-0,019
-83,899	-138,022	0,067	-0,005
-82,884	28,318	-0,125	0,075
-81,870	455,802	0,074	0,116
-80,855	-200,000	0,001	-0,096
-79,840	45,149	-0,039	0,025
-78,826	14,127	-0,050	-0,028
-77,811	16,603	-0,070	-0,039
-76,797	536,332	0,030	0,050
-75,782	778,116	0,038	-0,075
-74,767	197,525	0,127	0,137
-73,753	-200,000	-0,056	0,196
-72,738	-129,976	0,072	-0,007
-71,724	-200,000	0,010	0,053
-70,709	-127,491	0,081	-0,008
-69,694	758,627	0,027	0,052
-68,680	107,655	0,042	-0,035
-67,665	148,851	0,013	0,012
-66,651	-12,964	0,145	0,066
-65,636	-200,000	0,003	0,113
-64,622	145,825	-0,112	0,106
-63,607	-26,878	-0,024	-0,010
-62,592	87,513	-0,084	0,065
-61,578	-200,000	-0,001	-0,017
-60,563	800,000	0,044	0,128
-59,549	232,512	-0,076	0,089
-58,534	17,064	-2,078	-1,160
-57,519	362,805	-1,280	-1,819
-56,505	-200,000	-0,363	-4,511
-55,490	373,514	0,846	1,219
-54,476	800,000	5,384	11,800
-53,461	-200,000	21,889	344,147
-52,446	800,000	763,176	2345,094
-51,432	548,081	1663,946	2823,329
-50,417	71,759	1660,500	1216,950
-49,403	17,439	1533,938	857,684
-48,388	11,402	1457,812	785,914
-47,373	19,440	1449,345	819,897
-46,359	14,991	1438,236	792,427
-45,344	9,772	1434,171	765,303
-44,330	9,715	1432,258	763,981
-43,315	9,669	1430,462	762,771
-42,300	9,666	1429,004	761,950
-41,286	9,730	1427,543	761,444
-40,271	9,682	1426,409	760,585
-39,257	9,661	1425,322	759,872
-38,242	9,716	1424,050	759,427
-37,227	9,693	1423,017	758,736
-36,213	9,703	1421,572	757,984
-35,198	9,726	1420,534	757,507
-34,184	9,744	1419,433	756,977
-33,169	9,665	1418,021	755,822
-32,154	9,684	1417,184	755,433
-31,140	9,681	1416,012	754,764
-30,125	9,720	1414,902	754,325
-29,111	9,709	1413,374	753,429
-28,096	9,697	1412,474	752,865
-27,082	9,644	1411,299	751,959
-26,067	9,667	1410,132	751,415
-25,052	9,659	1409,067	750,783
-24,038	9,683	1408,161	750,383
-23,023	9,699	1407,173	749,899
-22,009	9,623	1406,247	749,023
-20,994	9,608	1405,377	748,458
-19,979	9,625	1404,401	747,989
-18,965	9,621	1403,465	747,441
-17,950	9,610	1402,371	746,778
-16,936	9,605	1401,748	746,392
-15,921	9,503	1400,717	745,339
-14,906	9,582	1399,630	745,097
-13,892	9,575	1398,682	744,533
-12,877	9,547	1398,077	744,050
-11,863	9,536	1397,253	743,532
-10,848	9,544	1396,437	743,105
-9,833	9,506	1395,325	742,307
-8,819	9,492	1394,375	741,707
-7,804	9,478	1393,540	741,170
-6,790	9,491	1392,449	740,619
-5,775	9,484	1391,626	740,120
-4,760	9,454	1390,492	739,349
-3,746	9,492	1389,483	738,957
-2,731	9,470	1388,801	738,463
-1,717	9,489	1387,844	738,012
-0,702	9,466	1386,142	736,973
0,313	13,378	1298,166	708,114
1,327	29,300	688,381	411,524
2,342	45,137	119,033	77,243
3,356	0,949	16,541	8,335
4,371	1,615	3,511	1,777
5,386	31,964	1,156	0,701
6,400	800,000	0,231	0,560
7,415	230,080	-0,167	-0,193
8,429	222,697	-0,187	-0,212
9,444	72,213	-0,172	-0,126
10,459	25,483	-0,266	-0,156
11,473	180,646	-0,237	-0,246
12,488	78,756	-0,201	-0,151
13,502	160,888	-0,284	-0,280
14,517	-36,360	-0,466	-0,176
15,531	-28,678	-0,462	-0,187
16,546	89,232	-0,186	-0,146
17,561	161,912	-0,359	-0,354
18,575	84,866	-0,188	-0,145
19,590	81,165	-0,281	-0,213
20,604	-85,055	-0,284	-0,062
21,619	68,800	-0,356	-0,257
22,634	52,500	-0,450	-0,302
23,648	-43,926	-0,501	-0,176
24,663	9,632	-0,366	-0,195
25,677	125,914	-0,203	-0,181
26,692	285,771	-0,168	-0,214
27,707	90,178	-0,337	-0,265
28,721	15,818	-0,395	-0,218
29,736	153,198	-0,338	-0,326
30,750	30,233	-0,492	-0,295
31,765	-24,101	-0,351	-0,147
32,780	132,042	-0,274	-0,248
33,794	-38,883	-0,311	-0,115
34,809	-53,376	-0,445	-0,143
35,823	-25,765	-0,408	-0,168
36,838	124,118	-0,324	-0,287
37,853	179,621	-0,279	-0,288
38,867	221,557	-0,375	-0,425
39,882	111,963	-0,370	-0,314
40,896	257,027	-0,254	-0,307
41,911	-4,840	-0,303	-0,146
42,926	2,740	-0,404	-0,205
43,940	158,959	-0,369	-0,361
44,955	7,236	-0,272	-0,142
45,969	-40,709	-0,337	-0,122
46,984	182,680	-0,279	-0,289
47,999	-19,125	-0,319	-0,139
49,013	198,909	-0,258	-0,277
50,028	159,893	-0,268	-0,262
51,042	-16,634	-0,427	-0,189
52,057	40,022	-0,302	-0,190
53,071	85,535	-0,254	-0,196
54,086	-3,384	-0,270	-0,131
55,101	113,890	-0,252	-0,215
56,115	-0,750	-0,321	-0,159
57,130	-2,068	-0,349	-0,171
58,144	51,780	-0,354	-0,236
59,159	14,561	-0,417	-0,228
60,174	273,976	-0,276	-0,343
61,188	50,695	-0,435	-0,289
62,203	800,000	-0,192	-0,392
63,217	101,266	-0,236	-0,192
64,232	-5,659	-0,334	-0,160
65,247	120,998	-0,265	-0,231
66,261	133,451	-0,343	-0,312
67,276	-6,380	-0,427	-0,203
68,290	-42,243	-0,404	-0,144
69,305	4,696	-0,288	-0,148
70,320	237,635	-0,200	-0,233
71,334	24,964	-0,283	-0,164
72,349	-14,179	-0,252	-0,113
73,363	6,751	-0,559	-0,291
74,378	-25,955	-0,260	-0,107
75,393	71,863	-0,253	-0,184
76,407	-112,177	-0,330	-0,046
77,422	-64,237	-0,309	-0,088
78,436	261,582	-0,207	-0,252
79,451	43,983	-0,350	-0,224
80,466	76,739	-0,261	-0,194
81,480	85,127	-0,270	-0,207
82,495	13,721	-0,285	-0,155
83,509	68,993	-0,322	-0,231
84,524	-12,343	-0,302	-0,138
85,539	44,454	-0,225	-0,144
86,553	100,765	-0,240	-0,195
87,568	123,506	-0,355	-0,312
88,582	100,352	-0,336	-0,273
89,597	186,429	-0,213	-0,222
90,611	156,986	-0,270	-0,262
91,626	28,789	-0,221	-0,131
92,641	-8,478	-0,199	-0,093
93,655	454,151	-0,164	-0,255
94,670	12,552	-0,282	-0,152
95,684	42,944	-0,272	-0,173
96,699	37,544	-0,341	-0,211
97,714	202,717	-0,198	-0,214
98,728	-15,644	-0,214	-0,095
99,743	127,072	-0,227	-0,202
100,757	-21,915	-0,249	-0,106
101,772	-2,152	-0,359	-0,175
102,787	165,857	-0,319	-0,316
103,801	60,107	-0,301	-0,208
104,816	56,389	-0,306	-0,208
105,830	10,110	-0,145	-0,077
106,845	-102,475	-0,332	-0,055
107,860	56,320	-0,329	-0,223
108,874	-20,915	-0,275	-0,117
109,889	209,186	-0,275	-0,302
110,903	72,650	-0,287	-0,209
111,918	134,469	-0,316	-0,287
112,933	1,353	-0,265	-0,133
113,947	-42,949	-0,237	-0,084
114,962	-12,642	-0,211	0,096
115,976	27,766	-0,296	-0,174
116,991	15,407	-0,215	-0,117
118,006	-139,001	-0,283	-0,021
119,020	138,242	-0,267	-0,244
120,035	244,128	-0,218	-0,256
121,049	98,038	-0,258	-0,207
122,064	54,709	-0,246	-0,165
123,079	108,260	-0,207	-0,172
124,093	2,572	-0,172	-0,087
125,108	-91,001	-0,304	-0,060
126,122	-7,291	-0,288	-0,136
127,137	23,118	-0,237	-0,135
128,151	408,275	-0,127	-0,188
129,166	-48,190	-0,266	-0,089
130,181	58,689	-0,302	-0,207
131,195	45,627	-0,314	-0,202
132,210	70,228	-0,307	-0,221
133,224	245,046	-0,212	-0,249
134,239	52,902	-0,221	-0,147
135,254	-23,733	-0,293	-0,122
136,268	84,950	-0,278	-0,213
137,283	45,507	-0,404	-0,260
138,297	-46,126	-0,241	-0,082
139,312	53,875	-0,291	-0,195
140,327	505,218	-0,172	-0,279
141,341	470,026	-0,145	-0,228
142,356	54,612	-0,139	-0,093
143,370	116,406	-0,218	-0,186
144,385	19,655	-0,325	-0,181
145,400	46,527	-0,261	-0,168
146,414	-29,151	-0,272	-0,108
147,429	80,079	-0,369	-0,276
148,443	36,234	-0,271	-0,166
149,458	-53,488	-0,312	-0,099
150,473	160,810	-0,157	-0,153
151,487	-33,266	-0,156	-0,060
152,502	77,826	-0,318	-0,236
153,516	-114,946	-0,293	0,038
154,531	92,873	-0,243	-0,191
155,546	-81,218	-0,220	-0,050
156,560	-93,529	-0,222	-0,042
157,575	-135,742	-0,315	-0,026
158,589	-19,370	-0,222	-0,095
159,604	107,342	-0,265	-0,220
160,619	430,900	-0,165	-0,249
161,633	800,000	-0,106	-0,244
162,648	800,000	-0,082	-0,222
163,662	-123,033	-0,250	-0,028
164,677	-21,242	-0,156	-0,066
165,692	-34,880	-0,262	-0,099
166,706	-1,297	-0,289	-0,142
167,721	85,826	-0,293	-0,224
168,735	-181,891	-0,239	0,003
169,750	-14,318	-0,211	-0,094
170,764	334,486	-0,222	-0,300
171,779	-55,782	-0,156	-0,048
172,794	87,669	-0,220	-0,169
173,808	800,000	-0,075	-0,147
174,823	42,660	-0,154	-0,097
175,837	160,303	-0,202	-0,196
176,852	239,639	-0,171	-0,198
177,867	-14,540	-0,170	-0,076
178,881	-28,600	-0,212	-0,084
179,896	-131,587	-0,158	-0,014
180,910	16,157	-0,244	-0,133
181,925	77,985	-0,263	-0,195
182,940	25,500	-0,162	-0,093
183,954	210,795	-0,162	-0,177
184,969	336,764	-0,189	-0,256
185,983	-53,687	-0,226	-0,071
186,998	762,276	-0,069	0,131
188,013	-44,217	-0,216	-0,075
189,027	111,943	-0,227	-0,190
190,042	-122,718	-0,235	-0,026
191,056	-200,000	-0,009	-0,246
192,071	-2,901	-0,165	-0,079
193,086	224,164	-0,183	-0,206
194,100	200,447	-0,214	-0,229
195,115	685,132	-0,083	-0,151
196,129	29,085	-0,141	-0,083
197,144	-114,204	-0,248	-0,033
198,159	800,000	-0,088	-0,190
199,173	157,317	-0,241	-0,232
200,188	-93,867	-0,243	-0,046
201,202	126,998	-0,125	-0,110
202,217	-115,588	-0,212	-0,027
203,232	-64,986	-0,176	-0,049
204,246	800,000	-0,059	-0,128
205,261	97,766	-0,290	-0,231
206,275	266,984	-0,142	-0,172
207,290	-200,000	0,000	-0,117
208,304	-81,082	-0,210	-0,048
209,319	5,938	-0,177	-0,090
210,334	42,560	-0,155	-0,098
211,348	379,228	-0,189	-0,269
212,363	81,571	-0,297	-0,222
213,377	-148,797	-0,322	-0,018
214,392	-108,716	-0,172	0,025
215,407	-20,815	-0,160	-0,068
216,421	217,174	-0,120	-0,132
217,436	195,849	-0,117	-0,123
218,450	36,724	-0,211	-0,129
219,465	-56,981	-0,194	-0,059
220,480	72,289	-0,258	-0,186
221,494	43,780	-0,228	-0,144
222,509	-12,405	-0,148	-0,067
223,523	-56,635	-0,157	-0,048
224,538	-200,000	-0,086	-0,320
225,553	516,171	-0,151	-0,245
226,567	323,640	-0,135	-0,179
227,582	341,326	-0,172	-0,233
228,596	58,374	-0,146	-0,099
229,611	51,788	-0,136	-0,089
230,626	243,548	-0,149	-0,173
231,640	59,449	-0,145	-0,098
232,655	176,928	-0,183	-0,184
233,669	483,081	-0,209	-0,329
234,684	123,408	-0,145	-0,126
235,699	800,000	-0,080	-0,166
236,713	217,959	-0,152	-0,167
237,728	272,488	-0,152	-0,186
238,742	-3,621	-0,295	-0,141
239,757	1,051	-0,160	-0,079
240,772	288,391	-0,151	-0,189
241,786	161,718	-0,225	-0,217
242,801	107,480	-0,324	-0,267
243,815	251,878	-0,129	-0,152
244,830	3,170	-0,256	-0,128
245,844	360,060	-0,208	-0,288
246,859	540,300	-0,152	-0,251
247,874	800,000	-0,037	-0,074
248,888	22,575	-0,148	-0,083
249,903	274,952	-0,202	-0,247
250,917	59,470	-0,106	-0,072
251,932	34,653	-0,115	-0,069
252,947	-92,881	-0,058	0,011
253,961	77,822	-0,222	-0,163
254,976	800,000	-0,094	-0,236
255,990	285,744	-0,105	-0,131
257,005	-66,588	-0,144	-0,039
258,020	318,369	-0,124	-0,163
259,034	800,000	-0,065	-0,187
260,049	81,884	-0,296	-0,221
261,063	-145,960	-0,153	-0,009
262,078	36,385	-0,227	-0,138
263,093	82,551	-0,300	-0,225
264,107	348,782	-0,143	-0,196
265,122	-200,000	-0,047	-0,194
266,136	-85,081	-0,195	-0,042
267,151	-152,506	-0,254	-0,012
268,166	90,033	-0,178	-0,137
269,180	800,000	-0,068	-0,136
270,195	226,062	-0,175	-0,195
271,209	272,066	-0,178	-0,217
272,224	800,000	-0,068	-0,144
273,239	-192,715	-0,192	0,001
274,253	-200,000	0,008	-0,141
275,268	800,000	-0,057	-0,130
276,282	208,542	-0,233	-0,251
277,297	50,020	-0,201	-0,130
278,312	800,000	-0,122	-0,263
279,326	14,233	-0,224	-0,120
280,341	-90,689	-0,163	0,032
281,355	212,292	-0,130	-0,141
282,370	160,980	-0,184	-0,177
283,384	-98,513	-0,128	-0,022
284,399	87,282	-0,156	-0,119
285,414	377,207	-0,110	-0,155
286,428	800,000	-0,061	-0,140
287,443	386,030	-0,065	-0,092
288,457	800,000	-0,074	-0,155
289,472	14,482	-0,215	-0,115
290,487	-4,999	-0,266	-0,126
291,501	3,304	-0,148	-0,074
292,516	459,606	-0,067	-0,103
293,530	430,853	-0,127	-0,189
294,545	453,198	-0,102	-0,156
295,560	1,779	-0,136	0,067
296,574	71,365	-0,074	-0,053
297,589	-94,010	-0,135	-0,025
298,603	-30,115	-0,208	-0,081
299,618	191,317	-0,138	-0,142
300,633	133,060	-0,152	-0,134
301,647	-10,447	-0,156	0,071
302,662	61,497	-0,148	-0,101
303,676	-27,838	-0,157	-0,062
304,691	-13,229	-0,207	-0,092
305,706	162,282	-0,171	-0,165
306,720	592,297	-0,105	-0,178
307,735	-88,708	-0,168	-0,034
308,749	15,318	-0,183	-0,098
309,764	22,186	-0,103	-0,058
310,779	-105,006	-0,198	-0,031
311,793	87,188	-0,204	-0,155
312,808	389,409	-0,081	-0,116
313,822	-158,690	-0,167	0,006
314,837	-106,930	-0,147	0,022
315,852	-111,830	-0,152	0,021
316,866	-200,000	-0,031	-0,145
317,881	-13,349	-0,076	-0,033
318,895	253,837	-0,125	-0,147
319,910	67,607	-0,256	-0,179
320,925	69,762	-0,198	-0,140
321,939	102,738	-0,124	-0,100
322,954	20,484	-0,019	-0,010
323,968	-42,911	-0,113	0,039
324,983	564,903	-0,052	-0,086
325,997	421,386	-0,058	-0,086
327,012	63,877	-0,250	-0,172
328,027	-62,421	-0,246	-0,070
329,041	380,797	-0,074	-0,104
330,056	189,399	-0,050	-0,051
331,070	-26,465	-0,060	-0,024
332,085	-200,000	0,022	-0,127
333,100	-32,853	-0,125	-0,047
334,114	750,058	-0,062	-0,114
335,129	-17,336	-0,213	-0,091
336,143	800,000	-0,103	-0,237
337,158	-72,795	-0,152	-0,038
338,173	198,208	-0,075	-0,079
339,187	-22,611	-0,112	0,046
340,202	-39,963	-0,054	-0,019
341,216	-87,311	-0,143	-0,030
342,231	-133,366	-0,159	-0,014
343,246	638,470	-0,112	-0,196
344,260	-200,000	-0,032	-0,123
345,275	116,718	-0,080	-0,067
346,289	-200,000	-0,029	-0,157
347,304	58,657	-0,099	-0,066
348,319	24,636	-0,213	-0,121
349,333	800,000	-0,084	-0,226
350,348	800,000	-0,066	-0,155
351,362	-122,491	-0,080	0,009
352,377	-44,562	-0,074	-0,025
353,392	270,232	-0,072	-0,087
354,406	800,000	-0,084	-0,182
355,421	209,547	1311,388	1407,462
356,435	161,286	1471,666	1407,931
