DTS Sentinel unit serial number:	SN410029Multiplexer serial number:	ORYXHardware model number:	OX2-SRSoftware version number:	ORYX F/W v4,00 Oryx Data Collector v3.7.2.0data status	okinstallation	B3 Nyhavnadifferential loss correction	single-endedforward channel	channel 1reverse channel	N/Adate	2023/12/01time	12:42:30forward acquisition time	300,00reverse acquisition time	0,00gamma	499,1914k internal	0,3213k external	0,3213temperature offset calibration	1,0000default loss term (dB/km)	0,3820temperature slope calibration	1,0000multiplexer offset coefficient	1,0000multiplexer slope coefficient	1,0000fibre end	0,00T internal ref (°C)	9,00T ext. ref 1 (°C)	-5,04T ext. ref 2 (°C)	-5,16length (m)	temperature (°C)	Stokes	anti-Stokes-744,400	194,358	-0,264	-0,290
-743,385	800,000	-0,090	0,203
-742,371	774,488	-0,135	-0,268
-741,356	-200,000	0,040	0,275
-740,342	365,835	-0,100	-0,146
-739,327	294,484	-0,196	0,260
-738,312	335,557	-0,196	-0,276
-737,298	-200,000	-0,042	0,171
-736,283	-200,000	-0,035	-0,126
-735,269	-200,000	-0,009	0,181
-734,254	-200,000	-0,048	-0,227
-733,239	25,033	-0,170	-0,102
-732,225	-200,000	0,034	-0,252
-731,210	-136,159	0,242	-0,020
-730,196	-200,000	0,010	0,045
-729,181	-34,370	0,135	-0,053
-728,167	-117,645	-0,066	-0,009
-727,152	-177,819	-0,111	0,002
-726,137	-50,169	-0,081	0,028
-725,123	-68,751	-0,220	-0,061
-724,108	782,424	-0,043	-0,086
-723,094	29,233	-0,047	-0,029
-722,079	-200,000	-0,004	-0,151
-721,064	183,853	0,072	-0,077
-720,050	-96,241	-0,057	-0,011
-719,035	289,308	-0,099	-0,130
-718,021	-67,581	-0,126	-0,035
-717,006	411,513	-0,111	-0,172
-715,991	25,134	-0,114	-0,068
-714,977	342,711	-0,035	-0,050
-713,962	-200,000	0,006	-0,073
-712,948	-200,000	-0,011	0,036
-711,933	160,322	0,018	0,018
-710,918	50,513	-0,037	0,025
-709,904	-68,477	-0,077	-0,021
-708,889	-56,939	-0,061	-0,019
-707,875	-141,485	-0,046	-0,003
-706,860	-200,000	-0,033	-0,157
-705,845	156,553	0,089	0,089
-704,831	-200,000	0,003	-0,086
-703,816	-142,090	-0,052	-0,004
-702,802	-200,000	-0,012	-0,134
-701,787	-54,974	-0,047	0,015
-700,772	79,223	-0,133	0,103
-699,758	-200,000	-0,037	-0,214
-698,743	-4,283	-0,012	-0,006
-697,729	-99,047	0,098	0,018
-696,714	177,453	-0,060	-0,063
-695,699	-69,443	-0,134	-0,037
-694,685	217,690	0,023	-0,026
-693,670	-95,025	-0,133	-0,026
-692,656	-69,705	0,041	0,011
-691,641	-44,888	0,065	0,023
-690,627	-134,374	0,072	-0,006
-689,612	-135,455	-0,067	0,006
-688,597	119,995	-0,129	0,116
-687,583	221,754	-0,052	-0,061
-686,568	800,000	-0,066	-0,141
-685,554	-109,168	-0,080	-0,012
-684,539	440,849	0,054	-0,085
-683,524	219,404	-0,053	-0,061
-682,510	670,700	-0,003	0,005
-681,495	512,868	-0,051	0,087
-680,481	-200,000	-0,032	-0,160
-679,466	-200,000	-0,022	-0,150
-678,451	222,222	0,011	0,013
-677,437	-200,000	0,012	0,116
-676,422	16,796	-0,079	-0,045
-675,408	-30,781	-0,087	-0,036
-674,393	746,459	-0,068	-0,132
-673,378	-200,000	-0,010	-0,110
-672,364	-159,660	-0,037	0,001
-671,349	569,168	-0,061	-0,108
-670,335	48,681	-0,060	-0,041
-669,320	3,623	-0,048	0,025
-668,305	123,523	0,098	-0,089
-667,291	-109,760	-0,159	0,024
-666,276	-94,210	-0,095	-0,019
-665,262	500,641	-0,045	-0,076
-664,247	-8,853	0,063	-0,031
-663,232	800,000	-0,082	0,199
-662,218	182,554	0,078	0,083
-661,203	-66,977	0,141	0,040
-660,189	-83,973	-0,051	-0,012
-659,174	372,398	0,105	-0,154
-658,159	181,898	-0,002	0,002
-657,145	-51,624	-0,073	-0,025
-656,130	77,250	-0,108	-0,083
-655,116	-49,688	-0,027	-0,009
-654,101	-127,663	-0,082	-0,008
-653,086	-200,000	-0,028	-0,127
-652,072	112,322	-0,155	-0,135
-651,057	-47,447	-0,085	-0,030
-650,043	800,000	-0,080	-0,167
-649,028	100,246	0,110	-0,092
-648,014	-77,692	0,072	0,018
-646,999	-200,000	-0,011	-0,038
-645,984	134,828	-0,093	-0,087
-644,970	800,000	-0,064	-0,140
-643,955	-59,782	-0,126	0,039
-642,941	-200,000	-0,019	-0,067
-641,926	800,000	-0,030	-0,080
-640,911	-94,016	-0,059	0,012
-639,897	-200,000	0,015	0,116
-638,882	-178,881	0,109	0,002
-637,868	421,174	-0,036	0,057
-636,853	-39,371	-0,065	-0,025
-635,838	800,000	-0,031	-0,063
-634,824	281,758	-0,102	-0,133
-633,809	-123,413	0,023	0,003
-632,795	-137,496	-0,046	0,004
-631,780	634,744	-0,097	0,179
-630,765	800,000	-0,037	0,097
-629,751	-200,000	0,009	-0,097
-628,736	-160,896	-0,037	-0,001
-627,722	800,000	0,075	-0,200
-626,707	-200,000	-0,008	0,101
-625,692	-79,958	-0,051	-0,012
-624,678	-77,662	0,048	0,012
-623,663	-200,000	0,013	0,103
-622,649	-200,000	-0,025	-0,090
-621,634	363,617	0,035	0,051
-620,619	-200,000	-0,006	0,066
-619,605	7,141	-0,117	-0,063
-618,590	14,214	-0,109	0,061
-617,576	116,631	0,020	-0,018
-616,561	-149,906	0,070	0,004
-615,546	325,966	0,033	-0,046
-614,532	-200,000	-0,002	0,022
-613,517	173,039	-0,055	0,057
-612,503	-200,000	0,024	0,121
-611,488	396,451	0,053	0,080
-610,474	345,884	-0,031	0,044
-609,459	800,000	-0,078	-0,186
-608,444	308,860	-0,090	-0,121
-607,430	-12,941	-0,048	-0,023
-606,415	-200,000	-0,000	0,040
-605,401	122,494	-0,102	-0,092
-604,386	-162,794	0,160	0,006
-603,371	-200,000	-0,015	0,050
-602,357	-200,000	-0,028	-0,154
-601,342	14,646	0,084	0,047
-600,328	800,000	-0,037	0,110
-599,313	800,000	-0,005	0,014
-598,298	-53,592	-0,042	-0,014
-597,284	189,793	0,068	0,074
-596,269	-68,235	0,055	-0,015
-595,255	22,395	-0,098	-0,058
-594,240	389,853	0,028	0,042
-593,225	94,263	0,067	0,055
-592,211	44,848	-0,134	-0,088
-591,196	-133,753	-0,074	-0,007
-590,182	-126,397	0,050	-0,005
-589,167	-75,758	0,055	-0,014
-588,152	-200,000	-0,008	0,073
-587,138	-200,000	0,001	0,062
-586,123	67,093	-0,043	-0,032
-585,109	800,000	0,030	0,072
-584,094	158,662	-0,073	-0,073
-583,079	-88,155	0,103	0,022
-582,065	224,539	0,126	-0,147
-581,050	-28,087	0,088	0,036
-580,036	46,489	-0,113	0,075
-579,021	51,654	0,032	-0,022
-578,006	-23,658	-0,111	-0,048
-576,992	188,758	0,092	-0,099
-575,977	392,133	0,077	0,115
-574,963	35,940	0,062	0,039
-573,948	-17,255	-0,118	0,053
-572,934	-45,584	-0,100	-0,035
-571,919	800,000	0,024	-0,064
-570,904	-143,425	-0,088	-0,006
-569,890	547,247	0,025	-0,043
-568,875	38,930	-0,056	-0,036
-567,861	-200,000	0,016	0,065
-566,846	357,525	0,072	-0,103
-565,831	-145,588	0,112	-0,007
-564,817	459,565	0,047	-0,075
-563,802	327,341	-0,075	-0,104
-562,788	-200,000	-0,011	-0,055
-561,773	-114,794	-0,010	0,001
-560,758	276,270	-0,056	-0,072
-559,744	614,230	0,090	0,163
-558,729	-144,481	-0,134	-0,009
-557,715	-200,000	0,014	-0,085
-556,700	-40,715	-0,050	0,019
-555,685	134,595	0,056	-0,052
-554,671	68,899	0,018	0,013
-553,656	-110,010	0,066	-0,010
-552,642	599,703	0,052	0,094
-551,627	-110,565	-0,099	-0,015
-550,612	800,000	0,014	-0,039
-549,598	54,434	0,031	-0,022
-548,583	-42,131	-0,070	-0,026
-547,569	478,677	0,037	-0,061
-546,554	800,000	-0,040	-0,098
-545,539	-200,000	-0,006	0,051
-544,525	-200,000	0,011	0,087
-543,510	210,170	0,069	-0,078
-542,496	-200,000	-0,013	-0,132
-541,481	-200,000	-0,036	-0,181
-540,466	360,479	0,058	0,084
-539,452	-200,000	0,004	-0,095
-538,437	164,531	0,074	-0,075
-537,423	-47,362	0,123	-0,043
-536,408	-65,984	0,098	0,028
-535,393	-84,602	0,034	0,008
-534,379	-37,026	-0,107	-0,041
-533,364	237,146	-0,075	-0,089
-532,350	-100,087	0,102	-0,018
-531,335	-66,260	0,108	0,031
-530,321	234,597	-0,090	-0,107
-529,306	-200,000	-0,001	0,108
-528,291	-40,602	0,077	-0,028
-527,277	598,127	0,037	-0,066
-526,262	-78,731	0,060	-0,015
-525,248	2,065	0,083	-0,043
-524,233	7,041	-0,073	0,039
-523,218	-200,000	-0,012	0,142
-522,204	-40,851	-0,098	0,036
-521,189	-109,462	-0,036	0,005
-520,175	198,768	-0,054	-0,059
-519,160	13,383	-0,151	0,084
-518,145	121,615	0,078	0,069
-517,131	129,412	-0,036	0,033
-516,116	-87,057	0,069	0,015
-515,102	-136,418	-0,214	-0,018
-514,087	90,695	-0,030	-0,024
-513,072	276,885	-0,045	0,058
-512,058	285,717	0,021	-0,027
-511,043	-151,289	0,028	-0,001
-510,029	-54,056	0,160	-0,052
-509,014	704,664	0,063	0,119
-507,999	-51,455	-0,056	0,019
-506,985	-200,000	0,001	-0,095
-505,970	254,465	-0,133	0,163
-504,956	382,458	0,055	-0,082
-503,941	-60,485	0,145	0,044
-502,926	77,488	0,056	-0,043
-501,912	32,475	0,021	-0,013
-500,897	134,941	-0,041	0,038
-499,883	-151,664	-0,132	-0,007
-498,868	689,427	0,030	-0,057
-497,853	800,000	-0,039	-0,089
-496,839	-200,000	-0,015	-0,082
-495,824	-200,000	0,003	0,085
-494,810	-133,656	0,104	0,009
-493,795	-200,000	0,042	-0,132
-492,781	-200,000	-0,006	-0,062
-491,766	29,213	0,057	0,035
-490,751	43,024	0,087	0,057
-489,737	43,254	-0,127	-0,083
-488,722	43,768	0,069	-0,045
-487,708	-200,000	-0,002	-0,132
-486,693	-28,329	-0,064	-0,027
-485,678	241,080	-0,096	-0,115
-484,664	-20,873	0,043	0,019
-483,649	16,906	-0,110	0,062
-482,635	-200,000	0,037	-0,135
-481,620	121,121	0,040	0,036
-480,605	-200,000	-0,028	0,146
-479,591	29,911	-0,026	-0,016
-478,576	800,000	-0,050	-0,122
-477,562	4,182	-0,013	0,007
-476,547	-200,000	-0,001	-0,124
-475,532	-200,000	0,008	-0,028
-474,518	-103,947	0,100	0,017
-473,503	-23,895	0,030	0,013
-472,489	231,343	-0,063	0,074
-471,474	-200,000	0,012	0,107
-470,459	800,000	0,013	0,029
-469,445	214,041	0,005	-0,006
-468,430	680,197	0,028	0,053
-467,416	-200,000	0,012	0,143
-466,401	293,961	-0,104	0,136
-465,386	-22,692	0,043	-0,019
-464,372	554,222	0,014	0,023
-463,357	-4,829	-0,107	0,053
-462,343	-51,512	-0,069	0,023
-461,328	216,254	0,056	-0,064
-460,313	-39,153	0,066	0,025
-459,299	215,498	0,092	0,104
-458,284	58,493	0,095	0,067
-457,270	-200,000	-0,056	0,208
-456,255	-84,006	0,056	-0,013
-455,241	-200,000	0,011	-0,044
-454,226	-97,225	-0,082	-0,015
-453,211	-200,000	0,010	-0,155
-452,197	534,402	0,047	-0,080
-451,182	-200,000	0,004	0,050
-450,168	584,963	0,052	-0,091
-449,153	-153,636	-0,075	-0,004
-448,138	800,000	-0,080	-0,169
-447,124	-19,737	0,040	-0,018
-446,109	30,723	0,093	-0,057
-445,095	-51,803	-0,073	0,024
-444,080	177,697	0,059	0,062
-443,065	86,446	0,096	0,076
-442,051	335,322	-0,019	0,027
-441,036	-118,333	-0,122	0,015
-440,022	52,634	0,021	0,014
-439,007	-18,028	-0,050	0,022
-437,992	755,690	-0,056	-0,109
-436,978	-200,000	-0,002	0,063
-435,963	-200,000	-0,000	0,048
-434,949	-200,000	0,007	-0,138
-433,934	-200,000	-0,004	-0,021
-432,919	800,000	0,034	-0,081
-431,905	-200,000	0,000	0,187
-430,890	329,571	0,056	0,077
-429,876	-61,456	0,155	-0,046
-428,861	-200,000	-0,014	-0,054
-427,846	278,899	-0,051	-0,065
-426,832	-10,737	-0,084	0,039
-425,817	151,333	-0,074	0,072
-424,803	-5,013	-0,181	-0,089
-423,788	800,000	-0,092	0,217
-422,773	-200,000	0,012	0,101
-421,759	-200,000	-0,027	-0,116
-420,744	-200,000	-0,003	-0,012
-419,730	-200,000	-0,002	-0,100
-418,715	153,750	-0,038	-0,038
-417,701	-200,000	0,005	0,115
-416,686	-200,000	0,047	0,167
-415,671	225,052	0,091	0,106
-414,657	-138,480	0,104	0,008
-413,642	59,183	-0,093	-0,066
-412,628	800,000	0,028	0,059
-411,613	91,545	-0,099	-0,080
-410,598	523,699	-0,086	-0,146
-409,584	800,000	0,040	0,117
-408,569	800,000	-0,010	-0,024
-407,555	78,646	-0,023	-0,018
-406,540	478,653	0,036	-0,058
-405,525	-200,000	0,035	-0,189
-404,511	-28,630	-0,110	-0,045
-403,496	212,912	-0,082	-0,093
-402,482	2,363	0,087	-0,045
-401,467	-200,000	0,034	0,128
-400,452	705,076	0,012	-0,023
-399,438	286,219	-0,027	0,036
-398,423	11,257	0,095	0,052
-397,409	-160,971	-0,123	-0,005
-396,394	-178,246	-0,115	-0,002
-395,379	800,000	0,028	0,084
-394,365	-14,373	0,083	0,038
-393,350	-200,000	-0,013	0,114
-392,336	71,722	0,048	0,035
-391,321	282,920	0,092	0,118
-390,306	-21,689	-0,164	0,071
-389,292	531,652	0,076	-0,129
-388,277	548,693	-0,052	-0,090
-387,263	800,000	0,061	-0,155
-386,248	208,681	0,083	0,093
-385,233	69,408	-0,114	-0,084
-384,219	299,890	-0,012	-0,016
-383,204	327,536	0,037	0,051
-382,190	-98,047	-0,042	0,008
-381,175	-44,968	0,080	-0,028
-380,160	-106,051	-0,080	-0,013
-379,146	391,504	0,046	0,068
-378,131	-148,008	-0,071	-0,004
-377,117	800,000	0,036	-0,079
-376,102	514,720	0,069	-0,116
-375,088	-200,000	-0,010	-0,060
-374,073	-200,000	0,006	-0,025
-373,058	-154,699	-0,085	-0,004
-372,044	-200,000	-0,001	0,040
-371,029	43,587	-0,031	0,020
-370,015	709,052	-0,065	0,123
-369,000	-10,553	-0,096	0,045
-367,985	-115,581	0,074	-0,010
-366,971	343,444	-0,076	0,106
-365,956	-73,639	-0,039	-0,010
-364,942	-12,483	-0,100	0,047
-363,927	-115,056	-0,061	-0,008
-362,912	48,591	0,132	0,088
-361,898	-94,881	0,108	0,021
-360,883	-200,000	-0,032	0,204
-359,869	-53,123	0,055	-0,018
-358,854	37,717	0,035	0,022
-357,839	-58,217	0,139	-0,043
-356,825	-200,000	0,003	0,067
-355,810	-200,000	-0,035	0,160
-354,796	-111,657	-0,031	-0,004
-353,781	35,446	-0,074	-0,046
-352,766	-200,000	-0,025	0,087
-351,752	-165,825	0,077	0,002
-350,737	368,847	0,071	0,103
-349,723	-117,816	-0,014	-0,002
-348,708	-84,968	0,120	0,027
-347,693	172,436	0,023	0,023
-346,679	-3,229	-0,166	-0,082
-345,664	-200,000	-0,056	-0,192
-344,650	-61,544	0,157	-0,047
-343,635	105,360	-0,060	-0,051
-342,620	-109,455	0,069	0,010
-341,606	684,911	-0,044	-0,082
-340,591	366,169	0,037	-0,053
-339,577	-200,000	0,006	0,019
-338,562	-200,000	0,041	-0,157
-337,548	598,690	0,028	-0,050
-336,533	-190,980	0,073	-0,001
-335,518	213,534	0,077	0,087
-334,504	-82,745	0,104	0,024
-333,489	-116,531	-0,051	0,007
-332,475	354,261	0,083	-0,118
-331,460	77,604	0,028	0,021
-330,445	706,159	0,031	0,059
-329,431	290,991	-0,043	-0,055
-328,416	396,191	0,031	0,047
-327,402	47,049	0,084	-0,056
-326,387	-72,968	-0,086	0,022
-325,372	13,084	0,036	0,020
-324,358	-161,061	-0,092	0,003
-323,343	690,142	0,045	-0,085
-322,329	38,025	0,138	0,087
-321,314	800,000	0,098	0,275
-320,299	655,778	-0,024	0,044
-319,285	-128,799	0,159	-0,016
-318,270	723,324	0,054	0,103
-317,256	800,000	-0,002	-0,004
-316,241	-107,546	0,039	0,006
-315,226	-115,356	-0,042	-0,006
-314,212	-123,918	0,200	0,022
-313,197	-200,000	0,011	0,066
-312,183	-200,000	-0,012	-0,088
-311,168	800,000	0,074	-0,223
-310,153	-45,922	-0,076	-0,026
-309,139	-200,000	-0,005	-0,023
-308,124	71,906	-0,063	-0,047
-307,110	-170,860	0,147	0,004
-306,095	-68,320	0,054	0,015
-305,080	-200,000	-0,014	0,051
-304,066	250,948	0,103	0,125
-303,051	62,966	-0,060	-0,043
-302,037	-55,605	-0,151	-0,048
-301,022	-77,720	0,076	-0,019
-300,008	800,000	0,032	0,075
-298,993	378,108	-0,023	-0,034
-297,978	549,717	0,047	0,081
-296,964	-18,347	-0,117	-0,052
-295,949	-86,493	-0,066	-0,014
-294,935	398,368	-0,048	-0,071
-293,920	463,069	0,034	-0,054
-292,905	-155,743	0,095	0,004
-291,891	800,000	0,015	0,033
-290,876	-200,000	-0,022	0,072
-289,862	150,376	-0,038	-0,037
-288,847	-55,667	-0,014	-0,005
-287,832	-38,786	-0,099	-0,037
-286,818	-101,094	-0,155	0,027
-285,803	357,555	0,048	0,069
-284,789	-200,000	-0,000	0,105
-283,774	48,779	0,081	0,054
-282,759	-96,865	0,042	0,008
-281,745	-110,120	-0,064	0,009
-280,730	-200,000	0,000	-0,077
-279,716	264,714	-0,069	-0,086
-278,701	-184,123	0,051	-0,001
-277,686	-69,732	0,146	0,039
-276,672	-154,229	0,129	-0,006
-275,657	-200,000	-0,020	0,069
-274,643	-43,812	-0,052	-0,019
-273,628	-200,000	0,007	0,048
-272,613	-108,183	-0,116	-0,018
-271,599	-131,266	0,073	-0,007
-270,584	243,836	-0,085	0,101
-269,570	34,858	0,064	-0,040
-268,555	498,029	-0,022	0,035
-267,540	428,941	-0,024	0,037
-266,526	66,422	0,104	-0,075
-265,511	-200,000	0,000	-0,061
-264,497	-200,000	0,009	0,053
-263,482	355,355	0,039	0,055
-262,467	182,163	0,062	0,065
-261,453	-84,177	-0,176	-0,039
-260,438	183,903	0,052	-0,055
-259,424	-83,989	-0,102	0,023
-258,409	111,768	-0,067	0,057
-257,395	563,247	0,102	0,177
-256,380	35,008	0,044	0,027
-255,365	73,812	0,161	0,120
-254,351	-92,611	-0,171	-0,034
-253,336	800,000	0,026	-0,076
-252,322	800,000	-0,041	-0,083
-251,307	-27,378	0,103	-0,042
-250,292	503,043	0,034	-0,055
-249,278	800,000	-0,018	0,036
-248,263	455,008	0,128	0,202
-247,249	-200,000	-0,028	-0,156
-246,234	562,947	0,032	-0,055
-245,219	59,932	-0,050	-0,035
-244,205	-200,000	0,000	0,133
-243,190	-115,583	-0,057	0,007
-242,176	433,951	0,071	0,110
-241,161	-43,548	-0,109	0,039
-240,146	-200,000	0,029	0,163
-239,132	800,000	-0,050	-0,144
-238,117	-46,284	-0,057	-0,020
-237,103	139,967	0,050	0,047
-236,088	292,153	0,049	-0,063
-235,073	-6,512	0,121	-0,058
-234,059	259,377	0,056	-0,069
-233,044	800,000	-0,020	0,043
-232,030	28,639	-0,019	0,011
-231,015	-172,654	-0,040	0,001
-230,000	81,159	-0,123	-0,094
-228,986	800,000	-0,033	-0,096
-227,971	39,150	0,099	0,063
-226,957	113,834	0,057	-0,049
-225,942	17,759	-0,080	0,045
-224,927	20,454	0,057	0,033
-223,913	-34,478	0,134	0,052
-222,898	800,000	-0,041	-0,105
-221,884	354,022	-0,032	-0,045
-220,869	276,690	0,050	-0,063
-219,855	345,786	0,015	-0,020
-218,840	426,226	-0,032	0,049
-217,825	149,736	-0,112	-0,107
-216,811	98,897	0,112	0,092
-215,796	333,497	0,072	-0,099
-214,782	-31,085	-0,164	-0,065
-213,767	-27,934	0,208	0,085
-212,752	-200,000	-0,043	0,212
-211,738	390,339	-0,066	-0,097
-210,723	-76,919	0,013	-0,003
-209,709	95,839	-0,118	0,096
-208,694	-200,000	-0,016	-0,072
-207,679	15,560	-0,086	-0,048
-206,665	82,164	-0,055	0,042
-205,650	-155,195	-0,118	0,005
-204,636	-63,439	-0,027	-0,008
-203,621	58,491	0,054	-0,038
-202,606	153,091	-0,080	0,077
-201,592	-29,331	0,082	-0,033
-200,577	-0,800	0,081	-0,041
-199,563	-24,805	-0,059	0,025
-198,548	-160,912	0,068	0,002
-197,533	78,846	0,035	0,027
-196,519	-200,000	0,012	0,101
-195,504	-75,357	-0,078	0,019
-194,490	800,000	-0,051	0,142
-193,475	24,816	-0,051	-0,030
-192,460	800,000	-0,040	-0,100
-191,446	-143,891	0,173	-0,011
-190,431	571,069	0,025	-0,043
-189,417	329,623	-0,025	-0,034
-188,402	-200,000	0,030	0,119
-187,387	-27,683	-0,198	0,081
-186,373	-31,344	-0,050	-0,020
-185,358	800,000	0,010	0,024
-184,344	252,338	0,085	0,103
-183,329	-44,495	0,102	0,036
-182,315	-200,000	0,016	0,091
-181,300	800,000	0,038	-0,102
-180,285	-54,530	-0,085	-0,027
-179,271	202,408	0,089	-0,098
-178,256	800,000	-0,030	-0,076
-177,242	-200,000	-0,008	0,064
-176,227	-200,000	-0,020	0,154
-175,212	-123,893	0,084	0,009
-174,198	38,432	-0,093	-0,059
-173,183	447,383	0,040	0,062
-172,169	-189,115	-0,104	-0,001
-171,154	121,140	-0,077	-0,068
-170,139	302,127	0,045	-0,059
-169,125	246,087	0,042	0,050
-168,110	-159,007	0,104	0,004
-167,096	-200,000	-0,013	0,143
-166,081	-165,060	-0,168	-0,005
-165,066	107,627	0,025	0,021
-164,052	-49,249	-0,118	-0,040
-163,037	-138,233	0,038	0,003
-162,023	800,000	0,065	-0,133
-161,008	-200,000	0,042	0,148
-159,993	-200,000	-0,017	-0,089
-158,979	239,627	0,101	0,120
-157,964	176,390	-0,103	-0,106
-156,950	-129,077	-0,030	0,003
-155,935	45,962	0,009	-0,006
-154,920	53,558	-0,025	0,017
-153,906	33,823	-0,098	0,060
-152,891	677,452	-0,016	-0,030
-151,877	-200,000	-0,012	0,115
-150,862	-134,226	-0,139	0,012
-149,847	264,669	-0,054	-0,067
-148,833	800,000	-0,029	0,064
-147,818	-87,596	-0,084	0,018
-146,804	-200,000	-0,033	0,174
-145,789	182,948	0,076	-0,080
-144,775	170,955	-0,149	-0,151
-143,760	262,414	-0,084	-0,103
-142,745	-161,727	-0,029	-0,001
-141,731	-200,000	-0,002	0,067
-140,716	13,531	0,116	-0,063
-139,702	10,313	0,036	0,019
-138,687	90,271	-0,059	-0,046
-137,672	-118,387	-0,057	0,007
-136,658	130,243	-0,131	-0,119
-135,643	211,700	-0,071	0,079
-134,629	299,157	-0,089	0,116
-133,614	0,407	-0,084	0,042
-132,599	-200,000	0,004	-0,048
-131,585	507,665	-0,065	-0,108
-130,570	410,496	0,078	-0,117
-129,556	800,000	-0,045	-0,135
-128,541	-200,000	0,023	-0,112
-127,526	800,000	-0,033	0,092
-126,512	-2,183	0,039	-0,019
-125,497	-200,000	0,023	0,181
-124,483	-12,751	0,075	-0,034
-123,468	98,067	0,065	0,052
-122,453	156,581	-0,060	-0,059
-121,439	173,636	-0,148	-0,151
-120,424	-39,396	0,161	-0,059
-119,410	-102,014	0,113	-0,019
-118,395	-200,000	-0,011	0,037
-117,380	297,547	-0,083	0,107
-116,366	-200,000	-0,033	0,107
-115,351	401,706	0,063	0,094
-114,337	79,033	-0,048	-0,036
-113,322	328,117	0,073	-0,099
-112,307	-19,636	0,132	0,058
-111,293	178,677	0,012	0,012
-110,278	-200,000	-0,010	0,105
-109,264	-48,170	-0,113	0,038
-108,249	416,724	0,015	-0,023
-107,234	800,000	-0,006	-0,017
-106,220	236,141	-0,058	-0,068
-105,205	-127,910	0,181	0,018
-104,191	295,878	0,056	-0,072
-103,176	800,000	0,038	0,080
-102,162	396,880	0,020	0,030
-101,147	800,000	-0,044	-0,130
-100,132	334,111	-0,054	-0,074
-99,118	248,305	-0,034	-0,040
-98,103	494,087	0,057	-0,092
-97,089	-54,292	-0,104	0,033
-96,074	-200,000	-0,004	-0,071
-95,059	800,000	-0,034	-0,086
-94,045	-57,282	-0,057	-0,018
-93,030	244,657	-0,093	0,111
-92,016	800,000	-0,025	-0,078
-91,001	58,806	-0,129	-0,089
-89,986	800,000	0,014	-0,028
-88,972	514,305	-0,044	0,073
-87,957	-200,000	0,001	-0,032
-86,943	38,747	-0,043	0,027
-85,928	486,737	-0,067	-0,108
-84,913	50,218	-0,162	0,108
-83,899	95,531	0,108	-0,087
-82,884	-200,000	0,009	0,145
-81,870	-200,000	-0,021	-0,078
-80,855	-200,000	0,018	0,146
-79,840	706,813	0,096	0,180
-78,826	800,000	0,014	0,034
-77,811	285,637	-0,118	0,151
-76,797	-200,000	-0,016	-0,081
-75,782	136,235	0,062	0,057
-74,767	-186,552	-0,123	0,001
-73,753	-72,022	0,042	0,011
-72,738	180,471	-0,031	0,032
-71,724	800,000	0,037	-0,074
-70,709	354,386	-0,043	-0,061
-69,694	110,573	0,078	-0,067
-68,680	800,000	0,037	-0,089
-67,665	281,646	-0,056	0,070
-66,651	17,415	-0,093	0,052
-65,636	147,551	-0,076	-0,073
-64,622	209,617	-0,070	0,077
-63,607	38,582	-0,057	0,036
-62,592	498,892	0,005	-0,008
-61,578	44,607	-0,108	-0,070
-60,563	-36,172	0,092	0,035
-59,549	-200,000	0,026	0,190
-58,534	33,519	-2,142	-1,310
-57,519	445,884	-1,216	-1,891
-56,505	-200,000	-0,496	-4,503
-55,490	457,969	0,963	1,514
-54,476	800,000	5,020	11,364
-53,461	-200,000	21,940	339,711
-52,446	800,000	761,157	2299,008
-51,432	531,898	1657,254	2775,339
-50,417	69,394	1654,745	1199,601
-49,403	16,639	1529,344	850,308
-48,388	10,832	1453,460	780,115
-47,373	19,125	1445,781	815,649
-46,359	14,207	1434,598	785,995
-45,344	9,087	1430,392	759,344
-44,330	9,073	1428,573	758,285
-43,315	9,048	1426,634	757,104
-42,300	9,062	1424,917	756,229
-41,286	9,034	1424,031	755,596
-40,271	9,031	1422,535	754,760
-39,257	9,054	1421,248	754,154
-38,242	9,120	1420,217	753,892
-37,227	9,104	1419,131	753,209
-36,213	9,094	1417,691	752,368
-35,198	9,079	1416,596	751,688
-34,184	9,121	1415,746	751,403
-33,169	9,013	1414,384	750,143
-32,154	9,070	1413,140	749,722
-31,140	9,057	1411,756	748,895
-30,125	9,132	1410,770	748,694
-29,111	9,113	1409,701	748,008
-28,096	9,080	1408,408	747,136
-27,082	9,040	1407,306	746,338
-26,067	9,020	1406,193	745,624
-25,052	9,003	1405,383	745,087
-24,038	9,020	1404,240	744,530
-23,023	9,033	1403,362	744,094
-22,009	9,002	1402,150	743,278
-20,994	8,973	1401,521	742,778
-19,979	9,078	1400,315	742,598
-18,965	8,969	1399,604	741,686
-17,950	8,988	1398,389	741,100
-16,936	8,952	1397,609	740,490
-15,921	8,923	1396,612	739,799
-14,906	8,937	1395,682	739,340
-13,892	8,997	1394,675	739,057
-12,877	8,950	1394,019	738,461
-11,863	8,938	1393,108	737,896
-10,848	8,918	1392,160	737,273
-9,833	8,851	1391,421	736,540
-8,819	8,856	1390,491	736,040
-7,804	8,843	1389,375	735,362
-6,790	8,831	1388,451	734,790
-5,775	8,880	1387,260	734,354
-4,760	8,825	1386,434	733,634
-3,746	8,908	1385,351	733,413
-2,731	8,904	1384,531	732,933
-1,717	8,856	1383,715	732,249
-0,702	8,845	1382,121	731,326
0,313	12,858	1293,536	702,728
1,327	28,832	684,468	407,774
2,342	44,980	118,001	76,446
3,356	0,560	16,665	8,368
4,371	13,318	3,754	2,045
5,386	-3,162	1,282	0,627
6,400	800,000	0,261	0,632
7,415	134,044	-0,051	-0,046
8,429	12,094	-0,254	-0,137
9,444	16,382	-0,425	-0,236
10,459	-127,965	-0,311	-0,031
11,473	228,854	-0,197	-0,227
12,488	37,207	-0,236	-0,147
13,502	-138,518	-0,324	-0,025
14,517	-66,596	-0,416	-0,115
15,531	57,780	-0,352	-0,242
16,546	74,649	-0,312	-0,231
17,561	20,142	-0,418	-0,237
18,575	-55,991	-0,224	0,070
19,590	156,022	-0,254	-0,246
20,604	-0,433	-0,280	-0,140
21,619	61,309	-0,449	-0,313
22,634	138,961	-0,377	-0,348
23,648	128,457	-0,426	-0,381
24,663	166,069	-0,272	-0,271
25,677	-25,190	-0,478	-0,198
26,692	-32,095	-0,360	-0,141
27,707	44,459	-0,307	-0,198
28,721	174,105	-0,368	-0,374
29,736	3,259	-0,441	-0,225
30,750	118,080	-0,416	-0,361
31,765	225,107	-0,372	-0,424
32,780	115,739	-0,409	-0,351
33,794	-28,966	-0,366	-0,147
34,809	149,538	-0,367	-0,350
35,823	1,843	-0,331	-0,167
36,838	79,925	-0,350	-0,264
37,853	42,063	-0,350	-0,223
38,867	113,812	-0,346	-0,295
39,882	66,660	-0,292	-0,209
40,896	-12,184	-0,324	-0,148
41,911	-56,602	-0,365	-0,113
42,926	71,242	-0,383	-0,278
43,940	479,883	-0,226	-0,361
44,955	12,880	-0,276	-0,149
45,969	134,920	-0,342	-0,312
46,984	340,555	-0,305	-0,420
47,999	6,733	-0,374	-0,195
49,013	222,581	-0,274	-0,310
50,028	124,530	-0,261	-0,230
51,042	28,178	-0,416	-0,246
52,057	-6,048	-0,478	-0,228
53,071	158,592	-0,358	-0,349
54,086	7,322	-0,352	-0,184
55,101	-35,968	-0,438	-0,165
56,115	-2,826	-0,438	-0,214
57,130	-45,612	-0,318	-0,110
58,144	153,894	-0,373	-0,358
59,159	-44,252	-0,371	-0,130
60,174	53,319	-0,313	-0,210
61,188	91,985	-0,303	-0,239
62,203	72,661	-0,313	-0,229
63,217	277,841	-0,210	-0,262
64,232	21,048	-0,244	-0,138
65,247	22,164	-0,463	-0,264
66,261	-15,758	-0,322	-0,143
67,276	60,215	-0,320	-0,222
68,290	46,354	-0,396	-0,257
69,305	-6,834	-0,366	-0,174
70,320	-39,841	-0,282	-0,103
71,334	60,659	-0,202	-0,140
72,349	40,774	-0,293	-0,185
73,363	319,133	-0,238	-0,317
74,378	40,945	-0,339	-0,214
75,393	-60,123	-0,254	-0,075
76,407	-26,591	-0,314	-0,128
77,422	18,817	-0,253	-0,142
78,436	-133,345	-0,319	0,028
79,451	-86,211	-0,337	-0,072
80,466	38,471	-0,298	-0,186
81,480	126,895	-0,262	-0,232
82,495	120,081	-0,329	-0,286
83,509	-59,997	-0,262	-0,078
84,524	-13,076	-0,212	-0,096
85,539	51,802	-0,292	-0,194
86,553	41,172	-0,285	-0,180
87,568	109,714	-0,388	-0,325
88,582	11,794	-0,289	-0,155
89,597	81,646	-0,224	-0,169
90,611	73,256	-0,172	-0,126
91,626	326,654	-0,203	-0,273
92,641	43,800	-0,306	-0,196
93,655	-103,510	-0,196	0,032
94,670	57,635	-0,320	-0,219
95,684	173,581	-0,268	-0,270
96,699	-71,988	-0,288	-0,074
97,714	-29,898	-0,180	-0,071
98,728	24,237	-0,316	-0,182
99,743	0,197	-0,280	-0,139
100,757	14,692	-0,279	-0,152
101,772	44,324	-0,307	-0,196
102,787	172,865	-0,346	-0,348
103,801	126,006	-0,257	-0,227
104,816	17,273	-0,326	-0,180
105,830	173,873	-0,341	-0,344
106,845	-8,950	-0,296	-0,138
107,860	-51,246	-0,141	-0,046
108,874	36,433	-0,195	-0,120
109,889	155,531	-0,274	-0,263
110,903	0,773	-0,294	-0,146
111,918	55,777	-0,167	-0,113
112,933	41,171	-0,290	-0,182
113,947	98,374	-0,146	-0,117
114,962	-93,470	-0,351	-0,067
115,976	56,683	-0,253	-0,172
116,991	-18,143	-0,329	-0,143
118,006	-60,153	-0,452	-0,134
119,020	-5,123	-0,181	-0,087
120,035	-12,779	-0,307	-0,139
121,049	447,748	-0,148	-0,228
122,064	122,763	-0,227	-0,198
123,079	-57,683	-0,281	-0,085
124,093	8,340	-0,263	-0,138
125,108	-75,009	-0,343	-0,085
126,122	302,320	-0,109	-0,141
127,137	317,564	-0,197	-0,260
128,151	-64,316	-0,282	-0,079
129,166	-94,472	-0,170	-0,032
130,181	-25,106	-0,205	-0,084
131,195	221,394	-0,207	-0,232
132,210	800,000	-0,092	-0,199
133,224	40,132	-0,270	-0,169
134,239	410,386	-0,202	-0,300
135,254	-30,001	-0,316	-0,125
136,268	124,385	-0,237	-0,208
137,283	-55,404	-0,231	-0,072
138,297	196,189	-0,232	-0,247
139,312	50,169	-0,304	-0,199
140,327	3,726	-0,327	-0,166
141,341	119,182	-0,255	-0,220
142,356	545,503	-0,120	-0,200
143,370	-89,254	-0,246	-0,050
144,385	124,117	-0,270	-0,236
145,400	106,043	-0,327	-0,269
146,414	177,859	-0,261	-0,265
147,429	72,735	-0,382	-0,277
148,443	446,979	-0,137	-0,211
149,458	223,027	-0,175	-0,197
150,473	4,171	-0,253	-0,128
151,487	-44,756	-0,302	-0,104
152,502	118,425	-0,312	-0,268
153,516	38,894	-0,312	-0,193
154,531	184,980	-0,248	-0,256
155,546	-42,308	-0,260	-0,092
156,560	-79,051	-0,291	-0,068
157,575	18,154	-0,271	-0,150
158,589	31,380	-0,292	-0,174
159,604	-39,662	-0,199	-0,072
160,619	109,801	-0,240	-0,200
161,633	70,794	-0,248	-0,178
162,648	10,447	-0,366	-0,193
163,662	303,411	-0,161	-0,208
164,677	17,453	-0,156	-0,086
165,692	28,013	-0,227	-0,132
166,706	223,290	-0,198	-0,222
167,721	211,681	-0,241	-0,264
168,735	-80,392	-0,280	-0,064
169,750	84,141	-0,183	-0,139
170,764	120,490	-0,197	-0,170
171,779	692,148	-0,157	-0,288
172,794	106,777	-0,200	-0,165
173,808	-68,056	-0,365	-0,098
174,823	96,926	-0,232	-0,185
175,837	5,324	-0,227	-0,116
176,852	-72,808	-0,230	-0,058
177,867	-71,800	-0,199	-0,051
178,881	196,394	-0,200	-0,212
179,896	797,225	-0,118	-0,227
180,910	-121,681	-0,176	-0,020
181,925	-33,146	-0,251	-0,096
182,940	750,777	-0,156	-0,293
183,954	18,753	-0,281	-0,156
184,969	158,885	-0,231	-0,223
185,983	28,040	-0,214	-0,125
186,998	-75,261	-0,234	-0,058
188,013	-75,660	-0,288	-0,070
189,027	136,726	-0,258	-0,234
190,042	124,413	-0,280	-0,244
191,056	9,590	-0,208	-0,109
192,071	38,510	-0,132	-0,082
193,086	-53,117	-0,207	-0,066
194,100	339,033	-0,158	-0,214
195,115	-163,331	-0,236	-0,008
196,129	17,460	-0,253	-0,139
197,144	151,520	-0,233	-0,220
198,159	114,739	-0,290	-0,245
199,173	167,601	-0,224	-0,221
200,188	323,448	-0,151	-0,199
201,202	406,895	-0,124	-0,182
202,217	-160,276	-0,169	-0,006
203,232	299,662	-0,204	-0,261
204,246	205,319	-0,258	-0,278
205,261	-12,310	-0,326	-0,147
206,275	11,417	-0,243	-0,128
207,290	800,000	-0,049	-0,097
208,304	197,654	-0,153	-0,162
209,319	387,522	-0,161	-0,231
210,334	-200,000	-0,063	-0,201
211,348	126,284	-0,222	-0,195
212,363	273,770	-0,145	-0,178
213,377	97,462	-0,201	-0,160
214,392	53,634	-0,091	-0,061
215,407	72,820	-0,136	-0,098
216,421	239,094	-0,168	-0,194
217,436	194,436	-0,147	-0,154
218,450	207,076	-0,241	-0,261
219,465	262,478	-0,177	-0,213
220,480	83,081	-0,157	-0,118
221,494	589,453	-0,095	-0,163
222,509	-26,799	-0,331	-0,133
223,523	-75,856	-0,133	-0,032
224,538	269,726	-0,110	-0,134
225,553	97,620	-0,161	-0,128
226,567	-111,601	-0,410	-0,057
227,582	-4,873	-0,237	-0,112
228,596	138,971	-0,183	-0,166
229,611	33,791	-0,317	-0,190
230,626	13,673	-0,228	-0,122
231,640	90,309	-0,203	-0,157
232,655	123,009	-0,220	-0,190
233,669	-80,196	-0,241	-0,055
234,684	792,606	-0,085	-0,163
235,699	-200,000	-0,025	-0,112
236,713	34,533	-0,268	-0,161
237,728	145,518	-0,210	-0,195
238,742	70,964	-0,251	-0,179
239,757	129,677	-0,163	-0,144
240,772	9,807	-0,280	-0,146
241,786	-85,557	-0,232	-0,049
242,801	119,956	-0,148	-0,126
243,815	149,272	-0,091	-0,085
244,830	-200,000	-0,006	-0,134
245,844	800,000	-0,098	-0,268
246,859	5,754	-0,351	-0,178
247,874	59,087	-0,267	-0,181
248,888	266,218	-0,090	-0,108
249,903	27,366	-0,147	-0,085
250,917	695,570	-0,053	-0,097
251,932	-77,647	-0,226	-0,053
252,947	-40,570	-0,261	-0,093
253,961	-34,432	-0,269	-0,101
254,976	-74,290	-0,183	-0,045
255,990	-9,145	-0,155	-0,071
257,005	117,364	-0,146	-0,124
258,020	430,051	-0,109	-0,164
259,034	800,000	-0,040	-0,097
260,049	263,874	-0,129	-0,155
261,063	-14,290	-0,237	0,105
262,078	-141,933	-0,156	-0,011
263,093	44,023	-0,244	-0,154
264,107	644,219	-0,050	-0,088
265,122	-81,335	-0,255	-0,058
266,136	-135,350	-0,237	0,019
267,151	182,597	-0,106	-0,107
268,166	39,501	-0,063	-0,039
269,180	247,701	-0,159	-0,185
270,195	342,893	-0,186	-0,252
271,209	0,400	-0,208	-0,102
272,224	-32,408	-0,172	-0,066
273,239	-4,636	-0,182	-0,086
274,253	-28,936	-0,169	-0,066
275,268	228,780	-0,113	-0,127
276,282	135,760	-0,171	-0,153
277,297	-14,202	-0,162	-0,072
278,312	786,147	-0,065	-0,124
279,326	63,765	-0,159	-0,110
280,341	800,000	-0,156	-0,375
281,355	-200,000	-0,024	-0,168
282,370	-200,000	-0,206	0,000
283,384	144,816	-0,141	-0,130
284,399	27,304	-0,279	-0,161
285,414	116,783	-0,180	-0,152
286,428	156,007	-0,160	-0,152
287,443	426,123	-0,083	-0,124
288,457	-129,431	-0,207	0,019
289,472	1,663	-0,274	-0,135
290,487	107,481	-0,232	-0,190
291,501	245,436	-0,132	-0,153
292,516	-46,178	-0,149	-0,050
293,530	52,409	-0,217	-0,142
294,545	169,445	-0,199	-0,195
295,560	-39,745	-0,113	-0,040
296,574	361,156	-0,157	-0,217
297,589	93,797	-0,119	-0,092
298,603	129,826	-0,175	-0,154
299,618	638,986	-0,140	-0,246
300,633	155,202	-0,106	-0,100
301,647	615,484	-0,100	-0,174
302,662	9,428	-0,193	-0,100
303,676	279,028	-0,074	-0,091
304,691	-19,846	-0,188	-0,079
305,706	262,487	-0,158	-0,188
306,720	800,000	-0,087	-0,207
307,735	522,050	-0,065	-0,105
308,749	-200,000	-0,041	-0,123
309,764	20,153	-0,079	-0,043
310,779	150,563	-0,168	-0,156
311,793	428,447	-0,068	-0,101
312,808	207,209	-0,227	-0,244
313,822	-67,013	-0,272	-0,073
314,837	-200,000	-0,015	-0,090
315,852	223,648	-0,065	-0,072
316,866	-55,432	-0,095	0,029
317,881	800,000	-0,055	-0,114
318,895	800,000	-0,135	-0,295
319,910	395,762	-0,122	-0,175
320,925	223,324	-0,180	-0,199
321,939	179,040	-0,153	-0,154
322,954	3,193	-0,088	-0,044
323,968	-85,499	-0,048	-0,010
324,983	-12,977	-0,226	0,100
325,997	253,286	-0,151	-0,177
327,012	-10,732	-0,245	-0,111
328,027	127,069	-0,127	-0,110
329,041	800,000	0,034	-0,098
330,056	-101,206	-0,134	-0,022
331,070	104,320	-0,145	-0,117
332,085	-120,752	-0,153	0,017
333,100	528,505	-0,166	-0,269
334,114	-154,134	-0,184	-0,008
335,129	126,093	-0,195	-0,169
336,143	205,528	-0,190	-0,203
337,158	797,951	-0,054	-0,103
338,173	275,666	-0,092	-0,112
339,187	89,656	-0,145	-0,111
340,202	8,958	-0,015	-0,008
341,216	62,871	-0,165	-0,113
342,231	79,908	-0,151	-0,111
343,246	24,976	-0,185	-0,105
344,260	-200,000	-0,043	-0,215
345,275	251,741	-0,030	-0,035
346,289	-200,000	0,017	-0,150
347,304	-46,154	-0,079	0,027
348,319	-6,466	-0,176	-0,082
349,333	-74,633	-0,126	-0,031
350,348	-200,000	-0,005	-0,109
351,362	257,643	-0,107	-0,126
352,377	-46,402	-0,087	-0,029
353,392	-62,099	-0,066	-0,019
354,406	311,383	-0,076	-0,097
355,421	206,673	1312,871	1399,100
356,435	158,955	1473,317	1399,550
