DTS Sentinel unit serial number:	SN410029Multiplexer serial number:	ORYXHardware model number:	OX2-SRSoftware version number:	ORYX F/W v4,00 Oryx Data Collector v3.7.2.0data status	okinstallation	B3 Nyhavnadifferential loss correction	single-endedforward channel	channel 1reverse channel	N/Adate	2023/12/03time	21:12:30forward acquisition time	300,00reverse acquisition time	0,00gamma	499,1914k internal	0,3199k external	0,3199temperature offset calibration	1,0000default loss term (dB/km)	0,3820temperature slope calibration	1,0000multiplexer offset coefficient	1,0000multiplexer slope coefficient	1,0000fibre end	0,00T internal ref (°C)	13,69T ext. ref 1 (°C)	-1,78T ext. ref 2 (°C)	-1,79length (m)	temperature (°C)	Stokes	anti-Stokes-744,400	105,223	-0,256	-0,220
-743,385	-200,000	-0,101	0,378
-742,371	324,828	-0,213	-0,297
-741,356	605,301	0,103	0,188
-740,342	73,850	-0,235	-0,179
-739,327	-200,000	0,023	0,347
-738,312	-110,986	-0,256	-0,038
-737,298	800,000	0,093	0,290
-736,283	300,386	-0,240	-0,323
-735,269	-200,000	-0,006	0,377
-734,254	117,301	-0,228	-0,204
-733,239	96,913	-0,191	0,159
-732,225	294,849	-0,149	-0,199
-731,210	218,100	0,102	0,118
-730,196	-200,000	-0,005	0,047
-729,181	-67,218	-0,080	0,023
-728,167	167,276	0,118	0,122
-727,152	289,410	-0,014	0,019
-726,137	-21,223	-0,049	-0,022
-725,123	122,610	-0,025	-0,023
-724,108	800,000	0,041	-0,099
-723,094	-24,597	-0,169	0,073
-722,079	98,984	-0,052	-0,043
-721,064	-200,000	0,012	-0,039
-720,050	255,131	-0,045	-0,056
-719,035	20,800	-0,100	0,059
-718,021	334,894	-0,025	0,036
-717,006	35,153	-0,024	-0,015
-715,991	-148,758	-0,147	-0,009
-714,977	-200,000	-0,004	-0,025
-713,962	276,293	-0,103	-0,134
-712,948	128,031	-0,052	0,048
-711,933	-200,000	-0,006	0,096
-710,918	72,911	-0,040	-0,030
-709,904	6,363	-0,107	-0,058
-708,889	-200,000	-0,021	-0,154
-707,875	-1,224	-0,130	-0,066
-706,860	140,833	-0,020	-0,019
-705,845	78,868	0,010	0,008
-704,831	-2,854	-0,152	0,077
-703,816	-4,532	0,048	-0,024
-702,802	-113,265	0,165	-0,023
-701,787	129,766	0,046	0,043
-700,772	95,453	-0,047	-0,039
-699,758	-50,674	-0,056	0,019
-698,743	-200,000	0,004	0,068
-697,729	-101,210	0,114	0,020
-696,714	486,492	-0,065	-0,109
-695,699	-148,652	-0,093	0,005
-694,685	75,834	-0,075	-0,057
-693,670	277,328	-0,009	-0,012
-692,656	-85,304	-0,069	-0,016
-691,641	800,000	0,036	-0,106
-690,627	-32,281	-0,060	0,024
-689,612	-200,000	0,003	-0,101
-688,597	-107,748	0,079	-0,012
-687,583	-20,408	-0,070	0,031
-686,568	-146,258	-0,151	-0,009
-685,554	81,499	0,191	-0,150
-684,539	-181,066	-0,077	0,001
-683,524	160,902	0,095	-0,096
-682,510	800,000	-0,016	0,039
-681,495	800,000	-0,041	0,110
-680,481	-200,000	0,005	-0,060
-679,466	-3,869	-0,137	-0,069
-678,451	-200,000	-0,000	-0,182
-677,437	-131,562	-0,063	-0,006
-676,422	800,000	0,012	-0,030
-675,408	494,688	-0,019	-0,032
-674,393	422,278	0,085	-0,133
-673,378	221,094	-0,074	-0,086
-672,364	96,127	-0,120	-0,099
-671,349	-131,128	-0,074	0,007
-670,335	186,062	0,065	0,070
-669,320	474,073	-0,036	0,060
-668,305	-160,946	0,190	-0,007
-667,291	-148,016	-0,126	0,007
-666,276	596,400	0,013	0,024
-665,262	-152,930	-0,152	-0,008
-664,247	-200,000	0,006	-0,028
-663,232	579,995	0,051	-0,091
-662,218	33,808	-0,052	-0,033
-661,203	554,150	0,044	0,078
-660,189	145,395	0,034	0,033
-659,174	243,541	-0,089	-0,109
-658,159	-200,000	0,024	-0,126
-657,145	-145,605	0,025	-0,002
-656,130	-65,261	-0,033	-0,009
-655,116	679,585	0,082	-0,155
-654,101	380,397	0,035	0,053
-653,086	-153,253	-0,087	-0,004
-652,072	-191,992	0,078	-0,001
-651,057	-68,246	0,155	-0,043
-650,043	334,032	0,033	-0,047
-649,028	296,568	0,013	0,018
-648,014	-200,000	-0,013	-0,044
-646,999	-31,772	0,040	0,016
-645,984	-200,000	-0,003	0,017
-644,970	243,244	-0,029	0,036
-643,955	-200,000	0,022	0,105
-642,941	146,517	-0,088	0,086
-641,926	34,310	0,078	0,049
-640,911	-200,000	-0,003	-0,024
-639,897	-127,231	-0,126	-0,013
-638,882	-200,000	0,006	0,067
-637,868	507,944	0,055	-0,092
-636,853	-104,452	-0,038	-0,006
-635,838	800,000	0,032	-0,081
-634,824	338,037	-0,094	-0,133
-633,809	-0,922	0,183	0,094
-632,795	25,246	-0,110	-0,066
-631,780	800,000	-0,068	-0,177
-630,765	-138,055	0,040	-0,003
-629,751	275,082	-0,087	-0,111
-628,736	-2,103	-0,105	0,053
-627,722	-57,163	-0,153	0,048
-626,707	-200,000	0,012	0,050
-625,692	-200,000	-0,002	0,165
-624,678	-125,853	-0,033	0,004
-623,663	203,875	0,015	-0,017
-622,649	-200,000	-0,025	-0,084
-621,634	485,746	0,025	0,041
-620,619	-200,000	-0,010	-0,079
-619,605	-200,000	0,012	-0,064
-618,590	-12,286	0,036	-0,017
-617,576	-153,758	0,141	-0,007
-616,561	171,826	0,037	0,038
-615,546	-200,000	-0,019	-0,150
-614,532	714,305	0,009	-0,017
-613,517	-92,881	0,153	0,031
-612,503	-84,682	-0,013	0,003
-611,488	186,405	0,017	0,018
-610,474	800,000	-0,042	0,122
-609,459	-137,587	0,060	-0,005
-608,444	154,550	0,039	-0,039
-607,430	73,884	-0,128	0,097
-606,415	116,633	-0,130	-0,115
-605,401	138,961	-0,087	0,083
-604,386	100,375	0,044	0,037
-603,371	-87,576	0,089	0,019
-602,357	189,741	0,052	0,057
-601,342	105,612	-0,128	0,110
-600,328	-200,000	0,023	-0,114
-599,313	304,394	0,075	0,101
-598,298	338,612	-0,008	0,011
-597,284	-98,594	0,131	-0,024
-596,269	800,000	0,024	0,069
-595,255	-28,689	0,036	0,015
-594,240	-200,000	-0,024	0,115
-593,225	555,548	-0,050	-0,087
-592,211	229,633	-0,071	-0,084
-591,196	-200,000	0,003	0,130
-590,182	-166,446	0,139	-0,004
-589,167	293,874	-0,015	-0,019
-588,152	211,694	0,098	0,111
-587,138	-102,163	0,114	-0,020
-586,123	49,148	-0,113	-0,077
-585,109	528,384	-0,026	0,045
-584,094	800,000	0,026	-0,054
-583,079	22,814	-0,048	-0,028
-582,065	-66,067	-0,042	0,012
-581,050	168,219	-0,071	-0,073
-580,036	189,015	-0,074	0,081
-579,021	-200,000	0,021	-0,125
-578,006	-184,541	-0,084	0,001
-576,992	212,687	-0,030	0,034
-575,977	-200,000	0,000	0,028
-574,963	121,598	0,068	0,061
-573,948	251,506	0,070	0,086
-572,934	-40,696	-0,041	0,015
-571,919	800,000	0,060	-0,127
-570,904	-12,800	0,072	-0,034
-569,890	418,279	-0,024	-0,037
-568,875	-200,000	-0,020	0,131
-567,861	239,152	0,053	0,064
-566,846	-136,410	0,168	-0,014
-565,831	-200,000	0,003	-0,011
-564,817	-87,036	-0,127	-0,028
-563,802	-200,000	0,017	0,072
-562,788	-133,497	-0,117	-0,010
-561,773	-200,000	-0,030	-0,131
-560,758	772,196	0,090	0,178
-559,744	28,992	0,020	0,012
-558,729	125,273	-0,051	0,047
-557,715	-88,438	0,079	-0,017
-556,700	-40,804	-0,028	0,010
-555,685	661,374	0,032	-0,060
-554,671	-200,000	-0,018	-0,072
-553,656	10,643	-0,039	-0,021
-552,642	-184,381	0,038	0,000
-551,627	55,429	0,079	0,055
-550,612	-200,000	0,030	0,162
-549,598	-49,991	-0,137	-0,047
-548,583	623,098	-0,025	-0,045
-547,569	-200,000	-0,027	0,096
-546,554	715,555	-0,066	0,127
-545,539	-41,791	-0,024	-0,009
-544,525	-66,742	-0,042	0,012
-543,510	-115,312	0,189	0,025
-542,496	499,904	-0,157	-0,263
-541,481	588,101	-0,099	-0,177
-540,466	744,768	0,044	-0,087
-539,452	111,067	0,132	0,115
-538,437	-200,000	-0,002	0,117
-537,423	234,461	-0,116	0,139
-536,408	104,876	-0,068	-0,057
-535,393	212,701	-0,026	0,030
-534,379	-200,000	0,015	-0,102
-533,364	37,344	0,086	-0,055
-532,350	-60,779	0,029	0,009
-531,335	327,598	-0,085	0,117
-530,321	-56,875	0,094	-0,030
-529,306	-56,617	-0,078	-0,025
-528,291	287,420	0,072	0,094
-527,277	115,130	-0,036	-0,032
-526,262	-63,324	0,106	-0,031
-525,248	-200,000	0,012	-0,056
-524,233	800,000	0,053	-0,119
-523,218	-31,906	-0,061	-0,025
-522,204	-200,000	0,009	0,102
-521,189	45,211	-0,064	-0,042
-520,175	-200,000	-0,027	-0,091
-519,160	551,365	0,036	0,062
-518,145	657,473	-0,036	0,066
-517,131	-200,000	0,011	-0,050
-516,116	-21,274	0,056	-0,024
-515,102	800,000	-0,011	0,031
-514,087	256,249	-0,049	-0,061
-513,072	-88,043	-0,042	-0,009
-512,058	-175,667	-0,142	-0,003
-511,043	-85,620	0,170	-0,038
-510,029	-168,216	0,138	-0,004
-509,014	59,643	-0,037	-0,026
-507,999	-89,282	0,149	0,031
-506,985	-88,843	-0,015	0,003
-505,970	315,580	-0,108	0,148
-504,956	-200,000	-0,010	-0,116
-503,941	-42,739	-0,064	-0,023
-502,926	-7,510	0,047	0,023
-501,912	-200,000	0,013	0,213
-500,897	102,100	-0,061	-0,051
-499,883	-105,298	-0,078	-0,013
-498,868	229,165	0,077	0,091
-497,853	-35,190	-0,105	0,041
-496,839	-200,000	0,003	-0,039
-495,824	170,129	0,109	-0,112
-494,810	273,675	0,095	0,122
-493,795	521,659	0,086	-0,146
-492,781	800,000	-0,025	-0,054
-491,766	800,000	0,043	0,130
-490,751	167,330	0,120	-0,123
-489,737	-172,978	-0,139	0,003
-488,722	-43,551	0,156	-0,057
-487,708	-200,000	0,006	0,033
-486,693	62,390	0,068	-0,049
-485,678	800,000	-0,026	-0,065
-484,664	-200,000	-0,003	-0,139
-483,649	-53,242	-0,017	-0,006
-482,635	278,447	0,084	-0,108
-481,620	800,000	-0,037	-0,077
-480,605	-41,234	0,132	0,049
-479,591	-200,000	0,023	0,127
-478,576	47,428	-0,070	0,047
-477,562	-158,262	-0,047	-0,002
-476,547	11,906	-0,060	-0,033
-475,532	-200,000	-0,014	-0,109
-474,518	300,952	-0,068	0,090
-473,503	296,925	0,059	-0,078
-472,489	-51,475	0,042	-0,014
-471,474	256,073	0,064	0,079
-470,459	84,601	-0,072	-0,057
-469,445	493,782	-0,074	-0,122
-468,430	800,000	0,054	-0,122
-467,416	249,441	0,100	-0,122
-466,401	800,000	-0,032	0,076
-465,386	544,722	0,046	0,080
-464,372	681,367	-0,070	-0,131
-463,357	-173,170	0,085	-0,002
-462,343	34,002	-0,027	0,017
-461,328	800,000	-0,036	-0,109
-460,313	-97,819	-0,086	0,016
-459,299	648,207	-0,061	-0,114
-458,284	-200,000	-0,008	0,106
-457,270	-31,801	-0,020	-0,008
-456,255	51,461	-0,023	-0,016
-455,241	188,788	-0,069	-0,074
-454,226	269,941	-0,106	-0,135
-453,211	98,794	-0,055	-0,045
-452,197	382,529	0,060	0,088
-451,182	-102,407	0,132	0,022
-450,168	-200,000	-0,004	0,107
-449,153	13,416	-0,142	-0,079
-448,138	42,081	-0,032	0,021
-447,124	439,847	-0,020	-0,032
-446,109	393,681	-0,027	-0,041
-445,095	12,305	-0,084	0,047
-444,080	-64,472	0,119	-0,034
-443,065	-54,731	-0,039	-0,013
-442,051	-200,000	-0,002	-0,051
-441,036	271,900	-0,100	-0,127
-440,022	-6,677	-0,153	-0,075
-439,007	711,568	-0,020	0,038
-437,992	464,903	0,072	0,117
-436,978	-109,978	-0,054	0,008
-435,963	-95,579	0,103	0,020
-434,949	-200,000	-0,021	-0,136
-433,934	-134,160	-0,054	-0,005
-432,919	450,030	-0,049	0,078
-431,905	-200,000	-0,000	0,092
-430,890	250,518	0,058	-0,070
-429,876	258,521	0,056	0,069
-428,861	-11,462	0,063	0,030
-427,846	90,893	-0,029	-0,024
-426,832	-169,468	-0,168	-0,004
-425,817	800,000	0,048	-0,129
-424,803	363,773	0,032	-0,046
-423,788	207,556	0,166	0,187
-422,773	28,897	-0,082	-0,050
-421,759	99,771	-0,124	0,103
-420,744	-200,000	0,089	0,000
-419,730	203,848	0,030	0,034
-418,715	800,000	0,024	-0,049
-417,701	-200,000	0,007	-0,081
-416,686	77,855	-0,072	-0,055
-415,671	-123,538	-0,194	0,022
-414,657	-140,816	0,108	-0,008
-413,642	-119,762	-0,191	-0,023
-412,628	191,371	0,093	-0,100
-411,613	17,178	-0,051	-0,029
-410,598	371,948	0,079	-0,116
-409,584	1,669	-0,049	-0,025
-408,569	141,511	-0,016	-0,015
-407,555	-200,000	0,044	0,233
-406,540	342,456	-0,100	0,141
-405,525	585,192	-0,011	0,020
-404,511	800,000	-0,009	-0,024
-403,496	419,224	-0,024	0,037
-402,482	-37,652	0,081	0,031
-401,467	641,519	-0,007	0,012
-400,452	292,992	-0,105	0,138
-399,438	-200,000	-0,029	-0,098
-398,423	-200,000	-0,007	0,084
-397,409	161,857	-0,089	-0,090
-396,394	209,965	0,084	-0,094
-395,379	-200,000	0,013	-0,078
-394,365	107,065	-0,060	0,051
-393,350	-48,308	0,154	-0,053
-392,336	-42,807	0,141	-0,051
-391,321	800,000	-0,013	0,035
-390,306	-200,000	-0,017	-0,078
-389,292	-200,000	-0,024	-0,107
-388,277	-200,000	0,006	-0,134
-387,263	-129,198	0,110	-0,011
-386,248	-200,000	0,027	0,109
-385,233	-61,999	-0,046	0,014
-384,219	-1,320	0,166	0,084
-383,204	800,000	-0,046	0,147
-382,190	-4,011	-0,026	0,013
-381,175	108,268	0,095	0,081
-380,160	80,632	0,116	-0,090
-379,146	800,000	0,040	-0,095
-378,131	-20,384	-0,027	-0,012
-377,117	262,980	-0,043	-0,053
-376,102	-59,988	-0,089	0,027
-375,088	221,878	0,042	-0,048
-374,073	-7,812	-0,093	0,045
-373,058	332,694	0,073	-0,101
-372,044	169,416	-0,064	0,066
-371,029	14,714	0,087	0,048
-370,015	76,904	0,105	0,080
-369,000	-200,000	-0,007	-0,062
-367,985	800,000	-0,036	-0,100
-366,971	29,340	-0,018	0,011
-365,956	-91,391	-0,126	0,026
-364,942	338,365	-0,026	-0,036
-363,927	90,910	0,124	0,100
-362,912	188,449	-0,038	-0,041
-361,898	208,305	-0,131	0,148
-360,883	-6,865	-0,071	-0,034
-359,869	-200,000	-0,016	-0,076
-358,854	-78,476	0,100	-0,024
-357,839	218,748	-0,051	0,059
-356,825	59,306	0,018	0,012
-355,810	-200,000	-0,014	0,110
-354,796	-119,144	-0,113	-0,014
-353,781	-11,023	-0,081	-0,038
-352,766	-32,027	-0,042	-0,017
-351,752	-200,000	0,006	-0,085
-350,737	-182,343	0,092	-0,001
-349,723	202,606	0,088	0,098
-348,708	-73,716	-0,122	-0,032
-347,693	-200,000	0,010	-0,046
-346,679	-188,165	-0,048	0,000
-345,664	-75,115	0,130	-0,033
-344,650	-47,613	-0,067	-0,023
-343,635	800,000	0,050	-0,107
-342,620	-40,200	0,073	-0,027
-341,606	-84,933	0,045	0,010
-340,591	240,216	-0,069	0,082
-339,577	703,059	-0,047	-0,090
-338,562	162,850	0,086	-0,086
-337,548	46,340	-0,077	0,051
-336,533	-9,201	0,040	0,019
-335,518	172,712	0,102	0,105
-334,504	800,000	-0,041	0,096
-333,489	105,661	-0,183	-0,155
-332,475	291,642	0,105	-0,137
-331,460	-53,186	0,114	0,037
-330,445	63,554	0,037	0,027
-329,431	-138,402	0,169	0,013
-328,416	542,698	0,062	0,107
-327,402	44,246	-0,073	0,048
-326,387	261,576	0,079	0,098
-325,372	-200,000	-0,008	-0,049
-324,358	-81,074	0,143	-0,034
-323,343	344,240	-0,040	-0,056
-322,329	-121,686	0,157	-0,018
-321,314	-200,000	0,015	0,062
-320,299	-179,566	0,064	-0,001
-319,285	-200,000	-0,009	-0,057
-318,270	-100,389	0,087	0,015
-317,256	-80,043	-0,135	0,032
-316,241	-148,454	-0,108	0,006
-315,226	-26,425	-0,038	-0,016
-314,212	800,000	0,014	0,044
-313,197	108,915	0,060	0,051
-312,183	-200,000	0,042	0,157
-311,168	272,968	-0,013	-0,017
-310,153	251,389	0,047	-0,057
-309,139	-187,732	0,070	-0,001
-308,124	-79,959	-0,150	0,036
-307,110	-2,471	0,086	0,043
-306,095	-200,000	0,000	-0,053
-305,080	-38,681	0,078	-0,029
-304,066	800,000	-0,051	-0,106
-303,051	800,000	-0,032	-0,096
-302,037	116,679	0,142	-0,125
-301,022	-2,548	-0,078	-0,039
-300,008	16,678	0,095	-0,054
-298,993	-200,000	0,027	0,097
-297,978	117,149	-0,040	0,035
-296,964	-200,000	-0,020	0,107
-295,949	-200,000	-0,047	-0,000
-294,935	26,716	-0,018	0,011
-293,920	800,000	-0,079	0,161
-292,905	369,810	0,058	0,085
-291,891	800,000	0,053	0,108
-290,876	800,000	-0,076	0,180
-289,862	4,398	-0,017	-0,009
-288,847	333,709	-0,068	-0,094
-287,832	-200,000	0,007	-0,170
-286,818	60,852	0,091	-0,064
-285,803	800,000	-0,026	0,055
-284,789	120,725	0,053	0,047
-283,774	415,672	0,065	0,100
-282,759	-34,418	-0,089	-0,035
-281,745	800,000	-0,037	-0,099
-280,730	-89,978	0,046	0,010
-279,716	800,000	0,026	0,063
-278,701	116,239	-0,041	0,036
-277,686	-55,623	0,078	0,025
-276,672	-200,000	-0,014	0,053
-275,657	-143,304	-0,032	0,002
-274,643	-200,000	-0,017	-0,166
-273,628	-142,204	-0,062	-0,004
-272,613	209,781	-0,039	-0,044
-271,599	637,028	0,027	0,050
-270,584	256,282	0,063	0,077
-269,570	133,949	0,037	-0,035
-268,555	-28,239	-0,040	0,016
-267,540	-200,000	-0,041	0,131
-266,526	-200,000	0,021	0,083
-265,511	-200,000	-0,013	0,082
-264,497	-104,069	-0,079	0,013
-263,482	-25,921	-0,068	0,028
-262,467	800,000	0,023	-0,056
-261,453	800,000	-0,025	-0,070
-260,438	-200,000	0,004	0,040
-259,424	-200,000	-0,008	0,086
-258,409	-10,463	-0,121	0,057
-257,395	48,108	-0,068	0,045
-256,380	386,030	-0,058	0,085
-255,365	-200,000	-0,012	-0,052
-254,351	231,129	-0,049	-0,057
-253,336	-7,581	0,032	0,015
-252,322	800,000	0,021	-0,054
-251,307	800,000	-0,031	0,090
-250,292	-200,000	-0,005	0,019
-249,278	641,991	-0,031	0,056
-248,263	-200,000	0,015	0,090
-247,249	-85,076	0,039	0,009
-246,234	227,154	0,047	0,054
-245,219	-200,000	-0,044	-0,191
-244,205	-142,183	-0,112	0,008
-243,190	-174,030	0,143	-0,003
-242,176	112,708	-0,118	0,102
-241,161	-87,918	0,164	-0,035
-240,146	800,000	-0,059	0,123
-239,132	164,678	-0,028	0,028
-238,117	132,179	-0,113	-0,104
-237,103	-200,000	0,022	-0,162
-236,088	66,091	-0,053	0,039
-235,073	239,116	0,033	-0,040
-234,059	82,311	0,039	0,030
-233,044	-43,412	0,135	0,048
-232,030	154,738	0,055	0,054
-231,015	-56,402	-0,157	-0,049
-230,000	43,928	-0,101	-0,066
-228,986	-74,600	-0,054	0,014
-227,971	-108,747	0,066	-0,010
-226,957	-200,000	-0,020	0,123
-225,942	-140,834	0,173	-0,013
-224,927	215,017	-0,045	-0,051
-223,913	226,974	-0,102	0,118
-222,898	-200,000	-0,014	0,063
-221,884	-48,645	0,031	0,010
-220,869	19,484	0,079	0,045
-219,855	-10,284	0,058	-0,027
-218,840	-200,000	-0,017	0,144
-217,825	-58,387	0,148	-0,045
-216,811	800,000	-0,020	0,049
-215,796	-124,144	-0,198	-0,022
-214,782	-183,757	0,081	0,001
-213,767	-113,512	0,124	-0,017
-212,752	-84,009	-0,109	-0,024
-211,738	-78,658	0,157	0,038
-210,723	369,483	0,075	0,108
-209,709	800,000	0,044	-0,094
-208,694	154,820	0,048	-0,047
-207,679	-17,868	-0,094	0,042
-206,665	-61,417	-0,025	-0,007
-205,650	-200,000	0,010	0,036
-204,636	-66,004	-0,023	0,006
-203,621	-0,669	-0,044	0,022
-202,606	-200,000	-0,004	0,104
-201,592	108,049	-0,139	-0,118
-200,577	-200,000	-0,048	-0,158
-199,563	199,812	0,024	0,026
-198,548	-34,775	-0,039	-0,015
-197,533	274,950	0,088	0,111
-196,519	-84,437	-0,049	0,011
-195,504	190,368	-0,063	-0,068
-194,490	800,000	-0,054	-0,108
-193,475	-200,000	-0,041	-0,135
-192,460	239,652	0,070	0,083
-191,446	794,931	0,021	-0,041
-190,431	39,513	-0,160	0,102
-189,417	-200,000	0,012	0,041
-188,402	17,685	0,037	0,021
-187,387	213,493	-0,073	-0,082
-186,373	-6,256	-0,041	-0,020
-185,358	12,264	-0,085	0,047
-184,344	-119,914	-0,112	0,014
-183,329	-72,878	0,144	-0,037
-182,315	7,070	0,136	0,072
-181,300	23,776	-0,029	0,017
-180,285	110,137	0,060	-0,051
-179,271	-99,226	-0,115	-0,021
-178,256	-135,723	-0,133	-0,011
-177,242	100,680	-0,016	-0,013
-176,227	706,163	0,060	-0,114
-175,212	-200,000	-0,012	0,126
-174,198	79,514	-0,089	0,068
-173,183	-200,000	-0,003	0,091
-172,169	800,000	0,009	-0,027
-171,154	6,820	0,037	0,019
-170,139	22,113	-0,034	0,020
-169,125	89,340	0,112	0,089
-168,110	-3,606	0,098	-0,049
-167,096	800,000	0,038	-0,076
-166,081	800,000	-0,051	-0,109
-165,066	164,736	-0,043	-0,043
-164,052	-200,000	-0,010	-0,052
-163,037	800,000	-0,051	-0,114
-162,023	236,620	0,030	0,035
-161,008	-78,948	0,078	-0,019
-159,993	244,225	0,029	-0,034
-158,979	-156,412	0,176	-0,008
-157,964	800,000	-0,027	0,057
-156,950	-161,093	0,077	0,003
-155,935	800,000	-0,026	0,058
-154,920	-56,591	0,123	0,038
-153,906	-66,444	0,044	0,012
-152,891	-22,076	0,092	-0,039
-151,877	-172,695	0,034	0,001
-150,862	-25,706	-0,155	0,065
-149,847	-200,000	-0,008	-0,029
-148,833	133,362	0,024	0,022
-147,818	-200,000	-0,021	0,126
-146,804	338,237	0,047	0,065
-145,789	-200,000	-0,008	0,116
-144,775	-78,316	0,110	-0,027
-143,760	-200,000	0,004	-0,094
-142,745	-200,000	0,004	0,043
-141,731	800,000	-0,023	-0,050
-140,716	358,467	0,109	0,155
-139,702	153,353	-0,057	0,056
-138,687	-200,000	-0,009	-0,140
-137,672	333,389	0,058	-0,080
-136,658	76,272	-0,034	-0,026
-135,643	-200,000	-0,011	-0,114
-134,629	-124,734	-0,103	0,011
-133,614	51,396	0,110	0,074
-132,599	95,046	0,031	-0,025
-131,585	-200,000	-0,017	-0,143
-130,570	-200,000	-0,018	-0,066
-129,556	176,987	-0,112	-0,116
-128,541	-130,482	0,107	-0,010
-127,526	-200,000	-0,002	0,020
-126,512	-11,197	0,027	-0,013
-125,497	90,297	-0,143	-0,113
-124,483	43,717	0,157	0,102
-123,468	-139,565	0,072	0,005
-122,453	31,980	-0,149	0,091
-121,439	800,000	0,020	-0,054
-120,424	-119,489	-0,044	0,005
-119,410	36,426	-0,048	-0,030
-118,395	36,344	0,082	-0,051
-117,380	41,727	0,073	0,047
-116,366	-3,010	0,141	0,070
-115,351	6,762	-0,092	0,048
-114,337	-153,523	0,145	0,007
-113,322	246,558	-0,030	0,036
-112,307	-26,372	0,097	-0,040
-111,293	83,388	0,087	0,067
-110,278	-120,237	0,076	-0,009
-109,264	149,538	-0,100	-0,096
-108,249	800,000	0,074	-0,166
-107,234	-26,579	-0,080	0,033
-106,220	-13,170	-0,016	0,007
-105,205	1,831	-0,086	-0,044
-104,191	-200,000	0,012	-0,058
-103,176	800,000	0,077	0,180
-102,162	-200,000	0,007	0,128
-101,147	-123,135	-0,053	-0,006
-100,132	92,106	0,083	-0,066
-99,118	408,130	0,027	0,041
-98,103	-200,000	0,017	0,102
-97,089	113,898	0,067	0,058
-96,074	-86,047	0,134	-0,029
-95,059	-200,000	0,002	0,044
-94,045	223,621	-0,058	-0,067
-93,030	28,789	-0,131	-0,078
-92,016	-200,000	0,023	0,084
-91,001	-89,186	0,032	-0,007
-89,986	800,000	0,062	0,171
-88,972	156,637	-0,044	0,044
-87,957	356,068	0,053	0,075
-86,943	-200,000	0,008	-0,146
-85,928	-200,000	0,012	-0,043
-84,913	800,000	-0,043	-0,094
-83,899	6,023	-0,063	-0,033
-82,884	-200,000	-0,008	0,077
-81,870	142,606	0,056	-0,053
-80,855	-200,000	0,005	0,075
-79,840	-66,513	-0,045	0,013
-78,826	800,000	-0,012	0,037
-77,811	606,791	-0,078	-0,139
-76,797	674,431	-0,029	-0,054
-75,782	-90,351	0,084	0,017
-74,767	-200,000	0,015	0,133
-73,753	-200,000	-0,012	-0,058
-72,738	259,881	-0,047	0,058
-71,724	-125,315	-0,065	-0,007
-70,709	88,715	0,033	-0,026
-69,694	800,000	0,015	0,040
-68,680	-27,154	0,070	0,029
-67,665	208,358	0,017	-0,019
-66,651	159,299	0,009	0,008
-65,636	800,000	-0,037	0,094
-64,622	-91,650	-0,158	0,032
-63,607	-191,432	-0,077	-0,001
-62,592	201,598	0,093	-0,102
-61,578	-106,620	-0,107	0,017
-60,563	800,000	0,059	-0,123
-59,549	370,904	-0,040	0,057
-58,534	-22,840	-1,707	-0,727
-57,519	434,169	-1,335	-2,062
-56,505	-200,000	-0,489	-4,585
-55,490	197,651	1,120	1,213
-54,476	800,000	4,809	11,060
-53,461	-200,000	19,092	316,364
-52,446	-200,000	740,163	2332,920
-51,432	575,480	1656,008	2875,671
-50,417	78,917	1671,564	1266,097
-49,403	21,682	1544,285	888,211
-48,388	15,554	1466,815	813,837
-47,373	17,924	1456,954	819,795
-46,359	16,793	1446,918	808,690
-45,344	13,839	1442,208	791,864
-44,330	13,740	1440,408	790,371
-43,315	13,718	1438,724	789,310
-42,300	13,778	1436,874	788,552
-41,286	13,796	1435,758	787,991
-40,271	13,714	1434,444	786,847
-39,257	13,725	1433,331	786,258
-38,242	13,783	1431,773	785,649
-37,227	13,816	1430,677	785,177
-36,213	13,765	1429,376	784,187
-35,198	13,789	1428,222	783,635
-34,184	13,831	1427,308	783,303
-33,169	13,761	1426,105	782,279
-32,154	13,795	1424,804	781,696
-31,140	13,809	1423,660	781,105
-30,125	13,818	1422,710	780,594
-29,111	13,824	1421,355	779,847
-28,096	13,811	1420,221	779,136
-27,082	13,700	1419,146	777,988
-26,067	13,693	1418,157	777,383
-25,052	13,693	1417,042	776,744
-24,038	13,708	1415,988	776,203
-23,023	13,695	1415,060	775,605
-22,009	13,680	1414,014	774,928
-20,994	13,630	1413,145	774,186
-19,979	13,645	1412,107	773,657
-18,965	13,706	1411,102	773,362
-17,950	13,658	1410,386	772,716
-16,936	13,650	1409,401	772,105
-15,921	13,654	1408,211	771,442
-14,906	13,607	1407,408	770,751
-13,892	13,655	1406,266	770,321
-12,877	13,635	1405,601	769,831
-11,863	13,590	1404,764	769,133
-10,848	13,622	1403,676	768,655
-9,833	13,589	1402,744	767,959
-8,819	13,579	1402,013	767,485
-7,804	13,520	1401,308	766,795
-6,790	13,556	1399,761	766,083
-5,775	13,519	1398,991	765,461
-4,760	13,508	1398,129	764,907
-3,746	13,523	1397,329	764,507
-2,731	13,525	1396,375	763,964
-1,717	13,513	1395,587	763,446
-0,702	13,521	1393,905	762,535
0,313	17,235	1311,112	734,505
1,327	33,312	704,827	432,079
2,342	51,328	123,590	82,928
3,356	1,681	16,684	8,478
4,371	-6,257	3,201	1,541
5,386	-50,353	0,535	0,178
6,400	446,791	0,178	0,277
7,415	369,943	-0,184	-0,265
8,429	88,062	-0,293	-0,230
9,444	96,267	-0,318	-0,257
10,459	-111,011	-0,345	-0,050
11,473	68,729	-0,332	-0,241
12,488	72,864	-0,224	-0,165
13,502	-11,261	-0,393	-0,182
14,517	143,329	-0,202	-0,191
15,531	224,597	-0,217	-0,248
16,546	78,681	-0,086	-0,065
17,561	226,410	-0,311	-0,357
18,575	159,212	-0,204	-0,200
19,590	86,183	-0,249	-0,193
20,604	39,393	-0,198	-0,125
21,619	257,874	-0,321	-0,391
22,634	279,147	-0,280	-0,354
23,648	172,370	-0,337	-0,343
24,663	230,473	-0,265	-0,307
25,677	23,607	-0,294	-0,171
26,692	37,363	-0,386	-0,241
27,707	125,831	-0,234	-0,209
28,721	2,243	-0,375	-0,191
29,736	215,388	-0,346	-0,388
30,750	126,089	-0,444	-0,397
31,765	114,309	-0,402	-0,346
32,780	101,540	-0,327	-0,269
33,794	35,644	-0,379	-0,235
34,809	81,143	-0,336	-0,256
35,823	95,074	-0,419	-0,337
36,838	273,938	-0,316	-0,396
37,853	17,565	-0,476	-0,266
38,867	359,726	-0,300	-0,424
39,882	56,438	-0,368	-0,252
40,896	119,811	-0,242	-0,212
41,911	117,326	-0,253	-0,219
42,926	47,196	-0,435	-0,285
43,940	90,203	-0,397	-0,313
44,955	440,673	-0,194	-0,300
45,969	75,161	-0,422	-0,314
46,984	36,071	-0,299	-0,185
47,999	249,284	-0,284	-0,340
49,013	80,446	-0,359	-0,272
50,028	120,974	-0,227	-0,199
51,042	-102,171	-0,510	-0,086
52,057	70,363	-0,373	-0,272
53,071	800,000	-0,240	-0,478
54,086	140,787	-0,378	-0,352
55,101	158,712	-0,294	-0,288
56,115	133,261	-0,417	-0,380
57,130	26,494	-0,392	-0,230
58,144	101,047	-0,313	-0,256
59,159	318,786	-0,287	-0,385
60,174	230,493	-0,280	-0,323
61,188	116,477	-0,285	-0,246
62,203	-11,823	-0,401	-0,185
63,217	12,272	-0,407	-0,220
64,232	91,108	-0,389	-0,307
65,247	32,275	-0,295	-0,179
66,261	44,957	-0,349	-0,226
67,276	57,474	-0,358	-0,246
68,290	705,545	-0,200	-0,374
69,305	-52,978	-0,450	-0,145
70,320	21,997	-0,234	-0,134
71,334	10,474	-0,339	-0,181
72,349	56,626	-0,317	-0,217
73,363	135,104	-0,238	-0,218
74,378	62,854	-0,352	-0,247
75,393	116,404	-0,267	-0,230
76,407	39,869	-0,341	-0,215
77,422	49,551	-0,363	-0,240
78,436	97,375	-0,232	-0,187
79,451	-40,585	-0,322	-0,117
80,466	-28,292	-0,428	-0,173
81,480	12,127	-0,412	-0,222
82,495	95,151	-0,211	-0,169
83,509	8,225	-0,267	-0,141
84,524	-54,922	-0,318	-0,100
85,539	-142,684	-0,308	-0,021
86,553	21,897	-0,255	-0,146
87,568	66,325	-0,281	-0,200
88,582	143,780	-0,267	-0,250
89,597	-130,681	-0,361	-0,034
90,611	800,000	-0,170	-0,336
91,626	83,024	-0,216	-0,165
92,641	-23,153	-0,232	-0,098
93,655	63,360	-0,379	-0,267
94,670	-39,574	-0,234	-0,085
95,684	37,119	-0,293	-0,182
96,699	50,331	-0,272	-0,180
97,714	126,443	-0,207	-0,184
98,728	121,090	-0,277	-0,242
99,743	279,815	-0,166	-0,209
100,757	252,776	-0,142	-0,171
101,772	134,531	-0,262	-0,238
102,787	184,791	-0,297	-0,310
103,801	242,843	-0,280	-0,330
104,816	-49,645	-0,201	-0,067
105,830	-55,750	-0,206	-0,064
106,845	-141,996	-0,174	-0,012
107,860	445,720	-0,163	-0,252
108,874	-168,716	-0,187	-0,005
109,889	175,599	-0,328	-0,334
110,903	70,016	-0,313	-0,226
111,918	147,417	-0,204	-0,193
112,933	237,956	-0,264	-0,308
113,947	61,271	-0,339	-0,236
114,962	-39,135	-0,289	-0,106
115,976	-9,080	-0,216	-0,101
116,991	102,716	-0,323	-0,264
118,006	63,340	-0,111	-0,078
119,020	45,509	-0,248	-0,160
120,035	98,277	-0,166	-0,134
121,049	167,918	-0,177	-0,176
122,064	166,205	-0,201	-0,199
123,079	113,597	-0,250	-0,213
124,093	128,915	-0,370	-0,331
125,108	104,833	-0,256	-0,211
126,122	-35,334	-0,257	-0,097
127,137	1,428	-0,199	-0,100
128,151	70,608	-0,180	-0,130
129,166	399,724	-0,140	-0,207
130,181	363,289	-0,187	-0,264
131,195	-29,187	-0,208	-0,083
132,210	65,266	-0,269	-0,190
133,224	461,582	-0,199	-0,312
134,239	1,741	-0,218	-0,110
135,254	15,383	-0,259	-0,142
136,268	-27,579	-0,259	-0,105
137,283	-120,282	-0,355	-0,042
138,297	297,044	-0,173	-0,222
139,312	-26,821	-0,348	-0,142
140,327	-11,482	-0,235	-0,108
141,341	108,098	-0,134	-0,112
142,356	-35,277	-0,211	-0,080
143,370	-66,940	-0,203	-0,056
144,385	47,976	-0,249	-0,163
145,400	-64,879	-0,391	-0,110
146,414	133,657	-0,169	-0,153
147,429	112,408	-0,251	-0,212
148,443	116,659	-0,254	-0,218
149,458	278,527	-0,196	-0,245
150,473	251,643	-0,211	-0,252
151,487	25,520	-0,195	-0,113
152,502	31,368	-0,256	-0,153
153,516	148,541	-0,255	-0,240
154,531	109,426	-0,240	-0,201
155,546	-98,715	-0,258	-0,045
156,560	79,345	-0,258	-0,193
157,575	160,495	-0,225	-0,219
158,589	-130,159	-0,115	-0,011
159,604	-67,799	-0,214	-0,058
160,619	68,612	-0,323	-0,231
161,633	4,074	-0,162	-0,082
162,648	-147,412	-0,115	0,007
163,662	227,936	-0,183	-0,209
164,677	6,759	-0,173	-0,090
165,692	91,486	-0,206	-0,161
166,706	522,055	-0,154	-0,252
167,721	216,922	-0,156	-0,174
168,735	66,636	-0,329	-0,233
169,750	65,009	-0,259	-0,182
170,764	-170,058	-0,177	0,004
171,779	143,396	-0,160	-0,149
172,794	556,370	-0,181	-0,306
173,808	51,299	-0,193	-0,128
174,823	756,629	-0,120	-0,227
175,837	195,477	-0,273	-0,290
176,852	-109,408	-0,184	-0,027
177,867	71,236	-0,227	-0,164
178,881	171,479	-0,166	-0,167
179,896	152,107	-0,171	-0,162
180,910	99,175	-0,240	-0,194
181,925	75,802	-0,227	-0,167
182,940	220,765	-0,295	-0,330
183,954	182,477	-0,254	-0,261
184,969	-110,052	-0,272	0,039
185,983	47,977	-0,184	-0,119
186,998	163,234	-0,084	-0,082
188,013	-3,750	-0,222	-0,107
189,027	-31,474	-0,167	-0,065
190,042	60,182	-0,242	-0,166
191,056	-27,073	-0,252	-0,102
192,071	64,779	-0,274	-0,192
193,086	205,090	-0,128	-0,139
194,100	-149,541	-0,271	0,015
195,115	-7,166	-0,226	-0,107
196,129	-90,664	-0,298	-0,059
197,144	-29,197	-0,266	-0,106
198,159	-30,656	-0,213	-0,083
199,173	-10,293	-0,163	-0,075
200,188	-174,352	-0,242	0,005
201,202	-1,795	-0,206	-0,101
202,217	-95,060	-0,141	-0,026
203,232	158,282	-0,189	-0,182
204,246	-18,803	-0,267	-0,115
205,261	436,489	-0,142	-0,215
206,275	-11,974	-0,140	-0,063
207,290	158,354	-0,155	-0,149
208,304	252,735	-0,140	-0,167
209,319	16,067	-0,164	-0,090
210,334	157,975	-0,221	-0,213
211,348	6,014	-0,286	-0,147
212,363	125,675	-0,139	-0,122
213,377	255,434	-0,205	-0,245
214,392	40,097	-0,242	-0,151
215,407	220,877	-0,246	-0,275
216,421	39,091	-0,117	-0,072
217,436	-200,000	-0,024	-0,074
218,450	800,000	-0,099	-0,282
219,465	-200,000	-0,042	-0,158
220,480	382,569	-0,141	-0,201
221,494	800,000	-0,055	-0,119
222,509	-185,970	-0,129	-0,001
223,523	177,014	-0,252	-0,255
224,538	-61,609	-0,231	-0,067
225,553	-146,489	-0,321	-0,019
226,567	-36,999	-0,163	-0,060
227,582	114,447	-0,184	-0,155
228,596	-36,368	-0,193	-0,072
229,611	490,136	-0,064	-0,102
230,626	182,821	-0,182	-0,186
231,640	202,320	-0,200	-0,215
232,655	-77,408	-0,241	-0,058
233,669	800,000	-0,125	-0,338
234,684	115,924	-0,207	-0,176
235,699	-200,000	-0,069	-0,240
236,713	202,244	-0,179	-0,191
237,728	37,499	-0,175	-0,107
238,742	53,500	-0,087	-0,057
239,757	-29,431	-0,287	-0,113
240,772	187,851	-0,096	-0,100
241,786	107,021	-0,208	-0,171
242,801	77,925	-0,210	-0,155
243,815	800,000	-0,102	-0,263
244,830	-111,148	-0,210	-0,029
245,844	585,436	-0,157	-0,269
246,859	692,754	-0,083	-0,151
247,874	40,162	-0,223	-0,139
248,888	-89,698	-0,211	-0,043
249,903	-5,777	-0,143	-0,068
250,917	-39,439	-0,130	-0,047
251,932	239,657	-0,125	-0,145
252,947	15,205	-0,174	-0,094
253,961	116,440	-0,146	-0,124
254,976	-42,096	-0,182	-0,064
255,990	99,790	-0,138	-0,110
257,005	377,236	-0,034	-0,048
258,020	800,000	-0,063	-0,127
259,034	442,659	-0,102	-0,155
260,049	344,482	-0,177	-0,242
261,063	-12,832	-0,170	-0,076
262,078	227,148	-0,157	-0,177
263,093	459,424	-0,148	-0,229
264,107	800,000	-0,141	-0,274
265,122	204,027	-0,174	-0,187
266,136	93,413	-0,173	-0,136
267,151	530,874	-0,128	-0,210
268,166	106,180	-0,161	-0,132
269,180	99,942	-0,252	-0,202
270,195	52,045	-0,254	-0,167
271,209	-146,264	-0,157	-0,009
272,224	104,861	-0,166	-0,135
273,239	-136,071	-0,220	0,018
274,253	-200,000	-0,042	-0,220
275,268	50,421	-0,076	-0,050
276,282	800,000	-0,129	-0,249
277,297	112,582	-0,145	-0,122
278,312	-200,000	-0,052	-0,222
279,326	116,227	-0,115	-0,098
280,341	800,000	0,015	-0,036
281,355	54,121	-0,156	-0,104
282,370	375,251	-0,081	-0,114
283,384	21,442	-0,227	-0,127
284,399	68,970	-0,164	-0,116
285,414	109,890	-0,186	-0,154
286,428	-72,311	-0,067	-0,017
287,443	585,652	-0,065	-0,110
288,457	56,633	-0,137	-0,092
289,472	-142,703	-0,122	-0,008
290,487	-2,209	-0,254	-0,122
291,501	-145,094	-0,168	0,010
292,516	301,238	-0,123	-0,157
293,530	521,063	-0,087	-0,141
294,545	-19,491	-0,147	-0,062
295,560	-69,152	-0,172	-0,045
296,574	-115,115	-0,161	0,021
297,589	-154,078	-0,192	-0,009
298,603	223,884	-0,107	-0,120
299,618	43,270	-0,157	-0,099
300,633	58,300	-0,081	-0,055
301,647	-185,314	-0,187	-0,002
302,662	39,694	-0,146	-0,090
303,676	253,165	-0,060	-0,071
304,691	-40,512	-0,126	-0,045
305,706	63,911	-0,154	-0,107
306,720	800,000	-0,068	-0,182
307,735	67,292	-0,112	-0,079
308,749	671,660	-0,094	-0,168
309,764	18,448	-0,141	-0,078
310,779	-200,000	-0,031	-0,095
311,793	785,550	-0,117	-0,222
312,808	397,791	-0,166	-0,240
313,822	800,000	-0,126	-0,242
314,837	96,546	-0,202	-0,159
315,852	-107,926	-0,111	-0,017
316,866	800,000	-0,082	-0,175
317,881	616,341	-0,041	0,070
318,895	-56,988	-0,218	-0,066
319,910	10,265	-0,276	-0,144
320,925	528,754	-0,100	-0,163
321,939	218,611	-0,179	-0,197
322,954	-71,031	-0,152	-0,039
323,968	-144,530	-0,155	0,010
324,983	-78,945	-0,205	-0,048
325,997	800,000	-0,085	-0,182
327,012	198,838	-0,109	-0,115
328,027	558,701	-0,103	-0,172
329,041	226,879	-0,114	-0,128
330,056	800,000	-0,079	-0,155
331,070	-115,038	-0,211	-0,027
332,085	3,571	-0,213	-0,106
333,100	-131,827	-0,113	-0,010
334,114	220,322	-0,161	-0,178
335,129	144,907	-0,276	-0,254
336,143	-1,475	-0,122	-0,059
337,158	-116,158	-0,088	0,011
338,173	-200,000	-0,038	-0,156
339,187	250,657	-0,041	-0,047
340,202	407,034	-0,031	0,045
341,216	-41,118	-0,199	-0,070
342,231	-200,000	0,006	-0,131
343,246	-114,407	-0,067	0,009
344,260	123,348	-0,147	-0,126
345,275	202,152	-0,123	-0,130
346,289	-86,265	-0,068	0,014
347,304	47,948	-0,200	-0,128
348,319	-48,591	-0,075	-0,025
349,333	-37,555	-0,179	-0,065
350,348	14,576	-0,154	-0,082
351,362	-103,879	-0,175	-0,028
352,377	590,904	-0,045	-0,077
353,392	-87,768	-0,207	0,043
354,406	32,305	-0,121	-0,071
355,421	207,988	1315,001	1411,584
356,435	160,017	1475,763	1412,076
