DTS Sentinel unit serial number:	SN410029Multiplexer serial number:	ORYXHardware model number:	OX2-SRSoftware version number:	ORYX F/W v4,00 Oryx Data Collector v3.7.2.0data status	okinstallation	B3 Nyhavnadifferential loss correction	single-endedforward channel	channel 1reverse channel	N/Adate	2023/12/04time	15:57:30forward acquisition time	300,00reverse acquisition time	0,00gamma	499,1914k internal	0,3200k external	0,3200temperature offset calibration	1,0000default loss term (dB/km)	0,3820temperature slope calibration	1,0000multiplexer offset coefficient	1,0000multiplexer slope coefficient	1,0000fibre end	0,00T internal ref (°C)	15,18T ext. ref 1 (°C)	0,35T ext. ref 2 (°C)	0,34length (m)	temperature (°C)	Stokes	anti-Stokes-744,400	467,880	-0,175	-0,287
-743,385	-200,000	0,076	0,333
-742,371	621,990	-0,108	-0,199
-741,356	800,000	0,115	0,261
-740,342	37,070	-0,244	-0,157
-739,327	800,000	0,088	0,218
-738,312	181,462	-0,202	-0,217
-737,298	800,000	0,125	0,312
-736,283	190,708	-0,193	-0,211
-735,269	388,813	0,240	0,362
-734,254	140,163	-0,243	-0,233
-733,239	491,139	-0,156	0,260
-732,225	-20,219	-0,247	-0,110
-731,210	181,951	0,166	0,178
-730,196	-93,428	-0,020	0,004
-729,181	-55,008	-0,053	0,017
-728,167	-200,000	-0,017	0,065
-727,152	-81,327	-0,145	-0,035
-726,137	-59,254	-0,095	0,030
-725,123	432,679	0,042	0,067
-724,108	103,192	-0,148	-0,126
-723,094	448,248	-0,107	-0,172
-722,079	-200,000	-0,031	-0,199
-721,064	-149,556	0,120	-0,007
-720,050	709,481	-0,036	-0,070
-719,035	800,000	-0,042	-0,090
-718,021	-200,000	-0,025	-0,089
-717,006	800,000	-0,053	-0,134
-715,991	-200,000	-0,004	-0,043
-714,977	57,279	-0,069	-0,049
-713,962	-200,000	0,039	-0,191
-712,948	-149,408	0,076	-0,004
-711,933	-147,192	-0,077	-0,005
-710,918	-99,219	-0,124	0,023
-709,904	-57,097	-0,149	-0,047
-708,889	-200,000	-0,027	-0,088
-707,875	315,874	0,049	-0,068
-706,860	-118,564	-0,138	0,018
-705,845	-200,000	-0,011	-0,086
-704,831	136,910	0,053	0,051
-703,816	753,474	0,075	-0,148
-702,802	171,671	0,054	0,056
-701,787	-200,000	0,026	-0,135
-700,772	-200,000	-0,004	-0,019
-699,758	187,505	0,045	-0,049
-698,743	120,708	0,107	-0,097
-697,729	121,383	0,102	0,092
-696,714	149,997	0,089	0,088
-695,699	1,307	0,104	0,054
-694,685	252,149	0,055	0,068
-693,670	-200,000	-0,014	-0,148
-692,656	800,000	0,024	-0,065
-691,641	-200,000	-0,007	-0,125
-690,627	296,154	-0,024	-0,032
-689,612	800,000	-0,020	-0,044
-688,597	-200,000	-0,014	-0,124
-687,583	800,000	-0,047	-0,106
-686,568	-96,775	0,045	-0,009
-685,554	-200,000	-0,009	0,080
-684,539	50,099	0,099	0,068
-683,524	800,000	0,022	0,066
-682,510	-114,071	-0,051	0,007
-681,495	800,000	-0,027	-0,068
-680,481	800,000	0,033	-0,075
-679,466	-200,000	-0,006	-0,062
-678,451	-200,000	-0,006	-0,118
-677,437	-200,000	0,006	0,057
-676,422	800,000	0,079	0,216
-675,408	800,000	-0,008	0,023
-674,393	145,494	0,075	-0,073
-673,378	-4,861	-0,021	0,010
-672,364	-109,980	-0,114	0,017
-671,349	554,637	0,100	-0,175
-670,335	-25,444	-0,050	-0,021
-669,320	-200,000	-0,019	0,114
-668,305	-200,000	0,009	0,040
-667,291	-200,000	0,020	-0,135
-666,276	800,000	-0,058	-0,148
-665,262	185,999	0,100	-0,107
-664,247	101,237	-0,015	-0,013
-663,232	-165,300	-0,032	-0,001
-662,218	137,451	-0,048	0,046
-661,203	-200,000	0,026	0,105
-660,189	502,020	-0,056	0,095
-659,174	35,585	-0,019	-0,012
-658,159	-38,740	0,066	0,025
-657,145	-139,558	-0,173	-0,013
-656,130	-42,316	-0,041	0,015
-655,116	304,942	-0,111	0,150
-654,101	273,434	0,122	-0,156
-653,086	47,138	-0,105	0,070
-652,072	-48,651	-0,102	-0,035
-651,057	-200,000	0,007	-0,073
-650,043	208,165	-0,045	0,051
-649,028	112,847	0,111	-0,098
-648,014	75,374	0,112	0,085
-646,999	288,601	-0,014	-0,019
-645,984	-124,848	0,156	-0,017
-644,970	-200,000	0,028	0,105
-643,955	-119,330	-0,070	-0,009
-642,941	-96,148	-0,180	-0,034
-641,926	-200,000	-0,032	0,123
-640,911	-25,893	-0,054	0,023
-639,897	-23,554	0,062	-0,027
-638,882	800,000	0,014	0,035
-637,868	6,222	0,101	-0,054
-636,853	104,681	-0,064	-0,055
-635,838	718,491	0,034	0,066
-634,824	-200,000	0,009	0,081
-633,809	338,157	0,056	0,079
-632,795	-123,682	-0,032	-0,004
-631,780	-6,565	-0,036	0,018
-630,765	-200,000	0,032	0,115
-629,751	800,000	-0,016	-0,038
-628,736	-200,000	0,072	-0,281
-627,722	-200,000	0,002	-0,031
-626,707	225,753	-0,045	-0,053
-625,692	-175,675	-0,018	0,000
-624,678	-200,000	-0,027	0,122
-623,663	88,290	-0,051	-0,041
-622,649	-4,949	-0,048	0,024
-621,634	-26,910	-0,013	-0,005
-620,619	-79,746	0,090	-0,022
-619,605	32,394	0,085	-0,053
-618,590	800,000	-0,053	0,129
-617,576	-72,067	-0,057	0,015
-616,561	800,000	-0,006	-0,017
-615,546	800,000	-0,020	-0,055
-614,532	465,205	-0,088	-0,143
-613,517	212,695	-0,057	-0,065
-612,503	-84,694	-0,071	0,016
-611,488	298,735	0,070	-0,093
-610,474	-200,000	0,001	-0,035
-609,459	172,979	-0,092	-0,096
-608,444	-116,640	0,063	-0,008
-607,430	429,503	0,019	-0,029
-606,415	-66,334	-0,094	0,027
-605,401	800,000	-0,038	-0,084
-604,386	218,327	0,051	-0,058
-603,371	-7,882	-0,083	0,040
-602,357	-200,000	0,024	0,099
-601,342	-103,249	0,047	0,008
-600,328	39,997	-0,177	-0,115
-599,313	-120,749	-0,104	-0,013
-598,298	34,808	0,052	0,033
-597,284	149,198	0,063	0,062
-596,269	80,221	-0,092	0,072
-595,255	800,000	-0,018	-0,053
-594,240	410,862	-0,018	0,028
-593,225	77,716	0,099	-0,076
-592,211	-134,779	0,091	-0,008
-591,196	67,374	-0,147	-0,108
-590,182	-191,289	-0,034	-0,000
-589,167	800,000	-0,084	0,210
-588,152	-200,000	-0,012	0,051
-587,138	-44,323	-0,097	-0,035
-586,123	223,649	0,059	0,070
-585,109	-200,000	0,036	-0,176
-584,094	-159,572	-0,058	-0,002
-583,079	-145,302	-0,030	0,002
-582,065	300,051	-0,041	-0,054
-581,050	4,242	0,130	0,069
-580,036	188,192	0,047	-0,051
-579,021	800,000	0,010	-0,023
-578,006	-63,900	-0,118	0,035
-576,992	-138,273	-0,056	0,004
-575,977	128,423	0,106	0,098
-574,963	-127,120	0,102	0,011
-573,948	-33,353	-0,099	0,040
-572,934	444,445	-0,028	0,044
-571,919	-59,461	-0,042	0,013
-570,904	614,782	-0,042	-0,077
-569,890	-13,233	-0,077	0,036
-568,875	-200,000	0,001	-0,012
-567,861	10,259	0,074	-0,040
-566,846	-200,000	-0,014	-0,092
-565,831	800,000	0,072	0,187
-564,817	-6,469	-0,108	0,053
-563,802	372,876	-0,133	-0,196
-562,788	800,000	0,046	-0,133
-561,773	91,220	0,099	-0,081
-560,758	97,478	0,081	0,067
-559,744	-104,797	0,003	-0,001
-558,729	17,568	0,090	0,052
-557,715	-192,857	0,030	0,000
-556,700	800,000	-0,034	-0,105
-555,685	-34,119	0,153	-0,061
-554,671	116,659	-0,089	-0,079
-553,656	3,350	0,071	0,037
-552,642	800,000	-0,011	0,036
-551,627	201,584	0,098	0,109
-550,612	-9,120	-0,159	-0,076
-549,598	-200,000	0,009	-0,215
-548,583	-200,000	-0,001	0,111
-547,569	800,000	-0,068	-0,149
-546,554	18,639	0,086	-0,049
-545,539	-106,950	0,049	-0,008
-544,525	55,941	0,152	0,106
-543,510	15,944	0,084	0,047
-542,496	-200,000	0,000	-0,011
-541,481	-200,000	0,009	-0,072
-540,466	137,077	-0,017	0,016
-539,452	-5,370	0,111	-0,055
-538,437	-181,114	0,099	-0,001
-537,423	574,204	-0,016	-0,029
-536,408	-200,000	0,015	-0,053
-535,393	-200,000	0,017	-0,108
-534,379	-200,000	0,001	-0,082
-533,364	-200,000	0,006	-0,032
-532,350	10,235	0,125	0,068
-531,335	-200,000	-0,031	0,142
-530,321	173,011	-0,080	-0,083
-529,306	289,157	-0,023	0,030
-528,291	31,728	-0,081	0,050
-527,277	-135,530	0,093	-0,008
-526,262	132,683	-0,069	-0,064
-525,248	-47,249	-0,044	-0,015
-524,233	-183,116	0,138	-0,002
-523,218	-29,167	-0,146	0,060
-522,204	378,246	0,070	0,104
-521,189	4,970	-0,146	0,077
-520,175	127,145	-0,055	0,051
-519,160	-86,017	0,068	0,015
-518,145	13,494	0,035	-0,020
-517,131	266,572	0,032	-0,040
-516,116	432,661	0,015	0,023
-515,102	800,000	-0,015	0,044
-514,087	571,666	0,055	0,097
-513,072	-200,000	0,032	-0,106
-512,058	86,023	-0,092	-0,073
-511,043	46,604	0,131	-0,087
-510,029	-147,700	0,107	-0,006
-509,014	-4,484	0,081	-0,040
-507,999	-113,575	-0,008	-0,001
-506,985	296,029	-0,036	0,047
-505,970	-133,165	-0,169	0,015
-504,956	184,163	0,034	-0,036
-503,941	-200,000	-0,011	0,084
-502,926	386,420	-0,045	0,067
-501,912	-72,640	0,135	0,036
-500,897	167,090	0,022	0,023
-499,883	35,505	-0,053	-0,033
-498,868	-156,667	0,141	-0,006
-497,853	-6,678	-0,058	-0,028
-496,839	-10,206	-0,052	0,025
-495,824	-12,466	0,052	0,024
-494,810	-200,000	-0,039	0,173
-493,795	-200,000	-0,009	0,154
-492,781	-200,000	0,016	-0,071
-491,766	-200,000	-0,004	0,129
-490,751	118,077	-0,097	0,086
-489,737	-20,498	0,149	0,066
-488,722	800,000	0,033	0,097
-487,708	-27,163	0,141	0,059
-486,693	798,472	-0,053	-0,107
-485,678	16,586	-0,056	0,032
-484,664	-22,859	-0,122	0,053
-483,649	308,204	-0,109	-0,148
-482,635	210,839	-0,096	-0,109
-481,620	-200,000	-0,021	0,084
-480,605	7,441	-0,068	-0,037
-479,591	69,253	0,056	0,041
-478,576	370,883	0,027	0,040
-477,562	565,799	-0,022	-0,038
-476,547	-88,701	-0,003	0,001
-475,532	2,979	-0,119	-0,062
-474,518	606,665	0,094	0,170
-473,503	28,533	0,069	0,042
-472,489	-200,000	0,003	0,045
-471,474	228,998	0,028	0,033
-470,459	62,219	0,080	-0,057
-469,445	800,000	-0,034	-0,082
-468,430	-80,479	-0,089	0,021
-467,416	800,000	-0,024	-0,066
-466,401	370,124	0,056	-0,082
-465,386	800,000	-0,063	0,141
-464,372	6,525	-0,077	0,041
-463,357	799,674	-0,060	-0,120
-462,343	137,897	-0,040	-0,038
-461,328	745,624	-0,026	-0,050
-460,313	-138,747	0,051	0,004
-459,299	-200,000	-0,006	0,089
-458,284	332,337	0,029	-0,040
-457,270	451,512	-0,090	0,143
-456,255	122,576	0,057	-0,051
-455,241	600,259	-0,065	-0,117
-454,226	-129,063	-0,201	-0,020
-453,211	-26,114	0,112	-0,047
-452,197	-97,860	-0,130	-0,024
-451,182	-123,925	0,202	0,023
-450,168	117,607	-0,074	0,065
-449,153	-8,899	-0,131	-0,063
-448,138	-116,352	-0,117	-0,015
-447,124	-200,000	0,051	-0,205
-446,109	-31,817	0,056	0,022
-445,095	-200,000	0,008	0,071
-444,080	-146,722	0,064	-0,004
-443,065	17,369	0,021	0,012
-442,051	305,508	-0,057	-0,076
-441,036	-72,201	-0,097	-0,026
-440,022	-200,000	-0,030	-0,163
-439,007	103,694	0,091	-0,077
-437,992	53,107	-0,037	0,025
-436,978	-200,000	-0,007	-0,046
-435,963	46,473	-0,038	0,025
-434,949	111,502	-0,131	-0,114
-433,934	474,250	-0,083	-0,135
-432,919	-21,169	-0,052	0,023
-431,905	56,552	-0,045	-0,031
-430,890	-19,485	0,075	0,033
-429,876	-200,000	-0,004	-0,061
-428,861	-63,117	0,067	-0,020
-427,846	-200,000	-0,017	-0,144
-426,832	800,000	0,030	-0,086
-425,817	202,468	-0,107	-0,118
-424,803	-200,000	0,028	-0,208
-423,788	800,000	0,039	0,110
-422,773	468,629	0,032	0,052
-421,759	-200,000	0,035	0,183
-420,744	243,077	-0,049	0,060
-419,730	98,822	0,177	-0,147
-418,715	541,567	-0,018	-0,032
-417,701	-200,000	-0,006	0,040
-416,686	139,517	-0,066	-0,062
-415,671	-128,668	0,102	-0,010
-414,657	17,527	-0,084	0,048
-413,642	354,798	-0,044	0,064
-412,628	-200,000	-0,014	0,062
-411,613	218,614	0,033	0,037
-410,598	-82,410	-0,084	0,019
-409,584	-0,154	-0,054	0,028
-408,569	57,539	0,062	-0,043
-407,555	-99,763	0,099	0,018
-406,540	54,978	-0,140	0,097
-405,525	42,414	-0,170	0,111
-404,511	39,187	0,067	0,043
-403,496	-77,894	-0,086	-0,021
-402,482	40,848	-0,036	-0,023
-401,467	-32,398	0,027	0,011
-400,452	-80,948	-0,066	0,016
-399,438	-200,000	0,009	0,094
-398,423	305,487	0,018	-0,024
-397,409	-200,000	0,011	-0,058
-396,394	427,962	-0,028	-0,043
-395,379	-200,000	0,005	0,017
-394,365	239,779	0,127	0,152
-393,350	-119,331	0,083	0,010
-392,336	800,000	-0,024	0,052
-391,321	-200,000	-0,003	-0,101
-390,306	-38,129	0,078	-0,030
-389,292	800,000	0,086	-0,173
-388,277	93,333	-0,167	0,135
-387,263	194,113	0,126	0,137
-386,248	-200,000	-0,073	0,250
-385,233	358,163	-0,072	0,104
-384,219	-200,000	-0,041	-0,167
-383,204	515,500	-0,073	0,122
-382,190	-200,000	0,046	-0,162
-381,175	800,000	-0,069	-0,182
-380,160	67,334	0,175	0,128
-379,146	-111,816	0,191	-0,027
-378,131	-18,445	-0,122	-0,055
-377,117	-57,500	-0,095	-0,030
-376,102	40,326	0,068	-0,044
-375,088	-15,706	-0,179	-0,081
-374,073	3,308	-0,099	0,052
-373,058	100,819	-0,072	-0,060
-372,044	-200,000	0,006	-0,040
-371,029	41,599	0,150	0,097
-370,015	-159,818	-0,084	0,003
-369,000	31,470	-0,128	0,078
-367,985	-200,000	-0,006	0,140
-366,971	800,000	-0,012	0,030
-365,956	-181,544	0,055	-0,001
-364,942	173,200	0,052	-0,053
-363,927	-131,341	-0,056	-0,005
-362,912	-79,565	0,130	0,031
-361,898	800,000	-0,017	0,052
-360,883	49,566	-0,058	-0,039
-359,869	-49,887	0,090	0,030
-358,854	-20,428	0,121	0,053
-357,839	59,702	0,130	0,092
-356,825	-200,000	0,004	-0,022
-355,810	316,639	-0,075	-0,101
-354,796	800,000	0,052	-0,112
-353,781	-200,000	-0,020	-0,155
-352,766	-125,608	0,040	-0,004
-351,752	800,000	0,031	0,085
-350,737	800,000	0,003	-0,008
-349,723	190,418	0,095	0,102
-348,708	329,953	-0,039	0,055
-347,693	361,802	0,066	0,095
-346,679	731,836	-0,022	0,043
-345,664	49,533	0,057	-0,038
-344,650	800,000	0,039	0,120
-343,635	800,000	0,040	0,120
-342,620	107,490	-0,097	0,082
-341,606	74,593	-0,043	0,032
-340,591	800,000	0,013	0,032
-339,577	800,000	0,052	0,136
-338,562	-200,000	-0,022	-0,079
-337,548	47,793	0,053	0,036
-336,533	-67,781	0,201	-0,056
-335,518	-54,629	-0,080	0,026
-334,504	-84,426	-0,086	-0,019
-333,489	-54,087	-0,125	0,041
-332,475	36,887	0,058	-0,036
-331,460	94,021	-0,036	-0,029
-330,445	364,847	-0,057	-0,083
-329,431	-31,647	-0,060	0,024
-328,416	127,931	0,091	-0,083
-327,402	800,000	0,017	-0,050
-326,387	170,055	0,083	0,085
-325,372	614,900	0,038	-0,068
-324,358	-200,000	0,025	-0,123
-323,343	219,071	0,068	-0,078
-322,329	34,010	0,068	0,042
-321,314	286,995	-0,027	-0,035
-320,299	30,531	-0,036	-0,022
-319,285	-138,832	-0,042	-0,003
-318,270	-22,332	-0,122	0,053
-317,256	521,306	0,027	-0,045
-316,241	-58,840	-0,094	-0,029
-315,226	24,845	0,061	0,036
-314,212	800,000	0,056	0,155
-313,197	107,894	-0,059	0,050
-312,183	47,212	0,177	-0,118
-311,168	-200,000	0,022	0,081
-310,153	-25,991	-0,133	-0,056
-309,139	716,233	0,055	-0,105
-308,124	-200,000	0,002	0,031
-307,110	-45,065	0,122	-0,043
-306,095	-43,485	0,048	-0,017
-305,080	188,617	0,097	-0,104
-304,066	-200,000	0,001	-0,022
-303,051	-104,702	0,089	-0,014
-302,037	442,272	-0,019	-0,030
-301,022	-121,991	0,045	-0,005
-300,008	303,887	-0,045	0,060
-298,993	221,169	-0,032	-0,036
-297,978	-200,000	-0,014	0,103
-296,964	110,781	0,059	0,050
-295,949	-14,425	0,129	0,059
-294,935	3,665	-0,182	0,095
-293,920	66,375	0,071	0,051
-292,905	-38,613	0,119	-0,045
-291,891	800,000	0,070	-0,166
-290,876	27,179	0,048	0,029
-289,862	-46,445	0,116	0,041
-288,847	-200,000	-0,021	0,106
-287,832	-14,787	-0,103	0,047
-286,818	-200,000	0,029	-0,148
-285,803	800,000	-0,030	-0,070
-284,789	116,378	0,080	-0,070
-283,774	-200,000	0,013	0,236
-282,759	-200,000	0,011	0,040
-281,745	30,723	-0,087	0,053
-280,730	-129,852	0,039	-0,004
-279,716	-45,652	-0,022	0,008
-278,701	-54,989	0,123	-0,039
-277,686	51,746	0,030	-0,021
-276,672	-200,000	-0,020	-0,134
-275,657	15,870	-0,031	0,017
-274,643	-74,139	-0,212	-0,054
-273,628	-200,000	-0,030	-0,112
-272,613	-192,817	-0,105	0,001
-271,599	264,751	0,024	0,030
-270,584	800,000	-0,060	0,144
-269,570	0,140	0,062	-0,032
-268,555	-78,966	0,096	0,023
-267,540	-200,000	0,034	-0,153
-266,526	30,642	-0,133	0,081
-265,511	-79,979	0,024	0,006
-264,497	-24,102	-0,035	0,015
-263,482	-136,888	0,151	-0,012
-262,467	371,630	-0,049	0,071
-261,453	12,169	0,218	0,120
-260,438	93,188	-0,058	0,047
-259,424	-166,840	0,070	0,002
-258,409	-89,074	-0,031	-0,007
-257,395	-200,000	-0,019	-0,132
-256,380	-200,000	-0,009	0,041
-255,365	800,000	0,036	0,106
-254,351	86,732	0,111	-0,088
-253,336	-200,000	0,019	-0,083
-252,322	-200,000	0,000	-0,038
-251,307	-200,000	-0,031	0,124
-250,292	-200,000	0,019	-0,098
-249,278	694,192	-0,011	0,021
-248,263	39,147	-0,082	0,052
-247,249	-103,578	-0,084	0,014
-246,234	112,064	-0,044	0,038
-245,219	-200,000	0,001	0,118
-244,205	-90,921	0,038	-0,008
-243,190	58,074	-0,088	-0,062
-242,176	-200,000	0,017	0,101
-241,161	-155,463	0,157	0,007
-240,146	800,000	-0,053	-0,106
-239,132	-200,000	-0,005	-0,112
-238,117	-44,228	-0,094	-0,034
-237,103	622,374	-0,010	-0,019
-236,088	-200,000	0,013	-0,127
-235,073	-164,270	0,029	0,001
-234,059	-47,116	0,075	0,026
-233,044	-200,000	0,010	0,074
-232,030	800,000	-0,071	-0,186
-231,015	-23,273	-0,081	0,035
-230,000	522,813	-0,060	-0,100
-228,986	-0,770	-0,019	-0,010
-227,971	-51,644	0,062	0,021
-226,957	-200,000	0,000	-0,002
-225,942	-4,724	-0,096	0,047
-224,927	-127,506	-0,080	-0,008
-223,913	800,000	-0,018	-0,041
-222,898	339,275	0,069	-0,096
-221,884	800,000	-0,023	0,049
-220,869	504,024	0,048	0,079
-219,855	96,910	-0,116	0,095
-218,840	-10,633	-0,060	-0,028
-217,825	118,080	0,047	0,041
-216,811	30,759	0,041	-0,025
-215,796	111,962	0,027	-0,023
-214,782	-149,546	0,034	-0,002
-213,767	126,228	-0,069	-0,062
-212,752	-200,000	-0,025	0,092
-211,738	-200,000	-0,005	0,021
-210,723	134,218	0,108	0,099
-209,709	800,000	-0,066	-0,136
-208,694	-200,000	0,008	-0,103
-207,679	800,000	0,041	-0,092
-206,665	-200,000	0,027	-0,113
-205,650	-46,326	0,071	-0,025
-204,636	18,384	0,051	0,029
-203,621	2,553	0,085	-0,044
-202,606	45,934	-0,089	-0,058
-201,592	800,000	-0,029	0,060
-200,577	800,000	-0,076	0,165
-199,563	-150,315	0,062	0,003
-198,548	229,464	0,090	-0,105
-197,533	-30,363	-0,101	-0,040
-196,519	177,447	-0,059	-0,062
-195,504	-34,384	0,026	-0,010
-194,490	-99,783	-0,026	-0,005
-193,475	158,495	-0,066	0,065
-192,460	-200,000	0,022	-0,082
-191,446	60,854	0,090	0,063
-190,431	-62,508	-0,021	0,006
-189,417	-200,000	-0,003	0,057
-188,402	-73,599	-0,178	0,046
-187,387	-43,833	0,118	-0,042
-186,373	29,849	-0,101	-0,061
-185,358	80,293	-0,061	-0,047
-184,344	-200,000	0,016	0,060
-183,329	6,596	-0,078	-0,041
-182,315	-136,077	0,118	-0,010
-181,300	533,160	0,075	0,128
-180,285	-36,186	-0,145	-0,055
-179,271	800,000	0,019	-0,058
-178,256	800,000	0,024	0,048
-177,242	76,145	0,066	0,050
-176,227	-152,508	0,103	0,005
-175,212	-200,000	-0,018	-0,095
-174,198	83,140	0,084	0,065
-173,183	276,629	-0,087	0,110
-172,169	130,547	-0,088	0,080
-171,154	-37,473	0,107	0,041
-170,139	-200,000	-0,021	0,114
-169,125	-156,004	0,010	0,000
-168,110	-81,274	0,030	-0,007
-167,096	800,000	-0,015	0,048
-166,081	278,991	-0,109	-0,139
-165,066	-200,000	-0,003	-0,126
-164,052	-200,000	0,003	0,063
-163,037	656,675	0,042	0,077
-162,023	-200,000	0,018	0,073
-161,008	9,068	0,061	0,033
-159,993	79,322	0,052	0,040
-158,979	800,000	-0,076	0,229
-157,964	26,204	0,030	0,018
-156,950	86,308	0,023	-0,018
-155,935	800,000	0,023	0,049
-154,920	800,000	0,065	0,145
-153,906	343,830	-0,074	0,103
-152,891	150,212	-0,034	-0,033
-151,877	29,870	0,027	0,016
-150,862	-3,254	-0,095	-0,047
-149,847	-127,792	-0,112	0,011
-148,833	631,378	0,027	-0,049
-147,818	-65,345	-0,043	-0,012
-146,804	-200,000	0,002	0,021
-145,789	-200,000	0,033	-0,181
-144,775	652,927	-0,069	-0,125
-143,760	-100,350	-0,078	0,014
-142,745	-13,847	0,066	0,030
-141,731	23,509	-0,098	-0,057
-140,716	-32,531	0,107	0,042
-139,702	28,731	-0,100	0,060
-138,687	-30,115	0,140	0,056
-137,672	-200,000	-0,009	0,067
-136,658	430,123	-0,012	-0,018
-135,643	-158,465	-0,093	0,004
-134,629	-200,000	0,003	-0,042
-133,614	-75,104	-0,073	0,018
-132,599	-200,000	-0,006	0,064
-131,585	-200,000	-0,000	-0,038
-130,570	-86,153	-0,050	0,011
-129,556	-30,466	-0,070	-0,028
-128,541	-83,273	-0,117	-0,027
-127,526	185,665	-0,015	-0,016
-126,512	-70,384	0,099	-0,026
-125,497	58,340	0,173	0,121
-124,483	14,333	0,148	-0,082
-123,468	-71,105	0,016	-0,004
-122,453	-200,000	-0,002	-0,021
-121,439	-51,097	0,033	-0,011
-120,424	150,886	-0,085	-0,082
-119,410	-143,629	-0,079	0,005
-118,395	-147,538	0,117	-0,007
-117,380	-200,000	-0,022	0,073
-116,366	800,000	-0,017	0,047
-115,351	-200,000	0,035	-0,172
-114,337	-55,616	0,067	-0,021
-113,322	-200,000	-0,011	-0,038
-112,307	132,851	-0,195	0,178
-111,293	-200,000	0,002	0,046
-110,278	800,000	0,060	0,120
-109,264	-200,000	0,023	-0,131
-108,249	-200,000	0,023	-0,098
-107,234	38,844	0,057	0,036
-106,220	-81,765	0,131	-0,030
-105,205	-200,000	0,018	-0,063
-104,191	618,041	0,062	-0,110
-103,176	-200,000	-0,019	0,202
-102,162	252,531	-0,039	-0,047
-101,147	-169,103	0,018	-0,000
-100,132	580,972	0,050	0,087
-99,118	343,700	-0,015	-0,021
-98,103	-200,000	0,009	-0,069
-97,089	187,511	0,046	-0,049
-96,074	24,044	-0,064	-0,038
-95,059	-200,000	0,013	0,054
-94,045	192,204	0,079	0,084
-93,030	-200,000	0,015	-0,128
-92,016	36,111	-0,009	0,006
-91,001	-200,000	0,009	0,060
-89,986	-57,679	0,182	-0,056
-88,972	800,000	0,040	-0,079
-87,957	-5,210	-0,050	-0,024
-86,943	-200,000	-0,026	-0,141
-85,928	800,000	-0,028	-0,067
-84,913	-125,507	0,085	0,009
-83,899	-20,212	-0,040	0,017
-82,884	486,536	-0,090	0,146
-81,870	303,907	0,146	0,193
-80,855	-200,000	-0,018	0,062
-79,840	14,982	0,146	0,081
-78,826	512,198	-0,037	0,061
-77,811	67,342	-0,118	0,085
-76,797	-200,000	-0,009	0,072
-75,782	-39,465	0,076	0,028
-74,767	-129,588	0,109	-0,011
-73,753	256,473	0,026	0,031
-72,738	-200,000	0,044	0,184
-71,724	-200,000	0,000	0,015
-70,709	-79,755	-0,057	0,014
-69,694	-200,000	0,003	-0,106
-68,680	800,000	0,052	0,126
-67,665	4,701	-0,047	0,024
-66,651	-200,000	-0,014	0,079
-65,636	-80,755	0,077	-0,018
-64,622	217,011	-0,059	-0,067
-63,607	128,460	-0,086	-0,078
-62,592	543,021	0,031	-0,052
-61,578	-65,354	-0,063	0,018
-60,563	-200,000	0,000	-0,086
-59,549	-42,618	0,042	-0,015
-58,534	-65,936	-1,499	-0,421
-57,519	366,343	-1,481	-2,122
-56,505	-200,000	-0,461	-4,587
-55,490	148,805	0,909	0,871
-54,476	800,000	4,787	11,396
-53,461	-200,000	18,203	285,643
-52,446	800,000	726,236	2222,275
-51,432	553,971	1642,227	2807,583
-50,417	79,521	1664,276	1263,252
-49,403	23,028	1538,384	891,375
-48,388	17,056	1461,656	818,012
-47,373	17,889	1451,468	816,287
-46,359	17,347	1442,009	808,347
-45,344	15,264	1437,526	795,863
-44,330	15,281	1435,203	794,622
-43,315	15,228	1433,560	793,430
-42,300	15,294	1432,079	792,895
-41,286	15,306	1430,810	792,218
-40,271	15,270	1429,759	791,432
-39,257	15,245	1428,571	790,627
-38,242	15,260	1427,265	789,939
-37,227	15,311	1425,744	789,308
-36,213	15,279	1424,634	788,514
-35,198	15,263	1423,596	787,832
-34,184	15,325	1422,603	787,546
-33,169	15,234	1421,401	786,417
-32,154	15,329	1419,972	786,044
-31,140	15,338	1418,804	785,407
-30,125	15,328	1417,693	784,716
-29,111	15,313	1416,608	784,014
-28,096	15,310	1415,608	783,412
-27,082	15,291	1414,236	782,532
-26,067	15,247	1413,182	781,713
-25,052	15,186	1412,092	780,793
-24,038	15,182	1411,524	780,429
-23,023	15,186	1410,392	779,790
-22,009	15,176	1409,523	779,232
-20,994	15,136	1408,567	778,487
-19,979	15,165	1407,477	777,987
-18,965	15,156	1406,432	777,340
-17,950	15,186	1405,440	776,901
-16,936	15,177	1404,506	776,310
-15,921	15,126	1403,260	775,353
-14,906	15,103	1402,650	774,876
-13,892	15,098	1401,763	774,334
-12,877	15,118	1400,665	773,792
-11,863	15,119	1399,765	773,269
-10,848	15,141	1398,925	772,875
-9,833	15,062	1398,189	772,071
-8,819	14,989	1397,344	771,232
-7,804	15,024	1396,295	770,787
-6,790	14,992	1395,336	770,079
-5,775	15,011	1394,184	769,500
-4,760	15,007	1393,222	768,920
-3,746	15,037	1392,539	768,653
-2,731	15,014	1391,684	768,045
-1,717	14,977	1390,824	767,369
-0,702	15,021	1388,947	766,504
0,313	18,848	1308,550	739,838
1,327	35,286	707,667	438,231
2,342	54,068	125,098	85,003
3,356	2,098	16,744	8,529
4,371	1,058	3,208	1,623
5,386	-94,291	0,538	0,103
6,400	-89,062	-0,094	0,019
7,415	-51,787	-0,258	-0,084
8,429	34,844	-0,362	-0,224
9,444	8,205	-0,378	-0,200
10,459	-68,564	-0,362	-0,098
11,473	-200,000	-0,066	-0,253
12,488	412,247	-0,144	-0,217
13,502	171,161	-0,244	-0,248
14,517	-10,680	-0,323	-0,150
15,531	4,536	-0,511	-0,264
16,546	5,472	-0,393	-0,204
17,561	-2,458	-0,262	-0,129
18,575	-101,295	-0,316	-0,054
19,590	536,240	-0,164	-0,275
20,604	-28,117	-0,245	-0,100
21,619	71,268	-0,423	-0,310
22,634	28,385	-0,502	-0,299
23,648	196,032	-0,348	-0,375
24,663	83,119	-0,460	-0,353
25,677	-21,911	-0,352	-0,151
26,692	127,162	-0,294	-0,263
27,707	278,381	-0,295	-0,372
28,721	-27,785	-0,261	-0,107
29,736	206,202	-0,323	-0,355
30,750	89,778	-0,457	-0,360
31,765	177,936	-0,337	-0,347
32,780	105,744	-0,453	-0,378
33,794	67,976	-0,428	-0,308
34,809	25,208	-0,302	-0,176
35,823	45,844	-0,427	-0,278
36,838	-46,664	-0,390	-0,134
37,853	238,382	-0,327	-0,384
38,867	72,297	-0,279	-0,205
39,882	111,819	-0,431	-0,367
40,896	38,646	-0,378	-0,237
41,911	120,233	-0,323	-0,283
42,926	157,106	-0,295	-0,288
43,940	47,356	-0,427	-0,280
44,955	-7,449	-0,333	-0,158
45,969	51,714	-0,388	-0,260
46,984	-13,259	-0,437	-0,199
47,999	-29,729	-0,337	-0,135
49,013	-66,750	-0,255	-0,071
50,028	28,064	-0,327	-0,194
51,042	59,380	-0,395	-0,274
52,057	20,576	-0,395	-0,225
53,071	8,560	-0,430	-0,227
54,086	21,830	-0,347	-0,199
55,101	89,580	-0,316	-0,248
56,115	-5,608	-0,423	-0,204
57,130	309,987	-0,243	-0,320
58,144	181,220	-0,376	-0,390
59,159	177,142	-0,359	-0,368
60,174	218,674	-0,319	-0,360
61,188	77,474	-0,312	-0,234
62,203	41,114	-0,233	-0,148
63,217	-116,214	-0,372	-0,048
64,232	90,002	-0,312	-0,245
65,247	126,762	-0,259	-0,231
66,261	-6,111	-0,410	-0,197
67,276	-32,918	-0,340	-0,132
68,290	72,625	-0,264	-0,193
69,305	29,807	-0,291	-0,174
70,320	-22,878	-0,255	-0,108
71,334	13,026	-0,323	-0,175
72,349	59,808	-0,336	-0,233
73,363	78,138	-0,317	-0,238
74,378	168,498	-0,328	-0,328
75,393	24,596	-0,346	-0,201
76,407	-112,987	-0,325	-0,045
77,422	0,888	-0,273	-0,137
78,436	-15,562	-0,364	-0,163
79,451	-44,937	-0,274	-0,095
80,466	203,264	-0,279	-0,304
81,480	-3,603	-0,351	-0,171
82,495	-77,586	-0,305	-0,074
83,509	208,728	-0,259	-0,285
84,524	-44,505	-0,253	-0,089
85,539	115,240	-0,253	-0,217
86,553	66,584	-0,369	-0,263
87,568	110,119	-0,290	-0,245
88,582	-18,313	-0,221	-0,097
89,597	-15,826	-0,364	-0,162
90,611	138,711	-0,165	-0,152
91,626	-147,641	-0,203	-0,012
92,641	68,188	-0,266	-0,191
93,655	-15,260	-0,322	-0,144
94,670	165,534	-0,266	-0,264
95,684	47,898	-0,272	-0,178
96,699	154,750	-0,241	-0,232
97,714	59,636	-0,238	-0,164
98,728	64,742	-0,181	-0,128
99,743	191,368	-0,242	-0,256
100,757	7,946	-0,246	-0,129
101,772	80,604	-0,278	-0,210
102,787	40,573	-0,350	-0,221
103,801	223,333	-0,260	-0,294
104,816	73,115	-0,279	-0,204
105,830	69,071	-0,120	-0,087
106,845	132,584	-0,147	-0,133
107,860	102,612	-0,225	-0,184
108,874	-20,502	-0,236	-0,101
109,889	134,810	-0,224	-0,204
110,903	226,668	-0,245	-0,279
111,918	-36,862	-0,241	-0,090
112,933	16,249	-0,155	-0,085
113,947	224,463	-0,198	-0,224
114,962	266,203	-0,180	-0,221
115,976	-44,622	-0,336	-0,117
116,991	224,123	-0,201	-0,228
118,006	21,372	-0,230	-0,131
119,020	31,064	-0,116	-0,070
120,035	241,572	-0,115	-0,135
121,049	75,071	-0,284	-0,210
122,064	547,873	-0,075	-0,127
123,079	171,915	-0,198	-0,199
124,093	-103,896	-0,361	-0,058
125,108	38,311	-0,236	-0,147
126,122	16,542	-0,281	-0,155
127,137	-132,451	-0,278	0,025
128,151	-155,037	-0,340	-0,015
129,166	-71,680	-0,271	-0,070
130,181	137,886	-0,283	-0,260
131,195	23,846	-0,153	-0,088
132,210	-188,040	-0,281	0,002
133,224	143,549	-0,128	-0,119
134,239	-1,338	-0,258	-0,127
135,254	-170,174	-0,285	-0,007
136,268	94,254	-0,157	-0,125
137,283	24,872	-0,243	-0,140
138,297	-65,344	-0,242	-0,068
139,312	12,440	-0,349	-0,187
140,327	18,156	-0,311	-0,173
141,341	170,166	-0,185	-0,185
142,356	30,291	-0,278	-0,166
143,370	135,756	-0,225	-0,205
144,385	-51,137	-0,392	-0,128
145,400	20,826	-0,380	-0,214
146,414	102,705	-0,139	-0,113
147,429	-45,288	-0,349	-0,120
148,443	45,107	-0,220	-0,141
149,458	-84,613	-0,136	-0,030
150,473	62,342	-0,215	-0,149
151,487	-59,962	-0,295	-0,088
152,502	52,569	-0,173	-0,115
153,516	68,382	-0,146	-0,105
154,531	115,897	-0,207	-0,177
155,546	59,007	-0,236	-0,162
156,560	398,224	-0,220	-0,323
157,575	48,453	-0,141	-0,092
158,589	-5,096	-0,237	-0,113
159,604	168,223	-0,179	-0,178
160,619	79,331	-0,325	-0,243
161,633	800,000	-0,112	-0,217
162,648	79,752	-0,397	-0,297
163,662	302,434	-0,129	-0,167
164,677	634,465	-0,100	-0,179
165,692	-112,118	-0,314	-0,044
166,706	65,583	-0,248	-0,175
167,721	153,435	-0,196	-0,187
168,735	28,732	-0,255	-0,150
169,750	-70,497	-0,296	-0,078
170,764	-61,082	-0,174	-0,051
171,779	-37,612	-0,169	-0,063
172,794	89,370	-0,168	-0,131
173,808	16,853	-0,275	-0,152
174,823	34,783	-0,280	-0,170
175,837	5,098	-0,285	-0,146
176,852	203,305	-0,176	-0,190
177,867	-85,652	-0,111	-0,024
178,881	-14,036	-0,275	-0,123
179,896	-200,000	-0,279	0,000
180,910	442,035	-0,153	-0,234
181,925	434,901	-0,224	-0,341
182,940	700,383	-0,095	-0,175
183,954	341,649	-0,209	-0,286
184,969	143,072	-0,178	-0,165
185,983	148,578	-0,187	-0,176
186,998	106,501	-0,270	-0,223
188,013	800,000	-0,101	-0,243
189,027	-109,302	-0,262	-0,038
190,042	16,096	-0,214	-0,117
191,056	16,972	-0,290	-0,159
192,071	-200,000	-0,098	-0,334
193,086	589,129	-0,167	-0,288
194,100	2,673	-0,235	-0,118
195,115	96,402	-0,253	-0,201
196,129	33,451	-0,245	-0,148
197,144	-158,278	-0,226	-0,009
198,159	-17,666	-0,231	-0,101
199,173	492,301	-0,181	-0,289
200,188	-28,427	-0,316	-0,126
201,202	153,994	-0,149	-0,143
202,217	687,997	-0,121	-0,220
203,232	76,753	-0,245	-0,180
204,246	-16,884	-0,244	-0,107
205,261	190,131	-0,286	-0,299
206,275	-4,565	-0,224	-0,107
207,290	59,540	-0,155	-0,106
208,304	296,038	-0,075	-0,096
209,319	235,277	-0,107	-0,123
210,334	126,041	-0,230	-0,202
211,348	152,299	-0,259	-0,246
212,363	6,926	-0,247	-0,127
213,377	-8,641	-0,297	-0,138
214,392	58,394	-0,162	-0,110
215,407	176,356	-0,134	-0,135
216,421	-84,865	-0,167	-0,036
217,436	-55,252	-0,280	-0,087
218,450	554,875	-0,134	-0,225
219,465	129,390	-0,146	-0,129
220,480	393,771	-0,100	-0,145
221,494	-19,026	-0,086	0,037
222,509	-200,000	-0,047	-0,170
223,523	-48,042	-0,159	-0,053
224,538	288,254	-0,107	-0,135
225,553	268,693	-0,151	-0,184
226,567	800,000	-0,065	-0,186
227,582	94,997	-0,167	-0,132
228,596	-17,029	-0,230	-0,100
229,611	-96,490	-0,066	0,012
230,626	-164,238	-0,289	-0,009
231,640	55,991	-0,283	-0,190
232,655	40,371	-0,137	-0,085
233,669	10,895	-0,212	-0,112
234,684	50,766	-0,193	-0,126
235,699	6,044	-0,207	-0,106
236,713	-20,937	-0,142	-0,060
237,728	78,321	-0,129	-0,095
238,742	192,481	-0,200	-0,209
239,757	116,322	-0,205	-0,174
240,772	613,729	-0,123	-0,215
241,786	800,000	-0,085	-0,183
242,801	102,181	-0,217	-0,175
243,815	54,936	-0,221	-0,147
244,830	761,382	-0,085	-0,160
245,844	-31,292	-0,228	-0,088
246,859	72,412	-0,168	-0,121
247,874	800,000	-0,060	-0,137
248,888	800,000	-0,107	-0,235
249,903	228,981	-0,105	-0,119
250,917	344,812	-0,091	-0,124
251,932	420,050	-0,113	-0,168
252,947	-85,484	-0,243	-0,052
253,961	23,349	-0,289	-0,164
254,976	41,348	-0,348	-0,217
255,990	29,206	-0,179	-0,105
257,005	-141,654	-0,227	-0,016
258,020	386,106	-0,088	-0,126
259,034	196,682	-0,045	-0,048
260,049	71,278	-0,241	-0,173
261,063	-74,606	-0,104	-0,026
262,078	-39,554	-0,196	-0,071
263,093	479,321	-0,103	-0,162
264,107	300,386	-0,227	-0,291
265,122	-38,334	-0,148	-0,054
266,136	-144,255	-0,148	-0,009
267,151	-79,067	-0,220	-0,051
268,166	-44,183	-0,252	-0,087
269,180	72,089	-0,341	-0,245
270,195	178,273	-0,228	-0,230
271,209	800,000	-0,061	-0,167
272,224	-72,847	-0,105	-0,027
273,239	6,275	-0,228	-0,116
274,253	-97,126	-0,193	-0,034
275,268	121,267	-0,110	-0,094
276,282	325,315	-0,149	-0,198
277,297	43,027	-0,092	-0,058
278,312	-58,666	-0,203	-0,061
279,326	105,690	-0,227	-0,186
280,341	-107,238	-0,102	-0,015
281,355	73,409	-0,126	-0,091
282,370	145,476	-0,215	-0,199
283,384	-23,719	-0,189	-0,078
284,399	165,664	-0,106	0,103
285,414	649,455	-0,096	-0,171
286,428	146,050	-0,114	-0,106
287,443	-161,093	-0,122	0,004
288,457	800,000	-0,061	-0,168
289,472	498,137	-0,163	-0,260
290,487	15,495	-0,224	-0,121
291,501	222,005	-0,132	-0,147
292,516	241,433	-0,141	-0,163
293,530	-47,208	-0,208	0,070
294,545	269,228	-0,220	-0,267
295,560	32,093	-0,199	-0,118
296,574	686,895	-0,129	-0,233
297,589	83,231	-0,202	-0,152
298,603	-33,970	-0,243	-0,092
299,618	190,444	-0,162	-0,168
300,633	-48,176	-0,132	-0,044
301,647	800,000	-0,081	-0,205
302,662	-112,734	-0,224	-0,030
303,676	-19,787	-0,084	-0,036
304,691	374,332	-0,098	-0,138
305,706	-34,684	-0,271	-0,102
306,720	800,000	-0,089	-0,181
307,735	20,297	-0,070	-0,039
308,749	670,510	-0,064	-0,115
309,764	-78,810	-0,177	-0,041
310,779	-117,583	-0,252	-0,031
311,793	709,413	-0,058	-0,106
312,808	95,795	-0,093	-0,073
313,822	449,470	-0,090	-0,138
314,837	352,817	-0,168	-0,230
315,852	-84,075	-0,194	-0,042
316,866	120,986	-0,083	-0,071
317,881	-101,335	-0,112	0,019
318,895	238,433	-0,140	-0,161
319,910	429,122	-0,066	-0,098
320,925	595,933	-0,088	-0,150
321,939	705,786	-0,183	-0,335
322,954	-200,000	-0,038	-0,300
323,968	-55,443	-0,110	-0,034
324,983	-84,402	-0,059	0,013
325,997	231,734	-0,144	-0,163
327,012	-91,786	-0,291	-0,056
328,027	-67,373	-0,146	-0,039
329,041	79,564	-0,159	-0,117
330,056	800,000	-0,063	-0,157
331,070	187,568	-0,157	-0,161
332,085	104,244	-0,119	-0,097
333,100	-200,000	0,008	-0,025
334,114	24,536	-0,183	-0,104
335,129	-44,801	-0,204	-0,070
336,143	24,527	-0,222	-0,126
337,158	-46,112	-0,051	-0,017
338,173	-191,902	-0,135	0,001
339,187	-69,618	-0,031	-0,008
340,202	-13,602	-0,097	-0,043
341,216	-18,146	-0,179	0,077
342,231	-200,000	-0,045	-0,175
343,246	118,254	-0,099	-0,084
344,260	762,179	-0,098	-0,183
345,275	-30,461	-0,134	-0,052
346,289	-89,867	-0,139	-0,028
347,304	467,074	-0,116	-0,179
348,319	29,026	-0,190	-0,110
349,333	-200,000	0,026	-0,226
350,348	-200,000	-0,017	-0,094
351,362	381,625	-0,064	-0,091
352,377	122,772	-0,181	-0,156
353,392	-86,366	-0,219	-0,046
354,406	252,163	-0,110	-0,129
355,421	208,741	1317,528	1416,156
356,435	160,623	1478,621	1416,653
