DTS Sentinel unit serial number:	SN410029Multiplexer serial number:	ORYXHardware model number:	OX2-SRSoftware version number:	ORYX F/W v4,00 Oryx Data Collector v3.7.2.0data status	okinstallation	B3 Nyhavnadifferential loss correction	single-endedforward channel	channel 1reverse channel	N/Adate	2023/11/30time	09:02:30forward acquisition time	300,00reverse acquisition time	0,00gamma	499,1914k internal	0,3211k external	0,3211temperature offset calibration	1,0000default loss term (dB/km)	0,3820temperature slope calibration	1,0000multiplexer offset coefficient	1,0000multiplexer slope coefficient	1,0000fibre end	0,00T internal ref (°C)	9,50T ext. ref 1 (°C)	-5,50T ext. ref 2 (°C)	-5,61length (m)	temperature (°C)	Stokes	anti-Stokes-744,400	407,388	-0,101	-0,155
-743,385	40,388	-0,106	0,069
-742,371	-200,000	-0,014	-0,111
-741,356	-200,000	-0,031	0,284
-740,342	562,887	-0,195	-0,343
-739,327	-200,000	0,009	0,367
-738,312	800,000	-0,152	-0,310
-737,298	-200,000	-0,054	0,296
-736,283	254,856	-0,182	-0,227
-735,269	-200,000	0,064	0,446
-734,254	143,588	-0,171	-0,165
-733,239	-107,218	-0,322	-0,051
-732,225	-200,000	-0,050	-0,190
-731,210	353,213	0,082	0,118
-730,196	375,586	0,030	0,044
-729,181	226,148	-0,015	-0,018
-728,167	161,369	-0,072	0,073
-727,152	44,104	-0,060	-0,040
-726,137	800,000	-0,061	-0,150
-725,123	-68,558	-0,051	-0,014
-724,108	349,883	-0,065	-0,094
-723,094	414,141	-0,056	-0,086
-722,079	800,000	-0,074	-0,196
-721,064	253,876	-0,092	-0,114
-720,050	-153,219	-0,047	0,002
-719,035	662,011	0,005	-0,009
-718,021	800,000	-0,036	-0,093
-717,006	-37,618	-0,052	-0,020
-715,991	-96,358	-0,246	0,047
-714,977	373,749	-0,013	0,019
-713,962	-71,879	0,021	-0,006
-712,948	-155,148	0,105	0,005
-711,933	800,000	-0,009	-0,029
-710,918	273,011	0,026	0,034
-709,904	44,252	0,025	0,017
-708,889	-200,000	0,027	0,088
-707,875	9,155	-0,099	-0,054
-706,860	206,583	0,092	-0,104
-705,845	-37,633	0,047	-0,018
-704,831	89,402	-0,124	-0,100
-703,816	-7,121	0,017	0,008
-702,802	349,560	-0,064	0,091
-701,787	296,701	0,071	0,095
-700,772	151,318	-0,078	-0,077
-699,758	-200,000	0,004	0,176
-698,743	34,262	-0,079	-0,050
-697,729	-78,043	0,103	0,025
-696,714	-0,816	0,169	0,086
-695,699	496,517	-0,122	-0,204
-694,685	144,169	0,106	-0,102
-693,670	-27,837	0,037	0,015
-692,656	-104,102	-0,094	-0,016
-691,641	-35,842	0,119	0,046
-690,627	276,926	0,001	0,002
-689,612	-81,742	0,239	-0,056
-688,597	800,000	-0,032	-0,095
-687,583	167,373	-0,136	-0,140
-686,568	-54,334	-0,060	-0,020
-685,554	800,000	-0,028	-0,079
-684,539	353,632	-0,033	0,048
-683,524	800,000	0,043	-0,111
-682,510	800,000	-0,040	-0,097
-681,495	800,000	0,027	-0,078
-680,481	155,712	0,051	-0,051
-679,466	203,468	-0,130	-0,146
-678,451	-200,000	0,017	-0,120
-677,437	31,462	0,039	0,024
-676,422	59,159	0,113	0,080
-675,408	-200,000	0,006	0,032
-674,393	800,000	0,043	0,110
-673,378	-200,000	0,001	-0,114
-672,364	-200,000	-0,012	-0,090
-671,349	-107,457	-0,098	0,015
-670,335	406,291	0,061	-0,094
-669,320	77,402	0,182	-0,140
-668,305	314,453	-0,018	-0,024
-667,291	-146,503	0,062	0,004
-666,276	800,000	-0,031	-0,098
-665,262	356,594	-0,072	-0,104
-664,247	-104,338	0,093	0,015
-663,232	-200,000	0,020	0,108
-662,218	-200,000	0,135	0,000
-661,203	-200,000	-0,003	0,030
-660,189	-74,636	0,169	-0,044
-659,174	392,206	-0,014	-0,022
-658,159	800,000	0,053	-0,142
-657,145	14,579	0,017	-0,010
-656,130	-11,807	0,007	-0,003
-655,116	344,401	0,009	0,013
-654,101	-93,369	-0,065	0,013
-653,086	128,475	0,088	0,081
-652,072	31,216	-0,083	-0,051
-651,057	-71,984	-0,134	-0,036
-650,043	37,405	-0,077	0,049
-649,028	386,945	0,047	-0,070
-648,014	196,753	-0,056	-0,061
-646,999	-52,478	0,161	0,053
-645,984	47,804	-0,083	0,056
-644,970	-200,000	-0,007	-0,163
-643,955	-56,052	0,131	-0,042
-642,941	41,688	-0,145	0,095
-641,926	120,051	0,056	-0,051
-640,911	78,093	-0,085	0,065
-639,897	-200,000	-0,012	-0,111
-638,882	-128,801	0,088	0,009
-637,868	-92,913	-0,056	-0,011
-636,853	-115,941	-0,020	0,003
-635,838	-200,000	0,003	0,022
-634,824	800,000	-0,043	-0,110
-633,809	-200,000	0,018	0,061
-632,795	112,306	-0,114	0,100
-631,780	14,958	-0,033	-0,018
-630,765	-132,742	-0,081	-0,007
-629,751	270,073	-0,072	-0,092
-628,736	385,814	-0,014	0,020
-627,722	800,000	0,023	0,053
-626,707	-200,000	0,003	0,190
-625,692	505,704	-0,011	-0,018
-624,678	-116,037	0,096	0,013
-623,663	180,034	0,051	-0,054
-622,649	-200,000	0,029	-0,166
-621,634	256,804	-0,036	-0,045
-620,619	70,143	-0,091	-0,068
-619,605	800,000	-0,052	0,107
-618,590	479,952	0,047	-0,077
-617,576	-90,747	0,107	0,022
-616,561	75,761	-0,049	-0,038
-615,546	546,288	-0,011	-0,020
-614,532	-42,894	-0,162	-0,059
-613,517	461,816	0,042	-0,068
-612,503	-13,824	0,072	0,034
-611,488	800,000	-0,002	0,005
-610,474	-102,917	0,153	-0,026
-609,459	722,558	-0,063	0,121
-608,444	-200,000	0,017	-0,079
-607,430	123,935	-0,181	-0,164
-606,415	-69,850	-0,139	0,038
-605,401	222,760	-0,060	0,070
-604,386	-200,000	0,021	-0,075
-603,371	-200,000	-0,007	-0,045
-602,357	-200,000	0,034	0,168
-601,342	-200,000	0,007	0,096
-600,328	-13,597	-0,023	0,011
-599,313	-200,000	-0,005	-0,064
-598,298	19,340	0,104	-0,060
-597,284	-74,138	0,070	-0,018
-596,269	135,633	0,086	0,081
-595,255	-200,000	0,023	0,096
-594,240	-13,658	-0,044	-0,020
-593,225	-133,988	-0,105	-0,009
-592,211	800,000	0,025	-0,060
-591,196	800,000	0,079	-0,206
-590,182	-200,000	0,028	-0,092
-589,167	-200,000	0,010	0,080
-588,152	173,456	-0,022	0,023
-587,138	-67,272	-0,047	0,013
-586,123	633,846	-0,093	-0,171
-585,109	31,658	-0,137	-0,085
-584,094	364,254	-0,036	0,052
-583,079	-22,996	0,082	-0,036
-582,065	793,438	0,028	-0,057
-581,050	800,000	0,030	0,062
-580,036	-81,858	-0,100	0,024
-579,021	121,186	-0,056	-0,050
-578,006	14,583	-0,056	0,031
-576,992	-131,109	0,087	0,008
-575,977	800,000	0,020	0,061
-574,963	-200,000	-0,004	0,111
-573,948	800,000	-0,031	0,063
-572,934	202,092	0,008	0,009
-571,919	-16,842	-0,045	0,020
-570,904	-35,974	0,119	-0,046
-569,890	183,286	0,043	-0,045
-568,875	654,786	0,083	-0,154
-567,861	800,000	0,039	0,094
-566,846	-8,023	0,022	0,010
-565,831	165,069	0,035	-0,035
-564,817	62,347	0,044	-0,032
-563,802	-200,000	0,006	0,035
-562,788	800,000	0,060	-0,139
-561,773	44,290	-0,038	0,025
-560,758	800,000	-0,014	0,034
-559,744	-200,000	-0,028	-0,155
-558,729	-26,043	-0,024	-0,010
-557,715	-200,000	0,019	-0,098
-556,700	-200,000	-0,002	-0,024
-555,685	37,892	-0,040	0,026
-554,671	-200,000	-0,012	-0,040
-553,656	275,604	0,041	0,052
-552,642	-200,000	0,002	0,154
-551,627	-91,461	-0,192	0,039
-550,612	-43,773	0,081	0,029
-549,598	-200,000	-0,000	-0,082
-548,583	-22,330	-0,067	-0,029
-547,569	-200,000	-0,022	-0,095
-546,554	738,277	0,037	0,072
-545,539	68,984	-0,070	0,052
-544,525	539,192	-0,041	-0,070
-543,510	-200,000	0,008	0,031
-542,496	107,020	-0,019	-0,017
-541,481	800,000	-0,050	-0,153
-540,466	84,770	-0,158	0,125
-539,452	686,269	-0,047	0,089
-538,437	109,960	-0,094	0,081
-537,423	-200,000	-0,020	-0,071
-536,408	248,446	-0,030	0,037
-535,393	-18,590	-0,051	0,023
-534,379	496,270	0,032	-0,053
-533,364	345,903	-0,035	0,050
-532,350	-58,957	0,070	-0,022
-531,335	-107,032	0,036	-0,006
-530,321	371,666	-0,037	0,055
-529,306	152,457	0,100	-0,099
-528,291	-88,123	0,038	-0,008
-527,277	800,000	0,026	-0,056
-526,262	800,000	-0,074	-0,151
-525,248	91,212	0,063	-0,051
-524,233	384,797	0,073	0,108
-523,218	800,000	0,008	0,024
-522,204	-200,000	0,004	0,047
-521,189	529,027	-0,035	-0,060
-520,175	800,000	-0,067	-0,154
-519,160	101,699	-0,051	-0,042
-518,145	800,000	0,041	-0,129
-517,131	50,245	-0,040	-0,027
-516,116	95,383	-0,021	0,017
-515,102	-55,573	-0,092	-0,029
-514,087	23,635	-0,051	-0,030
-513,072	37,499	0,111	-0,071
-512,058	-200,000	0,009	-0,039
-511,043	-154,880	-0,107	-0,005
-510,029	800,000	-0,028	-0,084
-509,014	14,581	0,106	-0,059
-507,999	76,981	0,155	-0,118
-506,985	793,026	0,046	-0,092
-505,970	800,000	-0,053	-0,121
-504,956	365,199	-0,096	0,140
-503,941	800,000	-0,005	0,013
-502,926	-151,999	0,108	-0,006
-501,912	340,884	-0,011	-0,015
-500,897	105,381	0,013	0,011
-499,883	212,456	0,091	-0,104
-498,868	-200,000	0,003	0,072
-497,853	-200,000	-0,009	-0,057
-496,839	115,802	0,088	-0,078
-495,824	114,665	0,085	0,075
-494,810	800,000	-0,049	-0,125
-493,795	-200,000	0,006	0,045
-492,781	-131,701	-0,115	-0,011
-491,766	800,000	0,043	-0,097
-490,751	266,183	0,089	0,112
-489,737	413,851	-0,049	-0,075
-488,722	800,000	0,060	-0,122
-487,708	-3,249	0,055	0,028
-486,693	117,366	-0,049	-0,043
-485,678	138,213	-0,127	0,120
-484,664	505,999	0,040	-0,067
-483,649	736,658	-0,066	-0,128
-482,635	-200,000	-0,029	-0,190
-481,620	-53,996	0,097	-0,032
-480,605	-200,000	-0,002	-0,037
-479,591	-200,000	-0,010	-0,083
-478,576	79,679	-0,015	0,011
-477,562	798,395	-0,083	-0,166
-476,547	800,000	-0,045	-0,104
-475,532	-9,661	-0,015	-0,007
-474,518	-80,242	0,079	-0,019
-473,503	-83,961	-0,180	0,041
-472,489	-21,873	-0,019	-0,008
-471,474	209,620	0,052	0,059
-470,459	-63,856	0,109	-0,032
-469,445	450,099	0,052	-0,082
-468,430	-200,000	0,046	0,150
-467,416	-98,424	-0,102	-0,019
-466,401	-56,923	-0,014	-0,004
-465,386	800,000	0,028	-0,072
-464,372	5,703	-0,046	0,024
-463,357	141,402	-0,069	-0,066
-462,343	-68,668	0,090	0,025
-461,328	-17,136	-0,197	0,089
-460,313	-24,957	0,254	0,108
-459,299	43,128	0,051	0,034
-458,284	-75,860	0,090	0,023
-457,270	-48,761	-0,021	-0,007
-456,255	-200,000	-0,023	-0,097
-455,241	-25,567	0,049	-0,020
-454,226	7,200	-0,039	-0,021
-453,211	-143,279	-0,109	0,007
-452,197	800,000	-0,027	-0,055
-451,182	-200,000	0,002	0,039
-450,168	-139,264	-0,071	0,005
-449,153	639,757	0,053	0,096
-448,138	-200,000	0,009	0,080
-447,124	-128,497	0,087	-0,009
-446,109	-14,798	0,074	0,034
-445,095	-90,852	-0,091	-0,019
-444,080	-200,000	0,004	0,032
-443,065	-200,000	-0,012	-0,071
-442,051	116,797	-0,026	-0,023
-441,036	-58,907	-0,035	0,011
-440,022	43,004	0,121	-0,079
-439,007	487,508	0,031	-0,052
-437,992	-47,310	-0,047	0,016
-436,978	214,059	0,073	0,083
-435,963	227,404	0,058	0,068
-434,949	-200,000	-0,003	-0,042
-433,934	453,875	0,104	0,165
-432,919	315,098	-0,085	-0,114
-431,905	11,529	0,074	0,041
-430,890	45,217	0,035	0,023
-429,876	70,308	-0,060	0,045
-428,861	684,736	0,051	-0,095
-427,846	-176,097	-0,060	-0,001
-426,832	-71,533	-0,116	-0,031
-425,817	-79,121	-0,174	-0,042
-424,803	-200,000	-0,028	0,128
-423,788	127,002	-0,102	0,092
-422,773	396,605	0,083	0,124
-421,759	-200,000	0,030	0,196
-420,744	-200,000	-0,024	0,117
-419,730	70,281	0,024	-0,018
-418,715	27,700	-0,120	-0,072
-417,701	523,087	0,029	-0,049
-416,686	800,000	0,029	0,069
-415,671	84,922	-0,033	-0,026
-414,657	-81,222	0,169	0,040
-413,642	-200,000	0,016	-0,071
-412,628	-200,000	0,005	0,056
-411,613	23,371	0,071	-0,042
-410,598	-200,000	-0,027	-0,088
-409,584	126,841	0,022	0,020
-408,569	-58,024	0,011	0,003
-407,555	-128,158	0,076	0,008
-406,540	170,311	0,011	-0,012
-405,525	800,000	-0,019	-0,039
-404,511	60,176	-0,127	-0,090
-403,496	-200,000	-0,014	-0,126
-402,482	-39,036	-0,060	-0,023
-401,467	74,820	0,040	0,030
-400,452	-134,997	0,055	-0,005
-399,438	-44,065	0,074	-0,026
-398,423	37,227	-0,053	0,034
-397,409	-11,659	-0,071	0,033
-396,394	-8,386	-0,038	-0,018
-395,379	-2,825	-0,079	-0,039
-394,365	138,746	-0,069	0,065
-393,350	190,244	0,030	0,032
-392,336	-200,000	-0,051	0,165
-391,321	-61,970	0,207	-0,061
-390,306	-140,956	0,065	-0,005
-389,292	-200,000	-0,002	0,038
-388,277	202,805	0,054	-0,059
-387,263	-5,685	-0,032	0,016
-386,248	800,000	0,012	0,033
-385,233	675,685	0,037	0,070
-384,219	800,000	-0,041	-0,095
-383,204	142,488	-0,066	0,062
-382,190	-200,000	-0,012	-0,097
-381,175	-46,738	-0,078	0,027
-380,160	-12,497	0,092	-0,043
-379,146	497,330	0,065	0,108
-378,131	-200,000	0,026	0,128
-377,117	-142,929	0,101	0,007
-376,102	-200,000	0,054	0,000
-375,088	509,483	0,075	-0,125
-374,073	91,641	-0,086	0,069
-373,058	-200,000	0,054	0,198
-372,044	-200,000	0,022	0,170
-371,029	234,757	-0,053	-0,062
-370,015	800,000	-0,022	-0,058
-369,000	-15,368	-0,110	-0,050
-367,985	-4,294	0,107	0,053
-366,971	644,093	0,024	-0,043
-365,956	-94,185	0,055	-0,011
-364,942	18,563	-0,027	-0,015
-363,927	115,064	0,039	0,034
-362,912	278,604	0,050	-0,064
-361,898	-131,048	-0,110	-0,010
-360,883	-163,784	0,067	-0,002
-359,869	800,000	0,016	-0,037
-358,854	800,000	0,028	0,069
-357,839	380,494	-0,048	-0,070
-356,825	182,859	0,093	-0,098
-355,810	90,960	0,120	-0,096
-354,796	-179,964	0,063	0,001
-353,781	247,397	0,090	0,109
-352,766	-200,000	-0,048	-0,208
-351,752	800,000	0,016	-0,032
-350,737	112,867	0,124	-0,108
-349,723	623,679	0,061	0,110
-348,708	138,920	-0,086	-0,081
-347,693	-200,000	0,000	-0,028
-346,679	388,747	0,023	-0,034
-345,664	-200,000	-0,075	-0,251
-344,650	-39,913	-0,048	-0,018
-343,635	-131,489	0,079	0,007
-342,620	-89,627	0,073	0,015
-341,606	56,800	-0,136	-0,094
-340,591	317,630	-0,028	-0,038
-339,577	800,000	-0,055	-0,171
-338,562	319,151	-0,011	0,015
-337,548	-200,000	-0,003	0,059
-336,533	444,711	-0,004	-0,006
-335,518	-122,521	-0,065	0,007
-334,504	255,898	-0,053	-0,066
-333,489	13,716	0,082	0,046
-332,475	-124,816	-0,096	0,010
-331,460	-164,851	0,049	0,002
-330,445	713,970	-0,042	0,079
-329,431	-200,000	-0,036	-0,133
-328,416	800,000	0,029	0,068
-327,402	-37,475	-0,166	-0,063
-326,387	-0,608	0,086	-0,043
-325,372	-188,399	0,115	0,001
-324,358	473,912	0,060	0,097
-323,343	-68,926	-0,048	0,013
-322,329	-200,000	-0,027	0,203
-321,314	-92,340	0,111	0,022
-320,299	285,662	0,054	0,069
-319,285	-51,726	0,024	-0,008
-318,270	-200,000	-0,003	0,123
-317,256	-72,192	-0,074	0,019
-316,241	516,036	-0,023	0,038
-315,226	800,000	-0,006	0,014
-314,212	800,000	0,035	0,089
-313,197	-112,959	0,093	-0,013
-312,183	-200,000	0,030	0,154
-311,168	139,335	0,059	0,056
-310,153	-138,323	-0,190	-0,015
-309,139	442,848	-0,072	0,113
-308,124	316,422	0,018	0,025
-307,110	227,811	0,044	0,051
-306,095	-200,000	-0,007	0,051
-305,080	216,475	-0,051	-0,058
-304,066	-200,000	0,002	-0,071
-303,051	328,069	-0,045	-0,061
-302,037	-70,867	-0,103	-0,028
-301,022	-35,272	0,126	0,049
-300,008	397,608	0,089	0,133
-298,993	275,075	0,095	0,120
-297,978	280,616	-0,095	0,121
-296,964	-200,000	-0,023	0,073
-295,949	-51,237	0,016	-0,005
-294,935	38,441	-0,056	0,035
-293,920	15,102	-0,028	-0,016
-292,905	562,091	-0,049	0,085
-291,891	800,000	0,058	0,115
-290,876	-98,188	0,203	0,037
-289,862	-76,618	-0,158	0,039
-288,847	-45,264	-0,012	0,004
-287,832	736,534	-0,100	-0,193
-286,818	-69,764	0,101	-0,027
-285,803	258,475	-0,069	0,085
-284,789	-200,000	0,035	0,121
-283,774	738,437	-0,067	0,128
-282,759	-200,000	0,007	0,044
-281,745	44,684	0,098	-0,064
-280,730	7,323	-0,101	0,054
-279,716	142,368	0,066	-0,063
-278,701	800,000	-0,014	0,030
-277,686	552,441	0,063	0,107
-276,672	-132,997	-0,124	-0,011
-275,657	115,986	0,069	-0,060
-274,643	-200,000	0,015	0,145
-273,628	-93,590	0,039	-0,008
-272,613	-140,303	0,123	-0,009
-271,599	-114,682	0,147	0,020
-270,584	89,717	0,071	0,057
-269,570	-17,948	-0,009	0,004
-268,555	180,512	0,079	0,082
-267,540	452,491	-0,025	0,039
-266,526	354,033	-0,032	-0,046
-265,511	800,000	-0,079	-0,197
-264,497	26,228	-0,034	0,020
-263,482	-17,625	-0,036	-0,016
-262,467	100,205	-0,005	-0,004
-261,453	197,280	0,028	-0,030
-260,438	414,127	0,039	-0,060
-259,424	-200,000	-0,005	0,023
-258,409	125,261	0,109	-0,097
-257,395	-200,000	-0,007	-0,041
-256,380	-200,000	-0,031	0,098
-255,365	-34,925	0,079	0,031
-254,351	232,470	-0,047	-0,055
-253,336	-58,215	-0,040	0,012
-252,322	14,259	0,082	-0,045
-251,307	800,000	-0,021	-0,046
-250,292	68,038	0,072	0,052
-249,278	448,364	0,031	0,049
-248,263	-200,000	-0,020	0,111
-247,249	228,765	0,043	0,050
-246,234	-200,000	-0,008	0,088
-245,219	-25,623	-0,076	0,032
-244,205	-86,630	-0,087	0,019
-243,190	-200,000	-0,014	-0,108
-242,176	-106,010	0,066	0,010
-241,161	-24,118	0,142	0,060
-240,146	104,361	-0,055	-0,046
-239,132	241,238	0,081	-0,097
-238,117	-126,076	-0,149	-0,016
-237,103	739,891	0,041	0,079
-236,088	-137,524	-0,122	-0,010
-235,073	116,485	0,113	0,098
-234,059	36,848	-0,073	0,046
-233,044	800,000	0,046	0,122
-232,030	589,420	0,068	0,119
-231,015	447,879	-0,021	-0,034
-230,000	115,010	0,077	-0,066
-228,986	-42,928	-0,199	-0,071
-227,971	15,534	0,071	0,040
-226,957	-200,000	0,023	0,085
-225,942	-200,000	-0,004	0,108
-224,927	-200,000	0,023	0,075
-223,913	-200,000	0,028	0,096
-222,898	207,788	-0,054	-0,060
-221,884	-200,000	-0,034	-0,130
-220,869	800,000	0,045	0,131
-219,855	-150,377	0,123	0,007
-218,840	-200,000	-0,007	0,103
-217,825	154,228	-0,036	-0,035
-216,811	-101,417	-0,190	-0,033
-215,796	800,000	0,021	-0,061
-214,782	-50,695	-0,097	-0,032
-213,767	-13,760	0,103	-0,047
-212,752	142,399	-0,085	0,080
-211,738	-42,990	0,033	-0,012
-210,723	-142,288	0,031	0,002
-209,709	179,302	-0,122	0,127
-208,694	800,000	-0,016	-0,039
-207,679	195,757	-0,136	-0,147
-206,665	-17,167	0,124	0,055
-205,650	-200,000	0,012	0,039
-204,636	-200,000	-0,003	0,121
-203,621	800,000	-0,049	0,137
-202,606	-200,000	0,008	-0,038
-201,592	800,000	0,013	0,029
-200,577	-200,000	0,003	-0,016
-199,563	-147,983	0,101	0,006
-198,548	141,997	-0,116	-0,109
-197,533	-169,229	0,100	-0,003
-196,519	-156,820	-0,070	0,003
-195,504	46,731	-0,128	-0,084
-194,490	-200,000	-0,011	-0,074
-193,475	800,000	0,033	-0,068
-192,460	800,000	-0,012	-0,032
-191,446	114,776	0,063	-0,054
-190,431	309,111	0,033	-0,044
-189,417	-63,197	0,021	-0,006
-188,402	154,176	-0,029	-0,028
-187,387	201,864	0,090	0,099
-186,373	30,287	0,103	0,062
-185,358	-200,000	-0,008	-0,044
-184,344	-107,159	0,113	-0,018
-183,329	173,004	-0,110	0,113
-182,315	800,000	-0,049	0,110
-181,300	208,496	-0,045	0,050
-180,285	298,702	-0,023	0,030
-179,271	23,851	0,042	0,024
-178,256	-200,000	0,008	-0,058
-177,242	-1,317	0,084	0,042
-176,227	-7,044	-0,047	-0,023
-175,212	-37,600	0,118	-0,044
-174,198	-35,118	0,066	-0,026
-173,183	80,313	-0,026	-0,020
-172,169	-93,470	-0,103	0,020
-171,154	800,000	0,046	0,135
-170,139	800,000	-0,049	0,101
-169,125	-27,674	0,037	0,015
-168,110	800,000	-0,062	0,189
-167,096	-200,000	0,019	0,099
-166,081	-110,810	-0,140	0,020
-165,066	-99,037	-0,088	0,016
-164,052	-200,000	-0,003	-0,050
-163,037	713,368	-0,044	0,084
-162,023	800,000	-0,044	0,115
-161,008	800,000	-0,014	0,037
-159,993	58,534	0,014	-0,009
-158,979	13,976	-0,061	0,034
-157,964	505,253	0,133	-0,219
-156,950	-42,964	-0,132	-0,047
-155,935	327,590	-0,067	-0,091
-154,920	389,530	0,057	0,084
-153,906	185,531	0,059	0,062
-152,891	735,842	0,033	-0,063
-151,877	800,000	-0,024	-0,065
-150,862	-13,007	-0,164	-0,075
-149,847	-200,000	0,036	-0,163
-148,833	800,000	0,035	0,108
-147,818	-200,000	-0,015	-0,086
-146,804	117,151	0,131	-0,114
-145,789	-200,000	-0,040	0,170
-144,775	83,570	0,061	-0,047
-143,760	245,564	-0,074	-0,088
-142,745	42,154	-0,093	0,060
-141,731	-75,391	0,216	0,054
-140,716	800,000	-0,083	0,165
-139,702	176,331	0,035	-0,036
-138,687	602,876	0,069	0,122
-137,672	695,881	0,002	0,004
-136,658	397,481	-0,065	0,096
-135,643	44,000	-0,041	-0,027
-134,629	-120,610	-0,040	0,005
-133,614	118,711	0,070	-0,061
-132,599	253,608	-0,088	0,107
-131,585	-200,000	0,000	0,227
-130,570	-67,420	0,134	0,037
-129,556	181,238	-0,060	-0,062
-128,541	15,730	-0,087	-0,048
-127,526	147,694	0,093	-0,089
-126,512	-163,850	0,112	-0,004
-125,497	-200,000	-0,036	0,123
-124,483	101,458	0,086	-0,071
-123,468	-23,208	0,074	-0,031
-122,453	412,198	0,036	0,054
-121,439	-14,585	0,201	0,091
-120,424	61,516	0,024	0,017
-119,410	45,683	-0,195	0,127
-118,395	260,343	-0,038	-0,047
-117,380	800,000	0,040	0,088
-116,366	565,529	-0,046	0,079
-115,351	800,000	0,061	-0,159
-114,337	220,806	0,128	-0,146
-113,322	-200,000	0,013	0,067
-112,307	-120,626	0,135	0,016
-111,293	-200,000	-0,021	0,070
-110,278	-200,000	-0,002	0,090
-109,264	-200,000	0,002	-0,051
-108,249	-200,000	0,018	-0,082
-107,234	141,416	0,027	0,026
-106,220	-200,000	-0,003	-0,031
-105,205	41,812	-0,029	-0,019
-104,191	-97,571	0,097	0,018
-103,176	50,635	0,116	0,077
-102,162	-70,796	-0,049	-0,013
-101,147	60,873	0,036	-0,025
-100,132	19,578	0,020	-0,012
-99,118	-200,000	0,032	-0,103
-98,103	476,843	0,055	0,088
-97,089	-123,924	-0,193	-0,021
-96,074	502,599	0,041	-0,067
-95,059	-200,000	0,008	0,071
-94,045	-200,000	0,022	-0,139
-93,030	83,557	-0,060	-0,046
-92,016	198,159	0,061	-0,066
-91,001	250,895	0,036	0,043
-89,986	-66,773	0,051	0,014
-88,972	-4,369	0,185	0,090
-87,957	235,369	-0,080	0,094
-86,943	800,000	-0,034	-0,098
-85,928	-127,208	0,031	-0,003
-84,913	150,755	0,072	0,069
-83,899	127,839	-0,014	-0,013
-82,884	-141,316	0,046	-0,003
-81,870	-64,231	0,094	-0,027
-80,855	185,811	0,063	0,066
-79,840	248,436	-0,114	0,137
-78,826	746,256	-0,020	-0,038
-77,811	-24,730	-0,137	-0,057
-76,797	349,580	-0,054	-0,075
-75,782	70,217	0,105	0,077
-74,767	-127,621	0,100	0,010
-73,753	-200,000	0,007	-0,099
-72,738	800,000	0,030	0,068
-71,724	-121,175	0,109	0,013
-70,709	75,170	-0,053	0,039
-69,694	-103,846	0,124	0,020
-68,680	271,171	-0,026	0,032
-67,665	-132,793	0,028	-0,002
-66,651	553,645	0,031	0,053
-65,636	81,993	-0,076	0,058
-64,622	90,674	-0,092	-0,073
-63,607	-68,237	0,063	0,017
-62,592	-200,000	-0,007	0,057
-61,578	-8,913	0,023	0,011
-60,563	-20,563	-0,048	-0,021
-59,549	6,516	0,064	-0,034
-58,534	31,150	-2,060	-1,245
-57,519	411,696	-1,218	-1,830
-56,505	-200,000	-0,345	-4,415
-55,490	521,898	0,915	1,522
-54,476	800,000	5,222	11,369
-53,461	-200,000	21,659	345,001
-52,446	800,000	763,222	2345,341
-51,432	547,240	1662,659	2818,878
-50,417	71,613	1659,162	1215,007
-49,403	17,279	1532,640	855,996
-48,388	11,336	1456,298	784,639
-47,373	19,333	1448,019	818,489
-46,359	14,856	1437,016	790,968
-45,344	9,641	1432,779	763,799
-44,330	9,559	1430,894	762,374
-43,315	9,579	1428,981	761,418
-42,300	9,576	1427,315	760,485
-41,286	9,572	1426,221	759,856
-40,271	9,545	1424,910	758,998
-39,257	9,530	1423,827	758,318
-38,242	9,597	1422,596	757,949
-37,227	9,534	1421,709	757,151
-36,213	9,564	1420,299	756,509
-35,198	9,584	1419,170	755,974
-34,184	9,584	1418,165	755,407
-33,169	9,514	1416,627	754,231
-32,154	9,561	1415,727	753,942
-31,140	9,602	1414,472	753,438
-30,125	9,644	1413,348	753,004
-29,111	9,607	1412,312	752,248
-28,096	9,580	1410,983	751,383
-27,082	9,504	1409,836	750,387
-26,067	9,479	1408,767	749,671
-25,052	9,562	1407,651	749,437
-24,038	9,579	1406,787	749,027
-23,023	9,543	1405,889	748,351
-22,009	9,576	1404,650	747,816
-20,994	9,526	1403,826	747,116
-19,979	9,548	1402,919	746,706
-18,965	9,506	1401,999	745,988
-17,950	9,499	1400,999	745,393
-16,936	9,478	1400,094	744,785
-15,921	9,427	1399,294	744,093
-14,906	9,456	1398,387	743,716
-13,892	9,484	1397,140	743,153
-12,877	9,447	1396,670	742,702
-11,863	9,403	1395,923	742,070
-10,848	9,455	1394,621	741,589
-9,833	9,357	1394,018	740,788
-8,819	9,334	1393,084	740,156
-7,804	9,377	1392,018	739,759
-6,790	9,349	1391,071	739,096
-5,775	9,363	1389,906	738,511
-4,760	9,332	1389,074	737,900
-3,746	9,388	1388,209	737,667
-2,731	9,337	1387,228	736,880
-1,717	9,370	1386,433	736,581
-0,702	9,329	1384,831	735,514
0,313	13,479	1296,814	707,682
1,327	29,467	687,578	411,344
2,342	45,534	118,866	77,272
3,356	3,065	16,508	8,434
4,371	4,222	3,677	1,892
5,386	-14,388	1,097	0,496
6,400	-200,000	0,179	0,558
7,415	-60,823	-0,190	-0,056
8,429	387,237	-0,200	-0,292
9,444	140,731	-0,219	-0,204
10,459	66,927	-0,222	-0,159
11,473	118,939	-0,268	-0,233
12,488	166,738	-0,214	-0,214
13,502	-13,401	-0,378	-0,172
14,517	62,819	-0,297	-0,209
15,531	39,239	-0,450	-0,283
16,546	36,406	-0,399	-0,248
17,561	-29,688	-0,420	-0,168
18,575	-47,800	-0,123	-0,042
19,590	-36,242	-0,204	-0,077
20,604	-132,838	-0,338	-0,030
21,619	201,232	-0,291	-0,316
22,634	65,221	-0,466	-0,332
23,648	15,797	-0,468	-0,259
24,663	108,126	-0,296	-0,249
25,677	-90,235	-0,364	-0,074
26,692	41,403	-0,346	-0,220
27,707	325,806	-0,276	-0,373
28,721	238,610	-0,248	-0,290
29,736	-83,309	-0,432	-0,097
30,750	45,453	-0,408	-0,265
31,765	44,354	-0,321	-0,207
32,780	60,717	-0,251	-0,175
33,794	-50,351	-0,363	-0,120
34,809	85,053	-0,421	-0,324
35,823	128,952	-0,243	-0,218
36,838	246,375	-0,210	-0,249
37,853	78,799	-0,378	-0,284
38,867	23,934	-0,389	-0,225
39,882	79,843	-0,300	-0,226
40,896	123,046	-0,292	-0,257
41,911	171,657	-0,266	-0,269
42,926	222,761	-0,319	-0,361
43,940	-50,977	-0,405	-0,133
44,955	-22,060	-0,487	-0,207
45,969	45,045	-0,348	-0,225
46,984	-49,973	-0,348	-0,115
47,999	109,867	-0,283	-0,238
49,013	279,298	-0,220	-0,276
50,028	63,546	-0,270	-0,190
51,042	82,570	-0,394	-0,300
52,057	89,029	-0,383	-0,299
53,071	54,958	-0,278	-0,188
54,086	351,036	-0,179	-0,249
55,101	-80,150	-0,383	-0,089
56,115	296,996	-0,240	-0,310
57,130	182,811	-0,314	-0,325
58,144	42,068	-0,369	-0,235
59,159	37,120	-0,395	-0,245
60,174	229,211	-0,286	-0,328
61,188	117,890	-0,298	-0,258
62,203	52,859	-0,252	-0,169
63,217	43,589	-0,345	-0,221
64,232	16,591	-0,391	-0,216
65,247	197,371	-0,248	-0,266
66,261	87,175	-0,339	-0,263
67,276	136,448	-0,355	-0,325
68,290	150,935	-0,335	-0,319
69,305	-18,926	-0,331	-0,144
70,320	694,379	-0,121	-0,224
71,334	54,844	-0,403	-0,272
72,349	155,827	-0,273	-0,264
73,363	-84,635	-0,359	-0,079
74,378	33,350	-0,279	-0,170
75,393	137,296	-0,243	-0,223
76,407	150,848	-0,274	-0,262
77,422	243,799	-0,209	-0,246
78,436	39,581	-0,320	-0,201
79,451	27,758	-0,291	-0,171
80,466	70,033	-0,354	-0,256
81,480	326,782	-0,252	-0,339
82,495	-30,438	-0,257	-0,101
83,509	99,712	-0,178	-0,144
84,524	-30,656	-0,414	-0,163
85,539	124,185	-0,171	-0,151
86,553	-23,309	-0,320	-0,134
87,568	150,406	-0,310	-0,295
88,582	132,869	-0,288	-0,260
89,597	162,600	-0,275	-0,271
90,611	233,779	-0,241	-0,278
91,626	17,037	-0,196	-0,108
92,641	-67,163	-0,236	-0,065
93,655	332,166	-0,200	-0,270
94,670	282,330	-0,220	-0,277
95,684	-46,236	-0,344	-0,118
96,699	133,909	-0,261	-0,236
97,714	469,610	-0,130	-0,205
98,728	286,027	-0,170	-0,215
99,743	-13,628	-0,228	-0,103
100,757	-74,167	-0,256	-0,064
101,772	4,421	-0,370	-0,189
102,787	-107,444	-0,324	-0,049
103,801	241,503	-0,290	-0,340
104,816	268,642	-0,167	-0,205
105,830	52,031	-0,276	-0,183
106,845	21,781	-0,268	-0,152
107,860	-101,409	-0,346	-0,058
108,874	237,189	-0,235	-0,273
109,889	23,469	-0,230	-0,132
110,903	64,089	-0,295	-0,207
111,918	27,348	-0,238	-0,139
112,933	65,763	-0,220	-0,155
113,947	245,222	-0,180	-0,212
114,962	180,416	-0,115	-0,118
115,976	122,932	-0,268	-0,234
116,991	-9,816	-0,236	-0,109
118,006	777,427	-0,072	-0,139
119,020	67,750	-0,240	-0,171
120,035	316,384	-0,115	-0,152
121,049	0,218	-0,239	-0,119
122,064	-38,308	-0,256	-0,094
123,079	31,837	-0,279	-0,167
124,093	-21,610	-0,365	-0,154
125,108	57,854	-0,244	-0,166
126,122	22,131	-0,310	-0,176
127,137	368,808	-0,193	-0,273
128,151	-1,556	-0,194	-0,095
129,166	43,666	-0,230	-0,146
130,181	-64,787	-0,252	-0,071
131,195	-67,753	-0,340	-0,092
132,210	44,337	-0,322	-0,206
133,224	-84,027	-0,309	-0,068
134,239	-173,978	-0,271	-0,005
135,254	50,825	-0,203	-0,134
136,268	329,944	-0,176	-0,237
137,283	-58,068	-0,303	-0,091
138,297	106,249	-0,195	-0,161
139,312	82,001	-0,232	-0,175
140,327	-200,000	-0,078	-0,294
141,341	-3,054	-0,285	-0,138
142,356	357,801	-0,115	-0,160
143,370	106,252	-0,209	-0,172
144,385	93,183	-0,167	-0,132
145,400	40,997	-0,253	-0,159
146,414	72,073	-0,306	-0,222
147,429	333,270	-0,209	-0,283
148,443	-55,837	-0,301	-0,093
149,458	-102,814	-0,293	0,048
150,473	66,392	-0,271	-0,192
151,487	233,700	-0,248	-0,285
152,502	-52,950	-0,290	-0,092
153,516	800,000	-0,086	-0,170
154,531	-32,241	-0,328	-0,127
155,546	406,965	-0,128	-0,188
156,560	-42,617	-0,216	-0,076
157,575	-21,435	-0,256	-0,108
158,589	258,979	-0,243	-0,292
159,604	677,999	-0,138	-0,252
160,619	60,244	-0,325	-0,223
161,633	116,053	-0,218	-0,185
162,648	101,225	-0,280	-0,227
163,662	188,130	-0,069	-0,072
164,677	276,703	-0,152	-0,188
165,692	157,197	-0,250	-0,240
166,706	450,359	-0,148	-0,228
167,721	73,409	-0,367	-0,267
168,735	52,969	-0,271	-0,180
169,750	170,896	-0,189	-0,188
170,764	63,077	-0,237	-0,165
171,779	-6,189	-0,271	-0,128
172,794	58,957	-0,208	-0,142
173,808	-6,463	-0,225	-0,106
174,823	29,991	-0,294	-0,174
175,837	406,926	-0,109	-0,160
176,852	83,961	-0,104	-0,079
177,867	427,822	-0,154	-0,232
178,881	-109,918	-0,265	-0,038
179,896	89,999	-0,226	-0,176
180,910	800,000	-0,037	-0,105
181,925	91,584	-0,319	-0,249
182,940	800,000	-0,108	-0,244
183,954	428,636	-0,189	-0,285
184,969	284,990	-0,124	-0,155
185,983	-150,207	-0,208	-0,011
186,998	163,648	-0,171	-0,167
188,013	-31,191	-0,169	-0,066
189,027	-85,646	-0,358	-0,077
190,042	133,739	-0,218	-0,196
191,056	571,742	-0,179	-0,303
192,071	35,834	-0,317	-0,193
193,086	-64,636	-0,205	-0,057
194,100	328,555	-0,128	-0,171
195,115	53,974	-0,192	-0,128
196,129	8,875	-0,290	-0,151
197,144	62,297	-0,220	-0,152
198,159	-137,793	-0,156	-0,012
199,173	-52,193	-0,237	-0,076
200,188	563,257	-0,144	-0,243
201,202	154,776	-0,195	-0,186
202,217	127,487	-0,182	-0,160
203,232	-106,751	-0,271	-0,041
204,246	-107,947	-0,348	-0,052
205,261	206,126	-0,222	-0,239
206,275	147,890	-0,281	-0,263
207,290	342,748	-0,104	-0,141
208,304	159,243	-0,158	-0,152
209,319	345,145	-0,169	-0,231
210,334	138,340	-0,284	-0,258
211,348	381,993	-0,152	-0,217
212,363	705,372	-0,079	-0,145
213,377	-189,024	-0,178	-0,001
214,392	345,379	-0,019	-0,026
215,407	-158,898	-0,247	-0,010
216,421	227,904	-0,155	-0,175
217,436	-48,490	-0,206	-0,068
218,450	251,990	-0,208	-0,245
219,465	267,519	-0,180	-0,218
220,480	440,415	-0,099	-0,151
221,494	-18,690	-0,226	-0,097
222,509	-86,003	-0,100	-0,021
223,523	225,721	-0,149	-0,168
224,538	49,127	-0,181	-0,117
225,553	-32,025	-0,236	-0,091
226,567	-9,715	-0,242	-0,111
227,582	800,000	-0,142	-0,282
228,596	274,597	-0,139	-0,171
229,611	286,359	-0,162	-0,203
230,626	-12,156	-0,229	-0,103
231,640	-49,940	-0,181	-0,059
232,655	67,215	-0,265	-0,186
233,669	-3,838	-0,128	-0,061
234,684	13,246	-0,123	-0,066
235,699	-126,703	-0,205	-0,021
236,713	-32,355	-0,114	-0,044
237,728	-127,469	-0,183	-0,018
238,742	741,310	-0,118	-0,219
239,757	266,412	-0,125	-0,151
240,772	241,172	-0,261	-0,302
241,786	-72,027	-0,285	-0,073
242,801	-62,009	-0,218	-0,062
243,815	-167,641	-0,154	-0,004
244,830	-105,373	-0,225	0,035
245,844	-124,378	-0,131	-0,014
246,859	45,982	-0,148	-0,095
247,874	-87,016	-0,192	-0,040
248,888	269,598	-0,136	-0,165
249,903	-200,000	-0,003	-0,099
250,917	169,425	-0,244	-0,240
251,932	137,211	-0,151	-0,137
252,947	-45,204	-0,232	-0,079
253,961	-160,878	-0,165	0,006
254,976	697,348	-0,156	-0,284
255,990	800,000	-0,113	-0,262
257,005	280,205	-0,277	-0,343
258,020	217,316	-0,081	-0,089
259,034	-59,307	-0,318	0,094
260,049	-13,851	-0,175	-0,078
261,063	214,585	-0,123	-0,134
262,078	24,938	-0,113	-0,065
263,093	-20,309	-0,223	-0,094
264,107	261,507	-0,166	-0,199
265,122	10,294	-0,146	-0,076
266,136	-48,439	-0,196	-0,065
267,151	-189,288	-0,127	0,001
268,166	-66,414	-0,132	-0,036
269,180	44,734	-0,194	-0,123
270,195	20,989	-0,172	-0,096
271,209	373,069	-0,136	-0,191
272,224	406,267	-0,119	-0,174
273,239	238,646	-0,082	-0,094
274,253	-124,839	-0,134	-0,014
275,268	-108,114	-0,120	0,018
276,282	218,015	-0,159	-0,175
277,297	107,787	-0,146	-0,120
278,312	-78,504	-0,103	-0,024
279,326	195,919	-0,102	-0,106
280,341	240,383	-0,158	-0,182
281,355	-200,000	-0,053	-0,246
282,370	166,767	-0,158	-0,154
283,384	4,663	-0,257	-0,129
284,399	-29,329	-0,269	-0,106
285,414	-145,352	-0,190	-0,012
286,428	-48,775	-0,174	-0,057
287,443	402,675	-0,083	-0,121
288,457	18,517	-0,171	-0,094
289,472	102,231	-0,064	-0,051
290,487	-133,768	-0,215	-0,018
291,501	336,865	-0,132	-0,177
292,516	307,499	-0,207	-0,265
293,530	-200,000	0,003	-0,018
294,545	-117,150	-0,072	-0,009
295,560	35,635	-0,137	0,083
296,574	24,562	0,032	-0,018
297,589	235,872	-0,186	-0,212
298,603	115,120	-0,250	-0,209
299,618	8,551	-0,182	-0,094
300,633	-121,684	-0,155	-0,017
301,647	-62,672	-0,066	-0,019
302,662	21,687	-0,138	-0,077
303,676	59,443	-0,164	-0,111
304,691	235,917	-0,133	-0,152
305,706	-51,980	-0,197	-0,063
306,720	167,903	-0,159	-0,156
307,735	-24,655	-0,093	-0,038
308,749	-70,029	-0,091	-0,024
309,764	175,178	-0,180	-0,179
310,779	18,378	-0,187	-0,102
311,793	56,332	-0,254	-0,169
312,808	137,012	-0,122	-0,110
313,822	576,322	-0,061	-0,103
314,837	-123,459	-0,072	-0,008
315,852	-28,852	-0,196	0,077
316,866	-176,084	-0,344	-0,006
317,881	241,666	-0,086	-0,098
318,895	297,098	-0,157	-0,198
319,910	800,000	-0,090	-0,183
320,925	42,266	-0,138	-0,086
321,939	83,056	-0,115	-0,086
322,954	154,877	-0,124	-0,116
323,968	-27,295	-0,151	-0,060
324,983	68,070	-0,141	-0,099
325,997	235,944	-0,028	0,031
327,012	-14,226	-0,174	-0,077
328,027	-15,669	-0,139	-0,061
329,041	-200,000	0,002	0,035
330,056	-138,628	-0,046	-0,003
331,070	136,517	-0,026	-0,023
332,085	-200,000	-0,041	-0,182
333,100	-200,000	-0,002	-0,022
334,114	-49,346	-0,162	-0,053
335,129	-63,295	-0,120	-0,034
336,143	18,705	-0,123	-0,067
337,158	62,780	-0,192	-0,131
338,173	174,304	-0,096	-0,095
339,187	-91,652	-0,101	-0,020
340,202	344,457	-0,074	0,100
341,216	109,201	-0,100	-0,082
342,231	22,818	-0,229	-0,128
343,246	109,593	-0,217	-0,178
344,260	63,002	-0,080	-0,055
345,275	-81,785	-0,179	0,040
346,289	-200,000	0,003	-0,108
347,304	-200,000	-0,032	-0,187
348,319	-32,845	-0,180	-0,068
349,333	212,700	-0,158	-0,170
350,348	143,927	-0,118	-0,107
351,362	52,229	-0,165	-0,108
352,377	117,511	-0,127	-0,107
353,392	503,271	-0,024	-0,038
354,406	800,000	-0,064	-0,181
355,421	205,522	1310,957	1394,565
356,435	158,020	1471,178	1395,015
