DTS Sentinel unit serial number:	SN410029Multiplexer serial number:	ORYXHardware model number:	OX2-SRSoftware version number:	ORYX F/W v4,00 Oryx Data Collector v3.7.2.0data status	okinstallation	B3 Nyhavnadifferential loss correction	single-endedforward channel	channel 1reverse channel	N/Adate	2023/12/02time	19:42:30forward acquisition time	300,00reverse acquisition time	0,00gamma	499,1914k internal	0,3200k external	0,3200temperature offset calibration	1,0000default loss term (dB/km)	0,3820temperature slope calibration	1,0000multiplexer offset coefficient	1,0000multiplexer slope coefficient	1,0000fibre end	0,00T internal ref (°C)	13,34T ext. ref 1 (°C)	-1,87T ext. ref 2 (°C)	-1,89length (m)	temperature (°C)	Stokes	anti-Stokes-744,400	123,161	-0,218	-0,199
-743,385	-200,000	0,067	0,290
-742,371	407,212	-0,136	-0,209
-741,356	-200,000	0,036	0,343
-740,342	42,859	-0,209	-0,138
-739,327	-200,000	0,009	0,259
-738,312	169,839	-0,287	-0,299
-737,298	-200,000	0,005	0,336
-736,283	337,073	-0,193	-0,274
-735,269	-200,000	-0,004	0,299
-734,254	262,506	-0,254	-0,322
-733,239	-49,720	-0,174	0,060
-732,225	348,090	-0,128	-0,184
-731,210	131,464	0,060	0,056
-730,196	234,650	0,024	-0,029
-729,181	-138,480	-0,133	-0,010
-728,167	-85,078	-0,037	-0,008
-727,152	-148,524	0,042	0,002
-726,137	62,126	-0,090	-0,065
-725,123	200,267	-0,114	-0,128
-724,108	-200,000	0,024	-0,169
-723,094	119,462	-0,070	0,063
-722,079	40,870	-0,131	-0,086
-721,064	435,583	0,069	0,110
-720,050	242,207	0,022	0,027
-719,035	-85,471	-0,155	0,035
-718,021	-8,823	-0,166	-0,081
-717,006	-62,222	-0,117	0,035
-715,991	-200,000	0,000	0,131
-714,977	122,341	-0,031	0,028
-713,962	136,101	-0,074	-0,070
-712,948	129,167	0,079	-0,073
-711,933	-121,408	0,090	-0,011
-710,918	-120,111	-0,113	-0,014
-709,904	120,284	0,072	-0,065
-708,889	120,691	-0,240	0,216
-707,875	-11,411	-0,032	0,015
-706,860	292,270	0,073	-0,097
-705,845	800,000	-0,031	-0,096
-704,831	228,242	0,064	-0,076
-703,816	345,205	-0,038	0,055
-702,802	-96,120	-0,024	0,005
-701,787	230,392	-0,067	-0,080
-700,772	402,263	-0,096	-0,147
-699,758	-130,918	0,065	0,006
-698,743	-200,000	-0,030	0,109
-697,729	800,000	-0,018	0,043
-696,714	800,000	-0,009	0,018
-695,699	237,136	0,013	-0,016
-694,685	77,930	-0,050	0,039
-693,670	187,030	-0,123	-0,133
-692,656	-200,000	-0,002	0,048
-691,641	-200,000	-0,001	-0,170
-690,627	-15,470	0,096	0,044
-689,612	-198,485	-0,046	0,000
-688,597	-43,659	-0,131	-0,048
-687,583	605,710	-0,087	0,158
-686,568	297,153	-0,096	-0,129
-685,554	-200,000	0,000	-0,059
-684,539	53,748	0,095	-0,066
-683,524	-144,618	-0,037	-0,002
-682,510	800,000	-0,012	0,030
-681,495	-200,000	0,005	-0,031
-680,481	21,022	0,081	0,047
-679,466	-103,334	-0,071	0,012
-678,451	798,009	0,063	-0,126
-677,437	-166,082	-0,156	0,005
-676,422	-200,000	0,000	-0,097
-675,408	-120,053	-0,044	-0,005
-674,393	-154,782	0,102	0,005
-673,378	-89,628	-0,134	0,028
-672,364	-148,624	-0,073	-0,004
-671,349	320,976	-0,020	0,028
-670,335	-73,464	-0,023	-0,006
-669,320	16,379	0,092	0,053
-668,305	290,154	0,049	-0,064
-667,291	8,082	-0,116	0,063
-666,276	-68,984	0,092	-0,026
-665,262	-200,000	-0,008	-0,103
-664,247	49,475	-0,077	-0,053
-663,232	-200,000	-0,005	-0,043
-662,218	-200,000	0,007	-0,041
-661,203	-111,291	-0,090	0,013
-660,189	-148,726	0,074	0,004
-659,174	-70,959	0,076	-0,021
-658,159	-71,973	-0,125	-0,033
-657,145	-83,333	0,045	0,010
-656,130	-171,440	0,081	0,002
-655,116	-64,272	0,013	0,004
-654,101	213,914	0,073	0,084
-653,086	-19,555	-0,049	-0,022
-652,072	-93,328	-0,127	0,025
-651,057	1,472	0,068	-0,035
-650,043	281,252	-0,005	0,006
-649,028	-20,630	-0,064	-0,029
-648,014	461,335	-0,038	-0,062
-646,999	527,636	0,046	-0,079
-645,984	-86,159	0,064	0,014
-644,970	-200,000	-0,020	-0,082
-643,955	-200,000	0,024	-0,125
-642,941	-17,201	-0,107	0,049
-641,926	800,000	0,026	0,062
-640,911	-200,000	0,028	0,128
-639,897	553,031	0,083	0,145
-638,882	168,087	-0,047	-0,049
-637,868	342,546	-0,026	0,037
-636,853	185,276	-0,051	0,055
-635,838	-200,000	-0,031	0,135
-634,824	-36,922	0,176	0,068
-633,809	-200,000	0,009	-0,036
-632,795	339,469	0,076	-0,108
-631,780	-32,302	0,139	0,056
-630,765	800,000	0,031	0,077
-629,751	-200,000	-0,023	0,114
-628,736	45,020	-0,084	-0,056
-627,722	800,000	0,041	0,082
-626,707	-141,467	0,026	-0,002
-625,692	6,994	-0,022	0,012
-624,678	426,544	-0,032	0,050
-623,663	-12,876	-0,079	0,037
-622,649	-41,266	-0,020	0,007
-621,634	800,000	-0,054	-0,145
-620,619	800,000	0,024	-0,056
-619,605	-200,000	0,000	-0,112
-618,590	51,958	-0,060	-0,041
-617,576	665,785	0,043	-0,082
-616,561	800,000	-0,023	-0,069
-615,546	-166,298	0,022	-0,001
-614,532	-5,267	-0,175	-0,087
-613,517	-200,000	-0,018	0,106
-612,503	676,724	0,011	0,022
-611,488	-25,387	0,049	-0,021
-610,474	35,648	0,060	0,038
-609,459	-86,063	0,041	0,009
-608,444	131,373	0,073	0,068
-607,430	617,768	-0,030	-0,055
-606,415	-72,805	-0,190	0,050
-605,401	7,140	0,104	0,056
-604,386	800,000	0,052	0,161
-603,371	-200,000	-0,046	0,162
-602,357	-131,035	0,104	0,010
-601,342	81,717	-0,041	0,032
-600,328	-200,000	0,002	-0,046
-599,313	62,122	-0,097	-0,070
-598,298	-200,000	0,012	-0,111
-597,284	-131,041	0,054	0,005
-596,269	800,000	0,036	-0,105
-595,255	-200,000	-0,011	0,150
-594,240	-200,000	0,008	0,043
-593,225	-49,288	-0,131	0,045
-592,211	90,231	0,035	0,029
-591,196	-155,792	-0,046	-0,002
-590,182	800,000	0,047	0,139
-589,167	101,909	0,040	-0,034
-588,152	-200,000	-0,001	-0,008
-587,138	-57,511	-0,155	-0,049
-586,123	-200,000	0,007	-0,043
-585,109	121,451	-0,081	-0,073
-584,094	-200,000	-0,003	0,009
-583,079	-191,952	0,092	0,001
-582,065	47,111	-0,018	0,012
-581,050	-53,131	0,108	0,036
-580,036	-200,000	-0,007	-0,049
-579,021	4,507	-0,037	0,020
-578,006	-41,504	0,015	-0,006
-576,992	-64,716	-0,137	-0,040
-575,977	-200,000	0,003	0,024
-574,963	24,367	0,140	0,084
-573,948	-200,000	0,009	0,129
-572,934	800,000	-0,057	-0,125
-571,919	800,000	-0,034	-0,106
-570,904	-132,148	-0,074	-0,007
-569,890	52,119	0,020	-0,014
-568,875	-53,897	-0,081	0,027
-567,861	194,560	-0,043	0,047
-566,846	174,332	0,100	-0,105
-565,831	-200,000	0,014	-0,089
-564,817	-102,602	0,061	-0,010
-563,802	527,836	-0,078	-0,133
-562,788	155,409	0,041	-0,041
-561,773	-64,598	-0,035	-0,010
-560,758	-17,514	0,035	-0,016
-559,744	439,166	0,070	0,110
-558,729	-200,000	0,018	0,073
-557,715	26,791	0,061	0,037
-556,700	61,353	-0,109	-0,078
-555,685	-200,000	-0,028	-0,145
-554,671	185,147	0,042	-0,045
-553,656	-79,557	0,182	-0,044
-552,642	-200,000	-0,015	-0,195
-551,627	-151,823	0,081	-0,004
-550,612	25,027	-0,042	0,025
-549,598	-200,000	-0,037	-0,119
-548,583	286,708	0,079	-0,103
-547,569	-127,229	0,190	-0,020
-546,554	111,294	-0,075	0,065
-545,539	-7,182	0,099	0,048
-544,525	133,927	-0,100	0,093
-543,510	178,444	-0,058	0,061
-542,496	-139,787	-0,133	-0,010
-541,481	-124,066	-0,226	-0,025
-540,466	800,000	0,046	-0,111
-539,452	-200,000	0,051	0,172
-538,437	-19,346	-0,037	-0,017
-537,423	-45,428	0,108	-0,038
-536,408	800,000	-0,050	0,105
-535,393	249,746	-0,108	-0,132
-534,379	800,000	0,033	-0,091
-533,364	-5,192	-0,056	-0,027
-532,350	-121,572	0,126	0,015
-531,335	-1,602	-0,105	0,053
-530,321	-56,262	0,098	0,031
-529,306	72,667	-0,071	-0,054
-528,291	-200,000	-0,009	-0,067
-527,277	-129,728	0,010	0,001
-526,262	131,128	-0,026	-0,024
-525,248	291,785	-0,136	0,180
-524,233	-10,591	-0,043	-0,021
-523,218	167,647	0,054	0,055
-522,204	800,000	-0,061	-0,195
-521,189	-123,797	-0,041	0,005
-520,175	800,000	-0,038	-0,107
-519,160	-5,402	0,174	-0,086
-518,145	-21,210	0,034	-0,015
-517,131	800,000	-0,047	0,143
-516,116	13,952	0,096	-0,053
-515,102	444,863	0,052	0,083
-514,087	28,996	-0,091	0,056
-513,072	-4,386	-0,063	-0,031
-512,058	-200,000	0,003	-0,014
-511,043	13,682	-0,069	0,039
-510,029	-182,374	-0,085	-0,001
-509,014	7,404	0,090	-0,048
-507,999	-200,000	-0,009	0,101
-506,985	-103,621	-0,109	0,018
-505,970	704,873	-0,054	0,103
-504,956	800,000	0,038	0,077
-503,941	-200,000	-0,029	0,098
-502,926	343,381	0,055	0,078
-501,912	-9,977	-0,025	-0,012
-500,897	800,000	-0,060	0,188
-499,883	800,000	0,019	-0,059
-498,868	-49,910	-0,030	-0,010
-497,853	269,786	0,040	-0,051
-496,839	-200,000	-0,002	-0,034
-495,824	-200,000	0,000	0,014
-494,810	800,000	0,072	0,186
-493,795	-79,994	0,145	0,035
-492,781	128,507	0,084	0,077
-491,766	-46,640	-0,135	-0,048
-490,751	72,408	0,053	-0,040
-489,737	794,340	-0,057	0,113
-488,722	103,097	0,073	-0,061
-487,708	-112,065	0,211	0,030
-486,693	-25,603	-0,031	-0,013
-485,678	-136,224	0,048	-0,004
-484,664	-200,000	-0,004	-0,085
-483,649	225,351	0,020	-0,023
-482,635	-200,000	0,014	0,097
-481,620	-200,000	0,009	0,167
-480,605	103,805	-0,051	0,043
-479,591	308,591	-0,142	0,191
-478,576	449,106	0,067	0,107
-477,562	-200,000	-0,017	-0,118
-476,547	800,000	-0,024	0,064
-475,532	164,769	-0,067	-0,068
-474,518	-200,000	0,015	0,134
-473,503	-46,891	0,081	-0,028
-472,489	4,694	-0,068	0,036
-471,474	-200,000	-0,001	0,011
-470,459	-200,000	0,010	0,091
-469,445	-126,400	-0,202	-0,021
-468,430	800,000	-0,059	-0,137
-467,416	-24,867	0,053	0,023
-466,401	70,361	0,072	-0,053
-465,386	-200,000	-0,030	0,098
-464,372	513,177	-0,045	0,076
-463,357	185,140	0,053	0,056
-462,343	-200,000	0,013	0,047
-461,328	315,858	-0,046	0,063
-460,313	-0,731	0,128	0,065
-459,299	-3,933	0,030	0,015
-458,284	-60,010	0,144	-0,044
-457,270	-200,000	-0,044	0,163
-456,255	563,647	0,020	-0,035
-455,241	725,208	-0,114	-0,219
-454,226	-118,220	-0,118	0,015
-453,211	-200,000	-0,019	-0,101
-452,197	-200,000	0,011	0,037
-451,182	-87,925	-0,069	0,015
-450,168	-200,000	-0,004	-0,085
-449,153	-10,409	0,057	0,027
-448,138	-124,064	-0,127	0,014
-447,124	-200,000	0,003	-0,090
-446,109	8,069	-0,060	-0,032
-445,095	-200,000	0,019	0,070
-444,080	424,267	-0,066	0,103
-443,065	800,000	-0,028	0,060
-442,051	-196,506	-0,176	0,001
-441,036	-200,000	-0,035	-0,145
-440,022	-200,000	0,013	-0,128
-439,007	-30,751	0,063	0,025
-437,992	262,425	0,053	0,066
-436,978	71,403	0,116	0,086
-435,963	-200,000	0,004	0,198
-434,949	-57,670	-0,108	-0,034
-433,934	-66,947	0,131	-0,037
-432,919	-171,171	0,124	-0,003
-431,905	-59,490	0,105	-0,032
-430,890	-169,837	0,140	0,004
-429,876	141,115	-0,053	-0,050
-428,861	-200,000	0,020	0,121
-427,846	107,264	-0,101	0,086
-426,832	800,000	0,060	-0,126
-425,817	20,217	-0,107	-0,062
-424,803	-200,000	-0,026	-0,175
-423,788	151,981	0,030	-0,029
-422,773	617,523	0,016	0,029
-421,759	182,469	0,074	-0,079
-420,744	-200,000	-0,028	-0,121
-419,730	218,354	-0,071	0,081
-418,715	800,000	-0,034	-0,069
-417,701	52,760	0,054	-0,037
-416,686	-152,290	0,081	-0,004
-415,671	-200,000	-0,002	0,032
-414,657	239,458	0,046	0,055
-413,642	299,954	0,044	0,058
-412,628	-32,034	0,101	-0,040
-411,613	-200,000	0,034	-0,108
-410,598	323,674	0,043	-0,059
-409,584	800,000	-0,017	0,043
-408,569	-200,000	0,014	0,117
-407,555	530,951	-0,025	-0,042
-406,540	-200,000	0,029	0,121
-405,525	95,233	-0,053	-0,044
-404,511	3,485	-0,044	-0,023
-403,496	-29,329	0,033	0,014
-402,482	181,977	0,107	0,113
-401,467	800,000	-0,049	0,139
-400,452	373,980	-0,073	0,107
-399,438	-200,000	-0,011	-0,065
-398,423	-153,184	0,075	-0,004
-397,409	-11,202	-0,168	-0,079
-396,394	32,609	0,065	-0,040
-395,379	-200,000	-0,007	-0,040
-394,365	166,013	-0,032	0,032
-393,350	175,400	-0,058	-0,060
-392,336	800,000	0,056	0,135
-391,321	-200,000	-0,050	0,158
-390,306	278,627	-0,064	-0,083
-389,292	-60,929	0,014	0,004
-388,277	-0,502	-0,123	-0,062
-387,263	-48,790	0,182	0,062
-386,248	800,000	0,032	0,081
-385,233	800,000	0,066	0,147
-384,219	-200,000	-0,024	0,083
-383,204	103,574	-0,061	-0,051
-382,190	-200,000	-0,003	-0,032
-381,175	-47,139	-0,135	-0,047
-380,160	-46,405	0,171	-0,060
-379,146	-200,000	-0,006	0,118
-378,131	-200,000	-0,021	0,099
-377,117	-131,163	-0,087	0,008
-376,102	-73,737	-0,038	-0,010
-375,088	-200,000	-0,012	0,048
-374,073	800,000	-0,033	-0,089
-373,058	99,141	0,068	0,056
-372,044	800,000	-0,071	0,143
-371,029	-79,557	0,110	0,026
-370,015	316,811	0,084	-0,115
-369,000	-99,602	-0,124	-0,022
-367,985	-14,123	0,170	-0,078
-366,971	58,162	-0,043	0,030
-365,956	78,614	-0,062	-0,048
-364,942	179,863	0,059	0,062
-363,927	-96,838	0,117	-0,022
-362,912	-48,769	0,038	-0,013
-361,898	-200,000	-0,016	-0,081
-360,883	794,308	-0,099	-0,197
-359,869	-20,295	0,051	-0,023
-358,854	114,859	-0,048	-0,042
-357,839	-200,000	0,020	-0,084
-356,825	800,000	0,072	-0,173
-355,810	-135,805	-0,127	-0,011
-354,796	40,798	0,144	0,093
-353,781	30,088	-0,077	-0,047
-352,766	800,000	0,006	-0,014
-351,752	184,816	-0,059	0,063
-350,737	-7,659	0,167	-0,081
-349,723	-44,748	-0,035	0,012
-348,708	-200,000	-0,021	-0,071
-347,693	112,003	0,022	-0,019
-346,679	-200,000	-0,003	0,077
-345,664	-148,632	-0,106	-0,006
-344,650	7,882	0,101	-0,054
-343,635	-64,599	0,184	0,053
-342,620	-200,000	0,015	-0,137
-341,606	-200,000	0,017	-0,054
-340,591	-200,000	0,003	0,046
-339,577	144,246	-0,073	-0,070
-338,562	-200,000	-0,028	-0,150
-337,548	-200,000	-0,003	-0,031
-336,533	-200,000	0,018	0,079
-335,518	-200,000	-0,011	0,050
-334,504	12,384	-0,059	0,033
-333,489	120,235	-0,078	0,069
-332,475	-200,000	-0,002	-0,010
-331,460	21,322	0,041	-0,024
-330,445	151,188	-0,013	-0,012
-329,431	11,404	0,052	0,029
-328,416	75,954	0,090	-0,068
-327,402	-200,000	-0,008	0,077
-326,387	108,590	0,020	0,017
-325,372	93,800	-0,059	0,048
-324,358	-200,000	0,001	-0,183
-323,343	219,954	0,056	0,064
-322,329	-79,344	0,114	-0,027
-321,314	800,000	-0,025	-0,069
-320,299	-200,000	0,013	0,130
-319,285	-128,513	0,200	-0,020
-318,270	-200,000	0,009	-0,117
-317,256	-178,844	-0,114	0,002
-316,241	-127,599	0,140	0,014
-315,226	189,628	0,112	0,120
-314,212	-58,400	-0,069	-0,021
-313,197	-66,791	0,137	-0,038
-312,183	-200,000	-0,008	0,113
-311,168	72,553	-0,057	-0,042
-310,153	37,808	-0,035	-0,022
-309,139	319,072	0,067	0,091
-308,124	-172,743	0,196	0,004
-307,110	-200,000	0,014	-0,078
-306,095	-142,394	0,182	0,013
-305,080	68,160	-0,033	-0,024
-304,066	-200,000	0,010	-0,045
-303,051	110,193	-0,112	-0,096
-302,037	-35,376	-0,123	-0,048
-301,022	105,175	0,129	0,109
-300,008	-200,000	0,012	0,088
-298,993	-200,000	-0,048	0,179
-297,978	800,000	-0,017	-0,035
-296,964	800,000	0,028	-0,068
-295,949	260,263	-0,092	0,114
-294,935	73,978	-0,135	-0,101
-293,920	-26,745	-0,073	-0,030
-292,905	-200,000	-0,005	0,034
-291,891	740,391	-0,038	-0,074
-290,876	800,000	0,056	0,122
-289,862	-48,282	0,097	0,033
-288,847	-200,000	-0,014	-0,146
-287,832	279,692	-0,076	0,097
-286,818	-200,000	0,004	-0,034
-285,803	198,277	0,035	-0,038
-284,789	-34,060	-0,084	-0,033
-283,774	196,809	0,112	-0,122
-282,759	62,280	0,051	0,036
-281,745	-76,387	0,084	-0,021
-280,730	141,153	0,012	0,012
-279,716	-129,885	0,055	0,005
-278,701	20,581	-0,006	0,004
-277,686	-200,000	-0,026	0,107
-276,672	800,000	-0,047	-0,141
-275,657	16,769	0,123	-0,069
-274,643	800,000	0,070	0,200
-273,628	800,000	-0,040	-0,104
-272,613	-72,287	-0,075	0,020
-271,599	407,051	-0,041	0,063
-270,584	235,345	0,023	-0,027
-269,570	525,513	-0,001	0,002
-268,555	249,479	-0,017	-0,021
-267,540	57,320	-0,069	0,048
-266,526	418,622	0,029	-0,044
-265,511	-200,000	0,005	-0,211
-264,497	-63,684	0,091	-0,026
-263,482	-200,000	-0,035	0,150
-262,467	-200,000	-0,009	0,028
-261,453	-200,000	0,003	0,039
-260,438	-18,577	0,096	0,043
-259,424	-99,888	-0,108	-0,019
-258,409	472,458	-0,046	-0,074
-257,395	800,000	-0,020	0,060
-256,380	347,166	0,052	0,074
-255,365	132,802	-0,037	0,034
-254,351	-101,479	0,087	0,015
-253,336	800,000	-0,050	-0,142
-252,322	800,000	-0,024	0,075
-251,307	558,312	-0,038	-0,065
-250,292	206,503	0,064	-0,072
-249,278	-133,442	0,143	0,013
-248,263	78,750	-0,081	0,061
-247,249	152,450	-0,034	-0,034
-246,234	-57,925	0,077	-0,024
-245,219	-54,710	-0,183	-0,059
-244,205	68,361	-0,145	-0,106
-243,190	-110,843	-0,034	0,005
-242,176	-200,000	-0,001	0,069
-241,161	-179,548	0,126	0,002
-240,146	800,000	0,021	0,051
-239,132	800,000	-0,079	-0,217
-238,117	174,232	-0,030	0,031
-237,103	-200,000	-0,018	0,000
-236,088	-200,000	0,005	-0,068
-235,073	-159,118	0,048	0,002
-234,059	37,219	0,136	0,086
-233,044	-200,000	0,001	-0,006
-232,030	437,792	0,039	-0,060
-231,015	-11,101	-0,078	-0,037
-230,000	-200,000	0,020	0,067
-228,986	-132,739	-0,161	0,014
-227,971	-200,000	0,004	-0,051
-226,957	800,000	0,063	0,172
-225,942	-200,000	-0,012	-0,047
-224,927	595,845	0,011	-0,020
-223,913	342,193	-0,085	-0,118
-222,898	56,990	-0,068	0,047
-221,884	369,911	0,059	-0,086
-220,869	-200,000	-0,008	-0,142
-219,855	800,000	-0,060	0,187
-218,840	21,482	-0,018	-0,011
-217,825	-70,393	-0,046	-0,012
-216,811	-200,000	-0,003	-0,133
-215,796	-85,265	0,098	0,022
-214,782	777,606	0,014	0,028
-213,767	-80,102	0,124	0,029
-212,752	-4,973	-0,048	-0,023
-211,738	393,624	0,048	0,071
-210,723	800,000	-0,028	-0,056
-209,709	-67,501	-0,095	-0,026
-208,694	-200,000	-0,012	-0,056
-207,679	30,355	-0,052	0,031
-206,665	-67,647	0,094	-0,026
-205,650	-200,000	-0,024	-0,149
-204,636	543,438	-0,089	-0,152
-203,621	-25,396	-0,078	0,033
-202,606	24,747	-0,037	-0,022
-201,592	22,326	-0,165	-0,096
-200,577	-200,000	0,011	-0,062
-199,563	-51,273	0,051	0,017
-198,548	-200,000	0,019	0,111
-197,533	-200,000	0,009	0,078
-196,519	800,000	0,014	0,033
-195,504	-77,912	-0,051	0,012
-194,490	-80,775	-0,064	-0,015
-193,475	15,172	-0,033	0,018
-192,460	298,002	0,023	-0,030
-191,446	-200,000	0,023	0,129
-190,431	223,574	0,148	0,171
-189,417	95,988	-0,066	0,054
-188,402	-105,667	-0,228	0,036
-187,387	-31,875	-0,056	0,022
-186,373	21,354	-0,097	-0,056
-185,358	800,000	-0,017	-0,046
-184,344	-9,214	0,082	0,039
-183,329	-200,000	-0,032	-0,107
-182,315	-200,000	-0,041	0,216
-181,300	-200,000	0,005	0,020
-180,285	-200,000	0,011	-0,137
-179,271	-130,939	0,012	0,001
-178,256	-162,776	-0,128	-0,004
-177,242	-200,000	-0,003	0,048
-176,227	175,332	0,017	0,017
-175,212	62,900	0,130	-0,092
-174,198	-101,182	0,165	-0,028
-173,183	-200,000	0,016	0,058
-172,169	202,108	-0,105	-0,115
-171,154	751,613	-0,015	-0,029
-170,139	255,532	0,074	0,090
-169,125	-3,812	-0,064	0,031
-168,110	-112,731	0,115	-0,016
-167,096	-173,908	-0,132	-0,003
-166,081	-86,396	0,013	-0,003
-165,066	-51,467	-0,125	-0,041
-164,052	137,884	0,116	0,108
-163,037	76,926	0,003	-0,002
-162,023	800,000	0,029	-0,067
-161,008	-200,000	0,000	-0,024
-159,993	374,670	0,025	0,036
-158,979	-200,000	0,022	-0,113
-157,964	800,000	0,038	-0,087
-156,950	27,610	-0,049	-0,029
-155,935	-140,986	-0,192	0,014
-154,920	277,243	0,040	0,051
-153,906	-81,551	0,091	0,021
-152,891	27,416	0,042	-0,025
-151,877	84,949	-0,083	-0,065
-150,862	718,931	-0,040	-0,075
-149,847	245,274	-0,049	-0,059
-148,833	-53,181	0,038	-0,012
-147,818	179,023	0,072	0,075
-146,804	-200,000	0,013	0,190
-145,789	98,154	0,115	0,094
-144,775	-189,359	0,037	0,000
-143,760	-130,566	-0,103	0,010
-142,745	-41,198	-0,100	-0,036
-141,731	-200,000	-0,003	0,110
-140,716	800,000	0,044	0,092
-139,702	800,000	0,001	-0,002
-138,687	800,000	0,005	-0,009
-137,672	-106,464	-0,107	-0,017
-136,658	-45,467	-0,059	0,021
-135,643	-4,191	0,177	-0,087
-134,629	763,076	-0,050	0,097
-133,614	596,082	0,044	0,077
-132,599	800,000	-0,011	0,024
-131,585	-200,000	-0,011	0,079
-130,570	166,127	0,045	0,045
-129,556	312,177	0,048	-0,064
-128,541	-151,991	-0,089	0,005
-127,526	-62,597	0,047	-0,014
-126,512	-90,062	0,070	0,014
-125,497	-200,000	0,022	0,082
-124,483	197,544	0,155	0,168
-123,468	-200,000	0,018	0,069
-122,453	17,598	-0,058	-0,033
-121,439	-200,000	-0,018	-0,243
-120,424	441,978	0,090	-0,140
-119,410	312,276	0,054	-0,072
-118,395	-115,605	0,074	-0,010
-117,380	292,171	-0,008	-0,010
-116,366	-75,003	-0,154	0,039
-115,351	-107,202	0,059	-0,009
-114,337	182,452	-0,082	-0,086
-113,322	-200,000	0,018	-0,091
-112,307	-173,856	0,041	0,001
-111,293	800,000	0,062	0,161
-110,278	800,000	0,024	-0,052
-109,264	64,654	0,101	-0,072
-108,249	800,000	0,041	-0,123
-107,234	208,668	-0,033	-0,037
-106,220	800,000	-0,028	-0,087
-105,205	-200,000	0,027	0,220
-104,191	69,332	0,124	0,090
-103,176	800,000	0,022	0,063
-102,162	129,030	0,020	-0,018
-101,147	28,625	-0,098	-0,059
-100,132	-173,929	0,149	-0,003
-99,118	800,000	0,043	-0,106
-98,103	245,655	-0,034	-0,041
-97,089	129,622	0,036	0,033
-96,074	-33,839	-0,060	0,023
-95,059	74,319	-0,068	0,051
-94,045	103,202	-0,070	-0,058
-93,030	-200,000	-0,004	-0,089
-92,016	-200,000	0,021	-0,240
-91,001	214,156	0,070	-0,079
-89,986	-69,123	0,073	0,020
-88,972	644,894	0,086	0,157
-87,957	65,786	0,032	0,023
-86,943	-128,369	-0,138	-0,014
-85,928	86,949	-0,036	-0,028
-84,913	-32,220	0,044	-0,018
-83,899	121,504	-0,135	0,119
-82,884	414,934	0,084	-0,127
-81,870	63,838	0,040	-0,028
-80,855	406,972	0,103	0,154
-79,840	94,553	-0,018	0,015
-78,826	35,291	0,026	-0,016
-77,811	-200,000	0,029	-0,163
-76,797	213,316	-0,039	0,043
-75,782	356,514	0,087	0,124
-74,767	-51,787	0,157	-0,052
-73,753	800,000	-0,051	0,124
-72,738	800,000	-0,019	-0,053
-71,724	212,382	0,120	0,135
-70,709	-40,371	0,086	-0,032
-69,694	-200,000	-0,035	-0,187
-68,680	-105,223	-0,090	0,014
-67,665	271,604	0,101	-0,126
-66,651	800,000	0,010	-0,021
-65,636	800,000	-0,033	-0,076
-64,622	-200,000	0,019	-0,098
-63,607	-200,000	-0,047	-0,224
-62,592	46,507	-0,026	0,017
-61,578	800,000	-0,038	0,090
-60,563	800,000	0,041	0,082
-59,549	-200,000	-0,061	0,268
-58,534	-19,795	-1,696	-0,740
-57,519	436,344	-1,403	-2,171
-56,505	-200,000	-0,542	-4,533
-55,490	165,885	0,946	0,948
-54,476	800,000	5,045	11,119
-53,461	-200,000	19,343	320,029
-52,446	-200,000	741,021	2334,284
-51,432	572,507	1656,031	2868,863
-50,417	78,251	1671,235	1262,056
-49,403	21,334	1543,902	885,934
-48,388	15,209	1466,506	811,729
-47,373	17,944	1456,611	819,437
-46,359	16,665	1446,637	807,663
-45,344	13,450	1442,098	789,686
-44,330	13,411	1439,904	788,266
-43,315	13,392	1438,236	787,233
-42,300	13,382	1436,407	786,154
-41,286	13,411	1435,279	785,641
-40,271	13,349	1434,165	784,705
-39,257	13,337	1432,804	783,875
-38,242	13,467	1431,227	783,601
-37,227	13,432	1430,234	782,858
-36,213	13,417	1428,898	782,021
-35,198	13,355	1427,900	781,153
-34,184	13,458	1426,762	780,987
-33,169	13,426	1425,434	780,076
-32,154	13,482	1424,544	779,825
-31,140	13,449	1423,103	778,848
-30,125	13,450	1421,948	778,192
-29,111	13,491	1420,813	777,734
-28,096	13,462	1419,677	776,944
-27,082	13,396	1418,470	775,941
-26,067	13,335	1417,686	775,192
-25,052	13,395	1416,428	774,756
-24,038	13,371	1415,304	773,997
-23,023	13,327	1414,480	773,310
-22,009	13,336	1413,605	772,843
-20,994	13,352	1412,637	772,360
-19,979	13,317	1411,973	771,800
-18,965	13,335	1410,866	771,251
-17,950	13,338	1409,740	770,617
-16,936	13,299	1408,952	769,973
-15,921	13,242	1407,788	769,040
-14,906	13,284	1406,779	768,655
-13,892	13,264	1405,938	768,072
-12,877	13,271	1405,078	767,603
-11,863	13,297	1404,193	767,212
-10,848	13,274	1403,363	766,617
-9,833	13,235	1402,500	765,934
-8,819	13,194	1401,735	765,297
-7,804	13,206	1400,630	764,717
-6,790	13,191	1399,779	764,155
-5,775	13,234	1398,467	763,607
-4,760	13,174	1397,694	762,875
-3,746	13,215	1396,477	762,370
-2,731	13,153	1396,095	761,843
-1,717	13,170	1395,070	761,334
-0,702	13,120	1393,084	759,988
0,313	16,943	1310,251	732,521
1,327	33,178	703,735	430,966
2,342	51,202	123,132	82,546
3,356	2,815	16,642	8,517
4,371	6,537	3,206	1,681
5,386	-8,455	0,572	0,271
6,400	-200,000	-0,040	0,371
7,415	173,780	-0,185	-0,189
8,429	30,166	-0,337	-0,203
9,444	18,966	-0,318	-0,179
10,459	76,019	-0,225	-0,168
11,473	93,953	-0,252	-0,202
12,488	-40,752	-0,243	-0,088
13,502	22,794	-0,340	-0,196
14,517	-138,281	-0,334	-0,026
15,531	243,443	-0,248	-0,295
16,546	-56,104	-0,439	-0,137
17,561	170,931	-0,284	-0,288
18,575	-167,073	-0,212	-0,006
19,590	0,917	-0,283	-0,143
20,604	68,908	-0,272	-0,197
21,619	76,391	-0,544	-0,407
22,634	74,322	-0,484	-0,359
23,648	244,775	-0,305	-0,362
24,663	36,774	-0,425	-0,265
25,677	-104,533	-0,282	-0,046
26,692	-1,391	-0,403	-0,200
27,707	-13,897	-0,261	-0,118
28,721	-109,595	-0,315	-0,046
29,736	103,444	-0,388	-0,322
30,750	-28,305	-0,497	-0,202
31,765	70,451	-0,383	-0,279
32,780	100,696	-0,365	-0,299
33,794	126,197	-0,269	-0,240
34,809	35,884	-0,400	-0,248
35,823	155,945	-0,392	-0,381
36,838	180,894	-0,296	-0,307
37,853	9,791	-0,414	-0,221
38,867	71,111	-0,355	-0,259
39,882	81,057	-0,377	-0,287
40,896	142,481	-0,314	-0,294
41,911	69,215	-0,265	-0,192
42,926	161,380	-0,332	-0,328
43,940	186,840	-0,295	-0,310
44,955	112,744	-0,320	-0,273
45,969	-1,420	-0,387	-0,192
46,984	71,274	-0,321	-0,235
47,999	48,690	-0,320	-0,211
49,013	2,402	-0,391	-0,199
50,028	25,514	-0,234	-0,137
51,042	222,239	-0,315	-0,358
52,057	-18,974	-0,257	-0,112
53,071	95,660	-0,399	-0,321
54,086	156,637	-0,302	-0,294
55,101	177,661	-0,259	-0,266
56,115	45,540	-0,455	-0,295
57,130	28,798	-0,326	-0,194
58,144	190,250	-0,308	-0,326
59,159	34,287	-0,359	-0,220
60,174	3,496	-0,459	-0,235
61,188	84,762	-0,354	-0,273
62,203	168,697	-0,249	-0,250
63,217	-81,342	-0,241	-0,055
64,232	17,608	-0,429	-0,239
65,247	190,439	-0,251	-0,266
66,261	-72,365	-0,267	-0,069
67,276	59,028	-0,339	-0,234
68,290	-54,732	-0,346	-0,109
69,305	-70,034	-0,329	-0,088
70,320	-31,709	-0,417	-0,164
71,334	-34,859	-0,417	-0,159
72,349	615,189	-0,108	-0,191
73,363	49,252	-0,415	-0,274
74,378	147,365	-0,350	-0,332
75,393	172,117	-0,281	-0,285
76,407	52,435	-0,291	-0,195
77,422	-21,737	-0,183	-0,078
78,436	65,392	-0,292	-0,207
79,451	205,302	-0,212	-0,232
80,466	-11,433	-0,389	-0,179
81,480	38,038	-0,317	-0,198
82,495	158,708	-0,169	-0,165
83,509	126,992	-0,328	-0,292
84,524	-133,081	-0,241	0,021
85,539	67,888	-0,327	-0,234
86,553	46,820	-0,219	-0,143
87,568	239,619	-0,304	-0,356
88,582	46,032	-0,273	-0,177
89,597	800,000	-0,119	-0,248
90,611	-7,428	-0,239	-0,113
91,626	-10,122	-0,236	-0,110
92,641	-85,973	-0,299	-0,064
93,655	79,796	-0,264	-0,199
94,670	7,408	-0,220	-0,115
95,684	8,901	-0,467	-0,247
96,699	-56,032	-0,226	-0,070
97,714	-82,620	-0,309	-0,070
98,728	42,120	-0,261	-0,166
99,743	-15,529	-0,372	-0,166
100,757	82,290	-0,354	-0,269
101,772	7,898	-0,348	-0,182
102,787	81,009	-0,195	-0,147
103,801	81,934	-0,317	-0,241
104,816	-9,605	-0,375	-0,175
105,830	181,336	-0,226	-0,233
106,845	75,088	-0,249	-0,184
107,860	171,568	-0,222	-0,224
108,874	18,241	-0,306	-0,171
109,889	374,786	-0,274	-0,393
110,903	-12,558	-0,223	-0,102
111,918	37,748	-0,215	-0,133
112,933	21,742	-0,188	-0,107
113,947	-62,775	-0,253	-0,073
114,962	17,742	-0,250	-0,139
115,976	537,504	-0,151	-0,252
116,991	195,893	-0,272	-0,290
118,006	-28,112	-0,343	-0,138
119,020	77,654	-0,286	-0,213
120,035	57,693	-0,274	-0,187
121,049	440,503	-0,156	-0,239
122,064	-21,946	-0,343	-0,145
123,079	100,258	-0,155	-0,126
124,093	156,296	-0,239	-0,231
125,108	-66,065	-0,338	-0,094
126,122	-18,624	-0,216	-0,094
127,137	25,816	-0,249	-0,145
128,151	63,636	-0,258	-0,181
129,166	156,127	-0,147	-0,141
130,181	165,585	-0,274	-0,271
131,195	182,696	-0,240	-0,248
132,210	42,215	-0,244	-0,155
133,224	72,603	-0,346	-0,252
134,239	247,980	-0,203	-0,241
135,254	-3,699	-0,310	-0,150
136,268	122,619	-0,399	-0,349
137,283	558,730	-0,180	-0,305
138,297	88,129	-0,313	-0,243
139,312	-4,598	-0,394	-0,189
140,327	103,877	-0,203	-0,167
141,341	229,451	-0,217	-0,249
142,356	111,564	-0,158	-0,133
143,370	115,374	-0,171	-0,146
144,385	-44,685	-0,350	-0,122
145,400	263,216	-0,181	-0,220
146,414	-82,541	-0,366	-0,082
147,429	135,975	-0,204	-0,186
148,443	93,447	-0,172	-0,136
149,458	89,715	-0,329	-0,256
150,473	108,927	-0,165	-0,138
151,487	-24,761	-0,253	-0,105
152,502	38,485	-0,377	-0,234
153,516	112,027	-0,255	-0,215
154,531	-28,354	-0,220	-0,088
155,546	192,248	-0,220	-0,232
156,560	-82,297	-0,232	-0,052
157,575	466,776	-0,184	-0,289
158,589	183,114	-0,140	-0,144
159,604	50,708	-0,200	-0,132
160,619	101,921	-0,289	-0,235
161,633	71,205	-0,266	-0,192
162,648	14,610	-0,278	-0,151
163,662	25,541	-0,230	-0,133
164,677	157,564	-0,202	-0,196
165,692	-4,583	-0,248	-0,119
166,706	392,131	-0,196	-0,285
167,721	-55,929	-0,350	-0,108
168,735	8,162	-0,240	-0,125
169,750	208,847	-0,173	-0,189
170,764	534,485	-0,157	-0,260
171,779	70,323	-0,114	-0,082
172,794	-101,778	-0,245	-0,041
173,808	62,178	-0,187	-0,130
174,823	155,860	-0,143	-0,138
175,837	297,779	-0,188	-0,241
176,852	93,278	-0,182	-0,144
177,867	273,995	-0,188	-0,233
178,881	162,198	-0,147	-0,144
179,896	182,795	-0,234	-0,241
180,910	-78,085	-0,278	-0,066
181,925	334,250	-0,161	-0,218
182,940	227,396	-0,246	-0,279
183,954	66,548	-0,198	-0,140
184,969	120,443	-0,164	-0,142
185,983	-18,780	-0,172	-0,074
186,998	173,388	-0,130	-0,130
188,013	549,870	-0,151	-0,253
189,027	260,470	-0,258	-0,311
190,042	-24,411	-0,236	-0,097
191,056	144,578	-0,285	-0,265
192,071	266,549	-0,191	-0,233
193,086	37,989	-0,256	-0,158
194,100	279,468	-0,188	-0,234
195,115	122,804	-0,188	-0,163
196,129	-46,064	-0,185	-0,063
197,144	75,387	-0,239	-0,176
198,159	-200,000	-0,078	-0,460
199,173	21,916	-0,143	-0,081
200,188	196,104	-0,170	-0,180
201,202	165,443	-0,175	-0,172
202,217	-200,000	-0,035	-0,204
203,232	28,316	-0,330	-0,194
204,246	-84,422	-0,241	-0,053
205,261	331,046	-0,147	-0,198
206,275	-6,316	-0,165	-0,078
207,290	45,020	-0,091	-0,058
208,304	-200,000	-0,061	-0,224
209,319	233,808	-0,195	-0,223
210,334	243,630	-0,143	-0,167
211,348	800,000	-0,174	-0,359
212,363	240,727	-0,138	-0,160
213,377	-200,000	-0,011	-0,168
214,392	38,564	-0,194	-0,120
215,407	-40,068	-0,146	-0,053
216,421	-22,771	-0,135	-0,056
217,436	115,371	-0,168	-0,142
218,450	155,111	-0,263	-0,251
219,465	118,811	-0,311	-0,266
220,480	71,810	-0,207	-0,149
221,494	59,065	-0,191	-0,130
222,509	227,689	-0,124	-0,140
223,523	121,816	-0,101	-0,087
224,538	-38,473	-0,225	-0,082
225,553	-4,314	-0,176	-0,084
226,567	-140,170	-0,222	-0,016
227,582	46,512	-0,200	-0,128
228,596	-200,000	-0,002	-0,163
229,611	-200,000	-0,022	-0,093
230,626	800,000	0,046	-0,095
231,640	800,000	-0,073	-0,194
232,655	53,198	-0,270	-0,179
233,669	186,405	-0,175	-0,181
234,684	-75,656	-0,229	-0,056
235,699	-27,173	-0,222	-0,089
236,713	119,188	-0,135	0,116
237,728	9,182	-0,086	0,045
238,742	-144,426	-0,143	0,009
239,757	-59,608	-0,238	-0,070
240,772	174,005	-0,160	-0,160
241,786	297,552	-0,111	-0,141
242,801	120,632	-0,245	-0,211
243,815	-200,000	-0,037	-0,154
244,830	-20,182	-0,221	-0,094
245,844	307,951	-0,232	-0,301
246,859	222,997	-0,209	-0,233
247,874	364,976	-0,224	-0,314
248,888	496,339	-0,192	-0,306
249,903	-200,000	-0,090	-0,294
250,917	230,361	-0,168	-0,190
251,932	198,259	-0,124	-0,131
252,947	-60,958	-0,240	-0,070
253,961	100,121	-0,135	-0,109
254,976	77,257	-0,204	-0,150
255,990	347,287	-0,220	-0,300
257,005	137,222	-0,204	-0,184
258,020	240,399	-0,040	-0,046
259,034	-92,579	-0,186	-0,036
260,049	138,925	-0,136	-0,123
261,063	800,000	-0,025	-0,069
262,078	-200,000	-0,052	-0,198
263,093	535,744	-0,160	-0,263
264,107	184,783	-0,160	-0,164
265,122	222,303	-0,136	-0,152
266,136	796,765	-0,099	-0,190
267,151	269,048	-0,155	-0,188
268,166	32,305	-0,239	-0,142
269,180	28,587	-0,281	-0,164
270,195	-32,698	-0,302	-0,115
271,209	-16,761	-0,276	-0,120
272,224	352,816	-0,206	-0,282
273,239	-46,877	-0,063	-0,021
274,253	143,813	-0,181	-0,167
275,268	148,270	-0,169	-0,158
276,282	133,579	-0,276	-0,246
277,297	-16,002	-0,238	-0,104
278,312	325,596	-0,154	-0,204
279,326	22,972	-0,165	-0,093
280,341	-99,038	-0,157	-0,027
281,355	64,251	-0,308	-0,214
282,370	100,087	-0,204	-0,163
283,384	279,879	-0,166	-0,205
284,399	321,209	-0,131	-0,172
285,414	231,673	-0,088	-0,100
286,428	96,213	-0,105	-0,083
287,443	360,934	-0,122	-0,169
288,457	-92,595	-0,241	-0,046
289,472	3,703	-0,150	-0,075
290,487	268,181	-0,091	-0,110
291,501	165,581	-0,180	-0,176
292,516	800,000	-0,110	-0,213
293,530	210,914	-0,089	-0,097
294,545	800,000	-0,072	-0,201
295,560	-93,381	-0,116	-0,022
296,574	171,653	-0,152	-0,151
297,589	135,159	-0,157	-0,141
298,603	-78,723	-0,265	-0,062
299,618	31,394	-0,112	-0,066
300,633	-173,601	-0,185	0,004
301,647	-98,075	-0,112	0,020
302,662	-39,709	-0,104	0,037
303,676	-123,481	-0,106	0,012
304,691	92,969	-0,175	-0,136
305,706	508,833	-0,112	-0,180
306,720	173,794	-0,139	-0,138
307,735	-111,807	-0,187	-0,026
308,749	-132,621	-0,229	0,020
309,764	-2,169	-0,101	-0,049
310,779	-113,705	-0,124	-0,016
311,793	-25,599	-0,075	0,030
312,808	128,173	-0,212	-0,186
313,822	0,093	-0,154	-0,075
314,837	-200,000	-0,019	-0,163
315,852	-53,512	-0,125	-0,039
316,866	-180,552	-0,096	-0,001
317,881	-83,981	-0,127	0,028
318,895	-49,731	-0,122	-0,040
319,910	705,982	-0,107	-0,195
320,925	-33,056	-0,131	-0,050
321,939	40,600	-0,216	-0,134
322,954	-200,000	-0,051	-0,177
323,968	-200,000	0,005	-0,178
324,983	800,000	-0,060	-0,125
325,997	126,921	-0,192	-0,168
327,012	47,069	-0,186	-0,118
328,027	-55,945	-0,203	0,062
329,041	153,987	-0,178	-0,168
330,056	19,075	-0,206	-0,113
331,070	119,423	-0,144	0,123
332,085	112,892	-0,164	-0,137
333,100	157,748	-0,252	-0,240
334,114	100,348	-0,192	-0,153
335,129	114,605	-0,160	-0,134
336,143	10,868	-0,156	-0,082
337,158	593,754	-0,180	-0,307
338,173	24,689	-0,161	-0,091
339,187	141,995	-0,163	-0,149
340,202	-200,000	-0,006	-0,145
341,216	86,124	-0,206	-0,156
342,231	346,194	-0,108	-0,146
343,246	-75,434	-0,062	-0,015
344,260	215,204	-0,094	-0,103
345,275	-49,663	-0,156	0,051
346,289	800,000	-0,018	0,037
347,304	586,410	-0,100	-0,169
348,319	415,689	-0,125	-0,183
349,333	491,685	-0,083	-0,132
350,348	16,364	-0,200	-0,108
351,362	29,990	-0,112	-0,065
352,377	124,755	-0,176	-0,152
353,392	1,668	-0,157	-0,077
354,406	-200,000	-0,031	-0,140
355,421	208,697	1312,395	1410,494
356,435	160,592	1472,826	1410,977
