DTS Sentinel unit serial number:	SN410029Multiplexer serial number:	ORYXHardware model number:	OX2-SRSoftware version number:	ORYX F/W v4,00 Oryx Data Collector v3.7.2.0data status	okinstallation	B3 Nyhavnadifferential loss correction	single-endedforward channel	channel 1reverse channel	N/Adate	2023/11/30time	02:47:30forward acquisition time	300,00reverse acquisition time	0,00gamma	499,1914k internal	0,3210k external	0,3210temperature offset calibration	1,0000default loss term (dB/km)	0,3820temperature slope calibration	1,0000multiplexer offset coefficient	1,0000multiplexer slope coefficient	1,0000fibre end	0,00T internal ref (°C)	10,33T ext. ref 1 (°C)	-5,32T ext. ref 2 (°C)	-5,44length (m)	temperature (°C)	Stokes	anti-Stokes-744,400	373,935	-0,255	-0,377
-743,385	98,718	0,207	0,173
-742,371	484,668	-0,160	-0,265
-741,356	-200,000	0,062	0,268
-740,342	-190,040	-0,048	0,000
-739,327	800,000	-0,066	0,137
-738,312	314,720	-0,186	-0,255
-737,298	484,666	-0,152	0,252
-736,283	173,763	-0,278	-0,291
-735,269	-200,000	-0,036	0,401
-734,254	188,714	-0,139	-0,151
-733,239	-187,094	-0,253	-0,002
-732,225	-200,000	-0,055	-0,314
-731,210	-200,000	-0,046	0,295
-730,196	-85,175	-0,122	-0,027
-729,181	-200,000	-0,019	-0,095
-728,167	-200,000	0,023	-0,103
-727,152	800,000	-0,038	0,116
-726,137	42,229	-0,126	0,083
-725,123	102,092	-0,022	-0,019
-724,108	31,802	-0,042	-0,026
-723,094	109,325	-0,177	-0,154
-722,079	-200,000	0,004	-0,096
-721,064	-104,828	-0,037	0,006
-720,050	800,000	-0,070	-0,213
-719,035	29,908	-0,029	-0,018
-718,021	-162,157	-0,138	0,005
-717,006	672,846	-0,029	-0,055
-715,991	-16,561	-0,177	-0,081
-714,977	-137,535	-0,211	0,017
-713,962	264,919	0,074	-0,094
-712,948	44,974	0,043	0,029
-711,933	-96,486	-0,187	0,035
-710,918	-116,185	0,112	-0,015
-709,904	-116,118	-0,159	-0,021
-708,889	-200,000	-0,025	-0,130
-707,875	800,000	0,050	-0,104
-706,860	-200,000	0,048	-0,258
-705,845	74,368	0,127	-0,097
-704,831	-200,000	0,017	0,096
-703,816	-93,046	0,023	-0,005
-702,802	27,505	0,107	-0,065
-701,787	-6,174	-0,104	-0,051
-700,772	-58,797	0,017	0,005
-699,758	800,000	0,013	0,036
-698,743	-200,000	0,009	0,044
-697,729	-134,992	0,054	-0,005
-696,714	-9,421	0,137	0,066
-695,699	800,000	-0,095	-0,218
-694,685	340,439	-0,058	-0,081
-693,670	201,548	-0,068	-0,076
-692,656	-48,077	-0,055	0,019
-691,641	34,064	-0,017	-0,011
-690,627	-113,692	0,063	0,009
-689,612	227,925	0,042	-0,050
-688,597	800,000	-0,052	0,107
-687,583	800,000	-0,035	-0,072
-686,568	55,859	-0,032	-0,023
-685,554	112,825	-0,121	0,106
-684,539	-111,962	0,156	-0,023
-683,524	-153,142	0,042	0,002
-682,510	800,000	-0,014	-0,039
-681,495	150,634	-0,007	0,007
-680,481	800,000	0,052	-0,146
-679,466	-200,000	-0,010	-0,055
-678,451	-200,000	0,025	0,082
-677,437	-123,900	0,141	0,016
-676,422	-200,000	-0,014	-0,100
-675,408	-158,029	-0,133	-0,006
-674,393	-200,000	0,006	-0,091
-673,378	-200,000	-0,016	0,052
-672,364	-200,000	-0,027	-0,122
-671,349	-200,000	-0,019	0,074
-670,335	-200,000	-0,067	0,000
-669,320	22,852	-0,039	-0,023
-668,305	171,793	-0,095	-0,099
-667,291	432,542	0,052	-0,081
-666,276	-200,000	-0,005	-0,027
-665,262	-45,892	-0,148	-0,052
-664,247	104,085	-0,087	-0,074
-663,232	-200,000	0,024	0,130
-662,218	44,402	0,092	0,061
-661,203	137,980	-0,056	-0,053
-660,189	-200,000	0,003	-0,140
-659,174	131,359	-0,139	-0,129
-658,159	-169,664	0,056	0,001
-657,145	308,449	0,055	0,075
-656,130	-200,000	-0,004	-0,044
-655,116	800,000	-0,017	-0,050
-654,101	-22,014	0,136	0,059
-653,086	-200,000	-0,017	0,081
-652,072	-11,545	-0,153	-0,072
-651,057	-37,410	-0,075	-0,029
-650,043	800,000	0,043	-0,088
-649,028	-82,861	-0,065	0,015
-648,014	149,868	0,064	-0,063
-646,999	-90,864	0,090	0,019
-645,984	-200,000	0,018	0,077
-644,970	-200,000	0,016	-0,219
-643,955	800,000	-0,058	-0,163
-642,941	-200,000	-0,051	-0,171
-641,926	-135,100	0,032	-0,003
-640,911	-21,365	-0,081	0,035
-639,897	294,758	0,014	-0,018
-638,882	-200,000	-0,006	0,038
-637,868	800,000	-0,056	-0,136
-636,853	49,899	-0,148	-0,100
-635,838	-200,000	0,017	-0,087
-634,824	-194,639	-0,088	0,000
-633,809	162,319	0,075	-0,076
-632,795	124,970	0,043	0,039
-631,780	800,000	-0,075	0,202
-630,765	-200,000	0,025	0,102
-629,751	655,029	-0,027	-0,050
-628,736	-200,000	0,011	-0,081
-627,722	-23,396	-0,238	-0,103
-626,707	-114,140	0,073	0,010
-625,692	63,688	-0,104	0,076
-624,678	-60,929	0,233	-0,071
-623,663	-200,000	-0,018	-0,063
-622,649	-200,000	0,009	-0,032
-621,634	29,852	-0,102	-0,063
-620,619	800,000	-0,024	-0,071
-619,605	616,946	-0,012	0,023
-618,590	-93,436	0,056	0,011
-617,576	-72,901	-0,032	-0,008
-616,561	-200,000	0,030	-0,121
-615,546	199,876	-0,033	0,037
-614,532	-200,000	-0,005	-0,022
-613,517	424,570	-0,050	0,078
-612,503	800,000	-0,047	0,102
-611,488	-162,052	0,016	0,001
-610,474	444,067	0,018	-0,028
-609,459	42,017	0,157	0,103
-608,444	-157,437	-0,108	-0,005
-607,430	-200,000	-0,039	0,168
-606,415	-148,413	-0,166	-0,010
-605,401	-200,000	-0,008	0,085
-604,386	-108,128	-0,081	-0,012
-603,371	-200,000	-0,054	0,178
-602,357	-166,941	-0,102	-0,003
-601,342	273,425	-0,021	-0,027
-600,328	-43,719	-0,117	-0,042
-599,313	-63,462	-0,080	0,024
-598,298	-200,000	-0,021	0,119
-597,284	128,421	-0,052	-0,047
-596,269	800,000	0,063	0,172
-595,255	-34,589	0,148	0,058
-594,240	19,614	0,022	0,013
-593,225	307,948	-0,136	-0,184
-592,211	-22,576	0,056	0,024
-591,196	24,487	0,050	0,030
-590,182	48,295	0,076	0,051
-589,167	113,914	-0,037	0,032
-588,152	-45,895	0,165	0,058
-587,138	-97,789	-0,146	0,027
-586,123	398,433	-0,040	-0,060
-585,109	-34,642	0,096	-0,038
-584,094	800,000	-0,031	-0,062
-583,079	118,316	-0,046	0,041
-582,065	-92,867	0,217	0,043
-581,050	800,000	-0,034	-0,078
-580,036	37,743	-0,085	0,054
-579,021	18,629	0,055	0,032
-578,006	800,000	0,025	0,069
-576,992	-29,012	-0,092	0,038
-575,977	799,309	-0,035	-0,070
-574,963	-200,000	-0,016	-0,082
-573,948	800,000	-0,073	0,162
-572,934	91,603	0,104	-0,084
-571,919	-200,000	0,072	0,000
-570,904	800,000	0,022	-0,052
-569,890	47,665	-0,083	-0,056
-568,875	183,837	-0,036	-0,038
-567,861	-138,282	0,111	0,009
-566,846	-168,089	-0,080	0,002
-565,831	-200,000	0,004	-0,022
-564,817	-200,000	0,012	0,055
-563,802	30,095	-0,072	-0,044
-562,788	-8,711	-0,088	-0,043
-561,773	-50,930	0,109	0,037
-560,758	73,945	-0,094	0,071
-559,744	-17,264	-0,121	0,055
-558,729	-73,774	0,068	-0,018
-557,715	-57,658	-0,304	-0,095
-556,700	575,683	0,022	0,039
-555,685	-120,429	-0,092	0,011
-554,671	800,000	-0,010	-0,024
-553,656	800,000	-0,004	-0,011
-552,642	-200,000	0,007	-0,066
-551,627	-32,869	0,071	-0,028
-550,612	114,757	-0,036	0,032
-549,598	800,000	0,045	0,116
-548,583	800,000	0,021	-0,043
-547,569	488,747	0,030	-0,049
-546,554	800,000	0,011	0,029
-545,539	800,000	0,028	-0,062
-544,525	359,014	0,025	-0,036
-543,510	-200,000	0,001	-0,027
-542,496	-46,355	-0,093	-0,033
-541,481	-200,000	0,033	-0,157
-540,466	-145,859	0,090	0,006
-539,452	3,560	-0,048	-0,025
-538,437	-117,030	-0,064	-0,008
-537,423	-200,000	0,014	0,077
-536,408	-200,000	0,015	-0,145
-535,393	-94,268	-0,087	-0,017
-534,379	-26,584	-0,109	0,046
-533,364	-109,186	-0,080	-0,012
-532,350	-200,000	0,025	0,082
-531,335	800,000	0,025	0,073
-530,321	800,000	0,076	0,160
-529,306	-159,808	-0,124	-0,005
-528,291	800,000	-0,048	-0,150
-527,277	330,973	-0,030	-0,042
-526,262	-200,000	-0,002	0,029
-525,248	-200,000	-0,006	0,109
-524,233	41,000	-0,039	-0,025
-523,218	-16,313	-0,144	-0,065
-522,204	-200,000	-0,006	-0,120
-521,189	-138,735	0,058	0,004
-520,175	-200,000	-0,028	0,090
-519,160	-200,000	0,010	-0,054
-518,145	174,670	-0,031	0,032
-517,131	-200,000	0,006	0,125
-516,116	620,883	0,046	0,084
-515,102	-200,000	-0,014	-0,087
-514,087	-200,000	0,011	-0,043
-513,072	539,381	-0,046	0,079
-512,058	-57,916	0,136	-0,043
-511,043	-31,236	-0,015	-0,006
-510,029	-87,648	0,131	0,028
-509,014	-200,000	0,019	-0,068
-507,999	-200,000	-0,013	-0,098
-506,985	-7,857	-0,109	-0,053
-505,970	207,919	0,072	-0,081
-504,956	81,022	-0,027	-0,021
-503,941	223,408	0,059	-0,068
-502,926	800,000	-0,050	0,136
-501,912	204,065	0,036	0,040
-500,897	128,529	0,073	0,066
-499,883	-169,348	0,170	-0,004
-498,868	206,396	-0,115	-0,129
-497,853	-104,277	0,038	0,006
-496,839	-25,455	0,072	0,031
-495,824	206,538	-0,098	0,109
-494,810	-32,752	0,091	0,036
-493,795	391,647	-0,086	0,129
-492,781	-200,000	-0,031	-0,141
-491,766	495,319	-0,031	0,052
-490,751	48,164	0,043	-0,029
-489,737	-105,275	0,178	-0,029
-488,722	388,056	0,022	0,034
-487,708	-200,000	-0,011	0,137
-486,693	71,034	-0,057	0,042
-485,678	-148,847	-0,012	0,001
-484,664	455,728	0,031	-0,050
-483,649	372,988	-0,100	-0,146
-482,635	132,632	0,072	0,066
-481,620	123,093	-0,054	0,049
-480,605	-167,518	0,121	-0,003
-479,591	-123,993	-0,092	-0,010
-478,576	-200,000	-0,001	-0,028
-477,562	800,000	-0,067	-0,149
-476,547	-200,000	0,015	-0,078
-475,532	136,525	-0,036	-0,034
-474,518	-200,000	0,022	0,131
-473,503	28,798	0,031	0,019
-472,489	267,772	0,074	0,093
-471,474	-67,971	0,159	-0,044
-470,459	453,297	-0,099	-0,158
-469,445	800,000	-0,040	-0,095
-468,430	-156,539	-0,088	0,004
-467,416	-120,856	-0,081	-0,010
-466,401	-173,221	0,264	-0,006
-465,386	719,066	0,010	-0,020
-464,372	-43,107	0,074	0,027
-463,357	-200,000	-0,020	0,070
-462,343	-200,000	0,013	-0,046
-461,328	28,943	-0,087	-0,053
-460,313	-27,828	0,042	0,017
-459,299	-183,247	-0,076	-0,001
-458,284	-200,000	-0,004	0,053
-457,270	-21,145	-0,066	0,029
-456,255	-135,900	0,081	-0,007
-455,241	800,000	-0,053	-0,120
-454,226	187,805	0,042	0,045
-453,211	-183,432	0,042	-0,001
-452,197	59,072	-0,118	0,083
-451,182	-200,000	-0,026	0,115
-450,168	-1,684	-0,037	-0,019
-449,153	210,727	-0,119	-0,135
-448,138	-6,058	0,151	-0,074
-447,124	500,416	-0,023	-0,039
-446,109	345,277	-0,030	-0,042
-445,095	800,000	0,046	-0,098
-444,080	15,259	0,116	-0,065
-443,065	800,000	0,028	-0,077
-442,051	133,659	-0,069	0,064
-441,036	800,000	0,043	0,094
-440,022	33,019	-0,116	0,072
-439,007	-200,000	0,107	-0,000
-437,992	28,171	0,068	0,041
-436,978	255,055	0,050	0,062
-435,963	-59,029	0,190	0,058
-434,949	-200,000	-0,000	-0,064
-433,934	-11,696	-0,121	-0,057
-432,919	236,795	-0,022	-0,026
-431,905	461,661	-0,082	0,131
-430,890	-45,571	0,095	0,034
-429,876	-115,728	0,067	-0,009
-428,861	-200,000	-0,039	-0,183
-427,846	-200,000	-0,004	-0,045
-426,832	251,242	0,020	0,024
-425,817	800,000	-0,056	-0,167
-424,803	43,017	0,004	-0,003
-423,788	-190,139	-0,105	0,001
-422,773	476,643	0,061	0,099
-421,759	-112,231	0,089	-0,013
-420,744	-200,000	0,009	-0,098
-419,730	-180,660	-0,034	-0,000
-418,715	178,264	-0,098	-0,102
-417,701	15,298	0,020	0,011
-416,686	160,060	-0,121	0,121
-415,671	800,000	0,057	0,155
-414,657	-121,664	-0,074	-0,009
-413,642	800,000	0,016	-0,036
-412,628	-11,111	-0,127	-0,060
-411,613	298,788	-0,037	-0,049
-410,598	406,212	0,022	0,033
-409,584	181,140	0,029	-0,030
-408,569	-63,695	0,066	-0,019
-407,555	-200,000	-0,002	0,019
-406,540	-156,952	0,066	0,003
-405,525	396,061	-0,097	0,145
-404,511	-33,777	0,024	0,009
-403,496	-142,208	-0,145	-0,010
-402,482	800,000	0,052	0,115
-401,467	800,000	0,055	-0,139
-400,452	194,992	-0,041	0,045
-399,438	-5,731	-0,093	0,045
-398,423	-25,401	-0,211	0,089
-397,409	569,395	0,013	0,023
-396,394	615,635	-0,049	-0,089
-395,379	-117,680	-0,222	-0,028
-394,365	-60,600	0,112	-0,034
-393,350	-200,000	-0,009	0,048
-392,336	800,000	0,034	-0,101
-391,321	-200,000	-0,019	0,079
-390,306	-42,809	0,054	0,020
-389,292	-200,000	0,000	-0,122
-388,277	-54,474	0,133	-0,043
-387,263	-200,000	0,016	0,111
-386,248	17,982	0,092	0,052
-385,233	800,000	-0,039	0,120
-384,219	-114,982	0,077	-0,010
-383,204	-200,000	0,009	-0,077
-382,190	-73,041	-0,105	-0,027
-381,175	411,117	-0,087	-0,133
-380,160	-200,000	-0,004	-0,074
-379,146	-200,000	0,007	-0,070
-378,131	-200,000	-0,008	0,029
-377,117	260,428	-0,039	-0,048
-376,102	225,274	-0,077	-0,089
-375,088	-119,821	0,129	-0,016
-374,073	-200,000	-0,022	0,101
-373,058	-70,890	0,185	0,049
-372,044	-200,000	-0,006	-0,163
-371,029	-31,758	-0,039	0,015
-370,015	-200,000	0,000	0,051
-369,000	800,000	0,022	-0,056
-367,985	800,000	0,051	-0,118
-366,971	800,000	-0,016	-0,047
-365,956	4,861	0,082	0,043
-364,942	343,736	0,081	0,114
-363,927	-58,264	0,148	0,046
-362,912	413,146	0,011	0,017
-361,898	-200,000	0,020	0,154
-360,883	83,573	-0,021	0,016
-359,869	-8,343	-0,019	-0,009
-358,854	-200,000	-0,002	-0,031
-357,839	68,087	0,054	0,039
-356,825	-181,369	0,185	-0,003
-355,810	-125,536	0,168	0,018
-354,796	792,151	-0,037	0,072
-353,781	255,869	-0,014	-0,017
-352,766	6,209	0,049	0,026
-351,752	-200,000	0,011	-0,080
-350,737	-200,000	-0,030	0,099
-349,723	748,175	0,052	0,100
-348,708	800,000	0,028	-0,077
-347,693	-10,761	0,122	-0,058
-346,679	29,983	-0,100	0,061
-345,664	-200,000	-0,030	-0,262
-344,650	-200,000	0,004	-0,106
-343,635	718,353	-0,033	0,063
-342,620	3,519	0,148	0,077
-341,606	637,145	0,022	0,040
-340,591	203,022	-0,047	-0,052
-339,577	266,158	-0,083	-0,104
-338,562	45,630	0,036	-0,024
-337,548	-200,000	0,002	-0,062
-336,533	800,000	-0,065	0,192
-335,518	258,193	-0,041	0,051
-334,504	-200,000	-0,001	0,104
-333,489	59,557	0,071	-0,050
-332,475	616,086	0,033	0,060
-331,460	-200,000	-0,012	0,080
-330,445	-171,914	-0,040	-0,001
-329,431	-34,123	0,142	-0,055
-328,416	-28,144	0,090	-0,037
-327,402	800,000	-0,050	0,108
-326,387	-88,061	0,076	0,016
-325,372	800,000	-0,059	-0,180
-324,358	-200,000	0,019	-0,075
-323,343	-200,000	0,000	0,046
-322,329	-200,000	0,026	-0,175
-321,314	192,968	0,039	0,042
-320,299	286,926	0,008	-0,010
-319,285	16,173	0,034	-0,019
-318,270	-200,000	0,001	0,013
-317,256	7,931	-0,110	-0,059
-316,241	5,353	0,076	-0,040
-315,226	-3,394	0,093	0,046
-314,212	800,000	0,073	0,146
-313,197	-200,000	0,004	-0,017
-312,183	-131,891	-0,171	-0,016
-311,168	118,994	-0,008	0,007
-310,153	0,754	-0,093	-0,047
-309,139	800,000	-0,034	0,074
-308,124	48,390	0,059	0,039
-307,110	-200,000	0,035	-0,134
-306,095	187,192	-0,065	0,069
-305,080	800,000	0,021	0,047
-304,066	87,783	-0,035	0,028
-303,051	-200,000	0,006	-0,082
-302,037	29,510	-0,038	0,023
-301,022	215,528	-0,055	-0,062
-300,008	213,991	-0,047	-0,054
-298,993	800,000	-0,051	0,125
-297,978	-200,000	-0,012	-0,064
-296,964	-123,356	0,092	0,010
-295,949	423,874	-0,020	0,031
-294,935	-27,582	0,087	-0,036
-293,920	155,259	0,046	-0,045
-292,905	250,987	0,092	0,111
-291,891	148,794	0,155	-0,149
-290,876	-20,096	-0,119	0,052
-289,862	45,960	-0,085	-0,056
-288,847	-200,000	0,001	-0,097
-287,832	-200,000	-0,017	0,092
-286,818	800,000	0,017	-0,042
-285,803	-200,000	0,002	0,137
-284,789	-87,701	0,065	0,014
-283,774	-168,273	0,150	0,004
-282,759	-200,000	0,009	-0,135
-281,745	-200,000	0,016	0,089
-280,730	800,000	-0,049	-0,116
-279,716	-126,066	-0,028	0,003
-278,701	-60,903	-0,050	-0,015
-277,686	102,702	-0,011	0,009
-276,672	800,000	0,029	0,065
-275,657	-33,827	0,069	-0,027
-274,643	464,089	0,032	-0,051
-273,628	416,405	0,064	-0,097
-272,613	159,937	-0,096	0,095
-271,599	-200,000	-0,004	-0,031
-270,584	8,412	0,171	0,091
-269,570	-200,000	0,028	0,117
-268,555	800,000	0,046	0,136
-267,540	-76,960	-0,082	-0,020
-266,526	142,984	-0,074	0,070
-265,511	-114,068	0,072	0,010
-264,497	-200,000	0,024	0,204
-263,482	-200,000	-0,010	0,127
-262,467	800,000	-0,047	0,121
-261,453	-200,000	0,007	0,069
-260,438	-36,176	0,076	-0,029
-259,424	305,358	-0,077	0,103
-258,409	-200,000	-0,019	0,061
-257,395	31,500	0,044	-0,027
-256,380	191,857	-0,092	0,098
-255,365	-147,525	-0,080	0,005
-254,351	288,950	0,077	0,100
-253,336	-200,000	-0,004	-0,078
-252,322	-200,000	0,006	0,115
-251,307	73,553	0,098	-0,073
-250,292	-200,000	-0,041	0,167
-249,278	194,455	0,061	-0,066
-248,263	-49,087	0,075	-0,025
-247,249	-4,181	-0,027	0,013
-246,234	-200,000	0,030	-0,138
-245,219	800,000	-0,039	0,098
-244,205	147,308	-0,042	0,040
-243,190	7,799	-0,035	-0,019
-242,176	-200,000	-0,009	0,063
-241,161	403,899	0,071	0,107
-240,146	-36,633	-0,051	-0,019
-239,132	800,000	0,022	-0,059
-238,117	-83,104	-0,071	0,016
-237,103	150,013	0,077	-0,074
-236,088	-80,896	0,049	0,011
-235,073	-200,000	0,016	0,173
-234,059	-200,000	0,017	0,079
-233,044	-200,000	0,021	-0,086
-232,030	-175,071	-0,032	-0,001
-231,015	-29,242	0,086	-0,035
-230,000	-200,000	-0,010	-0,059
-228,986	17,558	0,085	0,048
-227,971	-76,266	-0,098	-0,024
-226,957	-81,864	0,104	-0,024
-225,942	800,000	-0,006	0,013
-224,927	-200,000	0,010	-0,178
-223,913	-200,000	-0,007	-0,028
-222,898	-200,000	-0,007	-0,056
-221,884	-150,339	0,090	-0,005
-220,869	-200,000	0,011	0,072
-219,855	-0,519	0,083	0,042
-218,840	800,000	-0,021	0,042
-217,825	-61,898	0,040	-0,012
-216,811	-200,000	-0,017	-0,073
-215,796	-138,839	-0,070	0,005
-214,782	276,464	-0,065	-0,082
-213,767	-40,246	-0,072	-0,027
-212,752	320,660	-0,045	0,061
-211,738	599,393	-0,058	0,102
-210,723	109,317	0,022	-0,019
-209,709	-73,765	-0,069	0,018
-208,694	175,937	0,071	-0,074
-207,679	44,768	0,095	0,062
-206,665	800,000	0,042	0,109
-205,650	282,875	0,141	0,181
-204,636	63,075	-0,084	-0,060
-203,621	-20,412	-0,170	0,074
-202,606	-200,000	-0,001	-0,035
-201,592	-200,000	0,027	-0,086
-200,577	40,740	-0,031	-0,020
-199,563	-88,536	-0,056	-0,012
-198,548	-112,713	-0,111	-0,015
-197,533	-52,729	0,043	-0,014
-196,519	-200,000	0,037	0,000
-195,504	-200,000	0,026	0,142
-194,490	-84,439	0,068	-0,015
-193,475	-200,000	-0,008	-0,157
-192,460	-200,000	0,009	-0,078
-191,446	344,490	0,117	0,164
-190,431	657,533	0,082	0,150
-189,417	800,000	0,055	0,115
-188,402	16,365	-0,109	-0,061
-187,387	-31,807	-0,069	0,027
-186,373	-200,000	0,006	-0,031
-185,358	-200,000	-0,001	-0,025
-184,344	-11,724	-0,075	0,035
-183,329	-168,101	0,079	-0,002
-182,315	-200,000	0,002	-0,007
-181,300	800,000	-0,037	-0,090
-180,285	-200,000	0,001	-0,046
-179,271	800,000	0,017	-0,049
-178,256	-83,191	-0,057	-0,013
-177,242	-80,877	0,014	-0,003
-176,227	800,000	0,028	0,076
-175,212	370,145	0,016	0,023
-174,198	-200,000	-0,013	0,047
-173,183	648,857	0,048	-0,088
-172,169	-80,205	0,057	-0,013
-171,154	-76,776	0,089	-0,022
-170,139	-49,879	-0,120	-0,040
-169,125	26,479	-0,141	-0,083
-168,110	556,792	0,032	0,055
-167,096	42,158	0,080	-0,051
-166,081	-49,273	-0,061	-0,021
-165,066	800,000	0,055	-0,121
-164,052	337,788	0,020	-0,028
-163,037	696,014	0,015	-0,028
-162,023	-59,724	0,116	0,035
-161,008	-200,000	-0,009	0,114
-159,993	-200,000	-0,009	-0,047
-158,979	89,687	-0,152	0,120
-157,964	-200,000	0,011	-0,088
-156,950	-167,532	0,044	0,001
-155,935	-18,342	-0,097	0,043
-154,920	117,713	0,103	-0,090
-153,906	84,622	-0,089	0,069
-152,891	50,964	-0,050	0,034
-151,877	-67,799	0,046	0,013
-150,862	-200,000	0,006	-0,058
-149,847	50,402	-0,035	-0,023
-148,833	776,153	-0,012	0,022
-147,818	-64,501	0,118	0,034
-146,804	-43,815	0,041	0,015
-145,789	53,966	0,075	0,051
-144,775	800,000	-0,058	-0,151
-143,760	71,435	-0,046	-0,034
-142,745	-200,000	-0,001	0,119
-141,731	-121,292	-0,177	-0,021
-140,716	-171,341	0,160	0,004
-139,702	800,000	-0,067	0,134
-138,687	48,759	0,073	-0,048
-137,672	287,905	0,023	0,029
-136,658	131,735	-0,043	0,039
-135,643	-200,000	-0,017	0,138
-134,629	800,000	0,014	0,041
-133,614	800,000	-0,020	0,041
-132,599	393,675	0,045	0,067
-131,585	-10,381	0,163	0,076
-130,570	800,000	-0,026	0,067
-129,556	-27,848	0,101	0,041
-128,541	17,714	0,078	-0,044
-127,526	-11,718	-0,158	-0,073
-126,512	489,341	0,090	-0,146
-125,497	105,358	-0,133	0,111
-124,483	-200,000	-0,004	0,043
-123,468	344,319	0,033	-0,046
-122,453	-200,000	0,010	0,071
-121,439	-200,000	0,030	-0,149
-120,424	-33,017	-0,085	-0,033
-119,410	-200,000	0,024	0,104
-118,395	-143,118	0,061	-0,004
-117,380	-200,000	0,006	-0,057
-116,366	800,000	0,038	0,081
-115,351	103,561	0,060	0,050
-114,337	238,823	-0,089	-0,105
-113,322	643,705	-0,039	-0,070
-112,307	800,000	0,042	0,124
-111,293	-125,732	-0,099	-0,010
-110,278	439,084	0,009	-0,014
-109,264	329,691	0,068	0,092
-108,249	800,000	-0,030	-0,059
-107,234	402,956	-0,068	-0,101
-106,220	-101,446	-0,088	-0,015
-105,205	-70,780	-0,044	0,012
-104,191	-200,000	-0,011	0,048
-103,176	-200,000	-0,006	0,131
-102,162	-130,502	0,023	0,002
-101,147	-156,960	0,027	-0,001
-100,132	-99,360	-0,060	-0,011
-99,118	208,116	-0,124	0,138
-98,103	800,000	0,006	0,013
-97,089	-200,000	-0,001	0,062
-96,074	-200,000	0,020	0,066
-95,059	91,278	-0,053	0,042
-94,045	63,090	-0,115	0,081
-93,030	-58,352	0,123	-0,038
-92,016	640,806	-0,082	-0,149
-91,001	-200,000	-0,007	-0,025
-89,986	-200,000	0,003	0,078
-88,972	-9,749	0,086	-0,041
-87,957	80,120	-0,033	-0,025
-86,943	75,392	0,069	0,051
-85,928	-31,273	-0,063	-0,025
-84,913	476,689	-0,081	0,129
-83,899	-200,000	0,032	0,156
-82,884	114,010	0,141	0,122
-81,870	76,870	-0,092	-0,069
-80,855	45,555	0,036	0,024
-79,840	3,372	-0,091	0,047
-78,826	-200,000	-0,005	0,028
-77,811	235,126	-0,083	-0,097
-76,797	-200,000	-0,022	0,072
-75,782	-78,930	0,011	-0,003
-74,767	279,738	0,048	-0,060
-73,753	485,812	-0,061	0,099
-72,738	-28,968	0,026	-0,011
-71,724	233,690	-0,080	-0,093
-70,709	298,660	-0,102	-0,133
-69,694	-177,179	0,021	0,000
-68,680	-30,839	-0,042	-0,017
-67,665	-29,644	-0,088	-0,035
-66,651	-120,553	-0,051	-0,006
-65,636	62,575	-0,106	-0,075
-64,622	64,147	-0,090	0,064
-63,607	-15,940	-0,204	-0,091
-62,592	-200,000	0,013	-0,067
-61,578	-200,000	-0,009	-0,075
-60,563	223,886	-0,071	0,081
-59,549	238,510	0,082	0,096
-58,534	36,692	-2,021	-1,258
-57,519	508,100	-1,223	-2,013
-56,505	-200,000	-0,347	-4,418
-55,490	327,696	1,014	1,377
-54,476	800,000	5,123	11,148
-53,461	-200,000	21,097	338,035
-52,446	800,000	758,435	2349,742
-51,432	557,383	1661,494	2839,180
-50,417	73,633	1662,034	1227,963
-49,403	18,165	1535,519	862,478
-48,388	12,204	1458,670	790,474
-47,373	19,266	1449,684	819,475
-46,359	15,488	1439,178	795,527
-45,344	10,461	1434,940	769,206
-44,330	10,347	1433,027	767,606
-43,315	10,330	1431,287	766,562
-42,300	10,350	1429,361	765,598
-41,286	10,367	1428,193	765,024
-40,271	10,368	1426,844	764,274
-39,257	10,395	1425,706	763,762
-38,242	10,435	1424,539	763,298
-37,227	10,421	1423,643	762,721
-36,213	10,382	1422,393	761,836
-35,198	10,399	1421,030	761,155
-34,184	10,435	1420,155	760,828
-33,169	10,400	1418,869	759,940
-32,154	10,405	1417,918	759,428
-31,140	10,443	1416,522	758,827
-30,125	10,429	1415,555	758,212
-29,111	10,432	1414,592	757,679
-28,096	10,377	1413,349	756,729
-27,082	10,390	1412,095	756,086
-26,067	10,338	1411,159	755,311
-25,052	10,389	1409,937	754,865
-24,038	10,429	1408,829	754,429
-23,023	10,395	1408,078	753,837
-22,009	10,359	1406,872	752,997
-20,994	10,349	1405,949	752,424
-19,979	10,373	1405,163	752,084
-18,965	10,278	1404,313	751,157
-17,950	10,300	1403,026	750,541
-16,936	10,311	1402,390	750,222
-15,921	10,222	1401,648	749,380
-14,906	10,248	1400,461	748,837
-13,892	10,311	1399,421	748,546
-12,877	10,314	1398,571	748,077
-11,863	10,290	1397,943	747,601
-10,848	10,263	1396,789	746,827
-9,833	10,182	1396,058	746,032
-8,819	10,191	1395,135	745,551
-7,804	10,195	1394,267	745,074
-6,790	10,194	1393,309	744,526
-5,775	10,125	1392,255	743,616
-4,760	10,179	1391,222	743,287
-3,746	10,176	1390,478	742,845
-2,731	10,153	1389,523	742,198
-1,717	10,129	1388,861	741,706
-0,702	10,141	1386,869	740,666
0,313	14,115	1299,725	712,329
1,327	30,240	690,396	414,954
2,342	47,175	119,563	78,386
3,356	-0,448	16,495	8,237
4,371	-2,445	3,586	1,766
5,386	17,154	1,080	0,602
6,400	800,000	0,220	0,517
7,415	12,479	-0,102	-0,055
8,429	43,947	-0,280	-0,181
9,444	198,982	-0,257	-0,278
10,459	-8,793	-0,313	-0,147
11,473	-21,676	-0,371	-0,159
12,488	-44,710	-0,245	0,086
13,502	179,421	-0,210	-0,217
14,517	71,011	-0,318	-0,232
15,531	220,055	-0,260	-0,294
16,546	93,644	-0,328	-0,262
17,561	126,715	-0,445	-0,397
18,575	-12,175	-0,135	-0,062
19,590	149,267	-0,295	-0,282
20,604	-99,486	-0,270	0,047
21,619	92,008	-0,313	-0,248
22,634	81,405	-0,578	-0,440
23,648	4,062	-0,489	-0,251
24,663	154,474	-0,328	-0,318
25,677	44,227	-0,327	-0,211
26,692	-24,520	-0,444	-0,185
27,707	66,169	-0,334	-0,239
28,721	104,499	-0,314	-0,260
29,736	-6,820	-0,508	-0,242
30,750	-12,258	-0,473	-0,217
31,765	8,015	-0,456	-0,240
32,780	156,974	-0,297	-0,289
33,794	82,641	-0,304	-0,232
34,809	657,445	-0,191	-0,346
35,823	107,156	-0,298	-0,249
36,838	56,108	-0,490	-0,334
37,853	48,978	-0,363	-0,239
38,867	30,776	-0,457	-0,274
39,882	-124,634	-0,247	-0,027
40,896	75,987	-0,305	-0,226
41,911	151,589	-0,306	-0,293
42,926	64,582	-0,289	-0,204
43,940	54,992	-0,353	-0,239
44,955	23,891	-0,371	-0,215
45,969	3,368	-0,364	-0,186
46,984	108,232	-0,360	-0,301
47,999	63,607	-0,213	-0,150
49,013	238,893	-0,228	-0,266
50,028	74,038	-0,319	-0,235
51,042	207,743	-0,318	-0,349
52,057	55,009	-0,239	-0,162
53,071	64,164	-0,362	-0,255
54,086	34,991	-0,365	-0,224
55,101	279,937	-0,255	-0,320
56,115	16,417	-0,296	-0,163
57,130	171,790	-0,272	-0,275
58,144	126,688	-0,359	-0,320
59,159	82,190	-0,459	-0,349
60,174	135,945	-0,370	-0,338
61,188	-7,974	-0,440	-0,207
62,203	141,649	-0,229	-0,213
63,217	30,770	-0,422	-0,253
64,232	42,538	-0,365	-0,233
65,247	-28,780	-0,348	-0,140
66,261	43,525	-0,379	-0,242
67,276	1,702	-0,362	-0,182
68,290	-3,368	-0,254	-0,124
69,305	67,528	-0,304	-0,218
70,320	99,459	-0,269	-0,218
71,334	-1,219	-0,340	-0,168
72,349	800,000	-0,153	-0,320
73,363	28,813	-0,327	-0,194
74,378	345,665	-0,262	-0,362
75,393	23,691	-0,315	-0,181
76,407	-41,508	-0,347	-0,124
77,422	42,563	-0,321	-0,204
78,436	81,191	-0,289	-0,219
79,451	44,583	-0,336	-0,216
80,466	111,775	-0,293	-0,248
81,480	48,156	-0,297	-0,194
82,495	10,472	-0,313	-0,167
83,509	43,349	-0,335	-0,214
84,524	-31,744	-0,278	-0,109
85,539	484,556	-0,132	-0,212
86,553	-82,069	-0,361	-0,082
87,568	36,284	-0,286	-0,176
88,582	102,389	-0,352	-0,288
89,597	-89,819	-0,337	-0,069
90,611	40,134	-0,195	-0,123
91,626	-44,336	-0,280	-0,098
92,641	-42,167	-0,303	-0,108
93,655	-77,829	-0,252	-0,060
94,670	-48,207	-0,250	-0,084
95,684	68,032	-0,284	-0,203
96,699	-67,285	-0,358	-0,098
97,714	-83,240	-0,201	-0,045
98,728	269,723	-0,195	-0,240
99,743	107,101	-0,270	-0,224
100,757	131,556	-0,130	-0,117
101,772	-152,236	-0,301	-0,015
102,787	37,209	-0,275	-0,170
103,801	60,935	-0,379	-0,263
104,816	110,204	-0,203	-0,171
105,830	228,152	-0,246	-0,280
106,845	-76,953	-0,333	-0,081
107,860	70,358	-0,213	-0,154
108,874	-152,961	-0,190	0,009
109,889	69,063	-0,241	-0,173
110,903	402,356	-0,214	-0,315
111,918	22,319	-0,275	-0,157
112,933	646,973	-0,109	-0,196
113,947	23,110	-0,212	-0,121
114,962	86,020	-0,215	-0,165
115,976	77,434	-0,175	-0,130
116,991	-47,165	-0,341	-0,116
118,006	137,834	-0,353	-0,323
119,020	103,292	-0,232	-0,190
120,035	-28,038	-0,266	-0,107
121,049	347,129	-0,162	-0,223
122,064	800,000	-0,069	-0,145
123,079	107,861	-0,291	-0,242
124,093	-13,566	-0,272	-0,123
125,108	775,384	-0,082	-0,156
126,122	-93,298	-0,289	-0,055
127,137	-12,784	-0,205	-0,093
128,151	134,611	-0,289	-0,262
129,166	45,098	-0,171	-0,110
130,181	-6,102	-0,337	-0,160
131,195	361,654	-0,256	-0,359
132,210	-50,398	-0,378	-0,124
133,224	176,192	-0,183	-0,185
134,239	430,317	-0,171	-0,259
135,254	-27,175	-0,320	-0,129
136,268	-70,972	-0,254	-0,066
137,283	32,303	-0,341	-0,205
138,297	114,867	-0,213	-0,181
139,312	182,292	-0,233	-0,240
140,327	-39,173	-0,227	-0,083
141,341	139,679	-0,261	-0,240
142,356	151,918	-0,251	-0,238
143,370	84,926	-0,230	-0,175
144,385	71,036	-0,198	-0,143
145,400	56,933	-0,219	-0,148
146,414	19,384	-0,293	-0,163
147,429	251,098	-0,291	-0,345
148,443	327,895	-0,194	-0,260
149,458	125,482	-0,171	-0,150
150,473	-178,959	-0,250	-0,004
151,487	46,538	-0,288	-0,185
152,502	590,120	-0,243	-0,419
153,516	-55,462	-0,261	-0,081
154,531	105,515	-0,177	-0,145
155,546	115,445	-0,229	-0,195
156,560	34,028	-0,279	-0,169
157,575	324,951	-0,099	-0,132
158,589	-184,098	-0,215	-0,002
159,604	105,218	-0,318	-0,261
160,619	-97,851	-0,329	-0,059
161,633	153,836	-0,212	-0,202
162,648	151,213	-0,164	-0,155
163,662	-64,655	-0,211	0,059
164,677	49,708	-0,251	-0,164
165,692	1,856	-0,289	-0,145
166,706	176,300	-0,213	-0,216
167,721	192,123	-0,126	-0,132
168,735	125,073	-0,242	-0,212
169,750	296,120	-0,185	-0,236
170,764	210,443	-0,198	-0,217
171,779	90,885	-0,134	-0,104
172,794	124,034	-0,222	-0,194
173,808	107,450	-0,163	-0,135
174,823	-47,562	-0,269	-0,090
175,837	49,693	-0,286	-0,187
176,852	800,000	-0,126	-0,301
177,867	0,527	-0,202	-0,100
178,881	-38,240	-0,220	-0,081
179,896	48,170	-0,233	-0,151
180,910	94,917	-0,214	-0,169
181,925	131,596	-0,217	-0,194
182,940	800,000	-0,111	-0,288
183,954	-12,137	-0,293	-0,133
184,969	101,843	-0,218	-0,176
185,983	40,835	-0,225	-0,141
186,998	-134,988	-0,252	0,021
188,013	20,036	-0,103	-0,058
189,027	-29,727	-0,375	-0,148
190,042	691,980	-0,133	-0,243
191,056	591,942	-0,199	-0,342
192,071	-169,103	-0,349	-0,009
193,086	75,591	-0,151	-0,110
194,100	-114,793	-0,155	0,020
195,115	10,131	-0,204	-0,107
196,129	472,031	-0,140	-0,219
197,144	139,956	-0,216	-0,197
198,159	25,086	-0,276	-0,158
199,173	-44,721	-0,188	-0,065
200,188	800,000	-0,078	-0,231
201,202	167,866	-0,151	-0,149
202,217	276,386	-0,199	-0,246
203,232	35,935	-0,273	-0,166
204,246	93,043	-0,244	-0,191
205,261	120,180	-0,196	-0,168
206,275	38,509	-0,174	-0,107
207,290	187,415	-0,028	0,029
208,304	196,328	-0,099	-0,105
209,319	201,575	-0,109	-0,116
210,334	154,927	-0,166	-0,158
211,348	251,173	-0,135	-0,159
212,363	400,234	-0,215	-0,313
213,377	45,962	-0,174	-0,111
214,392	-67,099	-0,125	-0,034
215,407	239,164	-0,117	-0,135
216,421	80,214	-0,200	-0,149
217,436	33,879	-0,121	-0,073
218,450	167,838	-0,100	-0,098
219,465	606,520	-0,138	-0,239
220,480	56,563	-0,236	-0,159
221,494	392,938	0,024	-0,035
222,509	-41,237	-0,192	-0,068
223,523	105,173	-0,131	-0,107
224,538	115,545	-0,145	-0,123
225,553	-3,988	-0,207	-0,099
226,567	-33,485	-0,093	-0,035
227,582	-135,884	-0,174	0,014
228,596	-16,662	-0,232	-0,101
229,611	40,380	-0,139	-0,087
230,626	18,959	-0,195	-0,108
231,640	321,827	-0,178	-0,234
232,655	-44,605	-0,196	-0,067
233,669	388,939	-0,126	-0,181
234,684	345,405	-0,149	-0,203
235,699	146,039	-0,144	-0,133
236,713	100,603	-0,157	-0,126
237,728	-140,816	-0,108	-0,008
238,742	28,417	-0,137	-0,080
239,757	-26,244	-0,259	-0,105
240,772	-96,612	-0,228	-0,041
241,786	104,082	-0,215	-0,175
242,801	185,661	-0,275	-0,282
243,815	-32,585	-0,108	0,041
244,830	386,952	-0,196	-0,281
245,844	87,395	-0,250	-0,191
246,859	763,492	-0,149	-0,281
247,874	288,466	-0,093	-0,116
248,888	310,793	-0,156	-0,202
249,903	33,898	-0,205	-0,123
250,917	-83,998	-0,109	-0,024
251,932	-22,818	-0,097	-0,040
252,947	-111,927	-0,181	-0,025
253,961	367,501	-0,086	-0,121
254,976	569,973	-0,136	-0,229
255,990	159,287	-0,233	-0,224
257,005	7,768	-0,124	-0,064
258,020	-161,300	-0,211	-0,007
259,034	-2,530	-0,200	-0,096
260,049	105,813	-0,047	-0,038
261,063	57,028	-0,236	-0,158
262,078	96,399	-0,178	-0,140
263,093	-18,430	-0,145	-0,062
264,107	172,706	-0,182	-0,181
265,122	133,444	-0,097	0,086
266,136	31,846	-0,159	-0,094
267,151	-91,348	-0,268	-0,052
268,166	13,446	-0,184	-0,098
269,180	170,957	-0,133	-0,131
270,195	-71,523	-0,278	-0,071
271,209	78,302	-0,172	-0,127
272,224	75,367	-0,203	-0,147
273,239	-106,614	-0,143	-0,022
274,253	22,744	-0,300	-0,169
275,268	5,882	-0,060	0,030
276,282	149,729	-0,205	-0,192
277,297	3,534	-0,309	-0,155
278,312	86,566	-0,232	-0,176
279,326	106,885	-0,112	-0,091
280,341	87,550	-0,084	-0,064
281,355	-127,025	-0,101	0,010
282,370	32,245	-0,242	-0,144
283,384	108,835	-0,166	-0,136
284,399	18,710	-0,174	-0,096
285,414	-61,882	-0,236	-0,068
286,428	374,430	-0,145	-0,203
287,443	-145,713	-0,157	-0,009
288,457	587,906	-0,056	-0,095
289,472	79,686	-0,235	-0,173
290,487	-86,392	-0,327	-0,069
291,501	38,671	-0,182	-0,112
292,516	-35,007	-0,078	-0,029
293,530	-106,890	-0,117	-0,018
294,545	226,819	-0,166	-0,186
295,560	-133,346	-0,156	0,013
296,574	162,048	-0,240	-0,232
297,589	356,802	-0,142	-0,195
298,603	91,826	-0,112	-0,086
299,618	427,191	-0,131	-0,194
300,633	217,039	-0,122	-0,134
301,647	487,155	-0,138	-0,217
302,662	54,828	-0,094	-0,062
303,676	-119,324	-0,213	-0,025
304,691	-79,651	-0,176	-0,040
305,706	800,000	-0,059	-0,119
306,720	-200,000	-0,035	-0,120
307,735	600,306	-0,051	-0,087
308,749	-200,000	-0,026	-0,133
309,764	-66,940	-0,151	-0,041
310,779	1,568	-0,142	-0,070
311,793	776,841	-0,082	-0,154
312,808	800,000	-0,042	-0,120
313,822	-34,103	-0,086	-0,032
314,837	-94,308	-0,303	-0,056
315,852	-60,723	-0,093	-0,027
316,866	-200,000	-0,039	-0,141
317,881	-200,000	-0,049	-0,212
318,895	-100,885	-0,159	-0,027
319,910	-67,313	-0,254	0,068
320,925	206,955	-0,166	-0,178
321,939	-52,016	-0,195	-0,062
322,954	396,513	-0,088	-0,127
323,968	549,249	-0,116	-0,192
324,983	104,294	-0,199	-0,160
325,997	87,251	-0,081	-0,061
327,012	-3,981	-0,149	-0,071
328,027	-12,441	-0,178	-0,079
329,041	-114,118	-0,061	-0,008
330,056	261,305	-0,101	-0,120
331,070	-200,000	-0,024	-0,076
332,085	112,999	-0,048	-0,039
333,100	-150,199	-0,202	-0,011
334,114	27,481	-0,249	-0,143
335,129	-200,000	-0,031	-0,107
336,143	-75,865	-0,130	-0,031
337,158	164,216	-0,056	-0,054
338,173	-65,511	-0,113	-0,031
339,187	-47,695	-0,188	-0,062
340,202	245,834	-0,113	-0,131
341,216	-43,817	-0,128	-0,044
342,231	-27,513	-0,148	-0,059
343,246	209,061	-0,176	-0,189
344,260	-18,488	-0,045	-0,019
345,275	800,000	-0,074	-0,187
346,289	-76,299	-0,229	0,055
347,304	-79,834	-0,095	0,022
348,319	149,783	-0,225	-0,209
349,333	65,610	-0,141	-0,097
350,348	544,234	-0,083	-0,136
351,362	-17,364	-0,156	0,067
352,377	800,000	-0,029	-0,077
353,392	-41,020	-0,133	-0,047
354,406	69,555	-0,034	-0,024
355,421	207,072	1310,459	1399,357
356,435	159,280	1470,627	1399,830
