DTS Sentinel unit serial number:	SN410029Multiplexer serial number:	ORYXHardware model number:	OX2-SRSoftware version number:	ORYX F/W v4,00 Oryx Data Collector v3.7.2.0data status	okinstallation	B3 Nyhavnadifferential loss correction	single-endedforward channel	channel 1reverse channel	N/Adate	2023/11/28time	22:57:30forward acquisition time	300,00reverse acquisition time	0,00gamma	499,1914k internal	0,3212k external	0,3212temperature offset calibration	1,0000default loss term (dB/km)	0,3820temperature slope calibration	1,0000multiplexer offset coefficient	1,0000multiplexer slope coefficient	1,0000fibre end	0,00T internal ref (°C)	8,67T ext. ref 1 (°C)	-6,07T ext. ref 2 (°C)	-6,21length (m)	temperature (°C)	Stokes	anti-Stokes-744,400	128,504	-0,235	-0,217
-743,385	800,000	0,078	0,163
-742,371	107,376	-0,333	-0,287
-741,356	-200,000	-0,066	0,326
-740,342	506,026	-0,098	-0,166
-739,327	-200,000	-0,050	0,327
-738,312	800,000	-0,105	-0,324
-737,298	800,000	-0,093	0,281
-736,283	-107,119	-0,046	-0,007
-735,269	-200,000	0,009	0,180
-734,254	800,000	-0,110	-0,300
-733,239	42,431	-0,110	0,072
-732,225	-200,000	-0,000	-0,311
-731,210	800,000	0,067	0,187
-730,196	9,527	-0,071	0,039
-729,181	-73,475	0,103	-0,027
-728,167	170,079	-0,055	-0,057
-727,152	-65,355	0,115	-0,033
-726,137	25,005	-0,095	-0,057
-725,123	-162,818	0,022	0,001
-724,108	-200,000	0,018	-0,082
-723,094	-97,699	-0,116	0,022
-722,079	-176,372	-0,154	0,003
-721,064	110,910	0,041	-0,036
-720,050	557,951	0,010	0,018
-719,035	26,499	0,058	0,035
-718,021	625,766	0,041	0,074
-717,006	800,000	-0,039	-0,120
-715,991	-171,210	-0,112	-0,003
-714,977	5,698	-0,070	-0,037
-713,962	800,000	-0,020	0,060
-712,948	796,406	-0,041	0,082
-711,933	800,000	-0,077	-0,181
-710,918	167,521	-0,112	0,116
-709,904	-200,000	-0,016	-0,088
-708,889	800,000	0,047	-0,100
-707,875	59,661	-0,148	0,105
-706,860	-200,000	0,005	-0,079
-705,845	-173,685	-0,085	-0,002
-704,831	-148,335	0,129	0,008
-703,816	617,899	-0,057	-0,104
-702,802	131,486	-0,059	-0,055
-701,787	800,000	-0,050	-0,113
-700,772	18,385	0,021	0,012
-699,758	-125,061	0,086	0,009
-698,743	800,000	0,023	0,072
-697,729	800,000	0,011	-0,031
-696,714	48,201	-0,118	0,080
-695,699	46,678	-0,127	-0,085
-694,685	356,731	-0,033	-0,047
-693,670	695,518	-0,042	-0,081
-692,656	-200,000	-0,029	-0,099
-691,641	-200,000	0,034	0,124
-690,627	800,000	-0,050	-0,129
-689,612	-200,000	-0,016	0,072
-688,597	-55,324	-0,166	-0,054
-687,583	-200,000	-0,041	-0,151
-686,568	800,000	0,042	0,100
-685,554	447,549	0,078	-0,125
-684,539	60,480	0,028	-0,020
-683,524	-200,000	0,014	0,078
-682,510	-200,000	-0,006	0,060
-681,495	187,514	-0,054	0,059
-680,481	39,095	0,072	-0,047
-679,466	153,562	-0,079	0,079
-678,451	-200,000	-0,037	-0,181
-677,437	-200,000	-0,017	0,073
-676,422	800,000	-0,048	0,101
-675,408	-200,000	-0,026	0,092
-674,393	-200,000	-0,021	0,105
-673,378	-200,000	-0,016	-0,101
-672,364	-200,000	0,017	-0,067
-671,349	800,000	-0,049	-0,125
-670,335	501,358	0,088	0,148
-669,320	-200,000	0,013	-0,049
-668,305	-200,000	0,027	-0,095
-667,291	-200,000	-0,016	-0,112
-666,276	-141,730	-0,045	-0,003
-665,262	581,409	0,107	-0,190
-664,247	177,202	-0,024	-0,025
-663,232	-200,000	-0,031	0,113
-662,218	-200,000	-0,031	0,208
-661,203	-9,599	0,118	-0,057
-660,189	-55,636	0,081	0,026
-659,174	35,241	0,088	-0,055
-658,159	-45,045	-0,049	0,017
-657,145	-121,137	-0,113	0,014
-656,130	438,692	-0,022	-0,035
-655,116	242,620	0,115	-0,139
-654,101	-167,972	-0,090	-0,002
-653,086	-132,306	0,096	0,009
-652,072	800,000	-0,026	0,052
-651,057	226,804	-0,024	-0,028
-650,043	-200,000	0,009	0,047
-649,028	10,550	-0,098	0,054
-648,014	-200,000	0,010	0,040
-646,999	-200,000	-0,002	-0,020
-645,984	-200,000	-0,027	0,136
-644,970	800,000	0,033	0,067
-643,955	-36,889	-0,080	0,031
-642,941	479,144	-0,043	-0,070
-641,926	616,987	-0,026	-0,047
-640,911	199,305	-0,087	0,097
-639,897	-200,000	0,027	0,114
-638,882	-103,675	0,130	0,022
-637,868	124,060	-0,001	0,001
-636,853	28,932	0,092	-0,056
-635,838	-200,000	0,009	-0,071
-634,824	-200,000	0,008	-0,059
-633,809	-8,445	-0,086	-0,041
-632,795	-200,000	0,005	-0,098
-631,780	-200,000	0,000	-0,035
-630,765	65,357	0,066	-0,048
-629,751	800,000	-0,039	-0,109
-628,736	-200,000	0,005	-0,057
-627,722	-27,772	-0,037	-0,015
-626,707	186,799	0,020	0,022
-625,692	-95,934	0,106	0,020
-624,678	235,113	0,041	-0,048
-623,663	800,000	-0,027	-0,078
-622,649	198,635	0,041	-0,046
-621,634	800,000	-0,045	-0,096
-620,619	347,608	0,061	-0,086
-619,605	-200,000	0,012	0,095
-618,590	-200,000	0,005	-0,048
-617,576	254,280	0,024	-0,029
-616,561	-200,000	-0,002	-0,018
-615,546	-141,939	-0,131	-0,009
-614,532	-196,556	-0,098	0,000
-613,517	-200,000	-0,002	-0,056
-612,503	141,613	0,016	-0,015
-611,488	-200,000	0,036	-0,118
-610,474	-200,000	-0,014	0,090
-609,459	109,501	-0,009	-0,008
-608,444	-127,844	-0,137	-0,014
-607,430	-109,437	0,138	-0,021
-606,415	-200,000	-0,013	-0,094
-605,401	90,534	-0,080	-0,065
-604,386	640,699	-0,057	0,105
-603,371	705,137	0,087	0,166
-602,357	-200,000	0,029	-0,166
-601,342	245,595	-0,053	-0,064
-600,328	162,331	-0,045	-0,046
-599,313	97,123	-0,118	0,098
-598,298	-56,435	0,193	0,061
-597,284	-200,000	0,008	0,058
-596,269	-200,000	0,015	-0,100
-595,255	78,876	-0,040	0,031
-594,240	-200,000	0,004	-0,044
-593,225	342,317	-0,076	-0,107
-592,211	-105,428	-0,075	-0,012
-591,196	-50,287	0,115	0,039
-590,182	800,000	0,047	0,112
-589,167	-200,000	-0,019	0,125
-588,152	-89,648	0,033	0,007
-587,138	-200,000	0,017	-0,100
-586,123	-32,458	-0,136	0,055
-585,109	-124,788	0,085	-0,009
-584,094	434,665	0,010	0,016
-583,079	430,987	-0,015	-0,024
-582,065	341,347	-0,036	0,051
-581,050	490,092	-0,043	0,071
-580,036	-200,000	-0,004	-0,096
-579,021	-92,499	-0,036	0,007
-578,006	-200,000	-0,006	-0,122
-576,992	-41,027	-0,146	0,054
-575,977	383,666	-0,067	-0,100
-574,963	269,728	-0,087	0,111
-573,948	-48,966	-0,134	0,046
-572,934	800,000	0,022	-0,066
-571,919	-200,000	-0,029	-0,133
-570,904	110,550	-0,079	-0,068
-569,890	-200,000	-0,020	-0,095
-568,875	799,179	0,067	-0,134
-567,861	156,364	0,090	0,090
-566,846	-27,769	0,103	0,043
-565,831	-200,000	-0,042	0,162
-564,817	-106,537	-0,120	0,019
-563,802	205,497	0,104	-0,116
-562,788	-200,000	0,008	-0,038
-561,773	7,615	-0,071	0,038
-560,758	242,852	0,030	-0,036
-559,744	501,424	-0,062	0,104
-558,729	-75,526	0,048	0,012
-557,715	800,000	-0,066	-0,145
-556,700	-200,000	-0,027	-0,149
-555,685	167,858	-0,033	0,034
-554,671	-79,441	-0,048	-0,012
-553,656	59,833	0,101	0,071
-552,642	-27,783	0,026	0,011
-551,627	800,000	0,054	0,140
-550,612	275,796	0,162	0,208
-549,598	-200,000	-0,037	-0,130
-548,583	-52,788	-0,022	-0,007
-547,569	-200,000	-0,019	0,071
-546,554	141,261	-0,136	0,129
-545,539	-41,290	-0,016	0,006
-544,525	357,570	0,078	-0,112
-543,510	-200,000	0,002	-0,152
-542,496	-200,000	-0,013	-0,080
-541,481	800,000	-0,051	0,106
-540,466	-97,678	0,080	0,015
-539,452	-106,815	0,130	0,021
-538,437	361,424	0,040	0,058
-537,423	800,000	-0,043	0,111
-536,408	155,086	-0,043	0,042
-535,393	77,615	0,052	-0,039
-534,379	498,705	-0,008	-0,013
-533,364	800,000	0,025	-0,062
-532,350	-166,848	0,112	-0,003
-531,335	153,061	0,052	0,052
-530,321	-52,194	-0,043	-0,014
-529,306	-4,628	0,055	0,027
-528,291	2,705	-0,093	-0,048
-527,277	16,063	-0,081	-0,046
-526,262	133,515	0,034	-0,031
-525,248	-200,000	-0,018	0,113
-524,233	-17,577	0,075	0,034
-523,218	-95,917	-0,100	0,019
-522,204	291,928	0,069	-0,090
-521,189	-87,598	-0,131	-0,028
-520,175	106,358	-0,062	0,053
-519,160	-112,092	0,096	-0,014
-518,145	-14,637	0,112	0,051
-517,131	800,000	-0,028	-0,084
-516,116	800,000	-0,038	0,086
-515,102	-61,626	-0,078	-0,024
-514,087	30,596	0,053	-0,032
-513,072	-18,991	0,143	-0,064
-512,058	430,138	-0,089	-0,139
-511,043	-200,000	-0,026	-0,112
-510,029	-200,000	-0,003	-0,091
-509,014	800,000	-0,024	0,059
-507,999	-70,441	-0,028	0,008
-506,985	-93,326	-0,108	0,021
-505,970	-22,511	0,094	-0,041
-504,956	-200,000	0,004	-0,095
-503,941	-103,492	0,031	-0,005
-502,926	582,398	-0,011	-0,019
-501,912	387,204	0,008	-0,011
-500,897	55,358	-0,080	-0,056
-499,883	-200,000	-0,004	-0,043
-498,868	62,755	0,065	-0,047
-497,853	281,223	-0,048	0,062
-496,839	199,808	0,051	-0,056
-495,824	-76,390	-0,150	0,038
-494,810	658,597	-0,032	0,059
-493,795	-200,000	0,001	0,040
-492,781	263,932	-0,057	-0,071
-491,766	-62,855	-0,091	0,027
-490,751	-200,000	-0,003	-0,011
-489,737	151,507	-0,060	-0,059
-488,722	683,063	-0,013	0,025
-487,708	-48,813	0,125	0,043
-486,693	-4,056	-0,006	-0,003
-485,678	-177,677	-0,038	0,001
-484,664	5,665	-0,138	0,073
-483,649	-34,675	0,158	-0,062
-482,635	162,231	0,092	-0,093
-481,620	-200,000	0,005	0,120
-480,605	112,059	0,048	-0,042
-479,591	53,236	0,010	-0,007
-478,576	-9,454	0,124	0,059
-477,562	-148,948	-0,165	-0,009
-476,547	164,860	0,062	-0,063
-475,532	586,876	-0,045	-0,080
-474,518	648,957	-0,042	0,078
-473,503	221,010	0,069	0,080
-472,489	-197,865	0,059	0,000
-471,474	800,000	0,016	0,038
-470,459	-200,000	-0,045	-0,151
-469,445	-200,000	-0,007	-0,122
-468,430	25,336	0,031	-0,018
-467,416	-200,000	0,019	0,101
-466,401	115,085	0,115	0,101
-465,386	-96,480	0,084	-0,016
-464,372	-30,128	-0,113	0,046
-463,357	-53,949	-0,054	0,018
-462,343	-109,197	-0,122	0,018
-461,328	-17,568	0,085	0,038
-460,313	-200,000	-0,011	-0,038
-459,299	-200,000	-0,003	0,168
-458,284	63,844	0,019	-0,014
-457,270	389,960	0,050	0,074
-456,255	800,000	-0,046	0,094
-455,241	-200,000	-0,025	-0,170
-454,226	308,350	-0,084	0,113
-453,211	-200,000	-0,010	-0,065
-452,197	-200,000	0,007	0,089
-451,182	-76,020	-0,036	0,009
-450,168	240,688	-0,016	-0,020
-449,153	-141,048	0,087	-0,006
-448,138	20,548	0,047	-0,027
-447,124	-74,146	-0,057	0,015
-446,109	161,745	-0,095	0,096
-445,095	320,207	0,072	0,098
-444,080	-122,337	-0,092	0,011
-443,065	-200,000	-0,009	0,155
-442,051	272,851	0,127	0,161
-441,036	273,702	0,052	-0,066
-440,022	186,869	0,108	-0,116
-439,007	-122,486	0,051	-0,006
-437,992	800,000	0,028	0,058
-436,978	-200,000	0,010	0,052
-435,963	654,207	-0,066	0,121
-434,949	165,817	-0,091	0,092
-433,934	800,000	-0,033	-0,075
-432,919	-200,000	-0,009	-0,092
-431,905	-200,000	0,009	0,074
-430,890	-103,783	0,215	-0,036
-429,876	-200,000	-0,012	-0,119
-428,861	130,269	0,132	0,121
-427,846	-70,908	-0,120	0,032
-426,832	-81,810	-0,069	-0,016
-425,817	50,400	-0,005	-0,004
-424,803	800,000	-0,011	0,023
-423,788	-200,000	0,009	0,124
-422,773	-200,000	-0,016	0,105
-421,759	332,042	-0,101	0,140
-420,744	-200,000	-0,001	-0,046
-419,730	-95,319	-0,222	-0,042
-418,715	-113,482	-0,210	-0,029
-417,701	800,000	0,026	-0,060
-416,686	-141,395	0,083	0,006
-415,671	800,000	-0,025	-0,063
-414,657	-200,000	-0,005	-0,120
-413,642	199,656	0,083	-0,092
-412,628	120,125	0,005	0,004
-411,613	95,844	-0,021	-0,017
-410,598	800,000	0,044	-0,097
-409,584	177,378	-0,054	0,056
-408,569	-78,506	0,038	0,009
-407,555	32,259	0,044	0,027
-406,540	-200,000	-0,016	0,061
-405,525	800,000	-0,038	0,089
-404,511	-145,746	-0,009	0,001
-403,496	484,966	-0,002	-0,002
-402,482	-200,000	0,009	0,127
-401,467	-200,000	0,014	0,143
-400,452	97,910	0,032	-0,026
-399,438	-173,598	0,148	-0,003
-398,423	206,651	0,054	-0,061
-397,409	-200,000	0,008	0,095
-396,394	-200,000	-0,004	-0,123
-395,379	69,664	-0,021	-0,015
-394,365	-106,446	0,031	-0,005
-393,350	-117,518	0,065	0,008
-392,336	-109,799	-0,019	0,003
-391,321	137,940	-0,025	0,024
-390,306	429,408	-0,031	-0,048
-389,292	800,000	0,059	-0,140
-388,277	800,000	-0,045	-0,122
-387,263	-37,256	-0,135	-0,051
-386,248	-200,000	-0,006	0,025
-385,233	10,673	0,131	0,071
-384,219	-200,000	0,000	-0,002
-383,204	800,000	-0,040	-0,096
-382,190	-63,337	-0,074	-0,022
-381,175	61,384	0,100	0,071
-380,160	-186,065	0,116	-0,001
-379,146	61,386	0,031	-0,022
-378,131	-200,000	0,020	-0,196
-377,117	-45,363	0,180	-0,063
-376,102	-200,000	0,008	0,082
-375,088	353,941	0,045	0,065
-374,073	-120,895	0,245	0,029
-373,058	2,998	0,073	0,038
-372,044	89,746	-0,087	-0,070
-371,029	-200,000	0,033	0,112
-370,015	378,892	0,082	0,121
-369,000	800,000	-0,028	-0,076
-367,985	799,274	-0,056	-0,111
-366,971	800,000	-0,001	-0,002
-365,956	-65,660	0,053	0,015
-364,942	800,000	0,026	0,054
-363,927	800,000	0,039	-0,103
-362,912	198,813	-0,030	0,033
-361,898	-200,000	-0,003	-0,014
-360,883	-132,656	-0,043	0,004
-359,869	289,780	0,052	-0,067
-358,854	160,007	0,073	0,073
-357,839	612,355	0,060	0,107
-356,825	203,078	0,077	0,085
-355,810	-24,002	-0,087	-0,037
-354,796	-200,000	-0,012	-0,071
-353,781	-200,000	-0,008	-0,167
-352,766	-200,000	0,016	-0,115
-351,752	-116,107	-0,123	0,016
-350,737	-173,632	0,162	0,003
-349,723	-200,000	-0,029	0,102
-348,708	98,418	-0,044	-0,037
-347,693	800,000	0,032	-0,098
-346,679	324,900	0,067	-0,091
-345,664	-108,522	-0,119	0,018
-344,650	-105,435	0,040	0,006
-343,635	734,267	-0,026	0,050
-342,620	800,000	-0,077	0,164
-341,606	-200,000	-0,016	0,174
-340,591	29,298	0,056	-0,034
-339,577	603,761	0,015	-0,026
-338,562	800,000	0,028	-0,057
-337,548	-200,000	0,002	0,062
-336,533	800,000	-0,020	0,057
-335,518	384,543	0,041	0,061
-334,504	129,865	-0,074	0,067
-333,489	37,383	0,070	-0,044
-332,475	-177,862	-0,076	-0,001
-331,460	265,954	-0,123	-0,154
-330,445	800,000	0,041	-0,129
-329,431	-73,855	-0,045	0,011
-328,416	-200,000	0,055	0,218
-327,402	485,599	-0,060	0,098
-326,387	309,797	-0,066	0,088
-325,372	-58,382	-0,080	0,025
-324,358	414,142	-0,080	-0,121
-323,343	-83,379	-0,027	-0,006
-322,329	-200,000	0,032	0,128
-321,314	99,870	0,045	0,037
-320,299	-130,618	0,067	0,006
-319,285	96,688	-0,051	0,042
-318,270	22,269	-0,059	-0,034
-317,256	587,767	-0,017	-0,029
-316,241	143,837	-0,101	-0,096
-315,226	-52,614	0,064	0,021
-314,212	-34,190	0,098	0,038
-313,197	-20,021	0,081	-0,035
-312,183	-200,000	0,056	0,190
-311,168	800,000	-0,024	0,060
-310,153	-200,000	0,010	-0,099
-309,139	-200,000	-0,008	-0,043
-308,124	-194,572	-0,124	0,001
-307,110	800,000	0,039	0,078
-306,095	197,766	0,046	-0,051
-305,080	30,105	0,101	0,061
-304,066	-200,000	-0,013	-0,049
-303,051	-67,475	-0,114	-0,032
-302,037	257,140	-0,050	-0,062
-301,022	112,537	-0,033	-0,029
-300,008	64,895	0,171	0,123
-298,993	-113,252	-0,078	-0,011
-297,978	128,673	0,086	0,078
-296,964	388,954	-0,036	-0,054
-295,949	-200,000	0,007	0,048
-294,935	24,124	-0,024	-0,014
-293,920	-99,138	-0,044	0,008
-292,905	800,000	-0,031	0,070
-291,891	25,806	-0,098	-0,058
-290,876	523,817	-0,031	-0,052
-289,862	269,344	0,064	0,080
-288,847	-7,842	-0,091	-0,043
-287,832	-75,435	-0,061	-0,015
-286,818	154,127	-0,135	-0,132
-285,803	62,321	-0,065	0,046
-284,789	-104,321	0,098	0,016
-283,774	-53,536	0,125	0,041
-282,759	-65,029	0,150	0,043
-281,745	124,747	-0,125	0,112
-280,730	298,490	-0,063	0,083
-279,716	-200,000	-0,011	-0,095
-278,701	-28,109	-0,165	0,067
-277,686	132,660	0,096	-0,088
-276,672	346,641	0,045	0,064
-275,657	55,340	0,059	-0,040
-274,643	53,007	0,119	-0,081
-273,628	800,000	0,037	-0,110
-272,613	181,634	0,061	-0,063
-271,599	76,089	-0,074	0,055
-270,584	-70,223	0,139	-0,037
-269,570	-103,703	-0,099	-0,016
-268,555	-200,000	-0,007	0,113
-267,540	481,559	-0,136	-0,221
-266,526	-101,079	-0,155	-0,027
-265,511	-171,231	-0,215	-0,005
-264,497	-162,920	0,070	-0,002
-263,482	107,302	0,085	0,072
-262,467	502,767	0,034	-0,056
-261,453	-200,000	-0,007	-0,046
-260,438	311,417	0,015	-0,020
-259,424	-200,000	0,021	-0,169
-258,409	98,477	0,104	-0,085
-257,395	72,006	0,057	-0,042
-256,380	-200,000	-0,007	-0,061
-255,365	-41,288	0,128	-0,047
-254,351	-106,682	-0,137	-0,021
-253,336	-200,000	0,001	-0,097
-252,322	28,103	0,090	0,054
-251,307	800,000	0,055	-0,143
-250,292	435,214	-0,052	0,080
-249,278	-200,000	0,023	0,204
-248,263	-200,000	0,013	0,134
-247,249	800,000	-0,013	-0,035
-246,234	31,965	0,093	0,057
-245,219	-200,000	-0,022	-0,137
-244,205	64,108	-0,089	0,063
-243,190	-200,000	-0,031	0,114
-242,176	-200,000	0,003	-0,013
-241,161	193,707	0,087	0,094
-240,146	285,093	0,030	-0,038
-239,132	-200,000	-0,015	-0,196
-238,117	123,282	-0,070	0,063
-237,103	-200,000	-0,021	-0,145
-236,088	-200,000	-0,007	-0,124
-235,073	800,000	0,050	0,111
-234,059	-35,615	-0,084	0,032
-233,044	-23,372	0,011	-0,005
-232,030	-135,193	-0,082	-0,007
-231,015	-21,893	-0,051	0,022
-230,000	-65,776	-0,131	0,037
-228,986	-200,000	0,002	0,060
-227,971	332,087	0,091	0,125
-226,957	75,297	0,121	0,091
-225,942	-200,000	-0,004	-0,100
-224,927	130,473	0,040	-0,037
-223,913	-200,000	0,036	-0,160
-222,898	800,000	-0,013	-0,031
-221,884	-70,755	0,043	-0,012
-220,869	366,575	0,088	0,126
-219,855	-167,149	0,153	0,004
-218,840	-105,683	-0,091	0,015
-217,825	-200,000	-0,006	-0,085
-216,811	578,689	0,066	0,116
-215,796	44,485	0,065	-0,042
-214,782	0,173	0,131	0,066
-213,767	-72,527	0,112	-0,029
-212,752	-200,000	0,001	0,038
-211,738	184,876	0,072	0,076
-210,723	-71,700	0,004	0,001
-209,709	800,000	-0,023	-0,054
-208,694	346,955	0,080	0,112
-207,679	-79,451	-0,144	0,034
-206,665	37,308	0,050	-0,031
-205,650	-200,000	0,015	0,058
-204,636	-113,323	-0,087	0,012
-203,621	-69,222	0,040	0,011
-202,606	139,404	-0,076	-0,071
-201,592	-180,245	0,067	-0,001
-200,577	148,853	-0,130	-0,125
-199,563	-136,410	-0,027	0,002
-198,548	-61,133	0,098	-0,029
-197,533	137,270	0,119	0,110
-196,519	299,840	0,036	0,047
-195,504	-200,000	-0,014	-0,122
-194,490	-66,635	-0,060	-0,017
-193,475	-17,178	-0,117	-0,052
-192,460	-200,000	0,025	-0,136
-191,446	197,190	0,070	-0,076
-190,431	366,633	-0,041	0,059
-189,417	800,000	0,089	0,216
-188,402	442,532	0,028	0,043
-187,387	105,814	-0,105	0,088
-186,373	182,874	-0,035	0,036
-185,358	-200,000	0,022	-0,084
-184,344	11,139	0,075	0,040
-183,329	17,783	-0,014	0,008
-182,315	-51,448	0,077	0,025
-181,300	315,352	-0,127	0,170
-180,285	-200,000	0,014	0,122
-179,271	92,516	-0,132	-0,105
-178,256	23,117	-0,090	-0,052
-177,242	49,732	-0,073	0,049
-176,227	800,000	-0,040	-0,086
-175,212	-200,000	-0,001	0,102
-174,198	-200,000	-0,017	-0,082
-173,183	-200,000	0,018	0,109
-172,169	-148,221	-0,090	-0,005
-171,154	399,551	0,096	-0,143
-170,139	-200,000	0,003	-0,029
-169,125	-65,759	-0,167	0,047
-168,110	167,295	0,067	-0,067
-167,096	800,000	-0,054	-0,107
-166,081	800,000	0,049	-0,102
-165,066	-200,000	0,048	-0,152
-164,052	-200,000	0,019	0,094
-163,037	87,760	0,033	-0,026
-162,023	-28,296	-0,023	-0,009
-161,008	-200,000	0,029	0,175
-159,993	-200,000	0,010	0,129
-158,979	20,125	-0,051	-0,029
-157,964	82,376	0,035	0,027
-156,950	17,272	0,169	0,095
-155,935	-127,146	-0,103	0,011
-154,920	800,000	0,028	0,085
-153,906	455,538	-0,092	0,146
-152,891	163,441	0,063	-0,063
-151,877	787,091	-0,087	-0,171
-150,862	-77,434	-0,163	0,040
-149,847	72,961	-0,121	0,090
-148,833	567,349	-0,063	0,109
-147,818	-200,000	-0,023	0,157
-146,804	-115,420	0,110	-0,014
-145,789	222,246	0,083	0,095
-144,775	800,000	-0,004	-0,008
-143,760	-9,050	0,044	-0,021
-142,745	-200,000	0,025	-0,116
-141,731	186,663	-0,016	0,017
-140,716	-14,088	0,106	0,048
-139,702	-200,000	0,033	0,115
-138,687	248,986	-0,003	0,003
-137,672	354,582	0,042	-0,060
-136,658	24,646	0,119	0,069
-135,643	800,000	-0,024	0,059
-134,629	-91,063	-0,014	0,003
-133,614	-22,191	0,095	0,041
-132,599	800,000	-0,004	0,009
-131,585	800,000	0,034	-0,071
-130,570	-79,729	0,136	0,032
-129,556	800,000	-0,033	-0,075
-128,541	287,824	-0,079	-0,101
-127,526	-200,000	-0,009	-0,032
-126,512	800,000	-0,005	0,011
-125,497	800,000	-0,030	0,092
-124,483	-69,795	-0,088	-0,024
-123,468	381,757	-0,059	-0,086
-122,453	800,000	-0,018	-0,051
-121,439	-75,977	-0,029	0,007
-120,424	42,518	-0,078	0,050
-119,410	-14,130	0,061	-0,028
-118,395	-55,719	0,082	-0,026
-117,380	296,218	-0,021	0,027
-116,366	4,399	-0,031	-0,016
-115,351	-200,000	0,011	0,050
-114,337	90,567	-0,045	0,035
-113,322	105,288	-0,055	-0,046
-112,307	-200,000	-0,023	0,082
-111,293	800,000	0,057	0,167
-110,278	357,604	-0,076	0,108
-109,264	118,633	0,073	-0,063
-108,249	-24,664	0,109	0,046
-107,234	51,810	-0,042	0,028
-106,220	50,607	-0,153	-0,102
-105,205	8,124	0,191	-0,101
-104,191	-200,000	-0,028	0,095
-103,176	9,538	0,080	-0,043
-102,162	428,693	-0,050	-0,077
-101,147	-200,000	0,034	0,124
-100,132	-67,197	-0,010	0,003
-99,118	-11,834	0,056	0,026
-98,103	52,656	-0,140	-0,094
-97,089	299,337	-0,048	-0,063
-96,074	247,136	0,051	0,062
-95,059	90,604	0,087	-0,068
-94,045	381,380	-0,048	0,069
-93,030	-200,000	-0,018	0,071
-92,016	166,427	-0,088	-0,089
-91,001	800,000	-0,063	0,138
-89,986	-200,000	0,011	-0,057
-88,972	-30,666	-0,026	-0,010
-87,957	800,000	-0,022	0,064
-86,943	117,468	-0,108	-0,094
-85,928	800,000	0,023	-0,059
-84,913	17,159	-0,167	-0,093
-83,899	-15,622	0,081	-0,036
-82,884	707,588	-0,056	0,104
-81,870	-200,000	-0,038	0,150
-80,855	729,658	-0,043	0,081
-79,840	35,465	-0,033	0,021
-78,826	36,887	-0,044	-0,028
-77,811	-39,257	-0,025	0,009
-76,797	-200,000	-0,013	0,058
-75,782	199,595	-0,071	0,077
-74,767	-200,000	-0,005	-0,049
-73,753	188,677	0,060	-0,063
-72,738	-171,068	0,100	-0,002
-71,724	325,164	0,026	0,036
-70,709	800,000	0,020	0,040
-69,694	-72,774	0,081	0,021
-68,680	-96,363	-0,043	0,008
-67,665	83,991	0,125	-0,096
-66,651	26,635	0,074	0,044
-65,636	-146,800	-0,047	0,003
-64,622	246,021	0,051	-0,061
-63,607	-74,877	-0,055	-0,014
-62,592	-10,224	-0,035	-0,016
-61,578	-85,419	0,075	0,016
-60,563	90,655	0,008	-0,007
-59,549	-73,388	0,089	-0,023
-58,534	54,352	-2,092	-1,420
-57,519	603,008	-1,078	-1,899
-56,505	-200,000	-0,363	-4,316
-55,490	518,490	0,993	1,646
-54,476	800,000	5,176	11,236
-53,461	-200,000	21,846	339,541
-52,446	800,000	757,408	2294,936
-51,432	532,850	1649,545	2765,948
-50,417	68,829	1647,658	1192,236
-49,403	16,359	1522,825	845,732
-48,388	10,517	1447,580	775,864
-47,373	19,161	1439,531	812,733
-46,359	13,996	1428,368	782,001
-45,344	8,792	1424,389	755,168
-44,330	8,765	1422,379	753,948
-43,315	8,777	1420,563	753,011
-42,300	8,775	1418,859	752,067
-41,286	8,787	1417,594	751,425
-40,271	8,755	1416,396	750,606
-39,257	8,729	1415,365	749,909
-38,242	8,792	1414,105	749,507
-37,227	8,746	1413,051	748,702
-36,213	8,757	1411,612	747,964
-35,198	8,808	1410,440	747,554
-34,184	8,811	1409,313	746,938
-33,169	8,720	1408,124	745,852
-32,154	8,778	1407,042	745,523
-31,140	8,720	1406,092	744,715
-30,125	8,779	1404,740	744,248
-29,111	8,739	1403,626	743,439
-28,096	8,774	1402,418	742,936
-27,082	8,699	1401,323	741,977
-26,067	8,626	1400,440	741,140
-25,052	8,717	1399,185	740,868
-24,038	8,708	1398,205	740,278
-23,023	8,669	1397,202	739,535
-22,009	8,679	1396,384	739,120
-20,994	8,646	1395,193	738,308
-19,979	8,709	1394,347	738,123
-18,965	8,669	1393,328	737,371
-17,950	8,675	1392,101	736,719
-16,936	8,631	1391,481	736,156
-15,921	8,561	1390,712	735,397
-14,906	8,589	1389,665	734,943
-13,892	8,687	1388,653	734,832
-12,877	8,612	1387,843	734,028
-11,863	8,591	1387,163	733,543
-10,848	8,623	1386,182	733,144
-9,833	8,591	1385,085	732,386
-8,819	8,542	1384,273	731,701
-7,804	8,527	1383,314	731,094
-6,790	8,538	1382,377	730,624
-5,775	8,535	1381,412	730,068
-4,760	8,553	1380,322	729,547
-3,746	8,575	1379,498	729,182
-2,731	8,564	1378,652	728,657
-1,717	8,542	1377,695	728,022
-0,702	8,536	1375,947	727,040
0,313	12,487	1287,817	698,417
1,327	28,181	680,416	404,135
2,342	43,970	117,095	75,522
3,356	-1,340	16,556	8,213
4,371	-8,260	3,788	1,791
5,386	-17,003	1,342	0,595
6,400	711,971	0,335	0,628
7,415	-98,349	-0,262	-0,047
8,429	16,076	-0,275	-0,152
9,444	-10,502	-0,403	-0,188
10,459	-62,942	-0,328	-0,095
11,473	-65,286	-0,251	-0,071
12,488	-134,812	-0,320	-0,027
13,502	-85,418	-0,472	-0,103
14,517	65,797	-0,236	-0,168
15,531	341,254	-0,324	-0,447
16,546	39,329	-0,426	-0,268
17,561	3,122	-0,479	-0,244
18,575	-0,238	-0,293	-0,146
19,590	-200,000	-0,034	-0,130
20,604	73,973	-0,110	-0,081
21,619	30,501	-0,423	-0,254
22,634	92,799	-0,420	-0,334
23,648	31,651	-0,471	-0,284
24,663	142,358	-0,351	-0,328
25,677	66,029	-0,326	-0,232
26,692	53,294	-0,333	-0,224
27,707	23,898	-0,339	-0,196
28,721	55,645	-0,331	-0,225
29,736	109,532	-0,318	-0,268
30,750	153,454	-0,345	-0,333
31,765	225,072	-0,296	-0,338
32,780	227,977	-0,330	-0,378
33,794	52,822	-0,319	-0,214
34,809	117,495	-0,301	-0,260
35,823	28,093	-0,447	-0,265
36,838	63,007	-0,391	-0,275
37,853	173,198	-0,352	-0,357
38,867	146,722	-0,302	-0,285
39,882	54,814	-0,387	-0,262
40,896	50,393	-0,351	-0,232
41,911	197,757	-0,230	-0,247
42,926	61,155	-0,374	-0,261
43,940	100,453	-0,381	-0,310
44,955	32,228	-0,406	-0,245
45,969	74,725	-0,343	-0,253
46,984	42,635	-0,327	-0,209
47,999	43,230	-0,385	-0,246
49,013	57,526	-0,309	-0,212
50,028	-9,374	-0,296	-0,138
51,042	48,575	-0,333	-0,219
52,057	-67,237	-0,393	-0,108
53,071	-1,972	-0,288	-0,142
54,086	173,417	-0,274	-0,277
55,101	39,371	-0,252	-0,158
56,115	-40,796	-0,352	-0,127
57,130	65,036	-0,281	-0,199
58,144	-45,107	-0,497	-0,173
59,159	-42,843	-0,371	-0,131
60,174	99,778	-0,327	-0,265
61,188	800,000	-0,118	-0,280
62,203	22,610	-0,352	-0,202
63,217	84,090	-0,336	-0,257
64,232	64,341	-0,225	-0,159
65,247	29,135	-0,430	-0,256
66,261	159,673	-0,326	-0,319
67,276	-33,169	-0,378	-0,146
68,290	-26,297	-0,288	-0,118
69,305	100,539	-0,333	-0,271
70,320	33,050	-0,312	-0,189
71,334	-14,657	-0,341	-0,153
72,349	156,898	-0,233	-0,226
73,363	249,152	-0,258	-0,307
74,378	321,336	-0,211	-0,281
75,393	152,750	-0,309	-0,296
76,407	-63,302	-0,291	-0,083
77,422	-83,382	-0,274	-0,061
78,436	146,735	-0,312	-0,294
79,451	-8,491	-0,379	-0,178
80,466	109,846	-0,412	-0,346
81,480	115,578	-0,268	-0,230
82,495	113,940	-0,212	-0,180
83,509	-20,961	-0,285	-0,122
84,524	174,214	-0,201	-0,204
85,539	-46,868	-0,382	-0,130
86,553	38,912	-0,287	-0,179
87,568	143,249	-0,147	-0,137
88,582	186,417	-0,288	-0,300
89,597	43,076	-0,318	-0,203
90,611	95,449	-0,333	-0,265
91,626	34,631	-0,182	-0,111
92,641	-40,302	-0,216	-0,078
93,655	-83,157	-0,263	-0,059
94,670	88,919	-0,275	-0,214
95,684	131,567	-0,299	-0,269
96,699	307,352	-0,220	-0,288
97,714	312,366	-0,208	-0,274
98,728	-0,508	-0,261	-0,129
99,743	-16,091	-0,267	-0,118
100,757	14,471	-0,286	-0,155
101,772	-93,278	-0,368	-0,071
102,787	170,603	-0,304	-0,305
103,801	-42,180	-0,387	-0,137
104,816	52,938	-0,302	-0,201
105,830	184,147	-0,235	-0,244
106,845	128,609	-0,256	-0,228
107,860	166,113	-0,178	-0,177
108,874	-188,329	-0,214	-0,002
109,889	-51,227	-0,276	-0,090
110,903	101,114	-0,368	-0,299
111,918	12,807	-0,241	-0,130
112,933	65,039	-0,292	-0,206
113,947	-76,412	-0,225	-0,055
114,962	-64,788	-0,337	-0,095
115,976	14,523	-0,217	-0,118
116,991	142,883	-0,202	-0,187
118,006	120,421	-0,235	-0,204
119,020	-24,818	-0,316	-0,131
120,035	-164,737	-0,229	0,007
121,049	-106,311	-0,317	-0,049
122,064	-4,192	-0,352	-0,169
123,079	106,572	-0,160	-0,132
124,093	99,775	-0,289	-0,233
125,108	30,193	-0,216	-0,128
126,122	-33,846	-0,237	-0,091
127,137	-23,656	-0,288	-0,120
128,151	286,418	-0,143	-0,180
129,166	-150,963	-0,196	0,010
130,181	18,375	-0,205	-0,114
131,195	371,219	-0,196	-0,278
132,210	276,453	-0,250	-0,310
133,224	238,065	-0,208	-0,241
134,239	8,121	-0,309	-0,161
135,254	-3,578	-0,310	-0,150
136,268	-36,753	-0,281	-0,105
137,283	-147,572	-0,333	-0,019
138,297	-51,460	-0,296	-0,096
139,312	52,581	-0,140	-0,093
140,327	187,137	-0,227	-0,236
141,341	-78,490	-0,201	-0,048
142,356	193,903	-0,169	-0,178
143,370	199,643	-0,182	-0,195
144,385	13,237	-0,283	-0,152
145,400	409,019	-0,164	-0,243
146,414	-38,490	-0,201	-0,074
147,429	61,936	-0,161	-0,111
148,443	226,810	-0,220	-0,249
149,458	270,779	-0,176	-0,216
150,473	228,171	-0,178	-0,202
151,487	269,545	-0,133	-0,162
152,502	392,383	-0,131	-0,191
153,516	-44,454	-0,252	-0,087
154,531	-146,978	-0,431	0,025
155,546	33,359	-0,215	-0,129
156,560	100,408	-0,265	-0,214
157,575	22,633	-0,119	-0,067
158,589	16,185	-0,262	-0,143
159,604	-89,010	-0,284	-0,058
160,619	-111,360	-0,318	-0,045
161,633	80,392	-0,308	-0,230
162,648	194,372	-0,256	-0,270
163,662	218,613	-0,190	-0,211
164,677	189,242	-0,200	-0,209
165,692	54,122	-0,198	-0,132
166,706	-49,357	-0,255	-0,084
167,721	142,739	-0,322	-0,298
168,735	56,883	-0,324	-0,219
169,750	38,582	-0,172	-0,106
170,764	-19,328	-0,138	0,059
171,779	50,848	-0,183	-0,120
172,794	20,852	-0,195	-0,110
173,808	30,434	-0,163	-0,096
174,823	44,697	-0,314	-0,200
175,837	14,584	-0,398	-0,215
176,852	-126,025	-0,189	0,019
177,867	-94,318	-0,172	-0,032
178,881	50,778	-0,279	-0,183
179,896	14,594	-0,167	-0,090
180,910	177,140	-0,206	-0,208
181,925	116,223	-0,240	-0,204
182,940	-43,101	-0,314	-0,110
183,954	223,748	-0,277	-0,311
184,969	18,449	-0,218	-0,121
185,983	272,712	-0,188	-0,230
186,998	278,167	-0,147	-0,182
188,013	-9,624	-0,309	-0,142
189,027	341,847	-0,250	-0,340
190,042	201,812	-0,155	-0,166
191,056	361,929	-0,215	-0,300
192,071	405,088	-0,155	-0,227
193,086	-26,097	-0,138	-0,056
194,100	672,351	-0,095	-0,171
195,115	153,737	-0,183	-0,174
196,129	49,288	-0,268	-0,174
197,144	-186,813	-0,283	-0,003
198,159	125,884	-0,154	-0,135
199,173	118,848	-0,160	-0,137
200,188	800,000	-0,038	-0,098
201,202	800,000	-0,077	-0,173
202,217	100,325	-0,234	-0,188
203,232	-25,510	-0,186	-0,076
204,246	105,349	-0,166	-0,136
205,261	112,071	-0,231	-0,193
206,275	144,382	-0,288	-0,267
207,290	-41,404	-0,169	-0,060
208,304	533,434	-0,114	-0,187
209,319	-18,833	-0,236	-0,101
210,334	800,000	-0,125	-0,279
211,348	242,403	-0,246	-0,285
212,363	-19,407	-0,234	-0,100
213,377	-200,000	-0,033	-0,156
214,392	-41,359	-0,169	-0,060
215,407	-66,556	-0,145	-0,040
216,421	288,552	-0,163	-0,205
217,436	-20,828	-0,165	-0,070
218,450	46,281	-0,187	-0,120
219,465	3,139	-0,228	-0,114
220,480	-14,742	-0,286	-0,127
221,494	92,839	-0,150	-0,117
222,509	193,376	-0,054	-0,057
223,523	81,138	-0,163	-0,122
224,538	623,225	-0,055	0,096
225,553	274,989	-0,164	-0,202
226,567	131,905	-0,241	-0,214
227,582	800,000	-0,104	-0,294
228,596	128,414	-0,181	-0,160
229,611	11,104	-0,104	-0,055
230,626	-15,976	-0,223	-0,098
231,640	40,340	-0,178	-0,111
232,655	253,955	-0,117	-0,138
233,669	66,626	-0,229	-0,161
234,684	266,231	-0,146	-0,177
235,699	260,211	-0,197	-0,236
236,713	92,868	-0,108	-0,084
237,728	-69,214	-0,149	-0,039
238,742	113,547	-0,129	-0,108
239,757	800,000	-0,076	-0,154
240,772	570,017	-0,114	-0,193
241,786	282,214	-0,241	-0,299
242,801	97,023	-0,196	-0,155
243,815	61,092	-0,174	-0,119
244,830	-200,000	0,007	-0,087
245,844	201,945	-0,183	-0,195
246,859	800,000	-0,114	-0,271
247,874	52,842	-0,248	-0,163
248,888	-155,495	-0,210	0,009
249,903	-38,508	-0,242	0,088
250,917	793,687	-0,055	-0,105
251,932	22,133	-0,134	-0,075
252,947	-200,000	-0,002	-0,139
253,961	288,519	-0,171	-0,214
254,976	3,684	-0,256	-0,128
255,990	60,547	-0,219	-0,149
257,005	37,579	-0,204	-0,124
258,020	233,553	0,062	-0,070
259,034	377,591	-0,113	-0,160
260,049	-113,285	-0,225	0,030
261,063	331,880	-0,192	-0,256
262,078	65,586	-0,253	-0,176
263,093	-14,189	-0,325	-0,144
264,107	608,814	-0,062	-0,107
265,122	0,418	-0,139	0,068
266,136	93,095	0,016	0,012
267,151	-57,853	-0,116	-0,035
268,166	101,111	-0,163	-0,131
269,180	141,694	-0,139	-0,127
270,195	26,485	-0,282	-0,162
271,209	-200,000	-0,054	-0,165
272,224	111,409	-0,090	-0,075
273,239	113,295	-0,116	-0,097
274,253	-200,000	-0,055	-0,173
275,268	-96,218	-0,158	0,029
276,282	-4,048	-0,220	-0,105
277,297	147,955	-0,148	-0,138
278,312	84,073	-0,207	-0,155
279,326	-97,681	-0,257	-0,045
280,341	78,958	-0,068	-0,050
281,355	539,070	-0,111	-0,182
282,370	288,911	-0,096	-0,120
283,384	-167,668	-0,283	0,008
284,399	-122,331	-0,112	-0,012
285,414	-30,470	-0,265	-0,103
286,428	64,132	-0,173	-0,119
287,443	291,045	-0,045	-0,057
288,457	310,631	-0,155	-0,201
289,472	800,000	-0,105	-0,250
290,487	689,613	-0,106	-0,191
291,501	549,096	-0,149	-0,247
292,516	800,000	-0,140	-0,318
293,530	800,000	-0,057	-0,153
294,545	-112,684	-0,197	0,027
295,560	-82,065	-0,155	-0,034
296,574	45,122	-0,148	-0,094
297,589	210,298	-0,126	-0,136
298,603	1,439	-0,253	-0,125
299,618	323,149	-0,144	-0,190
300,633	617,096	0,023	0,040
301,647	61,836	-0,094	-0,064
302,662	220,462	-0,038	-0,042
303,676	523,543	-0,059	-0,095
304,691	117,749	-0,158	-0,134
305,706	52,480	-0,132	-0,087
306,720	61,772	-0,110	-0,075
307,735	114,519	-0,161	-0,135
308,749	-200,000	-0,039	-0,129
309,764	-104,397	-0,224	-0,035
310,779	-2,869	-0,186	-0,089
311,793	190,049	-0,088	-0,091
312,808	238,607	-0,077	-0,088
313,822	286,130	-0,179	-0,222
314,837	98,575	-0,148	-0,117
315,852	-52,282	-0,069	-0,022
316,866	800,000	-0,005	-0,014
317,881	14,543	-0,174	-0,093
318,895	108,801	-0,152	-0,124
319,910	172,946	-0,158	-0,156
320,925	546,450	-0,068	-0,112
321,939	281,574	-0,135	-0,166
322,954	393,427	-0,075	-0,108
323,968	-49,606	-0,085	0,028
324,983	-133,666	-0,046	-0,004
325,997	309,854	-0,079	-0,101
327,012	800,000	-0,095	-0,210
328,027	51,250	-0,245	-0,159
329,041	35,870	-0,191	-0,115
330,056	608,378	-0,107	-0,184
331,070	3,726	-0,131	-0,065
332,085	-103,720	-0,133	0,021
333,100	149,726	-0,053	-0,049
334,114	-58,511	-0,265	-0,078
335,129	-186,716	-0,215	-0,002
336,143	800,000	-0,074	-0,198
337,158	-95,641	-0,141	-0,026
338,173	-15,990	-0,209	0,091
339,187	-104,310	-0,064	0,010
340,202	236,367	-0,109	-0,123
341,216	21,831	-0,210	-0,117
342,231	242,434	-0,148	-0,170
343,246	219,900	-0,050	-0,055
344,260	-77,395	-0,150	-0,035
345,275	22,475	-0,148	-0,082
346,289	379,281	-0,091	-0,127
347,304	-47,944	-0,145	-0,048
348,319	20,866	-0,256	-0,142
349,333	215,527	-0,174	-0,189
350,348	-200,000	0,007	-0,148
351,362	121,196	-0,077	0,065
352,377	149,743	-0,094	0,087
353,392	-14,521	-0,044	-0,019
354,406	130,078	-0,149	-0,130
355,421	206,853	1305,444	1392,480
356,435	159,101	1465,001	1392,946
