DTS Sentinel unit serial number:	SN410029Multiplexer serial number:	ORYXHardware model number:	OX2-SRSoftware version number:	ORYX F/W v4,00 Oryx Data Collector v3.7.2.0data status	okinstallation	B3 Nyhavnadifferential loss correction	single-endedforward channel	channel 1reverse channel	N/Adate	2023/12/01time	14:27:30forward acquisition time	300,00reverse acquisition time	0,00gamma	499,1914k internal	0,3213k external	0,3213temperature offset calibration	1,0000default loss term (dB/km)	0,3820temperature slope calibration	1,0000multiplexer offset coefficient	1,0000multiplexer slope coefficient	1,0000fibre end	0,00T internal ref (°C)	10,70T ext. ref 1 (°C)	-2,65T ext. ref 2 (°C)	-2,70length (m)	temperature (°C)	Stokes	anti-Stokes-744,400	581,457	-0,145	-0,259
-743,385	-200,000	0,038	0,278
-742,371	205,094	-0,180	-0,203
-741,356	800,000	0,081	0,210
-740,342	800,000	-0,052	-0,127
-739,327	-200,000	-0,006	0,231
-738,312	154,490	-0,311	-0,310
-737,298	-200,000	0,041	0,260
-736,283	-200,000	-0,025	-0,341
-735,269	-200,000	-0,043	0,237
-734,254	183,760	-0,140	-0,150
-733,239	42,090	-0,124	0,081
-732,225	696,215	-0,119	-0,226
-731,210	-200,000	0,032	0,126
-730,196	-130,462	0,049	0,005
-729,181	-200,000	-0,017	-0,084
-728,167	-200,000	-0,011	-0,111
-727,152	108,153	-0,031	-0,026
-726,137	-200,000	0,003	-0,108
-725,123	-9,045	-0,051	-0,025
-724,108	-67,686	-0,246	-0,069
-723,094	232,808	-0,076	-0,091
-722,079	-65,030	-0,120	0,035
-721,064	800,000	0,031	-0,084
-720,050	800,000	-0,038	-0,085
-719,035	-3,499	-0,025	-0,012
-718,021	288,687	-0,050	-0,066
-717,006	800,000	0,050	-0,146
-715,991	-8,511	-0,076	-0,037
-714,977	-200,000	-0,000	0,001
-713,962	-200,000	0,004	0,063
-712,948	-40,290	0,086	0,032
-711,933	-200,000	-0,005	0,052
-710,918	800,000	0,030	0,094
-709,904	-85,010	-0,055	-0,012
-708,889	800,000	-0,021	0,048
-707,875	158,838	-0,068	-0,068
-706,860	220,091	0,135	-0,157
-705,845	-200,000	-0,006	-0,036
-704,831	-200,000	-0,001	0,066
-703,816	800,000	0,020	-0,052
-702,802	289,777	-0,075	-0,099
-701,787	750,506	-0,081	-0,159
-700,772	168,537	-0,073	-0,075
-699,758	-200,000	0,005	-0,107
-698,743	-187,354	0,052	-0,000
-697,729	-57,257	0,032	-0,010
-696,714	-56,932	-0,098	-0,031
-695,699	153,725	-0,042	-0,042
-694,685	323,838	-0,076	-0,105
-693,670	465,654	-0,017	-0,028
-692,656	-29,129	-0,055	-0,023
-691,641	-31,579	0,106	0,043
-690,627	-95,472	0,106	-0,020
-689,612	-200,000	0,047	-0,166
-688,597	80,145	-0,136	-0,106
-687,583	800,000	-0,002	-0,007
-686,568	-78,993	-0,131	-0,032
-685,554	800,000	-0,032	0,067
-684,539	91,274	-0,092	0,075
-683,524	-55,362	0,092	0,030
-682,510	12,983	-0,205	0,114
-681,495	-12,422	0,044	0,021
-680,481	-137,479	-0,097	-0,008
-679,466	-146,987	-0,120	0,007
-678,451	-154,255	-0,073	0,003
-677,437	-200,000	0,027	0,103
-676,422	-59,003	0,088	-0,027
-675,408	-200,000	-0,019	0,093
-674,393	448,010	-0,063	0,101
-673,378	-200,000	-0,010	-0,043
-672,364	316,305	-0,067	-0,092
-671,349	-70,210	-0,007	0,002
-670,335	-200,000	-0,019	0,099
-669,320	-126,177	0,141	-0,015
-668,305	432,433	0,027	-0,042
-667,291	-7,976	-0,029	-0,014
-666,276	49,350	-0,077	-0,052
-665,262	800,000	0,020	0,050
-664,247	-200,000	0,022	-0,179
-663,232	-151,830	-0,024	0,001
-662,218	222,113	0,022	-0,026
-661,203	317,599	0,010	0,014
-660,189	-200,000	-0,009	0,095
-659,174	-140,252	-0,166	-0,012
-658,159	82,867	-0,059	0,046
-657,145	-83,952	-0,084	-0,019
-656,130	-200,000	-0,003	0,042
-655,116	800,000	-0,029	0,076
-654,101	-138,645	0,041	-0,003
-653,086	307,503	0,056	-0,076
-652,072	221,169	-0,075	-0,087
-651,057	-200,000	0,007	0,121
-650,043	-46,697	-0,102	0,036
-649,028	612,397	-0,046	-0,084
-648,014	-113,336	0,040	0,006
-646,999	-200,000	-0,018	-0,064
-645,984	-200,000	-0,019	0,087
-644,970	-200,000	0,014	-0,170
-643,955	627,908	-0,129	-0,236
-642,941	7,665	0,084	0,045
-641,926	-200,000	-0,007	-0,130
-640,911	71,532	-0,135	-0,101
-639,897	-78,137	-0,029	-0,007
-638,882	-172,946	0,185	0,004
-637,868	493,630	-0,047	-0,078
-636,853	-193,773	-0,063	-0,000
-635,838	-90,368	-0,059	-0,012
-634,824	107,178	-0,062	-0,053
-633,809	5,283	0,060	-0,032
-632,795	-200,000	0,004	0,028
-631,780	170,286	0,067	0,069
-630,765	-114,250	-0,141	-0,019
-629,751	800,000	0,055	-0,135
-628,736	-36,333	-0,137	-0,053
-627,722	-90,386	-0,063	0,013
-626,707	800,000	0,054	-0,157
-625,692	272,732	-0,085	-0,108
-624,678	5,159	0,072	0,038
-623,663	-200,000	0,045	0,155
-622,649	95,866	-0,111	-0,092
-621,634	36,099	0,047	0,030
-620,619	-40,551	-0,062	-0,023
-619,605	114,919	0,092	0,081
-618,590	52,626	-0,050	0,034
-617,576	49,041	0,113	0,077
-616,561	800,000	-0,031	-0,093
-615,546	-200,000	0,018	-0,132
-614,532	134,642	0,045	0,042
-613,517	-200,000	-0,008	-0,038
-612,503	800,000	0,038	0,084
-611,488	-72,135	0,084	-0,022
-610,474	800,000	0,052	0,104
-609,459	-200,000	-0,030	0,137
-608,444	412,594	0,054	-0,084
-607,430	-148,021	-0,127	0,007
-606,415	800,000	-0,041	-0,090
-605,401	14,441	-0,092	-0,052
-604,386	14,494	-0,062	0,035
-603,371	-200,000	-0,002	0,027
-602,357	170,553	0,037	-0,038
-601,342	-186,286	-0,079	0,001
-600,328	-105,488	-0,108	-0,018
-599,313	800,000	-0,037	-0,101
-598,298	-119,580	0,085	0,011
-597,284	4,834	-0,045	0,024
-596,269	30,278	0,082	0,051
-595,255	201,118	-0,044	0,049
-594,240	297,097	-0,113	0,150
-593,225	24,827	-0,106	0,063
-592,211	-66,209	0,017	0,005
-591,196	-6,766	-0,140	0,068
-590,182	-103,359	0,018	-0,003
-589,167	-97,593	0,171	0,032
-588,152	-20,411	0,019	0,009
-587,138	-3,863	-0,032	-0,016
-586,123	379,033	0,008	-0,011
-585,109	143,670	-0,048	0,046
-584,094	52,763	-0,047	-0,032
-583,079	306,463	-0,053	0,071
-582,065	-42,077	0,040	-0,015
-581,050	-9,417	-0,075	-0,036
-580,036	728,840	0,014	0,028
-579,021	-159,795	-0,091	-0,004
-578,006	-200,000	-0,003	-0,134
-576,992	-200,000	-0,053	-0,193
-575,977	-200,000	-0,004	-0,053
-574,963	-200,000	0,001	0,064
-573,948	213,715	0,082	0,093
-572,934	-200,000	-0,005	0,108
-571,919	-200,000	0,014	0,096
-570,904	-169,605	-0,031	0,001
-569,890	-200,000	0,002	0,043
-568,875	312,948	0,121	0,164
-567,861	24,340	-0,032	-0,019
-566,846	247,052	0,101	0,123
-565,831	123,675	0,078	-0,070
-564,817	88,758	-0,022	-0,018
-563,802	-200,000	0,016	0,133
-562,788	-200,000	0,026	-0,085
-561,773	352,558	0,026	-0,037
-560,758	-200,000	-0,014	0,046
-559,744	67,514	0,145	0,107
-558,729	800,000	-0,021	0,042
-557,715	-200,000	-0,004	0,109
-556,700	-152,594	0,082	-0,004
-555,685	-200,000	0,022	-0,085
-554,671	39,756	0,065	-0,042
-553,656	-200,000	0,001	-0,005
-552,642	278,889	-0,044	-0,057
-551,627	72,925	0,071	0,053
-550,612	-200,000	0,025	-0,084
-549,598	208,797	0,052	0,059
-548,583	-54,741	-0,151	-0,049
-547,569	132,049	0,128	0,119
-546,554	-200,000	0,013	-0,046
-545,539	328,934	-0,127	0,176
-544,525	-66,002	0,063	-0,018
-543,510	294,371	0,033	-0,044
-542,496	-86,366	-0,086	-0,019
-541,481	-200,000	-0,009	-0,099
-540,466	-200,000	-0,013	-0,079
-539,452	475,887	0,046	0,075
-538,437	800,000	-0,017	0,047
-537,423	79,656	-0,019	0,015
-536,408	-200,000	-0,008	0,167
-535,393	101,749	-0,129	-0,108
-534,379	-200,000	-0,009	-0,062
-533,364	333,910	-0,036	-0,051
-532,350	265,235	0,064	-0,081
-531,335	-200,000	-0,020	0,073
-530,321	800,000	0,011	0,029
-529,306	155,802	-0,072	0,072
-528,291	45,164	-0,055	0,036
-527,277	-74,058	-0,118	-0,030
-526,262	800,000	-0,049	-0,104
-525,248	124,253	-0,081	-0,073
-524,233	23,084	-0,067	0,039
-523,218	-33,192	-0,070	0,028
-522,204	-200,000	-0,001	-0,038
-521,189	246,851	-0,039	-0,048
-520,175	-200,000	-0,012	-0,059
-519,160	433,556	0,003	0,005
-518,145	-200,000	0,011	-0,057
-517,131	349,294	0,019	0,027
-516,116	277,477	0,051	0,065
-515,102	800,000	0,023	0,046
-514,087	-200,000	0,023	-0,169
-513,072	-114,213	-0,058	-0,008
-512,058	46,677	-0,049	0,033
-511,043	-108,193	0,160	-0,025
-510,029	-0,184	-0,064	-0,033
-509,014	26,634	-0,080	0,048
-507,999	-133,386	0,077	-0,007
-506,985	-40,709	-0,066	0,024
-505,970	-200,000	0,049	0,169
-504,956	-200,000	-0,001	-0,030
-503,941	-54,529	0,084	-0,027
-502,926	-200,000	-0,011	0,061
-501,912	-42,826	0,158	0,057
-500,897	-200,000	0,003	0,075
-499,883	-200,000	-0,003	0,021
-498,868	-20,125	0,117	-0,051
-497,853	-168,003	-0,081	-0,002
-496,839	37,961	-0,047	0,030
-495,824	800,000	-0,029	-0,073
-494,810	-200,000	0,017	0,054
-493,795	-54,044	-0,070	0,023
-492,781	23,036	0,063	0,037
-491,766	-58,823	-0,140	-0,043
-490,751	800,000	0,029	-0,068
-489,737	-45,768	0,041	-0,015
-488,722	169,895	0,058	0,059
-487,708	-98,371	0,109	0,020
-486,693	28,595	0,061	0,037
-485,678	-139,630	-0,094	0,007
-484,664	-196,341	0,080	0,000
-483,649	-200,000	-0,000	-0,139
-482,635	278,868	0,028	0,036
-481,620	-167,480	0,156	-0,004
-480,605	-200,000	0,054	0,177
-479,591	-200,000	-0,001	0,036
-478,576	143,459	0,077	-0,074
-477,562	678,996	0,054	-0,101
-476,547	127,399	-0,071	-0,065
-475,532	-188,266	-0,017	0,000
-474,518	-200,000	0,017	-0,061
-473,503	-200,000	-0,016	0,093
-472,489	-101,896	0,075	-0,013
-471,474	-19,427	0,073	-0,032
-470,459	-14,510	-0,207	-0,095
-469,445	800,000	0,033	-0,078
-468,430	-200,000	0,001	0,007
-467,416	-124,267	0,122	0,014
-466,401	800,000	0,013	-0,033
-465,386	282,650	-0,062	0,080
-464,372	800,000	0,044	0,126
-463,357	-200,000	0,025	-0,166
-462,343	-200,000	-0,006	0,074
-461,328	-77,911	0,090	-0,022
-460,313	3,992	0,110	-0,057
-459,299	-46,676	0,085	-0,030
-458,284	-100,018	-0,066	-0,012
-457,270	-151,779	-0,107	0,006
-456,255	537,319	-0,029	0,050
-455,241	-36,770	0,140	0,054
-454,226	-131,069	-0,077	-0,007
-453,211	-24,606	0,150	-0,064
-452,197	800,000	-0,045	-0,118
-451,182	-106,578	0,050	0,008
-450,168	-20,312	0,064	0,028
-449,153	800,000	0,012	-0,027
-448,138	-80,208	-0,079	0,019
-447,124	394,406	-0,032	-0,047
-446,109	-200,000	0,024	0,084
-445,095	-158,746	-0,047	0,002
-444,080	232,920	0,110	0,130
-443,065	376,988	0,109	0,160
-442,051	-200,000	0,031	0,000
-441,036	-81,802	0,080	0,019
-440,022	-53,955	-0,175	-0,057
-439,007	-98,667	0,040	-0,007
-437,992	214,627	-0,038	0,043
-436,978	52,814	0,077	0,052
-435,963	652,819	0,024	0,045
-434,949	170,854	-0,025	0,025
-433,934	-200,000	0,027	0,161
-432,919	800,000	0,010	-0,023
-431,905	800,000	-0,029	-0,062
-430,890	-200,000	0,000	0,076
-429,876	-200,000	0,024	0,084
-428,861	-200,000	0,008	-0,043
-427,846	-95,249	0,119	0,023
-426,832	-159,217	0,116	-0,005
-425,817	800,000	0,050	-0,146
-424,803	-109,722	0,114	0,017
-423,788	21,542	0,124	0,072
-422,773	25,416	0,044	0,026
-421,759	-115,443	-0,124	0,017
-420,744	-93,961	-0,077	-0,015
-419,730	306,706	-0,074	-0,098
-418,715	486,031	0,057	-0,094
-417,701	-200,000	0,013	-0,053
-416,686	92,637	0,120	-0,097
-415,671	94,767	-0,142	0,115
-414,657	-85,606	-0,021	0,005
-413,642	170,651	-0,050	-0,051
-412,628	451,095	-0,075	-0,119
-411,613	-200,000	-0,005	-0,123
-410,598	-200,000	-0,006	-0,061
-409,584	-82,555	0,062	-0,014
-408,569	-40,387	-0,034	-0,013
-407,555	428,950	0,051	0,079
-406,540	6,964	0,082	-0,043
-405,525	74,102	-0,057	-0,042
-404,511	-200,000	0,019	0,137
-403,496	41,129	-0,063	-0,040
-402,482	-200,000	0,012	-0,072
-401,467	-200,000	-0,036	0,181
-400,452	-147,978	0,076	0,004
-399,438	353,910	-0,075	-0,106
-398,423	54,323	-0,062	0,043
-397,409	249,710	-0,112	-0,136
-396,394	2,806	-0,144	0,075
-395,379	-200,000	0,012	-0,084
-394,365	65,235	-0,079	-0,057
-393,350	800,000	0,052	0,140
-392,336	-200,000	-0,017	-0,073
-391,321	111,808	0,060	0,052
-390,306	-2,199	-0,093	-0,046
-389,292	-111,494	0,060	-0,009
-388,277	62,473	0,019	0,014
-387,263	12,648	-0,082	0,045
-386,248	800,000	0,047	0,107
-385,233	586,590	0,068	0,119
-384,219	-200,000	0,013	-0,133
-383,204	800,000	-0,040	-0,114
-382,190	-200,000	-0,011	-0,127
-381,175	28,110	-0,101	-0,061
-380,160	-139,842	0,037	0,003
-379,146	-3,142	-0,056	0,028
-378,131	-167,634	0,091	0,003
-377,117	-6,526	-0,085	0,041
-376,102	149,068	-0,064	-0,062
-375,088	-56,241	0,036	0,011
-374,073	-163,051	0,107	0,004
-373,058	-21,657	-0,022	0,010
-372,044	83,549	-0,044	0,034
-371,029	202,258	-0,039	0,042
-370,015	-90,777	-0,066	-0,013
-369,000	31,402	0,095	-0,058
-367,985	200,148	-0,034	-0,038
-366,971	19,586	-0,057	-0,033
-365,956	-200,000	-0,005	0,216
-364,942	110,246	-0,052	0,044
-363,927	-96,546	0,084	0,016
-362,912	56,952	0,172	0,119
-361,898	-200,000	0,014	0,085
-360,883	-200,000	0,016	0,077
-359,869	-200,000	-0,027	-0,110
-358,854	-52,812	0,148	-0,048
-357,839	800,000	0,037	0,081
-356,825	-86,328	-0,036	0,008
-355,810	800,000	-0,014	0,031
-354,796	540,676	-0,024	-0,040
-353,781	800,000	-0,031	-0,091
-352,766	5,444	-0,040	0,021
-351,752	-141,239	0,165	-0,012
-350,737	64,735	0,043	0,031
-349,723	-200,000	0,005	0,099
-348,708	21,211	-0,075	-0,043
-347,693	441,691	0,047	0,074
-346,679	43,209	0,142	-0,092
-345,664	-173,121	-0,008	-0,000
-344,650	58,406	0,054	0,038
-343,635	-8,254	0,067	0,032
-342,620	-127,216	-0,032	0,003
-341,606	544,040	-0,009	0,015
-340,591	0,162	-0,203	-0,103
-339,577	-69,233	0,058	-0,016
-338,562	439,067	0,048	-0,074
-337,548	212,510	-0,122	-0,138
-336,533	-117,194	-0,100	-0,013
-335,518	-181,649	0,093	-0,001
-334,504	450,928	0,037	-0,059
-333,489	-200,000	-0,011	0,090
-332,475	800,000	0,058	-0,153
-331,460	213,096	-0,121	-0,137
-330,445	-30,292	0,086	0,035
-329,431	595,762	0,023	0,040
-328,416	-71,928	0,027	-0,007
-327,402	212,688	0,017	0,019
-326,387	69,087	-0,108	0,079
-325,372	-200,000	-0,045	-0,160
-324,358	23,070	0,017	-0,010
-323,343	-189,019	-0,174	0,001
-322,329	-200,000	0,017	0,115
-321,314	408,990	-0,080	-0,121
-320,299	800,000	0,028	-0,075
-319,285	175,504	0,005	0,006
-318,270	-200,000	0,027	-0,122
-317,256	-58,040	-0,124	-0,038
-316,241	361,507	-0,025	0,036
-315,226	-80,115	0,100	-0,024
-314,212	-103,788	0,192	0,032
-313,197	-36,990	-0,046	-0,017
-312,183	400,624	-0,021	-0,032
-311,168	800,000	0,034	-0,072
-310,153	1,690	-0,049	0,025
-309,139	-63,342	0,040	0,012
-308,124	20,657	0,092	-0,053
-307,110	277,269	0,022	0,028
-306,095	-200,000	-0,008	0,055
-305,080	-200,000	0,004	0,151
-304,066	91,999	0,008	0,006
-303,051	159,034	-0,008	-0,008
-302,037	800,000	-0,013	0,028
-301,022	-200,000	0,018	0,104
-300,008	123,134	0,083	0,074
-298,993	800,000	0,032	0,080
-297,978	-72,550	0,119	0,031
-296,964	-175,279	-0,059	0,001
-295,949	-200,000	0,018	-0,079
-294,935	-137,609	0,115	0,009
-293,920	800,000	-0,059	0,145
-292,905	400,707	-0,076	0,113
-291,891	-200,000	0,028	0,105
-290,876	212,484	0,050	0,056
-289,862	-99,820	-0,059	-0,010
-288,847	800,000	-0,044	-0,106
-287,832	-200,000	-0,009	-0,097
-286,818	-200,000	-0,020	0,093
-285,803	18,133	0,087	0,049
-284,789	-71,282	0,172	-0,046
-283,774	427,848	0,053	0,082
-282,759	800,000	0,058	0,172
-281,745	430,740	0,054	-0,084
-280,730	-47,390	-0,058	-0,020
-279,716	-29,862	-0,101	0,041
-278,701	800,000	0,038	-0,111
-277,686	-200,000	0,003	0,022
-276,672	88,132	0,103	0,081
-275,657	13,688	-0,113	-0,062
-274,643	-200,000	-0,014	-0,054
-273,628	-200,000	-0,008	-0,107
-272,613	742,792	0,075	-0,145
-271,599	538,148	0,033	0,056
-270,584	-91,214	0,068	0,014
-269,570	-99,038	0,060	-0,011
-268,555	800,000	0,035	0,097
-267,540	-200,000	0,002	-0,098
-266,526	-196,712	-0,128	0,001
-265,511	185,820	-0,009	-0,009
-264,497	-200,000	-0,016	0,074
-263,482	-46,477	-0,117	0,041
-262,467	272,089	0,088	0,111
-261,453	191,372	-0,049	-0,053
-260,438	-36,955	-0,061	0,023
-259,424	-4,906	-0,117	0,057
-258,409	-169,469	-0,036	0,001
-257,395	-28,814	-0,007	0,003
-256,380	151,347	0,066	0,064
-255,365	-200,000	0,115	0,000
-254,351	800,000	0,043	-0,100
-253,336	-172,750	-0,042	-0,001
-252,322	-81,254	-0,086	-0,020
-251,307	74,582	0,043	-0,032
-250,292	-146,379	0,082	0,005
-249,278	-88,866	-0,111	-0,023
-248,263	800,000	-0,054	-0,163
-247,249	-200,000	0,046	0,175
-246,234	-30,587	-0,198	0,079
-245,219	16,860	-0,055	0,031
-244,205	34,578	-0,137	-0,085
-243,190	157,859	0,087	-0,085
-242,176	-105,502	0,047	-0,008
-241,161	800,000	-0,052	0,161
-240,146	238,345	0,051	0,060
-239,132	800,000	0,019	-0,051
-238,117	800,000	-0,022	-0,068
-237,103	-200,000	0,000	-0,080
-236,088	800,000	0,042	-0,097
-235,073	256,524	-0,056	-0,068
-234,059	294,521	-0,035	0,046
-233,044	-200,000	-0,009	0,104
-232,030	-122,249	-0,149	-0,017
-231,015	-200,000	0,061	-0,193
-230,000	800,000	-0,070	-0,191
-228,986	-82,551	-0,132	-0,030
-227,971	800,000	-0,024	0,054
-226,957	-10,174	0,077	0,036
-225,942	73,063	0,083	0,062
-224,927	720,667	-0,059	0,111
-223,913	-200,000	0,008	-0,191
-222,898	-200,000	-0,018	-0,189
-221,884	800,000	0,032	-0,072
-220,869	800,000	0,029	0,083
-219,855	-200,000	0,010	0,042
-218,840	-200,000	-0,021	-0,131
-217,825	349,840	-0,013	-0,018
-216,811	213,207	-0,088	-0,098
-215,796	-200,000	0,023	0,103
-214,782	800,000	-0,018	-0,042
-213,767	166,111	0,017	-0,017
-212,752	-141,963	0,108	0,008
-211,738	800,000	-0,055	0,133
-210,723	94,623	0,043	0,035
-209,709	-200,000	-0,033	-0,146
-208,694	-200,000	-0,005	-0,027
-207,679	-191,130	-0,100	-0,001
-206,665	-200,000	0,040	0,132
-205,650	-58,614	0,146	-0,045
-204,636	28,690	0,066	0,040
-203,621	800,000	0,061	0,144
-202,606	-200,000	0,003	-0,032
-201,592	800,000	-0,024	0,065
-200,577	-174,192	-0,147	0,003
-199,563	-200,000	-0,018	0,228
-198,548	-146,583	0,156	0,009
-197,533	-200,000	-0,007	0,110
-196,519	800,000	0,015	0,036
-195,504	497,562	-0,034	0,055
-194,490	800,000	0,029	-0,068
-193,475	227,253	-0,023	-0,027
-192,460	593,426	-0,057	-0,100
-191,446	-200,000	0,054	-0,000
-190,431	800,000	-0,035	0,091
-189,417	-125,780	-0,059	-0,006
-188,402	800,000	-0,033	-0,073
-187,387	-124,244	-0,132	-0,014
-186,373	-200,000	-0,004	-0,107
-185,358	3,155	0,082	0,042
-184,344	-200,000	0,032	0,115
-183,329	56,271	-0,069	0,048
-182,315	-200,000	0,007	0,063
-181,300	189,011	-0,021	0,022
-180,285	-172,553	-0,082	0,002
-179,271	-200,000	0,008	-0,043
-178,256	381,961	-0,044	-0,064
-177,242	70,303	-0,101	0,074
-176,227	-42,811	0,033	-0,012
-175,212	133,023	0,103	0,094
-174,198	-64,584	-0,221	-0,063
-173,183	372,921	-0,059	-0,086
-172,169	691,920	0,043	-0,081
-171,154	-122,584	0,065	-0,007
-170,139	134,066	0,050	0,046
-169,125	164,317	0,019	-0,019
-168,110	800,000	-0,006	-0,016
-167,096	215,855	-0,080	0,090
-166,081	-111,685	0,070	0,010
-165,066	-28,794	-0,104	0,042
-164,052	443,466	-0,052	0,081
-163,037	800,000	-0,036	0,098
-162,023	-11,292	0,034	0,016
-161,008	-200,000	-0,015	0,052
-159,993	52,758	0,053	-0,036
-158,979	-200,000	-0,003	-0,130
-157,964	-15,300	0,082	-0,037
-156,950	9,055	-0,090	0,048
-155,935	-200,000	0,024	-0,134
-154,920	800,000	0,040	0,080
-153,906	145,448	0,166	0,157
-152,891	800,000	-0,035	0,080
-151,877	66,729	0,035	0,025
-150,862	800,000	-0,017	-0,044
-149,847	-200,000	-0,010	0,066
-148,833	800,000	-0,032	-0,073
-147,818	113,295	0,093	-0,080
-146,804	6,131	0,027	-0,014
-145,789	-21,916	0,020	0,008
-144,775	536,761	-0,047	0,079
-143,760	-119,850	0,029	0,004
-142,745	-70,556	0,200	-0,053
-141,731	-200,000	0,015	0,091
-140,716	608,798	0,068	0,120
-139,702	458,165	0,034	0,054
-138,687	800,000	-0,020	-0,042
-137,672	351,564	0,085	-0,119
-136,658	1,380	-0,076	-0,039
-135,643	-164,545	0,053	0,002
-134,629	95,943	0,138	0,112
-133,614	65,466	0,154	0,110
-132,599	-200,000	0,001	-0,126
-131,585	175,743	0,084	-0,086
-130,570	118,763	-0,058	0,051
-129,556	86,072	-0,033	-0,026
-128,541	-200,000	0,001	-0,150
-127,526	-200,000	0,013	-0,106
-126,512	-66,811	-0,113	-0,031
-125,497	146,714	0,033	0,031
-124,483	434,780	0,084	0,130
-123,468	-200,000	-0,018	0,148
-122,453	162,108	-0,051	0,050
-121,439	-74,839	-0,049	0,012
-120,424	-32,799	-0,115	0,045
-119,410	475,643	-0,020	-0,032
-118,395	-200,000	-0,012	0,073
-117,380	27,636	0,053	0,031
-116,366	-65,407	0,081	0,023
-115,351	-200,000	0,000	-0,050
-114,337	-200,000	0,002	-0,045
-113,322	34,302	-0,035	-0,022
-112,307	-165,517	0,074	-0,002
-111,293	532,443	0,037	0,062
-110,278	56,807	0,031	0,021
-109,264	589,038	-0,033	-0,057
-108,249	354,686	0,041	0,057
-107,234	171,973	0,098	-0,100
-106,220	132,997	-0,019	-0,018
-105,205	-23,877	0,127	-0,053
-104,191	-200,000	-0,018	0,072
-103,176	-200,000	0,027	0,170
-102,162	-36,129	0,160	0,061
-101,147	800,000	0,006	0,016
-100,132	-35,888	-0,105	-0,040
-99,118	-200,000	-0,007	0,035
-98,103	713,906	-0,085	-0,161
-97,089	41,757	-0,039	0,025
-96,074	-200,000	0,019	0,122
-95,059	-200,000	-0,041	0,129
-94,045	-54,817	-0,099	0,031
-93,030	-200,000	0,040	-0,143
-92,016	83,050	-0,106	-0,081
-91,001	452,000	-0,049	0,076
-89,986	800,000	-0,019	0,051
-88,972	-200,000	0,007	0,077
-87,957	159,617	0,076	0,075
-86,943	131,242	0,017	-0,016
-85,928	-84,441	-0,293	0,065
-84,913	136,530	-0,036	0,033
-83,899	-60,773	0,181	-0,054
-82,884	20,255	0,023	-0,013
-81,870	-200,000	0,014	0,089
-80,855	578,147	0,026	0,044
-79,840	3,352	-0,069	-0,035
-78,826	-200,000	-0,006	0,085
-77,811	175,700	-0,070	0,071
-76,797	5,516	-0,100	0,052
-75,782	215,090	0,081	0,091
-74,767	-49,236	-0,143	0,048
-73,753	-200,000	-0,025	0,118
-72,738	-200,000	-0,030	0,155
-71,724	90,400	-0,013	-0,010
-70,709	162,098	-0,034	-0,034
-69,694	-200,000	-0,001	0,029
-68,680	800,000	0,025	0,075
-67,665	-200,000	-0,001	0,047
-66,651	675,720	-0,064	0,119
-65,636	-81,904	-0,073	-0,017
-64,622	-55,105	0,115	0,036
-63,607	121,472	-0,042	0,037
-62,592	91,918	-0,061	0,049
-61,578	-20,184	-0,109	0,047
-60,563	371,481	-0,044	0,063
-59,549	-200,000	0,009	0,073
-58,534	6,354	-1,964	-1,026
-57,519	354,666	-1,336	-1,878
-56,505	-200,000	-0,378	-4,463
-55,490	603,886	0,820	1,446
-54,476	800,000	4,999	11,280
-53,461	-200,000	20,889	330,506
-52,446	800,000	756,955	2323,987
-51,432	552,078	1662,224	2826,589
-50,417	73,488	1664,963	1228,132
-49,403	18,569	1538,403	865,272
-48,388	12,540	1461,036	792,579
-47,373	19,066	1451,890	818,925
-46,359	15,805	1441,139	797,308
-45,344	10,803	1436,963	771,137
-44,330	10,735	1434,988	769,726
-43,315	10,760	1433,101	768,801
-42,300	10,724	1431,563	767,775
-41,286	10,756	1430,023	767,070
-40,271	10,723	1428,755	766,201
-39,257	10,738	1427,696	765,677
-38,242	10,807	1426,474	765,315
-37,227	10,759	1425,464	764,518
-36,213	10,768	1424,112	763,802
-35,198	10,742	1423,326	763,231
-34,184	10,831	1422,209	763,020
-33,169	10,761	1420,804	761,906
-32,154	10,799	1419,556	761,388
-31,140	10,804	1418,552	760,838
-30,125	10,830	1417,429	760,328
-29,111	10,843	1416,429	759,827
-28,096	10,804	1415,229	758,968
-27,082	10,752	1413,823	757,940
-26,067	10,724	1413,026	757,349
-25,052	10,755	1411,939	756,884
-24,038	10,762	1410,665	756,201
-23,023	10,712	1410,031	755,600
-22,009	10,740	1408,718	754,997
-20,994	10,729	1407,622	754,330
-19,979	10,715	1406,989	753,896
-18,965	10,700	1406,026	753,279
-17,950	10,646	1405,130	752,515
-16,936	10,663	1404,329	752,134
-15,921	10,640	1403,209	751,399
-14,906	10,633	1402,235	750,813
-13,892	10,672	1401,199	750,411
-12,877	10,654	1400,643	750,000
-11,863	10,663	1399,683	749,500
-10,848	10,618	1398,866	748,821
-9,833	10,569	1398,129	748,170
-8,819	10,565	1396,949	747,490
-7,804	10,534	1396,265	746,954
-6,790	10,560	1395,313	746,533
-5,775	10,557	1394,091	745,836
-4,760	10,583	1393,190	745,444
-3,746	10,591	1392,174	744,910
-2,731	10,588	1391,276	744,386
-1,717	10,487	1390,826	743,648
-0,702	10,535	1388,718	742,712
0,313	14,637	1302,576	715,417
1,327	31,042	693,813	418,394
2,342	47,633	120,795	79,289
3,356	2,403	16,544	8,411
4,371	6,424	3,371	1,759
5,386	-27,434	1,000	0,408
6,400	800,000	0,215	0,504
7,415	-0,701	-0,292	-0,145
8,429	-105,020	-0,348	-0,056
9,444	120,591	-0,330	-0,289
10,459	341,900	-0,172	-0,237
11,473	132,327	-0,283	-0,257
12,488	87,377	-0,242	-0,188
13,502	-23,873	-0,331	-0,139
14,517	1,998	-0,419	-0,212
15,531	-62,289	-0,473	-0,138
16,546	79,859	-0,315	-0,238
17,561	105,508	-0,300	-0,249
18,575	8,740	-0,233	-0,123
19,590	-5,691	-0,211	-0,101
20,604	204,091	-0,169	-0,184
21,619	0,652	-0,391	-0,196
22,634	53,497	-0,469	-0,316
23,648	74,140	-0,379	-0,279
24,663	7,636	-0,477	-0,251
25,677	276,081	-0,289	-0,362
26,692	536,310	-0,208	-0,348
27,707	27,979	-0,400	-0,237
28,721	26,474	-0,286	-0,168
29,736	265,730	-0,353	-0,433
30,750	238,810	-0,329	-0,385
31,765	236,382	-0,277	-0,323
32,780	122,243	-0,356	-0,313
33,794	35,917	-0,372	-0,230
34,809	163,077	-0,237	-0,234
35,823	-27,845	-0,396	-0,161
36,838	108,851	-0,438	-0,368
37,853	76,261	-0,271	-0,201
38,867	125,326	-0,416	-0,368
39,882	44,894	-0,393	-0,254
40,896	-28,093	-0,313	-0,127
41,911	16,104	-0,338	-0,187
42,926	148,290	-0,262	-0,248
43,940	109,791	-0,334	-0,281
44,955	100,253	-0,353	-0,287
45,969	397,282	-0,226	-0,332
46,984	39,637	-0,292	-0,183
47,999	84,154	-0,312	-0,239
49,013	-17,248	-0,232	-0,102
50,028	105,482	-0,292	-0,242
51,042	172,599	-0,358	-0,362
52,057	126,967	-0,397	-0,353
53,071	71,968	-0,256	-0,187
54,086	77,449	-0,280	-0,209
55,101	13,104	-0,289	-0,157
56,115	122,109	-0,283	-0,247
57,130	94,325	-0,292	-0,232
58,144	28,866	-0,326	-0,193
59,159	37,267	-0,360	-0,223
60,174	29,102	-0,447	-0,265
61,188	27,435	-0,339	-0,200
62,203	62,610	-0,419	-0,293
63,217	207,138	-0,227	-0,249
64,232	17,765	-0,320	-0,178
65,247	-4,692	-0,383	-0,185
66,261	-22,799	-0,326	-0,138
67,276	42,270	-0,337	-0,214
68,290	-40,683	-0,372	-0,134
69,305	32,927	-0,270	-0,164
70,320	-55,431	-0,296	-0,092
71,334	-47,585	-0,413	-0,140
72,349	-38,517	-0,318	-0,117
73,363	-47,971	-0,326	-0,110
74,378	-30,360	-0,455	-0,180
75,393	-27,800	-0,364	-0,147
76,407	219,160	-0,197	-0,220
77,422	85,067	-0,260	-0,200
78,436	-33,130	-0,384	-0,148
79,451	114,761	-0,275	-0,235
80,466	-11,672	-0,327	-0,150
81,480	66,446	-0,359	-0,255
82,495	-49,110	-0,271	-0,090
83,509	10,905	-0,218	-0,116
84,524	139,297	-0,359	-0,330
85,539	259,315	-0,172	-0,208
86,553	-37,039	-0,326	-0,121
87,568	40,354	-0,286	-0,180
88,582	446,161	-0,195	-0,301
89,597	111,119	-0,265	-0,223
90,611	-129,736	-0,311	-0,030
91,626	29,059	-0,252	-0,149
92,641	-65,070	-0,274	-0,077
93,655	-38,323	-0,258	-0,095
94,670	146,479	-0,299	-0,281
95,684	21,621	-0,331	-0,188
96,699	62,045	-0,255	-0,177
97,714	-23,317	-0,261	-0,109
98,728	395,918	-0,192	-0,280
99,743	85,152	-0,266	-0,204
100,757	124,020	-0,232	-0,203
101,772	27,214	-0,246	-0,144
102,787	20,663	-0,366	-0,206
103,801	65,985	-0,281	-0,199
104,816	83,167	-0,322	-0,244
105,830	100,140	-0,203	-0,164
106,845	-11,404	-0,265	-0,122
107,860	85,152	-0,213	-0,163
108,874	159,266	-0,179	-0,174
109,889	-43,791	-0,467	-0,163
110,903	58,890	-0,324	-0,222
111,918	81,894	-0,161	-0,121
112,933	16,809	-0,152	-0,084
113,947	-113,013	-0,268	-0,037
114,962	-25,823	-0,205	-0,084
115,976	21,866	-0,236	-0,134
116,991	197,592	-0,272	-0,291
118,006	-152,353	-0,274	-0,014
119,020	-14,607	-0,330	-0,148
120,035	87,076	-0,261	-0,201
121,049	-30,139	-0,353	-0,139
122,064	31,969	-0,242	-0,145
123,079	186,897	-0,171	-0,178
124,093	-13,827	-0,214	-0,096
125,108	101,451	-0,240	-0,195
126,122	-43,783	-0,226	-0,079
127,137	80,160	-0,319	-0,239
128,151	-49,870	-0,361	-0,119
129,166	277,113	-0,085	-0,106
130,181	62,412	-0,338	-0,235
131,195	72,978	-0,199	-0,145
132,210	2,312	-0,187	-0,094
133,224	-47,939	-0,339	-0,114
134,239	7,367	-0,210	-0,109
135,254	-138,627	-0,181	0,014
136,268	519,994	-0,120	-0,197
137,283	209,736	-0,143	-0,157
138,297	166,936	-0,177	-0,175
139,312	-50,537	-0,206	-0,067
140,327	370,688	-0,255	-0,361
141,341	-14,666	-0,263	-0,117
142,356	416,092	-0,131	-0,195
143,370	-61,901	-0,311	-0,090
144,385	-0,590	-0,172	-0,084
145,400	-121,896	-0,314	0,036
146,414	92,953	-0,218	-0,171
147,429	94,892	-0,244	-0,193
148,443	-41,716	-0,330	-0,117
149,458	109,544	-0,106	-0,088
150,473	24,353	-0,216	-0,124
151,487	-104,797	-0,366	-0,058
152,502	21,809	-0,228	-0,129
153,516	84,785	-0,299	-0,227
154,531	34,261	-0,165	-0,100
155,546	105,504	-0,190	-0,156
156,560	800,000	-0,138	-0,312
157,575	45,986	-0,233	-0,150
158,589	117,514	-0,239	-0,205
159,604	15,166	-0,295	-0,161
160,619	162,334	-0,241	-0,235
161,633	-1,464	-0,212	-0,104
162,648	84,680	-0,269	-0,205
163,662	273,449	-0,140	-0,172
164,677	-10,883	-0,210	-0,096
165,692	10,649	-0,207	-0,109
166,706	87,550	-0,252	-0,194
167,721	-200,000	-0,089	-0,292
168,735	-1,270	-0,408	-0,199
169,750	-7,726	-0,233	-0,109
170,764	-115,679	-0,354	0,046
171,779	285,447	-0,171	-0,215
172,794	128,021	-0,186	-0,164
173,808	-200,000	-0,243	0,001
174,823	-78,573	-0,152	-0,036
175,837	42,597	-0,214	-0,135
176,852	36,210	-0,349	-0,213
177,867	238,115	-0,137	-0,158
178,881	91,700	-0,143	-0,111
179,896	45,104	-0,245	-0,156
180,910	-6,782	-0,281	-0,132
181,925	18,813	-0,297	-0,165
182,940	74,217	-0,212	-0,154
183,954	-93,245	-0,215	-0,041
184,969	-50,940	-0,262	-0,085
185,983	433,437	-0,101	-0,152
186,998	-48,079	-0,285	-0,095
188,013	800,000	-0,145	-0,310
189,027	314,180	-0,159	-0,207
190,042	194,168	-0,207	-0,217
191,056	333,701	-0,193	-0,259
192,071	143,071	-0,206	-0,190
193,086	41,544	-0,168	-0,105
194,100	3,804	-0,186	-0,094
195,115	1,073	-0,109	-0,054
196,129	34,132	-0,260	-0,157
197,144	-126,184	-0,306	-0,031
198,159	179,624	-0,147	-0,150
199,173	226,237	-0,111	-0,125
200,188	-70,597	-0,180	0,047
201,202	134,004	-0,196	-0,176
202,217	275,084	-0,196	-0,241
203,232	105,076	-0,224	-0,183
204,246	-34,613	-0,220	-0,083
205,261	113,960	-0,257	-0,216
206,275	147,083	-0,178	-0,166
207,290	229,577	-0,183	-0,207
208,304	-200,000	-0,065	-0,234
209,319	31,394	-0,192	-0,114
210,334	-10,109	-0,189	-0,087
211,348	-27,675	-0,282	-0,113
212,363	329,037	-0,216	-0,288
213,377	761,600	-0,125	-0,235
214,392	-30,738	-0,218	-0,085
215,407	64,721	-0,120	-0,084
216,421	-150,162	-0,294	0,015
217,436	800,000	-0,077	-0,216
218,450	139,657	-0,192	-0,175
219,465	410,320	-0,140	-0,206
220,480	55,722	-0,204	-0,136
221,494	800,000	-0,064	-0,133
222,509	179,329	-0,115	-0,117
223,523	93,145	-0,232	-0,181
224,538	800,000	-0,135	-0,310
225,553	-49,534	-0,206	-0,067
226,567	4,284	-0,242	-0,122
227,582	529,091	-0,105	-0,172
228,596	-88,978	-0,144	0,029
229,611	-10,473	-0,258	-0,118
230,626	-200,000	-0,041	-0,213
231,640	-67,082	-0,159	-0,043
232,655	-29,771	-0,271	-0,106
233,669	-71,825	-0,215	-0,055
234,684	-33,681	-0,143	-0,054
235,699	-124,216	-0,173	0,019
236,713	-65,552	-0,213	-0,059
237,728	40,187	-0,205	-0,127
238,742	448,331	-0,184	-0,281
239,757	800,000	-0,133	-0,271
240,772	-28,909	-0,357	-0,141
241,786	-103,312	-0,428	-0,069
242,801	210,334	-0,156	-0,169
243,815	800,000	-0,073	-0,156
244,830	498,002	-0,064	-0,102
245,844	335,087	-0,139	-0,187
246,859	507,320	-0,105	-0,169
247,874	131,365	-0,180	-0,160
248,888	113,025	-0,174	-0,146
249,903	548,546	-0,131	-0,218
250,917	242,054	-0,202	-0,234
251,932	42,136	-0,076	-0,047
252,947	-60,667	-0,092	-0,027
253,961	216,017	-0,197	-0,216
254,976	178,812	-0,183	-0,185
255,990	157,732	-0,177	-0,169
257,005	-168,159	-0,163	-0,004
258,020	502,527	-0,144	-0,230
259,034	85,647	-0,095	-0,072
260,049	360,170	-0,098	-0,136
261,063	800,000	-0,099	-0,226
262,078	-54,426	-0,211	-0,065
263,093	244,621	-0,198	-0,229
264,107	4,799	-0,246	-0,124
265,122	-8,392	-0,130	-0,060
266,136	108,316	-0,188	-0,155
267,151	485,512	-0,137	-0,216
268,166	-112,312	-0,170	-0,023
269,180	-85,575	-0,218	-0,046
270,195	58,100	-0,115	-0,077
271,209	1,516	-0,160	-0,079
272,224	430,428	-0,064	-0,095
273,239	-71,929	-0,179	0,045
274,253	14,182	-0,141	-0,076
275,268	250,362	-0,149	-0,174
276,282	120,554	-0,241	-0,206
277,297	212,904	-0,127	-0,138
278,312	56,618	-0,338	-0,226
279,326	-3,236	-0,135	-0,065
280,341	29,380	-0,268	-0,156
281,355	-25,811	-0,163	-0,066
282,370	-57,073	-0,088	-0,026
283,384	81,948	-0,188	-0,140
284,399	112,881	-0,139	-0,116
285,414	197,196	-0,102	-0,107
286,428	-141,203	-0,082	0,006
287,443	-146,568	-0,216	0,013
288,457	228,174	-0,111	-0,124
289,472	106,780	-0,049	-0,040
290,487	7,039	-0,185	-0,094
291,501	89,565	-0,251	-0,192
292,516	173,218	-0,191	-0,190
293,530	138,795	-0,206	-0,186
294,545	603,702	-0,083	-0,142
295,560	-2,578	-0,213	-0,102
296,574	-102,143	-0,266	-0,044
297,589	235,640	-0,191	-0,218
298,603	800,000	-0,104	-0,210
299,618	26,420	-0,181	-0,104
300,633	-48,830	-0,144	-0,047
301,647	-99,817	-0,188	-0,032
302,662	-49,239	-0,133	-0,043
303,676	-15,525	-0,086	-0,037
304,691	34,451	-0,183	-0,110
305,706	565,598	-0,059	-0,098
306,720	-78,329	-0,102	-0,024
307,735	-80,264	-0,239	-0,054
308,749	-82,246	-0,166	-0,037
309,764	184,692	-0,088	-0,090
310,779	2,221	-0,162	-0,080
311,793	29,387	-0,257	-0,149
312,808	-40,295	-0,195	-0,069
313,822	-56,329	-0,039	-0,012
314,837	-186,496	-0,198	-0,002
315,852	72,245	-0,128	-0,091
316,866	-200,000	-0,021	0,184
317,881	-73,265	-0,144	-0,036
318,895	174,109	-0,076	-0,075
319,910	-90,269	-0,207	-0,041
320,925	162,327	-0,241	-0,232
321,939	164,241	-0,119	-0,115
322,954	54,553	-0,169	-0,111
323,968	320,432	-0,075	-0,098
324,983	-89,523	-0,140	-0,028
325,997	271,592	-0,172	-0,208
327,012	760,747	-0,081	-0,150
328,027	800,000	-0,055	-0,142
329,041	144,842	-0,089	-0,081
330,056	-52,411	-0,090	0,028
331,070	100,429	-0,123	-0,098
332,085	172,374	-0,098	-0,096
333,100	48,395	-0,108	-0,069
334,114	-200,000	-0,039	-0,195
335,129	-200,000	-0,008	-0,130
336,143	14,617	-0,179	-0,095
337,158	5,938	-0,181	-0,092
338,173	21,261	-0,120	0,067
339,187	-200,000	0,013	-0,143
340,202	35,037	-0,086	-0,051
341,216	107,406	-0,152	-0,124
342,231	-95,399	-0,080	-0,015
343,246	800,000	0,059	-0,120
344,260	-200,000	-0,030	-0,270
345,275	-200,000	-0,010	-0,079
346,289	50,837	-0,040	0,026
347,304	395,230	-0,069	-0,099
348,319	86,662	-0,093	-0,070
349,333	-67,522	-0,214	-0,057
350,348	495,989	-0,097	-0,152
351,362	-98,610	-0,242	0,042
352,377	800,000	-0,051	-0,138
353,392	26,369	-0,093	-0,053
354,406	-95,782	-0,146	-0,026
355,421	208,928	1312,373	1405,588
356,435	160,782	1472,783	1406,059
