DTS Sentinel unit serial number:	SN410029Multiplexer serial number:	ORYXHardware model number:	OX2-SRSoftware version number:	ORYX F/W v4,00 Oryx Data Collector v3.7.2.0data status	okinstallation	B3 Nyhavnadifferential loss correction	single-endedforward channel	channel 1reverse channel	N/Adate	2023/12/05time	06:52:30forward acquisition time	300,00reverse acquisition time	0,00gamma	499,1914k internal	0,3200k external	0,3200temperature offset calibration	1,0000default loss term (dB/km)	0,3820temperature slope calibration	1,0000multiplexer offset coefficient	1,0000multiplexer slope coefficient	1,0000fibre end	0,00T internal ref (°C)	13,94T ext. ref 1 (°C)	-0,85T ext. ref 2 (°C)	-0,88length (m)	temperature (°C)	Stokes	anti-Stokes-744,400	243,771	-0,215	-0,263
-743,385	-200,000	0,009	0,190
-742,371	346,033	-0,184	-0,263
-741,356	-200,000	0,006	0,333
-740,342	120,418	-0,168	-0,152
-739,327	-200,000	0,049	0,408
-738,312	369,735	-0,184	-0,273
-737,298	800,000	0,082	0,235
-736,283	487,951	-0,169	-0,281
-735,269	-200,000	-0,038	0,193
-734,254	-200,000	-0,058	-0,186
-733,239	-50,925	-0,210	0,071
-732,225	-200,000	0,007	-0,162
-731,210	191,428	-0,028	0,031
-730,196	-200,000	-0,003	-0,031
-729,181	-122,419	-0,076	0,009
-728,167	-200,000	-0,002	-0,070
-727,152	-93,827	0,047	-0,009
-726,137	-180,397	-0,125	0,002
-725,123	800,000	-0,069	-0,166
-724,108	56,852	-0,142	-0,101
-723,094	-200,000	0,007	-0,060
-722,079	543,726	0,045	-0,078
-721,064	-115,036	-0,125	-0,017
-720,050	445,981	-0,041	0,065
-719,035	361,286	-0,039	0,057
-718,021	146,947	0,065	0,063
-717,006	766,479	-0,050	-0,098
-715,991	800,000	0,034	0,080
-714,977	92,608	-0,155	-0,127
-713,962	23,664	0,057	-0,034
-712,948	8,533	0,049	0,027
-711,933	800,000	0,026	-0,063
-710,918	452,392	-0,056	-0,091
-709,904	800,000	0,050	-0,139
-708,889	800,000	-0,025	-0,057
-707,875	48,356	0,091	-0,062
-706,860	800,000	0,031	-0,084
-705,845	-200,000	0,003	-0,030
-704,831	685,068	0,095	0,182
-703,816	-200,000	0,003	0,026
-702,802	-112,029	-0,136	0,020
-701,787	800,000	-0,095	-0,202
-700,772	-5,909	-0,047	0,023
-699,758	-200,000	0,011	-0,048
-698,743	-21,873	0,098	-0,043
-697,729	-180,649	0,067	0,001
-696,714	-58,231	-0,089	0,028
-695,699	80,832	-0,150	-0,118
-694,685	-200,000	-0,017	-0,113
-693,670	311,717	-0,035	-0,048
-692,656	76,995	0,086	-0,067
-691,641	367,120	-0,096	0,141
-690,627	36,411	-0,041	-0,026
-689,612	-103,726	-0,043	-0,007
-688,597	-200,000	0,001	0,068
-687,583	81,585	-0,060	-0,047
-686,568	690,673	-0,038	-0,072
-685,554	-150,766	-0,108	0,006
-684,539	-32,779	-0,033	-0,013
-683,524	2,209	-0,159	0,083
-682,510	356,603	-0,025	0,036
-681,495	-91,310	-0,015	-0,003
-680,481	244,639	-0,074	-0,090
-679,466	434,599	-0,101	-0,161
-678,451	233,730	-0,065	-0,078
-677,437	-124,343	-0,061	-0,007
-676,422	-200,000	-0,002	-0,066
-675,408	-200,000	0,028	-0,152
-674,393	-142,128	-0,117	0,008
-673,378	54,493	0,142	-0,099
-672,364	82,329	-0,144	-0,113
-671,349	14,310	-0,122	-0,069
-670,335	-200,000	0,035	0,139
-669,320	-200,000	-0,037	0,134
-668,305	800,000	-0,031	0,080
-667,291	800,000	0,006	-0,016
-666,276	-200,000	0,026	-0,100
-665,262	648,983	-0,037	0,070
-664,247	-37,290	0,044	0,017
-663,232	353,819	0,042	0,061
-662,218	-29,713	0,150	0,062
-661,203	-200,000	-0,034	-0,144
-660,189	209,771	-0,072	0,082
-659,174	-39,513	-0,119	-0,045
-658,159	192,030	-0,038	0,041
-657,145	-200,000	0,006	-0,054
-656,130	-200,000	0,012	-0,090
-655,116	-72,458	0,104	0,028
-654,101	-191,575	-0,032	-0,000
-653,086	-200,000	-0,015	-0,056
-652,072	216,275	0,024	0,027
-651,057	47,825	-0,062	-0,042
-650,043	377,778	0,068	0,101
-649,028	-200,000	0,000	-0,045
-648,014	-200,000	0,002	-0,052
-646,999	40,203	-0,076	0,049
-645,984	-200,000	-0,011	0,100
-644,970	800,000	-0,055	-0,117
-643,955	356,393	-0,103	-0,149
-642,941	52,230	0,020	-0,014
-641,926	341,780	0,048	0,068
-640,911	-200,000	-0,004	-0,049
-639,897	-29,169	0,105	-0,044
-638,882	-200,000	0,016	-0,069
-637,868	800,000	0,049	0,124
-636,853	99,266	0,023	-0,019
-635,838	38,492	-0,084	-0,054
-634,824	466,158	0,021	0,034
-633,809	-200,000	0,019	0,143
-632,795	-200,000	-0,016	0,195
-631,780	-122,949	-0,012	0,001
-630,765	-200,000	-0,022	-0,155
-629,751	-93,024	-0,124	0,025
-628,736	127,491	-0,068	-0,063
-627,722	800,000	-0,055	-0,138
-626,707	-25,716	0,044	0,019
-625,692	-49,000	0,078	0,027
-624,678	800,000	-0,028	0,083
-623,663	12,631	0,060	-0,034
-622,649	129,318	-0,028	-0,026
-621,634	-200,000	-0,019	-0,158
-620,619	14,329	-0,044	-0,025
-619,605	-113,576	0,012	-0,002
-618,590	-165,712	0,042	-0,001
-617,576	-200,000	-0,008	-0,055
-616,561	-200,000	0,005	-0,021
-615,546	-97,355	-0,145	-0,027
-614,532	800,000	-0,030	-0,062
-613,517	-91,839	-0,039	-0,008
-612,503	-70,198	0,089	-0,024
-611,488	-54,998	0,065	-0,021
-610,474	-12,268	0,078	0,037
-609,459	-79,417	0,071	-0,017
-608,444	-156,319	-0,078	0,003
-607,430	-169,547	-0,109	-0,003
-606,415	-200,000	0,029	-0,103
-605,401	800,000	-0,063	-0,182
-604,386	-49,901	0,044	0,015
-603,371	437,168	-0,059	0,093
-602,357	-200,000	0,008	0,067
-601,342	-200,000	-0,018	-0,171
-600,328	-200,000	0,010	-0,059
-599,313	-200,000	0,013	-0,054
-598,298	-200,000	0,015	0,130
-597,284	-66,263	0,126	0,036
-596,269	800,000	0,079	0,164
-595,255	104,969	-0,067	0,057
-594,240	-37,308	0,084	-0,032
-593,225	800,000	-0,008	0,020
-592,211	-38,401	-0,138	-0,052
-591,196	425,495	0,107	-0,167
-590,182	182,261	-0,035	0,037
-589,167	800,000	-0,064	0,162
-588,152	620,663	-0,029	0,054
-587,138	-68,895	0,105	-0,029
-586,123	-200,000	-0,014	-0,068
-585,109	-41,510	-0,135	0,050
-584,094	-200,000	-0,026	0,205
-583,079	-36,363	0,150	0,058
-582,065	41,190	-0,107	-0,070
-581,050	-200,000	0,005	0,047
-580,036	-108,054	-0,044	-0,007
-579,021	207,016	-0,029	0,033
-578,006	800,000	0,003	-0,008
-576,992	335,363	-0,055	-0,078
-575,977	-86,761	-0,097	-0,021
-574,963	52,269	0,069	-0,048
-573,948	91,810	0,111	-0,090
-572,934	800,000	0,011	0,022
-571,919	-200,000	0,003	-0,113
-570,904	17,172	-0,082	-0,047
-569,890	766,386	0,023	0,046
-568,875	447,447	-0,041	0,066
-567,861	-200,000	0,038	0,209
-566,846	266,897	-0,070	0,089
-565,831	-200,000	-0,006	-0,120
-564,817	-131,367	-0,112	-0,011
-563,802	-200,000	0,012	-0,135
-562,788	-116,639	0,031	-0,004
-561,773	-65,301	-0,081	-0,024
-560,758	-87,266	0,168	0,036
-559,744	372,726	-0,025	0,037
-558,729	277,515	0,057	0,073
-557,715	582,533	-0,062	-0,111
-556,700	-84,947	-0,124	-0,028
-555,685	93,839	-0,008	0,007
-554,671	-26,005	-0,017	-0,007
-553,656	800,000	0,035	0,096
-552,642	800,000	-0,050	0,127
-551,627	-34,397	0,027	0,010
-550,612	231,148	-0,114	-0,135
-549,598	210,867	0,056	-0,063
-548,583	-68,920	0,169	-0,047
-547,569	-200,000	0,004	-0,084
-546,554	-200,000	0,029	-0,134
-545,539	-116,809	0,079	-0,010
-544,525	-143,030	0,054	-0,004
-543,510	381,826	0,046	0,068
-542,496	800,000	-0,049	-0,101
-541,481	250,126	0,079	-0,097
-540,466	-200,000	0,004	-0,119
-539,452	-200,000	0,008	-0,063
-538,437	12,464	-0,055	-0,031
-537,423	-200,000	-0,005	0,062
-536,408	165,206	0,108	-0,110
-535,393	166,005	-0,099	-0,101
-534,379	-67,709	-0,137	-0,038
-533,364	-47,554	0,240	0,083
-532,350	39,839	0,176	0,114
-531,335	589,862	0,017	-0,030
-530,321	365,556	-0,059	-0,085
-529,306	88,623	-0,121	0,097
-528,291	-200,000	0,001	-0,098
-527,277	-9,985	-0,077	-0,037
-526,262	-200,000	-0,012	-0,075
-525,248	-48,660	0,101	-0,035
-524,233	-31,276	-0,033	0,013
-523,218	-200,000	0,014	-0,105
-522,204	-78,247	-0,056	-0,014
-521,189	129,319	-0,068	-0,063
-520,175	303,764	-0,107	-0,143
-519,160	187,514	-0,050	0,053
-518,145	45,084	-0,066	0,044
-517,131	-200,000	-0,011	-0,046
-516,116	12,398	-0,025	0,014
-515,102	37,861	0,025	-0,016
-514,087	65,563	0,096	0,070
-513,072	-87,394	-0,210	0,045
-512,058	-75,985	0,065	-0,016
-511,043	41,838	-0,082	-0,053
-510,029	96,038	0,012	-0,010
-509,014	-200,000	-0,009	-0,032
-507,999	-74,593	-0,041	0,011
-506,985	-12,707	0,053	0,025
-505,970	421,910	-0,095	-0,148
-504,956	279,506	-0,028	-0,037
-503,941	135,303	-0,060	0,057
-502,926	384,041	-0,075	0,111
-501,912	-200,000	0,025	0,082
-500,897	148,583	0,105	0,102
-499,883	800,000	-0,076	0,188
-498,868	-72,042	-0,107	0,028
-497,853	-200,000	0,028	0,120
-496,839	127,215	-0,163	0,149
-495,824	39,063	0,090	0,058
-494,810	342,601	0,117	0,166
-493,795	-200,000	0,008	0,054
-492,781	-85,256	-0,128	-0,028
-491,766	662,337	-0,059	0,109
-490,751	227,484	-0,085	-0,100
-489,737	-200,000	0,000	-0,068
-488,722	-32,924	0,049	0,020
-487,708	-65,761	-0,113	0,032
-486,693	716,810	-0,049	0,094
-485,678	800,000	-0,087	0,216
-484,664	-25,441	0,044	0,019
-483,649	-170,923	0,076	0,002
-482,635	75,501	0,065	-0,049
-481,620	203,708	0,128	-0,142
-480,605	800,000	-0,054	0,112
-479,591	287,909	0,021	-0,027
-478,576	-200,000	-0,012	-0,054
-477,562	49,669	-0,084	-0,057
-476,547	159,673	-0,118	-0,118
-475,532	-15,473	0,043	0,020
-474,518	-34,101	0,148	0,058
-473,503	-5,396	0,064	-0,032
-472,489	148,126	0,096	0,094
-471,474	167,607	-0,019	-0,019
-470,459	800,000	0,013	0,036
-469,445	266,545	-0,039	0,050
-468,430	172,640	-0,045	-0,046
-467,416	-136,735	0,101	0,008
-466,401	290,815	0,004	0,005
-465,386	-42,517	-0,087	0,032
-464,372	48,849	0,122	-0,082
-463,357	118,557	0,092	-0,081
-462,343	-200,000	-0,022	0,115
-461,328	742,843	-0,017	-0,033
-460,313	41,097	0,093	0,060
-459,299	-200,000	0,032	-0,116
-458,284	-45,398	-0,096	-0,034
-457,270	456,659	-0,055	0,088
-456,255	-200,000	-0,002	-0,043
-455,241	-7,163	0,023	-0,011
-454,226	-200,000	-0,013	-0,136
-453,211	-53,333	0,127	-0,042
-452,197	-200,000	-0,011	0,079
-451,182	-59,886	0,052	-0,016
-450,168	800,000	-0,030	0,089
-449,153	204,558	0,093	0,104
-448,138	6,966	0,062	-0,033
-447,124	70,453	-0,111	0,082
-446,109	209,160	0,116	-0,131
-445,095	800,000	-0,021	0,062
-444,080	-200,000	-0,001	0,025
-443,065	644,334	-0,021	0,039
-442,051	64,077	0,114	-0,083
-441,036	-82,166	-0,123	0,028
-440,022	134,219	0,094	-0,088
-439,007	-200,000	-0,022	-0,093
-437,992	92,806	0,036	0,029
-436,978	130,299	0,086	0,079
-435,963	99,590	0,055	0,046
-434,949	270,750	-0,059	0,074
-433,934	-33,335	-0,095	-0,038
-432,919	59,467	0,102	-0,072
-431,905	-200,000	0,003	-0,116
-430,890	-200,000	0,020	-0,096
-429,876	-32,696	0,094	-0,037
-428,861	180,187	0,039	0,041
-427,846	-38,370	-0,018	0,007
-426,832	-200,000	-0,016	-0,071
-425,817	800,000	-0,034	-0,082
-424,803	-200,000	0,006	-0,082
-423,788	800,000	-0,029	-0,057
-422,773	-200,000	0,006	-0,044
-421,759	-200,000	0,007	-0,025
-420,744	671,551	0,053	0,099
-419,730	-200,000	-0,027	-0,143
-418,715	-200,000	0,015	-0,071
-417,701	-53,650	-0,080	-0,026
-416,686	800,000	-0,035	0,073
-415,671	800,000	0,024	0,060
-414,657	129,995	-0,094	0,086
-413,642	-47,471	0,022	-0,008
-412,628	139,792	0,135	0,128
-411,613	-200,000	0,011	0,114
-410,598	119,050	-0,034	-0,030
-409,584	-113,750	0,116	0,016
-408,569	-58,633	-0,037	-0,011
-407,555	-126,473	-0,127	0,013
-406,540	-200,000	0,010	0,120
-405,525	48,041	-0,143	0,096
-404,511	178,392	-0,066	0,069
-403,496	-200,000	0,010	0,102
-402,482	706,071	0,021	-0,040
-401,467	-121,292	-0,084	-0,010
-400,452	101,529	0,098	0,082
-399,438	-52,112	-0,041	0,014
-398,423	-124,541	0,113	0,012
-397,409	-20,197	0,056	-0,025
-396,394	147,942	-0,054	-0,052
-395,379	-200,000	0,027	0,107
-394,365	448,319	-0,033	0,053
-393,350	644,391	0,055	0,101
-392,336	800,000	-0,044	0,109
-391,321	309,308	-0,060	0,081
-390,306	-19,287	-0,144	-0,064
-389,292	-53,742	0,063	-0,020
-388,277	-200,000	0,007	0,058
-387,263	-200,000	0,014	-0,072
-386,248	-200,000	0,055	-0,175
-385,233	161,372	0,070	-0,070
-384,219	448,265	-0,036	0,057
-383,204	-200,000	-0,002	-0,045
-382,190	76,178	-0,106	0,080
-381,175	-11,004	-0,062	-0,029
-380,160	-97,428	0,223	0,041
-379,146	-44,539	0,139	0,049
-378,131	58,848	0,058	0,041
-377,117	-200,000	-0,007	0,093
-376,102	-58,764	-0,055	-0,017
-375,088	-25,706	-0,061	0,025
-374,073	800,000	-0,037	-0,112
-373,058	-124,753	-0,054	-0,006
-372,044	-200,000	0,016	0,069
-371,029	38,517	0,206	0,132
-370,015	-103,498	0,041	-0,007
-369,000	172,475	-0,091	0,094
-367,985	-200,000	-0,022	-0,102
-366,971	121,401	0,094	-0,084
-365,956	-5,233	-0,047	-0,023
-364,942	-200,000	-0,034	0,131
-363,927	-29,881	0,134	0,054
-362,912	-76,275	-0,147	0,037
-361,898	173,104	0,006	0,006
-360,883	-200,000	-0,041	-0,153
-359,869	-15,902	0,096	0,044
-358,854	-20,592	-0,086	-0,038
-357,839	-109,353	-0,058	-0,009
-356,825	336,853	-0,033	-0,046
-355,810	-134,819	0,073	-0,006
-354,796	800,000	0,017	-0,046
-353,781	207,672	0,028	-0,031
-352,766	-200,000	0,015	-0,111
-351,752	266,948	0,097	-0,122
-350,737	-200,000	-0,040	0,167
-349,723	-200,000	0,020	0,110
-348,708	187,100	-0,040	-0,042
-347,693	-141,946	0,162	0,011
-346,679	26,559	-0,116	-0,069
-345,664	136,874	-0,130	-0,121
-344,650	-81,683	0,028	-0,007
-343,635	611,325	0,066	0,118
-342,620	-200,000	-0,001	-0,057
-341,606	154,549	-0,041	0,041
-340,591	800,000	-0,079	0,204
-339,577	202,446	-0,063	-0,070
-338,562	-86,593	-0,062	-0,014
-337,548	537,532	0,042	0,071
-336,533	-200,000	0,015	0,081
-335,518	95,877	0,111	0,091
-334,504	34,346	-0,014	0,009
-333,489	123,169	-0,115	-0,103
-332,475	-200,000	-0,004	0,087
-331,460	-194,662	-0,097	0,001
-330,445	-146,326	-0,074	0,005
-329,431	82,223	-0,088	0,068
-328,416	-200,000	-0,001	0,056
-327,402	-200,000	0,005	0,039
-326,387	4,403	0,153	-0,080
-325,372	87,560	-0,141	0,111
-324,358	-200,000	-0,045	-0,162
-323,343	800,000	-0,043	-0,104
-322,329	-99,519	-0,076	-0,014
-321,314	429,001	-0,170	0,264
-320,299	20,440	-0,106	0,061
-319,285	800,000	-0,038	0,090
-318,270	-200,000	-0,011	0,147
-317,256	189,630	-0,069	-0,074
-316,241	490,704	-0,055	-0,091
-315,226	174,764	0,066	-0,068
-314,212	-144,256	0,016	-0,001
-313,197	800,000	-0,014	-0,044
-312,183	800,000	0,053	-0,117
-311,168	-132,744	0,056	-0,005
-310,153	376,854	-0,148	-0,217
-309,139	84,917	-0,055	-0,043
-308,124	800,000	0,073	0,195
-307,110	-200,000	0,010	0,086
-306,095	-200,000	-0,037	0,153
-305,080	507,644	-0,053	0,089
-304,066	-200,000	0,001	0,039
-303,051	-58,282	-0,053	0,016
-302,037	-24,808	0,070	0,030
-301,022	223,183	0,047	-0,054
-300,008	162,834	0,062	-0,062
-298,993	-200,000	-0,010	0,096
-297,978	-200,000	-0,016	0,169
-296,964	-138,992	0,136	0,010
-295,949	315,732	0,024	-0,032
-294,935	-200,000	0,012	-0,104
-293,920	-149,090	-0,111	0,006
-292,905	-52,713	0,050	-0,016
-291,891	115,878	0,065	0,057
-290,876	-200,000	-0,009	0,148
-289,862	82,893	-0,064	0,049
-288,847	98,233	-0,060	0,050
-287,832	-200,000	-0,060	-0,205
-286,818	-200,000	0,028	-0,148
-285,803	-99,452	0,033	-0,006
-284,789	-22,051	0,111	0,048
-283,774	800,000	-0,056	0,143
-282,759	800,000	-0,008	0,017
-281,745	-4,081	-0,063	-0,031
-280,730	84,444	0,046	0,036
-279,716	74,149	-0,024	0,018
-278,701	681,470	0,068	-0,127
-277,686	-140,862	-0,171	-0,012
-276,672	-110,715	-0,064	-0,009
-275,657	348,510	-0,059	0,084
-274,643	454,417	0,058	0,092
-273,628	555,836	-0,072	-0,124
-272,613	-124,502	0,077	0,008
-271,599	-33,217	0,099	-0,039
-270,584	-29,565	0,128	-0,052
-269,570	384,568	0,052	-0,077
-268,555	-159,272	0,129	0,005
-267,540	800,000	0,021	-0,043
-266,526	152,296	-0,091	-0,088
-265,511	-130,153	0,082	-0,008
-264,497	3,289	0,036	-0,019
-263,482	168,943	-0,065	0,066
-262,467	70,457	0,081	0,060
-261,453	143,175	0,033	0,032
-260,438	623,073	0,036	-0,065
-259,424	344,350	-0,053	-0,074
-258,409	-43,586	-0,123	0,044
-257,395	-86,119	0,102	-0,022
-256,380	501,613	0,070	-0,115
-255,365	90,678	0,175	-0,140
-254,351	-58,030	-0,064	0,020
-253,336	27,384	0,076	-0,045
-252,322	-19,703	0,101	-0,044
-251,307	-58,467	0,036	0,011
-250,292	-161,790	-0,136	0,005
-249,278	-7,838	0,106	0,051
-248,263	800,000	-0,066	0,186
-247,249	-200,000	0,013	0,044
-246,234	73,872	-0,152	-0,113
-245,219	779,040	0,056	0,109
-244,205	-200,000	-0,008	0,044
-243,190	361,977	0,047	-0,067
-242,176	-58,618	0,086	0,027
-241,161	-200,000	0,019	0,081
-240,146	-200,000	0,022	-0,073
-239,132	305,402	0,105	0,139
-238,117	-200,000	0,018	0,061
-237,103	52,175	0,064	0,043
-236,088	184,360	-0,113	0,119
-235,073	800,000	0,007	0,017
-234,059	500,461	-0,017	0,028
-233,044	-200,000	-0,015	-0,185
-232,030	498,266	-0,071	-0,118
-231,015	-85,114	0,113	0,025
-230,000	800,000	-0,016	-0,035
-228,986	800,000	-0,005	-0,014
-227,971	439,401	0,052	-0,082
-226,957	478,363	-0,042	0,067
-225,942	800,000	0,028	0,081
-224,927	94,403	-0,051	0,041
-223,913	470,658	-0,057	-0,091
-222,898	737,462	0,081	-0,156
-221,884	800,000	-0,057	-0,125
-220,869	-200,000	0,002	-0,035
-219,855	10,540	0,018	0,010
-218,840	371,503	0,057	0,082
-217,825	-200,000	-0,007	0,075
-216,811	-200,000	0,013	-0,076
-215,796	666,455	-0,026	-0,049
-214,782	-22,549	-0,043	-0,018
-213,767	281,473	0,096	-0,123
-212,752	91,288	-0,012	0,009
-211,738	-83,894	-0,090	-0,020
-210,723	-145,342	-0,037	-0,002
-209,709	-200,000	0,008	-0,120
-208,694	-126,920	-0,152	-0,016
-207,679	79,920	0,019	-0,014
-206,665	-200,000	-0,028	-0,107
-205,650	800,000	0,030	-0,063
-204,636	-64,156	0,009	0,003
-203,621	100,817	0,059	0,049
-202,606	-200,000	-0,008	0,096
-201,592	800,000	-0,065	-0,174
-200,577	800,000	0,054	-0,111
-199,563	121,175	0,108	0,095
-198,548	-54,049	0,138	0,045
-197,533	98,002	-0,084	0,069
-196,519	-155,238	0,109	0,005
-195,504	292,807	-0,104	0,135
-194,490	-48,360	0,085	-0,029
-193,475	-43,473	0,123	-0,044
-192,460	800,000	0,055	-0,127
-191,446	30,712	0,166	0,101
-190,431	-47,671	0,067	0,023
-189,417	102,945	0,054	0,045
-188,402	-200,000	-0,002	-0,087
-187,387	204,915	0,026	0,029
-186,373	-71,965	0,065	0,017
-185,358	306,097	0,052	-0,070
-184,344	276,217	-0,098	0,124
-183,329	104,408	0,040	0,033
-182,315	-200,000	-0,004	0,072
-181,300	-74,803	0,132	0,033
-180,285	-120,204	-0,081	-0,010
-179,271	208,808	-0,054	-0,060
-178,256	-200,000	0,002	0,079
-177,242	-200,000	0,000	-0,066
-176,227	-200,000	0,010	-0,062
-175,212	4,645	-0,112	-0,058
-174,198	-200,000	0,010	0,101
-173,183	455,119	-0,093	0,148
-172,169	800,000	0,019	-0,040
-171,154	776,769	-0,021	0,040
-170,139	-16,959	0,016	-0,007
-169,125	-200,000	-0,030	0,129
-168,110	713,070	-0,053	0,100
-167,096	745,719	0,029	0,055
-166,081	536,527	-0,029	-0,049
-165,066	-200,000	-0,016	-0,076
-164,052	78,245	-0,060	-0,046
-163,037	-114,557	-0,017	0,002
-162,023	-147,762	0,149	0,009
-161,008	-200,000	-0,019	0,067
-159,993	193,848	-0,020	-0,021
-158,979	75,130	-0,098	-0,073
-157,964	-124,218	-0,113	0,012
-156,950	-200,000	-0,013	-0,117
-155,935	-56,657	0,076	0,024
-154,920	-80,875	0,125	0,029
-153,906	-36,185	0,050	0,019
-152,891	-200,000	0,018	-0,060
-151,877	238,456	-0,068	-0,081
-150,862	-200,000	0,000	0,092
-149,847	236,614	0,056	-0,066
-148,833	-68,533	0,012	-0,003
-147,818	-49,320	-0,020	-0,007
-146,804	-57,223	0,056	-0,017
-145,789	96,796	-0,057	0,047
-144,775	-200,000	-0,003	-0,087
-143,760	169,175	-0,039	-0,039
-142,745	-200,000	0,013	-0,093
-141,731	-76,667	-0,161	0,040
-140,716	-97,963	0,070	-0,013
-139,702	-200,000	0,012	-0,047
-138,687	-200,000	0,006	-0,035
-137,672	148,340	0,068	0,065
-136,658	169,554	-0,034	0,035
-135,643	287,074	0,079	-0,102
-134,629	9,035	-0,071	0,038
-133,614	-6,122	-0,087	0,042
-132,599	-30,167	0,152	-0,061
-131,585	-200,000	-0,007	-0,116
-130,570	-200,000	-0,022	0,083
-129,556	800,000	-0,009	0,019
-128,541	800,000	0,042	-0,105
-127,526	-57,105	-0,148	0,046
-126,512	800,000	0,030	0,093
-125,497	-165,971	-0,087	0,003
-124,483	101,359	-0,110	0,091
-123,468	800,000	-0,081	-0,229
-122,453	306,856	0,054	-0,072
-121,439	800,000	-0,044	-0,088
-120,424	240,435	-0,010	0,012
-119,410	800,000	0,040	-0,084
-118,395	314,507	-0,033	-0,044
-117,380	-118,925	0,093	-0,011
-116,366	-36,781	0,119	0,045
-115,351	-200,000	-0,014	-0,071
-114,337	800,000	-0,012	-0,033
-113,322	-200,000	-0,023	-0,126
-112,307	800,000	-0,023	-0,059
-111,293	-200,000	0,012	0,047
-110,278	-122,441	0,126	-0,014
-109,264	800,000	-0,041	0,129
-108,249	37,050	0,017	0,011
-107,234	32,392	-0,067	0,041
-106,220	562,672	0,012	-0,021
-105,205	314,434	-0,037	-0,050
-104,191	450,920	0,031	0,049
-103,176	18,061	0,068	0,038
-102,162	-121,513	-0,189	0,022
-101,147	-72,631	0,044	0,011
-100,132	-200,000	-0,014	-0,070
-99,118	363,726	-0,090	-0,129
-98,103	263,740	0,035	0,044
-97,089	-200,000	0,005	0,047
-96,074	-152,084	-0,077	-0,004
-95,059	788,316	0,029	0,057
-94,045	0,382	-0,077	0,039
-93,030	-200,000	-0,008	0,054
-92,016	-200,000	-0,024	-0,111
-91,001	-69,045	-0,120	0,033
-89,986	-200,000	0,001	0,085
-88,972	-0,317	0,063	0,032
-87,957	-52,214	-0,148	-0,048
-86,943	80,602	-0,025	0,019
-85,928	68,936	-0,048	0,035
-84,913	-140,419	-0,085	0,006
-83,899	468,750	-0,047	0,074
-82,884	-111,177	0,066	0,010
-81,870	-118,114	0,159	-0,020
-80,855	-200,000	-0,043	-0,138
-79,840	800,000	0,012	-0,030
-78,826	604,690	-0,102	-0,181
-77,811	800,000	-0,023	-0,066
-76,797	672,608	0,034	-0,063
-75,782	-59,445	0,041	-0,012
-74,767	-200,000	0,005	0,117
-73,753	-200,000	-0,009	0,085
-72,738	429,174	0,011	-0,017
-71,724	-200,000	0,001	-0,018
-70,709	-200,000	-0,012	-0,190
-69,694	800,000	0,043	-0,116
-68,680	-65,605	-0,166	0,047
-67,665	740,600	-0,055	0,105
-66,651	147,802	-0,021	0,020
-65,636	141,694	-0,027	0,025
-64,622	50,493	-0,129	0,086
-63,607	-93,110	-0,097	0,019
-62,592	800,000	-0,040	0,096
-61,578	231,184	0,083	-0,096
-60,563	-200,000	-0,002	-0,023
-59,549	212,510	-0,068	0,076
-58,534	-12,232	-1,438	-0,664
-57,519	407,707	-1,342	-2,015
-56,505	-200,000	-0,740	-4,671
-55,490	98,792	1,138	0,929
-54,476	800,000	4,939	11,489
-53,461	-200,000	18,858	309,174
-52,446	-200,000	737,633	2311,260
-51,432	573,030	1654,083	2866,350
-50,417	79,204	1670,929	1266,599
-49,403	21,974	1543,547	888,935
-48,388	15,813	1466,330	814,521
-47,373	17,762	1456,420	818,399
-46,359	16,810	1446,535	808,247
-45,344	14,038	1442,060	792,435
-44,330	13,978	1440,104	791,042
-43,315	13,991	1438,465	790,172
-42,300	13,964	1436,780	789,089
-41,286	14,090	1435,258	788,823
-40,271	13,964	1434,287	787,658
-39,257	13,964	1432,972	786,902
-38,242	14,005	1431,750	786,396
-37,227	14,068	1430,361	785,899
-36,213	14,092	1429,004	785,237
-35,198	14,042	1428,018	784,427
-34,184	14,046	1427,154	783,942
-33,169	14,027	1425,607	782,971
-32,154	14,039	1424,791	782,546
-31,140	14,061	1423,300	781,803
-30,125	14,089	1422,183	781,291
-29,111	14,065	1421,135	780,569
-28,096	14,041	1420,008	779,806
-27,082	13,972	1418,875	778,826
-26,067	13,942	1417,956	778,151
-25,052	13,989	1416,686	777,645
-24,038	13,950	1415,633	776,855
-23,023	13,924	1414,970	776,334
-22,009	13,957	1413,787	775,810
-20,994	13,916	1413,092	775,207
-19,979	13,899	1412,310	774,667
-18,965	13,901	1411,156	774,010
-17,950	13,862	1410,188	773,268
-16,936	13,935	1409,034	772,944
-15,921	13,883	1408,072	772,146
-14,906	13,883	1407,106	771,585
-13,892	13,908	1406,330	771,242
-12,877	13,887	1405,474	770,646
-11,863	13,859	1404,528	769,966
-10,848	13,864	1403,681	769,497
-9,833	13,853	1402,703	768,875
-8,819	13,840	1401,717	768,245
-7,804	13,783	1401,039	767,578
-6,790	13,770	1399,825	766,822
-5,775	13,803	1398,733	766,345
-4,760	13,797	1397,864	765,814
-3,746	13,790	1397,064	765,309
-2,731	13,746	1396,403	764,713
-1,717	13,741	1395,394	764,107
-0,702	13,776	1393,619	763,266
0,313	17,590	1311,315	735,883
1,327	33,865	705,819	433,796
2,342	52,002	124,007	83,443
3,356	3,125	16,656	8,541
4,371	8,566	3,299	1,752
5,386	85,366	0,489	0,380
6,400	-200,000	0,024	0,126
7,415	1,139	-0,181	-0,092
8,429	8,685	-0,273	-0,145
9,444	20,334	-0,369	-0,210
10,459	35,215	-0,385	-0,238
11,473	58,399	-0,270	-0,187
12,488	28,572	-0,361	-0,215
13,502	32,194	-0,248	-0,151
14,517	95,335	-0,290	-0,233
15,531	110,218	-0,301	-0,255
16,546	-10,177	-0,408	-0,191
17,561	31,392	-0,299	-0,181
18,575	-109,704	-0,110	0,016
19,590	30,795	-0,357	-0,215
20,604	-135,975	-0,274	0,022
21,619	28,712	-0,420	-0,250
22,634	81,682	-0,507	-0,387
23,648	40,746	-0,440	-0,280
24,663	92,044	-0,402	-0,320
25,677	141,995	-0,328	-0,307
26,692	112,617	-0,285	-0,243
27,707	60,036	-0,285	-0,199
28,721	22,473	-0,504	-0,290
29,736	216,033	-0,298	-0,335
30,750	96,040	-0,470	-0,379
31,765	34,841	-0,395	-0,243
32,780	62,894	-0,319	-0,225
33,794	143,660	-0,264	-0,248
34,809	100,913	-0,451	-0,370
35,823	113,112	-0,430	-0,368
36,838	142,831	-0,293	-0,275
37,853	63,603	-0,394	-0,279
38,867	60,127	-0,416	-0,290
39,882	104,984	-0,397	-0,330
40,896	79,212	-0,457	-0,345
41,911	256,402	-0,261	-0,317
42,926	145,992	-0,346	-0,327
43,940	32,589	-0,306	-0,186
44,955	32,848	-0,475	-0,289
45,969	120,080	-0,332	-0,291
46,984	186,556	-0,234	-0,246
47,999	-39,886	-0,343	-0,125
49,013	12,387	-0,313	-0,169
50,028	-15,324	-0,359	-0,161
51,042	92,625	-0,280	-0,223
52,057	63,596	-0,487	-0,344
53,071	-2,801	-0,316	-0,155
54,086	27,397	-0,523	-0,309
55,101	81,218	-0,289	-0,220
56,115	-60,821	-0,337	-0,100
57,130	-74,660	-0,601	-0,151
58,144	265,125	-0,258	-0,317
59,159	24,807	-0,402	-0,234
60,174	-39,299	-0,510	-0,187
61,188	139,317	-0,329	-0,305
62,203	88,046	-0,183	-0,143
63,217	-105,589	-0,411	-0,065
64,232	112,666	-0,248	-0,212
65,247	65,061	-0,342	-0,243
66,261	21,313	-0,428	-0,244
67,276	80,780	-0,382	-0,290
68,290	101,804	-0,324	-0,266
69,305	31,924	-0,326	-0,197
70,320	3,978	-0,288	-0,148
71,334	97,463	-0,246	-0,199
72,349	-9,004	-0,314	-0,147
73,363	22,794	-0,373	-0,214
74,378	21,851	-0,323	-0,184
75,393	-78,186	-0,277	-0,066
76,407	33,355	-0,253	-0,154
77,422	114,075	-0,218	-0,186
78,436	51,850	-0,280	-0,187
79,451	-27,923	-0,399	-0,162
80,466	112,072	-0,254	-0,216
81,480	51,211	-0,286	-0,190
82,495	95,247	-0,193	-0,155
83,509	-68,092	-0,373	-0,101
84,524	54,878	-0,260	-0,176
85,539	18,318	-0,189	-0,105
86,553	-200,000	-0,235	-0,001
87,568	-30,466	-0,390	-0,155
88,582	-2,125	-0,302	-0,148
89,597	-59,916	-0,238	-0,071
90,611	64,980	-0,239	-0,169
91,626	147,756	-0,203	-0,192
92,641	23,581	-0,249	-0,144
93,655	-31,318	-0,417	-0,164
94,670	85,685	-0,300	-0,231
95,684	191,942	-0,214	-0,227
96,699	153,481	-0,313	-0,301
97,714	-33,714	-0,321	-0,124
98,728	-71,606	-0,325	-0,084
99,743	135,835	-0,235	-0,215
100,757	-2,355	-0,219	-0,107
101,772	95,392	-0,405	-0,323
102,787	246,103	-0,213	-0,252
103,801	-55,159	-0,245	-0,077
104,816	21,187	-0,403	-0,229
105,830	755,035	-0,121	-0,231
106,845	-80,358	-0,243	-0,056
107,860	247,321	-0,245	-0,291
108,874	74,711	-0,334	-0,246
109,889	66,808	-0,249	-0,178
110,903	242,573	-0,228	-0,268
111,918	85,265	-0,317	-0,244
112,933	403,607	-0,193	-0,286
113,947	172,729	-0,189	-0,191
114,962	-50,008	-0,281	-0,093
115,976	111,225	-0,255	-0,215
116,991	43,501	-0,298	-0,191
118,006	-76,510	-0,210	-0,051
119,020	36,854	-0,196	-0,121
120,035	242,475	-0,226	-0,266
121,049	-67,687	-0,282	-0,077
122,064	442,601	-0,160	-0,247
123,079	31,671	-0,264	-0,158
124,093	-51,638	-0,267	-0,087
125,108	40,533	-0,331	-0,208
126,122	-49,929	-0,306	-0,101
127,137	49,059	-0,312	-0,205
128,151	172,699	-0,200	-0,201
129,166	-140,039	-0,467	-0,034
130,181	-138,657	-0,262	-0,020
131,195	101,879	-0,310	-0,253
132,210	238,722	-0,296	-0,345
133,224	28,544	-0,319	-0,188
134,239	346,024	-0,122	-0,168
135,254	-6,760	-0,219	-0,104
136,268	-46,555	-0,250	-0,085
137,283	-81,669	-0,256	-0,058
138,297	-43,862	-0,279	-0,097
139,312	-200,000	-0,290	-0,000
140,327	-17,333	-0,212	-0,093
141,341	51,880	-0,198	-0,132
142,356	-48,889	-0,308	-0,103
143,370	50,999	-0,167	-0,110
144,385	148,294	-0,194	-0,184
145,400	800,000	-0,091	-0,200
146,414	31,803	-0,258	-0,155
147,429	135,770	-0,234	-0,213
148,443	114,395	-0,303	-0,258
149,458	41,016	-0,248	-0,156
150,473	-32,519	-0,174	-0,067
151,487	58,726	-0,218	-0,149
152,502	84,470	-0,205	-0,157
153,516	-47,720	-0,251	-0,084
154,531	44,530	-0,321	-0,206
155,546	-50,128	-0,272	-0,090
156,560	-122,181	-0,304	-0,034
157,575	140,404	-0,081	-0,075
158,589	216,783	-0,242	-0,269
159,604	-164,472	-0,160	-0,005
160,619	68,880	-0,183	-0,131
161,633	47,337	-0,263	-0,171
162,648	59,636	-0,325	-0,224
163,662	-25,530	-0,179	-0,073
164,677	70,668	-0,195	-0,140
165,692	302,443	-0,146	-0,189
166,706	164,164	-0,224	-0,220
167,721	117,106	-0,334	-0,286
168,735	287,467	-0,207	-0,262
169,750	384,935	-0,167	-0,241
170,764	302,974	-0,196	-0,253
171,779	-40,655	-0,193	-0,069
172,794	94,313	-0,270	-0,214
173,808	-131,413	-0,181	-0,016
174,823	-199,152	-0,211	0,001
175,837	-0,576	-0,334	-0,164
176,852	303,756	-0,210	-0,272
177,867	33,463	-0,195	-0,117
178,881	399,609	-0,095	-0,140
179,896	48,822	-0,181	-0,118
180,910	229,067	-0,225	-0,256
181,925	213,419	-0,117	-0,129
182,940	219,382	-0,263	-0,293
183,954	72,702	-0,276	-0,201
184,969	-4,941	-0,209	-0,100
185,983	202,111	-0,201	-0,216
186,998	110,348	-0,173	-0,145
188,013	51,691	-0,293	-0,194
189,027	30,670	-0,272	-0,161
190,042	18,839	-0,259	-0,144
191,056	150,195	-0,266	-0,251
192,071	47,634	-0,174	-0,113
193,086	-10,720	-0,280	-0,128
194,100	54,752	-0,252	-0,169
195,115	45,314	-0,322	-0,206
196,129	194,384	-0,187	-0,197
197,144	267,860	-0,215	-0,263
198,159	113,299	-0,216	-0,182
199,173	-153,922	-0,250	-0,012
200,188	-165,824	-0,125	0,004
201,202	2,342	-0,362	-0,182
202,217	-200,000	-0,045	-0,314
203,232	254,972	-0,169	-0,202
204,246	-135,455	-0,177	-0,014
205,261	-122,511	-0,239	-0,027
206,275	182,547	-0,180	-0,184
207,290	129,170	-0,120	-0,106
208,304	-10,083	-0,093	-0,043
209,319	177,902	-0,167	-0,170
210,334	-71,319	-0,248	-0,064
211,348	144,079	-0,217	-0,201
212,363	184,033	-0,172	-0,177
213,377	85,072	-0,231	-0,176
214,392	-200,000	-0,010	-0,168
215,407	-125,399	-0,200	-0,021
216,421	-200,000	-0,014	-0,173
217,436	195,208	-0,214	-0,226
218,450	151,475	-0,210	-0,198
219,465	-21,151	-0,170	-0,072
220,480	229,420	-0,223	-0,253
221,494	3,938	-0,218	-0,110
222,509	28,113	-0,058	-0,034
223,523	-82,141	-0,209	-0,047
224,538	6,223	-0,177	-0,091
225,553	114,816	-0,251	-0,212
226,567	-16,713	-0,187	-0,082
227,582	33,531	-0,336	-0,202
228,596	205,515	-0,113	-0,122
229,611	-60,297	-0,169	-0,050
230,626	-31,899	-0,156	0,060
231,640	-157,555	-0,225	0,009
232,655	17,951	-0,214	-0,118
233,669	54,875	-0,280	-0,187
234,684	259,917	-0,129	-0,154
235,699	216,688	-0,113	-0,124
236,713	424,944	-0,123	-0,183
237,728	352,700	-0,088	-0,122
238,742	-142,807	-0,279	0,019
239,757	-4,201	-0,259	-0,124
240,772	-50,882	-0,199	-0,064
241,786	80,457	-0,319	-0,238
242,801	-102,204	-0,182	-0,030
243,815	415,991	-0,109	-0,161
244,830	-16,872	-0,217	-0,095
245,844	-44,153	-0,217	-0,075
246,859	-200,000	0,016	-0,222
247,874	109,714	-0,252	-0,209
248,888	38,429	-0,210	-0,129
249,903	21,990	-0,158	-0,089
250,917	35,179	-0,131	-0,079
251,932	-76,502	-0,157	0,038
252,947	78,602	-0,223	-0,165
253,961	83,124	-0,211	-0,159
254,976	-29,015	-0,227	-0,090
255,990	33,810	-0,162	-0,097
257,005	-72,933	-0,251	0,063
258,020	-82,943	-0,156	0,034
259,034	-70,511	-0,221	-0,057
260,049	182,778	-0,144	-0,147
261,063	22,595	-0,215	-0,121
262,078	380,621	-0,142	-0,202
263,093	19,100	-0,273	-0,151
264,107	-11,941	-0,264	-0,119
265,122	800,000	-0,038	-0,098
266,136	-3,367	-0,120	-0,057
267,151	83,416	-0,117	-0,088
268,166	6,946	-0,310	-0,159
269,180	56,128	-0,200	-0,134
270,195	225,585	-0,154	-0,173
271,209	2,819	-0,151	0,075
272,224	175,105	-0,118	-0,118
273,239	-0,246	-0,211	-0,103
274,253	800,000	-0,054	-0,153
275,268	368,810	-0,169	-0,237
276,282	183,146	-0,142	-0,145
277,297	-22,140	-0,242	-0,101
278,312	85,682	-0,191	-0,145
279,326	-60,211	-0,165	-0,048
280,341	65,858	-0,196	-0,137
281,355	39,017	-0,253	-0,156
282,370	48,509	-0,178	-0,115
283,384	190,811	-0,147	-0,153
284,399	-68,130	-0,058	0,016
285,414	-40,229	-0,229	-0,082
286,428	145,025	-0,210	-0,194
287,443	85,189	-0,155	-0,117
288,457	13,655	-0,225	-0,120
289,472	184,831	-0,162	-0,166
290,487	181,701	-0,138	-0,141
291,501	262,686	-0,123	-0,147
292,516	426,674	-0,142	-0,212
293,530	800,000	-0,021	-0,053
294,545	-76,520	-0,300	0,072
295,560	20,230	-0,094	0,052
296,574	90,389	-0,141	0,109
297,589	42,367	-0,198	-0,124
298,603	110,461	-0,227	-0,188
299,618	-104,647	-0,133	-0,021
300,633	-138,310	-0,071	0,005
301,647	109,686	-0,098	-0,081
302,662	77,396	-0,174	-0,127
303,676	800,000	-0,083	-0,163
304,691	-159,408	-0,169	0,006
305,706	39,605	-0,141	-0,087
306,720	-173,436	-0,259	-0,005
307,735	230,094	-0,125	-0,141
308,749	-41,339	-0,202	-0,071
309,764	-21,072	-0,185	-0,077
310,779	719,882	-0,068	-0,126
311,793	48,313	-0,248	-0,160
312,808	25,850	-0,278	-0,159
313,822	-9,514	-0,128	-0,058
314,837	42,842	-0,193	-0,121
315,852	81,975	-0,214	-0,160
316,866	-132,461	-0,062	0,005
317,881	275,763	-0,130	-0,159
318,895	774,068	-0,081	-0,153
319,910	90,553	-0,144	-0,111
320,925	754,991	-0,087	-0,162
321,939	-56,092	-0,188	-0,057
322,954	8,790	-0,037	-0,019
323,968	-117,443	-0,112	0,014
324,983	-167,710	-0,093	0,002
325,997	-168,592	-0,135	-0,003
327,012	-28,277	-0,258	-0,102
328,027	271,559	-0,092	-0,111
329,041	800,000	-0,107	-0,288
330,056	63,685	-0,120	-0,083
331,070	-70,564	-0,127	0,033
332,085	-76,656	-0,124	-0,030
333,100	661,436	-0,062	-0,111
334,114	-162,865	-0,037	-0,001
335,129	-40,059	-0,181	-0,064
336,143	-54,855	-0,099	-0,031
337,158	-97,877	-0,172	0,030
338,173	-7,780	-0,177	-0,082
339,187	-150,931	-0,218	-0,011
340,202	-53,084	-0,213	-0,067
341,216	76,277	-0,121	-0,088
342,231	-158,422	-0,049	0,002
343,246	-20,028	-0,154	-0,065
344,260	118,517	-0,113	-0,096
345,275	800,000	0,023	-0,058
346,289	800,000	-0,076	-0,164
347,304	200,206	-0,086	-0,091
348,319	149,792	-0,115	-0,107
349,333	-200,000	-0,045	-0,151
350,348	130,503	-0,171	-0,151
351,362	800,000	-0,076	-0,146
352,377	328,071	-0,110	-0,145
353,392	-52,444	-0,178	-0,056
354,406	32,338	-0,072	0,042
355,421	209,312	1315,042	1415,116
356,435	161,091	1475,799	1415,603
