DTS Sentinel unit serial number:	SN410029Multiplexer serial number:	ORYXHardware model number:	OX2-SRSoftware version number:	ORYX F/W v4,00 Oryx Data Collector v3.7.2.0data status	okinstallation	B3 Nyhavnadifferential loss correction	single-endedforward channel	channel 1reverse channel	N/Adate	2023/11/28time	22:37:30forward acquisition time	300,00reverse acquisition time	0,00gamma	499,1914k internal	0,3212k external	0,3212temperature offset calibration	1,0000default loss term (dB/km)	0,3820temperature slope calibration	1,0000multiplexer offset coefficient	1,0000multiplexer slope coefficient	1,0000fibre end	0,00T internal ref (°C)	8,62T ext. ref 1 (°C)	-6,00T ext. ref 2 (°C)	-6,15length (m)	temperature (°C)	Stokes	anti-Stokes-744,400	252,151	-0,186	-0,230
-743,385	-200,000	-0,006	0,192
-742,371	42,611	-0,179	-0,118
-741,356	800,000	-0,098	0,238
-740,342	129,119	-0,217	-0,201
-739,327	-200,000	-0,032	0,314
-738,312	152,556	-0,270	-0,267
-737,298	-200,000	-0,047	0,330
-736,283	-200,000	-0,029	-0,184
-735,269	-200,000	0,045	0,229
-734,254	87,096	-0,243	-0,195
-733,239	106,822	-0,155	0,134
-732,225	35,613	-0,129	-0,082
-731,210	800,000	0,038	0,086
-730,196	800,000	-0,056	0,121
-729,181	-200,000	0,000	-0,004
-728,167	52,150	0,068	-0,047
-727,152	86,433	-0,096	0,077
-726,137	-157,854	-0,046	0,002
-725,123	492,135	-0,046	-0,076
-724,108	-43,720	-0,107	-0,039
-723,094	190,192	-0,069	-0,075
-722,079	98,587	0,052	-0,044
-721,064	87,189	-0,152	0,121
-720,050	-21,487	-0,092	-0,041
-719,035	-100,668	-0,088	-0,016
-718,021	61,877	-0,079	-0,057
-717,006	-200,000	-0,010	-0,085
-715,991	13,159	-0,157	-0,088
-714,977	-43,887	0,052	-0,019
-713,962	-22,879	-0,108	-0,047
-712,948	-14,217	-0,045	-0,021
-711,933	-200,000	-0,029	-0,127
-710,918	237,933	-0,119	0,143
-709,904	122,241	0,031	-0,028
-708,889	137,037	-0,088	0,083
-707,875	-130,971	-0,079	0,008
-706,860	-85,402	0,081	0,018
-705,845	134,910	-0,061	0,058
-704,831	-95,472	0,182	0,035
-703,816	501,144	0,039	0,066
-702,802	58,607	-0,044	0,031
-701,787	39,559	-0,045	-0,029
-700,772	131,528	-0,030	0,028
-699,758	164,063	-0,065	0,066
-698,743	-155,038	-0,088	0,004
-697,729	-200,000	-0,002	-0,022
-696,714	-30,248	-0,085	0,035
-695,699	-200,000	-0,013	-0,132
-694,685	422,881	0,087	-0,135
-693,670	-131,017	-0,124	0,012
-692,656	-84,143	0,015	0,003
-691,641	800,000	0,057	-0,115
-690,627	12,370	-0,047	-0,026
-689,612	47,837	-0,060	-0,041
-688,597	10,611	-0,104	0,057
-687,583	-31,334	-0,231	-0,093
-686,568	282,732	-0,051	-0,066
-685,554	-200,000	0,001	-0,068
-684,539	800,000	0,061	0,136
-683,524	-123,843	0,126	0,014
-682,510	28,549	0,092	-0,056
-681,495	73,074	-0,033	-0,025
-680,481	-96,525	-0,132	0,025
-679,466	-200,000	0,005	-0,095
-678,451	218,317	-0,057	0,066
-677,437	800,000	-0,015	0,033
-676,422	-200,000	-0,007	-0,095
-675,408	-200,000	0,024	0,090
-674,393	-102,873	0,051	-0,009
-673,378	71,829	-0,095	-0,072
-672,364	124,587	-0,072	0,066
-671,349	508,716	-0,038	-0,063
-670,335	-44,090	-0,064	-0,023
-669,320	216,241	0,079	-0,091
-668,305	800,000	-0,002	-0,005
-667,291	108,689	-0,099	0,085
-666,276	113,879	0,022	-0,019
-665,262	800,000	-0,043	-0,096
-664,247	-36,801	0,018	0,007
-663,232	76,500	0,049	-0,038
-662,218	-200,000	-0,008	0,052
-661,203	800,000	0,030	-0,079
-660,189	800,000	-0,047	-0,134
-659,174	-69,251	-0,227	-0,063
-658,159	248,800	-0,100	-0,123
-657,145	-100,952	0,133	-0,023
-656,130	81,691	0,021	0,017
-655,116	35,318	-0,021	-0,013
-654,101	421,081	-0,043	-0,068
-653,086	-161,540	-0,139	0,005
-652,072	-200,000	-0,023	0,125
-651,057	39,515	-0,063	-0,041
-650,043	-33,306	-0,061	0,024
-649,028	-126,345	0,055	0,006
-648,014	800,000	-0,021	-0,055
-646,999	-49,402	0,150	-0,051
-645,984	-1,213	-0,100	-0,051
-644,970	-1,700	-0,110	0,056
-643,955	-112,209	0,107	0,015
-642,941	-173,917	-0,186	0,004
-641,926	150,416	-0,086	-0,085
-640,911	-138,398	0,047	-0,004
-639,897	-86,700	0,045	-0,010
-638,882	-162,848	-0,063	-0,002
-637,868	-137,703	0,092	-0,007
-636,853	80,727	0,027	-0,021
-635,838	-200,000	0,028	-0,132
-634,824	46,445	0,104	-0,069
-633,809	-200,000	-0,004	-0,035
-632,795	36,420	-0,097	-0,061
-631,780	-200,000	0,029	0,136
-630,765	-200,000	-0,015	0,071
-629,751	-66,853	-0,086	-0,024
-628,736	192,219	-0,111	-0,121
-627,722	-155,447	-0,056	0,003
-626,707	-100,899	0,102	-0,018
-625,692	-200,000	0,022	0,080
-624,678	168,198	0,056	0,058
-623,663	-22,247	-0,052	-0,023
-622,649	-129,121	0,040	-0,004
-621,634	-200,000	-0,018	-0,117
-620,619	-200,000	0,005	-0,131
-619,605	101,141	0,051	-0,043
-618,590	38,657	-0,068	0,044
-617,576	-200,000	0,014	0,165
-616,561	-104,140	-0,144	0,024
-615,546	-200,000	-0,006	-0,035
-614,532	325,075	-0,066	0,092
-613,517	127,873	0,092	-0,084
-612,503	800,000	-0,038	0,116
-611,488	272,036	0,039	0,049
-610,474	-31,341	-0,015	0,006
-609,459	140,568	-0,051	-0,048
-608,444	99,276	0,051	0,043
-607,430	-135,559	0,037	0,003
-606,415	93,757	-0,054	0,044
-605,401	-82,143	-0,058	-0,014
-604,386	208,758	0,040	-0,045
-603,371	44,795	0,065	-0,043
-602,357	62,242	-0,074	0,053
-601,342	-200,000	-0,012	-0,144
-600,328	-56,371	-0,151	-0,048
-599,313	20,536	0,112	0,065
-598,298	-200,000	0,011	0,055
-597,284	-200,000	0,001	0,100
-596,269	-4,231	-0,067	-0,033
-595,255	-200,000	-0,015	-0,094
-594,240	-105,887	-0,030	0,005
-593,225	508,085	-0,056	-0,094
-592,211	800,000	-0,022	0,060
-591,196	-200,000	0,040	0,158
-590,182	160,742	-0,085	-0,085
-589,167	-83,188	0,123	0,028
-588,152	-200,000	0,002	0,058
-587,138	-35,812	0,031	-0,012
-586,123	40,126	-0,050	0,032
-585,109	-86,698	-0,117	-0,026
-584,094	800,000	0,039	-0,090
-583,079	99,229	0,095	0,079
-582,065	80,690	0,044	0,034
-581,050	70,976	-0,050	0,037
-580,036	96,176	0,067	-0,055
-579,021	-56,800	-0,098	-0,031
-578,006	800,000	-0,062	-0,132
-576,992	-200,000	0,013	-0,171
-575,977	-128,652	-0,085	-0,009
-574,963	-135,327	0,088	0,007
-573,948	150,249	-0,096	-0,094
-572,934	-2,654	-0,048	-0,024
-571,919	188,489	0,058	-0,062
-570,904	195,544	-0,078	-0,085
-569,890	65,764	-0,114	-0,083
-568,875	17,717	0,136	0,078
-567,861	-124,368	-0,149	0,017
-566,846	154,098	-0,076	0,075
-565,831	178,698	0,101	0,107
-564,817	-200,000	-0,022	0,092
-563,802	325,937	-0,052	0,072
-562,788	296,690	-0,027	0,036
-561,773	-200,000	-0,006	-0,025
-560,758	34,273	0,123	0,077
-559,744	-200,000	0,007	0,043
-558,729	800,000	-0,053	-0,107
-557,715	-105,804	0,042	-0,007
-556,700	55,260	-0,086	-0,060
-555,685	-24,198	0,089	0,038
-554,671	-23,513	0,146	-0,063
-553,656	-28,554	-0,028	-0,011
-552,642	800,000	-0,009	0,028
-551,627	-0,094	-0,095	-0,049
-550,612	-76,175	0,081	0,021
-549,598	329,787	0,019	-0,027
-548,583	154,921	-0,147	-0,146
-547,569	-173,267	0,105	0,002
-546,554	-1,040	0,011	-0,006
-545,539	424,938	0,084	0,130
-544,525	-200,000	-0,053	0,258
-543,510	800,000	-0,020	0,059
-542,496	5,866	-0,061	0,032
-541,481	394,163	-0,057	-0,086
-540,466	-30,064	-0,139	-0,056
-539,452	-200,000	0,013	0,085
-538,437	-56,031	0,147	-0,047
-537,423	800,000	-0,024	-0,056
-536,408	562,811	-0,053	0,093
-535,393	153,314	-0,040	-0,039
-534,379	-200,000	-0,058	-0,229
-533,364	-149,331	0,063	0,004
-532,350	-200,000	0,001	0,035
-531,335	83,104	0,109	0,085
-530,321	-121,590	-0,044	-0,005
-529,306	-135,257	-0,125	-0,011
-528,291	800,000	-0,052	-0,118
-527,277	-37,087	0,118	-0,045
-526,262	-200,000	0,020	-0,089
-525,248	102,590	-0,011	0,009
-524,233	-200,000	-0,010	-0,042
-523,218	8,366	0,044	0,024
-522,204	153,356	-0,106	0,105
-521,189	-155,172	0,178	-0,008
-520,175	23,144	-0,074	-0,043
-519,160	168,318	-0,060	-0,061
-518,145	-91,400	-0,063	0,013
-517,131	-43,477	0,133	0,048
-516,116	-121,095	0,034	-0,004
-515,102	-200,000	-0,009	0,195
-514,087	-80,939	-0,111	0,026
-513,072	-30,058	-0,151	-0,061
-512,058	-200,000	-0,013	0,051
-511,043	89,164	0,043	0,034
-510,029	405,695	0,050	0,076
-509,014	-200,000	0,005	0,152
-507,999	102,311	0,121	0,102
-506,985	800,000	0,042	-0,089
-505,970	228,623	-0,072	-0,085
-504,956	-200,000	0,039	-0,157
-503,941	-28,558	0,013	0,005
-502,926	-131,417	0,105	-0,010
-501,912	-200,000	0,026	0,086
-500,897	-89,631	0,049	0,010
-499,883	183,516	-0,134	-0,143
-498,868	718,511	0,012	-0,023
-497,853	-138,365	-0,100	-0,008
-496,839	231,118	-0,014	0,017
-495,824	-200,000	-0,010	0,067
-494,810	323,976	-0,064	0,089
-493,795	298,411	0,056	-0,074
-492,781	-200,000	-0,024	-0,130
-491,766	90,016	-0,018	-0,014
-490,751	-200,000	-0,008	-0,130
-489,737	800,000	-0,015	0,039
-488,722	110,845	0,087	0,075
-487,708	-200,000	0,029	0,105
-486,693	328,198	-0,036	0,050
-485,678	-102,220	-0,070	0,012
-484,664	800,000	-0,072	0,166
-483,649	571,014	-0,066	-0,117
-482,635	-200,000	-0,002	0,006
-481,620	-4,600	-0,082	0,040
-480,605	130,080	-0,061	0,056
-479,591	-4,366	-0,040	-0,020
-478,576	43,178	-0,125	0,082
-477,562	-7,869	0,094	-0,045
-476,547	27,277	-0,059	-0,035
-475,532	800,000	-0,027	-0,062
-474,518	358,237	0,070	-0,101
-473,503	-200,000	-0,003	0,155
-472,489	149,039	0,079	0,077
-471,474	-200,000	0,009	-0,039
-470,459	-89,909	0,077	-0,016
-469,445	-118,772	-0,035	-0,004
-468,430	424,058	0,048	0,074
-467,416	-200,000	0,002	0,081
-466,401	-53,999	-0,128	-0,042
-465,386	-200,000	-0,006	0,027
-464,372	-152,684	-0,058	0,003
-463,357	800,000	-0,013	-0,031
-462,343	207,546	-0,069	-0,078
-461,328	27,245	-0,018	0,011
-460,313	699,935	-0,022	-0,042
-459,299	116,294	0,007	-0,006
-458,284	-48,216	0,106	0,036
-457,270	566,463	-0,063	0,110
-456,255	0,140	-0,170	-0,086
-455,241	-25,911	-0,076	-0,032
-454,226	-116,949	-0,107	0,014
-453,211	-86,499	0,034	-0,007
-452,197	122,196	-0,077	-0,069
-451,182	-200,000	0,006	0,029
-450,168	-200,000	-0,018	0,124
-449,153	-166,695	-0,163	0,005
-448,138	800,000	-0,041	-0,109
-447,124	324,428	-0,058	-0,079
-446,109	10,060	0,052	-0,028
-445,095	-151,212	-0,137	0,007
-444,080	98,586	0,083	-0,069
-443,065	800,000	-0,049	0,133
-442,051	85,054	0,081	-0,064
-441,036	64,354	-0,082	0,059
-440,022	340,241	0,049	0,068
-439,007	-200,000	-0,021	-0,083
-437,992	-200,000	0,006	-0,056
-436,978	768,358	0,045	0,089
-435,963	602,734	0,068	-0,122
-434,949	-200,000	0,010	-0,110
-433,934	800,000	-0,020	0,061
-432,919	800,000	0,036	0,088
-431,905	61,673	0,151	-0,108
-430,890	25,912	0,093	0,055
-429,876	-200,000	0,019	-0,089
-428,861	-55,240	0,012	-0,004
-427,846	-96,565	-0,054	-0,010
-426,832	116,144	0,030	0,026
-425,817	-104,223	-0,119	0,020
-424,803	-38,061	0,074	0,028
-423,788	-200,000	0,027	-0,112
-422,773	-26,035	-0,048	-0,020
-421,759	800,000	-0,046	0,126
-420,744	175,229	-0,022	0,022
-419,730	-200,000	-0,001	-0,023
-418,715	268,511	-0,019	0,024
-417,701	-42,288	-0,098	-0,036
-416,686	-200,000	0,033	-0,159
-415,671	-83,739	0,104	0,024
-414,657	800,000	-0,037	0,073
-413,642	82,220	-0,061	0,047
-412,628	737,661	-0,017	-0,033
-411,613	-200,000	-0,018	-0,118
-410,598	236,975	0,013	0,016
-409,584	253,435	0,084	-0,103
-408,569	800,000	-0,046	0,140
-407,555	-152,804	0,067	-0,003
-406,540	800,000	0,044	0,136
-405,525	-119,992	-0,084	0,010
-404,511	-66,756	-0,118	0,033
-403,496	121,375	-0,033	-0,030
-402,482	102,910	0,141	0,118
-401,467	-200,000	0,056	0,215
-400,452	56,905	0,129	-0,090
-399,438	-95,432	-0,171	0,032
-398,423	-200,000	-0,017	-0,065
-397,409	800,000	0,022	0,052
-396,394	112,757	-0,036	-0,032
-395,379	-14,839	0,063	-0,029
-394,365	-142,228	-0,149	-0,010
-393,350	-54,066	0,119	-0,038
-392,336	290,000	-0,057	0,075
-391,321	-71,948	0,041	-0,011
-390,306	-100,781	-0,125	-0,022
-389,292	-113,358	0,135	-0,019
-388,277	-200,000	0,016	-0,057
-387,263	-47,200	0,127	0,044
-386,248	-200,000	-0,005	0,081
-385,233	211,170	-0,028	0,032
-384,219	800,000	-0,057	-0,117
-383,204	-20,100	-0,083	0,036
-382,190	729,391	-0,069	-0,132
-381,175	128,545	0,050	0,046
-380,160	-88,302	-0,031	-0,007
-379,146	72,786	0,127	-0,095
-378,131	-73,174	-0,193	-0,050
-377,117	-200,000	0,019	0,105
-376,102	50,486	0,152	-0,102
-375,088	-200,000	-0,023	-0,137
-374,073	-47,638	0,047	0,016
-373,058	144,067	-0,069	0,066
-372,044	699,821	0,052	0,098
-371,029	106,472	0,137	0,116
-370,015	166,569	-0,022	-0,023
-369,000	800,000	-0,035	-0,095
-367,985	-114,496	-0,088	0,012
-366,971	-183,486	-0,043	0,001
-365,956	-62,303	-0,144	0,043
-364,942	-21,827	0,114	-0,049
-363,927	155,716	0,083	0,082
-362,912	800,000	-0,034	0,086
-361,898	271,766	0,032	-0,041
-360,883	-62,056	-0,055	-0,016
-359,869	-26,516	-0,049	0,021
-358,854	158,242	0,050	-0,049
-357,839	246,207	0,016	0,019
-356,825	228,837	0,098	0,114
-355,810	-200,000	0,018	0,068
-354,796	800,000	-0,053	-0,114
-353,781	72,171	-0,105	-0,078
-352,766	191,692	-0,052	-0,056
-351,752	800,000	0,022	-0,060
-350,737	800,000	0,047	0,116
-349,723	61,274	0,152	0,108
-348,708	-61,226	0,109	0,033
-347,693	-3,819	-0,175	-0,086
-346,679	-12,990	-0,060	-0,028
-345,664	21,582	0,105	0,061
-344,650	166,248	-0,065	0,066
-343,635	-7,607	0,082	0,039
-342,620	-200,000	0,002	-0,090
-341,606	800,000	-0,036	0,074
-340,591	-200,000	0,004	-0,041
-339,577	-200,000	-0,017	-0,068
-338,562	-25,707	-0,144	-0,060
-337,548	240,933	0,070	-0,083
-336,533	800,000	-0,020	-0,040
-335,518	-36,562	0,137	0,052
-334,504	-50,807	0,045	0,015
-333,489	509,134	-0,040	-0,067
-332,475	433,375	-0,023	-0,036
-331,460	-200,000	-0,007	-0,145
-330,445	-200,000	-0,018	-0,104
-329,431	306,128	0,096	0,127
-328,416	-17,224	0,081	-0,036
-327,402	800,000	0,056	-0,162
-326,387	24,205	-0,039	-0,023
-325,372	800,000	-0,046	-0,134
-324,358	14,712	0,057	0,032
-323,343	37,352	-0,045	-0,029
-322,329	41,170	0,094	-0,060
-321,314	-200,000	0,022	0,090
-320,299	122,379	0,125	0,112
-319,285	800,000	-0,042	0,085
-318,270	-91,511	0,062	-0,012
-317,256	800,000	0,031	0,095
-316,241	700,978	0,013	-0,024
-315,226	-10,949	0,055	0,026
-314,212	-27,280	0,087	-0,036
-313,197	-29,139	-0,097	-0,040
-312,183	1,475	-0,125	-0,064
-311,168	-200,000	-0,007	0,102
-310,153	201,880	0,051	0,056
-309,139	-200,000	0,007	-0,078
-308,124	54,654	0,026	0,018
-307,110	-200,000	0,007	0,028
-306,095	302,060	0,039	0,051
-305,080	-200,000	0,021	0,071
-304,066	-72,400	-0,128	0,034
-303,051	-16,668	-0,115	0,052
-302,037	-200,000	-0,003	0,137
-301,022	265,165	0,011	-0,013
-300,008	7,177	-0,056	0,029
-298,993	-200,000	-0,015	0,095
-297,978	-82,817	0,082	-0,019
-296,964	-200,000	0,018	0,158
-295,949	-50,662	-0,098	-0,033
-294,935	129,770	-0,032	-0,029
-293,920	246,604	-0,083	0,100
-292,905	-112,282	0,145	0,021
-291,891	800,000	-0,040	0,102
-290,876	-200,000	-0,013	0,051
-289,862	-200,000	0,005	0,026
-288,847	592,137	-0,025	-0,044
-287,832	145,628	0,046	0,044
-286,818	-27,038	-0,048	-0,020
-285,803	-55,099	0,053	0,017
-284,789	-200,000	-0,012	0,061
-283,774	800,000	0,018	0,041
-282,759	94,187	0,044	0,036
-281,745	800,000	-0,007	-0,022
-280,730	-180,291	-0,045	-0,001
-279,716	-52,304	0,071	-0,023
-278,701	-200,000	0,006	-0,036
-277,686	800,000	0,039	-0,102
-276,672	-113,705	0,095	0,013
-275,657	763,551	-0,036	0,071
-274,643	-1,030	-0,115	-0,058
-273,628	87,717	-0,026	0,021
-272,613	-63,411	0,063	0,018
-271,599	77,066	0,060	-0,045
-270,584	-0,209	0,053	-0,027
-269,570	215,391	0,198	0,224
-268,555	-200,000	-0,005	0,175
-267,540	-200,000	0,022	-0,098
-266,526	113,087	0,104	0,090
-265,511	-200,000	0,008	-0,035
-264,497	-69,140	0,050	0,014
-263,482	-123,783	-0,033	0,004
-262,467	473,080	0,123	0,198
-261,453	313,081	-0,069	-0,092
-260,438	-78,931	-0,069	0,017
-259,424	-200,000	-0,005	-0,035
-258,409	800,000	-0,027	0,078
-257,395	224,474	0,057	0,065
-256,380	267,190	0,065	-0,081
-255,365	108,854	-0,178	0,151
-254,351	800,000	-0,020	0,055
-253,336	453,962	0,018	0,029
-252,322	-3,696	0,053	-0,026
-251,307	-50,924	0,023	-0,008
-250,292	49,276	0,123	-0,082
-249,278	-63,315	0,050	0,014
-248,263	27,747	0,108	0,064
-247,249	-200,000	-0,024	0,177
-246,234	36,378	0,070	0,044
-245,219	117,953	0,071	-0,063
-244,205	-200,000	0,016	-0,068
-243,190	-136,607	-0,078	0,006
-242,176	445,177	0,111	-0,173
-241,161	-146,274	0,143	-0,009
-240,146	99,974	-0,100	-0,082
-239,132	-147,358	-0,022	-0,001
-238,117	-35,953	-0,075	-0,029
-237,103	-200,000	0,010	-0,045
-236,088	190,850	-0,046	-0,049
-235,073	800,000	0,029	-0,060
-234,059	-126,499	0,119	0,012
-233,044	237,272	-0,071	0,084
-232,030	644,275	0,022	0,040
-231,015	258,597	-0,097	-0,119
-230,000	777,080	0,100	-0,196
-228,986	800,000	0,038	-0,089
-227,971	-200,000	0,003	-0,118
-226,957	-113,767	0,165	0,023
-225,942	-20,360	0,083	0,036
-224,927	-101,870	-0,091	0,016
-223,913	800,000	0,039	-0,106
-222,898	262,979	-0,110	-0,136
-221,884	-92,364	0,174	-0,034
-220,869	800,000	-0,042	0,082
-219,855	-200,000	0,004	0,054
-218,840	419,251	-0,063	-0,096
-217,825	-150,189	0,138	0,007
-216,811	-60,026	0,120	-0,036
-215,796	-200,000	-0,007	-0,091
-214,782	-64,443	0,099	-0,029
-213,767	-154,987	0,061	0,003
-212,752	406,929	0,141	0,212
-211,738	-187,030	0,090	0,001
-210,723	-159,007	-0,055	-0,002
-209,709	82,140	-0,023	-0,018
-208,694	-32,604	0,085	-0,033
-207,679	-200,000	0,006	-0,094
-206,665	-34,186	-0,042	0,016
-205,650	72,912	0,083	-0,062
-204,636	800,000	0,041	0,111
-203,621	-200,000	-0,011	0,056
-202,606	800,000	0,064	-0,134
-201,592	-37,204	0,038	-0,014
-200,577	276,875	0,029	0,036
-199,563	-36,425	0,164	-0,062
-198,548	800,000	-0,070	0,176
-197,533	-200,000	-0,005	-0,017
-196,519	258,874	0,070	0,086
-195,504	800,000	-0,045	0,096
-194,490	-200,000	-0,013	-0,166
-193,475	-200,000	0,002	-0,055
-192,460	800,000	-0,025	-0,067
-191,446	-200,000	-0,005	0,153
-190,431	-55,971	-0,159	-0,050
-189,417	80,430	-0,044	0,034
-188,402	269,929	-0,037	-0,046
-187,387	-1,785	0,012	-0,006
-186,373	-38,350	-0,093	0,035
-185,358	101,534	-0,073	-0,061
-184,344	703,683	0,083	-0,156
-183,329	190,741	0,079	-0,084
-182,315	-200,000	0,011	0,133
-181,300	-200,000	0,004	0,049
-180,285	81,275	-0,058	0,044
-179,271	230,662	-0,134	-0,155
-178,256	800,000	-0,110	-0,234
-177,242	-76,114	0,020	0,005
-176,227	-85,553	-0,034	0,007
-175,212	195,332	-0,078	-0,084
-174,198	-200,000	0,029	-0,159
-173,183	-200,000	-0,009	0,036
-172,169	13,424	0,046	-0,025
-171,154	449,406	-0,002	-0,003
-170,139	-66,176	-0,100	0,028
-169,125	800,000	0,056	0,153
-168,110	257,731	0,103	0,126
-167,096	-200,000	-0,005	0,123
-166,081	-145,712	-0,040	-0,002
-165,066	-82,113	0,056	0,013
-164,052	-29,227	-0,086	0,035
-163,037	-29,940	-0,110	0,044
-162,023	643,427	0,063	0,115
-161,008	4,957	0,048	-0,025
-159,993	-200,000	0,027	-0,126
-158,979	-75,573	-0,070	-0,018
-157,964	50,994	-0,083	0,056
-156,950	-64,984	-0,065	-0,018
-155,935	-200,000	0,014	0,103
-154,920	-173,882	0,227	-0,005
-153,906	800,000	0,040	0,090
-152,891	29,415	-0,052	0,031
-151,877	-6,436	0,085	0,041
-150,862	588,116	0,040	-0,070
-149,847	-200,000	0,011	0,043
-148,833	-200,000	0,026	0,086
-147,818	11,030	0,104	0,056
-146,804	162,016	-0,112	0,111
-145,789	-43,694	0,080	0,028
-144,775	-111,713	-0,135	0,019
-143,760	78,700	-0,058	-0,044
-142,745	255,210	-0,190	-0,231
-141,731	162,674	0,117	-0,116
-140,716	-200,000	-0,021	0,083
-139,702	800,000	-0,077	-0,174
-138,687	-200,000	0,022	0,118
-137,672	800,000	0,006	0,019
-136,658	717,259	-0,069	-0,130
-135,643	-200,000	0,011	-0,075
-134,629	-75,165	-0,173	-0,044
-133,614	-152,409	0,097	-0,005
-132,599	-200,000	0,023	-0,078
-131,585	-76,794	-0,047	-0,012
-130,570	54,953	0,058	0,039
-129,556	-115,221	-0,051	-0,007
-128,541	444,637	0,024	0,037
-127,526	-200,000	-0,013	-0,092
-126,512	71,988	0,051	0,038
-125,497	-9,664	-0,038	0,018
-124,483	52,226	0,069	0,046
-123,468	359,774	0,040	-0,057
-122,453	800,000	-0,020	-0,052
-121,439	-200,000	0,032	-0,160
-120,424	-23,562	-0,048	-0,020
-119,410	360,680	0,051	0,073
-118,395	-96,399	-0,065	0,012
-117,380	-47,372	-0,096	0,033
-116,366	27,603	-0,061	-0,037
-115,351	-101,343	0,097	-0,017
-114,337	-200,000	0,016	-0,082
-113,322	-200,000	-0,031	-0,164
-112,307	-54,848	-0,021	0,007
-111,293	337,399	0,064	0,088
-110,278	-200,000	0,014	0,049
-109,264	117,718	0,047	-0,041
-108,249	546,458	-0,060	0,102
-107,234	17,171	0,074	-0,041
-106,220	-64,095	-0,215	-0,062
-105,205	-73,569	0,106	-0,027
-104,191	-143,359	-0,112	0,007
-103,176	344,347	0,035	-0,048
-102,162	-200,000	0,016	0,069
-101,147	64,213	0,035	0,025
-100,132	800,000	-0,019	-0,056
-99,118	-200,000	0,022	-0,080
-98,103	-113,313	-0,055	-0,008
-97,089	-29,118	-0,005	0,002
-96,074	231,563	0,049	0,057
-95,059	-200,000	0,021	-0,082
-94,045	-6,669	0,065	0,031
-93,030	800,000	0,009	0,025
-92,016	-56,616	-0,098	0,031
-91,001	72,568	0,081	0,060
-89,986	800,000	-0,015	0,038
-88,972	463,429	-0,046	0,073
-87,957	347,159	-0,054	0,075
-86,943	-200,000	0,007	0,093
-85,928	-32,981	0,047	-0,018
-84,913	142,286	-0,059	-0,055
-83,899	800,000	0,016	0,039
-82,884	2,089	0,070	-0,036
-81,870	15,056	0,132	-0,073
-80,855	37,874	-0,120	-0,075
-79,840	240,479	-0,097	0,114
-78,826	226,075	0,064	-0,073
-77,811	800,000	-0,106	-0,240
-76,797	-200,000	-0,013	0,131
-75,782	800,000	-0,025	-0,066
-74,767	494,130	0,038	0,062
-73,753	157,189	-0,034	-0,033
-72,738	97,416	-0,084	0,068
-71,724	-22,097	-0,099	-0,042
-70,709	-200,000	0,003	-0,091
-69,694	800,000	-0,060	-0,132
-68,680	141,194	-0,117	0,109
-67,665	196,798	0,110	0,119
-66,651	393,851	0,057	0,085
-65,636	-39,740	0,056	-0,021
-64,622	-200,000	0,007	-0,084
-63,607	429,076	-0,067	-0,103
-62,592	-69,602	-0,134	0,036
-61,578	136,932	-0,159	-0,147
-60,563	-131,185	0,032	-0,003
-59,549	-200,000	0,026	0,100
-58,534	77,868	-2,090	-1,571
-57,519	479,724	-1,270	-2,039
-56,505	-200,000	-0,289	-4,329
-55,490	722,387	0,911	1,719
-54,476	800,000	5,080	11,189
-53,461	-200,000	21,944	340,126
-52,446	800,000	757,231	2296,798
-51,432	533,729	1648,699	2766,406
-50,417	68,875	1646,687	1191,772
-49,403	16,293	1522,025	844,957
-48,388	10,422	1446,866	775,026
-47,373	19,172	1439,014	812,493
-46,359	13,941	1427,595	781,321
-45,344	8,733	1423,985	754,679
-44,330	8,733	1421,743	753,460
-43,315	8,694	1420,028	752,339
-42,300	8,774	1418,285	751,760
-41,286	8,722	1417,184	750,904
-40,271	8,694	1415,858	750,036
-39,257	8,660	1414,805	749,291
-38,242	8,760	1413,476	749,027
-37,227	8,670	1412,662	748,142
-36,213	8,695	1411,029	747,365
-35,198	8,750	1409,720	746,903
-34,184	8,807	1409,015	746,766
-33,169	8,684	1407,584	745,402
-32,154	8,687	1406,717	744,927
-31,140	8,689	1405,452	744,234
-30,125	8,699	1404,456	743,725
-29,111	8,721	1402,995	743,027
-28,096	8,708	1401,916	742,362
-27,082	8,656	1400,699	741,449
-26,067	8,610	1399,792	740,727
-25,052	8,649	1398,640	740,264
-24,038	8,634	1397,774	739,708
-23,023	8,594	1396,811	738,983
-22,009	8,612	1395,755	738,480
-20,994	8,643	1394,307	737,829
-19,979	8,649	1393,500	737,398
-18,965	8,616	1392,661	736,776
-17,950	8,603	1391,750	736,202
-16,936	8,551	1390,979	735,526
-15,921	8,516	1390,029	734,832
-14,906	8,541	1389,153	734,455
-13,892	8,599	1387,866	734,012
-12,877	8,564	1387,146	733,440
-11,863	8,553	1386,481	733,009
-10,848	8,564	1385,362	732,440
-9,833	8,511	1384,639	731,784
-8,819	8,499	1383,702	731,205
-7,804	8,493	1382,628	730,582
-6,790	8,480	1381,685	729,994
-5,775	8,516	1380,631	729,572
-4,760	8,510	1379,874	729,116
-3,746	8,500	1378,883	728,520
-2,731	8,542	1377,896	728,160
-1,717	8,519	1377,038	727,575
-0,702	8,511	1375,225	726,549
0,313	12,483	1287,222	698,079
1,327	28,334	680,382	404,456
2,342	44,436	117,072	75,682
3,356	2,887	16,344	8,339
4,371	-0,773	3,870	1,927
5,386	-12,924	1,368	0,625
6,400	800,000	0,263	0,612
7,415	-135,073	-0,155	0,013
8,429	-56,872	-0,262	-0,081
9,444	31,386	-0,330	-0,199
10,459	-30,276	-0,392	-0,156
11,473	38,455	-0,299	-0,187
12,488	173,446	-0,220	-0,224
13,502	88,747	-0,281	-0,220
14,517	78,366	-0,327	-0,246
15,531	111,853	-0,281	-0,239
16,546	-108,427	-0,286	-0,043
17,561	138,890	-0,255	-0,236
18,575	16,054	-0,162	-0,090
19,590	-63,306	-0,275	-0,079
20,604	-165,262	-0,363	-0,011
21,619	164,702	-0,390	-0,388
22,634	204,437	-0,378	-0,413
23,648	208,612	-0,361	-0,398
24,663	233,901	-0,264	-0,307
25,677	222,917	-0,304	-0,345
26,692	5,420	-0,424	-0,220
27,707	207,182	-0,264	-0,290
28,721	-18,830	-0,389	-0,170
29,736	-138,259	-0,382	-0,029
30,750	91,568	-0,372	-0,294
31,765	8,384	-0,435	-0,229
32,780	193,101	-0,328	-0,349
33,794	441,292	-0,174	-0,268
34,809	147,526	-0,374	-0,354
35,823	178,690	-0,349	-0,358
36,838	0,697	-0,406	-0,203
37,853	118,727	-0,382	-0,331
38,867	-12,091	-0,386	-0,177
39,882	207,663	-0,420	-0,462
40,896	-116,772	-0,350	-0,045
41,911	-42,425	-0,415	-0,148
42,926	238,215	-0,181	-0,211
43,940	29,681	-0,328	-0,196
44,955	-21,445	-0,396	-0,169
45,969	-49,402	-0,302	-0,101
46,984	185,690	-0,266	-0,277
47,999	-32,632	-0,428	-0,166
49,013	-61,186	-0,299	-0,088
50,028	-4,991	-0,343	-0,165
51,042	34,926	-0,363	-0,222
52,057	64,363	-0,370	-0,261
53,071	30,883	-0,437	-0,262
54,086	221,200	-0,165	-0,186
55,101	-21,247	-0,375	-0,160
56,115	252,274	-0,192	-0,230
57,130	266,138	-0,252	-0,309
58,144	-13,040	-0,392	-0,178
59,159	78,148	-0,458	-0,343
60,174	121,417	-0,313	-0,273
61,188	87,035	-0,276	-0,214
62,203	-89,226	-0,294	-0,060
63,217	24,632	-0,313	-0,181
64,232	9,030	-0,378	-0,200
65,247	9,474	-0,336	-0,178
66,261	174,053	-0,340	-0,344
67,276	-24,126	-0,472	-0,197
68,290	92,943	-0,313	-0,248
69,305	72,468	-0,263	-0,192
70,320	162,464	-0,253	-0,249
71,334	88,325	-0,326	-0,253
72,349	-48,662	-0,368	-0,123
73,363	27,018	-0,251	-0,147
74,378	183,761	-0,313	-0,325
75,393	20,125	-0,311	-0,176
76,407	-128,790	-0,284	-0,028
77,422	298,487	-0,244	-0,315
78,436	-105,404	-0,345	-0,054
79,451	-32,747	-0,259	-0,100
80,466	251,511	-0,203	-0,243
81,480	800,000	-0,161	-0,383
82,495	185,745	-0,327	-0,341
83,509	26,385	-0,205	-0,119
84,524	-50,981	-0,302	-0,099
85,539	-33,689	-0,170	-0,065
86,553	75,220	-0,256	-0,189
87,568	18,809	-0,279	-0,156
88,582	21,098	-0,356	-0,202
89,597	26,578	-0,273	-0,159
90,611	217,421	-0,198	-0,221
91,626	-62,794	-0,323	-0,093
92,641	-69,714	-0,257	-0,068
93,655	-24,234	-0,280	-0,116
94,670	-5,299	-0,171	-0,082
95,684	157,959	-0,182	-0,176
96,699	-87,709	-0,474	-0,099
97,714	86,715	-0,121	-0,093
98,728	-170,788	-0,157	-0,004
99,743	-124,171	-0,439	-0,048
100,757	-39,376	-0,265	-0,097
101,772	-1,280	-0,234	-0,115
102,787	-150,285	-0,342	-0,018
103,801	111,810	-0,314	-0,265
104,816	139,463	-0,166	-0,153
105,830	314,289	-0,196	-0,259
106,845	318,070	-0,197	-0,261
107,860	-36,554	-0,282	-0,105
108,874	-17,605	-0,309	-0,135
109,889	191,449	-0,232	-0,244
110,903	35,683	-0,395	-0,242
111,918	319,982	-0,145	-0,193
112,933	31,088	-0,194	-0,116
113,947	800,000	-0,133	-0,342
114,962	-132,680	-0,283	-0,025
115,976	12,466	-0,404	-0,217
116,991	61,370	-0,201	-0,140
118,006	33,663	-0,273	-0,165
119,020	141,465	-0,193	-0,179
120,035	132,286	-0,262	-0,236
121,049	337,701	-0,169	-0,230
122,064	588,210	-0,100	-0,173
123,079	90,731	-0,230	-0,180
124,093	17,201	-0,221	-0,122
125,108	-35,422	-0,285	-0,107
126,122	243,117	-0,301	-0,353
127,137	30,745	-0,209	-0,125
128,151	159,486	-0,096	-0,093
129,166	28,803	-0,273	-0,161
130,181	18,373	-0,204	-0,113
131,195	163,018	-0,227	-0,222
132,210	344,698	-0,238	-0,327
133,224	123,860	-0,259	-0,227
134,239	196,696	-0,246	-0,262
135,254	-39,175	-0,311	-0,113
136,268	-24,615	-0,206	-0,085
137,283	-9,375	-0,218	-0,101
138,297	4,449	-0,196	-0,100
139,312	-87,700	-0,244	-0,051
140,327	115,221	-0,236	-0,201
141,341	66,521	-0,217	-0,154
142,356	5,541	-0,167	-0,085
143,370	168,869	-0,222	-0,220
144,385	14,882	-0,214	-0,117
145,400	351,173	-0,155	-0,215
146,414	164,457	-0,229	-0,225
147,429	108,021	-0,147	-0,122
148,443	91,489	-0,165	-0,129
149,458	-35,812	-0,229	-0,086
150,473	53,720	-0,172	-0,114
151,487	34,861	-0,250	-0,152
152,502	37,834	-0,199	-0,123
153,516	228,925	-0,226	-0,257
154,531	134,523	-0,235	-0,212
155,546	68,020	-0,282	-0,200
156,560	172,374	-0,269	-0,269
157,575	-32,664	-0,181	-0,070
158,589	-163,199	-0,250	0,008
159,604	66,475	-0,226	-0,160
160,619	33,748	-0,336	-0,203
161,633	-200,000	-0,031	-0,184
162,648	476,579	-0,182	-0,288
163,662	173,489	-0,070	-0,070
164,677	-7,196	-0,141	-0,066
165,692	-57,359	-0,259	-0,079
166,706	747,614	-0,133	-0,250
167,721	-25,012	-0,377	-0,155
168,735	392,419	-0,173	-0,251
169,750	12,867	-0,318	-0,170
170,764	5,288	-0,216	-0,110
171,779	800,000	-0,069	-0,149
172,794	187,529	-0,178	-0,185
173,808	-174,058	-0,265	0,005
174,823	140,634	-0,244	-0,224
175,837	51,920	-0,299	-0,197
176,852	-8,272	-0,258	-0,120
177,867	-124,607	-0,163	-0,017
178,881	-109,038	-0,261	-0,038
179,896	800,000	-0,123	-0,297
180,910	92,197	-0,220	-0,172
181,925	634,859	-0,213	-0,376
182,940	216,740	-0,197	-0,217
183,954	142,333	-0,209	-0,192
184,969	147,283	-0,197	-0,184
185,983	233,770	-0,161	-0,184
186,998	-65,268	-0,264	-0,073
188,013	800,000	-0,103	-0,225
189,027	83,847	-0,248	-0,187
190,042	-178,571	-0,243	-0,004
191,056	-171,116	-0,178	0,004
192,071	-25,216	-0,263	-0,107
193,086	99,602	-0,228	-0,183
194,100	34,185	-0,175	-0,105
195,115	65,383	-0,177	-0,124
196,129	108,256	-0,262	-0,216
197,144	317,443	-0,227	-0,298
198,159	130,760	-0,270	-0,240
199,173	-200,000	-0,058	-0,199
200,188	37,858	-0,142	-0,087
201,202	54,483	-0,156	-0,104
202,217	-0,050	-0,248	-0,122
203,232	159,900	-0,182	-0,175
204,246	642,199	-0,136	-0,241
205,261	144,532	-0,219	-0,203
206,275	-71,534	-0,171	-0,044
207,290	-200,000	-0,063	-0,276
208,304	-98,532	-0,197	-0,035
209,319	-39,475	-0,208	-0,075
210,334	432,570	-0,125	-0,189
211,348	181,502	-0,198	-0,201
212,363	59,785	-0,246	-0,168
213,377	225,053	-0,189	-0,212
214,392	-28,287	-0,270	-0,107
215,407	-85,058	-0,164	-0,035
216,421	-38,430	-0,187	-0,068
217,436	-10,464	-0,146	-0,067
218,450	-18,640	-0,147	-0,063
219,465	800,000	-0,074	-0,209
220,480	-4,476	-0,197	-0,094
221,494	-25,804	-0,228	0,092
222,509	-4,347	-0,167	-0,079
223,523	-48,898	-0,145	-0,048
224,538	170,083	-0,179	-0,177
225,553	7,154	-0,305	-0,157
226,567	399,640	-0,182	-0,265
227,582	367,932	-0,202	-0,283
228,596	-88,755	-0,227	-0,046
229,611	73,995	-0,042	0,031
230,626	800,000	-0,053	-0,128
231,640	324,134	-0,139	-0,184
232,655	329,031	-0,124	-0,165
233,669	-36,461	-0,303	-0,112
234,684	-102,663	-0,141	0,023
235,699	-91,087	-0,255	-0,050
236,713	17,619	-0,155	-0,085
237,728	540,321	-0,114	-0,188
238,742	429,450	-0,114	-0,170
239,757	83,299	-0,159	-0,120
240,772	225,109	-0,155	-0,174
241,786	117,033	-0,236	-0,200
242,801	464,836	-0,186	-0,288
243,815	105,401	-0,089	-0,073
244,830	55,068	-0,121	-0,080
245,844	-124,645	-0,177	-0,019
246,859	50,579	-0,194	-0,126
247,874	253,838	-0,178	-0,210
248,888	-200,000	-0,170	0,000
249,903	320,728	-0,038	-0,050
250,917	59,571	-0,198	-0,134
251,932	55,990	-0,128	-0,086
252,947	-4,217	-0,208	-0,099
253,961	-0,683	-0,178	-0,087
254,976	41,730	-0,230	-0,143
255,990	-2,525	-0,165	-0,079
257,005	49,302	-0,236	-0,153
258,020	39,322	-0,041	-0,025
259,034	-200,000	-0,049	-0,221
260,049	28,785	-0,239	-0,139
261,063	-28,777	-0,274	-0,108
262,078	-48,247	-0,134	-0,044
263,093	160,870	-0,179	-0,172
264,107	87,499	-0,163	-0,124
265,122	31,156	-0,196	-0,116
266,136	-200,000	-0,028	-0,133
267,151	-165,058	-0,176	0,005
268,166	-55,702	-0,175	0,054
269,180	256,451	-0,116	-0,138
270,195	470,090	-0,106	-0,164
271,209	131,142	-0,173	-0,153
272,224	342,759	-0,077	-0,104
273,239	800,000	-0,068	-0,149
274,253	-200,000	-0,017	-0,140
275,268	-35,764	-0,150	0,056
276,282	186,373	-0,212	-0,217
277,297	-138,796	-0,302	-0,022
278,312	54,992	-0,155	-0,103
279,326	444,596	-0,116	-0,176
280,341	31,588	-0,147	-0,087
281,355	-86,673	-0,139	0,029
282,370	-33,202	-0,239	-0,091
283,384	-74,482	-0,218	-0,054
284,399	158,283	-0,140	-0,134
285,414	383,081	-0,139	-0,197
286,428	-28,170	-0,271	-0,107
287,443	-161,244	-0,127	-0,004
288,457	75,946	-0,133	-0,097
289,472	-33,947	-0,192	-0,072
290,487	98,864	-0,176	-0,140
291,501	41,202	-0,158	-0,098
292,516	192,849	-0,170	-0,177
293,530	471,367	-0,118	-0,183
294,545	14,710	-0,097	-0,052
295,560	-16,355	-0,151	-0,066
296,574	-34,832	-0,078	-0,029
297,589	-200,000	-0,056	-0,186
298,603	232,498	-0,226	-0,255
299,618	152,575	-0,092	-0,086
300,633	-104,772	-0,117	-0,018
301,647	48,500	-0,135	0,087
302,662	-0,318	-0,229	0,112
303,676	-126,135	-0,104	-0,011
304,691	54,156	-0,162	-0,107
305,706	5,609	-0,166	-0,084
306,720	128,758	-0,148	-0,130
307,735	-137,073	-0,176	-0,014
308,749	347,792	-0,079	-0,108
309,764	52,063	-0,147	-0,096
310,779	66,086	-0,187	-0,130
311,793	-153,867	-0,147	0,007
312,808	128,755	-0,134	-0,117
313,822	38,781	-0,203	-0,124
314,837	109,418	-0,171	-0,141
315,852	36,315	-0,186	-0,113
316,866	154,290	-0,280	-0,264
317,881	800,000	0,067	-0,200
318,895	161,637	-0,080	-0,077
319,910	716,147	-0,025	-0,046
320,925	104,109	-0,174	-0,141
321,939	-200,000	-0,045	-0,153
322,954	298,258	-0,163	-0,206
323,968	-123,702	-0,124	-0,013
324,983	37,769	-0,128	-0,078
325,997	-28,187	-0,136	-0,054
327,012	306,862	-0,089	-0,113
328,027	400,796	-0,129	-0,186
329,041	9,265	-0,180	-0,093
330,056	61,032	-0,100	0,068
331,070	-200,000	-0,026	-0,121
332,085	76,031	-0,133	-0,096
333,100	-109,949	-0,086	0,012
334,114	46,315	-0,164	-0,104
335,129	-43,708	-0,229	-0,079
336,143	-99,895	-0,288	-0,049
337,158	364,278	-0,166	-0,229
338,173	17,970	-0,160	-0,087
339,187	-200,000	-0,024	-0,111
340,202	82,069	-0,128	-0,095
341,216	387,632	-0,102	-0,145
342,231	-80,134	-0,120	-0,027
343,246	-200,000	-0,002	-0,152
344,260	125,249	-0,136	-0,117
345,275	-200,000	0,007	-0,205
346,289	132,057	0,033	-0,029
347,304	62,020	-0,109	-0,074
348,319	-174,669	-0,080	-0,002
349,333	-200,000	0,009	-0,049
350,348	-88,872	-0,144	-0,029
351,362	800,000	-0,065	-0,183
352,377	371,736	-0,092	-0,128
353,392	-65,249	-0,183	0,050
354,406	-59,903	-0,113	-0,033
355,421	206,809	1306,585	1393,570
356,435	159,072	1466,264	1394,044
