DTS Sentinel unit serial number:	SN410029Multiplexer serial number:	ORYXHardware model number:	OX2-SRSoftware version number:	ORYX F/W v4,00 Oryx Data Collector v3.7.2.0data status	okinstallation	B3 Nyhavnadifferential loss correction	single-endedforward channel	channel 1reverse channel	N/Adate	2023/12/03time	22:47:30forward acquisition time	300,00reverse acquisition time	0,00gamma	499,1914k internal	0,3201k external	0,3201temperature offset calibration	1,0000default loss term (dB/km)	0,3820temperature slope calibration	1,0000multiplexer offset coefficient	1,0000multiplexer slope coefficient	1,0000fibre end	0,00T internal ref (°C)	13,11T ext. ref 1 (°C)	-2,23T ext. ref 2 (°C)	-2,25length (m)	temperature (°C)	Stokes	anti-Stokes-744,400	800,000	-0,140	-0,357
-743,385	-200,000	0,034	0,196
-742,371	122,791	-0,078	-0,071
-741,356	800,000	-0,117	0,302
-740,342	56,014	-0,196	-0,138
-739,327	-200,000	-0,009	0,301
-738,312	-119,631	-0,255	-0,032
-737,298	800,000	0,112	0,279
-736,283	135,988	-0,220	-0,209
-735,269	-200,000	0,041	0,326
-734,254	375,210	-0,168	-0,250
-733,239	-148,235	-0,211	0,012
-732,225	137,830	-0,157	-0,150
-731,210	109,746	0,094	0,082
-730,196	346,942	-0,042	-0,060
-729,181	-79,012	-0,058	0,014
-728,167	0,726	0,043	-0,022
-727,152	-74,465	0,069	-0,018
-726,137	-23,883	0,039	-0,017
-725,123	800,000	-0,028	-0,077
-724,108	116,161	0,091	-0,081
-723,094	-55,291	-0,101	-0,033
-722,079	389,612	-0,063	-0,096
-721,064	687,470	-0,063	-0,120
-720,050	7,404	0,054	0,029
-719,035	800,000	-0,035	-0,071
-718,021	-151,597	0,039	-0,002
-717,006	-200,000	-0,002	-0,181
-715,991	-200,000	-0,011	-0,115
-714,977	-200,000	0,017	-0,184
-713,962	3,468	-0,049	-0,026
-712,948	-200,000	0,005	-0,072
-711,933	-142,809	0,067	0,005
-710,918	23,564	0,012	-0,007
-709,904	270,928	-0,080	-0,102
-708,889	20,265	-0,081	0,047
-707,875	-54,547	-0,082	-0,027
-706,860	-101,555	-0,045	-0,008
-705,845	67,983	0,057	-0,042
-704,831	51,916	0,051	0,036
-703,816	-59,515	0,066	-0,021
-702,802	103,282	-0,161	0,137
-701,787	-200,000	-0,021	0,073
-700,772	-136,733	-0,034	0,003
-699,758	-76,802	-0,086	0,022
-698,743	205,845	0,089	0,100
-697,729	-200,000	-0,010	0,064
-696,714	-105,370	-0,027	-0,004
-695,699	46,662	0,056	-0,037
-694,685	-200,000	-0,033	-0,183
-693,670	-200,000	0,017	-0,170
-692,656	123,991	-0,109	-0,100
-691,641	-18,692	0,043	0,019
-690,627	-128,073	0,120	0,012
-689,612	-87,877	0,152	0,033
-688,597	26,759	-0,157	-0,095
-687,583	-185,963	-0,104	-0,001
-686,568	-200,000	-0,011	-0,043
-685,554	62,732	-0,021	-0,015
-684,539	-200,000	0,010	0,110
-683,524	-200,000	0,026	0,142
-682,510	800,000	-0,022	0,050
-681,495	75,094	0,051	0,039
-680,481	-162,913	-0,013	0,000
-679,466	57,978	-0,159	-0,113
-678,451	800,000	0,026	0,082
-677,437	-115,947	-0,032	0,004
-676,422	-54,834	0,021	-0,007
-675,408	96,017	0,044	-0,036
-674,393	41,054	-0,043	0,028
-673,378	-121,517	0,087	0,010
-672,364	116,118	-0,034	-0,030
-671,349	-200,000	0,017	-0,086
-670,335	19,558	0,068	-0,039
-669,320	657,803	0,012	-0,023
-668,305	10,491	0,024	0,013
-667,291	-18,529	0,085	-0,038
-666,276	-117,569	-0,046	0,006
-665,262	800,000	-0,039	-0,103
-664,247	26,402	-0,050	0,030
-663,232	-44,077	-0,093	-0,034
-662,218	-200,000	-0,016	0,104
-661,203	-20,311	0,065	0,029
-660,189	-82,418	0,056	0,013
-659,174	800,000	-0,020	0,044
-658,159	800,000	0,013	-0,040
-657,145	106,873	-0,062	-0,054
-656,130	126,007	0,112	-0,103
-655,116	-200,000	0,023	0,197
-654,101	489,832	0,077	0,127
-653,086	34,751	0,086	-0,054
-652,072	-33,504	-0,094	-0,038
-651,057	-82,909	-0,166	-0,039
-650,043	583,939	0,048	0,087
-649,028	-200,000	0,018	-0,151
-648,014	37,916	-0,008	0,005
-646,999	86,286	-0,099	0,079
-645,984	41,541	-0,074	0,048
-644,970	692,474	-0,032	0,062
-643,955	166,885	-0,115	-0,119
-642,941	-140,476	-0,016	0,001
-641,926	-12,035	-0,092	-0,044
-640,911	-200,000	0,008	-0,054
-639,897	800,000	0,030	0,091
-638,882	800,000	0,035	0,102
-637,868	-105,779	-0,060	0,010
-636,853	-200,000	-0,014	-0,071
-635,838	59,879	-0,080	-0,057
-634,824	187,295	-0,065	-0,071
-633,809	-200,000	0,001	0,077
-632,795	63,494	0,028	-0,021
-631,780	239,330	0,039	0,047
-630,765	-200,000	0,018	0,111
-629,751	279,979	-0,089	-0,116
-628,736	55,790	0,121	-0,085
-627,722	-200,000	0,011	0,081
-626,707	-21,400	0,136	-0,060
-625,692	-139,580	-0,081	0,006
-624,678	161,821	-0,016	0,017
-623,663	-200,000	-0,146	0,000
-622,649	800,000	0,022	0,064
-621,634	-17,632	-0,112	-0,051
-620,619	107,541	-0,036	-0,031
-619,605	64,114	-0,029	0,021
-618,590	800,000	-0,010	0,026
-617,576	800,000	0,032	-0,066
-616,561	252,846	-0,050	0,062
-615,546	13,946	-0,079	0,044
-614,532	-75,925	0,127	-0,032
-613,517	-52,772	-0,148	-0,049
-612,503	-148,259	0,041	-0,002
-611,488	524,993	0,041	0,070
-610,474	-75,506	0,125	-0,032
-609,459	90,769	0,094	-0,076
-608,444	-97,144	-0,126	-0,024
-607,430	-200,000	-0,004	-0,081
-606,415	-50,867	-0,093	-0,031
-605,401	-95,664	0,178	0,034
-604,386	-200,000	0,001	0,058
-603,371	-29,299	0,090	0,037
-602,357	750,469	0,021	0,040
-601,342	-126,662	0,163	0,017
-600,328	180,277	-0,040	-0,043
-599,313	-200,000	-0,041	-0,168
-598,298	-34,029	-0,092	-0,036
-597,284	-200,000	0,014	-0,081
-596,269	-200,000	-0,025	0,114
-595,255	-200,000	0,009	-0,056
-594,240	770,369	-0,023	-0,046
-593,225	-200,000	0,008	-0,099
-592,211	-200,000	-0,043	-0,147
-591,196	484,698	-0,015	-0,025
-590,182	800,000	-0,032	-0,097
-589,167	84,387	-0,116	0,091
-588,152	-55,305	0,031	0,010
-587,138	515,555	0,072	-0,122
-586,123	-12,895	-0,138	-0,065
-585,109	-200,000	-0,019	-0,143
-584,094	315,309	0,093	-0,127
-583,079	-96,708	0,057	-0,011
-582,065	62,322	0,067	-0,048
-581,050	192,867	0,080	0,088
-580,036	-96,388	-0,061	0,012
-579,021	2,516	-0,110	-0,058
-578,006	-131,188	-0,023	0,002
-576,992	-200,000	-0,021	-0,106
-575,977	65,965	0,096	0,070
-574,963	800,000	-0,059	0,155
-573,948	212,452	-0,041	0,046
-572,934	800,000	-0,023	0,048
-571,919	143,480	0,072	-0,070
-570,904	-200,000	0,005	-0,079
-569,890	-14,325	0,122	0,056
-568,875	-118,426	-0,083	0,011
-567,861	170,403	0,095	0,098
-566,846	41,468	0,030	-0,019
-565,831	-94,270	0,107	-0,021
-564,817	-148,334	0,174	0,010
-563,802	630,418	0,028	-0,052
-562,788	-35,473	0,017	0,007
-561,773	148,634	-0,058	0,057
-560,758	-40,760	0,045	0,017
-559,744	-94,716	-0,091	0,018
-558,729	800,000	0,024	0,061
-557,715	89,401	-0,118	0,095
-556,700	-46,365	-0,085	-0,030
-555,685	270,146	-0,045	-0,057
-554,671	-200,000	0,007	-0,079
-553,656	63,213	0,076	0,055
-552,642	-173,685	0,081	-0,002
-551,627	30,951	-0,170	0,105
-550,612	-200,000	-0,024	-0,092
-549,598	-200,000	-0,029	0,149
-548,583	-1,823	0,022	0,011
-547,569	-77,807	0,110	0,027
-546,554	206,999	-0,044	0,049
-545,539	-74,580	0,145	0,037
-544,525	-200,000	0,006	0,065
-543,510	-9,555	-0,073	-0,035
-542,496	800,000	0,021	0,052
-541,481	47,159	0,053	-0,036
-540,466	-200,000	0,027	0,101
-539,452	-200,000	0,043	0,155
-538,437	513,039	-0,038	-0,065
-537,423	315,328	0,011	-0,015
-536,408	-200,000	0,050	-0,182
-535,393	-125,587	-0,133	0,014
-534,379	185,340	0,036	-0,038
-533,364	71,433	-0,104	0,078
-532,350	800,000	0,020	0,063
-531,335	655,659	-0,047	0,087
-530,321	179,392	0,103	0,109
-529,306	774,299	-0,060	-0,118
-528,291	800,000	-0,026	-0,066
-527,277	-200,000	-0,022	0,081
-526,262	787,815	-0,038	0,076
-525,248	-190,656	0,058	-0,000
-524,233	55,616	0,115	-0,080
-523,218	-200,000	-0,019	0,090
-522,204	-200,000	0,004	-0,031
-521,189	101,071	-0,126	0,105
-520,175	800,000	-0,043	-0,088
-519,160	-200,000	-0,007	-0,081
-518,145	-187,883	-0,145	0,001
-517,131	137,547	0,033	0,031
-516,116	800,000	0,054	0,124
-515,102	170,103	-0,031	0,032
-514,087	-200,000	0,014	0,081
-513,072	-4,978	0,032	-0,016
-512,058	381,765	0,040	-0,060
-511,043	655,299	0,061	0,114
-510,029	118,144	-0,067	0,059
-509,014	230,456	0,059	0,070
-507,999	477,895	-0,054	0,088
-506,985	9,220	-0,098	-0,053
-505,970	800,000	-0,062	-0,124
-504,956	20,495	0,038	-0,022
-503,941	-30,545	-0,125	0,051
-502,926	164,058	0,047	0,048
-501,912	-200,000	-0,016	0,075
-500,897	-172,464	0,068	-0,002
-499,883	-102,839	-0,044	-0,008
-498,868	-43,718	0,056	-0,020
-497,853	-4,335	0,038	0,019
-496,839	470,322	0,040	0,065
-495,824	33,738	-0,046	0,029
-494,810	379,724	0,046	-0,067
-493,795	87,318	-0,028	0,022
-492,781	109,157	0,031	-0,026
-491,766	247,660	0,029	0,035
-490,751	471,236	-0,075	-0,122
-489,737	800,000	-0,018	-0,051
-488,722	-200,000	0,003	0,042
-487,708	-179,745	0,062	-0,001
-486,693	170,381	0,040	-0,042
-485,678	-50,377	0,017	-0,006
-484,664	-200,000	-0,013	-0,061
-483,649	-200,000	0,013	-0,085
-482,635	-109,671	-0,046	-0,007
-481,620	38,091	-0,066	0,042
-480,605	-200,000	-0,005	0,081
-479,591	-200,000	-0,056	0,192
-478,576	292,414	-0,142	0,186
-477,562	308,317	-0,111	0,149
-476,547	94,073	-0,139	-0,113
-475,532	64,220	0,014	-0,010
-474,518	-200,000	0,014	-0,069
-473,503	-135,169	0,157	-0,013
-472,489	44,461	-0,072	-0,048
-471,474	-97,267	0,104	0,019
-470,459	-166,897	-0,134	0,004
-469,445	-26,477	0,124	0,052
-468,430	261,288	-0,064	-0,080
-467,416	-200,000	-0,007	0,064
-466,401	-12,439	0,131	0,061
-465,386	800,000	0,037	0,109
-464,372	299,851	0,032	-0,043
-463,357	-5,704	-0,127	-0,062
-462,343	313,235	-0,016	-0,021
-461,328	-200,000	-0,015	-0,114
-460,313	362,150	0,113	0,163
-459,299	146,700	0,081	0,078
-458,284	87,515	0,103	-0,082
-457,270	-200,000	0,004	0,171
-456,255	-200,000	-0,010	0,034
-455,241	643,651	-0,024	-0,045
-454,226	-61,807	0,126	-0,038
-453,211	86,250	-0,106	0,084
-452,197	-200,000	-0,022	0,200
-451,182	-136,281	0,135	0,011
-450,168	304,932	0,077	-0,103
-449,153	-200,000	-0,004	-0,045
-448,138	-200,000	-0,015	-0,093
-447,124	800,000	0,006	-0,017
-446,109	-11,066	-0,017	0,008
-445,095	335,314	-0,074	0,103
-444,080	-119,918	0,112	-0,014
-443,065	103,838	-0,059	0,050
-442,051	-200,000	-0,023	0,173
-441,036	-113,070	-0,057	0,008
-440,022	162,275	-0,119	-0,120
-439,007	-200,000	0,002	0,088
-437,992	-200,000	-0,027	-0,118
-436,978	-42,480	0,164	0,060
-435,963	428,667	-0,138	0,214
-434,949	191,737	0,032	-0,035
-433,934	-94,254	-0,144	-0,028
-432,919	775,985	0,023	-0,045
-431,905	-200,000	-0,012	0,069
-430,890	39,488	-0,078	0,050
-429,876	-93,871	-0,078	-0,015
-428,861	-67,334	0,024	0,007
-427,846	800,000	-0,031	0,082
-426,832	-200,000	-0,004	0,033
-425,817	-200,000	-0,014	-0,152
-424,803	-76,023	-0,025	-0,006
-423,788	-200,000	-0,030	0,096
-422,773	-200,000	0,017	-0,158
-421,759	11,164	-0,047	-0,025
-420,744	-109,823	0,080	0,012
-419,730	-61,803	-0,086	0,026
-418,715	-200,000	-0,003	0,029
-417,701	-132,061	0,028	0,003
-416,686	-200,000	-0,004	-0,090
-415,671	509,756	0,016	0,026
-414,657	50,123	0,146	0,098
-413,642	-200,000	0,020	0,095
-412,628	87,654	-0,014	-0,011
-411,613	435,551	-0,035	-0,055
-410,598	-13,219	0,099	-0,046
-409,584	-200,000	-0,020	0,070
-408,569	800,000	-0,041	-0,082
-407,555	-200,000	0,028	0,201
-406,540	406,701	0,049	-0,074
-405,525	-200,000	0,014	-0,113
-404,511	508,061	-0,024	-0,039
-403,496	-43,133	-0,079	0,029
-402,482	28,545	0,149	0,090
-401,467	568,985	-0,023	0,041
-400,452	-7,057	0,164	0,080
-399,438	61,288	0,115	-0,082
-398,423	-101,885	0,013	0,002
-397,409	-200,000	0,004	-0,094
-396,394	436,755	-0,045	-0,070
-395,379	125,118	0,060	0,054
-394,365	-76,451	0,154	-0,039
-393,350	152,009	0,073	0,072
-392,336	82,327	0,043	0,033
-391,321	28,080	-0,047	0,028
-390,306	143,522	0,016	0,016
-389,292	56,913	-0,030	0,021
-388,277	624,784	0,030	0,055
-387,263	-200,000	-0,043	-0,204
-386,248	-200,000	-0,002	0,020
-385,233	475,324	-0,087	-0,141
-384,219	318,763	0,022	-0,030
-383,204	36,043	-0,057	-0,036
-382,190	-165,028	-0,058	-0,002
-381,175	-200,000	-0,000	-0,041
-380,160	-31,305	0,028	0,011
-379,146	-70,708	-0,049	-0,013
-378,131	576,884	0,027	0,047
-377,117	-137,478	-0,084	0,007
-376,102	288,111	0,023	-0,029
-375,088	-3,897	-0,110	-0,055
-374,073	-200,000	-0,011	-0,073
-373,058	-200,000	0,008	-0,146
-372,044	800,000	0,016	0,045
-371,029	-58,923	0,101	0,031
-370,015	137,878	-0,091	0,085
-369,000	25,188	0,079	0,047
-367,985	36,175	-0,049	-0,031
-366,971	217,665	-0,108	0,123
-365,956	-191,196	0,094	0,001
-364,942	-200,000	0,010	0,037
-363,927	122,458	-0,075	-0,067
-362,912	-200,000	0,007	-0,105
-361,898	10,385	-0,050	0,027
-360,883	-4,932	0,048	0,024
-359,869	-200,000	0,024	-0,092
-358,854	100,374	0,061	0,051
-357,839	627,031	-0,053	-0,097
-356,825	453,004	0,031	0,050
-355,810	-200,000	0,042	-0,167
-354,796	-200,000	0,016	-0,075
-353,781	179,813	-0,023	-0,024
-352,766	-200,000	-0,011	-0,048
-351,752	-200,000	0,004	0,082
-350,737	-200,000	0,010	-0,043
-349,723	-114,110	-0,070	0,010
-348,708	-200,000	0,019	0,074
-347,693	303,648	-0,069	-0,092
-346,679	-200,000	-0,021	0,091
-345,664	16,561	0,024	0,014
-344,650	148,851	0,066	-0,064
-343,635	-13,274	-0,043	0,020
-342,620	-200,000	0,008	-0,066
-341,606	-200,000	-0,006	0,150
-340,591	-200,000	-0,008	-0,101
-339,577	16,151	0,026	-0,015
-338,562	-22,741	-0,035	0,015
-337,548	-84,614	-0,118	-0,026
-336,533	149,103	0,056	0,055
-335,518	-71,444	0,121	0,032
-334,504	-38,424	-0,101	0,038
-333,489	80,258	0,080	-0,062
-332,475	24,777	-0,145	0,086
-331,460	298,947	0,029	-0,039
-330,445	57,540	-0,196	-0,137
-329,431	-103,688	0,073	0,012
-328,416	503,838	0,060	0,100
-327,402	-32,795	-0,026	0,010
-326,387	-116,107	0,021	-0,003
-325,372	-200,000	-0,043	-0,139
-324,358	-3,927	-0,149	0,074
-323,343	427,096	-0,078	0,121
-322,329	32,421	-0,049	0,030
-321,314	-121,189	-0,036	-0,004
-320,299	-200,000	0,014	-0,072
-319,285	800,000	0,011	-0,032
-318,270	100,813	0,084	-0,070
-317,256	-200,000	-0,007	-0,104
-316,241	49,556	0,049	-0,033
-315,226	16,534	0,021	-0,012
-314,212	-38,913	0,059	0,022
-313,197	-200,000	0,023	-0,074
-312,183	189,393	0,074	0,079
-311,168	-30,159	-0,116	0,047
-310,153	-151,930	-0,139	-0,007
-309,139	-200,000	-0,049	-0,207
-308,124	-200,000	-0,035	-0,185
-307,110	268,087	0,038	-0,048
-306,095	30,852	-0,064	-0,039
-305,080	-175,846	0,120	-0,002
-304,066	-86,809	0,156	-0,034
-303,051	-140,793	-0,059	-0,004
-302,037	800,000	0,051	-0,135
-301,022	202,556	-0,054	-0,060
-300,008	-200,000	0,001	0,075
-298,993	117,133	0,072	0,064
-297,978	33,427	-0,118	0,073
-296,964	-47,682	-0,018	0,006
-295,949	-110,289	0,148	0,022
-294,935	726,071	0,006	-0,012
-293,920	800,000	-0,024	-0,067
-292,905	-97,401	0,160	0,030
-291,891	-59,825	-0,104	0,032
-290,876	-41,465	0,064	0,023
-289,862	-86,579	-0,179	-0,039
-288,847	-148,942	-0,103	0,006
-287,832	-200,000	0,023	-0,147
-286,818	-200,000	0,002	0,016
-285,803	298,917	0,035	0,046
-284,789	-200,000	0,001	0,058
-283,774	31,729	-0,088	0,054
-282,759	-7,300	-0,084	0,041
-281,745	800,000	-0,018	0,055
-280,730	376,029	-0,091	-0,133
-279,716	-178,010	0,052	-0,001
-278,701	132,668	0,073	0,067
-277,686	117,615	-0,052	0,046
-276,672	194,426	0,081	0,088
-275,657	-200,000	0,007	0,164
-274,643	-26,683	-0,059	-0,024
-273,628	-200,000	0,012	0,058
-272,613	-200,000	-0,016	-0,066
-271,599	389,944	-0,084	-0,124
-270,584	794,385	0,007	0,014
-269,570	88,680	0,139	0,110
-268,555	226,185	-0,122	0,142
-267,540	-88,632	0,098	0,021
-266,526	56,985	-0,169	-0,117
-265,511	-200,000	0,004	0,080
-264,497	800,000	0,050	0,138
-263,482	-200,000	-0,036	0,123
-262,467	-119,700	0,021	0,003
-261,453	-200,000	0,008	-0,054
-260,438	-5,479	-0,171	-0,083
-259,424	-30,063	0,071	-0,029
-258,409	800,000	-0,048	-0,138
-257,395	-200,000	0,007	0,119
-256,380	-200,000	-0,004	0,022
-255,365	50,980	0,069	-0,047
-254,351	-200,000	0,018	0,100
-253,336	132,813	-0,075	0,069
-252,322	367,609	-0,058	0,084
-251,307	292,543	0,073	-0,095
-250,292	-21,152	0,066	-0,029
-249,278	800,000	0,061	-0,122
-248,263	12,819	0,229	0,126
-247,249	-200,000	-0,015	0,080
-246,234	-200,000	-0,011	0,086
-245,219	12,763	-0,084	-0,046
-244,205	193,281	-0,060	0,064
-243,190	800,000	0,008	-0,023
-242,176	48,505	-0,063	0,042
-241,161	-200,000	0,039	0,000
-240,146	49,083	-0,118	-0,079
-239,132	-154,813	0,040	-0,002
-238,117	15,973	-0,032	0,018
-237,103	-132,041	-0,067	-0,006
-236,088	28,102	0,060	-0,036
-235,073	197,788	0,090	0,098
-234,059	69,111	-0,041	0,030
-233,044	478,983	-0,082	-0,134
-232,030	-68,837	-0,136	-0,037
-231,015	800,000	-0,068	-0,159
-230,000	-154,655	-0,053	-0,002
-228,986	800,000	0,036	-0,079
-227,971	800,000	0,050	0,108
-226,957	-52,677	0,036	0,012
-225,942	800,000	-0,046	0,098
-224,927	528,481	0,052	-0,088
-223,913	-200,000	0,005	-0,091
-222,898	-92,238	-0,027	0,005
-221,884	208,359	0,089	-0,100
-220,869	-54,373	0,114	0,037
-219,855	30,973	0,210	0,128
-218,840	-6,607	0,121	-0,059
-217,825	30,940	-0,085	-0,052
-216,811	69,499	0,086	-0,063
-215,796	181,326	-0,046	-0,048
-214,782	-107,366	0,047	-0,007
-213,767	12,642	-0,109	0,060
-212,752	-200,000	0,010	0,144
-211,738	-6,453	0,042	-0,020
-210,723	800,000	0,022	-0,046
-209,709	125,947	-0,037	0,033
-208,694	65,578	-0,087	-0,063
-207,679	-200,000	-0,019	-0,095
-206,665	-32,967	0,147	-0,058
-205,650	232,919	0,049	0,057
-204,636	-36,105	0,071	-0,027
-203,621	9,949	0,147	0,079
-202,606	-200,000	-0,026	0,097
-201,592	122,703	-0,032	-0,028
-200,577	-81,422	0,063	0,015
-199,563	-102,175	0,077	-0,013
-198,548	-163,125	0,071	0,002
-197,533	-53,891	0,063	-0,020
-196,519	108,025	0,099	-0,084
-195,504	800,000	0,039	-0,114
-194,490	-158,289	-0,064	0,003
-193,475	42,043	-0,059	-0,038
-192,460	800,000	-0,047	-0,142
-191,446	-200,000	0,005	-0,054
-190,431	-86,610	0,037	-0,008
-189,417	-200,000	0,011	0,116
-188,402	-100,020	-0,073	0,013
-187,387	7,840	-0,042	-0,022
-186,373	420,165	0,043	0,066
-185,358	-200,000	-0,009	0,095
-184,344	171,844	0,069	0,070
-183,329	237,719	0,017	-0,020
-182,315	10,051	0,138	0,074
-181,300	800,000	-0,033	0,075
-180,285	-157,836	0,115	-0,005
-179,271	-200,000	-0,044	-0,180
-178,256	-136,590	-0,076	0,006
-177,242	-116,830	0,150	0,019
-176,227	49,933	0,062	0,041
-175,212	-128,852	0,092	-0,009
-174,198	800,000	-0,047	0,110
-173,183	21,330	0,133	-0,077
-172,169	800,000	-0,051	-0,141
-171,154	-101,059	-0,131	-0,023
-170,139	-66,440	0,077	-0,021
-169,125	169,038	0,066	0,067
-168,110	-200,000	-0,005	-0,019
-167,096	629,448	0,051	0,093
-166,081	-200,000	-0,005	-0,023
-165,066	-200,000	-0,065	-0,224
-164,052	-200,000	0,033	-0,182
-163,037	-200,000	-0,030	-0,146
-162,023	20,997	0,164	0,094
-161,008	382,236	-0,064	0,093
-159,993	169,175	-0,072	0,073
-158,979	800,000	0,062	0,171
-157,964	267,328	-0,142	-0,177
-156,950	-200,000	-0,016	0,053
-155,935	-117,837	-0,040	-0,005
-154,920	-163,681	-0,024	0,001
-153,906	200,679	0,096	0,105
-152,891	715,750	0,031	0,059
-151,877	-16,451	-0,058	-0,026
-150,862	174,198	-0,095	-0,098
-149,847	-164,617	-0,164	-0,005
-148,833	-137,930	0,016	0,001
-147,818	-58,534	0,058	-0,018
-146,804	800,000	-0,008	-0,022
-145,789	800,000	0,018	0,054
-144,775	41,104	-0,178	0,114
-143,760	-71,776	-0,096	0,025
-142,745	44,066	0,093	-0,060
-141,731	-26,178	-0,078	-0,033
-140,716	-70,800	0,148	0,039
-139,702	-83,500	-0,070	-0,016
-138,687	-108,523	0,157	0,024
-137,672	-47,260	-0,017	0,006
-136,658	99,849	-0,046	0,038
-135,643	22,443	-0,025	-0,015
-134,629	-200,000	-0,003	-0,026
-133,614	459,079	-0,048	0,075
-132,599	241,622	0,085	-0,101
-131,585	-200,000	-0,007	-0,054
-130,570	-116,912	-0,059	0,008
-129,556	-200,000	-0,004	0,089
-128,541	249,063	-0,117	-0,141
-127,526	530,904	-0,050	-0,083
-126,512	-140,746	0,063	0,005
-125,497	274,260	-0,049	0,062
-124,483	-200,000	-0,017	0,153
-123,468	98,923	0,029	-0,024
-122,453	-132,282	-0,102	0,009
-121,439	583,389	0,041	-0,071
-120,424	157,863	0,049	-0,048
-119,410	335,578	-0,016	0,022
-118,395	-13,836	0,175	-0,080
-117,380	95,997	0,006	0,005
-116,366	-122,632	-0,082	-0,009
-115,351	630,463	0,022	-0,039
-114,337	288,026	-0,058	-0,074
-113,322	320,090	-0,039	0,053
-112,307	106,705	0,036	0,030
-111,293	-200,000	0,044	0,162
-110,278	-26,011	-0,071	-0,030
-109,264	402,093	-0,030	0,045
-108,249	19,003	0,063	0,036
-107,234	-200,000	-0,023	-0,129
-106,220	103,981	-0,012	0,010
-105,205	-19,320	-0,055	0,024
-104,191	-143,300	-0,124	-0,008
-103,176	61,313	0,119	0,084
-102,162	-200,000	-0,026	0,132
-101,147	53,111	0,018	0,012
-100,132	-143,614	-0,050	-0,003
-99,118	166,468	0,032	0,033
-98,103	-16,843	-0,069	0,031
-97,089	661,988	0,026	0,048
-96,074	-46,215	-0,135	-0,047
-95,059	800,000	0,005	0,016
-94,045	461,820	0,023	-0,037
-93,030	-135,904	0,029	-0,002
-92,016	-161,502	-0,084	-0,003
-91,001	-200,000	-0,014	0,065
-89,986	102,463	0,066	0,055
-88,972	50,200	0,111	0,074
-87,957	258,804	-0,082	-0,100
-86,943	800,000	-0,008	-0,021
-85,928	89,437	-0,064	0,051
-84,913	12,149	0,156	0,085
-83,899	800,000	0,064	0,129
-82,884	42,958	-0,053	-0,034
-81,870	800,000	-0,053	0,131
-80,855	-200,000	-0,019	0,241
-79,840	85,301	-0,075	0,058
-78,826	-200,000	-0,015	-0,143
-77,811	-54,144	-0,041	-0,013
-76,797	515,066	0,049	0,081
-75,782	26,745	0,058	-0,034
-74,767	256,361	-0,015	-0,019
-73,753	172,633	0,072	-0,073
-72,738	-82,395	-0,109	0,025
-71,724	-200,000	-0,012	-0,077
-70,709	-23,699	0,071	0,030
-69,694	-105,404	0,056	0,009
-68,680	-145,820	-0,021	-0,001
-67,665	-108,796	0,134	-0,020
-66,651	252,538	0,084	0,102
-65,636	267,304	-0,076	0,094
-64,622	-119,731	0,071	-0,009
-63,607	800,000	-0,059	-0,154
-62,592	800,000	0,090	-0,221
-61,578	-200,000	0,002	-0,103
-60,563	46,588	0,077	0,051
-59,549	800,000	-0,074	0,192
-58,534	-1,466	-1,636	-0,814
-57,519	480,147	-1,314	-2,118
-56,505	-200,000	-0,483	-4,598
-55,490	296,902	0,980	1,276
-54,476	800,000	4,851	11,334
-53,461	-200,000	19,374	321,979
-52,446	-200,000	743,189	2333,660
-51,432	570,455	1656,635	2865,112
-50,417	77,848	1671,375	1259,802
-49,403	21,066	1544,639	884,782
-48,388	14,954	1467,190	810,672
-47,373	18,036	1457,396	820,131
-46,359	16,646	1447,137	807,655
-45,344	13,201	1442,459	788,504
-44,330	13,167	1440,497	787,238
-43,315	13,150	1439,010	786,311
-42,300	13,166	1437,338	785,445
-41,286	13,186	1435,865	784,701
-40,271	13,155	1434,513	783,782
-39,257	13,092	1433,433	782,861
-38,242	13,193	1431,869	782,456
-37,227	13,206	1430,715	781,859
-36,213	13,223	1429,443	781,214
-35,198	13,207	1428,224	780,440
-34,184	13,226	1427,356	780,026
-33,169	13,202	1425,866	779,067
-32,154	13,202	1424,897	778,504
-31,140	13,198	1423,673	777,786
-30,125	13,266	1422,382	777,374
-29,111	13,240	1421,295	776,623
-28,096	13,219	1420,235	775,916
-27,082	13,162	1419,312	775,112
-26,067	13,155	1418,038	774,351
-25,052	13,169	1416,861	773,743
-24,038	13,132	1416,091	773,119
-23,023	13,101	1415,074	772,387
-22,009	13,135	1414,017	771,939
-20,994	13,151	1412,889	771,367
-19,979	13,094	1412,271	770,731
-18,965	13,070	1411,334	770,079
-17,950	13,088	1410,040	769,427
-16,936	13,066	1409,480	768,988
-15,921	13,080	1408,298	768,376
-14,906	13,033	1407,517	767,701
-13,892	13,081	1406,326	767,244
-12,877	13,079	1405,750	766,891
-11,863	13,054	1404,744	766,195
-10,848	13,078	1403,728	765,720
-9,833	12,964	1403,121	764,828
-8,819	12,981	1402,191	764,370
-7,804	12,943	1401,316	763,689
-6,790	12,956	1400,158	763,085
-5,775	12,929	1399,139	762,375
-4,760	12,968	1398,032	761,923
-3,746	12,950	1397,089	761,296
-2,731	12,897	1396,637	760,770
-1,717	12,917	1395,439	760,182
-0,702	12,923	1393,747	759,257
0,313	16,856	1309,885	731,768
1,327	33,282	702,760	430,506
2,342	51,527	122,984	82,554
3,356	2,377	16,603	8,471
4,371	-4,593	3,323	1,617
5,386	-51,121	0,515	0,170
6,400	-200,000	0,071	0,246
7,415	-32,589	-0,209	-0,082
8,429	-170,556	-0,287	0,007
9,444	58,281	-0,413	-0,286
10,459	49,888	-0,293	-0,195
11,473	-0,592	-0,291	-0,145
12,488	-12,748	-0,301	-0,138
13,502	48,664	-0,317	-0,210
14,517	24,364	-0,243	-0,142
15,531	51,907	-0,428	-0,287
16,546	-3,558	-0,353	-0,173
17,561	64,580	-0,441	-0,313
18,575	-103,284	-0,341	-0,056
19,590	88,170	-0,239	-0,188
20,604	-19,726	-0,242	-0,105
21,619	1,769	-0,509	-0,258
22,634	262,410	-0,391	-0,480
23,648	49,098	-0,441	-0,292
24,663	57,181	-0,375	-0,258
25,677	74,068	-0,290	-0,214
26,692	259,189	-0,243	-0,296
27,707	602,962	-0,189	-0,333
28,721	74,123	-0,331	-0,245
29,736	-8,378	-0,389	-0,184
30,750	223,502	-0,415	-0,473
31,765	117,002	-0,505	-0,438
32,780	5,235	-0,237	-0,123
33,794	-69,612	-0,293	-0,079
34,809	-1,801	-0,355	-0,176
35,823	101,319	-0,353	-0,290
36,838	121,467	-0,354	-0,311
37,853	8,214	-0,425	-0,225
38,867	46,697	-0,408	-0,267
39,882	152,664	-0,256	-0,247
40,896	135,729	-0,318	-0,292
41,911	27,859	-0,410	-0,243
42,926	138,139	-0,371	-0,343
43,940	-9,068	-0,458	-0,215
44,955	154,655	-0,413	-0,400
45,969	42,834	-0,315	-0,202
46,984	24,973	-0,341	-0,199
47,999	69,993	-0,256	-0,186
49,013	81,258	-0,311	-0,237
50,028	17,442	-0,306	-0,171
51,042	-26,055	-0,387	-0,160
52,057	-6,762	-0,275	-0,131
53,071	379,009	-0,252	-0,364
54,086	178,346	-0,286	-0,295
55,101	-40,486	-0,389	-0,142
56,115	-31,906	-0,372	-0,146
57,130	521,130	-0,214	-0,355
58,144	68,271	-0,289	-0,208
59,159	170,401	-0,417	-0,421
60,174	103,173	-0,375	-0,310
61,188	112,839	-0,334	-0,285
62,203	-5,027	-0,250	-0,121
63,217	8,252	-0,190	-0,100
64,232	-47,067	-0,316	-0,108
65,247	99,686	-0,359	-0,292
66,261	36,699	-0,389	-0,241
67,276	188,121	-0,331	-0,348
68,290	163,849	-0,259	-0,256
69,305	102,453	-0,265	-0,218
70,320	139,712	-0,204	-0,189
71,334	-171,352	-0,258	0,006
72,349	-6,679	-0,271	-0,129
73,363	103,017	-0,260	-0,214
74,378	35,123	-0,299	-0,184
75,393	186,436	-0,303	-0,318
76,407	42,791	-0,280	-0,179
77,422	167,045	-0,251	-0,250
78,436	104,957	-0,277	-0,230
79,451	-59,480	-0,391	-0,117
80,466	-13,359	-0,255	-0,116
81,480	52,505	-0,221	-0,148
82,495	113,723	-0,267	-0,228
83,509	-9,133	-0,349	-0,163
84,524	105,374	-0,156	-0,129
85,539	-44,133	-0,301	-0,105
86,553	6,621	-0,207	-0,108
87,568	40,740	-0,350	-0,221
88,582	319,888	-0,196	-0,262
89,597	129,256	-0,213	-0,191
90,611	51,138	-0,228	-0,152
91,626	21,089	-0,197	-0,112
92,641	-68,611	-0,216	-0,058
93,655	136,831	-0,234	-0,215
94,670	39,523	-0,335	-0,210
95,684	83,411	-0,281	-0,214
96,699	172,654	-0,184	-0,186
97,714	211,864	-0,227	-0,251
98,728	55,397	-0,256	-0,173
99,743	-76,278	-0,354	-0,087
100,757	57,949	-0,245	-0,168
101,772	179,603	-0,256	-0,263
102,787	273,278	-0,225	-0,279
103,801	-17,757	-0,465	-0,204
104,816	-39,486	-0,297	-0,109
105,830	-0,999	-0,361	-0,178
106,845	140,324	-0,238	-0,221
107,860	91,329	-0,263	-0,207
108,874	-13,418	-0,177	-0,080
109,889	-5,830	-0,232	-0,111
110,903	19,787	-0,335	-0,188
111,918	140,478	-0,297	-0,275
112,933	111,040	-0,256	-0,216
113,947	-131,758	-0,160	-0,014
114,962	36,238	-0,234	-0,144
115,976	138,942	-0,318	-0,292
116,991	259,054	-0,284	-0,344
118,006	79,119	-0,341	-0,256
119,020	52,121	-0,292	-0,195
120,035	-109,524	-0,275	-0,040
121,049	321,836	-0,151	-0,202
122,064	34,662	-0,216	-0,132
123,079	35,697	-0,228	-0,140
124,093	-190,897	-0,347	0,002
125,108	-98,905	-0,379	-0,067
126,122	36,967	-0,251	-0,155
127,137	106,629	-0,164	-0,136
128,151	360,463	-0,137	-0,192
129,166	109,421	-0,306	-0,256
130,181	220,527	-0,158	-0,178
131,195	48,984	-0,318	-0,208
132,210	167,761	-0,211	-0,210
133,224	407,253	-0,178	-0,264
134,239	13,513	-0,233	-0,126
135,254	28,101	-0,276	-0,163
136,268	-22,718	-0,261	-0,110
137,283	-105,950	-0,298	-0,046
138,297	-84,988	-0,312	-0,068
139,312	-7,664	-0,313	-0,147
140,327	124,238	-0,229	-0,201
141,341	70,260	-0,161	-0,116
142,356	800,000	-0,074	-0,161
143,370	135,036	-0,237	-0,215
144,385	414,720	-0,143	-0,214
145,400	-43,572	-0,300	-0,105
146,414	113,974	-0,267	-0,227
147,429	349,718	-0,267	-0,370
148,443	800,000	-0,107	-0,231
149,458	258,373	-0,182	-0,220
150,473	128,168	-0,223	-0,198
151,487	-64,028	-0,250	-0,071
152,502	-40,269	-0,261	-0,094
153,516	36,057	-0,224	-0,138
154,531	132,740	-0,356	-0,321
155,546	-31,743	-0,356	-0,139
156,560	166,065	-0,233	-0,230
157,575	-23,795	-0,209	-0,087
158,589	473,720	-0,171	-0,270
159,604	65,636	-0,274	-0,194
160,619	248,793	-0,202	-0,239
161,633	172,200	-0,217	-0,218
162,648	131,403	-0,228	-0,204
163,662	84,097	-0,277	-0,211
164,677	-87,089	-0,228	-0,048
165,692	773,697	-0,110	-0,210
166,706	210,160	-0,214	-0,235
167,721	71,962	-0,239	-0,173
168,735	553,867	-0,207	-0,348
169,750	107,704	-0,175	-0,146
170,764	86,447	-0,266	-0,204
171,779	189,809	-0,183	-0,191
172,794	101,714	-0,152	-0,123
173,808	201,268	-0,166	-0,178
174,823	134,122	-0,178	-0,161
175,837	-27,063	-0,196	-0,079
176,852	241,168	-0,172	-0,201
177,867	136,845	-0,224	-0,204
178,881	8,681	-0,245	-0,128
179,896	52,520	-0,200	-0,133
180,910	58,283	-0,160	-0,109
181,925	47,170	-0,236	-0,153
182,940	152,043	-0,170	-0,161
183,954	467,459	-0,102	-0,161
184,969	37,861	-0,241	-0,149
185,983	-25,408	-0,211	-0,086
186,998	-15,465	-0,321	-0,142
188,013	136,970	-0,177	-0,161
189,027	-50,575	-0,306	-0,100
190,042	1,821	-0,247	-0,123
191,056	15,566	-0,232	-0,126
192,071	167,323	-0,117	-0,116
193,086	550,772	-0,101	-0,169
194,100	153,295	-0,174	-0,166
195,115	37,361	-0,192	-0,118
196,129	27,880	-0,155	-0,091
197,144	466,605	-0,164	-0,257
198,159	-32,214	-0,288	-0,111
199,173	85,902	-0,132	-0,101
200,188	-97,813	-0,167	-0,030
201,202	44,516	-0,135	-0,086
202,217	141,918	-0,241	-0,223
203,232	100,631	-0,226	-0,183
204,246	100,430	-0,220	-0,178
205,261	16,744	-0,160	-0,088
206,275	319,741	-0,236	-0,312
207,290	800,000	-0,077	-0,194
208,304	-58,144	-0,190	0,057
209,319	800,000	-0,092	-0,234
210,334	285,728	-0,150	-0,188
211,348	43,654	-0,309	-0,196
212,363	286,653	-0,246	-0,309
213,377	800,000	-0,087	-0,194
214,392	800,000	-0,074	-0,185
215,407	-95,411	-0,168	0,031
216,421	-96,483	-0,268	-0,049
217,436	285,056	-0,073	-0,092
218,450	242,546	-0,257	-0,299
219,465	-200,000	-0,067	-0,269
220,480	54,664	-0,156	-0,104
221,494	30,934	-0,134	-0,079
222,509	-89,593	-0,220	0,044
223,523	-155,006	-0,198	0,009
224,538	59,217	-0,188	-0,128
225,553	118,265	-0,227	-0,194
226,567	105,782	-0,247	-0,203
227,582	-19,449	-0,169	-0,072
228,596	-26,469	-0,138	-0,056
229,611	40,729	-0,194	-0,121
230,626	800,000	-0,054	-0,142
231,640	270,342	-0,139	-0,170
232,655	-107,998	-0,145	-0,022
233,669	-91,978	-0,161	-0,031
234,684	-139,231	-0,174	-0,013
235,699	-11,886	-0,155	-0,070
236,713	-83,649	-0,139	-0,031
237,728	448,675	-0,114	-0,174
238,742	131,584	-0,227	-0,203
239,757	-126,971	-0,123	-0,012
240,772	208,943	-0,114	-0,124
241,786	800,000	-0,052	-0,103
242,801	127,208	-0,006	-0,006
243,815	123,502	-0,180	-0,156
244,830	67,608	-0,171	-0,121
245,844	302,274	-0,121	-0,156
246,859	273,870	-0,217	-0,266
247,874	-37,079	-0,322	-0,119
248,888	-116,545	-0,145	-0,018
249,903	209,618	-0,172	-0,187
250,917	-8,283	-0,123	0,057
251,932	74,371	-0,272	-0,197
252,947	116,464	-0,256	-0,217
253,961	-85,104	-0,193	-0,042
254,976	287,356	-0,158	-0,198
255,990	800,000	-0,096	-0,260
257,005	-105,185	-0,087	-0,014
258,020	-92,180	-0,119	0,023
259,034	14,432	-0,177	-0,095
260,049	59,131	-0,119	-0,081
261,063	-74,937	-0,204	-0,050
262,078	338,027	-0,173	-0,234
263,093	236,577	-0,189	-0,216
264,107	140,028	-0,221	-0,202
265,122	-68,396	-0,087	-0,023
266,136	337,587	-0,128	-0,172
267,151	-69,470	-0,208	-0,055
268,166	-61,518	-0,274	-0,079
269,180	282,168	-0,155	-0,192
270,195	36,118	-0,265	-0,161
271,209	-27,631	-0,126	-0,051
272,224	280,706	-0,128	-0,159
273,239	70,515	-0,199	-0,142
274,253	96,536	-0,162	-0,128
275,268	292,499	-0,102	-0,129
276,282	-100,372	-0,233	-0,040
277,297	-138,112	-0,256	0,019
278,312	-200,000	-0,070	-0,232
279,326	419,961	-0,150	-0,222
280,341	574,510	-0,140	-0,237
281,355	130,458	-0,174	-0,154
282,370	-200,000	-0,040	-0,197
283,384	286,242	-0,146	-0,183
284,399	253,639	-0,159	-0,188
285,414	142,544	-0,109	-0,100
286,428	-50,341	-0,128	-0,042
287,443	254,785	-0,159	-0,188
288,457	3,207	-0,127	-0,063
289,472	-44,894	-0,256	-0,088
290,487	-125,081	-0,244	-0,025
291,501	-51,546	-0,218	-0,070
292,516	45,424	-0,160	-0,102
293,530	-115,582	-0,111	-0,014
294,545	116,645	-0,135	-0,114
295,560	-64,828	-0,088	-0,024
296,574	385,078	-0,062	-0,088
297,589	213,571	-0,140	-0,153
298,603	60,136	-0,164	-0,111
299,618	-150,128	-0,213	-0,011
300,633	-100,969	-0,115	-0,019
301,647	-72,995	-0,215	-0,054
302,662	32,775	-0,118	-0,070
303,676	-90,572	-0,142	0,028
304,691	-161,373	-0,096	0,003
305,706	264,003	-0,129	-0,154
306,720	92,547	-0,209	-0,163
307,735	-116,514	-0,206	-0,026
308,749	-150,729	-0,082	0,004
309,764	-167,356	-0,138	-0,004
310,779	737,928	-0,089	-0,165
311,793	-81,561	-0,251	0,056
312,808	52,431	-0,102	-0,067
313,822	91,621	-0,115	-0,089
314,837	286,931	-0,149	-0,185
315,852	1,649	-0,133	-0,066
316,866	-57,896	-0,109	-0,033
317,881	-126,717	-0,119	-0,012
318,895	-126,147	-0,300	0,031
319,910	-174,155	-0,092	-0,002
320,925	800,000	-0,082	-0,210
321,939	-200,000	-0,024	-0,164
322,954	-33,706	-0,109	0,041
323,968	291,218	-0,058	-0,072
324,983	227,139	-0,112	-0,125
325,997	800,000	-0,084	-0,166
327,012	800,000	-0,087	-0,176
328,027	539,689	-0,088	-0,145
329,041	44,627	-0,148	-0,094
330,056	-200,000	-0,053	-0,173
331,070	42,648	-0,155	-0,097
332,085	800,000	-0,036	-0,079
333,100	181,955	-0,114	-0,115
334,114	76,184	-0,176	-0,128
335,129	14,955	-0,113	-0,061
336,143	-4,324	-0,160	-0,076
337,158	-69,250	-0,253	-0,066
338,173	-51,179	-0,079	0,025
339,187	392,886	-0,011	0,016
340,202	-26,057	-0,094	-0,038
341,216	14,290	-0,139	-0,074
342,231	537,391	-0,113	-0,185
343,246	628,272	-0,053	-0,092
344,260	-158,146	-0,158	-0,006
345,275	800,000	-0,072	-0,190
346,289	80,762	-0,135	-0,100
347,304	-20,932	-0,297	-0,124
348,319	-29,981	-0,122	-0,047
349,333	-200,000	-0,062	-0,224
350,348	394,190	-0,153	-0,219
351,362	-172,241	-0,155	0,003
352,377	800,000	-0,061	-0,175
353,392	-45,845	-0,084	-0,028
354,406	-150,229	-0,178	0,009
355,421	208,781	1313,874	1412,005
356,435	160,656	1474,498	1412,483
