DTS Sentinel unit serial number:	SN410029Multiplexer serial number:	ORYXHardware model number:	OX2-SRSoftware version number:	ORYX F/W v4,00 Oryx Data Collector v3.7.2.0data status	okinstallation	B3 Nyhavnadifferential loss correction	single-endedforward channel	channel 1reverse channel	N/Adate	2023/11/28time	22:02:30forward acquisition time	300,00reverse acquisition time	0,00gamma	499,1914k internal	0,3212k external	0,3212temperature offset calibration	1,0000default loss term (dB/km)	0,3820temperature slope calibration	1,0000multiplexer offset coefficient	1,0000multiplexer slope coefficient	1,0000fibre end	0,00T internal ref (°C)	8,50T ext. ref 1 (°C)	-5,99T ext. ref 2 (°C)	-6,14length (m)	temperature (°C)	Stokes	anti-Stokes-744,400	237,373	-0,283	-0,340
-743,385	-200,000	-0,005	0,198
-742,371	4,359	-0,164	-0,087
-741,356	-200,000	0,074	0,411
-740,342	153,442	-0,172	-0,171
-739,327	-200,000	-0,017	0,186
-738,312	326,941	-0,279	-0,389
-737,298	-200,000	-0,060	0,202
-736,283	320,789	-0,156	-0,215
-735,269	-200,000	0,056	0,394
-734,254	-40,143	-0,247	-0,093
-733,239	340,859	-0,125	0,178
-732,225	800,000	-0,143	-0,309
-731,210	-200,000	0,005	0,044
-730,196	-124,340	0,092	-0,010
-729,181	-200,000	-0,007	0,064
-728,167	-114,464	-0,164	-0,023
-727,152	800,000	-0,062	-0,155
-726,137	-170,032	0,052	0,001
-725,123	800,000	-0,050	-0,137
-724,108	-73,753	-0,081	-0,021
-723,094	74,604	0,048	-0,036
-722,079	-200,000	0,001	-0,032
-721,064	115,227	0,117	-0,104
-720,050	-166,385	-0,185	0,006
-719,035	800,000	-0,032	0,076
-718,021	-200,000	-0,005	-0,020
-717,006	-15,927	-0,110	-0,050
-715,991	800,000	-0,045	-0,141
-714,977	-60,262	-0,104	-0,032
-713,962	24,950	0,100	0,060
-712,948	-200,000	0,012	0,079
-711,933	-200,000	0,035	-0,125
-710,918	4,939	0,147	-0,078
-709,904	-200,000	-0,002	-0,006
-708,889	-36,584	-0,044	-0,017
-707,875	254,401	0,066	-0,082
-706,860	-200,000	0,020	-0,086
-705,845	364,414	-0,043	0,062
-704,831	-200,000	-0,016	0,107
-703,816	-74,489	-0,030	0,008
-702,802	54,305	-0,120	-0,083
-701,787	-171,199	-0,109	0,003
-700,772	-84,945	-0,080	-0,018
-699,758	-5,961	-0,040	0,020
-698,743	-161,561	-0,038	-0,001
-697,729	-36,010	-0,027	-0,010
-696,714	667,921	0,036	-0,068
-695,699	364,370	-0,073	-0,107
-694,685	120,635	-0,040	0,036
-693,670	-200,000	0,014	-0,148
-692,656	-93,068	0,095	-0,019
-691,641	781,213	0,049	0,097
-690,627	-87,824	-0,130	0,028
-689,612	-11,545	0,094	0,045
-688,597	800,000	0,022	0,060
-687,583	-108,246	-0,133	-0,021
-686,568	-200,000	0,015	0,049
-685,554	-200,000	0,014	0,064
-684,539	-200,000	0,005	-0,024
-683,524	800,000	-0,014	0,043
-682,510	248,168	0,069	-0,085
-681,495	219,706	-0,103	-0,119
-680,481	-157,853	-0,134	0,006
-679,466	-200,000	-0,015	-0,136
-678,451	-61,145	-0,099	-0,030
-677,437	-200,000	0,002	0,042
-676,422	-200,000	0,034	0,136
-675,408	27,475	-0,092	0,056
-674,393	0,931	-0,042	-0,022
-673,378	5,346	-0,116	-0,062
-672,364	-102,281	-0,053	0,009
-671,349	-86,529	-0,108	-0,024
-670,335	61,811	0,064	-0,046
-669,320	133,176	-0,090	0,084
-668,305	-200,000	-0,077	0,252
-667,291	305,822	-0,020	0,027
-666,276	320,123	-0,049	0,067
-665,262	800,000	0,024	-0,050
-664,247	-66,579	0,048	0,014
-663,232	-43,301	0,083	-0,030
-662,218	-200,000	-0,016	0,067
-661,203	-112,241	0,081	-0,012
-660,189	332,922	-0,047	-0,066
-659,174	-87,770	0,056	0,012
-658,159	340,862	-0,065	0,092
-657,145	-200,000	-0,024	-0,093
-656,130	800,000	0,033	0,084
-655,116	182,839	-0,093	0,099
-654,101	-44,733	-0,107	-0,038
-653,086	-200,000	0,009	-0,084
-652,072	800,000	-0,018	-0,036
-651,057	-200,000	-0,016	-0,170
-650,043	308,907	0,087	-0,118
-649,028	-36,731	-0,059	-0,023
-648,014	-200,000	0,004	-0,018
-646,999	80,088	-0,079	0,061
-645,984	-200,000	-0,017	0,099
-644,970	174,430	-0,024	0,025
-643,955	33,990	-0,109	-0,068
-642,941	45,673	-0,118	0,079
-641,926	383,520	0,069	-0,102
-640,911	-200,000	-0,013	0,086
-639,897	-200,000	-0,025	0,138
-638,882	270,676	-0,102	-0,130
-637,868	439,631	-0,069	-0,109
-636,853	581,181	0,027	-0,047
-635,838	65,949	-0,089	-0,065
-634,824	-113,920	0,016	-0,002
-633,809	83,461	-0,117	-0,092
-632,795	541,056	-0,024	0,042
-631,780	15,383	0,066	-0,037
-630,765	-200,000	-0,001	-0,034
-629,751	70,658	-0,047	-0,035
-628,736	-53,486	-0,093	0,031
-627,722	-29,825	-0,094	-0,039
-626,707	150,321	-0,077	-0,075
-625,692	800,000	-0,053	0,163
-624,678	368,640	-0,046	-0,068
-623,663	-8,677	-0,163	-0,079
-622,649	85,317	0,103	0,082
-621,634	800,000	0,042	-0,093
-620,619	-66,939	-0,190	-0,054
-619,605	327,062	-0,025	0,034
-618,590	10,976	0,142	0,078
-617,576	-134,888	-0,085	0,007
-616,561	-200,000	-0,010	0,066
-615,546	800,000	-0,031	-0,095
-614,532	800,000	-0,102	-0,238
-613,517	-75,311	0,076	-0,019
-612,503	144,066	-0,095	-0,092
-611,488	-128,386	0,147	-0,015
-610,474	-200,000	-0,008	-0,091
-609,459	10,077	-0,166	-0,091
-608,444	283,386	-0,003	0,004
-607,430	-32,830	0,062	-0,025
-606,415	-40,096	0,139	0,052
-605,401	170,240	0,098	-0,101
-604,386	-200,000	0,022	0,100
-603,371	-200,000	-0,020	-0,089
-602,357	-68,593	0,098	-0,027
-601,342	-200,000	0,001	0,061
-600,328	-138,207	0,095	0,007
-599,313	112,238	-0,079	0,068
-598,298	-106,683	-0,090	-0,014
-597,284	-61,782	-0,022	-0,007
-596,269	-200,000	0,000	0,028
-595,255	-200,000	0,030	0,129
-594,240	-200,000	-0,013	-0,086
-593,225	800,000	-0,036	0,084
-592,211	-200,000	0,008	-0,143
-591,196	253,614	0,047	-0,057
-590,182	190,794	0,154	0,167
-589,167	207,429	-0,008	0,009
-588,152	-75,670	0,095	-0,024
-587,138	17,416	-0,119	-0,068
-586,123	-20,596	-0,073	0,032
-585,109	53,840	-0,090	0,062
-584,094	304,344	0,061	-0,081
-583,079	153,250	0,059	-0,058
-582,065	-36,706	0,031	-0,012
-581,050	800,000	-0,077	0,173
-580,036	-93,644	0,027	0,005
-579,021	69,472	-0,070	-0,052
-578,006	800,000	-0,040	-0,107
-576,992	115,689	-0,126	-0,111
-575,977	-200,000	-0,005	0,130
-574,963	800,000	-0,027	-0,060
-573,948	523,031	-0,052	-0,088
-572,934	-153,182	-0,127	0,006
-571,919	-200,000	-0,006	0,090
-570,904	-142,417	0,104	0,007
-569,890	-24,706	-0,019	0,008
-568,875	231,156	0,072	0,085
-567,861	102,034	0,104	0,087
-566,846	148,368	0,039	0,038
-565,831	441,819	0,069	0,109
-564,817	-40,570	-0,074	0,028
-563,802	581,299	-0,050	0,089
-562,788	55,017	0,122	0,084
-561,773	-128,248	-0,050	0,005
-560,758	-200,000	0,017	0,065
-559,744	-200,000	0,000	-0,020
-558,729	-200,000	0,022	0,103
-557,715	-96,037	-0,168	-0,032
-556,700	-38,825	0,054	0,020
-555,685	-130,496	-0,107	0,010
-554,671	800,000	0,057	0,167
-553,656	-200,000	0,011	0,076
-552,642	-99,807	0,146	-0,026
-551,627	-200,000	0,000	0,089
-550,612	221,271	-0,091	0,105
-549,598	671,577	0,057	0,108
-548,583	193,449	-0,099	-0,108
-547,569	-139,805	-0,060	-0,005
-546,554	-200,000	-0,001	-0,070
-545,539	475,864	0,020	0,032
-544,525	-126,511	0,045	-0,005
-543,510	355,654	-0,032	0,046
-542,496	-108,476	-0,107	0,016
-541,481	-200,000	0,006	-0,027
-540,466	216,206	0,090	0,103
-539,452	-91,976	-0,162	0,033
-538,437	162,926	-0,062	-0,062
-537,423	16,186	0,074	0,042
-536,408	-13,798	0,021	-0,010
-535,393	317,866	-0,069	0,094
-534,379	465,610	0,067	0,109
-533,364	-97,679	-0,112	-0,021
-532,350	-93,378	0,073	0,014
-531,335	-12,478	0,072	-0,034
-530,321	800,000	-0,024	0,071
-529,306	51,539	-0,076	-0,052
-528,291	-200,000	0,001	0,060
-527,277	800,000	0,065	0,152
-526,262	800,000	-0,027	-0,055
-525,248	800,000	0,079	-0,172
-524,233	-172,993	0,140	0,003
-523,218	594,860	0,109	0,194
-522,204	-200,000	0,008	-0,026
-521,189	-144,286	-0,154	-0,010
-520,175	-74,606	-0,088	0,023
-519,160	800,000	-0,027	-0,071
-518,145	800,000	0,056	-0,169
-517,131	34,168	-0,061	-0,038
-516,116	167,180	0,029	-0,029
-515,102	-200,000	-0,009	-0,209
-514,087	141,603	-0,101	-0,096
-513,072	-200,000	0,040	-0,132
-512,058	257,600	-0,079	-0,098
-511,043	251,779	0,079	-0,096
-510,029	78,963	0,051	-0,039
-509,014	46,396	0,062	-0,041
-507,999	-183,175	0,089	0,001
-506,985	-200,000	-0,023	-0,115
-505,970	114,366	-0,113	-0,098
-504,956	315,691	-0,027	-0,036
-503,941	-12,932	0,035	-0,017
-502,926	-61,400	-0,026	-0,008
-501,912	-167,864	-0,062	-0,002
-500,897	7,162	-0,079	0,042
-499,883	800,000	-0,046	-0,137
-498,868	-97,099	0,153	0,028
-497,853	1,546	0,063	-0,032
-496,839	-27,489	-0,155	-0,064
-495,824	-200,000	-0,011	0,075
-494,810	-8,321	-0,075	0,036
-493,795	-162,778	0,078	-0,003
-492,781	374,379	-0,067	0,098
-491,766	69,152	0,119	-0,088
-490,751	498,900	0,040	0,067
-489,737	-7,564	-0,150	-0,072
-488,722	78,312	0,092	0,071
-487,708	800,000	0,036	0,088
-486,693	-77,665	-0,061	0,015
-485,678	-200,000	0,019	-0,121
-484,664	-200,000	-0,005	-0,088
-483,649	-29,072	-0,098	-0,040
-482,635	-200,000	-0,032	-0,185
-481,620	-59,491	-0,039	0,012
-480,605	380,811	0,061	0,090
-479,591	451,057	-0,082	0,130
-478,576	-200,000	-0,004	-0,020
-477,562	-200,000	-0,021	-0,120
-476,547	-6,997	-0,052	-0,025
-475,532	127,772	0,103	-0,094
-474,518	-31,987	0,127	-0,051
-473,503	266,619	0,062	0,077
-472,489	49,100	0,042	-0,028
-471,474	303,791	0,036	0,048
-470,459	-94,156	0,084	0,016
-469,445	-200,000	-0,031	-0,197
-468,430	-6,085	-0,071	-0,034
-467,416	9,284	0,129	-0,070
-466,401	-200,000	0,059	0,198
-465,386	-103,358	-0,056	-0,009
-464,372	-7,873	0,055	-0,026
-463,357	131,959	0,068	-0,063
-462,343	-29,648	-0,084	0,034
-461,328	-92,228	-0,091	0,018
-460,313	396,132	0,014	0,020
-459,299	-200,000	-0,020	0,088
-458,284	256,566	0,047	-0,058
-457,270	261,711	-0,020	0,026
-456,255	-200,000	-0,015	-0,094
-455,241	423,883	-0,011	0,016
-454,226	800,000	0,025	0,053
-453,211	254,924	-0,071	-0,087
-452,197	-97,595	0,109	0,020
-451,182	397,622	0,016	-0,024
-450,168	-22,043	0,051	-0,022
-449,153	200,559	-0,090	0,099
-448,138	437,237	-0,094	-0,147
-447,124	-163,271	-0,086	-0,003
-446,109	-119,687	0,142	-0,017
-445,095	-111,959	-0,084	0,012
-444,080	109,097	0,071	-0,061
-443,065	72,388	-0,096	0,072
-442,051	-112,807	-0,174	-0,025
-441,036	800,000	-0,010	-0,023
-440,022	94,246	-0,151	0,122
-439,007	-37,703	0,181	0,069
-437,992	-200,000	0,018	0,206
-436,978	-200,000	-0,033	0,121
-435,963	-86,475	-0,066	0,014
-434,949	43,825	0,054	-0,035
-433,934	561,185	0,056	-0,098
-432,919	313,560	-0,033	-0,044
-431,905	-45,239	0,021	-0,007
-430,890	494,734	0,068	-0,111
-429,876	-38,615	0,070	0,026
-428,861	76,978	0,083	0,063
-427,846	800,000	0,062	-0,128
-426,832	-200,000	0,015	-0,061
-425,817	486,928	0,048	-0,078
-424,803	-119,879	-0,112	-0,014
-423,788	-200,000	0,016	-0,052
-422,773	237,501	0,135	0,161
-421,759	212,968	0,125	0,142
-420,744	27,668	-0,067	-0,040
-419,730	32,464	-0,153	-0,094
-418,715	-200,000	-0,031	-0,112
-417,701	206,276	0,069	-0,077
-416,686	-200,000	-0,018	0,062
-415,671	800,000	0,076	0,202
-414,657	12,292	0,083	0,045
-413,642	259,005	0,040	-0,049
-412,628	-19,291	0,202	0,089
-411,613	2,912	-0,120	-0,062
-410,598	-62,661	-0,071	-0,021
-409,584	2,913	-0,085	0,044
-408,569	67,539	0,116	0,085
-407,555	-200,000	-0,000	0,001
-406,540	331,231	-0,012	0,017
-405,525	116,971	0,073	0,064
-404,511	800,000	-0,060	0,186
-403,496	198,004	-0,064	-0,070
-402,482	-200,000	0,008	0,223
-401,467	-200,000	-0,005	0,039
-400,452	-200,000	-0,027	0,097
-399,438	-82,834	0,133	0,031
-398,423	-5,765	0,080	-0,039
-397,409	13,086	-0,093	-0,052
-396,394	12,503	-0,089	-0,049
-395,379	-200,000	-0,031	-0,112
-394,365	-200,000	0,011	0,045
-393,350	-98,278	0,075	-0,014
-392,336	-8,133	-0,063	0,030
-391,321	395,088	-0,062	0,093
-390,306	800,000	0,032	0,100
-389,292	-200,000	0,012	-0,153
-388,277	800,000	-0,029	0,089
-387,263	440,150	0,075	0,117
-386,248	-200,000	-0,030	0,100
-385,233	415,540	0,055	0,084
-384,219	-54,586	0,045	-0,014
-383,204	800,000	-0,043	-0,102
-382,190	575,173	-0,070	-0,122
-381,175	69,059	-0,120	-0,088
-380,160	-110,630	0,098	-0,014
-379,146	-96,808	0,111	0,021
-378,131	379,151	-0,067	0,098
-377,117	792,308	-0,039	0,077
-376,102	-48,149	-0,080	-0,027
-375,088	800,000	-0,038	-0,107
-374,073	800,000	0,040	0,105
-373,058	-111,779	0,122	0,017
-372,044	137,781	0,016	-0,015
-371,029	800,000	0,039	0,091
-370,015	339,746	-0,044	0,061
-369,000	132,472	-0,074	-0,068
-367,985	-117,133	-0,077	0,010
-366,971	-200,000	-0,000	0,040
-365,956	90,113	0,064	0,051
-364,942	800,000	-0,027	-0,077
-363,927	-51,311	-0,075	0,025
-362,912	-70,304	0,075	-0,020
-361,898	-60,680	0,070	-0,021
-360,883	-200,000	-0,031	0,176
-359,869	-82,033	-0,068	0,016
-358,854	492,830	0,057	-0,094
-357,839	-51,479	0,183	0,061
-356,825	-61,665	0,136	0,041
-355,810	-48,824	0,086	0,029
-354,796	-73,483	-0,140	0,036
-353,781	489,176	0,065	-0,107
-352,766	-200,000	-0,001	-0,008
-351,752	353,813	-0,009	-0,012
-350,737	19,095	0,137	-0,078
-349,723	-178,426	0,148	0,002
-348,708	800,000	0,069	0,161
-347,693	-50,964	-0,105	-0,035
-346,679	-200,000	0,041	-0,185
-345,664	-29,737	-0,062	0,025
-344,650	-200,000	-0,002	0,059
-343,635	800,000	-0,047	0,114
-342,620	117,304	-0,063	0,056
-341,606	800,000	0,025	0,062
-340,591	155,733	-0,086	0,085
-339,577	-9,241	0,051	-0,024
-338,562	-200,000	0,011	0,071
-337,548	-200,000	-0,003	0,053
-336,533	235,444	0,017	0,020
-335,518	800,000	0,023	0,053
-334,504	-35,424	-0,171	0,066
-333,489	800,000	-0,088	-0,204
-332,475	-140,955	-0,070	0,005
-331,460	800,000	0,026	-0,079
-330,445	115,479	0,008	0,007
-329,431	-23,837	0,057	0,024
-328,416	800,000	-0,055	-0,144
-327,402	-200,000	-0,003	0,022
-326,387	-200,000	-0,003	0,099
-325,372	-179,507	0,086	0,001
-324,358	-200,000	-0,013	-0,142
-323,343	-115,471	-0,003	-0,000
-322,329	35,519	0,209	0,131
-321,314	-200,000	-0,006	0,023
-320,299	-200,000	-0,013	0,047
-319,285	-200,000	0,000	0,060
-318,270	560,411	-0,028	0,048
-317,256	-200,000	0,019	0,105
-316,241	168,711	-0,057	0,058
-315,226	330,257	0,037	0,051
-314,212	800,000	-0,024	0,063
-313,197	271,295	0,072	0,091
-312,183	72,777	0,064	-0,048
-311,168	-200,000	-0,004	-0,066
-310,153	465,516	-0,056	-0,089
-309,139	391,846	0,049	0,073
-308,124	-83,617	0,090	-0,020
-307,110	85,933	-0,094	-0,074
-306,095	800,000	0,024	-0,066
-305,080	-200,000	-0,002	-0,064
-304,066	553,263	0,030	0,052
-303,051	45,304	-0,044	0,029
-302,037	-64,139	0,082	-0,024
-301,022	-200,000	-0,018	0,113
-300,008	800,000	-0,028	0,065
-298,993	267,760	0,070	0,088
-297,978	84,608	0,042	0,033
-296,964	-200,000	-0,005	-0,017
-295,949	218,953	0,079	-0,090
-294,935	33,599	0,057	0,035
-293,920	-200,000	-0,026	0,086
-292,905	332,689	0,046	-0,063
-291,891	63,789	0,124	-0,088
-290,876	-132,541	0,083	-0,008
-289,862	-180,226	-0,022	-0,000
-288,847	-57,065	-0,082	-0,025
-287,832	18,789	-0,015	-0,008
-286,818	407,236	0,080	-0,121
-285,803	33,568	0,109	0,068
-284,789	800,000	0,060	-0,119
-283,774	83,744	0,088	0,068
-282,759	-78,974	0,094	0,023
-281,745	12,105	0,053	0,029
-280,730	458,422	-0,085	-0,135
-279,716	321,719	-0,056	-0,077
-278,701	-200,000	0,015	0,076
-277,686	-111,677	0,118	0,017
-276,672	-34,163	0,092	-0,036
-275,657	-92,207	-0,069	0,014
-274,643	800,000	-0,032	-0,093
-273,628	-110,182	0,087	-0,013
-272,613	273,156	-0,070	0,088
-271,599	251,534	0,096	-0,116
-270,584	540,527	0,078	0,132
-269,570	-200,000	0,012	0,057
-268,555	800,000	-0,011	0,023
-267,540	-67,216	-0,035	0,010
-266,526	376,432	-0,078	-0,114
-265,511	-143,829	-0,005	0,000
-264,497	800,000	-0,051	-0,122
-263,482	604,898	0,020	-0,036
-262,467	-200,000	-0,032	-0,109
-261,453	483,996	-0,055	0,089
-260,438	0,888	0,061	0,031
-259,424	-63,285	-0,067	0,020
-258,409	229,178	-0,079	-0,092
-257,395	384,055	0,068	0,099
-256,380	-200,000	0,006	0,093
-255,365	-200,000	0,024	0,222
-254,351	184,178	0,099	-0,105
-253,336	49,001	0,065	-0,044
-252,322	104,748	-0,072	-0,060
-251,307	140,892	-0,114	-0,107
-250,292	-200,000	-0,039	0,148
-249,278	70,354	0,138	-0,101
-248,263	800,000	0,051	0,106
-247,249	45,317	-0,045	0,029
-246,234	74,579	-0,027	-0,020
-245,219	67,322	-0,148	-0,107
-244,205	-200,000	-0,044	-0,208
-243,190	-17,060	0,040	-0,018
-242,176	-39,597	0,198	0,073
-241,161	339,004	0,077	0,107
-240,146	154,447	-0,041	-0,040
-239,132	252,026	-0,134	-0,163
-238,117	-200,000	0,010	-0,144
-237,103	393,982	0,031	0,045
-236,088	-143,414	0,100	0,007
-235,073	219,400	0,010	-0,012
-234,059	74,783	0,097	0,072
-233,044	-200,000	-0,033	0,176
-232,030	-86,281	0,043	0,009
-231,015	35,710	-0,063	-0,039
-230,000	367,793	-0,053	-0,077
-228,986	-200,000	0,041	-0,132
-227,971	-166,265	0,133	0,004
-226,957	255,340	0,034	-0,042
-225,942	425,232	0,073	0,112
-224,927	103,767	-0,079	-0,066
-223,913	96,095	-0,117	-0,095
-222,898	-200,000	-0,004	-0,051
-221,884	298,674	-0,018	-0,023
-220,869	-129,733	0,076	0,007
-219,855	-170,967	0,017	-0,000
-218,840	-46,592	-0,126	0,044
-217,825	800,000	0,025	0,061
-216,811	-200,000	0,017	-0,061
-215,796	800,000	-0,036	-0,087
-214,782	-118,283	0,125	0,016
-213,767	-200,000	-0,019	0,141
-212,752	104,429	-0,120	-0,101
-211,738	-200,000	-0,025	0,117
-210,723	259,816	0,048	0,059
-209,709	-91,966	0,108	0,022
-208,694	-200,000	-0,024	-0,144
-207,679	402,578	0,039	-0,058
-206,665	535,526	0,021	0,035
-205,650	800,000	0,025	-0,078
-204,636	95,498	-0,117	0,095
-203,621	-81,766	-0,075	-0,017
-202,606	-101,865	-0,163	-0,028
-201,592	800,000	-0,038	-0,077
-200,577	-87,307	0,151	0,032
-199,563	-200,000	-0,002	-0,055
-198,548	238,874	-0,106	0,125
-197,533	-24,442	-0,045	0,019
-196,519	-171,771	-0,109	0,002
-195,504	-32,859	-0,072	-0,028
-194,490	-36,261	0,113	0,043
-193,475	-104,174	-0,173	-0,028
-192,460	-53,607	0,128	-0,041
-191,446	40,907	-0,105	0,067
-190,431	800,000	-0,032	0,064
-189,417	158,895	0,035	-0,034
-188,402	-200,000	-0,010	0,087
-187,387	-200,000	-0,008	-0,044
-186,373	-200,000	-0,016	-0,056
-185,358	-98,003	0,129	-0,023
-184,344	41,124	-0,114	0,073
-183,329	166,138	-0,087	-0,088
-182,315	-200,000	-0,019	-0,110
-181,300	-85,452	-0,077	-0,017
-180,285	299,678	-0,042	-0,055
-179,271	740,258	0,065	-0,125
-178,256	108,796	-0,028	-0,023
-177,242	-24,000	0,084	-0,035
-176,227	226,589	-0,043	0,050
-175,212	800,000	0,052	0,132
-174,198	-200,000	-0,008	0,034
-173,183	6,278	-0,086	-0,045
-172,169	800,000	-0,031	-0,096
-171,154	23,396	0,164	-0,095
-170,139	-76,352	-0,125	0,031
-169,125	-200,000	0,009	0,050
-168,110	800,000	0,035	0,087
-167,096	88,204	-0,045	0,036
-166,081	587,306	-0,071	-0,125
-165,066	-200,000	-0,012	0,052
-164,052	-48,206	0,076	0,026
-163,037	15,895	0,037	-0,020
-162,023	-150,477	0,151	-0,008
-161,008	-200,000	0,026	0,115
-159,993	-149,612	0,077	0,004
-158,979	469,960	-0,031	-0,049
-157,964	362,222	0,016	0,022
-156,950	-200,000	-0,001	-0,023
-155,935	-61,509	0,089	0,026
-154,920	-200,000	-0,026	0,123
-153,906	8,772	-0,050	0,027
-152,891	800,000	0,016	0,047
-151,877	-152,311	-0,088	-0,004
-150,862	-200,000	0,035	-0,118
-149,847	-200,000	0,012	-0,064
-148,833	353,225	-0,064	0,091
-147,818	46,522	0,091	-0,060
-146,804	105,649	0,063	0,053
-145,789	-200,000	-0,025	0,213
-144,775	-200,000	0,003	0,152
-143,760	-30,390	0,149	0,060
-142,745	-200,000	0,003	0,017
-141,731	101,532	0,055	-0,045
-140,716	-71,983	0,078	-0,020
-139,702	132,094	0,091	0,083
-138,687	41,439	0,143	0,091
-137,672	800,000	0,036	0,103
-136,658	-76,059	-0,110	0,027
-135,643	611,489	-0,029	-0,051
-134,629	103,850	0,094	-0,078
-133,614	-200,000	0,021	0,086
-132,599	-200,000	-0,003	0,016
-131,585	-48,615	0,191	0,065
-130,570	800,000	-0,016	0,037
-129,556	-200,000	0,017	-0,073
-128,541	-24,510	-0,096	0,040
-127,526	800,000	0,023	-0,051
-126,512	139,800	-0,059	-0,055
-125,497	616,747	-0,039	0,070
-124,483	788,304	-0,064	0,124
-123,468	-200,000	0,017	0,147
-122,453	-200,000	0,012	0,037
-121,439	-30,121	-0,027	-0,011
-120,424	513,246	0,057	0,094
-119,410	390,401	-0,087	0,128
-118,395	-169,095	0,167	-0,004
-117,380	74,546	-0,035	0,026
-116,366	800,000	0,023	-0,055
-115,351	191,244	-0,079	-0,084
-114,337	-200,000	-0,051	-0,216
-113,322	186,085	-0,043	-0,045
-112,307	458,169	-0,036	0,057
-111,293	649,493	-0,047	0,086
-110,278	127,818	-0,078	0,070
-109,264	-94,919	-0,015	-0,003
-108,249	141,077	0,072	0,067
-107,234	800,000	-0,064	0,142
-106,220	-200,000	-0,001	0,153
-105,205	4,757	0,037	0,019
-104,191	-200,000	-0,018	0,071
-103,176	800,000	0,056	-0,122
-102,162	-200,000	0,002	0,042
-101,147	44,592	0,082	-0,053
-100,132	800,000	-0,034	-0,067
-99,118	341,633	0,016	-0,022
-98,103	800,000	0,035	0,090
-97,089	-200,000	0,012	-0,080
-96,074	-200,000	-0,023	0,113
-95,059	115,164	-0,057	0,050
-94,045	79,642	-0,064	-0,049
-93,030	360,513	0,091	-0,129
-92,016	-185,412	0,043	0,000
-91,001	210,401	0,058	0,065
-89,986	75,286	0,109	0,081
-88,972	800,000	0,064	0,139
-87,957	311,629	-0,070	0,093
-86,943	107,458	0,066	0,056
-85,928	-200,000	0,010	-0,031
-84,913	-64,464	0,195	0,056
-83,899	-26,121	0,083	0,034
-82,884	-83,483	0,043	-0,010
-81,870	800,000	0,019	0,044
-80,855	1,336	-0,045	0,023
-79,840	800,000	0,046	-0,107
-78,826	66,948	-0,073	-0,053
-77,811	800,000	-0,058	-0,150
-76,797	-72,536	0,040	0,010
-75,782	329,724	-0,082	0,111
-74,767	76,410	0,062	0,046
-73,753	-200,000	-0,008	-0,072
-72,738	800,000	0,012	0,024
-71,724	284,012	-0,112	0,143
-70,709	763,533	-0,037	0,071
-69,694	-1,302	0,080	-0,040
-68,680	-45,085	0,120	-0,042
-67,665	-200,000	-0,012	0,059
-66,651	800,000	-0,052	0,117
-65,636	114,354	0,073	0,063
-64,622	207,341	-0,109	-0,120
-63,607	-200,000	-0,015	-0,088
-62,592	-8,090	0,014	0,007
-61,578	-84,029	0,138	-0,031
-60,563	22,083	-0,030	0,017
-59,549	296,903	0,103	0,134
-58,534	41,621	-2,174	-1,387
-57,519	612,917	-1,089	-1,931
-56,505	-200,000	-0,349	-4,392
-55,490	800,000	0,740	1,670
-54,476	800,000	5,189	11,204
-53,461	-200,000	22,043	340,841
-52,446	800,000	756,656	2298,345
-51,432	535,102	1647,371	2766,984
-50,417	68,778	1645,713	1190,529
-49,403	16,216	1521,088	844,018
-48,388	10,354	1445,883	774,145
-47,373	19,165	1438,204	811,976
-46,359	13,818	1427,003	780,389
-45,344	8,675	1423,041	753,874
-44,330	8,597	1420,989	752,388
-43,315	8,564	1419,037	751,169
-42,300	8,577	1417,444	750,361
-41,286	8,645	1416,018	749,896
-40,271	8,592	1414,999	749,075
-39,257	8,569	1413,767	748,288
-38,242	8,556	1412,966	747,772
-37,227	8,622	1411,629	747,345
-36,213	8,575	1410,427	746,458
-35,198	8,611	1409,113	745,902
-34,184	8,637	1408,215	745,515
-33,169	8,587	1406,598	744,399
-32,154	8,574	1405,861	743,917
-31,140	8,567	1404,509	743,141
-30,125	8,610	1403,403	742,726
-29,111	8,589	1402,300	742,013
-28,096	8,563	1401,034	741,195
-27,082	8,566	1399,604	740,424
-26,067	8,485	1398,833	739,607
-25,052	8,555	1397,871	739,395
-24,038	8,573	1396,709	738,837
-23,023	8,521	1395,777	738,070
-22,009	8,552	1394,879	737,710
-20,994	8,492	1393,854	736,864
-19,979	8,478	1392,951	736,289
-18,965	8,505	1392,006	735,887
-17,950	8,455	1391,009	735,097
-16,936	8,442	1390,125	734,544
-15,921	8,440	1389,212	734,022
-14,906	8,433	1388,265	733,459
-13,892	8,513	1387,189	733,232
-12,877	8,475	1386,404	732,612
-11,863	8,421	1385,944	732,092
-10,848	8,437	1384,600	731,427
-9,833	8,401	1383,739	730,774
-8,819	8,302	1383,101	729,956
-7,804	8,322	1382,140	729,511
-6,790	8,374	1380,891	729,060
-5,775	8,341	1380,007	728,415
-4,760	8,344	1379,054	727,896
-3,746	8,401	1377,993	727,569
-2,731	8,414	1377,140	727,150
-1,717	8,383	1376,333	726,549
-0,702	8,364	1374,680	725,562
0,313	12,375	1286,511	697,206
1,327	28,131	679,605	403,529
2,342	43,990	116,928	75,419
3,356	-1,063	16,517	8,208
4,371	-3,545	3,797	1,855
5,386	-34,205	1,311	0,505
6,400	800,000	0,276	0,657
7,415	-191,366	-0,168	-0,001
8,429	156,778	-0,138	-0,134
9,444	238,686	-0,248	-0,291
10,459	71,580	-0,322	-0,235
11,473	-88,519	-0,277	-0,058
12,488	15,870	-0,292	-0,162
13,502	-33,666	-0,228	-0,088
14,517	115,147	-0,246	-0,212
15,531	-34,211	-0,428	-0,165
16,546	102,605	-0,267	-0,220
17,561	143,704	-0,287	-0,269
18,575	-153,699	-0,265	-0,013
19,590	-65,503	-0,194	-0,055
20,604	-131,602	-0,287	-0,026
21,619	27,521	-0,480	-0,284
22,634	52,108	-0,431	-0,289
23,648	64,074	-0,298	-0,210
24,663	60,484	-0,411	-0,286
25,677	-74,559	-0,342	-0,086
26,692	52,313	-0,381	-0,255
27,707	295,114	-0,249	-0,321
28,721	-14,198	-0,407	-0,184
29,736	-104,151	-0,515	-0,083
30,750	112,307	-0,364	-0,309
31,765	-4,065	-0,407	-0,198
32,780	27,238	-0,313	-0,184
33,794	200,788	-0,249	-0,269
34,809	122,033	-0,358	-0,314
35,823	5,043	-0,382	-0,197
36,838	46,283	-0,431	-0,280
37,853	62,013	-0,391	-0,274
38,867	8,153	-0,402	-0,212
39,882	5,930	-0,470	-0,244
40,896	48,535	-0,307	-0,202
41,911	-49,184	-0,413	-0,138
42,926	201,723	-0,248	-0,269
43,940	104,207	-0,332	-0,274
44,955	4,564	-0,401	-0,206
45,969	-9,153	-0,361	-0,169
46,984	143,169	-0,225	-0,211
47,999	3,679	-0,361	-0,184
49,013	-195,394	-0,194	0,001
50,028	65,148	-0,329	-0,233
51,042	126,024	-0,426	-0,378
52,057	-48,857	-0,340	-0,114
53,071	502,548	-0,171	-0,279
54,086	-40,359	-0,348	-0,126
55,101	27,656	-0,435	-0,256
56,115	84,897	-0,201	-0,155
57,130	201,105	-0,297	-0,321
58,144	334,894	-0,263	-0,358
59,159	0,033	-0,332	-0,166
60,174	78,547	-0,304	-0,228
61,188	123,932	-0,326	-0,287
62,203	-73,174	-0,176	-0,045
63,217	158,908	-0,273	-0,266
64,232	36,697	-0,370	-0,229
65,247	113,070	-0,261	-0,221
66,261	156,316	-0,232	-0,224
67,276	152,763	-0,302	-0,289
68,290	68,078	-0,330	-0,236
69,305	-121,946	-0,363	-0,041
70,320	7,083	-0,242	-0,126
71,334	-44,964	-0,283	-0,098
72,349	-85,631	-0,287	-0,062
73,363	-62,043	-0,307	-0,089
74,378	3,663	-0,340	-0,173
75,393	239,635	-0,266	-0,311
76,407	-89,605	-0,367	-0,075
77,422	9,407	-0,332	-0,175
78,436	-54,001	-0,330	-0,105
79,451	111,039	-0,352	-0,297
80,466	71,053	-0,378	-0,274
81,480	72,040	-0,310	-0,226
82,495	162,802	-0,169	-0,166
83,509	14,006	-0,292	-0,159
84,524	91,844	-0,190	-0,150
85,539	-70,738	-0,362	-0,095
86,553	168,948	-0,203	-0,203
87,568	103,128	-0,333	-0,273
88,582	-67,166	-0,318	-0,087
89,597	138,700	-0,202	-0,186
90,611	47,570	-0,265	-0,173
91,626	-99,763	-0,401	-0,070
92,641	-82,314	-0,280	-0,063
93,655	-6,779	-0,253	-0,120
94,670	-12,044	-0,241	-0,110
95,684	10,639	-0,327	-0,174
96,699	-60,518	-0,318	-0,094
97,714	415,667	-0,190	-0,284
98,728	-2,713	-0,221	-0,108
99,743	550,400	-0,195	-0,329
100,757	13,872	-0,344	-0,186
101,772	-14,709	-0,276	-0,123
102,787	36,331	-0,252	-0,155
103,801	-34,068	-0,282	-0,108
104,816	-38,353	-0,434	-0,160
105,830	259,295	-0,116	-0,140
106,845	-22,485	-0,180	-0,076
107,860	-55,406	-0,373	-0,116
108,874	-1,433	-0,391	-0,192
109,889	105,713	-0,221	-0,183
110,903	-186,990	-0,251	-0,002
111,918	302,352	-0,236	-0,306
112,933	101,281	-0,261	-0,212
113,947	5,592	-0,280	-0,144
114,962	-31,995	-0,174	-0,068
115,976	187,633	-0,291	-0,303
116,991	323,332	-0,214	-0,286
118,006	5,840	-0,192	-0,099
119,020	367,472	-0,227	-0,321
120,035	328,206	-0,166	-0,223
121,049	11,654	-0,123	-0,066
122,064	-63,809	-0,267	-0,076
123,079	78,679	-0,244	-0,182
124,093	47,208	-0,419	-0,272
125,108	-30,298	-0,251	-0,099
126,122	-123,244	-0,193	-0,021
127,137	-112,530	-0,233	-0,032
128,151	156,177	-0,277	-0,267
129,166	-84,580	-0,346	-0,075
130,181	83,296	-0,266	-0,202
131,195	62,097	-0,224	-0,155
132,210	-6,219	-0,401	-0,190
133,224	-32,497	-0,313	-0,121
134,239	-200,000	-0,073	-0,231
135,254	67,060	-0,240	-0,170
136,268	138,981	-0,200	-0,183
137,283	-35,926	-0,361	-0,135
138,297	-6,929	-0,180	-0,085
139,312	53,087	-0,270	-0,180
140,327	80,312	-0,231	-0,173
141,341	21,517	-0,330	-0,187
142,356	162,955	-0,151	-0,148
143,370	38,660	-0,059	-0,037
144,385	800,000	-0,105	-0,207
145,400	49,046	-0,212	-0,138
146,414	16,169	-0,339	-0,186
147,429	54,660	-0,213	-0,143
148,443	28,110	-0,246	-0,144
149,458	172,156	-0,228	-0,228
150,473	2,990	-0,264	-0,133
151,487	102,839	-0,196	-0,159
152,502	800,000	-0,093	-0,218
153,516	284,404	-0,148	-0,186
154,531	187,564	-0,182	-0,189
155,546	-167,832	-0,261	-0,007
156,560	-52,527	-0,137	-0,044
157,575	-13,540	-0,254	-0,114
158,589	287,577	-0,170	-0,214
159,604	208,542	-0,136	-0,148
160,619	101,988	-0,233	-0,189
161,633	-14,474	-0,304	-0,136
162,648	149,965	-0,176	-0,166
163,662	20,023	-0,328	-0,184
164,677	-161,907	-0,247	0,009
165,692	-0,545	-0,259	-0,127
166,706	219,575	-0,127	-0,142
167,721	124,459	-0,264	-0,231
168,735	400,728	-0,143	-0,209
169,750	-40,164	-0,238	-0,086
170,764	335,514	-0,195	-0,263
171,779	-4,500	-0,189	-0,090
172,794	-118,306	-0,243	-0,030
173,808	31,773	-0,220	-0,131
174,823	-18,889	-0,266	-0,114
175,837	327,026	-0,155	-0,207
176,852	609,335	-0,206	-0,359
177,867	86,042	-0,195	-0,149
178,881	741,836	-0,077	-0,145
179,896	288,062	-0,132	-0,166
180,910	165,262	-0,210	-0,206
181,925	52,424	-0,305	-0,202
182,940	-16,385	-0,255	-0,112
183,954	-162,685	-0,195	0,006
184,969	106,616	-0,223	-0,184
185,983	772,663	-0,092	-0,174
186,998	-48,844	-0,112	-0,037
188,013	-109,244	-0,217	-0,032
189,027	106,338	-0,295	-0,242
190,042	-113,884	-0,270	-0,036
191,056	1,535	-0,235	-0,117
192,071	-32,913	-0,167	-0,064
193,086	35,352	-0,212	-0,129
194,100	-19,352	-0,254	-0,109
195,115	93,291	-0,099	-0,078
196,129	463,897	-0,159	-0,247
197,144	86,488	-0,307	-0,234
198,159	81,796	-0,251	-0,188
199,173	164,959	-0,107	-0,105
200,188	-56,403	-0,240	-0,074
201,202	127,409	-0,187	-0,164
202,217	403,680	-0,156	-0,228
203,232	151,185	-0,314	-0,296
204,246	119,307	-0,163	-0,140
205,261	33,337	-0,256	-0,154
206,275	203,919	-0,061	-0,065
207,290	-19,590	-0,191	-0,081
208,304	199,566	-0,175	-0,186
209,319	-197,893	-0,109	0,000
210,334	133,673	-0,306	-0,274
211,348	3,761	-0,293	-0,147
212,363	58,157	-0,177	-0,120
213,377	602,155	-0,114	-0,196
214,392	-91,272	-0,211	-0,041
215,407	367,325	-0,101	-0,142
216,421	30,799	-0,302	-0,179
217,436	-28,998	-0,236	-0,093
218,450	340,878	-0,253	-0,343
219,465	200,235	-0,277	-0,294
220,480	265,577	-0,171	-0,207
221,494	220,067	-0,105	-0,117
222,509	688,428	-0,067	0,121
223,523	-119,489	-0,176	0,021
224,538	-62,073	-0,144	-0,041
225,553	104,541	-0,137	-0,112
226,567	141,775	-0,260	-0,238
227,582	77,114	-0,148	-0,109
228,596	-145,458	-0,261	-0,016
229,611	-97,525	-0,192	-0,034
230,626	800,000	-0,057	-0,134
231,640	539,473	-0,115	-0,190
232,655	253,289	-0,111	-0,131
233,669	135,651	-0,222	-0,200
234,684	39,537	-0,298	-0,184
235,699	-100,182	-0,143	-0,024
236,713	49,702	-0,259	-0,168
237,728	-29,174	-0,152	-0,060
238,742	-175,813	-0,196	-0,004
239,757	685,666	-0,084	-0,153
240,772	43,514	-0,286	-0,181
241,786	115,836	-0,166	-0,140
242,801	236,529	-0,209	-0,239
243,815	87,934	-0,130	-0,100
244,830	458,969	-0,070	-0,108
245,844	38,623	-0,162	-0,099
246,859	197,340	-0,209	-0,220
247,874	114,382	-0,148	-0,124
248,888	-85,549	-0,283	-0,060
249,903	303,244	-0,195	-0,249
250,917	540,624	-0,079	-0,130
251,932	134,482	-0,101	-0,090
252,947	-15,814	-0,090	-0,040
253,961	110,910	-0,129	-0,107
254,976	10,293	-0,264	-0,138
255,990	64,333	-0,178	-0,123
257,005	-4,354	-0,277	-0,132
258,020	-19,397	-0,156	-0,067
259,034	-13,115	-0,161	0,072
260,049	214,526	-0,102	-0,111
261,063	69,423	-0,191	-0,135
262,078	668,445	-0,135	-0,241
263,093	9,325	-0,170	-0,088
264,107	51,134	-0,222	-0,145
265,122	-59,512	-0,194	-0,057
266,136	800,000	-0,102	-0,220
267,151	-131,281	-0,187	0,017
268,166	-200,000	-0,018	-0,093
269,180	122,641	-0,200	-0,173
270,195	-62,124	-0,151	-0,043
271,209	47,275	-0,154	-0,098
272,224	-124,039	-0,176	0,019
273,239	-86,376	-0,020	-0,004
274,253	-95,189	-0,224	-0,041
275,268	574,013	-0,121	-0,204
276,282	-200,000	-0,089	-0,285
277,297	-133,006	-0,244	-0,021
278,312	-43,040	-0,205	-0,071
279,326	159,661	-0,048	-0,046
280,341	360,608	-0,086	-0,119
281,355	31,323	-0,155	-0,091
282,370	387,174	-0,139	-0,199
283,384	151,436	-0,189	-0,177
284,399	-69,655	-0,294	-0,077
285,414	196,808	-0,216	-0,227
286,428	-58,375	-0,069	-0,020
287,443	-169,595	-0,158	-0,004
288,457	-178,971	-0,107	0,002
289,472	66,152	-0,225	-0,157
290,487	288,328	-0,121	-0,151
291,501	-120,070	-0,056	0,006
292,516	395,784	-0,156	-0,224
293,530	92,124	-0,097	-0,075
294,545	55,262	-0,239	-0,159
295,560	332,553	-0,113	-0,150
296,574	-104,074	-0,094	-0,015
297,589	-72,701	-0,117	-0,029
298,603	800,000	-0,088	-0,240
299,618	19,009	-0,149	-0,082
300,633	320,633	-0,111	-0,146
301,647	-15,483	-0,158	-0,069
302,662	252,708	-0,105	-0,123
303,676	191,301	-0,111	-0,115
304,691	99,866	-0,150	-0,120
305,706	81,310	-0,214	-0,159
306,720	9,890	-0,095	-0,049
307,735	16,587	-0,201	-0,109
308,749	30,052	-0,078	-0,046
309,764	-78,373	-0,082	-0,019
310,779	-149,233	-0,110	0,006
311,793	-97,406	-0,225	0,040
312,808	393,153	-0,129	-0,185
313,822	-159,851	-0,116	-0,004
314,837	-144,347	-0,119	-0,007
315,852	-200,000	-0,005	-0,143
316,866	1,985	-0,148	-0,073
317,881	132,226	-0,114	0,100
318,895	800,000	-0,110	-0,249
319,910	36,342	-0,180	-0,108
320,925	800,000	-0,061	-0,122
321,939	27,488	-0,167	-0,096
322,954	418,155	-0,058	-0,085
323,968	-110,060	-0,111	-0,016
324,983	60,541	-0,064	-0,044
325,997	303,315	-0,149	-0,190
327,012	124,742	-0,130	-0,112
328,027	52,092	-0,129	-0,084
329,041	33,996	-0,096	-0,057
330,056	-71,043	-0,097	0,025
331,070	800,000	-0,060	-0,141
332,085	-200,000	-0,028	-0,086
333,100	62,110	-0,205	-0,140
334,114	-127,040	-0,114	-0,011
335,129	-106,777	-0,095	-0,014
336,143	-104,010	-0,125	0,020
337,158	800,000	-0,107	-0,218
338,173	28,749	-0,107	-0,062
339,187	-126,338	-0,224	0,023
340,202	-32,925	-0,246	0,093
341,216	-27,916	-0,075	-0,030
342,231	-21,654	-0,270	-0,112
343,246	-127,272	-0,135	0,013
344,260	0,038	-0,144	0,070
345,275	170,310	-0,031	0,030
346,289	800,000	-0,050	0,148
347,304	751,583	-0,101	-0,187
348,319	156,571	-0,254	-0,240
349,333	800,000	-0,124	-0,332
350,348	-166,697	-0,073	-0,002
351,362	517,914	-0,092	-0,148
352,377	186,164	-0,080	-0,081
353,392	-198,274	-0,195	-0,001
354,406	-26,335	-0,153	-0,061
355,421	207,182	1305,115	1393,074
356,435	159,374	1464,618	1393,550
