DTS Sentinel unit serial number:	SN410029Multiplexer serial number:	ORYXHardware model number:	OX2-SRSoftware version number:	ORYX F/W v4,00 Oryx Data Collector v3.7.2.0data status	okinstallation	B3 Nyhavnadifferential loss correction	single-endedforward channel	channel 1reverse channel	N/Adate	2023/12/02time	20:57:30forward acquisition time	300,00reverse acquisition time	0,00gamma	499,1914k internal	0,3201k external	0,3201temperature offset calibration	1,0000default loss term (dB/km)	0,3820temperature slope calibration	1,0000multiplexer offset coefficient	1,0000multiplexer slope coefficient	1,0000fibre end	0,00T internal ref (°C)	13,27T ext. ref 1 (°C)	-1,80T ext. ref 2 (°C)	-1,82length (m)	temperature (°C)	Stokes	anti-Stokes-744,400	580,643	-0,138	-0,248
-743,385	-200,000	-0,092	0,299
-742,371	-200,000	-0,069	-0,312
-741,356	-200,000	-0,046	0,189
-740,342	397,668	-0,097	-0,147
-739,327	199,405	-0,212	0,237
-738,312	168,334	-0,208	-0,216
-737,298	-200,000	-0,004	0,311
-736,283	213,114	-0,169	-0,195
-735,269	800,000	0,143	0,408
-734,254	96,575	-0,236	-0,196
-733,239	442,766	-0,122	0,195
-732,225	-200,000	-0,070	-0,278
-731,210	-159,091	0,150	-0,006
-730,196	-1,665	-0,071	-0,036
-729,181	58,240	-0,096	-0,068
-728,167	800,000	-0,047	-0,138
-727,152	-200,000	0,005	-0,066
-726,137	245,474	0,113	-0,138
-725,123	3,463	-0,042	-0,022
-724,108	-68,272	-0,139	0,039
-723,094	800,000	0,030	-0,062
-722,079	800,000	-0,024	-0,052
-721,064	-200,000	-0,006	-0,206
-720,050	340,522	0,069	0,098
-719,035	-82,763	-0,190	0,044
-718,021	104,056	0,024	-0,021
-717,006	0,288	0,026	0,014
-715,991	-29,305	-0,076	-0,031
-714,977	-113,227	-0,124	0,017
-713,962	188,322	-0,099	0,107
-712,948	-200,000	0,018	-0,094
-711,933	495,501	-0,069	-0,115
-710,918	-56,469	-0,220	0,071
-709,904	271,457	0,024	0,031
-708,889	-102,697	-0,129	-0,022
-707,875	66,418	-0,075	-0,056
-706,860	5,273	0,034	0,018
-705,845	92,451	0,033	-0,027
-704,831	282,582	0,102	-0,134
-703,816	146,828	0,075	-0,073
-702,802	69,122	-0,085	0,063
-701,787	800,000	-0,063	-0,183
-700,772	12,740	-0,114	-0,064
-699,758	407,088	0,071	0,110
-698,743	15,758	-0,139	-0,079
-697,729	457,960	0,056	0,090
-696,714	-200,000	0,001	0,163
-695,699	365,440	-0,039	-0,057
-694,685	111,693	0,081	-0,071
-693,670	-58,135	-0,058	0,018
-692,656	-89,758	-0,087	-0,018
-691,641	-5,000	0,109	0,055
-690,627	100,163	0,059	-0,049
-689,612	23,620	-0,050	-0,030
-688,597	-200,000	-0,024	-0,212
-687,583	169,180	-0,041	0,043
-686,568	48,382	-0,114	-0,077
-685,554	190,466	-0,131	-0,143
-684,539	-53,599	0,112	0,037
-683,524	333,456	-0,038	0,053
-682,510	96,375	-0,041	0,034
-681,495	-2,438	-0,101	0,051
-680,481	-20,141	0,060	0,027
-679,466	800,000	-0,015	-0,032
-678,451	-200,000	-0,024	-0,080
-677,437	253,483	0,099	0,123
-676,422	201,471	0,155	0,173
-675,408	213,114	-0,044	0,050
-674,393	-53,660	0,062	-0,020
-673,378	800,000	-0,014	-0,028
-672,364	402,639	0,105	-0,161
-671,349	482,151	-0,030	0,049
-670,335	-63,157	-0,087	0,026
-669,320	-129,785	0,167	-0,016
-668,305	-200,000	0,018	-0,117
-667,291	-39,222	0,098	-0,037
-666,276	-90,972	0,076	-0,016
-665,262	-170,074	-0,202	-0,005
-664,247	-98,351	-0,149	0,028
-663,232	-200,000	-0,002	-0,182
-662,218	81,426	0,089	0,070
-661,203	-200,000	0,013	0,168
-660,189	-99,881	0,076	0,014
-659,174	225,545	-0,061	-0,072
-658,159	800,000	0,032	-0,065
-657,145	-200,000	0,002	-0,050
-656,130	-200,000	-0,004	0,040
-655,116	-200,000	-0,015	-0,050
-654,101	314,655	0,031	0,042
-653,086	400,914	0,058	0,088
-652,072	101,268	-0,097	-0,082
-651,057	101,571	-0,049	0,042
-650,043	423,059	-0,024	-0,038
-649,028	-126,810	-0,104	-0,011
-648,014	-200,000	0,023	0,109
-646,999	-51,352	0,034	-0,012
-645,984	800,000	-0,018	-0,037
-644,970	800,000	0,016	-0,040
-643,955	504,778	-0,056	-0,094
-642,941	306,254	-0,041	-0,055
-641,926	13,384	0,187	-0,105
-640,911	800,000	0,046	-0,107
-639,897	83,120	-0,004	0,003
-638,882	1,150	0,060	0,031
-637,868	-102,175	0,147	-0,025
-636,853	-62,884	-0,043	-0,013
-635,838	-6,886	-0,087	0,043
-634,824	363,242	-0,073	-0,107
-633,809	-200,000	0,030	0,121
-632,795	-167,355	-0,078	0,002
-631,780	51,219	0,100	-0,068
-630,765	800,000	-0,053	0,114
-629,751	-68,848	-0,091	0,025
-628,736	-200,000	0,032	-0,103
-627,722	3,698	0,014	-0,008
-626,707	-18,620	0,027	0,012
-625,692	-195,669	0,038	0,000
-624,678	-31,169	-0,073	0,030
-623,663	-200,000	-0,016	0,067
-622,649	63,392	-0,222	-0,161
-621,634	131,656	0,043	0,040
-620,619	-200,000	0,006	0,028
-619,605	135,466	0,118	0,111
-618,590	-154,059	0,004	0,000
-617,576	-61,980	0,133	0,040
-616,561	800,000	-0,079	0,176
-615,546	-92,790	-0,130	0,026
-614,532	28,628	-0,153	-0,093
-613,517	-5,777	0,051	0,025
-612,503	-200,000	0,010	0,083
-611,488	190,004	0,011	-0,012
-610,474	-200,000	-0,028	0,154
-609,459	-200,000	-0,027	0,117
-608,444	-200,000	-0,014	-0,181
-607,430	670,401	-0,060	-0,113
-606,415	-200,000	0,000	0,009
-605,401	609,286	0,051	-0,092
-604,386	-127,327	0,029	-0,003
-603,371	6,801	0,037	0,020
-602,357	-11,571	-0,038	0,018
-601,342	-42,792	-0,073	0,027
-600,328	-60,501	0,141	-0,043
-599,313	180,108	0,065	-0,069
-598,298	241,143	-0,077	0,093
-597,284	-200,000	-0,005	0,063
-596,269	21,097	0,102	0,060
-595,255	-116,783	-0,143	-0,019
-594,240	-163,358	-0,089	0,003
-593,225	385,341	-0,052	-0,077
-592,211	-35,646	-0,079	0,031
-591,196	800,000	-0,023	-0,066
-590,182	83,769	0,070	-0,055
-589,167	12,965	-0,070	0,039
-588,152	800,000	-0,058	0,145
-587,138	-113,724	-0,112	0,016
-586,123	-27,027	-0,109	0,046
-585,109	77,614	0,085	0,066
-584,094	-200,000	-0,002	0,066
-583,079	-116,452	0,012	-0,002
-582,065	646,803	-0,097	0,179
-581,050	193,732	0,109	0,120
-580,036	71,324	-0,113	0,085
-579,021	22,292	0,014	0,008
-578,006	-33,098	-0,033	0,013
-576,992	90,819	0,083	0,067
-575,977	-200,000	0,006	-0,046
-574,963	-96,167	-0,043	0,008
-573,948	123,220	0,036	0,033
-572,934	800,000	-0,009	0,023
-571,919	78,007	-0,183	0,141
-570,904	-49,036	-0,104	0,036
-569,890	-60,576	-0,016	-0,005
-568,875	-36,084	0,178	0,069
-567,861	-97,979	-0,108	-0,020
-566,846	-200,000	0,010	-0,062
-565,831	29,296	0,016	0,010
-564,817	-95,910	-0,182	0,035
-563,802	235,605	0,006	-0,007
-562,788	32,271	-0,094	0,058
-561,773	387,138	0,064	-0,096
-560,758	-200,000	-0,002	-0,061
-559,744	-89,075	-0,033	0,007
-558,729	-200,000	-0,003	0,065
-557,715	415,667	-0,043	-0,066
-556,700	-200,000	-0,007	-0,031
-555,685	350,414	0,029	0,041
-554,671	453,324	0,017	0,027
-553,656	45,516	-0,058	-0,039
-552,642	380,733	0,073	-0,109
-551,627	-8,557	-0,052	0,025
-550,612	-200,000	-0,011	-0,070
-549,598	-32,342	-0,058	-0,023
-548,583	800,000	0,010	0,027
-547,569	448,046	-0,026	-0,042
-546,554	-60,147	0,064	0,020
-545,539	800,000	-0,027	-0,079
-544,525	203,054	-0,018	0,020
-543,510	360,191	0,037	0,054
-542,496	-200,000	0,000	0,072
-541,481	-200,000	0,005	-0,100
-540,466	386,728	-0,055	-0,083
-539,452	534,366	-0,017	0,029
-538,437	800,000	0,013	-0,033
-537,423	150,601	0,071	0,069
-536,408	442,235	-0,089	0,142
-535,393	256,772	0,024	0,030
-534,379	756,409	-0,018	-0,034
-533,364	-93,249	0,040	0,008
-532,350	442,985	-0,022	0,035
-531,335	800,000	-0,015	0,034
-530,321	-160,816	-0,041	-0,002
-529,306	589,424	0,047	0,083
-528,291	-12,400	-0,085	0,040
-527,277	23,316	-0,140	0,083
-526,262	-200,000	-0,021	0,085
-525,248	-160,315	-0,129	0,005
-524,233	96,903	-0,094	-0,077
-523,218	-132,702	0,151	-0,014
-522,204	37,675	-0,027	-0,017
-521,189	-24,089	-0,112	-0,048
-520,175	175,910	-0,085	-0,089
-519,160	679,204	0,018	0,035
-518,145	-200,000	0,014	0,169
-517,131	83,610	0,156	0,123
-516,116	122,890	-0,019	-0,018
-515,102	800,000	0,033	0,076
-514,087	-200,000	0,011	-0,139
-513,072	-200,000	0,022	-0,084
-512,058	107,057	-0,015	-0,013
-511,043	-36,172	0,058	-0,022
-510,029	30,756	-0,044	-0,027
-509,014	-88,506	0,114	-0,024
-507,999	-67,224	0,063	-0,018
-506,985	450,765	-0,043	0,068
-505,970	-47,797	-0,093	-0,032
-504,956	800,000	-0,066	-0,141
-503,941	-200,000	-0,021	-0,080
-502,926	-30,737	-0,038	0,015
-501,912	-200,000	-0,003	0,166
-500,897	-200,000	-0,002	0,134
-499,883	340,433	0,043	-0,061
-498,868	-200,000	-0,010	-0,096
-497,853	-157,699	-0,143	0,006
-496,839	-200,000	-0,016	-0,115
-495,824	800,000	0,043	-0,105
-494,810	-91,678	-0,037	-0,008
-493,795	14,242	-0,100	0,056
-492,781	-200,000	-0,011	-0,076
-491,766	129,666	-0,024	-0,022
-490,751	-200,000	-0,016	0,062
-489,737	-200,000	-0,003	-0,015
-488,722	-124,595	0,034	-0,004
-487,708	-200,000	-0,005	-0,024
-486,693	214,166	-0,128	0,146
-485,678	371,313	-0,070	0,102
-484,664	795,314	-0,078	-0,155
-483,649	-7,782	-0,043	-0,021
-482,635	587,160	0,065	-0,116
-481,620	-168,250	0,056	-0,002
-480,605	28,812	0,073	0,045
-479,591	-200,000	-0,018	0,066
-478,576	-200,000	-0,021	0,090
-477,562	-181,242	0,134	-0,002
-476,547	261,473	-0,035	-0,044
-475,532	-46,547	-0,073	-0,026
-474,518	-28,716	-0,039	0,016
-473,503	84,974	-0,022	0,018
-472,489	-20,827	0,101	-0,044
-471,474	-50,299	-0,055	0,019
-470,459	133,729	0,103	-0,096
-469,445	-64,742	-0,075	0,022
-468,430	-200,000	0,007	-0,039
-467,416	376,465	0,011	0,016
-466,401	800,000	0,031	-0,089
-465,386	-200,000	0,026	-0,108
-464,372	-31,867	0,087	0,035
-463,357	163,140	-0,078	-0,079
-462,343	-200,000	0,045	-0,172
-461,328	-100,062	-0,171	0,030
-460,313	-200,000	0,010	0,048
-459,299	403,990	0,059	-0,090
-458,284	-55,367	0,032	0,010
-457,270	227,806	0,092	0,108
-456,255	-172,781	-0,038	0,001
-455,241	51,899	-0,085	-0,058
-454,226	-28,583	-0,091	-0,038
-453,211	5,627	-0,043	0,023
-452,197	-130,404	0,109	-0,011
-451,182	-200,000	0,003	0,156
-450,168	357,271	0,103	0,148
-449,153	-200,000	0,008	-0,107
-448,138	-200,000	0,008	0,030
-447,124	-37,652	0,082	0,031
-446,109	800,000	0,031	0,085
-445,095	-200,000	-0,025	0,087
-444,080	309,904	0,099	0,133
-443,065	800,000	-0,063	0,127
-442,051	-200,000	-0,008	-0,044
-441,036	-200,000	-0,046	-0,150
-440,022	-200,000	-0,017	-0,147
-439,007	-24,111	-0,058	-0,025
-437,992	-161,446	-0,054	-0,002
-436,978	13,440	-0,012	0,007
-435,963	800,000	-0,044	0,132
-434,949	-200,000	0,016	-0,118
-433,934	-75,411	0,063	-0,016
-432,919	800,000	0,060	-0,125
-431,905	-136,839	-0,192	0,016
-430,890	104,612	-0,067	0,056
-429,876	78,153	0,037	-0,029
-428,861	-200,000	-0,007	0,226
-427,846	-163,565	0,069	-0,002
-426,832	163,781	-0,058	-0,059
-425,817	-61,538	-0,098	0,029
-424,803	-147,211	-0,058	-0,003
-423,788	-164,674	0,064	0,002
-422,773	19,284	0,025	-0,014
-421,759	23,309	-0,088	0,052
-420,744	486,132	0,063	-0,103
-419,730	-31,120	-0,025	-0,010
-418,715	161,413	-0,050	-0,050
-417,701	361,913	0,052	0,075
-416,686	99,502	0,058	0,048
-415,671	389,522	0,039	0,058
-414,657	-127,619	0,067	0,007
-413,642	-51,980	-0,072	-0,024
-412,628	-49,323	-0,072	-0,024
-411,613	18,866	0,121	-0,069
-410,598	-63,189	0,084	0,025
-409,584	-200,000	-0,009	-0,113
-408,569	119,689	0,068	-0,060
-407,555	225,636	0,072	0,084
-406,540	800,000	0,006	-0,017
-405,525	552,029	-0,077	-0,133
-404,511	-114,690	-0,155	-0,021
-403,496	-99,262	-0,095	-0,017
-402,482	-200,000	-0,027	-0,106
-401,467	-134,986	0,113	-0,010
-400,452	800,000	0,082	0,191
-399,438	137,052	0,066	0,062
-398,423	800,000	0,026	0,059
-397,409	471,703	-0,065	-0,105
-396,394	-200,000	-0,001	0,040
-395,379	-150,934	0,139	0,007
-394,365	-101,261	0,122	-0,021
-393,350	-61,005	0,097	-0,029
-392,336	-122,940	-0,080	-0,009
-391,321	-200,000	0,004	0,021
-390,306	236,014	-0,091	-0,109
-389,292	-200,000	-0,020	-0,077
-388,277	-129,059	-0,044	-0,004
-387,263	728,350	-0,014	0,027
-386,248	-104,701	0,017	-0,003
-385,233	752,376	0,031	-0,060
-384,219	-39,748	-0,108	-0,040
-383,204	727,014	0,046	-0,089
-382,190	-91,655	0,052	0,011
-381,175	200,075	0,060	-0,066
-380,160	-200,000	-0,027	0,112
-379,146	612,236	0,097	0,175
-378,131	277,080	-0,068	-0,087
-377,117	800,000	-0,009	0,028
-376,102	-200,000	0,043	-0,146
-375,088	-200,000	-0,021	-0,187
-374,073	93,575	-0,055	-0,044
-373,058	16,620	0,077	0,044
-372,044	-57,581	0,075	-0,023
-371,029	-200,000	0,002	0,098
-370,015	800,000	-0,040	-0,127
-369,000	-136,358	0,073	0,006
-367,985	94,451	-0,107	-0,087
-366,971	-112,982	0,090	-0,013
-365,956	-2,893	0,039	0,019
-364,942	800,000	0,043	0,131
-363,927	270,808	-0,074	0,094
-362,912	6,972	0,133	-0,071
-361,898	373,183	0,020	0,029
-360,883	117,599	0,044	-0,039
-359,869	114,733	-0,041	-0,036
-358,854	-200,000	-0,006	0,059
-357,839	-39,593	0,129	-0,048
-356,825	441,712	-0,091	0,143
-355,810	27,155	0,053	-0,032
-354,796	-200,000	-0,020	-0,108
-353,781	-74,552	-0,037	0,009
-352,766	681,323	-0,036	0,068
-351,752	800,000	0,050	0,138
-350,737	120,929	0,081	0,072
-349,723	-200,000	0,009	-0,072
-348,708	-200,000	-0,005	-0,038
-347,693	372,734	0,075	0,109
-346,679	800,000	-0,030	-0,063
-345,664	-83,150	0,117	0,027
-344,650	-102,816	-0,172	-0,029
-343,635	-83,819	0,068	0,015
-342,620	-143,342	0,080	0,005
-341,606	-200,000	-0,010	0,049
-340,591	-50,671	-0,073	-0,024
-339,577	101,758	0,023	-0,019
-338,562	-12,000	0,069	-0,032
-337,548	90,142	0,022	-0,018
-336,533	32,083	0,070	0,043
-335,518	-92,145	-0,105	-0,021
-334,504	-115,199	-0,074	-0,010
-333,489	140,543	0,136	0,129
-332,475	715,344	0,018	-0,034
-331,460	203,468	-0,049	0,054
-330,445	147,840	-0,036	-0,035
-329,431	-1,859	-0,054	0,027
-328,416	262,761	0,129	0,160
-327,402	335,987	-0,028	-0,040
-326,387	800,000	-0,030	0,072
-325,372	-11,668	0,054	-0,025
-324,358	-200,000	0,019	-0,085
-323,343	-39,844	0,052	-0,019
-322,329	-7,271	-0,033	-0,016
-321,314	800,000	-0,055	0,137
-320,299	5,923	-0,024	0,013
-319,285	137,435	0,099	-0,092
-318,270	-200,000	0,008	0,036
-317,256	109,051	0,169	-0,145
-316,241	64,671	-0,086	0,062
-315,226	346,174	0,104	0,147
-314,212	-200,000	-0,001	-0,019
-313,197	-125,256	0,079	-0,009
-312,183	800,000	-0,054	-0,108
-311,168	89,546	-0,113	-0,090
-310,153	180,175	0,036	0,038
-309,139	-5,363	-0,017	-0,008
-308,124	-200,000	-0,005	0,076
-307,110	-200,000	0,019	0,062
-306,095	93,710	0,110	0,089
-305,080	-200,000	-0,002	0,101
-304,066	800,000	0,025	-0,061
-303,051	-200,000	0,003	-0,024
-302,037	95,685	-0,027	-0,022
-301,022	800,000	0,042	0,107
-300,008	-21,767	0,142	0,062
-298,993	314,621	-0,020	0,028
-297,978	-132,628	-0,064	-0,006
-296,964	-75,538	0,157	0,040
-295,949	124,698	-0,057	0,051
-294,935	135,990	-0,029	-0,027
-293,920	-147,603	0,129	0,008
-292,905	45,778	0,051	-0,034
-291,891	258,364	0,158	0,195
-290,876	32,097	-0,185	0,114
-289,862	-200,000	-0,007	-0,061
-288,847	90,603	-0,126	-0,101
-287,832	-4,303	-0,039	-0,019
-286,818	-200,000	0,020	0,068
-285,803	-200,000	0,012	0,131
-284,789	-76,052	0,127	0,032
-283,774	-166,634	0,045	-0,001
-282,759	-200,000	-0,022	-0,081
-281,745	-13,491	-0,044	-0,020
-280,730	-200,000	-0,004	-0,030
-279,716	1,958	0,173	0,089
-278,701	724,841	-0,044	0,084
-277,686	-200,000	0,005	0,115
-276,672	-200,000	-0,010	0,150
-275,657	413,736	0,030	-0,046
-274,643	-200,000	-0,024	-0,111
-273,628	800,000	0,035	-0,077
-272,613	84,112	-0,075	-0,059
-271,599	43,209	0,098	0,064
-270,584	-200,000	-0,025	-0,132
-269,570	335,852	0,049	0,068
-268,555	-162,919	0,161	0,005
-267,540	43,852	0,063	0,041
-266,526	113,150	-0,031	0,026
-265,511	-200,000	-0,015	0,062
-264,497	427,671	0,088	0,135
-263,482	84,363	-0,068	0,053
-262,467	69,708	-0,060	-0,044
-261,453	440,796	0,048	-0,075
-260,438	32,782	0,104	0,064
-259,424	390,814	-0,030	-0,044
-258,409	800,000	0,050	0,107
-257,395	195,118	-0,020	-0,021
-256,380	800,000	-0,034	0,089
-255,365	28,980	0,080	0,048
-254,351	-163,745	0,132	-0,004
-253,336	209,442	-0,082	-0,091
-252,322	497,305	0,069	-0,115
-251,307	-200,000	-0,040	-0,159
-250,292	124,912	-0,085	-0,076
-249,278	800,000	-0,030	0,071
-248,263	-24,488	0,137	-0,058
-247,249	-200,000	-0,012	-0,056
-246,234	-66,541	-0,082	-0,023
-245,219	472,412	-0,069	0,111
-244,205	126,552	0,086	-0,078
-243,190	-200,000	0,015	-0,048
-242,176	-200,000	0,012	-0,188
-241,161	800,000	-0,066	0,133
-240,146	-147,116	0,166	-0,010
-239,132	221,339	0,114	-0,130
-238,117	76,740	0,090	-0,068
-237,103	185,742	-0,118	-0,125
-236,088	800,000	0,080	-0,182
-235,073	-200,000	0,023	0,126
-234,059	175,846	-0,041	-0,042
-233,044	-200,000	0,022	-0,083
-232,030	-197,923	-0,151	0,001
-231,015	356,553	-0,121	-0,173
-230,000	113,327	-0,132	-0,115
-228,986	800,000	0,028	-0,059
-227,971	57,051	-0,047	-0,033
-226,957	224,069	0,049	-0,056
-225,942	-3,685	-0,079	-0,039
-224,927	37,673	-0,086	0,055
-223,913	-72,960	0,019	0,005
-222,898	266,455	0,026	-0,032
-221,884	211,220	0,013	0,014
-220,869	-200,000	0,007	0,029
-219,855	53,486	-0,052	0,036
-218,840	800,000	0,037	0,090
-217,825	90,167	0,083	0,066
-216,811	-161,296	-0,105	-0,004
-215,796	800,000	0,045	-0,099
-214,782	122,755	-0,108	-0,096
-213,767	-82,273	-0,119	-0,027
-212,752	449,760	0,104	-0,164
-211,738	-200,000	0,003	0,093
-210,723	-116,114	0,090	-0,012
-209,709	-139,932	-0,068	0,005
-208,694	800,000	0,026	-0,076
-207,679	-200,000	0,008	0,033
-206,665	-200,000	-0,008	-0,101
-205,650	-200,000	0,005	0,032
-204,636	413,256	0,068	0,104
-203,621	-200,000	0,021	0,000
-202,606	395,469	-0,016	-0,023
-201,592	-32,006	-0,069	-0,027
-200,577	196,549	0,043	-0,046
-199,563	-147,847	0,061	0,004
-198,548	-200,000	-0,019	-0,093
-197,533	437,769	0,056	0,087
-196,519	800,000	-0,033	0,085
-195,504	66,958	0,020	-0,014
-194,490	-102,053	0,117	0,020
-193,475	246,491	-0,090	0,108
-192,460	-116,184	0,078	-0,010
-191,446	-114,429	-0,048	0,006
-190,431	761,392	-0,037	0,072
-189,417	-200,000	-0,006	0,122
-188,402	800,000	0,046	0,100
-187,387	620,163	-0,050	-0,090
-186,373	-28,837	-0,150	-0,061
-185,358	-48,013	-0,069	-0,023
-184,344	800,000	-0,032	-0,095
-183,329	-200,000	-0,019	0,092
-182,315	-42,674	0,023	-0,008
-181,300	-200,000	0,013	-0,049
-180,285	89,820	-0,052	0,042
-179,271	259,066	-0,038	-0,047
-178,256	800,000	-0,009	-0,018
-177,242	-98,996	0,057	0,010
-176,227	424,441	0,006	0,009
-175,212	3,763	0,131	-0,068
-174,198	-92,181	-0,013	-0,003
-173,183	-185,450	0,084	-0,001
-172,169	-120,251	0,122	-0,015
-171,154	-60,736	0,146	0,044
-170,139	71,979	-0,031	0,023
-169,125	-45,883	-0,104	-0,036
-168,110	800,000	0,029	-0,085
-167,096	150,939	0,030	-0,029
-166,081	36,353	-0,068	-0,042
-165,066	-4,631	0,044	-0,022
-164,052	136,188	-0,010	-0,009
-163,037	-74,074	0,054	-0,014
-162,023	-163,853	-0,115	0,004
-161,008	-200,000	0,024	0,125
-159,993	17,374	-0,034	-0,019
-158,979	-37,498	0,014	0,005
-157,964	-200,000	-0,034	-0,142
-156,950	-200,000	-0,016	-0,110
-155,935	-200,000	0,029	0,096
-154,920	191,151	0,039	0,042
-153,906	-200,000	0,004	0,014
-152,891	189,350	0,054	0,058
-151,877	11,161	0,086	-0,047
-150,862	-33,838	-0,100	-0,039
-149,847	-200,000	0,048	0,165
-148,833	56,369	0,043	0,030
-147,818	18,406	-0,070	-0,040
-146,804	-200,000	-0,009	0,203
-145,789	-200,000	0,002	0,175
-144,775	-200,000	0,009	-0,161
-143,760	-56,923	-0,028	-0,009
-142,745	-149,036	-0,161	0,009
-141,731	-24,348	0,104	0,044
-140,716	50,213	-0,108	0,073
-139,702	274,590	-0,030	0,038
-138,687	234,504	0,016	0,019
-137,672	-148,883	-0,064	-0,004
-136,658	-200,000	-0,023	-0,129
-135,643	-200,000	0,002	0,055
-134,629	92,710	0,046	0,037
-133,614	-29,092	0,080	-0,033
-132,599	-143,367	-0,025	0,002
-131,585	-8,773	-0,132	-0,063
-130,570	113,167	-0,079	0,068
-129,556	-34,173	-0,103	0,040
-128,541	-200,000	0,002	-0,027
-127,526	92,520	-0,066	0,052
-126,512	-124,599	0,118	0,013
-125,497	800,000	-0,046	0,106
-124,483	-28,497	0,120	0,049
-123,468	-200,000	-0,029	0,141
-122,453	54,421	-0,054	-0,037
-121,439	-24,049	-0,037	-0,016
-120,424	-200,000	-0,009	-0,069
-119,410	327,887	-0,076	0,104
-118,395	-25,665	0,148	0,062
-117,380	186,426	0,045	-0,048
-116,366	-200,000	0,046	0,177
-115,351	-143,005	-0,249	-0,017
-114,337	800,000	0,025	-0,050
-113,322	-200,000	0,008	-0,061
-112,307	163,662	0,073	0,073
-111,293	-200,000	0,056	0,204
-110,278	-200,000	-0,024	0,119
-109,264	800,000	-0,064	0,138
-108,249	-200,000	-0,002	0,121
-107,234	800,000	0,031	-0,096
-106,220	-200,000	0,030	-0,133
-105,205	800,000	-0,060	0,123
-104,191	64,401	0,136	0,097
-103,176	800,000	-0,067	0,183
-102,162	142,211	0,042	0,039
-101,147	-150,693	-0,006	0,000
-100,132	128,158	-0,166	-0,150
-99,118	-143,276	0,063	-0,004
-98,103	156,153	0,136	0,133
-97,089	-200,000	0,010	0,051
-96,074	-63,686	0,039	0,011
-95,059	180,354	0,086	-0,089
-94,045	51,147	-0,030	-0,020
-93,030	800,000	0,027	-0,061
-92,016	304,079	0,084	0,111
-91,001	136,687	-0,055	-0,051
-89,986	-200,000	0,015	0,084
-88,972	213,750	-0,058	0,065
-87,957	800,000	-0,021	-0,062
-86,943	132,278	0,120	-0,110
-85,928	-130,652	-0,218	-0,021
-84,913	220,849	-0,060	-0,068
-83,899	-200,000	0,002	0,125
-82,884	-96,898	0,209	-0,038
-81,870	-21,422	0,089	0,038
-80,855	-200,000	-0,025	0,129
-79,840	325,249	0,018	-0,024
-78,826	155,982	-0,054	0,052
-77,811	104,646	-0,112	0,094
-76,797	800,000	0,031	-0,094
-75,782	-200,000	-0,034	0,116
-74,767	-37,522	0,078	0,029
-73,753	800,000	-0,052	-0,110
-72,738	-135,108	-0,038	-0,003
-71,724	4,548	-0,134	-0,070
-70,709	4,371	-0,069	0,036
-69,694	-132,001	-0,059	0,005
-68,680	-46,691	0,167	-0,058
-67,665	800,000	-0,070	0,172
-66,651	137,005	0,020	-0,019
-65,636	161,812	-0,037	-0,037
-64,622	273,869	-0,063	-0,079
-63,607	-200,000	-0,016	-0,121
-62,592	800,000	-0,020	-0,041
-61,578	0,620	0,165	-0,083
-60,563	254,419	-0,077	-0,093
-59,549	-56,582	-0,062	-0,019
-58,534	7,707	-1,520	-0,803
-57,519	444,700	-1,380	-2,153
-56,505	-200,000	-0,430	-4,612
-55,490	183,243	0,986	1,032
-54,476	800,000	4,898	11,345
-53,461	-200,000	19,224	321,143
-52,446	-200,000	741,205	2335,295
-51,432	572,497	1655,866	2868,335
-50,417	78,206	1671,156	1261,665
-49,403	21,280	1544,147	885,733
-48,388	15,123	1466,632	811,317
-47,373	18,063	1456,705	820,002
-46,359	16,694	1446,731	807,792
-45,344	13,366	1442,005	789,173
-44,330	13,298	1440,033	787,737
-43,315	13,316	1438,256	786,821
-42,300	13,304	1436,712	785,888
-41,286	13,326	1435,342	785,212
-40,271	13,300	1434,167	784,410
-39,257	13,299	1432,717	783,583
-38,242	13,361	1431,548	783,209
-37,227	13,344	1430,313	782,422
-36,213	13,393	1428,839	781,817
-35,198	13,368	1427,632	781,007
-34,184	13,398	1426,775	780,647
-33,169	13,313	1425,581	779,563
-32,154	13,359	1424,616	779,218
-31,140	13,386	1423,413	778,658
-30,125	13,430	1422,060	778,096
-29,111	13,357	1421,005	777,143
-28,096	13,318	1419,998	776,380
-27,082	13,287	1418,800	775,546
-26,067	13,277	1417,717	774,877
-25,052	13,260	1416,591	774,148
-24,038	13,266	1415,603	773,605
-23,023	13,285	1414,491	773,060
-22,009	13,256	1413,508	772,354
-20,994	13,214	1412,557	771,605
-19,979	13,289	1411,567	771,385
-18,965	13,240	1410,766	770,688
-17,950	13,226	1409,770	770,050
-16,936	13,264	1408,789	769,659
-15,921	13,217	1407,642	768,781
-14,906	13,212	1406,834	768,287
-13,892	13,227	1406,014	767,880
-12,877	13,225	1404,974	767,270
-11,863	13,213	1404,149	766,734
-10,848	13,218	1403,237	766,228
-9,833	13,186	1402,512	765,654
-8,819	13,138	1401,662	764,938
-7,804	13,117	1400,763	764,320
-6,790	13,122	1399,707	763,733
-5,775	13,115	1398,741	763,144
-4,760	13,114	1397,519	762,441
-3,746	13,061	1396,947	761,853
-2,731	13,103	1396,034	761,523
-1,717	13,067	1395,123	760,824
-0,702	13,110	1393,239	759,966
0,313	16,933	1310,051	732,312
1,327	33,225	703,660	430,995
2,342	51,470	123,202	82,692
3,356	0,276	16,801	8,454
4,371	8,207	3,322	1,760
5,386	-76,326	0,542	0,134
6,400	305,532	0,162	0,214
7,415	-84,602	-0,232	-0,051
8,429	115,944	-0,331	-0,287
9,444	508,208	-0,252	-0,415
10,459	-21,359	-0,315	-0,135
11,473	-25,633	-0,271	-0,113
12,488	160,197	-0,206	-0,203
13,502	145,544	-0,253	-0,240
14,517	0,036	-0,339	-0,170
15,531	270,273	-0,337	-0,420
16,546	105,762	-0,321	-0,269
17,561	263,529	-0,328	-0,404
18,575	-31,665	-0,330	-0,130
19,590	115,528	-0,250	-0,216
20,604	64,844	-0,177	-0,126
21,619	-21,155	-0,445	-0,191
22,634	46,519	-0,539	-0,352
23,648	141,721	-0,426	-0,399
24,663	89,404	-0,368	-0,290
25,677	41,656	-0,367	-0,235
26,692	110,126	-0,262	-0,222
27,707	144,695	-0,361	-0,341
28,721	52,882	-0,343	-0,231
29,736	321,775	-0,277	-0,373
30,750	54,453	-0,473	-0,321
31,765	162,117	-0,344	-0,340
32,780	145,915	-0,378	-0,358
33,794	26,053	-0,363	-0,213
34,809	306,942	-0,199	-0,262
35,823	252,041	-0,243	-0,292
36,838	173,533	-0,368	-0,374
37,853	49,626	-0,359	-0,238
38,867	8,224	-0,370	-0,196
39,882	30,173	-0,453	-0,272
40,896	160,926	-0,307	-0,303
41,911	25,311	-0,366	-0,214
42,926	-24,646	-0,306	-0,128
43,940	117,486	-0,268	-0,232
44,955	61,566	-0,380	-0,266
45,969	31,464	-0,532	-0,322
46,984	-8,100	-0,373	-0,177
47,999	58,575	-0,277	-0,191
49,013	198,380	-0,212	-0,228
50,028	189,430	-0,303	-0,320
51,042	432,942	-0,153	-0,235
52,057	-16,229	-0,369	-0,165
53,071	367,139	-0,216	-0,308
54,086	248,568	-0,191	-0,228
55,101	212,041	-0,345	-0,384
56,115	68,072	-0,359	-0,259
57,130	-59,631	-0,462	-0,139
58,144	63,662	-0,494	-0,349
59,159	77,990	-0,326	-0,245
60,174	119,140	-0,298	-0,259
61,188	28,061	-0,260	-0,154
62,203	1,456	-0,293	-0,148
63,217	2,181	-0,373	-0,189
64,232	28,941	-0,311	-0,185
65,247	8,272	-0,366	-0,193
66,261	20,157	-0,464	-0,263
67,276	172,920	-0,296	-0,301
68,290	-23,147	-0,267	-0,112
69,305	109,500	-0,258	-0,217
70,320	292,970	-0,214	-0,276
71,334	-59,354	-0,319	-0,096
72,349	70,499	-0,282	-0,205
73,363	100,396	-0,382	-0,312
74,378	85,017	-0,402	-0,309
75,393	66,711	-0,280	-0,200
76,407	-54,754	-0,318	-0,100
77,422	-43,764	-0,278	-0,098
78,436	12,642	-0,186	-0,101
79,451	-6,078	-0,409	-0,196
80,466	93,904	-0,457	-0,364
81,480	-75,114	-0,360	-0,090
82,495	147,914	-0,273	-0,259
83,509	16,309	-0,321	-0,178
84,524	10,460	-0,235	-0,125
85,539	8,419	-0,341	-0,179
86,553	139,692	-0,247	-0,228
87,568	-70,533	-0,365	-0,096
88,582	79,068	-0,287	-0,216
89,597	64,463	-0,328	-0,231
90,611	3,146	-0,259	-0,132
91,626	21,974	-0,207	-0,118
92,641	22,126	-0,197	-0,112
93,655	10,068	-0,305	-0,162
94,670	31,495	-0,251	-0,151
95,684	108,250	-0,228	-0,190
96,699	5,954	-0,283	-0,147
97,714	-81,287	-0,360	-0,083
98,728	122,428	-0,270	-0,237
99,743	96,267	-0,169	-0,135
100,757	121,540	-0,308	-0,269
101,772	24,592	-0,402	-0,233
102,787	105,287	-0,344	-0,285
103,801	395,998	-0,205	-0,300
104,816	120,288	-0,284	-0,247
105,830	161,507	-0,190	-0,186
106,845	-174,509	-0,359	-0,007
107,860	111,817	-0,305	-0,258
108,874	420,252	-0,174	-0,261
109,889	14,092	-0,482	-0,263
110,903	152,232	-0,283	-0,271
111,918	197,832	-0,225	-0,241
112,933	199,309	-0,211	-0,227
113,947	234,369	-0,227	-0,263
114,962	35,919	-0,309	-0,190
115,976	200,852	-0,229	-0,247
116,991	183,894	-0,328	-0,340
118,006	324,993	-0,182	-0,244
119,020	-71,311	-0,382	-0,100
120,035	-108,611	-0,216	-0,032
121,049	-119,429	-0,197	0,024
122,064	-10,214	-0,293	-0,136
123,079	180,596	-0,179	-0,184
124,093	236,396	-0,185	-0,215
125,108	111,649	-0,278	-0,235
126,122	-90,366	-0,324	-0,065
127,137	-24,444	-0,259	-0,107
128,151	-102,339	-0,142	-0,024
129,166	-44,826	-0,188	-0,065
130,181	-102,360	-0,328	0,055
131,195	371,570	-0,200	-0,285
132,210	136,893	-0,197	-0,180
133,224	331,519	-0,255	-0,345
134,239	29,004	-0,239	-0,142
135,254	21,304	-0,247	-0,140
136,268	68,534	-0,281	-0,201
137,283	45,787	-0,305	-0,197
138,297	97,259	-0,210	-0,169
139,312	57,901	-0,293	-0,200
140,327	438,992	-0,237	-0,362
141,341	694,991	-0,098	-0,181
142,356	224,590	-0,161	-0,182
143,370	172,248	-0,233	-0,235
144,385	182,141	-0,210	-0,216
145,400	41,305	-0,248	-0,156
146,414	57,366	-0,411	-0,280
147,429	51,147	-0,344	-0,228
148,443	79,188	-0,250	-0,187
149,458	78,615	-0,266	-0,198
150,473	-200,000	-0,017	-0,178
151,487	75,286	-0,390	-0,287
152,502	13,067	-0,368	-0,198
153,516	190,637	-0,160	-0,168
154,531	-10,316	-0,281	-0,130
155,546	-200,000	-0,078	-0,260
156,560	78,634	-0,178	-0,132
157,575	-23,707	-0,203	-0,085
158,589	141,677	-0,218	-0,202
159,604	681,178	-0,119	-0,216
160,619	447,447	-0,201	-0,310
161,633	-31,496	-0,396	-0,155
162,648	-13,435	-0,274	-0,123
163,662	76,066	-0,249	-0,183
164,677	-18,543	-0,157	-0,068
165,692	137,133	-0,243	-0,221
166,706	-14,360	-0,330	-0,148
167,721	-149,200	-0,272	-0,015
168,735	141,964	-0,281	-0,260
169,750	-122,988	-0,274	-0,030
170,764	414,305	-0,171	-0,255
171,779	319,995	-0,172	-0,228
172,794	-56,436	-0,315	-0,097
173,808	-33,022	-0,142	0,055
174,823	158,922	-0,201	-0,194
175,837	62,787	-0,262	-0,183
176,852	79,904	-0,210	-0,157
177,867	85,042	-0,153	-0,117
178,881	8,588	-0,149	-0,078
179,896	144,285	-0,138	-0,128
180,910	195,067	-0,256	-0,271
181,925	371,765	-0,147	-0,208
182,940	150,094	-0,283	-0,267
183,954	422,875	-0,198	-0,297
184,969	16,258	-0,235	-0,129
185,983	1,518	-0,208	-0,104
186,998	301,167	-0,156	-0,201
188,013	98,108	-0,214	-0,172
189,027	273,083	-0,177	-0,219
190,042	96,438	-0,281	-0,224
191,056	-14,564	-0,277	-0,123
192,071	34,091	-0,214	-0,129
193,086	-14,947	-0,229	-0,102
194,100	14,585	-0,305	-0,165
195,115	244,529	-0,180	-0,210
196,129	148,260	-0,267	-0,251
197,144	266,278	-0,289	-0,352
198,159	-104,750	-0,215	0,034
199,173	-61,433	-0,229	-0,066
200,188	37,131	-0,280	-0,172
201,202	163,585	-0,173	-0,169
202,217	-14,549	-0,217	-0,097
203,232	158,695	-0,179	-0,173
204,246	398,376	-0,173	-0,253
205,261	159,203	-0,263	-0,254
206,275	18,034	-0,141	-0,078
207,290	-37,796	-0,185	-0,068
208,304	98,341	-0,216	-0,173
209,319	800,000	-0,062	-0,188
210,334	800,000	-0,098	-0,207
211,348	402,668	-0,188	-0,276
212,363	165,471	-0,146	-0,144
213,377	22,455	-0,249	-0,141
214,392	-34,847	-0,086	-0,032
215,407	110,392	-0,217	-0,181
216,421	1,700	-0,216	-0,108
217,436	145,355	-0,145	-0,135
218,450	222,505	-0,205	-0,229
219,465	97,326	-0,293	-0,234
220,480	-76,343	-0,222	-0,054
221,494	162,848	-0,160	-0,156
222,509	54,280	-0,158	-0,106
223,523	800,000	-0,085	-0,203
224,538	46,760	-0,198	-0,128
225,553	-10,952	-0,202	-0,092
226,567	227,123	-0,170	-0,192
227,582	137,695	-0,234	-0,212
228,596	-24,899	-0,159	-0,065
229,611	36,865	-0,258	-0,158
230,626	-64,858	-0,220	0,061
231,640	108,937	-0,211	-0,175
232,655	83,378	-0,172	-0,130
233,669	97,097	-0,261	-0,208
234,684	800,000	-0,107	-0,299
235,699	-84,393	-0,197	-0,043
236,713	-200,000	-0,028	-0,099
237,728	24,495	-0,237	-0,135
238,742	-27,834	-0,198	-0,079
239,757	68,982	-0,267	-0,190
240,772	9,498	-0,296	-0,155
241,786	28,883	-0,153	-0,090
242,801	343,321	-0,184	-0,250
243,815	-38,323	-0,194	-0,071
244,830	-35,977	-0,192	-0,072
245,844	-76,906	-0,224	0,054
246,859	-29,908	-0,289	-0,114
247,874	12,636	-0,254	-0,136
248,888	27,806	-0,205	-0,120
249,903	369,172	-0,170	-0,239
250,917	121,268	-0,106	-0,092
251,932	230,611	-0,163	-0,185
252,947	-200,000	-0,014	-0,199
253,961	-7,646	-0,108	-0,051
254,976	-138,178	-0,194	-0,015
255,990	-66,906	-0,151	-0,041
257,005	152,708	-0,097	-0,092
258,020	233,121	-0,176	-0,200
259,034	428,366	-0,086	-0,129
260,049	-11,866	-0,035	-0,016
261,063	202,900	-0,140	-0,150
262,078	674,884	-0,100	-0,181
263,093	257,860	-0,214	-0,255
264,107	-19,044	-0,146	-0,062
265,122	344,525	-0,112	-0,152
266,136	-107,022	-0,226	-0,034
267,151	-89,590	-0,089	0,018
268,166	211,399	-0,192	-0,209
269,180	184,181	-0,166	-0,170
270,195	14,614	-0,131	-0,071
271,209	616,473	-0,165	-0,287
272,224	307,730	-0,107	-0,138
273,239	800,000	-0,087	-0,170
274,253	18,101	-0,278	-0,153
275,268	-55,790	-0,181	-0,056
276,282	132,552	-0,145	-0,129
277,297	606,766	-0,119	-0,205
278,312	800,000	-0,042	-0,101
279,326	-200,000	-0,066	-0,306
280,341	800,000	-0,050	-0,151
281,355	56,971	-0,105	-0,071
282,370	425,942	-0,101	-0,150
283,384	145,365	-0,079	-0,073
284,399	95,844	-0,262	-0,207
285,414	-55,546	-0,130	-0,040
286,428	-139,017	-0,186	-0,014
287,443	17,473	-0,158	-0,087
288,457	303,218	-0,113	-0,144
289,472	54,062	-0,141	-0,093
290,487	800,000	-0,121	-0,242
291,501	189,969	-0,214	-0,222
292,516	352,931	-0,163	-0,223
293,530	-18,956	-0,037	-0,016
294,545	-3,825	-0,086	-0,041
295,560	-200,000	-0,201	-0,001
296,574	-43,727	-0,178	-0,062
297,589	-32,480	-0,168	-0,064
298,603	3,304	-0,148	-0,074
299,618	-25,089	-0,234	-0,095
300,633	-95,246	-0,210	-0,039
301,647	2,092	-0,183	-0,091
302,662	10,741	-0,213	-0,112
303,676	800,000	-0,051	-0,128
304,691	651,885	-0,111	-0,197
305,706	30,493	-0,234	-0,137
306,720	800,000	-0,053	-0,158
307,735	-22,655	-0,159	-0,066
308,749	352,773	-0,102	-0,140
309,764	-66,490	-0,157	-0,043
310,779	-119,148	-0,208	-0,025
311,793	-60,708	-0,202	-0,059
312,808	21,611	-0,264	-0,148
313,822	336,452	-0,145	-0,194
314,837	800,000	-0,100	-0,228
315,852	393,631	-0,079	-0,114
316,866	-200,000	-0,078	-0,269
317,881	-106,610	-0,192	-0,029
318,895	-50,811	-0,176	0,057
319,910	187,726	-0,163	-0,168
320,925	79,849	-0,235	-0,173
321,939	32,350	-0,277	-0,164
322,954	-131,477	-0,126	-0,011
323,968	-124,537	-0,129	-0,014
324,983	-101,850	-0,149	-0,025
325,997	115,989	-0,177	-0,149
327,012	19,754	-0,178	-0,098
328,027	-200,000	-0,032	-0,147
329,041	95,701	-0,171	-0,134
330,056	118,013	-0,222	-0,188
331,070	40,377	-0,137	-0,085
332,085	212,737	-0,154	-0,167
333,100	8,653	-0,136	-0,070
334,114	-10,356	-0,247	-0,112
335,129	307,612	-0,096	-0,123
336,143	242,703	-0,188	-0,217
337,158	54,285	-0,156	-0,103
338,173	-94,352	-0,071	0,013
339,187	-34,930	-0,161	-0,060
340,202	-200,000	-0,047	-0,142
341,216	129,585	-0,113	-0,099
342,231	-21,149	-0,183	-0,077
343,246	185,805	-0,156	-0,159
344,260	530,284	-0,114	-0,186
345,275	142,135	-0,151	-0,137
346,289	-131,289	-0,196	0,018
347,304	602,729	-0,095	-0,162
348,319	176,497	-0,151	-0,151
349,333	522,166	-0,175	-0,283
350,348	-133,336	-0,184	-0,016
351,362	-157,586	-0,202	-0,008
352,377	-200,000	-0,047	-0,167
353,392	-18,398	-0,103	-0,044
354,406	19,224	-0,269	-0,148
355,421	208,872	1312,842	1411,397
356,435	160,729	1473,357	1411,887
