DTS Sentinel unit serial number:	SN410029Multiplexer serial number:	ORYXHardware model number:	OX2-SRSoftware version number:	ORYX F/W v4,00 Oryx Data Collector v3.7.2.0data status	okinstallation	B3 Nyhavnadifferential loss correction	single-endedforward channel	channel 1reverse channel	N/Adate	2023/12/03time	01:42:30forward acquisition time	300,00reverse acquisition time	0,00gamma	499,1914k internal	0,3200k external	0,3200temperature offset calibration	1,0000default loss term (dB/km)	0,3820temperature slope calibration	1,0000multiplexer offset coefficient	1,0000multiplexer slope coefficient	1,0000fibre end	0,00T internal ref (°C)	13,33T ext. ref 1 (°C)	-1,63T ext. ref 2 (°C)	-1,64length (m)	temperature (°C)	Stokes	anti-Stokes-744,400	403,759	-0,160	-0,246
-743,385	-200,000	-0,028	0,285
-742,371	344,576	-0,162	-0,231
-741,356	-200,000	0,009	0,316
-740,342	329,073	-0,203	-0,284
-739,327	581,386	-0,097	0,174
-738,312	223,700	-0,277	-0,326
-737,298	800,000	0,065	0,206
-736,283	319,287	-0,193	-0,267
-735,269	-200,000	0,044	0,329
-734,254	124,266	-0,272	-0,249
-733,239	-114,672	-0,275	-0,038
-732,225	721,812	-0,099	-0,192
-731,210	-110,835	0,179	0,026
-730,196	237,865	-0,080	-0,097
-729,181	39,759	0,094	0,061
-728,167	137,836	0,011	-0,010
-727,152	194,998	-0,071	-0,078
-726,137	-200,000	-0,003	-0,082
-725,123	323,825	-0,071	-0,099
-724,108	-200,000	0,002	-0,070
-723,094	-87,812	-0,202	-0,044
-722,079	42,678	0,113	-0,074
-721,064	800,000	0,016	0,046
-720,050	800,000	0,039	0,087
-719,035	-83,030	-0,069	0,016
-718,021	-77,974	-0,140	0,035
-717,006	752,193	0,068	0,134
-715,991	-68,453	-0,158	-0,044
-714,977	-200,000	0,006	-0,020
-713,962	-200,000	0,011	-0,049
-712,948	-164,174	0,157	-0,005
-711,933	-200,000	-0,010	0,081
-710,918	-35,942	0,063	0,025
-709,904	180,488	-0,034	-0,036
-708,889	-160,034	-0,067	0,003
-707,875	-200,000	0,001	-0,102
-706,860	800,000	0,017	0,041
-705,845	129,632	0,028	-0,026
-704,831	800,000	0,055	0,132
-703,816	-200,000	-0,003	-0,036
-702,802	-200,000	-0,003	-0,081
-701,787	-56,914	-0,102	0,033
-700,772	417,707	0,041	0,064
-699,758	-102,353	-0,033	0,006
-698,743	-200,000	-0,022	-0,113
-697,729	474,719	-0,047	-0,078
-696,714	43,057	-0,122	-0,081
-695,699	800,000	0,029	0,071
-694,685	85,944	0,097	-0,077
-693,670	-96,670	-0,049	0,009
-692,656	169,125	-0,068	0,070
-691,641	137,671	0,107	-0,102
-690,627	45,201	0,113	0,075
-689,612	154,548	-0,098	0,098
-688,597	199,728	0,021	-0,024
-687,583	-49,046	-0,114	0,039
-686,568	639,864	0,036	-0,068
-685,554	-200,000	0,037	-0,141
-684,539	-10,101	0,106	0,051
-683,524	-200,000	-0,009	0,102
-682,510	-200,000	0,002	-0,132
-681,495	27,062	-0,110	0,067
-680,481	-116,146	-0,008	0,001
-679,466	-200,000	0,023	-0,157
-678,451	-200,000	0,013	-0,103
-677,437	21,200	0,015	0,009
-676,422	-200,000	-0,016	0,273
-675,408	-200,000	0,070	-0,283
-674,393	620,832	0,062	0,113
-673,378	78,902	0,042	0,033
-672,364	-24,484	-0,036	-0,015
-671,349	-34,649	0,058	-0,023
-670,335	63,871	0,076	-0,055
-669,320	-120,365	-0,134	-0,016
-668,305	-24,864	0,122	0,052
-667,291	-50,462	-0,038	0,013
-666,276	800,000	-0,053	-0,138
-665,262	-200,000	-0,015	-0,186
-664,247	-200,000	-0,002	-0,023
-663,232	-34,454	-0,102	0,040
-662,218	-140,694	0,094	0,007
-661,203	157,738	-0,044	-0,044
-660,189	-200,000	0,011	0,130
-659,174	37,180	-0,149	-0,096
-658,159	515,095	0,024	0,041
-657,145	-93,712	-0,045	0,009
-656,130	130,205	-0,070	-0,065
-655,116	-200,000	-0,008	0,075
-654,101	230,033	-0,057	0,067
-653,086	-40,622	0,109	-0,041
-652,072	-200,000	0,025	-0,081
-651,057	-17,734	0,097	0,044
-650,043	111,992	-0,093	-0,081
-649,028	800,000	-0,039	0,108
-648,014	-200,000	-0,028	-0,097
-646,999	47,787	0,053	-0,036
-645,984	-200,000	-0,023	0,115
-644,970	-130,993	-0,024	0,002
-643,955	-200,000	0,012	-0,089
-642,941	88,431	-0,173	-0,139
-641,926	32,897	-0,056	-0,035
-640,911	764,605	0,041	0,081
-639,897	79,411	0,105	0,082
-638,882	645,673	0,017	-0,031
-637,868	-200,000	0,031	-0,227
-636,853	43,584	-0,056	-0,037
-635,838	563,560	0,043	-0,076
-634,824	-190,172	-0,129	0,001
-633,809	-200,000	-0,023	0,090
-632,795	-27,190	-0,092	-0,039
-631,780	800,000	0,018	-0,049
-630,765	800,000	0,040	0,110
-629,751	800,000	0,011	-0,032
-628,736	-1,588	-0,091	-0,046
-627,722	111,396	-0,082	0,072
-626,707	-27,769	0,100	-0,042
-625,692	-186,394	-0,087	0,001
-624,678	246,611	0,109	-0,133
-623,663	-110,637	0,026	0,004
-622,649	122,626	-0,174	-0,157
-621,634	-200,000	-0,012	-0,072
-620,619	-15,032	-0,146	-0,067
-619,605	-100,388	0,114	0,020
-618,590	155,088	-0,055	-0,055
-617,576	53,812	0,011	-0,008
-616,561	264,613	-0,014	-0,018
-615,546	323,219	-0,081	-0,112
-614,532	60,785	-0,145	-0,104
-613,517	86,473	0,060	0,048
-612,503	412,668	0,053	-0,081
-611,488	97,268	0,058	0,048
-610,474	391,471	-0,064	0,096
-609,459	800,000	-0,018	0,043
-608,444	-122,758	-0,050	0,006
-607,430	197,262	0,077	-0,085
-606,415	39,498	0,015	-0,009
-605,401	-200,000	0,019	-0,077
-604,386	-68,710	-0,096	0,027
-603,371	51,008	0,071	0,048
-602,357	-200,000	-0,005	-0,036
-601,342	-200,000	-0,065	0,000
-600,328	-200,000	-0,015	0,070
-599,313	-200,000	-0,010	-0,052
-598,298	13,378	0,083	0,046
-597,284	-26,011	-0,048	0,020
-596,269	260,427	-0,007	-0,009
-595,255	289,762	-0,021	-0,028
-594,240	-200,000	0,011	-0,081
-593,225	146,364	0,053	-0,052
-592,211	-200,000	0,021	-0,100
-591,196	328,429	-0,086	-0,120
-590,182	-56,755	0,204	-0,065
-589,167	183,280	0,058	0,062
-588,152	800,000	-0,014	-0,040
-587,138	-200,000	0,007	0,078
-586,123	209,830	0,099	-0,112
-585,109	26,413	-0,051	-0,031
-584,094	800,000	-0,019	0,060
-583,079	-8,685	0,117	-0,057
-582,065	479,346	0,026	0,042
-581,050	-80,323	-0,086	-0,021
-580,036	-77,843	-0,061	0,015
-579,021	-41,211	-0,118	0,044
-578,006	182,292	-0,088	-0,094
-576,992	-62,432	0,078	-0,023
-575,977	-9,830	0,065	-0,031
-574,963	-200,000	-0,045	-0,148
-573,948	-147,513	0,141	0,008
-572,934	800,000	-0,025	0,068
-571,919	-74,979	0,089	0,023
-570,904	800,000	-0,053	-0,123
-569,890	-200,000	0,003	-0,056
-568,875	85,546	0,097	-0,077
-567,861	168,401	-0,054	0,055
-566,846	51,661	0,020	-0,014
-565,831	-200,000	-0,009	-0,091
-564,817	19,489	-0,067	-0,039
-563,802	-75,950	0,154	-0,039
-562,788	-200,000	-0,010	0,139
-561,773	31,655	-0,045	-0,028
-560,758	-200,000	0,004	0,080
-559,744	800,000	0,041	0,106
-558,729	92,040	-0,029	-0,024
-557,715	266,130	-0,101	0,128
-556,700	439,364	0,042	-0,066
-555,685	19,235	-0,083	-0,048
-554,671	-112,923	-0,022	0,003
-553,656	434,097	-0,076	0,120
-552,642	-200,000	-0,045	0,199
-551,627	216,738	-0,109	-0,125
-550,612	29,529	0,008	0,005
-549,598	-108,427	0,252	-0,039
-548,583	-38,751	0,031	-0,012
-547,569	499,713	0,060	-0,100
-546,554	300,303	-0,034	0,046
-545,539	-165,448	0,109	0,003
-544,525	-200,000	0,039	-0,127
-543,510	149,065	-0,065	-0,064
-542,496	134,944	0,123	-0,116
-541,481	167,169	-0,055	-0,057
-540,466	800,000	0,023	-0,059
-539,452	-90,710	0,094	0,019
-538,437	353,508	-0,149	0,214
-537,423	-200,000	0,011	0,219
-536,408	12,520	0,068	-0,038
-535,393	158,341	-0,048	0,048
-534,379	228,683	-0,064	-0,076
-533,364	-200,000	0,000	-0,063
-532,350	670,853	0,056	0,105
-531,335	153,983	0,040	-0,040
-530,321	17,635	0,101	-0,058
-529,306	54,939	0,040	0,028
-528,291	-22,368	-0,143	-0,062
-527,277	800,000	-0,054	-0,150
-526,262	800,000	-0,005	-0,015
-525,248	-200,000	-0,038	0,127
-524,233	-200,000	0,031	-0,117
-523,218	-200,000	-0,000	0,070
-522,204	79,846	-0,086	0,067
-521,189	162,137	0,068	-0,069
-520,175	-200,000	-0,006	-0,037
-519,160	249,833	-0,065	0,080
-518,145	237,722	-0,120	0,144
-517,131	531,154	0,096	0,164
-516,116	-61,197	0,051	0,015
-515,102	-200,000	-0,004	0,023
-514,087	-1,497	0,051	0,026
-513,072	-100,740	-0,191	-0,034
-512,058	-40,937	-0,026	0,010
-511,043	-91,914	0,007	-0,001
-510,029	-200,000	-0,017	0,091
-509,014	800,000	0,048	0,118
-507,999	-200,000	0,024	-0,098
-506,985	174,857	0,091	-0,095
-505,970	-200,000	0,020	0,126
-504,956	796,072	-0,074	-0,148
-503,941	683,920	0,015	-0,028
-502,926	-121,549	0,104	0,012
-501,912	180,688	-0,071	0,076
-500,897	545,153	0,021	-0,036
-499,883	27,254	0,104	-0,063
-498,868	75,360	-0,105	-0,080
-497,853	-84,218	-0,014	0,003
-496,839	185,770	-0,076	0,082
-495,824	-98,287	-0,033	-0,006
-494,810	15,517	0,078	0,044
-493,795	-200,000	-0,002	-0,074
-492,781	2,888	-0,107	0,056
-491,766	348,746	0,047	-0,067
-490,751	-60,243	-0,074	-0,023
-489,737	800,000	-0,034	0,087
-488,722	-127,304	0,032	-0,003
-487,708	-104,492	-0,067	-0,011
-486,693	426,250	0,058	0,090
-485,678	-145,321	-0,085	0,005
-484,664	-200,000	0,028	-0,107
-483,649	288,343	0,067	-0,087
-482,635	-60,893	-0,077	-0,023
-481,620	89,360	0,056	-0,045
-480,605	-22,004	-0,015	0,007
-479,591	170,458	0,110	0,113
-478,576	-200,000	-0,025	-0,098
-477,562	70,458	-0,036	-0,027
-476,547	-200,000	-0,024	-0,166
-475,532	161,091	0,067	0,067
-474,518	54,597	-0,083	-0,058
-473,503	800,000	-0,068	-0,147
-472,489	-200,000	-0,004	-0,050
-471,474	733,240	0,035	-0,068
-470,459	-67,132	-0,106	0,030
-469,445	183,360	-0,108	-0,115
-468,430	-1,916	-0,058	-0,029
-467,416	388,540	0,057	-0,085
-466,401	-26,372	0,122	0,051
-465,386	228,616	0,046	-0,054
-464,372	18,119	-0,084	0,048
-463,357	113,017	-0,062	0,054
-462,343	-1,592	-0,007	-0,004
-461,328	-105,463	-0,123	-0,020
-460,313	403,065	0,033	-0,049
-459,299	243,215	-0,058	0,070
-458,284	800,000	0,054	0,115
-457,270	-108,965	-0,060	0,009
-456,255	62,150	-0,170	-0,122
-455,241	401,162	-0,028	-0,042
-454,226	-81,885	-0,084	-0,020
-453,211	356,092	0,043	-0,061
-452,197	226,916	-0,047	0,055
-451,182	118,256	0,124	0,110
-450,168	-200,000	-0,011	0,200
-449,153	171,827	0,102	0,106
-448,138	800,000	-0,027	-0,079
-447,124	108,706	-0,048	0,041
-446,109	-131,849	-0,082	-0,008
-445,095	-143,408	-0,069	0,005
-444,080	800,000	-0,046	0,102
-443,065	392,046	-0,081	0,122
-442,051	-200,000	0,072	-0,244
-441,036	26,299	0,151	0,091
-440,022	800,000	0,064	-0,195
-439,007	-200,000	-0,022	-0,082
-437,992	167,240	0,071	-0,073
-436,978	-112,058	0,116	-0,017
-435,963	33,352	0,064	0,040
-434,949	289,519	-0,025	-0,033
-433,934	-200,000	-0,039	-0,151
-432,919	-18,449	-0,085	0,038
-431,905	303,154	0,042	-0,057
-430,890	-200,000	-0,023	-0,129
-429,876	444,022	0,058	-0,092
-428,861	-12,407	0,096	0,045
-427,846	21,915	0,075	0,044
-426,832	111,118	0,050	0,043
-425,817	-103,642	0,041	-0,007
-424,803	800,000	-0,043	-0,090
-423,788	-122,308	0,061	-0,007
-422,773	-200,000	-0,007	0,024
-421,759	387,599	-0,029	-0,043
-420,744	-200,000	-0,005	0,040
-419,730	149,402	0,069	0,067
-418,715	-15,155	-0,096	-0,044
-417,701	12,712	0,115	-0,063
-416,686	-115,786	-0,067	0,009
-415,671	800,000	0,091	0,186
-414,657	-200,000	-0,005	0,036
-413,642	-200,000	-0,004	0,047
-412,628	-16,010	-0,004	-0,002
-411,613	22,322	-0,031	-0,018
-410,598	-50,363	-0,086	0,029
-409,584	133,483	0,074	0,069
-408,569	-200,000	0,018	0,082
-407,555	-200,000	0,001	0,015
-406,540	-108,911	0,096	-0,015
-405,525	-200,000	-0,022	-0,091
-404,511	-36,848	-0,172	0,066
-403,496	702,046	0,022	0,042
-402,482	-200,000	-0,005	0,078
-401,467	-11,703	0,067	0,031
-400,452	-200,000	0,009	0,110
-399,438	-135,987	0,157	-0,013
-398,423	-200,000	-0,025	0,097
-397,409	-200,000	0,014	-0,191
-396,394	0,710	0,092	0,047
-395,379	759,249	0,019	-0,037
-394,365	248,431	-0,046	0,056
-393,350	800,000	-0,058	0,130
-392,336	-58,311	0,074	-0,023
-391,321	96,164	0,054	-0,044
-390,306	800,000	-0,013	-0,030
-389,292	383,288	-0,035	-0,051
-388,277	-112,462	0,167	-0,024
-387,263	109,462	-0,139	0,119
-386,248	-200,000	-0,016	0,064
-385,233	-200,000	0,043	0,166
-384,219	270,856	0,068	0,086
-383,204	-200,000	-0,006	-0,089
-382,190	55,168	-0,091	-0,063
-381,175	256,011	0,105	0,129
-380,160	213,366	0,022	-0,025
-379,146	-110,163	-0,071	0,011
-378,131	-200,000	0,026	0,139
-377,117	421,265	0,066	0,102
-376,102	360,892	-0,071	-0,102
-375,088	179,721	-0,155	0,163
-374,073	25,858	-0,131	-0,078
-373,058	-200,000	-0,006	0,027
-372,044	39,782	0,071	-0,046
-371,029	800,000	-0,046	0,101
-370,015	-200,000	-0,016	-0,146
-369,000	77,552	0,083	-0,063
-367,985	-54,154	-0,135	-0,044
-366,971	-27,288	-0,046	-0,019
-365,956	431,913	-0,050	0,079
-364,942	800,000	0,045	0,099
-363,927	225,725	0,092	0,107
-362,912	-22,935	0,182	-0,078
-361,898	353,261	0,086	-0,122
-360,883	800,000	-0,013	0,036
-359,869	-200,000	0,004	-0,050
-358,854	800,000	-0,027	0,084
-357,839	122,097	0,090	0,081
-356,825	-15,528	0,190	0,086
-355,810	-200,000	-0,042	0,174
-354,796	161,151	0,059	-0,059
-353,781	-20,137	-0,049	0,022
-352,766	213,380	-0,078	-0,088
-351,752	289,299	0,120	0,156
-350,737	41,302	0,052	-0,034
-349,723	135,098	-0,016	-0,015
-348,708	-114,247	0,170	-0,023
-347,693	294,253	-0,040	0,053
-346,679	-200,000	-0,007	0,174
-345,664	-94,476	0,045	-0,009
-344,650	-122,391	0,164	0,019
-343,635	800,000	0,020	-0,047
-342,620	800,000	-0,055	0,141
-341,606	-24,957	-0,062	0,026
-340,591	0,202	-0,099	-0,051
-339,577	87,811	-0,083	-0,066
-338,562	591,297	0,023	-0,040
-337,548	26,005	-0,091	0,054
-336,533	800,000	0,079	0,187
-335,518	-18,762	0,103	-0,046
-334,504	-200,000	-0,025	0,166
-333,489	800,000	-0,031	0,072
-332,475	137,270	-0,048	0,045
-331,460	-125,343	0,103	0,011
-330,445	94,998	0,041	-0,034
-329,431	-82,721	-0,027	0,006
-328,416	-200,000	0,003	-0,055
-327,402	4,738	-0,103	0,054
-326,387	565,578	0,063	-0,110
-325,372	800,000	0,008	0,025
-324,358	-122,719	-0,037	-0,004
-323,343	-78,130	-0,078	0,019
-322,329	57,772	0,122	0,085
-321,314	-200,000	-0,027	0,137
-320,299	-24,256	0,143	0,061
-319,285	30,621	0,030	0,018
-318,270	55,868	0,115	0,079
-317,256	-0,534	0,012	0,006
-316,241	-200,000	0,026	-0,084
-315,226	-137,585	-0,088	-0,007
-314,212	-200,000	0,013	0,096
-313,197	-200,000	-0,003	0,121
-312,183	630,277	-0,061	-0,111
-311,168	-200,000	-0,019	-0,150
-310,153	-109,826	-0,221	-0,033
-309,139	800,000	0,055	-0,118
-308,124	150,266	-0,080	0,077
-307,110	7,022	-0,102	-0,054
-306,095	85,095	-0,043	0,034
-305,080	-200,000	-0,018	0,077
-304,066	800,000	-0,027	-0,056
-303,051	-72,387	0,035	0,009
-302,037	800,000	0,047	0,107
-301,022	-200,000	-0,013	-0,156
-300,008	88,790	0,041	0,033
-298,993	27,546	0,233	0,140
-297,978	-3,925	-0,111	0,055
-296,964	-73,517	0,053	-0,014
-295,949	-72,143	-0,089	-0,023
-294,935	-200,000	0,010	-0,049
-293,920	-200,000	0,005	0,028
-292,905	-24,512	0,122	-0,052
-291,891	-200,000	-0,002	-0,009
-290,876	155,754	-0,088	0,087
-289,862	-152,045	0,026	0,001
-288,847	310,672	-0,061	-0,082
-287,832	105,252	-0,048	0,041
-286,818	190,754	-0,032	0,034
-285,803	89,076	0,092	-0,073
-284,789	-200,000	0,015	0,049
-283,774	-200,000	-0,004	0,086
-282,759	280,945	0,054	-0,069
-281,745	-169,631	-0,079	-0,002
-280,730	-200,000	-0,037	-0,124
-279,716	-94,190	-0,006	0,001
-278,701	800,000	-0,014	-0,034
-277,686	223,983	-0,102	0,118
-276,672	62,670	0,041	0,029
-275,657	533,690	0,039	-0,066
-274,643	-200,000	-0,006	-0,022
-273,628	144,075	-0,094	-0,090
-272,613	-200,000	0,024	0,108
-271,599	571,877	0,137	0,238
-270,584	-71,402	-0,020	0,005
-269,570	121,117	0,075	0,067
-268,555	249,597	0,052	-0,063
-267,540	324,404	-0,064	-0,088
-266,526	-51,955	-0,104	0,034
-265,511	-99,002	-0,049	0,009
-264,497	46,035	0,028	0,019
-263,482	-18,429	0,066	-0,029
-262,467	-200,000	-0,006	0,187
-261,453	308,244	-0,028	-0,037
-260,438	-200,000	-0,000	-0,051
-259,424	-18,946	-0,084	-0,037
-258,409	11,189	0,046	-0,025
-257,395	-18,883	0,081	0,036
-256,380	314,195	0,065	0,088
-255,365	234,403	0,133	-0,156
-254,351	-29,963	-0,120	-0,049
-253,336	-186,605	-0,146	0,001
-252,322	800,000	-0,034	-0,097
-251,307	-79,913	-0,112	0,027
-250,292	-82,704	0,171	-0,039
-249,278	-200,000	-0,045	0,168
-248,263	-200,000	0,006	0,098
-247,249	85,245	0,053	0,041
-246,234	-27,063	-0,082	0,034
-245,219	89,086	0,134	-0,106
-244,205	800,000	-0,017	-0,034
-243,190	93,293	0,051	-0,041
-242,176	427,161	-0,024	-0,037
-241,161	-200,000	-0,000	-0,091
-240,146	800,000	-0,046	0,116
-239,132	800,000	-0,049	0,110
-238,117	195,589	-0,072	-0,078
-237,103	-134,272	-0,023	-0,002
-236,088	-200,000	0,001	-0,072
-235,073	-200,000	-0,002	-0,096
-234,059	276,400	0,067	-0,084
-233,044	755,917	0,097	0,188
-232,030	-200,000	-0,024	-0,122
-231,015	67,954	-0,112	-0,082
-230,000	-200,000	-0,034	0,165
-228,986	-200,000	-0,034	-0,150
-227,971	45,619	0,060	-0,039
-226,957	117,437	0,005	0,005
-225,942	-200,000	0,002	0,058
-224,927	-200,000	0,000	-0,020
-223,913	800,000	0,075	-0,167
-222,898	-200,000	0,023	-0,112
-221,884	800,000	0,057	0,150
-220,869	214,416	-0,080	0,091
-219,855	800,000	-0,003	0,008
-218,840	-43,316	0,032	-0,012
-217,825	800,000	-0,049	-0,103
-216,811	171,620	0,041	-0,042
-215,796	-200,000	-0,010	0,121
-214,782	-83,367	-0,143	0,032
-213,767	-50,426	0,052	-0,017
-212,752	217,643	0,065	0,074
-211,738	-200,000	-0,026	0,140
-210,723	518,346	-0,050	0,083
-209,709	-165,490	-0,120	-0,004
-208,694	-200,000	0,001	-0,080
-207,679	116,542	-0,061	0,053
-206,665	-31,247	0,077	0,031
-205,650	36,556	0,078	0,049
-204,636	228,976	-0,029	0,034
-203,621	101,254	-0,051	0,042
-202,606	380,712	0,046	0,068
-201,592	187,652	-0,033	-0,035
-200,577	800,000	0,009	0,026
-199,563	-50,251	0,109	-0,036
-198,548	5,657	0,156	0,082
-197,533	-120,155	-0,041	-0,005
-196,519	11,024	-0,107	-0,058
-195,504	309,456	0,113	0,151
-194,490	-200,000	0,000	-0,011
-193,475	-14,179	-0,043	0,020
-192,460	94,354	-0,116	0,094
-191,446	-81,824	0,079	-0,018
-190,431	46,940	-0,037	0,024
-189,417	-200,000	0,019	-0,141
-188,402	216,446	-0,071	0,080
-187,387	-200,000	0,013	-0,067
-186,373	27,311	0,065	-0,039
-185,358	-200,000	-0,010	0,191
-184,344	71,164	-0,053	-0,039
-183,329	-200,000	-0,011	-0,126
-182,315	-200,000	-0,021	-0,068
-181,300	47,612	0,086	0,057
-180,285	67,126	-0,058	-0,042
-179,271	-200,000	0,008	-0,158
-178,256	754,901	0,034	-0,066
-177,242	-200,000	0,001	-0,054
-176,227	800,000	-0,030	0,083
-175,212	-200,000	0,012	0,075
-174,198	800,000	-0,035	0,070
-173,183	444,727	-0,078	-0,122
-172,169	477,268	0,029	-0,046
-171,154	-79,392	0,173	0,041
-170,139	-200,000	-0,009	0,086
-169,125	19,264	0,100	0,057
-168,110	627,603	0,066	0,119
-167,096	-8,345	-0,104	0,049
-166,081	284,865	-0,061	-0,078
-165,066	668,121	-0,041	-0,076
-164,052	-200,000	-0,020	-0,066
-163,037	800,000	-0,008	0,020
-162,023	-77,236	0,129	-0,032
-161,008	98,425	0,029	0,024
-159,993	-133,350	-0,082	0,007
-158,979	-183,760	0,063	-0,001
-157,964	-200,000	0,045	-0,192
-156,950	-140,471	-0,109	-0,008
-155,935	-171,450	0,011	0,000
-154,920	28,681	0,072	-0,043
-153,906	-200,000	0,002	0,057
-152,891	800,000	-0,030	-0,078
-151,877	376,434	-0,016	-0,024
-150,862	-33,354	0,097	-0,038
-149,847	248,885	-0,019	0,023
-148,833	463,948	-0,043	0,069
-147,818	800,000	-0,014	0,034
-146,804	247,006	0,038	0,045
-145,789	41,776	0,009	-0,006
-144,775	800,000	-0,050	-0,112
-143,760	-41,098	0,022	0,008
-142,745	-128,128	-0,247	-0,025
-141,731	-200,000	-0,019	0,167
-140,716	-2,895	-0,014	-0,007
-139,702	-96,238	0,085	0,016
-138,687	800,000	-0,014	0,030
-137,672	220,320	-0,061	0,069
-136,658	-32,752	-0,071	0,028
-135,643	16,932	-0,052	-0,029
-134,629	9,901	0,122	-0,065
-133,614	-131,344	0,189	0,018
-132,599	-200,000	-0,025	0,092
-131,585	20,544	-0,050	0,029
-130,570	-98,738	-0,122	0,022
-129,556	131,868	0,057	0,052
-128,541	15,927	-0,011	0,006
-127,526	-50,246	0,095	0,032
-126,512	105,192	0,035	0,029
-125,497	800,000	0,022	-0,044
-124,483	-157,762	0,071	0,003
-123,468	800,000	0,010	0,027
-122,453	-61,664	-0,106	0,031
-121,439	27,485	-0,017	-0,010
-120,424	94,310	-0,051	0,041
-119,410	800,000	-0,020	-0,050
-118,395	746,517	-0,009	-0,016
-117,380	800,000	0,023	0,063
-116,366	-123,309	-0,070	0,008
-115,351	47,517	0,102	-0,067
-114,337	292,668	0,037	-0,048
-113,322	487,860	-0,018	0,030
-112,307	-91,223	-0,093	0,019
-111,293	10,508	-0,068	0,037
-110,278	800,000	0,054	0,110
-109,264	-200,000	0,011	-0,101
-108,249	-200,000	-0,005	0,092
-107,234	256,193	-0,082	0,100
-106,220	-98,971	0,091	-0,016
-105,205	14,292	0,072	-0,040
-104,191	70,529	0,061	0,044
-103,176	-200,000	-0,017	0,064
-102,162	-119,812	0,048	-0,006
-101,147	-76,717	0,107	0,026
-100,132	450,931	-0,056	-0,088
-99,118	-73,896	-0,051	0,013
-98,103	48,943	-0,068	-0,045
-97,089	248,470	0,083	0,099
-96,074	800,000	-0,023	0,048
-95,059	-200,000	0,030	0,144
-94,045	-118,503	-0,079	-0,010
-93,030	96,707	-0,060	-0,048
-92,016	-200,000	-0,001	-0,154
-91,001	800,000	0,028	-0,062
-89,986	-15,373	0,099	-0,045
-88,972	800,000	0,050	0,138
-87,957	-200,000	0,011	-0,090
-86,943	375,446	-0,054	-0,079
-85,928	499,672	-0,041	-0,068
-84,913	-200,000	-0,025	-0,102
-83,899	-1,473	-0,110	-0,055
-82,884	165,131	-0,097	0,097
-81,870	161,586	-0,087	0,087
-80,855	448,677	0,061	0,095
-79,840	35,346	-0,081	0,050
-78,826	-117,651	-0,121	0,015
-77,811	800,000	-0,042	-0,113
-76,797	178,147	-0,077	-0,080
-75,782	-48,543	0,023	-0,008
-74,767	-200,000	0,009	0,102
-73,753	-40,018	-0,028	0,010
-72,738	800,000	0,027	0,069
-71,724	162,564	0,080	0,079
-70,709	-200,000	-0,007	-0,039
-69,694	48,308	-0,066	-0,044
-68,680	24,002	0,087	0,051
-67,665	226,732	0,032	-0,037
-66,651	3,719	0,119	0,062
-65,636	0,080	0,163	-0,082
-64,622	38,905	0,098	-0,062
-63,607	-200,000	0,004	-0,015
-62,592	-200,000	-0,015	-0,078
-61,578	-200,000	-0,003	0,019
-60,563	-41,207	0,084	-0,031
-59,549	21,604	0,103	0,059
-58,534	-45,080	-1,564	-0,548
-57,519	335,668	-1,497	-2,062
-56,505	-200,000	-0,528	-4,507
-55,490	251,341	0,911	1,099
-54,476	800,000	4,984	11,299
-53,461	-200,000	19,177	320,259
-52,446	-200,000	740,537	2335,247
-51,432	573,866	1655,347	2870,240
-50,417	78,319	1671,038	1262,186
-49,403	21,360	1543,919	886,026
-48,388	15,217	1466,343	811,635
-47,373	17,944	1456,618	819,402
-46,359	16,675	1446,584	807,637
-45,344	13,413	1441,920	789,370
-44,330	13,421	1439,850	788,241
-43,315	13,384	1438,053	787,051
-42,300	13,407	1436,451	786,253
-41,286	13,414	1435,229	785,588
-40,271	13,386	1433,788	784,634
-39,257	13,335	1432,577	783,697
-38,242	13,430	1431,360	783,454
-37,227	13,435	1430,109	782,758
-36,213	13,450	1428,899	782,138
-35,198	13,441	1427,783	781,453
-34,184	13,486	1426,595	780,983
-33,169	13,388	1425,394	779,831
-32,154	13,437	1424,267	779,418
-31,140	13,408	1423,182	778,654
-30,125	13,500	1421,876	778,344
-29,111	13,448	1420,690	777,418
-28,096	13,446	1419,619	776,794
-27,082	13,385	1418,550	775,889
-26,067	13,380	1417,407	775,211
-25,052	13,354	1416,268	774,434
-24,038	13,350	1415,510	773,967
-23,023	13,328	1414,564	773,317
-22,009	13,331	1413,312	772,617
-20,994	13,268	1412,930	772,081
-19,979	13,304	1411,699	771,550
-18,965	13,301	1410,737	770,975
-17,950	13,316	1409,662	770,429
-16,936	13,310	1408,745	769,868
-15,921	13,296	1407,696	769,200
-14,906	13,269	1407,069	768,700
-13,892	13,256	1406,052	768,054
-12,877	13,267	1405,067	767,535
-11,863	13,278	1404,218	767,095
-10,848	13,239	1403,170	766,309
-9,833	13,217	1402,383	765,748
-8,819	13,282	1401,453	765,508
-7,804	13,174	1400,769	764,605
-6,790	13,183	1399,473	763,909
-5,775	13,218	1398,434	763,473
-4,760	13,180	1397,602	762,813
-3,746	13,162	1396,726	762,220
-2,731	13,172	1395,788	761,723
-1,717	13,160	1394,980	761,196
-0,702	13,131	1393,058	759,986
0,313	16,995	1310,155	732,656
1,327	33,249	703,739	431,108
2,342	51,604	123,231	82,765
3,356	5,436	16,801	8,746
4,371	-3,420	3,330	1,634
5,386	43,967	0,563	0,365
6,400	800,000	0,113	0,235
7,415	28,819	-0,194	-0,116
8,429	-7,536	-0,213	-0,102
9,444	168,668	-0,244	-0,246
10,459	-103,809	-0,353	-0,058
11,473	-13,521	-0,325	-0,148
12,488	-138,679	-0,315	-0,024
13,502	181,551	-0,156	-0,163
14,517	70,905	-0,219	-0,160
15,531	-90,636	-0,432	-0,087
16,546	74,323	-0,445	-0,330
17,561	223,655	-0,304	-0,347
18,575	-59,327	-0,219	-0,066
19,590	123,698	-0,221	-0,196
20,604	20,708	-0,256	-0,146
21,619	155,705	-0,410	-0,399
22,634	154,576	-0,436	-0,423
23,648	23,850	-0,418	-0,242
24,663	40,138	-0,437	-0,277
25,677	-29,085	-0,478	-0,193
26,692	221,961	-0,244	-0,277
27,707	246,381	-0,297	-0,354
28,721	-12,043	-0,396	-0,182
29,736	45,432	-0,364	-0,236
30,750	6,900	-0,444	-0,233
31,765	36,502	-0,418	-0,260
32,780	48,559	-0,398	-0,262
33,794	53,555	-0,402	-0,272
34,809	73,981	-0,336	-0,248
35,823	-4,093	-0,410	-0,200
36,838	189,470	-0,309	-0,327
37,853	-27,202	-0,385	-0,158
38,867	58,178	-0,317	-0,219
39,882	-26,739	-0,396	-0,163
40,896	119,526	-0,278	-0,243
41,911	7,979	-0,432	-0,228
42,926	77,968	-0,255	-0,192
43,940	-109,012	-0,371	-0,055
44,955	-69,168	-0,422	-0,114
45,969	45,597	-0,415	-0,270
46,984	-80,006	-0,284	-0,067
47,999	35,811	-0,411	-0,254
49,013	126,278	-0,271	-0,241
50,028	120,862	-0,271	-0,238
51,042	57,043	-0,351	-0,241
52,057	312,646	-0,208	-0,277
53,071	57,575	-0,347	-0,239
54,086	8,470	-0,333	-0,176
55,101	-76,985	-0,395	-0,096
56,115	-120,153	-0,256	-0,030
57,130	112,843	-0,290	-0,248
58,144	-1,466	-0,396	-0,196
59,159	124,510	-0,356	-0,315
60,174	75,832	-0,313	-0,233
61,188	294,846	-0,165	-0,213
62,203	260,293	-0,279	-0,341
63,217	69,722	-0,337	-0,245
64,232	-4,913	-0,322	-0,156
65,247	220,341	-0,283	-0,320
66,261	1,118	-0,482	-0,243
67,276	74,408	-0,308	-0,227
68,290	191,053	-0,258	-0,273
69,305	103,389	-0,245	-0,202
70,320	429,664	-0,215	-0,328
71,334	-19,425	-0,426	-0,185
72,349	35,224	-0,231	-0,142
73,363	-27,728	-0,331	-0,135
74,378	-51,694	-0,413	-0,135
75,393	145,258	-0,285	-0,268
76,407	317,264	-0,171	-0,228
77,422	15,553	-0,342	-0,188
78,436	271,677	-0,240	-0,298
79,451	68,565	-0,317	-0,228
80,466	-9,718	-0,248	-0,116
81,480	107,183	-0,280	-0,233
82,495	66,707	-0,252	-0,180
83,509	-29,572	-0,284	-0,114
84,524	2,672	-0,342	-0,174
85,539	-8,557	-0,291	-0,137
86,553	-13,216	-0,213	-0,097
87,568	124,823	-0,275	-0,244
88,582	58,907	-0,350	-0,242
89,597	144,910	-0,231	-0,217
90,611	284,014	-0,198	-0,251
91,626	-54,286	-0,327	-0,104
92,641	80,286	-0,230	-0,174
93,655	-114,675	-0,359	-0,048
94,670	138,474	-0,293	-0,270
95,684	-187,272	-0,354	0,003
96,699	99,107	-0,308	-0,250
97,714	98,055	-0,235	-0,190
98,728	286,946	-0,178	-0,227
99,743	353,670	-0,188	-0,263
100,757	-26,128	-0,338	-0,139
101,772	-8,681	-0,308	-0,144
102,787	13,405	-0,286	-0,155
103,801	335,655	-0,307	-0,419
104,816	152,038	-0,192	-0,184
105,830	-40,386	-0,226	-0,082
106,845	-7,876	-0,261	-0,123
107,860	166,753	-0,184	-0,183
108,874	35,694	-0,244	-0,150
109,889	22,735	-0,273	-0,156
110,903	367,751	-0,203	-0,289
111,918	-63,819	-0,443	-0,126
112,933	-32,867	-0,249	-0,096
113,947	120,200	-0,194	-0,169
114,962	252,297	-0,153	-0,183
115,976	51,446	-0,301	-0,200
116,991	74,421	-0,205	-0,151
118,006	-24,804	-0,266	-0,110
119,020	159,764	-0,279	-0,272
120,035	142,537	-0,188	-0,175
121,049	-30,635	-0,228	-0,090
122,064	192,834	-0,225	-0,238
123,079	800,000	-0,076	-0,188
124,093	-96,164	-0,281	-0,052
125,108	9,636	-0,343	-0,181
126,122	95,773	-0,280	-0,223
127,137	55,144	-0,273	-0,184
128,151	727,575	-0,120	-0,226
129,166	31,596	-0,251	-0,151
130,181	195,092	-0,214	-0,227
131,195	-11,308	-0,224	-0,103
132,210	436,114	-0,150	-0,230
133,224	63,858	-0,206	-0,145
134,239	-43,559	-0,256	-0,090
135,254	10,260	-0,266	-0,141
136,268	720,567	-0,078	-0,147
137,283	87,923	-0,270	-0,209
138,297	113,876	-0,376	-0,319
139,312	277,934	-0,214	-0,267
140,327	105,553	-0,279	-0,231
141,341	168,362	-0,228	-0,228
142,356	194,295	-0,179	-0,190
143,370	12,088	-0,231	-0,124
144,385	9,436	-0,321	-0,169
145,400	104,808	-0,276	-0,227
146,414	148,363	-0,233	-0,220
147,429	-23,418	-0,264	-0,110
148,443	20,956	-0,223	-0,126
149,458	34,534	-0,261	-0,159
150,473	9,418	-0,191	-0,101
151,487	1,951	-0,312	-0,157
152,502	78,317	-0,222	-0,165
153,516	26,695	-0,252	-0,147
154,531	-102,883	-0,351	-0,058
155,546	102,443	-0,228	-0,186
156,560	-124,869	-0,225	-0,024
157,575	0,975	-0,210	-0,105
158,589	-128,817	-0,290	-0,028
159,604	133,952	-0,285	-0,258
160,619	49,373	-0,232	-0,152
161,633	204,493	-0,126	-0,137
162,648	-2,954	-0,295	-0,143
163,662	33,122	-0,220	-0,133
164,677	248,807	-0,096	-0,114
165,692	289,605	-0,157	-0,200
166,706	53,061	-0,217	-0,144
167,721	64,990	-0,194	-0,137
168,735	788,009	-0,176	-0,339
169,750	800,000	-0,109	-0,301
170,764	573,784	-0,108	-0,184
171,779	140,241	-0,099	-0,091
172,794	-19,071	-0,197	-0,085
173,808	199,064	-0,108	-0,116
174,823	99,853	-0,257	-0,207
175,837	60,747	-0,212	-0,146
176,852	106,937	-0,217	-0,179
177,867	-53,278	-0,274	-0,087
178,881	800,000	-0,101	-0,238
179,896	-190,244	-0,316	-0,002
180,910	161,538	-0,243	-0,237
181,925	234,545	-0,148	-0,170
182,940	-79,421	-0,169	-0,040
183,954	-14,746	-0,256	-0,114
184,969	44,820	-0,200	-0,128
185,983	39,698	-0,207	-0,129
186,998	-110,710	-0,177	-0,025
188,013	73,379	-0,203	-0,148
189,027	118,951	-0,304	-0,262
190,042	436,360	-0,182	-0,276
191,056	435,738	-0,169	-0,257
192,071	522,984	-0,151	-0,248
193,086	39,782	-0,254	-0,159
194,100	314,320	-0,107	-0,141
195,115	131,089	-0,093	-0,083
196,129	-157,320	-0,178	-0,007
197,144	47,789	-0,169	-0,110
198,159	28,194	-0,137	-0,080
199,173	-68,210	-0,290	-0,078
200,188	-74,717	-0,186	-0,046
201,202	58,197	-0,190	-0,129
202,217	-130,758	-0,179	0,017
203,232	800,000	-0,093	-0,191
204,246	40,708	-0,168	-0,105
205,261	-72,874	-0,335	-0,085
206,275	361,607	-0,122	-0,171
207,290	-0,699	-0,204	-0,100
208,304	121,898	-0,096	-0,083
209,319	-105,183	-0,116	0,018
210,334	150,802	-0,178	-0,168
211,348	223,571	-0,143	-0,161
212,363	-30,037	-0,227	-0,089
213,377	-28,242	-0,359	-0,143
214,392	-36,664	-0,216	-0,080
215,407	12,421	-0,230	-0,123
216,421	-155,246	-0,129	0,006
217,436	705,647	-0,164	-0,302
218,450	800,000	-0,136	-0,287
219,465	780,379	-0,136	-0,259
220,480	-90,676	-0,196	-0,039
221,494	-139,039	-0,249	-0,018
222,509	-28,713	-0,186	-0,074
223,523	-96,171	-0,134	-0,024
224,538	2,285	-0,194	-0,097
225,553	149,289	-0,156	-0,146
226,567	98,463	-0,118	-0,094
227,582	91,162	-0,303	-0,236
228,596	343,605	-0,160	-0,218
229,611	-74,146	-0,150	0,037
230,626	76,804	-0,141	-0,104
231,640	57,397	-0,181	-0,122
232,655	132,105	-0,230	-0,206
233,669	-90,570	-0,167	-0,033
234,684	125,137	-0,194	-0,170
235,699	194,929	-0,148	-0,156
236,713	-38,228	-0,269	-0,098
237,728	-200,000	-0,020	-0,180
238,742	-169,427	-0,199	-0,005
239,757	41,806	-0,151	-0,095
240,772	54,089	-0,155	-0,103
241,786	8,636	-0,115	-0,060
242,801	562,607	-0,098	-0,165
243,815	64,916	-0,243	-0,170
244,830	800,000	-0,082	-0,198
245,844	330,927	-0,124	-0,166
246,859	-107,677	-0,198	-0,030
247,874	47,163	-0,168	-0,108
248,888	-37,595	-0,213	-0,078
249,903	-161,680	-0,095	-0,003
250,917	139,135	-0,107	-0,097
251,932	-158,397	-0,206	0,008
252,947	-114,239	-0,106	0,014
253,961	30,723	-0,156	-0,092
254,976	137,615	-0,173	-0,157
255,990	-6,868	-0,160	-0,075
257,005	98,741	-0,228	-0,182
258,020	444,902	-0,184	-0,280
259,034	768,738	-0,074	-0,139
260,049	754,398	-0,102	-0,192
261,063	119,882	-0,241	-0,207
262,078	518,999	-0,164	-0,266
263,093	270,959	-0,168	-0,204
264,107	-51,607	-0,200	-0,064
265,122	241,017	-0,129	-0,149
266,136	800,000	-0,061	-0,125
267,151	-49,328	-0,229	0,075
268,166	134,303	-0,127	-0,113
269,180	-97,836	-0,159	-0,028
270,195	163,194	-0,167	-0,162
271,209	217,793	-0,273	-0,302
272,224	49,508	-0,144	-0,093
273,239	800,000	-0,080	-0,201
274,253	-58,660	-0,119	0,035
275,268	118,587	-0,184	-0,157
276,282	53,139	-0,265	-0,175
277,297	149,303	-0,254	-0,238
278,312	235,781	-0,053	-0,060
279,326	-125,080	-0,082	0,009
280,341	242,087	-0,164	-0,189
281,355	-59,512	-0,220	0,065
282,370	83,449	-0,230	-0,173
283,384	192,450	-0,163	-0,170
284,399	235,208	-0,178	-0,203
285,414	800,000	-0,061	-0,162
286,428	29,682	-0,161	-0,094
287,443	30,415	-0,156	-0,092
288,457	-31,285	-0,161	0,062
289,472	-200,000	-0,088	-0,314
290,487	26,697	-0,174	-0,100
291,501	374,822	-0,153	-0,215
292,516	-58,727	-0,243	-0,072
293,530	95,833	-0,154	-0,121
294,545	103,595	-0,093	-0,075
295,560	590,148	-0,082	-0,140
296,574	-142,745	-0,211	-0,014
297,589	-172,756	-0,200	0,004
298,603	173,393	-0,155	-0,154
299,618	204,956	-0,159	-0,170
300,633	260,039	-0,099	-0,118
301,647	9,374	-0,122	-0,064
302,662	129,841	-0,221	-0,195
303,676	146,872	-0,113	-0,105
304,691	420,735	-0,140	-0,207
305,706	698,616	-0,087	-0,159
306,720	-37,027	-0,207	-0,076
307,735	800,000	-0,059	-0,128
308,749	-40,218	-0,134	-0,048
309,764	-95,562	-0,079	0,014
310,779	26,051	-0,196	-0,112
311,793	-82,125	-0,100	-0,022
312,808	169,188	-0,111	-0,109
313,822	234,260	-0,169	-0,193
314,837	-17,763	-0,080	-0,034
315,852	-58,689	-0,157	-0,047
316,866	-14,595	-0,072	-0,032
317,881	-36,270	-0,258	0,095
318,895	61,394	-0,175	-0,119
319,910	217,694	-0,159	-0,174
320,925	-200,000	0,013	-0,260
321,939	-83,367	-0,183	-0,040
322,954	-75,458	-0,045	0,011
323,968	800,000	-0,023	-0,056
324,983	133,420	-0,089	-0,079
325,997	285,041	-0,059	-0,073
327,012	209,127	-0,138	-0,148
328,027	262,114	-0,093	-0,111
329,041	297,939	-0,181	-0,230
330,056	74,999	-0,105	-0,076
331,070	800,000	-0,042	-0,109
332,085	-74,527	-0,080	-0,020
333,100	68,403	-0,214	-0,150
334,114	-68,481	-0,142	-0,038
335,129	-48,969	-0,173	-0,057
336,143	-58,100	-0,170	-0,051
337,158	-19,231	-0,079	-0,034
338,173	800,000	0,048	-0,093
339,187	-200,000	-0,019	-0,087
340,202	18,332	-0,084	-0,046
341,216	167,165	-0,157	-0,153
342,231	800,000	-0,083	-0,203
343,246	227,928	-0,220	-0,246
344,260	-92,161	-0,194	-0,037
345,275	-106,438	-0,140	-0,021
346,289	-18,288	-0,057	-0,024
347,304	-16,157	-0,192	-0,083
348,319	20,193	-0,189	-0,104
349,333	147,391	-0,192	-0,178
350,348	115,380	-0,138	-0,115
351,362	-136,555	-0,161	-0,013
352,377	235,750	-0,107	-0,121
353,392	58,556	-0,086	-0,058
354,406	50,010	-0,147	-0,095
355,421	210,505	1312,353	1415,844
356,435	162,054	1472,789	1416,328
