DTS Sentinel unit serial number:	SN410029Multiplexer serial number:	ORYXHardware model number:	OX2-SRSoftware version number:	ORYX F/W v4,00 Oryx Data Collector v3.7.2.0data status	okinstallation	B3 Nyhavnadifferential loss correction	single-endedforward channel	channel 1reverse channel	N/Adate	2023/11/29time	16:52:30forward acquisition time	300,00reverse acquisition time	0,00gamma	499,1914k internal	0,3209k external	0,3209temperature offset calibration	1,0000default loss term (dB/km)	0,3820temperature slope calibration	1,0000multiplexer offset coefficient	1,0000multiplexer slope coefficient	1,0000fibre end	0,00T internal ref (°C)	11,42T ext. ref 1 (°C)	-3,82T ext. ref 2 (°C)	-3,96length (m)	temperature (°C)	Stokes	anti-Stokes-744,400	-200,000	-0,082	-0,297
-743,385	-200,000	-0,042	0,288
-742,371	800,000	-0,074	-0,235
-741,356	-200,000	0,102	0,377
-740,342	359,061	-0,178	-0,260
-739,327	-200,000	-0,066	0,239
-738,312	414,086	-0,201	-0,312
-737,298	-200,000	-0,027	0,112
-736,283	383,082	-0,134	-0,200
-735,269	800,000	-0,161	0,327
-734,254	800,000	-0,149	-0,301
-733,239	74,813	-0,246	0,188
-732,225	-200,000	-0,066	-0,232
-731,210	800,000	0,126	0,314
-730,196	-200,000	0,007	-0,128
-729,181	-200,000	-0,002	-0,049
-728,167	569,901	-0,050	-0,088
-727,152	307,073	-0,077	-0,104
-726,137	-200,000	-0,041	0,167
-725,123	-58,921	-0,071	0,022
-724,108	581,251	-0,023	-0,041
-723,094	-15,259	-0,082	-0,038
-722,079	-200,000	0,028	-0,169
-721,064	-200,000	-0,020	-0,110
-720,050	800,000	-0,008	-0,022
-719,035	-173,920	0,124	-0,003
-718,021	179,776	-0,066	0,070
-717,006	155,821	-0,063	0,063
-715,991	-200,000	-0,000	-0,068
-714,977	10,941	0,113	-0,062
-713,962	800,000	0,010	-0,033
-712,948	-115,729	0,072	-0,010
-711,933	75,495	0,145	0,111
-710,918	148,627	-0,085	-0,083
-709,904	457,201	-0,035	-0,056
-708,889	273,458	-0,043	-0,055
-707,875	158,419	0,135	-0,136
-706,860	-200,000	-0,001	0,121
-705,845	-26,921	0,092	0,039
-704,831	-153,366	-0,109	-0,005
-703,816	15,676	-0,069	0,039
-702,802	-200,000	-0,007	-0,126
-701,787	90,619	-0,181	-0,146
-700,772	2,157	-0,129	0,067
-699,758	66,753	0,042	-0,031
-698,743	-200,000	-0,014	0,072
-697,729	571,387	0,039	-0,070
-696,714	-200,000	-0,022	-0,082
-695,699	8,367	-0,044	-0,024
-694,685	-200,000	0,008	-0,091
-693,670	-104,558	-0,050	-0,008
-692,656	800,000	-0,065	-0,140
-691,641	-16,637	-0,032	0,015
-690,627	148,239	-0,031	0,030
-689,612	-11,384	0,133	-0,063
-688,597	-123,232	-0,100	-0,011
-687,583	-113,345	-0,130	0,018
-686,568	-200,000	0,015	0,070
-685,554	72,672	-0,090	0,068
-684,539	800,000	-0,020	0,049
-683,524	800,000	-0,056	-0,125
-682,510	-200,000	-0,008	-0,065
-681,495	-64,972	0,034	-0,010
-680,481	-117,681	-0,048	-0,006
-679,466	800,000	0,050	0,121
-678,451	41,507	-0,081	0,053
-677,437	72,342	0,135	0,101
-676,422	-99,030	0,030	-0,005
-675,408	20,154	-0,182	0,106
-674,393	800,000	0,038	0,115
-673,378	-166,679	0,074	-0,002
-672,364	-36,604	-0,040	-0,016
-671,349	48,262	-0,113	0,076
-670,335	471,294	0,054	-0,088
-669,320	800,000	-0,048	0,123
-668,305	-200,000	-0,012	-0,076
-667,291	132,473	-0,084	-0,079
-666,276	-200,000	0,022	-0,089
-665,262	435,992	-0,073	-0,115
-664,247	-118,393	-0,158	0,020
-663,232	72,635	0,120	-0,090
-662,218	327,884	0,017	-0,024
-661,203	-200,000	0,004	-0,060
-660,189	467,021	-0,042	-0,068
-659,174	-200,000	0,013	-0,111
-658,159	203,855	-0,080	-0,090
-657,145	53,184	-0,131	-0,090
-656,130	-200,000	0,012	-0,059
-655,116	-136,179	0,084	0,007
-654,101	42,273	0,060	-0,039
-653,086	211,916	-0,079	-0,090
-652,072	-3,467	-0,120	-0,060
-651,057	-73,962	-0,063	0,016
-650,043	497,334	-0,075	-0,125
-649,028	-38,189	-0,012	-0,005
-648,014	271,109	0,075	0,096
-646,999	27,608	-0,195	0,118
-645,984	-54,470	0,062	-0,020
-644,970	-38,669	-0,073	-0,028
-643,955	7,800	-0,122	-0,066
-642,941	-116,941	-0,127	0,017
-641,926	359,328	-0,039	0,057
-640,911	159,926	-0,063	0,064
-639,897	100,661	0,002	-0,002
-638,882	-144,047	0,194	0,013
-637,868	7,380	0,066	0,036
-636,853	-200,000	-0,032	-0,133
-635,838	10,453	0,055	0,030
-634,824	-200,000	0,021	-0,106
-633,809	-200,000	0,003	-0,035
-632,795	178,613	-0,043	-0,046
-631,780	165,298	0,027	-0,027
-630,765	-165,928	-0,110	0,003
-629,751	45,927	-0,068	-0,045
-628,736	-62,590	-0,051	0,015
-627,722	10,351	0,042	-0,023
-626,707	75,155	-0,085	-0,065
-625,692	104,933	-0,077	0,065
-624,678	94,683	0,032	0,026
-623,663	-37,179	-0,119	-0,046
-622,649	-200,000	-0,020	-0,125
-621,634	438,856	0,028	-0,045
-620,619	-54,016	-0,100	-0,033
-619,605	74,343	0,083	-0,063
-618,590	800,000	0,053	0,149
-617,576	-107,071	0,118	-0,019
-616,561	-200,000	-0,020	-0,068
-615,546	133,285	-0,058	-0,055
-614,532	-50,639	-0,050	-0,017
-613,517	-104,054	-0,049	-0,008
-612,503	-200,000	-0,000	0,012
-611,488	-133,981	0,115	-0,010
-610,474	258,654	-0,037	0,046
-609,459	41,051	-0,143	0,093
-608,444	800,000	-0,076	-0,165
-607,430	194,300	-0,100	-0,109
-606,415	-200,000	0,005	-0,212
-605,401	-142,889	-0,123	0,009
-604,386	9,185	-0,066	0,036
-603,371	800,000	0,018	0,051
-602,357	36,733	0,032	-0,020
-601,342	47,884	-0,070	-0,047
-600,328	800,000	-0,028	0,079
-599,313	800,000	-0,074	0,204
-598,298	800,000	0,017	-0,036
-597,284	1,246	0,063	0,032
-596,269	-85,014	0,027	0,006
-595,255	188,907	0,039	-0,042
-594,240	262,318	-0,038	0,047
-593,225	-200,000	0,004	-0,088
-592,211	227,094	-0,079	-0,092
-591,196	-19,641	0,083	0,037
-590,182	-200,000	-0,019	-0,086
-589,167	-139,698	-0,171	0,013
-588,152	-200,000	0,013	-0,111
-587,138	-169,593	-0,058	0,002
-586,123	-92,300	0,012	-0,002
-585,109	-57,580	0,095	-0,030
-584,094	-200,000	0,012	-0,138
-583,079	-200,000	0,003	-0,066
-582,065	800,000	-0,026	0,083
-581,050	-112,634	0,088	-0,012
-580,036	-200,000	-0,006	-0,065
-579,021	538,930	-0,023	0,040
-578,006	185,265	0,019	0,020
-576,992	-28,176	-0,091	0,038
-575,977	-149,301	0,090	0,005
-574,963	-200,000	-0,011	-0,083
-573,948	-200,000	-0,015	-0,131
-572,934	-200,000	-0,009	-0,088
-571,919	-200,000	0,016	0,095
-570,904	-9,652	0,077	-0,037
-569,890	800,000	-0,004	0,011
-568,875	65,528	0,072	0,052
-567,861	79,947	-0,076	-0,059
-566,846	266,125	0,089	0,112
-565,831	-200,000	-0,005	0,064
-564,817	-23,332	0,040	0,017
-563,802	-159,239	0,103	-0,004
-562,788	-155,899	-0,146	0,007
-561,773	-200,000	-0,004	-0,095
-560,758	-20,678	0,105	-0,046
-559,744	115,051	-0,033	-0,029
-558,729	-32,776	-0,107	-0,042
-557,715	800,000	-0,025	0,051
-556,700	-200,000	-0,008	0,116
-555,685	-200,000	-0,022	0,152
-554,671	-21,582	0,141	0,062
-553,656	538,005	-0,078	0,134
-552,642	-156,395	0,115	0,005
-551,627	-158,863	-0,043	0,002
-550,612	-197,806	0,080	-0,000
-549,598	-70,875	-0,084	-0,023
-548,583	108,451	-0,074	-0,063
-547,569	505,542	0,049	0,083
-546,554	-200,000	0,024	-0,111
-545,539	-69,775	0,062	0,017
-544,525	120,083	-0,095	-0,085
-543,510	168,003	0,110	0,113
-542,496	-128,930	-0,095	-0,010
-541,481	-101,391	-0,043	0,008
-540,466	-200,000	-0,010	-0,099
-539,452	-190,865	-0,131	0,001
-538,437	124,974	0,097	0,088
-537,423	48,977	-0,046	-0,031
-536,408	187,620	0,076	-0,082
-535,393	-88,660	-0,064	0,013
-534,379	800,000	-0,055	-0,148
-533,364	391,152	0,054	0,081
-532,350	800,000	-0,054	0,133
-531,335	-101,422	0,067	-0,012
-530,321	800,000	0,022	0,065
-529,306	-200,000	0,009	0,194
-528,291	-44,502	-0,065	-0,023
-527,277	87,683	0,115	-0,091
-526,262	-200,000	-0,016	0,064
-525,248	18,552	-0,058	0,033
-524,233	-22,931	-0,005	-0,002
-523,218	-200,000	-0,004	-0,137
-522,204	-200,000	-0,010	-0,106
-521,189	-200,000	-0,027	-0,092
-520,175	-73,610	-0,146	0,038
-519,160	-64,361	-0,033	0,009
-518,145	-4,451	0,035	0,017
-517,131	-83,261	0,048	-0,011
-516,116	166,162	0,063	0,064
-515,102	-200,000	-0,017	0,093
-514,087	800,000	0,067	0,144
-513,072	-200,000	0,018	-0,141
-512,058	211,663	-0,039	-0,044
-511,043	24,458	0,015	0,009
-510,029	-200,000	-0,014	-0,055
-509,014	-200,000	0,004	0,141
-507,999	-15,181	0,125	-0,057
-506,985	-94,481	0,034	-0,007
-505,970	-56,644	0,014	-0,004
-504,956	18,178	-0,066	-0,038
-503,941	800,000	-0,074	0,165
-502,926	800,000	0,013	0,035
-501,912	-75,797	-0,085	-0,022
-500,897	82,885	-0,043	-0,033
-499,883	66,010	-0,092	-0,067
-498,868	-147,047	-0,078	0,005
-497,853	30,737	-0,048	-0,030
-496,839	65,230	0,230	-0,167
-495,824	19,937	-0,069	-0,040
-494,810	-171,554	-0,098	-0,002
-493,795	-200,000	0,007	-0,044
-492,781	-200,000	-0,016	0,081
-491,766	249,755	0,042	0,051
-490,751	-200,000	0,005	-0,026
-489,737	800,000	0,025	-0,076
-488,722	800,000	-0,012	0,034
-487,708	-200,000	-0,032	0,115
-486,693	237,973	-0,022	-0,026
-485,678	-143,418	0,088	0,006
-484,664	-157,737	-0,144	0,006
-483,649	-80,218	0,057	-0,014
-482,635	800,000	0,036	-0,107
-481,620	60,308	0,046	-0,033
-480,605	39,509	0,124	-0,079
-479,591	-200,000	0,002	-0,062
-478,576	-46,343	-0,035	0,012
-477,562	-102,350	-0,122	0,021
-476,547	-200,000	-0,023	-0,223
-475,532	65,471	-0,130	0,095
-474,518	-150,481	0,114	-0,006
-473,503	197,005	0,106	0,116
-472,489	105,092	0,168	0,142
-471,474	-76,790	-0,074	0,018
-470,459	588,408	0,051	-0,090
-469,445	202,438	-0,085	0,094
-468,430	-200,000	-0,029	0,169
-467,416	-80,874	0,114	0,027
-466,401	279,396	0,087	0,112
-465,386	354,184	0,033	0,047
-464,372	800,000	0,007	-0,020
-463,357	352,796	0,032	-0,046
-462,343	-200,000	0,001	-0,061
-461,328	-153,268	0,005	-0,000
-460,313	35,581	-0,045	-0,028
-459,299	191,857	-0,043	-0,046
-458,284	152,029	0,091	0,089
-457,270	385,990	0,052	-0,077
-456,255	-140,597	-0,128	-0,009
-455,241	-200,000	-0,003	-0,142
-454,226	-131,908	0,092	-0,009
-453,211	-177,001	0,062	-0,001
-452,197	263,659	-0,062	0,078
-451,182	-6,192	0,052	-0,026
-450,168	800,000	0,035	-0,091
-449,153	208,109	-0,061	-0,068
-448,138	-200,000	0,025	-0,080
-447,124	-123,082	-0,228	0,026
-446,109	572,255	0,042	0,073
-445,095	-155,350	0,089	0,004
-444,080	0,550	-0,071	0,036
-443,065	-200,000	0,004	0,034
-442,051	-200,000	0,001	0,024
-441,036	-200,000	0,012	0,145
-440,022	-200,000	0,027	-0,117
-439,007	-123,905	0,099	0,011
-437,992	800,000	0,026	0,065
-436,978	-200,000	-0,014	-0,088
-435,963	-45,015	-0,049	0,017
-434,949	-124,425	0,071	0,008
-433,934	-1,424	0,032	0,016
-432,919	800,000	0,011	-0,030
-431,905	800,000	-0,008	0,022
-430,890	-25,003	-0,106	0,045
-429,876	266,844	0,020	-0,025
-428,861	35,092	-0,128	0,080
-427,846	-200,000	0,021	0,084
-426,832	2,287	0,098	0,051
-425,817	-200,000	0,005	-0,021
-424,803	-90,127	-0,086	-0,018
-423,788	-43,219	-0,019	-0,007
-422,773	-124,540	0,050	0,005
-421,759	518,196	-0,026	0,044
-420,744	83,523	0,088	0,069
-419,730	209,489	-0,085	0,096
-418,715	-66,411	-0,111	0,031
-417,701	173,832	0,044	0,046
-416,686	12,203	-0,087	0,048
-415,671	-124,071	0,071	0,008
-414,657	-200,000	-0,024	-0,120
-413,642	-200,000	0,005	0,070
-412,628	313,832	-0,010	0,013
-411,613	271,080	0,076	-0,096
-410,598	-200,000	0,011	-0,077
-409,584	584,623	-0,015	-0,027
-408,569	800,000	0,014	-0,029
-407,555	164,870	0,053	-0,054
-406,540	-63,464	-0,056	-0,016
-405,525	-200,000	0,008	0,090
-404,511	-115,124	0,079	-0,011
-403,496	705,308	-0,032	-0,060
-402,482	323,571	0,078	-0,107
-401,467	130,396	0,093	0,086
-400,452	305,109	-0,073	-0,097
-399,438	-74,203	0,005	0,001
-398,423	-2,955	0,028	0,014
-397,409	800,000	0,006	-0,014
-396,394	800,000	-0,073	-0,187
-395,379	-0,836	-0,026	-0,013
-394,365	-108,475	0,055	-0,008
-393,350	-194,149	0,134	-0,001
-392,336	-104,195	-0,095	0,016
-391,321	-200,000	0,022	-0,073
-390,306	800,000	0,044	-0,120
-389,292	-200,000	-0,010	-0,042
-388,277	-200,000	-0,011	0,098
-387,263	488,352	0,033	0,054
-386,248	-200,000	0,008	0,039
-385,233	-42,690	0,089	-0,032
-384,219	-200,000	0,009	0,184
-383,204	800,000	0,080	-0,208
-382,190	50,138	0,108	-0,073
-381,175	800,000	-0,026	0,057
-380,160	-147,610	0,064	-0,004
-379,146	-11,473	0,141	0,066
-378,131	19,777	0,143	0,082
-377,117	-200,000	0,018	-0,095
-376,102	-39,054	-0,109	0,041
-375,088	-200,000	0,008	-0,037
-374,073	-15,747	0,073	0,033
-373,058	-200,000	-0,002	0,016
-372,044	-64,583	0,091	-0,026
-371,029	11,445	0,115	0,063
-370,015	576,836	0,048	0,085
-369,000	-101,345	0,077	-0,013
-367,985	-96,569	-0,187	0,035
-366,971	800,000	0,041	0,089
-365,956	32,430	0,099	0,061
-364,942	566,029	0,068	0,118
-363,927	82,920	0,050	0,039
-362,912	113,462	-0,023	0,020
-361,898	71,399	0,006	-0,004
-360,883	-56,359	-0,118	-0,037
-359,869	-200,000	-0,010	-0,055
-358,854	78,670	-0,071	-0,054
-357,839	84,266	0,073	-0,057
-356,825	-159,930	-0,003	-0,000
-355,810	-200,000	0,034	0,159
-354,796	-154,495	-0,046	0,002
-353,781	762,461	-0,018	0,035
-352,766	-126,384	-0,143	-0,015
-351,752	-200,000	0,007	0,137
-350,737	157,219	0,103	0,101
-349,723	-7,712	0,149	-0,072
-348,708	12,034	-0,063	-0,034
-347,693	-200,000	0,007	0,105
-346,679	-44,394	0,057	-0,020
-345,664	-200,000	-0,015	-0,256
-344,650	397,657	0,049	0,074
-343,635	-200,000	0,128	0,000
-342,620	800,000	0,042	0,118
-341,606	98,786	-0,153	-0,126
-340,591	405,351	0,064	-0,096
-339,577	-27,172	-0,050	-0,021
-338,562	-200,000	-0,004	-0,025
-337,548	47,480	0,082	0,055
-336,533	-200,000	-0,014	0,253
-335,518	-105,739	-0,115	0,018
-334,504	274,302	0,097	0,123
-333,489	-44,134	-0,169	0,060
-332,475	112,129	0,057	0,049
-331,460	384,028	-0,050	-0,074
-330,445	700,403	-0,022	-0,042
-329,431	66,022	0,005	-0,004
-328,416	-75,863	-0,046	-0,012
-327,402	-72,763	-0,045	0,012
-326,387	-200,000	-0,025	0,168
-325,372	-200,000	0,010	0,043
-324,358	-169,416	-0,088	0,002
-323,343	-200,000	-0,017	0,070
-322,329	-200,000	0,002	0,008
-321,314	800,000	-0,024	0,073
-320,299	-200,000	0,010	-0,051
-319,285	-200,000	-0,003	-0,198
-318,270	800,000	0,057	-0,162
-317,256	-41,608	-0,054	-0,020
-316,241	29,656	0,108	0,066
-315,226	520,277	0,048	-0,080
-314,212	409,736	0,052	-0,079
-313,197	800,000	-0,028	0,065
-312,183	734,253	-0,028	0,054
-311,168	-200,000	0,014	0,066
-310,153	-7,939	0,059	-0,028
-309,139	385,287	-0,048	0,071
-308,124	-200,000	0,000	-0,076
-307,110	-200,000	-0,003	-0,033
-306,095	-86,360	-0,106	0,023
-305,080	800,000	-0,050	0,107
-304,066	-45,378	-0,091	-0,032
-303,051	126,881	-0,142	-0,128
-302,037	-108,431	-0,086	0,013
-301,022	-32,528	0,071	-0,028
-300,008	-5,978	-0,036	-0,018
-298,993	-46,008	0,085	-0,030
-297,978	-200,000	-0,000	-0,055
-296,964	-200,000	0,007	-0,049
-295,949	-200,000	-0,027	-0,086
-294,935	5,597	-0,137	0,072
-293,920	-200,000	-0,013	0,125
-292,905	-200,000	-0,006	-0,032
-291,891	104,975	0,078	0,066
-290,876	-200,000	0,024	-0,091
-289,862	513,873	0,031	-0,052
-288,847	800,000	-0,014	0,045
-287,832	-200,000	0,009	0,068
-286,818	46,788	-0,145	0,096
-285,803	-58,478	0,033	0,010
-284,789	-99,792	0,043	-0,008
-283,774	-131,108	-0,025	-0,002
-282,759	84,205	0,079	0,061
-281,745	-154,688	-0,100	-0,005
-280,730	-45,149	-0,080	-0,028
-279,716	584,722	0,058	-0,103
-278,701	-200,000	0,026	0,151
-277,686	-200,000	0,010	0,042
-276,672	158,035	-0,076	0,076
-275,657	-200,000	-0,001	-0,158
-274,643	800,000	0,085	-0,181
-273,628	655,241	0,028	0,052
-272,613	159,744	-0,075	-0,074
-271,599	-200,000	0,006	0,061
-270,584	-200,000	-0,004	0,013
-269,570	-200,000	0,020	-0,139
-268,555	800,000	-0,018	-0,048
-267,540	-200,000	-0,025	0,081
-266,526	131,348	-0,154	-0,141
-265,511	256,879	0,035	-0,043
-264,497	205,673	0,046	0,051
-263,482	266,081	0,089	0,111
-262,467	700,176	0,016	0,030
-261,453	75,150	-0,053	-0,040
-260,438	800,000	0,043	0,094
-259,424	800,000	-0,026	-0,056
-258,409	2,643	-0,079	-0,041
-257,395	800,000	0,027	0,070
-256,380	-56,141	0,075	0,024
-255,365	435,006	0,031	-0,049
-254,351	800,000	-0,008	-0,022
-253,336	-156,551	-0,030	-0,001
-252,322	-200,000	0,001	-0,085
-251,307	113,515	-0,139	0,121
-250,292	173,201	0,069	0,071
-249,278	128,345	0,051	0,046
-248,263	-200,000	-0,013	0,074
-247,249	800,000	-0,058	0,115
-246,234	-47,926	0,083	0,028
-245,219	164,328	-0,076	-0,076
-244,205	150,411	-0,110	-0,107
-243,190	-200,000	-0,047	-0,272
-242,176	-160,867	0,018	-0,001
-241,161	149,351	0,073	0,070
-240,146	-200,000	0,067	0,220
-239,132	-200,000	-0,001	0,015
-238,117	419,300	-0,039	-0,059
-237,103	-85,602	0,178	-0,039
-236,088	-200,000	-0,031	-0,114
-235,073	710,875	0,011	0,021
-234,059	109,607	0,100	0,085
-233,044	-200,000	-0,007	-0,172
-232,030	800,000	-0,013	-0,039
-231,015	28,765	-0,088	-0,053
-230,000	-200,000	0,024	0,081
-228,986	-200,000	-0,006	0,052
-227,971	-28,119	0,063	0,026
-226,957	-75,623	0,099	-0,025
-225,942	800,000	0,033	0,080
-224,927	615,890	0,040	-0,071
-223,913	126,254	-0,090	-0,081
-222,898	-200,000	0,016	0,088
-221,884	800,000	-0,031	0,073
-220,869	-200,000	-0,033	0,192
-219,855	215,146	0,074	-0,083
-218,840	-146,853	0,086	0,005
-217,825	-200,000	-0,021	-0,069
-216,811	-200,000	0,025	-0,149
-215,796	-200,000	0,002	-0,074
-214,782	641,302	-0,042	-0,076
-213,767	252,746	0,077	-0,093
-212,752	-48,934	0,106	0,036
-211,738	100,112	0,031	0,025
-210,723	-70,392	-0,088	0,024
-209,709	387,762	0,053	0,078
-208,694	-200,000	-0,006	0,167
-207,679	-200,000	-0,009	-0,073
-206,665	-140,656	-0,049	0,004
-205,650	-200,000	0,004	-0,015
-204,636	-200,000	-0,009	-0,041
-203,621	-14,441	0,045	0,020
-202,606	-200,000	-0,015	-0,142
-201,592	552,148	0,048	0,083
-200,577	85,270	0,119	-0,093
-199,563	742,633	0,020	-0,039
-198,548	126,563	0,027	-0,025
-197,533	-40,242	0,119	-0,044
-196,519	67,798	0,084	0,061
-195,504	183,038	0,018	0,019
-194,490	-200,000	0,006	0,051
-193,475	182,773	-0,095	-0,099
-192,460	800,000	0,017	0,034
-191,446	575,030	-0,028	0,048
-190,431	188,064	-0,031	-0,032
-189,417	192,156	-0,011	0,012
-188,402	-182,267	-0,117	0,002
-187,387	37,421	-0,071	-0,045
-186,373	800,000	-0,030	-0,064
-185,358	-200,000	-0,004	0,122
-184,344	246,959	-0,055	0,066
-183,329	96,581	0,066	-0,054
-182,315	69,325	-0,102	0,075
-181,300	-58,269	-0,135	-0,041
-180,285	800,000	0,072	0,174
-179,271	800,000	0,044	-0,103
-178,256	497,907	0,046	-0,075
-177,242	387,681	0,038	0,055
-176,227	160,316	0,027	-0,027
-175,212	-200,000	-0,040	0,190
-174,198	-173,879	-0,090	-0,002
-173,183	-77,589	0,054	0,013
-172,169	-50,723	-0,066	-0,022
-171,154	169,688	0,025	-0,025
-170,139	-73,424	-0,110	-0,028
-169,125	52,217	0,163	0,110
-168,110	-90,995	-0,089	-0,018
-167,096	-97,386	0,150	0,027
-166,081	5,252	-0,047	0,024
-165,066	-200,000	-0,007	-0,033
-164,052	-68,628	0,019	0,005
-163,037	777,655	0,038	0,074
-162,023	588,427	0,055	0,097
-161,008	460,391	-0,094	0,148
-159,993	-200,000	-0,023	0,122
-158,979	-200,000	-0,010	-0,102
-157,964	288,911	0,044	0,056
-156,950	152,155	0,103	-0,100
-155,935	-200,000	0,025	-0,084
-154,920	-43,864	0,058	0,021
-153,906	800,000	-0,031	0,074
-152,891	96,546	-0,105	-0,085
-151,877	-200,000	-0,009	-0,143
-150,862	-31,878	-0,041	-0,016
-149,847	146,320	0,037	0,035
-148,833	140,294	0,068	-0,064
-147,818	-200,000	-0,034	0,124
-146,804	-200,000	0,004	0,028
-145,789	122,230	0,065	0,057
-144,775	-141,276	-0,033	0,002
-143,760	-200,000	-0,007	0,033
-142,745	-200,000	-0,016	-0,094
-141,731	-37,691	0,029	-0,011
-140,716	41,397	0,113	0,072
-139,702	-172,169	-0,058	-0,001
-138,687	84,100	0,023	0,018
-137,672	-200,000	0,023	-0,093
-136,658	172,315	0,115	-0,118
-135,643	50,727	-0,069	0,046
-134,629	33,861	0,047	0,029
-133,614	176,075	-0,057	-0,059
-132,599	800,000	0,016	0,040
-131,585	113,736	-0,068	0,058
-130,570	75,867	-0,105	0,079
-129,556	-127,723	-0,169	0,017
-128,541	6,684	0,048	-0,025
-127,526	-80,395	-0,145	0,034
-126,512	800,000	0,029	0,061
-125,497	800,000	0,016	0,041
-124,483	43,799	0,095	-0,061
-123,468	-163,092	0,145	-0,005
-122,453	48,291	-0,050	-0,033
-121,439	800,000	-0,014	0,044
-120,424	-200,000	0,018	-0,166
-119,410	800,000	-0,016	-0,044
-118,395	0,181	0,090	-0,045
-117,380	-25,916	0,027	0,011
-116,366	82,590	-0,090	0,069
-115,351	-179,038	-0,041	0,001
-114,337	-170,300	-0,187	-0,005
-113,322	117,215	0,029	0,025
-112,307	800,000	-0,025	-0,073
-111,293	-194,066	0,115	-0,001
-110,278	122,879	0,029	-0,026
-109,264	8,518	-0,079	-0,042
-108,249	-157,623	0,125	-0,005
-107,234	-90,704	-0,126	-0,025
-106,220	494,322	0,026	0,042
-105,205	-200,000	-0,025	0,189
-104,191	437,469	0,032	0,050
-103,176	193,249	0,057	0,061
-102,162	388,540	0,146	0,214
-101,147	-200,000	0,000	0,061
-100,132	-28,730	-0,175	-0,071
-99,118	-158,170	0,106	0,004
-98,103	-131,634	-0,122	0,011
-97,089	800,000	-0,026	-0,061
-96,074	-200,000	-0,022	0,077
-95,059	429,663	0,052	0,079
-94,045	120,895	-0,043	-0,038
-93,030	-200,000	0,025	0,087
-92,016	-38,674	-0,068	-0,025
-91,001	38,154	0,124	0,078
-89,986	741,965	-0,036	-0,069
-88,972	-200,000	-0,035	0,183
-87,957	-50,605	-0,028	0,009
-86,943	-200,000	-0,027	-0,186
-85,928	-200,000	-0,028	-0,242
-84,913	-121,754	-0,116	0,013
-83,899	137,574	0,055	-0,051
-82,884	400,326	0,097	0,144
-81,870	551,380	0,066	-0,113
-80,855	469,423	0,057	0,091
-79,840	-200,000	-0,046	0,165
-78,826	212,905	0,037	-0,042
-77,811	427,279	0,039	-0,060
-76,797	519,187	-0,019	-0,032
-75,782	-20,909	-0,055	0,024
-74,767	60,445	0,086	0,060
-73,753	58,795	0,038	0,026
-72,738	800,000	0,042	0,102
-71,724	-103,885	-0,088	0,014
-70,709	-200,000	0,007	-0,028
-69,694	-200,000	-0,006	-0,244
-68,680	-200,000	-0,010	0,126
-67,665	-200,000	-0,007	0,069
-66,651	484,950	0,084	0,135
-65,636	800,000	0,024	0,047
-64,622	16,757	0,014	-0,008
-63,607	-141,575	-0,086	0,006
-62,592	800,000	0,038	0,094
-61,578	78,710	-0,043	-0,033
-60,563	154,308	0,139	0,135
-59,549	-138,402	0,065	-0,005
-58,534	27,820	-1,830	-1,086
-57,519	431,824	-1,314	-2,018
-56,505	-200,000	-0,201	-4,339
-55,490	333,870	0,990	1,356
-54,476	800,000	5,137	11,343
-53,461	-200,000	20,556	327,392
-52,446	800,000	752,453	2312,865
-51,432	550,714	1657,978	2820,015
-50,417	74,051	1663,765	1231,633
-49,403	19,304	1537,140	869,356
-48,388	13,285	1459,641	796,407
-47,373	18,836	1450,304	817,938
-46,359	16,157	1439,709	799,178
-45,344	11,567	1435,137	774,752
-44,330	11,453	1433,343	773,210
-43,315	11,448	1431,547	772,189
-42,300	11,429	1429,860	771,156
-41,286	11,507	1428,459	770,742
-40,271	11,453	1427,313	769,835
-39,257	11,417	1426,348	769,113
-38,242	11,480	1424,885	768,592
-37,227	11,504	1423,785	768,085
-36,213	11,501	1422,453	767,319
-35,198	11,478	1421,512	766,672
-34,184	11,503	1420,462	766,196
-33,169	11,472	1419,332	765,407
-32,154	11,501	1418,007	764,801
-31,140	11,531	1416,920	764,326
-30,125	11,576	1415,919	763,968
-29,111	11,522	1414,685	763,015
-28,096	11,523	1413,576	762,391
-27,082	11,464	1412,428	761,468
-26,067	11,488	1411,312	760,949
-25,052	11,462	1410,275	760,237
-24,038	11,454	1409,274	759,627
-23,023	11,450	1408,216	759,009
-22,009	11,440	1407,256	758,414
-20,994	11,411	1406,336	757,754
-19,979	11,394	1405,456	757,172
-18,965	11,453	1404,328	756,808
-17,950	11,427	1403,428	756,171
-16,936	11,415	1402,911	755,806
-15,921	11,350	1401,641	754,792
-14,906	11,289	1400,862	754,057
-13,892	11,365	1399,797	753,807
-12,877	11,382	1399,028	753,441
-11,863	11,374	1398,141	752,900
-10,848	11,346	1397,256	752,259
-9,833	11,316	1396,491	751,681
-8,819	11,242	1395,540	750,795
-7,804	11,281	1394,536	750,408
-6,790	11,254	1393,502	749,694
-5,775	11,313	1392,423	749,359
-4,760	11,305	1391,664	748,883
-3,746	11,292	1390,586	748,212
-2,731	11,295	1389,946	747,852
-1,717	11,225	1389,111	747,052
-0,702	11,250	1387,218	746,118
0,313	15,230	1301,888	718,479
1,327	31,487	694,485	420,323
2,342	48,602	120,749	79,730
3,356	2,886	16,531	8,441
4,371	-9,851	3,472	1,624
5,386	-28,168	0,666	0,270
6,400	-200,000	0,070	0,237
7,415	402,348	-0,122	-0,182
8,429	350,750	-0,173	-0,243
9,444	271,524	-0,287	-0,357
10,459	15,849	-0,313	-0,173
11,473	61,156	-0,164	-0,115
12,488	17,644	-0,286	-0,160
13,502	17,773	-0,334	-0,187
14,517	-16,585	-0,272	-0,121
15,531	-20,486	-0,402	-0,173
16,546	-44,722	-0,264	-0,092
17,561	16,455	-0,269	-0,149
18,575	47,057	-0,267	-0,175
19,590	800,000	-0,121	-0,344
20,604	-179,001	-0,237	0,004
21,619	97,199	-0,518	-0,419
22,634	123,246	-0,447	-0,394
23,648	48,916	-0,359	-0,237
24,663	0,244	-0,414	-0,207
25,677	83,247	-0,395	-0,302
26,692	45,153	-0,327	-0,212
27,707	-10,411	-0,466	-0,217
28,721	151,322	-0,367	-0,352
29,736	13,637	-0,372	-0,203
30,750	78,982	-0,452	-0,341
31,765	-31,029	-0,407	-0,161
32,780	28,425	-0,331	-0,197
33,794	170,732	-0,358	-0,362
34,809	-2,717	-0,365	-0,179
35,823	219,252	-0,315	-0,355
36,838	100,507	-0,367	-0,300
37,853	-13,327	-0,415	-0,189
38,867	113,770	-0,338	-0,289
39,882	-34,203	-0,389	-0,150
40,896	30,088	-0,256	-0,153
41,911	81,598	-0,253	-0,193
42,926	116,425	-0,260	-0,224
43,940	135,882	-0,230	-0,210
44,955	45,789	-0,431	-0,280
45,969	254,568	-0,337	-0,407
46,984	75,968	-0,244	-0,181
47,999	4,087	-0,356	-0,182
49,013	60,961	-0,286	-0,199
50,028	-19,367	-0,401	-0,174
51,042	146,998	-0,225	-0,213
52,057	56,306	-0,388	-0,264
53,071	60,551	-0,385	-0,267
54,086	15,807	-0,402	-0,221
55,101	47,602	-0,351	-0,230
56,115	-110,032	-0,253	-0,037
57,130	3,607	-0,317	-0,162
58,144	154,887	-0,238	-0,230
59,159	91,645	-0,369	-0,291
60,174	51,938	-0,247	-0,165
61,188	-42,009	-0,418	-0,149
62,203	153,421	-0,242	-0,233
63,217	50,752	-0,360	-0,239
64,232	274,366	-0,188	-0,235
65,247	160,220	-0,368	-0,360
66,261	151,401	-0,286	-0,274
67,276	-21,263	-0,336	-0,144
68,290	74,634	-0,383	-0,282
69,305	87,356	-0,299	-0,232
70,320	718,234	-0,102	-0,190
71,334	74,261	-0,345	-0,254
72,349	11,686	-0,383	-0,206
73,363	114,480	-0,326	-0,278
74,378	442,055	-0,173	-0,267
75,393	-31,246	-0,365	-0,143
76,407	18,647	-0,325	-0,182
77,422	17,282	-0,221	-0,123
78,436	-7,052	-0,241	-0,114
79,451	-78,596	-0,266	-0,063
80,466	-32,513	-0,447	-0,174
81,480	127,640	-0,284	-0,253
82,495	8,981	-0,388	-0,204
83,509	-66,046	-0,311	-0,086
84,524	109,655	-0,269	-0,225
85,539	-141,770	-0,229	0,016
86,553	-57,721	-0,297	-0,090
87,568	358,222	-0,175	-0,246
88,582	267,473	-0,219	-0,269
89,597	13,489	-0,366	-0,198
90,611	67,024	-0,203	-0,144
91,626	-11,750	-0,288	-0,132
92,641	-158,593	-0,305	0,012
93,655	31,907	-0,139	-0,084
94,670	110,055	-0,268	-0,225
95,684	180,282	-0,197	-0,203
96,699	-5,009	-0,363	-0,174
97,714	-22,580	-0,351	-0,148
98,728	356,282	-0,148	-0,207
99,743	-96,195	-0,229	-0,042
100,757	658,611	-0,074	-0,133
101,772	398,536	-0,175	-0,257
102,787	72,510	-0,332	-0,242
103,801	55,453	-0,205	-0,139
104,816	47,647	-0,201	-0,131
105,830	-17,541	-0,288	-0,126
106,845	-145,910	-0,239	-0,015
107,860	-63,797	-0,249	-0,071
108,874	-40,444	-0,245	-0,088
109,889	22,530	-0,260	-0,148
110,903	46,684	-0,179	-0,116
111,918	-26,275	-0,295	-0,121
112,933	-173,885	-0,124	-0,002
113,947	-49,168	-0,220	-0,073
114,962	113,488	-0,252	-0,214
115,976	201,499	-0,195	-0,210
116,991	90,973	-0,302	-0,236
118,006	683,513	-0,146	-0,267
119,020	-74,116	-0,320	-0,080
120,035	-136,826	-0,213	-0,017
121,049	-136,773	-0,191	-0,015
122,064	38,378	-0,315	-0,196
123,079	92,933	-0,198	-0,156
124,093	13,427	-0,314	-0,169
125,108	113,155	-0,230	-0,195
126,122	55,181	-0,170	-0,115
127,137	216,430	-0,160	-0,178
128,151	-60,648	-0,192	-0,056
129,166	291,153	-0,198	-0,251
130,181	101,398	-0,228	-0,185
131,195	106,421	-0,319	-0,264
132,210	19,651	-0,252	-0,141
133,224	-10,924	-0,377	-0,173
134,239	147,190	-0,185	-0,174
135,254	-119,765	-0,194	-0,023
136,268	343,424	-0,180	-0,247
137,283	169,973	-0,240	-0,239
138,297	141,177	-0,255	-0,235
139,312	15,838	-0,292	-0,160
140,327	71,273	-0,199	-0,144
141,341	-71,861	-0,155	-0,040
142,356	28,435	-0,235	-0,138
143,370	110,028	-0,220	-0,184
144,385	-45,777	-0,254	-0,087
145,400	97,947	-0,237	-0,190
146,414	-63,073	-0,310	-0,089
147,429	-200,000	-0,030	-0,241
148,443	205,865	-0,169	-0,184
149,458	-12,714	-0,164	-0,074
150,473	348,832	-0,265	-0,365
151,487	-116,533	-0,226	-0,029
152,502	198,413	-0,256	-0,273
153,516	124,826	-0,215	-0,188
154,531	79,241	-0,334	-0,249
155,546	336,435	-0,229	-0,311
156,560	-14,052	-0,255	-0,114
157,575	-148,741	-0,329	-0,018
158,589	221,127	-0,151	-0,170
159,604	90,532	-0,269	-0,210
160,619	126,199	-0,265	-0,233
161,633	-35,599	-0,361	-0,136
162,648	493,379	-0,080	-0,128
163,662	70,602	-0,198	-0,142
164,677	9,994	-0,246	-0,129
165,692	194,432	-0,095	-0,101
166,706	-200,000	-0,016	-0,243
167,721	-29,352	-0,183	-0,073
168,735	668,927	-0,173	-0,312
169,750	26,057	-0,321	-0,186
170,764	395,064	-0,130	-0,189
171,779	80,556	-0,070	-0,052
172,794	245,728	-0,154	-0,180
173,808	99,473	-0,193	-0,155
174,823	800,000	-0,081	-0,213
175,837	130,527	-0,177	-0,158
176,852	84,388	-0,206	-0,157
177,867	288,707	-0,232	-0,292
178,881	233,097	-0,131	-0,150
179,896	209,668	-0,164	-0,179
180,910	688,617	-0,150	-0,275
181,925	30,118	-0,304	-0,180
182,940	286,658	-0,185	-0,233
183,954	191,505	-0,167	-0,175
184,969	-49,574	-0,271	-0,089
185,983	-34,050	-0,218	-0,083
186,998	-96,488	-0,331	-0,060
188,013	52,137	-0,136	-0,090
189,027	21,154	-0,220	-0,124
190,042	88,513	-0,141	-0,108
191,056	-107,995	-0,254	-0,038
192,071	493,531	-0,159	-0,254
193,086	800,000	-0,054	-0,140
194,100	12,582	-0,154	-0,082
195,115	221,616	-0,218	-0,243
196,129	37,940	-0,295	-0,182
197,144	315,109	-0,208	-0,273
198,159	-85,206	-0,282	-0,061
199,173	56,310	-0,182	-0,122
200,188	4,049	-0,225	-0,114
201,202	-44,462	-0,154	0,053
202,217	-60,188	-0,168	-0,049
203,232	66,370	-0,301	-0,212
204,246	231,655	-0,253	-0,288
205,261	130,893	-0,230	-0,205
206,275	-7,259	-0,234	-0,110
207,290	439,054	-0,137	-0,209
208,304	353,170	-0,195	-0,269
209,319	800,000	-0,040	-0,100
210,334	-98,669	-0,173	0,030
211,348	252,505	-0,207	-0,245
212,363	-93,185	-0,222	-0,042
213,377	119,407	-0,181	-0,155
214,392	800,000	-0,036	-0,091
215,407	142,850	-0,253	-0,233
216,421	-200,000	-0,048	-0,174
217,436	-99,197	-0,135	-0,023
218,450	-77,758	-0,254	-0,060
219,465	66,067	-0,254	-0,178
220,480	-28,397	-0,349	-0,139
221,494	248,624	-0,056	-0,066
222,509	800,000	-0,047	-0,092
223,523	37,512	-0,158	-0,097
224,538	420,600	-0,148	-0,221
225,553	66,511	-0,138	-0,097
226,567	-32,607	-0,209	-0,080
227,582	31,841	-0,241	-0,143
228,596	99,025	-0,093	-0,074
229,611	156,438	-0,187	-0,179
230,626	97,642	-0,175	-0,139
231,640	-200,000	-0,028	-0,126
232,655	1,418	-0,151	-0,075
233,669	100,901	-0,125	-0,100
234,684	-62,126	-0,211	-0,060
235,699	4,511	-0,151	-0,076
236,713	41,241	-0,191	-0,119
237,728	-58,504	-0,254	-0,076
238,742	319,110	-0,183	-0,240
239,757	54,913	-0,356	-0,237
240,772	-92,245	-0,154	-0,030
241,786	114,033	-0,203	-0,171
242,801	74,175	-0,175	-0,127
243,815	79,566	-0,149	-0,110
244,830	-151,827	-0,156	-0,008
245,844	164,439	-0,193	-0,188
246,859	161,430	-0,071	-0,069
247,874	-200,000	-0,058	-0,216
248,888	94,559	-0,197	-0,154
249,903	-0,963	-0,182	-0,089
250,917	315,660	-0,150	-0,195
251,932	-141,069	-0,253	-0,018
252,947	-35,873	-0,100	-0,037
253,961	800,000	-0,078	-0,208
254,976	350,881	-0,114	-0,156
255,990	166,888	-0,200	-0,196
257,005	-59,254	-0,207	-0,061
258,020	800,000	-0,043	-0,089
259,034	-87,686	-0,175	-0,036
260,049	647,982	-0,066	-0,116
261,063	116,967	-0,212	-0,179
262,078	-48,947	-0,208	-0,068
263,093	224,788	-0,188	-0,210
264,107	528,313	-0,134	-0,218
265,122	139,374	-0,105	-0,095
266,136	-81,267	-0,102	0,023
267,151	-100,589	-0,255	-0,043
268,166	-155,163	-0,176	-0,008
269,180	23,934	-0,093	-0,053
270,195	-3,961	-0,243	-0,116
271,209	16,037	-0,114	-0,062
272,224	-200,000	-0,026	-0,133
273,239	-200,000	-0,070	-0,221
274,253	-154,230	-0,092	-0,004
275,268	58,706	-0,256	-0,173
276,282	567,257	-0,105	-0,177
277,297	69,925	-0,298	-0,211
278,312	67,829	-0,107	-0,076
279,326	-175,449	-0,070	0,001
280,341	726,423	-0,095	-0,176
281,355	588,034	-0,091	-0,156
282,370	-25,333	-0,217	-0,088
283,384	148,807	-0,287	-0,268
284,399	486,608	-0,182	-0,286
285,414	249,494	-0,157	-0,184
286,428	-86,153	-0,120	-0,025
287,443	752,546	0,044	0,082
288,457	134,694	-0,148	-0,132
289,472	-75,439	-0,225	-0,055
290,487	277,103	-0,149	-0,183
291,501	290,533	-0,196	-0,246
292,516	184,809	-0,155	-0,158
293,530	388,217	-0,162	-0,231
294,545	-200,000	-0,058	-0,182
295,560	525,830	-0,087	-0,142
296,574	-160,185	-0,118	0,004
297,589	-64,063	-0,209	-0,058
298,603	158,293	-0,151	-0,144
299,618	753,197	-0,071	-0,132
300,633	87,951	-0,088	-0,067
301,647	40,868	-0,057	0,035
302,662	-24,306	-0,134	-0,055
303,676	97,947	-0,187	-0,148
304,691	18,924	-0,283	-0,155
305,706	261,519	-0,101	-0,120
306,720	-110,346	-0,192	-0,027
307,735	800,000	-0,054	-0,146
308,749	-200,000	-0,005	-0,051
309,764	281,335	-0,130	-0,160
310,779	244,985	-0,054	0,063
311,793	-5,450	-0,286	-0,134
312,808	134,506	-0,199	-0,177
313,822	-97,772	-0,288	-0,051
314,837	800,000	-0,110	-0,274
315,852	91,417	-0,053	0,041
316,866	-108,506	-0,058	-0,008
317,881	187,486	-0,040	-0,041
318,895	-37,019	-0,249	-0,091
319,910	110,580	-0,211	-0,174
320,925	123,684	-0,111	-0,095
321,939	252,171	-0,150	-0,176
322,954	-200,000	-0,027	-0,095
323,968	800,000	-0,034	-0,075
324,983	67,148	-0,127	-0,089
325,997	-114,354	-0,109	0,014
327,012	266,251	-0,177	-0,212
328,027	177,708	-0,119	-0,119
329,041	127,108	-0,183	-0,159
330,056	550,601	-0,089	-0,147
331,070	-0,372	-0,159	-0,077
332,085	100,498	-0,210	-0,167
333,100	-200,000	-0,070	-0,226
334,114	-35,029	-0,159	-0,059
335,129	-153,487	-0,150	0,007
336,143	25,314	-0,182	-0,103
337,158	-200,000	-0,033	-0,115
338,173	-40,695	-0,125	0,044
339,187	97,454	-0,156	-0,123
340,202	158,586	-0,103	-0,098
341,216	-91,285	-0,180	-0,035
342,231	-133,687	-0,187	-0,016
343,246	111,481	-0,188	-0,155
344,260	340,268	-0,115	-0,154
345,275	5,399	-0,033	0,017
346,289	295,299	-0,004	0,005
347,304	-116,789	-0,045	-0,006
348,319	-57,283	-0,177	-0,053
349,333	216,298	-0,095	-0,103
350,348	152,126	-0,137	-0,128
351,362	-110,001	-0,111	-0,016
352,377	-200,000	-0,026	-0,087
353,392	-15,057	-0,092	0,040
354,406	11,087	-0,060	-0,031
355,421	207,566	1307,828	1398,336
356,435	159,682	1467,685	1398,825
