DTS Sentinel unit serial number:	SN410029Multiplexer serial number:	ORYXHardware model number:	OX2-SRSoftware version number:	ORYX F/W v4,00 Oryx Data Collector v3.7.2.0data status	okinstallation	B3 Nyhavnadifferential loss correction	single-endedforward channel	channel 1reverse channel	N/Adate	2023/12/02time	05:32:30forward acquisition time	300,00reverse acquisition time	0,00gamma	499,1914k internal	0,3194k external	0,3194temperature offset calibration	1,0000default loss term (dB/km)	0,3820temperature slope calibration	1,0000multiplexer offset coefficient	1,0000multiplexer slope coefficient	1,0000fibre end	0,00T internal ref (°C)	16,23T ext. ref 1 (°C)	0,97T ext. ref 2 (°C)	0,96length (m)	temperature (°C)	Stokes	anti-Stokes-744,400	359,430	-0,166	-0,242
-743,385	800,000	-0,100	0,275
-742,371	800,000	-0,058	-0,130
-741,356	-200,000	0,008	0,335
-740,342	52,273	-0,260	-0,180
-739,327	-200,000	-0,075	0,357
-738,312	226,021	-0,219	-0,259
-737,298	-200,000	-0,032	0,326
-736,283	800,000	-0,121	-0,324
-735,269	800,000	0,109	0,295
-734,254	-61,037	-0,304	-0,093
-733,239	146,666	-0,131	0,128
-732,225	511,036	-0,146	-0,248
-731,210	540,137	0,038	0,067
-730,196	800,000	0,042	-0,090
-729,181	1,905	-0,044	-0,023
-728,167	-116,835	-0,104	0,014
-727,152	-200,000	0,031	-0,118
-726,137	-9,043	-0,101	-0,049
-725,123	800,000	-0,045	-0,122
-724,108	800,000	-0,073	-0,160
-723,094	800,000	0,058	-0,151
-722,079	-117,991	-0,042	-0,005
-721,064	-200,000	-0,010	-0,071
-720,050	800,000	0,033	-0,086
-719,035	800,000	-0,015	0,034
-718,021	800,000	-0,046	0,095
-717,006	279,045	-0,102	-0,133
-715,991	-200,000	0,003	-0,168
-714,977	800,000	-0,035	-0,074
-713,962	-200,000	0,009	-0,142
-712,948	-19,448	-0,152	-0,068
-711,933	-60,007	-0,101	0,031
-710,918	43,160	0,055	-0,036
-709,904	395,768	0,026	-0,040
-708,889	-11,168	-0,046	0,022
-707,875	121,271	-0,126	-0,114
-706,860	70,366	0,112	-0,084
-705,845	800,000	-0,073	0,160
-704,831	-24,795	0,059	0,025
-703,816	-118,063	-0,033	0,004
-702,802	374,867	0,039	0,058
-701,787	-91,771	-0,089	0,018
-700,772	-15,149	-0,167	-0,078
-699,758	-200,000	-0,034	-0,143
-698,743	189,696	0,051	-0,056
-697,729	-45,824	0,172	0,062
-696,714	143,116	-0,018	-0,017
-695,699	-52,643	-0,125	-0,042
-694,685	751,011	0,074	0,146
-693,670	800,000	-0,069	-0,220
-692,656	421,007	0,041	-0,064
-691,641	-200,000	0,020	-0,083
-690,627	-80,649	0,106	-0,025
-689,612	-200,000	0,003	0,056
-688,597	800,000	-0,032	-0,082
-687,583	408,190	-0,095	-0,146
-686,568	63,021	-0,061	0,045
-685,554	242,010	0,013	-0,015
-684,539	121,269	0,066	-0,060
-683,524	17,359	0,043	-0,025
-682,510	505,311	-0,033	0,056
-681,495	-200,000	0,032	-0,114
-680,481	-38,914	-0,129	-0,049
-679,466	14,011	-0,085	-0,048
-678,451	-9,095	-0,121	-0,059
-677,437	-148,590	0,103	0,006
-676,422	320,856	-0,091	0,125
-675,408	800,000	0,050	-0,147
-674,393	800,000	-0,056	0,124
-673,378	-87,541	-0,201	0,044
-672,364	-200,000	-0,029	-0,099
-671,349	-52,336	-0,053	-0,018
-670,335	-119,167	0,087	-0,011
-669,320	-200,000	0,015	-0,048
-668,305	-29,186	0,077	-0,032
-667,291	226,720	0,025	0,030
-666,276	330,459	0,061	-0,085
-665,262	431,473	0,041	0,065
-664,247	-200,000	-0,032	-0,135
-663,232	-13,058	-0,045	-0,021
-662,218	422,681	0,069	0,108
-661,203	1,935	0,106	-0,055
-660,189	95,697	-0,048	-0,040
-659,174	38,715	-0,097	-0,063
-658,159	37,098	-0,155	-0,100
-657,145	360,635	0,114	-0,166
-656,130	-200,000	0,034	0,138
-655,116	26,006	0,083	-0,050
-654,101	-200,000	-0,011	0,087
-653,086	-45,070	-0,059	-0,021
-652,072	-200,000	0,003	0,097
-651,057	-25,554	-0,032	0,014
-650,043	667,615	0,033	-0,063
-649,028	112,537	-0,039	-0,035
-648,014	263,204	-0,019	-0,024
-646,999	477,989	-0,047	0,078
-645,984	50,383	-0,045	0,031
-644,970	800,000	0,024	-0,065
-643,955	-200,000	0,004	-0,077
-642,941	22,774	0,050	0,029
-641,926	-200,000	-0,015	-0,179
-640,911	67,452	-0,043	0,032
-639,897	-139,536	0,085	-0,006
-638,882	11,659	-0,065	-0,036
-637,868	800,000	0,072	-0,202
-636,853	-55,612	-0,144	0,047
-635,838	244,007	-0,072	-0,088
-634,824	-82,300	-0,087	-0,020
-633,809	112,559	0,059	-0,051
-632,795	27,484	0,086	0,052
-631,780	-141,307	-0,010	-0,001
-630,765	-117,486	-0,022	0,003
-629,751	224,867	0,037	-0,043
-628,736	-200,000	-0,071	-0,228
-627,722	387,904	0,049	-0,074
-626,707	158,999	0,098	0,099
-625,692	-131,066	0,120	-0,011
-624,678	38,104	0,024	0,016
-623,663	-82,949	-0,108	-0,025
-622,649	-150,074	0,028	0,002
-621,634	-200,000	0,009	0,042
-620,619	-200,000	-0,013	-0,041
-619,605	425,666	0,089	-0,140
-618,590	300,773	0,032	0,042
-617,576	473,269	0,029	0,048
-616,561	504,118	-0,062	-0,104
-615,546	-140,900	-0,150	-0,011
-614,532	685,171	-0,040	-0,075
-613,517	-200,000	-0,010	-0,176
-612,503	-200,000	0,017	-0,094
-611,488	-157,926	-0,151	-0,006
-610,474	-29,352	-0,093	0,038
-609,459	-16,138	0,073	-0,033
-608,444	506,867	0,030	-0,051
-607,430	-200,000	0,030	-0,132
-606,415	-87,824	-0,114	-0,025
-605,401	800,000	0,035	0,079
-604,386	-200,000	-0,014	0,080
-603,371	59,691	-0,090	0,064
-602,357	236,573	0,081	0,097
-601,342	-67,668	0,174	-0,049
-600,328	142,076	0,024	-0,023
-599,313	123,792	-0,031	-0,029
-598,298	125,988	-0,042	0,038
-597,284	800,000	0,006	-0,013
-596,269	-130,961	0,161	0,015
-595,255	-165,103	0,023	-0,001
-594,240	26,323	-0,051	0,031
-593,225	-119,224	0,031	-0,004
-592,211	-58,692	-0,224	-0,070
-591,196	-128,911	-0,055	-0,005
-590,182	-200,000	0,011	-0,079
-589,167	365,177	-0,007	0,011
-588,152	89,365	0,084	0,068
-587,138	148,361	0,019	0,018
-586,123	-149,557	0,058	0,003
-585,109	800,000	-0,009	-0,025
-584,094	141,201	0,091	0,087
-583,079	45,147	0,043	-0,028
-582,065	-16,025	0,079	0,036
-581,050	-166,339	0,019	0,001
-580,036	-112,213	0,114	0,016
-579,021	-65,354	0,038	-0,011
-578,006	75,471	-0,036	0,028
-576,992	-28,370	0,164	0,068
-575,977	-200,000	-0,002	0,061
-574,963	-12,660	-0,087	0,041
-573,948	-200,000	-0,024	-0,104
-572,934	99,897	0,077	0,065
-571,919	693,220	-0,064	-0,122
-570,904	-200,000	-0,007	-0,136
-569,890	-200,000	-0,002	0,087
-568,875	-69,506	-0,078	0,022
-567,861	800,000	0,045	0,114
-566,846	-200,000	0,016	0,071
-565,831	-200,000	0,017	-0,058
-564,817	4,847	-0,064	0,034
-563,802	-200,000	0,004	-0,015
-562,788	-46,257	-0,058	-0,021
-561,773	360,385	-0,083	-0,121
-560,758	800,000	-0,036	0,072
-559,744	180,638	0,026	0,028
-558,729	776,105	-0,054	-0,107
-557,715	-30,541	-0,024	-0,010
-556,700	-41,694	-0,064	-0,024
-555,685	-97,355	0,065	0,012
-554,671	-200,000	0,010	-0,100
-553,656	141,811	0,047	0,045
-552,642	260,573	0,054	0,068
-551,627	407,789	-0,021	0,032
-550,612	800,000	-0,021	-0,050
-549,598	-2,419	-0,024	-0,012
-548,583	-90,847	0,126	-0,026
-547,569	800,000	-0,013	0,031
-546,554	-121,980	0,052	0,006
-545,539	-200,000	0,025	0,216
-544,525	46,568	-0,131	-0,088
-543,510	216,101	-0,102	-0,118
-542,496	191,781	0,100	0,109
-541,481	-110,752	-0,130	-0,019
-540,466	-101,627	-0,045	0,008
-539,452	-136,477	-0,112	-0,009
-538,437	-200,000	0,038	0,164
-537,423	-200,000	0,015	0,209
-536,408	63,218	-0,016	0,012
-535,393	-200,000	-0,007	-0,057
-534,379	-200,000	-0,014	-0,072
-533,364	69,681	-0,065	-0,048
-532,350	-200,000	-0,006	0,062
-531,335	-145,193	0,039	0,003
-530,321	-200,000	0,006	0,036
-529,306	-200,000	-0,003	-0,037
-528,291	525,713	-0,013	-0,022
-527,277	-200,000	0,007	0,060
-526,262	-47,664	-0,050	0,018
-525,248	299,128	0,061	0,082
-524,233	-200,000	-0,010	0,162
-523,218	800,000	-0,035	0,100
-522,204	680,704	-0,094	0,179
-521,189	800,000	0,034	-0,075
-520,175	160,996	0,034	0,035
-519,160	620,299	-0,045	-0,082
-518,145	21,563	0,080	0,047
-517,131	-200,000	0,020	-0,066
-516,116	7,850	0,016	-0,009
-515,102	800,000	-0,025	-0,066
-514,087	-200,000	-0,012	-0,101
-513,072	-121,831	-0,131	-0,015
-512,058	-200,000	-0,011	-0,042
-511,043	26,230	0,074	-0,044
-510,029	800,000	0,009	-0,027
-509,014	-11,216	0,017	0,008
-507,999	56,837	-0,071	-0,050
-506,985	-23,217	0,051	-0,022
-505,970	-200,000	0,030	-0,105
-504,956	-141,958	0,021	-0,001
-503,941	119,108	0,042	0,038
-502,926	492,873	-0,091	-0,150
-501,912	674,923	-0,068	-0,129
-500,897	-200,000	0,033	0,109
-499,883	-65,840	0,044	0,013
-498,868	-200,000	0,003	0,055
-497,853	-200,000	-0,004	0,036
-496,839	69,455	0,089	-0,066
-495,824	-111,986	-0,068	-0,010
-494,810	448,219	0,065	0,103
-493,795	111,324	-0,071	-0,062
-492,781	-104,284	-0,063	0,011
-491,766	112,499	-0,030	-0,026
-490,751	-161,146	-0,072	-0,003
-489,737	317,139	-0,071	0,098
-488,722	-122,811	0,212	-0,024
-487,708	33,616	0,011	0,007
-486,693	1,543	0,039	0,020
-485,678	76,221	-0,047	-0,036
-484,664	49,686	-0,039	-0,027
-483,649	110,382	-0,037	-0,032
-482,635	75,192	-0,062	-0,047
-481,620	751,885	-0,083	0,163
-480,605	-162,581	0,051	-0,002
-479,591	442,383	0,073	0,115
-478,576	-200,000	-0,012	-0,086
-477,562	167,375	0,063	-0,065
-476,547	800,000	0,028	0,087
-475,532	-200,000	0,020	0,085
-474,518	7,030	0,076	0,041
-473,503	-153,222	0,091	-0,005
-472,489	-120,160	0,077	0,009
-471,474	206,518	-0,074	0,083
-470,459	-44,999	-0,063	0,023
-469,445	-140,912	-0,090	-0,007
-468,430	646,500	-0,029	-0,053
-467,416	42,835	0,094	0,062
-466,401	289,173	0,064	0,084
-465,386	-16,595	0,087	0,039
-464,372	-200,000	0,069	0,000
-463,357	16,508	-0,120	-0,068
-462,343	331,636	0,043	-0,060
-461,328	7,077	-0,049	-0,026
-460,313	-15,890	0,041	0,019
-459,299	-200,000	0,014	0,085
-458,284	-200,000	-0,000	0,015
-457,270	-200,000	0,017	-0,163
-456,255	183,707	-0,064	-0,068
-455,241	-90,062	-0,073	0,015
-454,226	-200,000	-0,002	-0,006
-453,211	800,000	-0,004	0,010
-452,197	144,324	0,028	0,027
-451,182	-116,788	0,264	0,034
-450,168	98,607	0,083	0,069
-449,153	-200,000	-0,021	-0,069
-448,138	800,000	-0,047	-0,097
-447,124	-200,000	0,020	-0,140
-446,109	-200,000	0,035	0,235
-445,095	-9,509	0,067	-0,032
-444,080	396,109	0,033	0,050
-443,065	-130,714	0,129	-0,012
-442,051	800,000	0,042	0,129
-441,036	570,457	0,034	0,060
-440,022	209,360	-0,036	-0,040
-439,007	108,057	0,103	-0,088
-437,992	59,936	-0,124	-0,088
-436,978	134,928	-0,089	0,083
-435,963	-157,128	-0,124	0,005
-434,949	-118,147	-0,155	-0,020
-433,934	-200,000	0,006	0,020
-432,919	22,531	-0,091	0,054
-431,905	800,000	0,042	-0,094
-430,890	-200,000	0,023	0,192
-429,876	-200,000	-0,008	0,036
-428,861	410,474	0,074	-0,113
-427,846	800,000	-0,037	0,103
-426,832	-22,326	-0,024	0,010
-425,817	357,148	-0,103	-0,148
-424,803	-200,000	-0,018	-0,247
-423,788	800,000	-0,029	0,091
-422,773	71,256	0,156	0,117
-421,759	-116,550	0,117	-0,015
-420,744	114,846	-0,064	0,056
-419,730	-74,957	-0,070	-0,018
-418,715	34,149	-0,237	-0,148
-417,701	341,678	0,076	-0,107
-416,686	-43,653	0,190	-0,069
-415,671	145,956	0,043	0,042
-414,657	47,488	0,165	-0,111
-413,642	-84,745	-0,055	-0,012
-412,628	152,291	-0,111	0,109
-411,613	-85,602	-0,044	-0,010
-410,598	-200,000	0,000	0,071
-409,584	800,000	0,012	0,034
-408,569	423,136	0,104	0,161
-407,555	-11,627	0,136	0,064
-406,540	800,000	-0,074	0,194
-405,525	78,026	0,044	-0,034
-404,511	-16,791	-0,119	-0,054
-403,496	800,000	-0,045	-0,095
-402,482	409,032	0,046	0,071
-401,467	800,000	-0,008	-0,023
-400,452	-95,923	0,062	0,012
-399,438	-58,471	-0,095	0,029
-398,423	51,440	-0,078	0,053
-397,409	-200,000	-0,032	-0,135
-396,394	359,359	-0,044	-0,064
-395,379	-99,929	0,077	-0,014
-394,365	800,000	0,037	-0,087
-393,350	-147,287	-0,051	0,003
-392,336	-200,000	0,001	0,146
-391,321	-35,950	0,070	-0,027
-390,306	800,000	0,027	-0,081
-389,292	44,176	0,098	0,065
-388,277	-200,000	0,006	-0,136
-387,263	119,075	-0,047	0,042
-386,248	104,797	-0,031	0,026
-385,233	800,000	0,043	-0,119
-384,219	768,413	-0,056	-0,111
-383,204	-200,000	0,026	0,084
-382,190	-200,000	-0,020	-0,070
-381,175	-200,000	-0,005	0,043
-380,160	19,342	0,107	0,061
-379,146	356,452	-0,020	0,028
-378,131	30,996	-0,096	0,059
-377,117	25,738	-0,062	-0,037
-376,102	-20,160	-0,109	0,048
-375,088	800,000	-0,007	0,013
-374,073	22,406	-0,037	0,022
-373,058	-30,169	0,125	-0,051
-372,044	-200,000	0,002	0,012
-371,029	-200,000	-0,007	0,042
-370,015	13,921	-0,044	0,024
-369,000	356,855	0,058	0,083
-367,985	-200,000	-0,033	-0,108
-366,971	-116,399	-0,101	0,013
-365,956	501,174	-0,027	0,045
-364,942	-62,587	0,246	0,073
-363,927	-200,000	0,017	0,093
-362,912	-200,000	0,042	0,133
-361,898	9,464	0,091	-0,049
-360,883	250,057	-0,028	0,034
-359,869	485,124	-0,077	-0,127
-358,854	-200,000	0,017	0,165
-357,839	401,781	-0,101	0,153
-356,825	-200,000	0,077	-0,000
-355,810	436,015	-0,033	0,051
-354,796	-98,575	0,052	-0,009
-353,781	547,855	0,045	0,077
-352,766	-200,000	-0,014	-0,110
-351,752	800,000	0,052	0,139
-350,737	40,900	0,148	0,096
-349,723	800,000	-0,041	0,111
-348,708	-86,987	-0,060	-0,013
-347,693	150,665	0,058	-0,057
-346,679	-35,161	-0,206	-0,080
-345,664	-200,000	0,016	-0,066
-344,650	-200,000	0,001	0,093
-343,635	52,440	-0,081	0,055
-342,620	-105,553	0,129	0,021
-341,606	-200,000	-0,013	-0,070
-340,591	251,307	-0,112	-0,137
-339,577	142,274	-0,146	-0,139
-338,562	164,704	-0,074	-0,074
-337,548	-137,572	0,140	0,011
-336,533	-200,000	-0,002	0,035
-335,518	101,473	-0,139	0,116
-334,504	800,000	-0,039	0,115
-333,489	-72,165	-0,046	-0,012
-332,475	800,000	-0,009	0,022
-331,460	-200,000	0,021	-0,074
-330,445	429,643	-0,016	-0,025
-329,431	495,434	-0,083	0,138
-328,416	-200,000	0,007	0,193
-327,402	-200,000	0,032	0,148
-326,387	-156,749	0,041	0,002
-325,372	-147,236	-0,085	0,005
-324,358	59,498	-0,079	0,056
-323,343	65,034	-0,035	0,025
-322,329	62,283	0,085	0,061
-321,314	-76,996	0,094	-0,023
-320,299	-200,000	0,045	0,156
-319,285	-75,324	0,069	0,018
-318,270	154,488	-0,073	-0,072
-317,256	-85,442	-0,110	-0,024
-316,241	473,981	0,021	-0,033
-315,226	-200,000	-0,007	-0,098
-314,212	-115,737	0,122	0,016
-313,197	-135,454	-0,064	0,005
-312,183	800,000	-0,033	-0,073
-311,168	800,000	-0,026	-0,062
-310,153	-200,000	0,022	-0,081
-309,139	800,000	0,046	-0,109
-308,124	-200,000	0,008	-0,107
-307,110	-31,954	0,032	0,013
-306,095	-149,518	0,177	-0,010
-305,080	43,396	-0,155	0,101
-304,066	-200,000	-0,001	0,114
-303,051	-200,000	0,015	-0,168
-302,037	197,735	-0,045	-0,049
-301,022	270,750	0,092	-0,116
-300,008	63,579	0,004	0,003
-298,993	485,594	0,085	0,140
-297,978	261,886	0,066	-0,082
-296,964	-200,000	0,014	-0,133
-295,949	36,911	-0,213	-0,135
-294,935	800,000	0,057	-0,126
-293,920	-200,000	0,000	-0,074
-292,905	142,031	0,123	0,117
-291,891	-20,944	-0,085	0,037
-290,876	189,359	0,105	0,113
-289,862	-200,000	0,009	-0,030
-288,847	131,272	-0,017	-0,015
-287,832	-66,157	0,057	0,016
-286,818	-174,767	-0,225	0,004
-285,803	-115,892	-0,114	0,015
-284,789	-39,361	0,120	-0,045
-283,774	352,120	-0,025	-0,036
-282,759	-200,000	0,027	-0,091
-281,745	338,762	-0,152	-0,212
-280,730	101,025	-0,081	-0,068
-279,716	-200,000	-0,010	0,135
-278,701	218,268	-0,085	0,097
-277,686	178,676	0,100	0,105
-276,672	-200,000	0,004	0,077
-275,657	-93,241	0,113	-0,022
-274,643	303,402	-0,025	-0,033
-273,628	17,604	-0,095	-0,054
-272,613	-81,275	0,018	0,004
-271,599	303,056	0,040	0,053
-270,584	-200,000	-0,007	0,029
-269,570	-200,000	0,010	-0,093
-268,555	-200,000	-0,045	0,171
-267,540	800,000	0,068	-0,140
-266,526	-105,740	-0,088	-0,014
-265,511	-200,000	-0,012	0,041
-264,497	800,000	0,033	-0,072
-263,482	430,413	-0,083	-0,128
-262,467	713,153	0,057	0,108
-261,453	11,900	0,072	-0,039
-260,438	800,000	-0,028	-0,085
-259,424	151,246	-0,108	-0,106
-258,409	28,300	0,097	-0,059
-257,395	54,575	-0,035	-0,024
-256,380	9,264	0,048	-0,026
-255,365	800,000	0,026	-0,075
-254,351	63,875	-0,064	-0,046
-253,336	-4,146	0,078	0,038
-252,322	-83,865	0,071	-0,016
-251,307	-200,000	-0,003	0,096
-250,292	-160,251	0,106	0,004
-249,278	-200,000	-0,015	0,102
-248,263	311,647	0,070	-0,094
-247,249	-200,000	-0,015	-0,058
-246,234	-58,069	0,071	0,022
-245,219	-14,922	-0,103	0,047
-244,205	-200,000	0,010	0,035
-243,190	-78,227	-0,133	0,032
-242,176	244,246	0,006	-0,008
-241,161	-200,000	-0,014	0,079
-240,146	665,166	-0,029	0,053
-239,132	196,173	-0,026	0,029
-238,117	-200,000	-0,022	-0,093
-237,103	97,255	-0,042	0,034
-236,088	-200,000	-0,010	0,266
-235,073	-10,274	0,037	-0,018
-234,059	-60,576	0,056	0,017
-233,044	-80,123	0,047	0,011
-232,030	385,464	-0,120	-0,177
-231,015	-200,000	-0,004	0,088
-230,000	267,396	0,095	-0,119
-228,986	16,312	-0,087	0,049
-227,971	339,293	0,083	-0,116
-226,957	-66,522	-0,095	-0,027
-225,942	-200,000	-0,012	0,052
-224,927	297,694	0,056	-0,073
-223,913	487,227	-0,095	-0,156
-222,898	800,000	0,025	-0,074
-221,884	-128,701	-0,038	-0,004
-220,869	800,000	0,070	0,150
-219,855	800,000	0,071	0,191
-218,840	15,060	-0,083	-0,046
-217,825	-200,000	-0,020	0,127
-216,811	-99,449	0,108	0,019
-215,796	-200,000	0,006	0,176
-214,782	-200,000	-0,040	-0,146
-213,767	-74,490	-0,086	-0,022
-212,752	-200,000	-0,005	-0,014
-211,738	203,743	-0,040	0,044
-210,723	-61,094	-0,045	-0,013
-209,709	-200,000	-0,005	-0,062
-208,694	-200,000	-0,006	0,097
-207,679	-20,585	-0,114	-0,050
-206,665	-200,000	-0,016	-0,069
-205,650	-159,196	0,146	0,006
-204,636	538,106	0,064	0,109
-203,621	-36,220	-0,132	0,051
-202,606	-166,545	-0,069	-0,002
-201,592	-93,317	0,091	-0,018
-200,577	157,789	0,107	0,106
-199,563	466,884	0,096	0,154
-198,548	37,682	0,093	0,059
-197,533	-137,109	0,121	0,010
-196,519	-200,000	0,002	0,039
-195,504	-15,830	-0,085	0,039
-194,490	-200,000	-0,013	-0,167
-193,475	-94,573	-0,105	-0,020
-192,460	255,875	-0,055	-0,068
-191,446	37,202	-0,095	-0,060
-190,431	108,356	0,103	0,087
-189,417	59,775	-0,072	0,050
-188,402	-200,000	0,151	-0,000
-187,387	166,732	-0,051	-0,051
-186,373	-200,000	-0,041	-0,162
-185,358	-200,000	0,004	-0,133
-184,344	689,081	-0,045	-0,085
-183,329	-200,000	-0,012	0,037
-182,315	800,000	0,044	0,106
-181,300	-49,149	0,048	-0,016
-180,285	-200,000	0,008	0,037
-179,271	182,582	0,126	0,132
-178,256	-9,816	-0,046	0,022
-177,242	20,700	0,035	0,020
-176,227	-200,000	0,001	0,065
-175,212	102,594	0,113	0,094
-174,198	800,000	0,012	0,026
-173,183	800,000	-0,003	0,009
-172,169	107,876	-0,094	-0,080
-171,154	800,000	-0,058	-0,164
-170,139	542,994	-0,010	-0,016
-169,125	54,914	0,150	0,103
-168,110	-200,000	0,008	0,071
-167,096	56,010	0,074	-0,051
-166,081	-200,000	0,004	-0,019
-165,066	-200,000	-0,002	-0,044
-164,052	800,000	-0,017	-0,052
-163,037	192,893	0,063	0,068
-162,023	15,396	-0,097	0,054
-161,008	-200,000	0,036	0,166
-159,993	-6,767	0,076	-0,037
-158,979	216,451	-0,098	-0,112
-157,964	800,000	0,057	-0,116
-156,950	-49,447	0,096	0,033
-155,935	-200,000	-0,016	-0,087
-154,920	-200,000	0,011	0,132
-153,906	255,084	0,026	-0,032
-152,891	33,929	-0,091	0,057
-151,877	-200,000	-0,001	-0,094
-150,862	230,614	0,054	-0,063
-149,847	429,574	0,072	-0,112
-148,833	-110,887	-0,077	-0,011
-147,818	-90,431	0,140	0,029
-146,804	107,538	-0,060	-0,050
-145,789	771,235	0,013	0,025
-144,775	168,840	-0,088	0,090
-143,760	-100,280	-0,170	-0,030
-142,745	-125,827	0,095	0,010
-141,731	-200,000	-0,022	-0,080
-140,716	3,812	0,040	0,021
-139,702	117,895	0,023	-0,020
-138,687	48,668	-0,142	0,095
-137,672	129,822	-0,061	0,055
-136,658	-200,000	0,017	-0,111
-135,643	-200,000	0,010	0,059
-134,629	-200,000	0,010	0,068
-133,614	-46,527	0,056	-0,019
-132,599	5,338	0,108	0,056
-131,585	182,768	0,111	-0,116
-130,570	-159,541	0,064	0,003
-129,556	-200,000	-0,018	-0,151
-128,541	-200,000	-0,007	-0,048
-127,526	-39,499	-0,075	0,028
-126,512	-9,253	-0,154	0,073
-125,497	-200,000	0,014	0,056
-124,483	280,967	-0,081	-0,104
-123,468	-200,000	0,012	0,088
-122,453	411,481	0,029	-0,044
-121,439	-103,867	0,075	-0,012
-120,424	271,932	-0,100	-0,125
-119,410	-22,680	0,014	0,006
-118,395	506,894	0,044	0,072
-117,380	455,225	-0,017	0,027
-116,366	-48,517	-0,184	-0,063
-115,351	800,000	-0,048	-0,121
-114,337	-200,000	-0,000	-0,210
-113,322	-200,000	0,003	-0,020
-112,307	-155,841	-0,160	-0,007
-111,293	-97,749	0,096	-0,017
-110,278	96,540	0,043	0,035
-109,264	-3,170	0,028	-0,014
-108,249	-200,000	-0,026	0,094
-107,234	-96,613	-0,159	0,030
-106,220	-200,000	0,004	-0,023
-105,205	254,269	-0,032	0,038
-104,191	800,000	-0,064	0,129
-103,176	282,171	0,047	0,060
-102,162	138,066	-0,075	0,070
-101,147	-200,000	-0,008	-0,099
-100,132	-200,000	0,032	-0,138
-99,118	-48,840	-0,093	0,032
-98,103	158,868	-0,135	0,133
-97,089	-200,000	0,004	-0,084
-96,074	-6,327	-0,118	0,057
-95,059	743,560	-0,046	-0,088
-94,045	49,926	-0,093	-0,063
-93,030	-49,754	-0,043	-0,014
-92,016	-61,851	-0,133	-0,039
-91,001	164,999	-0,105	-0,105
-89,986	-93,071	0,040	0,008
-88,972	800,000	-0,036	-0,073
-87,957	-143,384	0,092	-0,006
-86,943	182,803	0,042	-0,044
-85,928	80,786	0,009	0,007
-84,913	-121,964	0,130	-0,015
-83,899	-73,826	0,131	-0,034
-82,884	70,946	0,031	-0,023
-81,870	31,064	-0,014	-0,008
-80,855	153,326	-0,104	0,101
-79,840	-200,000	-0,030	-0,108
-78,826	644,631	-0,052	-0,094
-77,811	618,226	0,108	-0,193
-76,797	-200,000	-0,004	-0,021
-75,782	-200,000	0,036	-0,172
-74,767	-79,648	-0,100	0,024
-73,753	-56,695	0,047	-0,015
-72,738	156,844	-0,126	0,124
-71,724	-62,525	-0,100	0,029
-70,709	-200,000	0,002	0,073
-69,694	-58,758	0,097	0,030
-68,680	141,240	0,098	-0,092
-67,665	505,818	0,074	0,122
-66,651	119,511	0,049	-0,043
-65,636	-61,741	0,060	0,018
-64,622	-94,232	-0,163	-0,031
-63,607	-200,000	-0,014	-0,059
-62,592	800,000	-0,051	-0,103
-61,578	380,313	-0,082	-0,120
-60,563	800,000	-0,045	-0,121
-59,549	-67,944	-0,115	0,032
-58,534	-54,678	-1,299	-0,414
-57,519	464,621	-1,462	-2,328
-56,505	-200,000	-0,573	-4,463
-55,490	26,132	1,014	0,599
-54,476	800,000	4,759	11,238
-53,461	-200,000	17,533	277,877
-52,446	800,000	719,328	2213,911
-51,432	560,721	1633,515	2811,543
-50,417	81,191	1657,786	1269,087
-49,403	24,080	1531,888	894,568
-48,388	18,073	1455,328	820,889
-47,373	18,428	1444,691	816,559
-46,359	18,043	1435,251	809,359
-45,344	16,394	1430,465	798,790
-44,330	16,290	1428,801	797,338
-43,315	16,279	1427,040	796,268
-42,300	16,356	1425,108	795,523
-41,286	16,385	1424,136	795,087
-40,271	16,342	1422,637	794,016
-39,257	16,313	1421,607	793,273
-38,242	16,361	1420,231	792,698
-37,227	16,365	1419,015	792,010
-36,213	16,300	1417,757	790,968
-35,198	16,320	1416,566	790,367
-34,184	16,362	1415,604	789,995
-33,169	16,318	1414,143	788,941
-32,154	16,311	1413,488	788,511
-31,140	16,317	1411,997	787,676
-30,125	16,357	1410,849	787,194
-29,111	16,374	1409,543	786,513
-28,096	16,278	1408,673	785,548
-27,082	16,246	1407,542	784,737
-26,067	16,301	1406,190	784,209
-25,052	16,307	1405,122	783,609
-24,038	16,282	1404,276	782,991
-23,023	16,270	1403,297	782,356
-22,009	16,229	1402,222	781,535
-20,994	16,171	1401,347	780,745
-19,979	16,182	1400,459	780,271
-18,965	16,186	1399,506	779,728
-17,950	16,194	1398,416	779,128
-16,936	16,207	1397,525	778,662
-15,921	16,173	1396,127	777,695
-14,906	16,185	1395,349	777,286
-13,892	16,173	1394,453	776,698
-12,877	16,181	1393,560	776,209
-11,863	16,201	1392,579	775,725
-10,848	16,160	1391,761	775,048
-9,833	16,131	1390,803	774,347
-8,819	16,106	1389,893	773,698
-7,804	16,071	1388,903	772,953
-6,790	16,098	1387,797	772,432
-5,775	16,087	1386,847	771,824
-4,760	16,080	1385,997	771,287
-3,746	16,067	1385,387	770,857
-2,731	16,086	1384,333	770,324
-1,717	16,028	1383,335	769,471
-0,702	16,046	1381,438	768,472
0,313	19,809	1302,701	742,036
1,327	36,344	707,196	441,182
2,342	55,932	125,555	86,213
3,356	2,689	16,632	8,521
4,371	0,115	3,105	1,564
5,386	-101,318	0,566	0,097
6,400	66,531	-0,071	-0,051
7,415	-25,415	-0,287	-0,120
8,429	84,038	-0,219	-0,169
9,444	132,838	-0,248	-0,226
10,459	138,344	-0,281	-0,261
11,473	-8,569	-0,284	-0,135
12,488	3,936	-0,244	-0,126
13,502	-77,968	-0,426	-0,103
14,517	-99,947	-0,332	-0,058
15,531	19,791	-0,527	-0,300
16,546	105,144	-0,377	-0,315
17,561	289,633	-0,242	-0,311
18,575	63,098	-0,165	-0,117
19,590	168,863	-0,183	-0,185
20,604	-76,249	-0,317	-0,078
21,619	198,624	-0,398	-0,431
22,634	88,469	-0,399	-0,313
23,648	351,164	-0,342	-0,481
24,663	104,348	-0,379	-0,315
25,677	44,685	-0,478	-0,310
26,692	118,947	-0,242	-0,212
27,707	595,162	-0,215	-0,377
28,721	-50,320	-0,542	-0,180
29,736	44,129	-0,388	-0,251
30,750	159,827	-0,461	-0,454
31,765	29,243	-0,331	-0,198
32,780	95,578	-0,332	-0,267
33,794	-8,482	-0,409	-0,193
34,809	369,837	-0,292	-0,420
35,823	40,763	-0,353	-0,225
36,838	90,123	-0,344	-0,271
37,853	201,180	-0,338	-0,369
38,867	388,443	-0,301	-0,442
39,882	64,428	-0,337	-0,240
40,896	75,554	-0,327	-0,244
41,911	-69,340	-0,281	-0,076
42,926	52,232	-0,383	-0,258
43,940	179,201	-0,304	-0,314
44,955	163,431	-0,355	-0,352
45,969	37,462	-0,396	-0,248
46,984	200,992	-0,222	-0,241
47,999	65,542	-0,243	-0,174
49,013	116,377	-0,386	-0,334
50,028	68,038	-0,328	-0,236
51,042	125,950	-0,265	-0,237
52,057	93,758	-0,434	-0,347
53,071	40,296	-0,360	-0,228
54,086	-7,667	-0,317	-0,151
55,101	-34,223	-0,320	-0,123
56,115	76,768	-0,272	-0,203
57,130	-41,783	-0,447	-0,161
58,144	-4,896	-0,340	-0,165
59,159	151,634	-0,414	-0,398
60,174	35,618	-0,364	-0,225
61,188	-30,885	-0,395	-0,157
62,203	-42,632	-0,472	-0,169
63,217	6,856	-0,300	-0,157
64,232	32,118	-0,325	-0,197
65,247	103,036	-0,276	-0,228
66,261	93,383	-0,379	-0,302
67,276	88,828	-0,251	-0,196
68,290	64,255	-0,285	-0,202
69,305	146,448	-0,283	-0,268
70,320	136,083	-0,332	-0,305
71,334	-37,219	-0,379	-0,142
72,349	30,684	-0,332	-0,200
73,363	82,088	-0,280	-0,213
74,378	124,804	-0,334	-0,296
75,393	62,403	-0,341	-0,239
76,407	162,255	-0,231	-0,228
77,422	35,417	-0,369	-0,228
78,436	39,666	-0,222	-0,140
79,451	187,506	-0,214	-0,225
80,466	16,443	-0,234	-0,130
81,480	26,039	-0,370	-0,217
82,495	65,525	-0,298	-0,212
83,509	102,495	-0,354	-0,292
84,524	-23,771	-0,245	-0,103
85,539	120,910	-0,236	-0,207
86,553	-52,409	-0,353	-0,114
87,568	-4,442	-0,330	-0,160
88,582	800,000	-0,124	-0,266
89,597	-16,856	-0,253	-0,112
90,611	17,563	-0,285	-0,159
91,626	115,654	-0,308	-0,265
92,641	270,210	-0,185	-0,229
93,655	18,380	-0,237	-0,133
94,670	35,699	-0,342	-0,211
95,684	104,171	-0,287	-0,237
96,699	96,182	-0,282	-0,226
97,714	99,475	-0,225	-0,183
98,728	73,357	-0,241	-0,177
99,743	-62,060	-0,348	-0,101
100,757	-67,646	-0,290	-0,079
101,772	601,272	-0,124	-0,218
102,787	92,211	-0,365	-0,289
103,801	202,474	-0,255	-0,277
104,816	-24,403	-0,249	-0,104
105,830	218,121	-0,169	-0,190
106,845	251,497	-0,202	-0,242
107,860	166,088	-0,274	-0,273
108,874	112,854	-0,158	-0,134
109,889	96,611	-0,329	-0,265
110,903	510,118	-0,170	-0,279
111,918	-14,859	-0,432	-0,194
112,933	-29,791	-0,342	-0,136
113,947	197,664	-0,222	-0,238
114,962	82,494	-0,210	-0,160
115,976	59,407	-0,232	-0,160
116,991	114,036	-0,269	-0,230
118,006	800,000	-0,118	-0,252
119,020	227,950	-0,279	-0,320
120,035	-75,943	-0,340	-0,084
121,049	-77,346	-0,244	-0,059
122,064	57,309	-0,265	-0,181
123,079	800,000	-0,116	-0,257
124,093	-56,280	-0,380	-0,118
125,108	667,603	-0,218	-0,397
126,122	19,013	-0,312	-0,175
127,137	263,128	-0,225	-0,275
128,151	10,535	-0,268	-0,143
129,166	30,301	-0,299	-0,178
130,181	-20,278	-0,248	-0,107
131,195	703,186	-0,136	-0,252
132,210	103,692	-0,287	-0,236
133,224	-6,186	-0,220	-0,105
134,239	12,412	-0,137	-0,074
135,254	-6,058	-0,288	-0,138
136,268	275,764	-0,274	-0,341
137,283	128,163	-0,182	-0,162
138,297	356,924	-0,215	-0,300
139,312	800,000	-0,134	-0,312
140,327	177,522	-0,214	-0,219
141,341	-17,242	-0,176	-0,077
142,356	46,300	-0,185	-0,120
143,370	95,520	-0,213	-0,170
144,385	151,510	-0,202	-0,192
145,400	68,390	-0,194	-0,139
146,414	142,266	-0,211	-0,196
147,429	112,019	-0,266	-0,225
148,443	52,838	-0,226	-0,151
149,458	-42,878	-0,158	-0,056
150,473	-108,300	-0,294	-0,044
151,487	53,487	-0,178	-0,119
152,502	115,278	-0,215	-0,184
153,516	199,755	-0,217	-0,233
154,531	64,126	-0,213	-0,150
155,546	198,802	-0,215	-0,230
156,560	298,623	-0,106	-0,137
157,575	-18,955	-0,325	-0,141
158,589	212,941	-0,270	-0,298
159,604	-45,913	-0,364	-0,125
160,619	-47,990	-0,345	-0,116
161,633	152,871	-0,265	-0,253
162,648	44,595	-0,325	-0,208
163,662	60,865	-0,111	-0,077
164,677	-162,993	-0,154	0,005
165,692	76,707	-0,270	-0,200
166,706	-36,746	-0,185	-0,069
167,721	286,137	-0,231	-0,292
168,735	-200,000	-0,080	-0,285
169,750	45,738	-0,208	-0,134
170,764	-38,424	-0,283	-0,104
171,779	-99,001	-0,211	-0,037
172,794	-38,851	-0,336	-0,123
173,808	33,327	-0,275	-0,166
174,823	224,625	-0,243	-0,275
175,837	122,168	-0,148	-0,129
176,852	45,056	-0,234	-0,150
177,867	268,540	-0,189	-0,232
178,881	99,950	-0,198	-0,160
179,896	413,182	-0,172	-0,256
180,910	774,746	-0,106	-0,203
181,925	1,246	-0,331	-0,165
182,940	-36,631	-0,372	-0,139
183,954	70,144	-0,216	-0,155
184,969	145,113	-0,185	-0,173
185,983	32,940	-0,254	-0,153
186,998	800,000	-0,102	-0,232
188,013	229,855	-0,186	-0,212
189,027	235,617	-0,282	-0,326
190,042	102,049	-0,266	-0,216
191,056	297,490	-0,167	-0,214
192,071	100,917	-0,143	-0,116
193,086	389,821	-0,092	-0,133
194,100	130,606	-0,175	-0,157
195,115	27,189	-0,191	-0,111
196,129	460,736	-0,163	-0,255
197,144	434,978	-0,154	-0,234
198,159	-200,000	-0,102	-0,411
199,173	-61,310	-0,252	-0,073
200,188	113,453	-0,254	-0,214
201,202	-53,421	-0,204	0,065
202,217	800,000	-0,100	-0,269
203,232	-200,000	0,023	-0,128
204,246	-81,909	-0,374	-0,085
205,261	-66,506	-0,208	-0,057
206,275	579,459	-0,136	-0,232
207,290	-62,898	-0,139	0,040
208,304	-200,000	-0,045	-0,207
209,319	200,832	-0,129	-0,138
210,334	-102,576	-0,221	-0,036
211,348	335,278	-0,177	-0,240
212,363	141,055	-0,230	-0,212
213,377	404,657	-0,164	-0,242
214,392	68,330	-0,199	-0,142
215,407	457,044	-0,107	-0,167
216,421	-119,046	-0,243	0,029
217,436	129,479	-0,185	-0,164
218,450	-64,986	-0,234	-0,065
219,465	101,899	-0,187	-0,151
220,480	176,634	-0,274	-0,278
221,494	208,253	-0,238	-0,259
222,509	90,053	-0,126	-0,098
223,523	-52,442	-0,214	-0,068
224,538	210,611	-0,204	-0,223
225,553	-49,823	-0,243	-0,080
226,567	37,217	-0,200	-0,123
227,582	29,091	-0,277	-0,163
228,596	126,418	-0,158	-0,139
229,611	276,538	-0,097	-0,120
230,626	-70,333	-0,228	-0,060
231,640	-27,379	-0,216	-0,087
232,655	31,443	-0,238	-0,142
233,669	397,516	-0,230	-0,335
234,684	-81,581	-0,210	-0,048
235,699	235,657	-0,173	-0,198
236,713	-49,104	-0,259	-0,085
237,728	6,703	-0,278	-0,143
238,742	561,751	-0,090	-0,152
239,757	-21,478	-0,210	-0,089
240,772	-2,651	-0,287	-0,139
241,786	662,703	-0,123	-0,222
242,801	365,086	-0,090	-0,127
243,815	-56,981	-0,252	-0,077
244,830	177,547	-0,137	-0,139
245,844	496,095	-0,109	-0,175
246,859	-44,930	-0,317	-0,109
247,874	79,631	-0,199	-0,148
248,888	10,882	-0,196	-0,103
249,903	95,035	-0,173	-0,136
250,917	177,444	-0,177	-0,179
251,932	6,003	-0,215	-0,110
252,947	3,947	-0,162	-0,082
253,961	-150,386	-0,184	-0,010
254,976	800,000	-0,108	-0,220
255,990	232,012	-0,195	-0,223
257,005	800,000	-0,041	-0,112
258,020	94,761	-0,145	-0,114
259,034	-99,036	-0,268	-0,047
260,049	28,015	-0,246	-0,144
261,063	137,905	-0,222	-0,201
262,078	-21,988	-0,250	-0,105
263,093	310,176	-0,098	-0,128
264,107	33,569	-0,226	-0,136
265,122	-200,000	-0,059	-0,225
266,136	515,555	-0,117	-0,189
267,151	800,000	-0,034	-0,092
268,166	88,422	-0,231	-0,177
269,180	-200,000	-0,043	-0,201
270,195	-118,792	-0,234	-0,028
271,209	-135,150	-0,260	-0,021
272,224	230,609	-0,129	-0,147
273,239	18,990	-0,218	-0,121
274,253	-138,478	-0,165	-0,012
275,268	421,025	-0,149	-0,223
276,282	-2,137	-0,147	-0,071
277,297	6,665	-0,231	-0,118
278,312	-18,228	-0,168	-0,073
279,326	81,690	-0,185	-0,139
280,341	359,994	-0,159	-0,221
281,355	688,257	-0,039	-0,071
282,370	301,241	-0,116	-0,149
283,384	187,363	-0,218	-0,225
284,399	145,794	-0,182	-0,169
285,414	-200,000	-0,034	-0,192
286,428	769,615	-0,076	-0,144
287,443	532,539	-0,055	-0,090
288,457	70,699	-0,101	-0,072
289,472	123,580	-0,108	-0,094
290,487	-54,443	-0,269	-0,084
291,501	332,119	-0,175	-0,234
292,516	-14,260	-0,118	-0,052
293,530	800,000	-0,030	-0,084
294,545	449,115	-0,043	-0,066
295,560	-61,669	-0,153	0,044
296,574	-51,839	-0,032	0,010
297,589	-31,511	-0,233	-0,090
298,603	3,945	-0,173	-0,087
299,618	449,487	-0,174	-0,266
300,633	202,954	-0,059	-0,063
301,647	52,121	-0,102	-0,067
302,662	800,000	-0,043	-0,105
303,676	800,000	-0,075	-0,191
304,691	-100,045	-0,119	-0,020
305,706	483,434	-0,147	-0,232
306,720	249,357	-0,185	-0,217
307,735	242,900	-0,137	-0,158
308,749	-31,633	-0,158	-0,061
309,764	16,734	-0,120	-0,065
310,779	-102,737	-0,148	-0,024
311,793	-94,052	-0,172	0,032
312,808	118,892	-0,171	-0,145
313,822	96,889	-0,130	-0,102
314,837	-107,982	-0,112	0,017
315,852	800,000	-0,053	-0,148
316,866	45,334	-0,090	-0,057
317,881	-121,768	-0,161	0,018
318,895	-151,112	-0,143	-0,007
319,910	-200,000	-0,048	-0,152
320,925	800,000	-0,132	-0,253
321,939	-107,064	-0,134	-0,020
322,954	800,000	-0,056	-0,110
323,968	-133,140	-0,068	0,006
324,983	170,480	-0,117	-0,116
325,997	800,000	-0,095	-0,187
327,012	15,113	-0,145	-0,078
328,027	17,879	-0,194	-0,106
329,041	-141,277	-0,128	-0,009
330,056	-14,577	-0,218	-0,096
331,070	-55,977	-0,120	0,037
332,085	-102,692	0,039	0,006
333,100	438,736	-0,170	-0,256
334,114	210,824	-0,151	-0,163
335,129	64,428	-0,242	-0,167
336,143	234,909	-0,137	-0,155
337,158	-200,000	-0,013	-0,083
338,173	41,952	-0,118	-0,074
339,187	105,723	-0,207	-0,169
340,202	274,993	-0,159	-0,194
341,216	-200,000	-0,027	-0,198
342,231	202,238	-0,179	-0,191
343,246	-95,267	-0,194	-0,036
344,260	-112,180	-0,157	0,021
345,275	31,342	-0,117	-0,069
346,289	4,668	-0,061	-0,031
347,304	15,203	-0,154	-0,083
348,319	38,591	-0,125	-0,077
349,333	239,189	-0,104	-0,119
350,348	-98,222	-0,089	-0,016
351,362	-166,891	-0,084	0,002
352,377	177,293	-0,069	-0,069
353,392	-46,306	-0,083	-0,028
354,406	-24,523	-0,140	0,057
355,421	209,953	1313,927	1418,572
356,435	161,607	1474,604	1419,102
