DTS Sentinel unit serial number:	SN410029Multiplexer serial number:	ORYXHardware model number:	OX2-SRSoftware version number:	ORYX F/W v4,00 Oryx Data Collector v3.7.2.0data status	okinstallation	B3 Nyhavnadifferential loss correction	single-endedforward channel	channel 1reverse channel	N/Adate	2023/12/05time	07:42:30forward acquisition time	300,00reverse acquisition time	0,00gamma	499,1914k internal	0,3200k external	0,3200temperature offset calibration	1,0000default loss term (dB/km)	0,3820temperature slope calibration	1,0000multiplexer offset coefficient	1,0000multiplexer slope coefficient	1,0000fibre end	0,00T internal ref (°C)	13,73T ext. ref 1 (°C)	-1,57T ext. ref 2 (°C)	-1,60length (m)	temperature (°C)	Stokes	anti-Stokes-744,400	-200,000	-0,031	-0,273
-743,385	-200,000	0,060	0,243
-742,371	-0,090	-0,230	-0,119
-741,356	-200,000	0,112	0,379
-740,342	119,539	-0,261	-0,235
-739,327	-200,000	-0,023	0,233
-738,312	468,729	-0,180	-0,295
-737,298	333,003	-0,059	0,083
-736,283	564,989	-0,142	-0,252
-735,269	-200,000	0,049	0,269
-734,254	629,086	-0,147	-0,271
-733,239	13,968	-0,212	0,119
-732,225	-200,000	0,015	-0,208
-731,210	-121,001	0,111	-0,013
-730,196	157,797	-0,114	-0,115
-729,181	-27,225	-0,015	-0,006
-728,167	536,547	-0,036	-0,063
-727,152	800,000	0,045	-0,106
-726,137	-31,318	0,064	-0,026
-725,123	132,470	-0,059	0,055
-724,108	102,049	-0,089	-0,075
-723,094	167,020	-0,117	-0,120
-722,079	-200,000	-0,024	-0,095
-721,064	-37,590	-0,086	-0,033
-720,050	-54,876	-0,017	0,006
-719,035	-200,000	-0,015	-0,078
-718,021	42,209	-0,117	0,077
-717,006	726,136	-0,031	-0,060
-715,991	421,060	-0,042	-0,066
-714,977	67,028	-0,038	-0,028
-713,962	5,053	0,056	0,030
-712,948	-85,741	-0,142	-0,032
-711,933	160,161	-0,114	-0,116
-710,918	-200,000	0,050	0,188
-709,904	466,062	-0,015	-0,025
-708,889	-200,000	-0,015	-0,079
-707,875	264,785	0,026	-0,033
-706,860	-7,218	0,027	-0,013
-705,845	152,916	0,128	-0,127
-704,831	686,271	0,037	0,071
-703,816	-200,000	-0,011	-0,108
-702,802	-111,017	0,053	0,008
-701,787	-100,089	-0,046	0,008
-700,772	-0,362	0,064	0,033
-699,758	-114,698	-0,094	-0,013
-698,743	207,182	0,069	0,078
-697,729	274,009	0,068	0,088
-696,714	-200,000	0,003	0,095
-695,699	800,000	0,000	0,001
-694,685	-44,645	-0,103	-0,037
-693,670	87,867	-0,051	0,041
-692,656	255,577	-0,099	-0,123
-691,641	-101,748	-0,030	-0,005
-690,627	-21,131	0,057	0,025
-689,612	-200,000	-0,013	0,114
-688,597	-200,000	0,012	0,082
-687,583	496,416	-0,027	-0,046
-686,568	-200,000	-0,012	0,042
-685,554	166,934	0,083	-0,086
-684,539	-200,000	0,011	0,036
-683,524	31,531	-0,082	0,051
-682,510	145,898	-0,082	0,080
-681,495	147,162	-0,020	-0,020
-680,481	48,393	0,118	0,080
-679,466	-62,843	-0,059	0,018
-678,451	-200,000	-0,007	-0,125
-677,437	455,574	0,017	-0,027
-676,422	8,051	0,066	0,036
-675,408	-16,157	0,112	-0,051
-674,393	-67,302	-0,093	0,026
-673,378	575,376	0,070	-0,124
-672,364	-200,000	0,022	-0,163
-671,349	-55,616	-0,095	-0,031
-670,335	78,184	0,088	0,068
-669,320	-44,772	-0,085	-0,031
-668,305	800,000	0,021	0,066
-667,291	786,951	0,014	-0,028
-666,276	-110,312	0,105	0,016
-665,262	-23,870	-0,053	0,023
-664,247	-155,519	-0,138	-0,006
-663,232	-200,000	0,017	-0,076
-662,218	35,070	-0,051	0,032
-661,203	-200,000	0,012	-0,058
-660,189	31,663	-0,037	-0,023
-659,174	518,021	-0,079	-0,134
-658,159	117,729	-0,058	-0,052
-657,145	-28,901	-0,117	-0,048
-656,130	-105,364	0,024	-0,004
-655,116	20,629	0,033	-0,020
-654,101	10,574	0,164	0,090
-653,086	88,590	-0,054	0,044
-652,072	107,180	0,062	-0,053
-651,057	-58,796	-0,063	0,020
-650,043	-103,176	-0,101	0,017
-649,028	-62,715	0,102	-0,030
-648,014	11,240	-0,039	0,022
-646,999	-200,000	0,009	0,072
-645,984	-200,000	0,005	-0,039
-644,970	-200,000	-0,004	0,021
-643,955	231,438	-0,044	0,052
-642,941	-200,000	-0,012	-0,080
-641,926	-200,000	0,009	-0,077
-640,911	-47,517	-0,230	0,080
-639,897	155,894	0,072	0,072
-638,882	111,658	-0,028	-0,024
-637,868	402,848	0,085	0,131
-636,853	-200,000	-0,025	-0,110
-635,838	-41,459	-0,198	0,073
-634,824	-200,000	0,004	-0,103
-633,809	-42,314	-0,023	-0,009
-632,795	45,070	0,022	0,015
-631,780	-103,235	0,121	0,021
-630,765	-200,000	-0,014	-0,056
-629,751	800,000	-0,018	-0,051
-628,736	-200,000	-0,028	-0,183
-627,722	-161,571	-0,159	-0,006
-626,707	-200,000	0,017	-0,120
-625,692	-170,488	0,103	-0,003
-624,678	84,206	0,071	-0,056
-623,663	130,200	-0,025	-0,023
-622,649	194,604	-0,130	0,143
-621,634	84,563	0,056	0,045
-620,619	-197,078	-0,052	0,000
-619,605	318,716	0,043	-0,058
-618,590	99,801	0,044	-0,037
-617,576	-125,617	-0,113	-0,012
-616,561	220,823	-0,075	0,087
-615,546	107,517	0,058	-0,050
-614,532	-200,000	-0,002	0,054
-613,517	-20,246	0,093	0,042
-612,503	800,000	-0,040	-0,110
-611,488	800,000	-0,058	-0,123
-610,474	232,589	0,042	-0,050
-609,459	-200,000	0,005	-0,083
-608,444	249,827	-0,059	0,072
-607,430	-110,530	-0,021	0,003
-606,415	800,000	-0,044	-0,138
-605,401	-200,000	-0,024	0,115
-604,386	-53,741	-0,063	-0,021
-603,371	-200,000	-0,004	-0,101
-602,357	-200,000	-0,030	0,127
-601,342	85,257	-0,034	-0,027
-600,328	800,000	0,049	-0,153
-599,313	500,245	0,015	0,025
-598,298	-200,000	-0,003	-0,079
-597,284	-87,908	0,010	-0,002
-596,269	-200,000	0,017	-0,074
-595,255	-200,000	0,023	0,105
-594,240	-200,000	-0,005	0,055
-593,225	-139,005	-0,094	-0,007
-592,211	140,914	-0,037	0,035
-591,196	800,000	0,035	-0,105
-590,182	-165,277	0,024	-0,001
-589,167	83,210	-0,077	0,061
-588,152	-200,000	0,002	0,039
-587,138	474,781	0,087	0,143
-586,123	729,809	-0,030	-0,058
-585,109	-200,000	-0,013	-0,075
-584,094	800,000	0,036	0,073
-583,079	-103,861	-0,149	0,025
-582,065	-200,000	0,012	0,104
-581,050	-200,000	-0,040	-0,139
-580,036	-111,589	0,043	-0,006
-579,021	-39,802	-0,139	0,052
-578,006	-200,000	-0,011	0,069
-576,992	-36,405	0,051	-0,020
-575,977	-133,124	0,067	-0,006
-574,963	19,281	0,066	-0,038
-573,948	-30,143	-0,116	0,047
-572,934	-117,884	0,081	-0,010
-571,919	-200,000	-0,003	0,129
-570,904	-200,000	-0,044	-0,192
-569,890	-200,000	-0,017	0,071
-568,875	800,000	0,035	0,079
-567,861	92,203	0,089	-0,072
-566,846	-31,411	0,086	-0,035
-565,831	800,000	0,013	-0,029
-564,817	-0,196	0,041	-0,021
-563,802	109,092	-0,128	-0,111
-562,788	4,153	-0,110	0,058
-561,773	225,034	0,071	-0,083
-560,758	711,010	0,049	-0,094
-559,744	105,573	0,107	0,091
-558,729	169,994	-0,049	-0,050
-557,715	-200,000	-0,045	-0,166
-556,700	-42,076	-0,037	-0,014
-555,685	800,000	-0,017	0,053
-554,671	-71,894	-0,016	-0,004
-553,656	424,914	-0,043	0,068
-552,642	-200,000	0,013	0,054
-551,627	76,476	-0,049	-0,038
-550,612	-24,417	0,087	0,037
-549,598	-200,000	-0,021	-0,068
-548,583	131,017	-0,023	-0,022
-547,569	210,737	0,060	-0,068
-546,554	30,288	0,076	-0,047
-545,539	800,000	0,034	-0,107
-544,525	-200,000	-0,013	0,074
-543,510	-200,000	0,015	0,150
-542,496	800,000	-0,017	0,047
-541,481	-200,000	-0,029	-0,116
-540,466	800,000	0,077	-0,161
-539,452	800,000	0,006	0,013
-538,437	-40,045	-0,100	0,037
-537,423	-200,000	-0,006	-0,034
-536,408	-74,153	0,106	-0,027
-535,393	-196,579	-0,073	0,000
-534,379	279,925	0,073	-0,094
-533,364	108,217	0,054	-0,047
-532,350	29,716	-0,120	0,074
-531,335	800,000	-0,012	0,026
-530,321	800,000	-0,062	0,131
-529,306	800,000	-0,024	-0,066
-528,291	800,000	-0,035	0,107
-527,277	-200,000	0,005	0,018
-526,262	15,592	-0,087	-0,049
-525,248	-35,668	0,098	0,038
-524,233	252,411	-0,073	0,090
-523,218	-142,836	-0,041	0,003
-522,204	-65,195	-0,037	0,011
-521,189	-196,349	0,018	0,000
-520,175	-38,061	-0,122	-0,046
-519,160	11,677	-0,086	0,047
-518,145	800,000	0,022	0,052
-517,131	159,054	0,110	0,110
-516,116	282,972	0,011	0,014
-515,102	60,316	-0,017	-0,012
-514,087	800,000	-0,011	0,025
-513,072	800,000	0,051	-0,132
-512,058	485,476	0,062	-0,102
-511,043	800,000	-0,025	-0,061
-510,029	-200,000	-0,025	0,087
-509,014	651,784	-0,040	0,074
-507,999	90,036	-0,065	-0,053
-506,985	60,444	0,050	-0,035
-505,970	-120,129	-0,108	-0,013
-504,956	-0,136	0,093	0,047
-503,941	-200,000	-0,023	0,117
-502,926	-200,000	-0,000	0,029
-501,912	-140,490	-0,128	0,009
-500,897	114,087	0,047	-0,042
-499,883	140,567	0,120	0,114
-498,868	-200,000	-0,001	0,065
-497,853	-200,000	0,005	0,028
-496,839	-55,173	0,049	0,016
-495,824	-200,000	-0,010	0,037
-494,810	612,458	-0,022	-0,041
-493,795	-124,022	0,016	0,002
-492,781	9,146	0,108	-0,059
-491,766	-200,000	-0,048	-0,169
-490,751	104,058	-0,107	0,091
-489,737	-200,000	0,022	-0,088
-488,722	-19,941	0,180	0,080
-487,708	800,000	-0,030	0,090
-486,693	-200,000	0,004	0,064
-485,678	-200,000	0,021	-0,077
-484,664	174,382	-0,078	-0,082
-483,649	-200,000	0,019	-0,068
-482,635	-87,128	-0,150	-0,033
-481,620	-159,813	0,187	0,007
-480,605	-13,530	0,130	0,060
-479,591	354,216	0,031	0,044
-478,576	-68,519	-0,131	-0,036
-477,562	-200,000	0,005	-0,149
-476,547	19,593	-0,100	-0,058
-475,532	800,000	-0,034	-0,086
-474,518	123,512	-0,028	-0,025
-473,503	-173,618	-0,156	0,003
-472,489	800,000	-0,018	-0,055
-471,474	43,097	0,037	0,024
-470,459	332,416	-0,073	0,101
-469,445	-56,860	-0,125	0,040
-468,430	65,049	-0,061	0,044
-467,416	-157,484	0,100	0,004
-466,401	41,378	-0,126	0,082
-465,386	-200,000	0,017	0,074
-464,372	-39,761	0,043	-0,016
-463,357	-200,000	0,003	-0,136
-462,343	-112,870	-0,065	-0,009
-461,328	-97,489	-0,011	-0,002
-460,313	115,896	-0,093	0,082
-459,299	800,000	0,058	0,148
-458,284	-200,000	-0,006	0,041
-457,270	-200,000	-0,005	0,026
-456,255	800,000	0,055	-0,111
-455,241	-200,000	-0,045	-0,169
-454,226	67,919	0,107	-0,079
-453,211	-181,536	0,082	0,001
-452,197	30,127	0,030	-0,018
-451,182	594,822	-0,063	0,113
-450,168	404,109	-0,063	0,096
-449,153	-200,000	0,020	-0,067
-448,138	-53,086	0,040	0,013
-447,124	30,507	-0,067	-0,041
-446,109	-34,655	0,086	-0,034
-445,095	90,874	0,034	0,027
-444,080	-165,360	-0,074	0,002
-443,065	800,000	-0,048	0,102
-442,051	138,632	-0,064	0,061
-441,036	-4,759	-0,060	0,030
-440,022	-42,847	-0,058	-0,021
-439,007	683,552	-0,096	-0,180
-437,992	81,424	-0,086	0,067
-436,978	425,501	0,101	0,157
-435,963	-54,582	-0,060	0,019
-434,949	725,381	-0,022	0,042
-433,934	551,834	-0,064	-0,112
-432,919	185,779	0,132	-0,141
-431,905	69,317	0,064	-0,047
-430,890	219,162	-0,082	-0,095
-429,876	349,523	0,068	-0,097
-428,861	-200,000	0,036	0,201
-427,846	800,000	-0,015	-0,040
-426,832	287,919	-0,085	0,111
-425,817	796,137	0,036	0,072
-424,803	-109,420	0,141	0,021
-423,788	291,575	0,041	0,054
-422,773	-63,479	0,227	0,066
-421,759	146,664	0,044	0,042
-420,744	-161,037	0,051	-0,002
-419,730	525,714	-0,086	-0,145
-418,715	553,583	0,037	-0,065
-417,701	800,000	0,050	-0,127
-416,686	-200,000	-0,004	-0,197
-415,671	-113,409	-0,042	-0,006
-414,657	-149,581	0,150	-0,008
-413,642	33,219	-0,150	0,093
-412,628	-25,238	-0,131	0,055
-411,613	800,000	-0,040	-0,118
-410,598	-200,000	0,014	0,055
-409,584	-97,043	0,129	0,024
-408,569	-200,000	0,013	0,080
-407,555	-159,209	0,244	-0,010
-406,540	-71,351	-0,162	-0,043
-405,525	1,898	-0,108	-0,056
-404,511	218,231	-0,113	-0,130
-403,496	800,000	-0,019	0,041
-402,482	-9,433	0,053	0,025
-401,467	665,073	0,022	0,040
-400,452	-200,000	-0,001	0,181
-399,438	-200,000	0,017	0,148
-398,423	-36,526	-0,073	0,028
-397,409	-1,243	-0,164	-0,083
-396,394	196,446	0,157	-0,172
-395,379	-166,746	0,105	0,003
-394,365	5,894	-0,019	0,010
-393,350	-82,025	-0,115	0,027
-392,336	506,962	0,021	0,036
-391,321	35,279	0,036	-0,022
-390,306	800,000	-0,058	-0,121
-389,292	-158,161	0,090	0,004
-388,277	-11,618	0,135	0,064
-387,263	582,502	-0,017	0,030
-386,248	5,030	0,132	0,070
-385,233	-47,549	0,119	0,041
-384,219	610,868	0,028	-0,051
-383,204	421,450	0,032	0,049
-382,190	-61,229	-0,133	-0,040
-381,175	-24,448	0,100	0,042
-380,160	307,734	-0,036	-0,048
-379,146	-44,111	-0,064	-0,023
-378,131	-4,630	0,090	0,045
-377,117	-12,985	-0,047	0,022
-376,102	800,000	-0,042	-0,131
-375,088	234,868	-0,082	-0,097
-374,073	571,554	0,122	-0,214
-373,058	75,473	-0,060	-0,045
-372,044	-200,000	-0,001	-0,032
-371,029	48,455	0,080	-0,054
-370,015	163,928	-0,043	0,044
-369,000	-200,000	0,056	-0,182
-367,985	-34,975	-0,140	-0,054
-366,971	-200,000	-0,017	0,139
-365,956	-200,000	0,030	0,112
-364,942	800,000	-0,024	0,068
-363,927	800,000	0,030	0,087
-362,912	800,000	0,045	0,129
-361,898	800,000	-0,047	-0,123
-360,883	21,079	0,089	-0,051
-359,869	-99,253	0,146	-0,026
-358,854	800,000	-0,014	0,033
-357,839	-200,000	0,008	0,072
-356,825	99,724	0,013	-0,011
-355,810	3,537	0,130	0,068
-354,796	800,000	0,041	-0,111
-353,781	25,617	-0,145	-0,086
-352,766	-156,325	-0,078	-0,003
-351,752	394,049	-0,056	0,084
-350,737	-200,000	0,001	-0,040
-349,723	-20,008	0,095	-0,042
-348,708	-66,196	-0,117	-0,033
-347,693	4,310	-0,043	0,023
-346,679	3,530	-0,103	0,053
-345,664	800,000	0,083	0,175
-344,650	72,621	0,047	0,035
-343,635	800,000	-0,031	0,084
-342,620	345,383	-0,055	0,078
-341,606	800,000	0,055	0,144
-340,591	800,000	0,001	0,003
-339,577	-101,464	-0,123	0,021
-338,562	800,000	-0,027	0,070
-337,548	-200,000	-0,004	0,015
-336,533	115,197	0,160	0,140
-335,518	-148,633	-0,102	0,006
-334,504	-57,067	-0,179	0,056
-333,489	-20,609	-0,111	-0,048
-332,475	-200,000	-0,030	-0,125
-331,460	-200,000	-0,006	0,040
-330,445	487,550	-0,081	-0,133
-329,431	800,000	0,043	-0,093
-328,416	-94,982	-0,032	0,006
-327,402	800,000	0,033	0,079
-326,387	222,620	0,115	-0,133
-325,372	800,000	-0,016	-0,047
-324,358	-200,000	0,006	-0,229
-323,343	188,299	-0,053	0,057
-322,329	28,977	-0,077	-0,047
-321,314	-199,999	0,170	0,001
-320,299	458,053	-0,061	0,097
-319,285	-183,874	0,068	0,001
-318,270	646,537	0,028	0,052
-317,256	421,095	0,064	-0,099
-316,241	-200,000	0,000	-0,080
-315,226	-200,000	0,007	0,074
-314,212	-76,073	0,070	-0,017
-313,197	-200,000	0,037	0,154
-312,183	-200,000	0,002	0,018
-311,168	353,348	0,053	-0,076
-310,153	-2,234	-0,047	0,023
-309,139	5,222	-0,144	0,076
-308,124	426,190	0,103	0,160
-307,110	800,000	0,005	-0,014
-306,095	0,517	-0,114	0,058
-305,080	206,254	0,055	-0,062
-304,066	-200,000	0,002	0,070
-303,051	546,194	-0,010	0,017
-302,037	149,041	0,073	0,071
-301,022	-200,000	-0,013	-0,040
-300,008	230,095	0,092	-0,107
-298,993	174,528	0,051	0,053
-297,978	-124,761	-0,065	0,007
-296,964	800,000	-0,054	-0,130
-295,949	36,902	0,068	0,043
-294,935	-200,000	-0,005	0,078
-293,920	-60,229	0,073	-0,022
-292,905	-200,000	0,028	0,128
-291,891	800,000	0,080	0,212
-290,876	190,302	-0,080	-0,086
-289,862	426,868	0,047	-0,073
-288,847	280,069	0,117	-0,150
-287,832	-15,920	-0,182	-0,082
-286,818	113,658	-0,086	-0,074
-285,803	-200,000	-0,005	0,073
-284,789	170,773	0,077	-0,079
-283,774	800,000	0,021	0,062
-282,759	186,590	-0,065	-0,069
-281,745	544,318	0,043	-0,074
-280,730	661,974	-0,029	0,053
-279,716	436,321	-0,060	0,094
-278,701	-200,000	-0,001	0,081
-277,686	110,193	0,091	0,078
-276,672	800,000	-0,063	0,144
-275,657	127,864	-0,032	-0,029
-274,643	-200,000	0,011	-0,125
-273,628	108,678	-0,139	-0,119
-272,613	209,479	-0,138	-0,155
-271,599	800,000	-0,027	0,086
-270,584	88,970	0,031	0,025
-269,570	-24,068	0,149	0,064
-268,555	-84,629	-0,084	0,019
-267,540	-200,000	0,025	0,123
-266,526	-200,000	-0,012	0,100
-265,511	-200,000	0,002	-0,102
-264,497	800,000	0,016	0,048
-263,482	9,808	0,119	0,064
-262,467	16,855	-0,109	-0,062
-261,453	474,104	-0,036	-0,058
-260,438	-200,000	-0,018	0,078
-259,424	19,331	0,055	-0,032
-258,409	-13,746	-0,094	0,043
-257,395	-93,617	-0,058	0,011
-256,380	-23,056	0,162	-0,069
-255,365	248,960	-0,042	0,051
-254,351	-2,053	-0,039	-0,019
-253,336	27,583	-0,040	0,024
-252,322	38,442	0,068	-0,043
-251,307	125,844	-0,036	-0,032
-250,292	673,561	0,043	-0,080
-249,278	-83,773	0,137	-0,031
-248,263	301,523	-0,097	0,128
-247,249	-200,000	0,003	0,059
-246,234	-200,000	-0,018	-0,095
-245,219	32,683	0,116	-0,071
-244,205	-200,000	-0,019	-0,069
-243,190	22,598	0,087	0,051
-242,176	-200,000	0,004	-0,035
-241,161	-43,473	0,176	0,063
-240,146	-200,000	-0,003	-0,012
-239,132	-82,002	-0,071	0,016
-238,117	117,382	-0,062	0,055
-237,103	-54,302	0,120	0,039
-236,088	43,118	-0,129	-0,084
-235,073	800,000	-0,028	0,057
-234,059	-191,535	-0,053	0,000
-233,044	126,314	0,055	0,050
-232,030	800,000	0,023	-0,071
-231,015	-114,288	-0,152	0,021
-230,000	273,059	0,062	-0,078
-228,986	-200,000	-0,006	-0,077
-227,971	-1,790	0,025	0,013
-226,957	-200,000	0,005	0,104
-225,942	-200,000	-0,022	0,137
-224,927	-200,000	0,000	-0,033
-223,913	136,991	0,070	-0,065
-222,898	-140,517	0,118	-0,009
-221,884	-88,735	0,103	-0,022
-220,869	-200,000	-0,002	0,064
-219,855	172,848	0,073	0,075
-218,840	-100,800	-0,040	-0,007
-217,825	410,456	-0,051	-0,077
-216,811	333,021	0,062	-0,086
-215,796	-200,000	0,003	0,091
-214,782	83,567	0,127	-0,099
-213,767	-180,788	0,111	-0,002
-212,752	800,000	-0,037	-0,087
-211,738	628,405	0,056	-0,101
-210,723	148,333	0,026	-0,025
-209,709	31,036	-0,043	-0,026
-208,694	800,000	-0,060	-0,144
-207,679	112,386	0,153	-0,132
-206,665	800,000	-0,019	0,042
-205,650	223,257	0,012	-0,014
-204,636	9,980	-0,062	-0,034
-203,621	230,699	0,065	0,076
-202,606	214,154	-0,047	0,053
-201,592	-53,253	-0,043	0,014
-200,577	-73,302	0,063	-0,016
-199,563	-200,000	-0,016	-0,082
-198,548	-81,742	0,210	0,049
-197,533	-200,000	0,012	0,085
-196,519	326,930	-0,029	0,039
-195,504	221,312	-0,073	0,084
-194,490	800,000	-0,045	0,097
-193,475	293,033	0,042	0,055
-192,460	-17,645	0,142	0,063
-191,446	-200,000	0,026	0,098
-190,431	-200,000	0,009	0,084
-189,417	-200,000	0,008	0,109
-188,402	228,765	-0,044	0,051
-187,387	33,373	0,033	0,021
-186,373	-200,000	-0,008	-0,043
-185,358	3,611	-0,029	0,015
-184,344	609,189	0,046	-0,082
-183,329	247,486	0,047	-0,056
-182,315	-66,506	0,025	-0,007
-181,300	210,345	-0,032	-0,036
-180,285	-200,000	0,035	0,116
-179,271	-200,000	-0,007	-0,033
-178,256	-200,000	0,029	-0,100
-177,242	-200,000	0,028	0,115
-176,227	-200,000	0,023	0,124
-175,212	-200,000	0,040	0,189
-174,198	-200,000	0,021	0,091
-173,183	-200,000	-0,011	-0,040
-172,169	-200,000	-0,010	-0,111
-171,154	-20,044	0,117	-0,051
-170,139	-37,750	0,028	-0,010
-169,125	-200,000	0,003	0,049
-168,110	337,373	0,030	-0,041
-167,096	95,402	-0,040	-0,033
-166,081	-30,146	-0,048	-0,019
-165,066	705,577	-0,049	-0,093
-164,052	455,541	0,010	-0,016
-163,037	-32,339	-0,046	0,018
-162,023	800,000	0,039	-0,079
-161,008	-33,669	0,081	0,032
-159,993	4,863	-0,107	0,056
-158,979	-117,605	0,089	-0,011
-157,964	-33,810	-0,130	0,051
-156,950	-138,681	-0,091	-0,007
-155,935	13,457	-0,090	0,049
-154,920	-200,000	0,052	0,191
-153,906	-200,000	0,016	0,078
-152,891	-200,000	0,009	-0,096
-151,877	118,536	0,032	-0,028
-150,862	-117,608	-0,185	0,023
-149,847	-52,989	0,120	-0,039
-148,833	800,000	0,013	0,028
-147,818	800,000	0,018	-0,049
-146,804	499,691	0,035	-0,058
-145,789	526,493	0,088	0,148
-144,775	201,862	-0,060	0,066
-143,760	-54,751	-0,101	-0,032
-142,745	-191,433	-0,099	0,001
-141,731	-96,606	0,039	-0,007
-140,716	-128,191	-0,068	-0,007
-139,702	-33,681	0,200	-0,078
-138,687	-27,971	-0,134	-0,055
-137,672	237,017	0,057	-0,067
-136,658	800,000	-0,023	-0,048
-135,643	520,408	-0,064	0,106
-134,629	-104,479	0,063	-0,010
-133,614	156,581	0,063	0,062
-132,599	-200,000	0,034	-0,145
-131,585	-87,491	0,094	-0,020
-130,570	169,600	-0,104	0,106
-129,556	73,417	0,067	0,050
-128,541	264,269	-0,046	-0,057
-127,526	378,110	-0,076	-0,111
-126,512	-155,306	0,156	-0,007
-125,497	46,990	0,071	-0,047
-124,483	-200,000	0,017	0,155
-123,468	-200,000	-0,001	0,126
-122,453	800,000	0,042	0,100
-121,439	90,400	-0,073	0,058
-120,424	78,090	0,040	-0,030
-119,410	-121,585	0,077	0,009
-118,395	-200,000	0,001	0,088
-117,380	684,169	0,063	0,117
-116,366	210,107	-0,035	-0,039
-115,351	-11,687	-0,049	-0,023
-114,337	88,026	-0,118	0,093
-113,322	266,287	0,073	0,091
-112,307	-200,000	0,012	0,093
-111,293	-151,687	0,034	0,002
-110,278	-73,338	-0,047	0,012
-109,264	11,516	0,118	0,064
-108,249	-200,000	0,008	-0,108
-107,234	-1,895	-0,146	0,073
-106,220	-88,486	0,027	0,006
-105,205	75,189	-0,012	-0,009
-104,191	138,327	-0,023	0,022
-103,176	-200,000	0,021	-0,205
-102,162	-72,879	0,127	-0,033
-101,147	-200,000	0,003	0,039
-100,132	60,282	-0,096	-0,067
-99,118	153,371	0,037	0,036
-98,103	-200,000	0,007	-0,057
-97,089	302,876	0,035	-0,046
-96,074	-0,458	-0,090	0,045
-95,059	-2,121	0,085	0,042
-94,045	-70,581	-0,084	0,023
-93,030	435,818	-0,029	-0,045
-92,016	460,332	0,062	-0,098
-91,001	-113,656	0,092	0,013
-89,986	160,837	-0,058	-0,058
-88,972	-200,000	-0,008	0,122
-87,957	257,562	0,048	0,059
-86,943	177,789	-0,087	0,090
-85,928	-200,000	-0,021	-0,081
-84,913	701,125	0,048	0,091
-83,899	-200,000	0,009	0,078
-82,884	83,613	0,019	-0,014
-81,870	-64,050	0,166	0,048
-80,855	356,952	-0,062	-0,088
-79,840	254,658	-0,127	0,155
-78,826	460,490	0,065	-0,104
-77,811	-200,000	0,042	-0,164
-76,797	-11,795	-0,051	-0,024
-75,782	-200,000	-0,015	0,105
-74,767	800,000	0,029	0,063
-73,753	321,553	0,099	-0,134
-72,738	82,350	-0,082	-0,063
-71,724	-59,627	-0,104	-0,031
-70,709	33,668	0,031	-0,019
-69,694	296,931	-0,024	0,031
-68,680	-200,000	-0,006	0,147
-67,665	178,607	-0,084	0,087
-66,651	-200,000	-0,008	0,069
-65,636	166,020	0,051	-0,051
-64,622	-200,000	0,018	-0,099
-63,607	-149,287	0,118	-0,007
-62,592	-200,000	0,022	-0,109
-61,578	-98,774	-0,096	-0,017
-60,563	143,898	0,062	0,059
-59,549	381,175	0,069	0,101
-58,534	-23,489	-1,586	-0,672
-57,519	384,054	-1,363	-1,994
-56,505	-200,000	-0,666	-4,539
-55,490	139,526	1,080	1,007
-54,476	800,000	4,943	11,543
-53,461	-200,000	18,958	317,402
-52,446	-200,000	740,223	2333,744
-51,432	575,375	1656,404	2875,816
-50,417	78,939	1672,134	1266,495
-49,403	21,788	1544,860	888,975
-48,388	15,636	1467,324	814,425
-47,373	17,888	1457,605	819,894
-46,359	16,806	1447,579	809,024
-45,344	13,865	1442,984	792,326
-44,330	13,779	1441,095	790,845
-43,315	13,751	1439,413	789,754
-42,300	13,793	1437,604	788,932
-41,286	13,774	1436,419	788,160
-40,271	13,726	1435,254	787,260
-39,257	13,777	1433,822	786,688
-38,242	13,843	1432,405	786,190
-37,227	13,798	1431,502	785,451
-36,213	13,805	1430,001	784,627
-35,198	13,830	1429,041	784,189
-34,184	13,884	1427,964	783,827
-33,169	13,785	1426,701	782,632
-32,154	13,864	1425,458	782,292
-31,140	13,832	1424,195	781,416
-30,125	13,866	1423,136	780,965
-29,111	13,822	1421,879	780,036
-28,096	13,867	1420,694	779,567
-27,082	13,747	1420,099	778,643
-26,067	13,787	1418,492	777,919
-25,052	13,788	1417,412	777,301
-24,038	13,715	1416,776	776,578
-23,023	13,746	1415,532	776,014
-22,009	13,720	1414,702	775,406
-20,994	13,676	1413,932	774,743
-19,979	13,692	1412,968	774,259
-18,965	13,693	1411,898	773,646
-17,950	13,657	1411,204	773,068
-16,936	13,715	1410,011	772,654
-15,921	13,656	1408,863	771,720
-14,906	13,623	1408,160	771,151
-13,892	13,716	1406,895	770,862
-12,877	13,658	1406,375	770,273
-11,863	13,700	1405,296	769,849
-10,848	13,662	1404,455	769,180
-9,833	13,631	1403,587	768,531
-8,819	13,569	1402,742	767,746
-7,804	13,630	1401,660	767,407
-6,790	13,601	1400,676	766,706
-5,775	13,548	1399,527	765,799
-4,760	13,612	1398,764	765,650
-3,746	13,555	1398,044	764,960
-2,731	13,572	1397,052	764,467
-1,717	13,523	1396,334	763,813
-0,702	13,509	1394,486	762,708
0,313	17,302	1311,287	734,807
1,327	33,402	704,788	432,214
2,342	50,849	123,645	82,767
3,356	2,968	16,634	8,523
4,371	5,258	3,134	1,630
5,386	-19,450	0,629	0,275
6,400	-200,000	0,003	0,091
7,415	28,939	-0,282	-0,169
8,429	-49,509	-0,362	-0,121
9,444	174,097	-0,246	-0,252
10,459	48,547	-0,352	-0,233
11,473	-8,307	-0,418	-0,198
12,488	-44,210	-0,358	-0,126
13,502	30,603	-0,302	-0,182
14,517	1,914	-0,385	-0,196
15,531	41,795	-0,382	-0,244
16,546	-3,580	-0,411	-0,201
17,561	7,209	-0,300	-0,158
18,575	-111,181	-0,295	-0,042
19,590	800,000	-0,096	-0,233
20,604	-104,295	-0,243	-0,039
21,619	72,565	-0,386	-0,284
22,634	12,773	-0,457	-0,249
23,648	69,284	-0,482	-0,350
24,663	-18,125	-0,455	-0,201
25,677	110,022	-0,361	-0,306
26,692	95,648	-0,313	-0,252
27,707	91,961	-0,354	-0,281
28,721	-42,835	-0,385	-0,137
29,736	108,322	-0,387	-0,326
30,750	60,733	-0,403	-0,282
31,765	89,570	-0,323	-0,254
32,780	114,595	-0,332	-0,286
33,794	44,774	-0,224	-0,145
34,809	-86,314	-0,417	-0,090
35,823	-37,482	-0,421	-0,158
36,838	121,352	-0,482	-0,424
37,853	162,203	-0,330	-0,327
38,867	74,409	-0,405	-0,300
39,882	311,414	-0,273	-0,362
40,896	25,331	-0,380	-0,222
41,911	227,486	-0,231	-0,265
42,926	8,282	-0,376	-0,199
43,940	223,699	-0,214	-0,244
44,955	77,556	-0,370	-0,278
45,969	42,106	-0,409	-0,262
46,984	124,863	-0,222	-0,197
47,999	27,155	-0,377	-0,223
49,013	-12,226	-0,393	-0,180
50,028	218,030	-0,216	-0,243
51,042	76,431	-0,344	-0,257
52,057	207,013	-0,265	-0,291
53,071	-16,608	-0,472	-0,210
54,086	245,645	-0,258	-0,306
55,101	37,358	-0,360	-0,224
56,115	41,372	-0,284	-0,181
57,130	238,224	-0,220	-0,258
58,144	41,076	-0,401	-0,254
59,159	99,886	-0,386	-0,315
60,174	167,969	-0,347	-0,348
61,188	-83,922	-0,393	-0,087
62,203	46,836	-0,384	-0,251
63,217	37,926	-0,312	-0,195
64,232	-18,875	-0,291	-0,127
65,247	72,323	-0,330	-0,242
66,261	-39,280	-0,371	-0,137
67,276	-26,447	-0,446	-0,183
68,290	-116,927	-0,395	-0,050
69,305	78,565	-0,293	-0,220
70,320	32,339	-0,231	-0,140
71,334	561,271	-0,143	-0,244
72,349	73,234	-0,347	-0,255
73,363	193,737	-0,279	-0,298
74,378	-21,931	-0,398	-0,169
75,393	32,718	-0,370	-0,224
76,407	-131,718	-0,312	-0,028
77,422	74,955	-0,327	-0,242
78,436	-69,662	-0,198	-0,053
79,451	105,078	-0,182	-0,151
80,466	36,771	-0,326	-0,202
81,480	34,837	-0,471	-0,289
82,495	-24,840	-0,340	-0,141
83,509	-48,724	-0,370	-0,124
84,524	87,277	-0,207	-0,160
85,539	-23,668	-0,377	-0,158
86,553	-83,157	-0,314	-0,070
87,568	43,540	-0,332	-0,213
88,582	-43,433	-0,266	-0,094
89,597	58,051	-0,360	-0,247
90,611	81,833	-0,211	-0,160
91,626	617,323	-0,186	-0,329
92,641	-29,337	-0,228	-0,091
93,655	-21,416	-0,344	-0,147
94,670	76,615	-0,335	-0,249
95,684	65,569	-0,168	-0,119
96,699	16,867	-0,226	-0,125
97,714	193,900	-0,204	-0,217
98,728	-90,472	-0,326	-0,066
99,743	5,173	-0,226	-0,117
100,757	35,993	-0,205	-0,127
101,772	74,882	-0,360	-0,266
102,787	168,621	-0,343	-0,343
103,801	135,086	-0,327	-0,298
104,816	174,410	-0,147	-0,149
105,830	441,292	-0,151	-0,232
106,845	-96,069	-0,201	-0,037
107,860	52,415	-0,305	-0,204
108,874	-34,828	-0,458	-0,175
109,889	110,116	-0,216	-0,182
110,903	180,590	-0,238	-0,245
111,918	62,402	-0,281	-0,196
112,933	45,716	-0,266	-0,172
113,947	-8,984	-0,212	-0,099
114,962	20,035	-0,194	-0,110
115,976	486,253	-0,158	-0,253
116,991	-76,572	-0,337	-0,082
118,006	47,177	-0,274	-0,178
119,020	80,195	-0,246	-0,185
120,035	58,383	-0,319	-0,219
121,049	49,958	-0,231	-0,153
122,064	-2,986	-0,316	-0,154
123,079	-139,914	-0,263	-0,019
124,093	17,303	-0,258	-0,143
125,108	380,046	-0,211	-0,303
126,122	107,047	-0,270	-0,224
127,137	-52,395	-0,328	-0,106
128,151	-18,453	-0,171	-0,074
129,166	159,472	-0,196	-0,191
130,181	12,930	-0,314	-0,170
131,195	60,908	-0,222	-0,154
132,210	143,712	-0,240	-0,224
133,224	246,010	-0,180	-0,213
134,239	46,982	-0,344	-0,223
135,254	268,042	-0,195	-0,239
136,268	-31,795	-0,199	-0,078
137,283	93,949	-0,238	-0,189
138,297	207,189	-0,256	-0,280
139,312	99,963	-0,173	-0,140
140,327	86,772	-0,327	-0,252
141,341	130,543	-0,189	-0,169
142,356	800,000	-0,136	-0,300
143,370	114,921	-0,252	-0,215
144,385	97,929	-0,217	-0,175
145,400	-34,096	-0,292	-0,111
146,414	434,773	-0,165	-0,251
147,429	266,816	-0,179	-0,219
148,443	193,928	-0,156	-0,165
149,458	21,772	-0,243	-0,138
150,473	110,438	-0,203	-0,170
151,487	44,686	-0,172	-0,110
152,502	59,481	-0,284	-0,195
153,516	-149,331	-0,330	0,018
154,531	-11,397	-0,268	-0,123
155,546	-142,336	-0,251	-0,017
156,560	156,722	-0,175	-0,169
157,575	149,215	-0,193	-0,182
158,589	-32,570	-0,272	-0,105
159,604	131,835	-0,242	-0,217
160,619	506,227	-0,156	-0,254
161,633	60,782	-0,217	-0,150
162,648	800,000	-0,075	-0,201
163,662	-9,004	-0,235	-0,109
164,677	211,977	-0,082	-0,090
165,692	-44,475	-0,349	-0,121
166,706	-116,029	-0,335	-0,043
167,721	133,207	-0,221	-0,199
168,735	-148,222	-0,307	-0,017
169,750	24,622	-0,313	-0,180
170,764	395,522	-0,122	-0,178
171,779	-84,642	-0,166	-0,036
172,794	226,262	-0,206	-0,233
173,808	460,095	-0,182	-0,284
174,823	71,590	-0,236	-0,171
175,837	464,578	-0,122	-0,191
176,852	25,995	-0,204	-0,119
177,867	45,134	-0,169	-0,108
178,881	48,952	-0,234	-0,153
179,896	317,764	-0,147	-0,195
180,910	141,436	-0,247	-0,228
181,925	175,281	-0,272	-0,275
182,940	633,428	-0,233	-0,413
183,954	451,692	-0,210	-0,324
184,969	101,272	-0,193	-0,157
185,983	-155,926	-0,237	0,010
186,998	19,493	-0,209	-0,117
188,013	46,788	-0,252	-0,163
189,027	6,023	-0,254	-0,131
190,042	256,771	-0,073	-0,087
191,056	260,355	-0,270	-0,326
192,071	379,005	-0,072	-0,104
193,086	349,481	-0,213	-0,294
194,100	241,347	-0,110	-0,129
195,115	71,581	-0,205	-0,148
196,129	-34,219	-0,219	-0,083
197,144	147,719	-0,134	-0,126
198,159	155,364	-0,225	-0,216
199,173	-6,078	-0,163	-0,077
200,188	-32,287	-0,321	-0,124
201,202	-75,180	-0,120	-0,030
202,217	176,507	-0,138	-0,140
203,232	436,241	-0,117	-0,178
204,246	139,961	-0,177	-0,162
205,261	517,139	-0,162	-0,264
206,275	152,078	-0,221	-0,210
207,290	396,118	-0,129	-0,188
208,304	-33,563	-0,100	0,038
209,319	-41,693	-0,224	-0,079
210,334	-63,595	-0,256	-0,072
211,348	-136,162	-0,210	-0,017
212,363	48,795	-0,143	-0,093
213,377	475,089	-0,152	-0,239
214,392	26,671	-0,242	-0,141
215,407	163,151	-0,243	-0,238
216,421	-101,557	-0,196	-0,033
217,436	-49,763	-0,176	-0,058
218,450	98,279	-0,273	-0,218
219,465	73,319	-0,241	-0,175
220,480	269,086	-0,121	-0,148
221,494	-50,291	-0,260	-0,085
222,509	-200,000	0,008	-0,133
223,523	-200,000	-0,002	-0,192
224,538	-67,437	-0,244	-0,066
225,553	59,304	-0,247	-0,169
226,567	41,412	-0,270	-0,169
227,582	197,095	-0,220	-0,233
228,596	19,070	-0,183	-0,102
229,611	146,046	-0,223	-0,208
230,626	49,930	-0,141	-0,092
231,640	-79,421	-0,111	-0,026
232,655	-61,825	-0,156	-0,045
233,669	41,374	-0,219	-0,137
234,684	45,542	-0,170	-0,109
235,699	-200,000	-0,018	-0,139
236,713	152,458	-0,118	-0,111
237,728	-76,755	-0,184	0,044
238,742	362,241	-0,173	-0,241
239,757	702,339	-0,119	-0,219
240,772	98,264	-0,201	-0,160
241,786	145,697	-0,247	-0,230
242,801	800,000	-0,048	-0,136
243,815	800,000	-0,067	-0,189
244,830	35,173	-0,152	-0,092
245,844	-65,960	-0,288	-0,079
246,859	-23,501	-0,265	-0,110
247,874	132,461	-0,241	-0,216
248,888	307,206	-0,065	-0,084
249,903	526,948	-0,072	-0,118
250,917	450,837	-0,008	-0,012
251,932	87,318	-0,110	-0,084
252,947	-93,125	-0,235	-0,045
253,961	113,502	-0,164	-0,137
254,976	572,948	-0,116	-0,196
255,990	464,931	-0,158	-0,246
257,005	349,367	-0,181	-0,249
258,020	800,000	-0,100	-0,193
259,034	299,169	-0,129	-0,164
260,049	82,607	-0,078	-0,058
261,063	-200,000	-0,025	-0,167
262,078	-75,326	-0,201	-0,049
263,093	166,695	-0,139	-0,136
264,107	110,910	-0,175	-0,146
265,122	-200,000	-0,037	-0,193
266,136	-32,425	-0,214	-0,082
267,151	-18,314	-0,193	-0,083
268,166	43,317	-0,165	-0,104
269,180	-18,354	-0,177	-0,076
270,195	-25,357	-0,163	-0,066
271,209	800,000	0,057	-0,142
272,224	167,028	-0,163	-0,160
273,239	9,244	-0,097	-0,050
274,253	24,845	-0,120	-0,069
275,268	-11,582	-0,210	-0,095
276,282	-163,578	-0,198	-0,006
277,297	23,985	-0,167	-0,095
278,312	279,814	-0,166	-0,206
279,326	595,486	-0,175	-0,300
280,341	315,840	-0,127	-0,166
281,355	100,810	-0,153	-0,122
282,370	-170,091	-0,271	0,006
283,384	88,499	-0,170	-0,130
284,399	279,059	-0,164	-0,202
285,414	219,756	-0,105	-0,116
286,428	-6,087	-0,284	-0,134
287,443	8,771	-0,147	-0,076
288,457	22,394	-0,203	-0,114
289,472	36,164	-0,231	-0,140
290,487	800,000	-0,099	-0,266
291,501	250,377	-0,105	-0,123
292,516	-6,904	-0,184	-0,086
293,530	24,797	-0,109	-0,062
294,545	102,169	-0,134	-0,108
295,560	-200,000	-0,012	-0,049
296,574	26,065	-0,155	-0,089
297,589	379,885	-0,105	-0,148
298,603	-73,535	-0,209	-0,052
299,618	101,445	-0,155	-0,124
300,633	150,494	-0,247	-0,232
301,647	56,117	-0,091	-0,061
302,662	618,407	-0,155	-0,270
303,676	800,000	-0,075	-0,186
304,691	8,479	-0,140	-0,072
305,706	-200,000	-0,045	-0,138
306,720	52,326	-0,282	-0,185
307,735	326,072	-0,144	-0,191
308,749	-200,000	-0,034	-0,159
309,764	-116,712	-0,175	-0,022
310,779	105,686	-0,109	-0,089
311,793	171,479	-0,134	-0,132
312,808	76,701	-0,298	-0,217
313,822	15,946	-0,186	-0,101
314,837	58,158	-0,218	-0,147
315,852	62,524	-0,144	-0,099
316,866	-95,496	-0,185	-0,034
317,881	-172,296	-0,092	0,002
318,895	-47,623	-0,193	-0,064
319,910	659,979	-0,118	-0,210
320,925	-27,386	-0,164	-0,066
321,939	-200,000	-0,027	-0,124
322,954	23,867	-0,043	-0,024
323,968	-75,553	-0,149	0,036
324,983	-47,546	-0,077	0,026
325,997	-12,117	-0,137	-0,061
327,012	2,807	-0,300	-0,149
328,027	175,768	-0,222	-0,222
329,041	394,540	-0,106	-0,153
330,056	636,889	-0,059	-0,103
331,070	198,540	-0,084	-0,088
332,085	-84,770	-0,188	0,040
333,100	-44,994	-0,175	-0,060
334,114	-200,000	-0,037	-0,222
335,129	386,163	-0,202	-0,288
336,143	-200,000	0,018	-0,116
337,158	619,872	-0,088	-0,153
338,173	-200,000	-0,016	0,071
339,187	186,609	-0,080	0,082
340,202	-200,000	-0,010	-0,085
341,216	128,905	-0,169	-0,148
342,231	-200,000	-0,033	-0,123
343,246	117,479	-0,185	-0,157
344,260	44,979	-0,087	-0,055
345,275	-28,542	-0,130	-0,051
346,289	-107,565	-0,071	0,011
347,304	800,000	-0,052	-0,100
348,319	-7,345	-0,203	-0,094
349,333	125,656	-0,169	-0,146
350,348	-142,396	-0,189	-0,013
351,362	296,724	-0,153	-0,194
352,377	156,026	-0,105	-0,100
353,392	425,180	-0,058	-0,087
354,406	134,045	-0,138	-0,123
355,421	209,148	1314,870	1414,807
356,435	160,956	1475,621	1415,301
