DTS Sentinel unit serial number:	SN410029Multiplexer serial number:	ORYXHardware model number:	OX2-SRSoftware version number:	ORYX F/W v4,00 Oryx Data Collector v3.7.2.0data status	okinstallation	B3 Nyhavnadifferential loss correction	single-endedforward channel	channel 1reverse channel	N/Adate	2023/11/29time	12:42:30forward acquisition time	300,00reverse acquisition time	0,00gamma	499,1914k internal	0,3212k external	0,3212temperature offset calibration	1,0000default loss term (dB/km)	0,3820temperature slope calibration	1,0000multiplexer offset coefficient	1,0000multiplexer slope coefficient	1,0000fibre end	0,00T internal ref (°C)	9,94T ext. ref 1 (°C)	-4,15T ext. ref 2 (°C)	-4,30length (m)	temperature (°C)	Stokes	anti-Stokes-744,400	435,762	-0,185	-0,293
-743,385	-200,000	0,005	0,206
-742,371	69,121	-0,210	-0,156
-741,356	-200,000	-0,011	0,402
-740,342	124,130	-0,186	-0,169
-739,327	800,000	0,106	0,265
-738,312	66,303	-0,178	-0,131
-737,298	-200,000	-0,108	0,370
-736,283	297,315	-0,063	-0,084
-735,269	-200,000	-0,066	0,421
-734,254	480,259	-0,119	-0,196
-733,239	-98,499	-0,224	0,041
-732,225	-200,000	0,000	-0,332
-731,210	-9,728	0,094	0,045
-730,196	-200,000	0,014	-0,114
-729,181	281,577	0,106	-0,137
-728,167	-86,489	0,131	-0,029
-727,152	94,366	0,083	-0,068
-726,137	-200,000	0,014	-0,054
-725,123	-200,000	-0,023	-0,100
-724,108	-21,509	-0,131	-0,058
-723,094	17,932	-0,204	-0,118
-722,079	138,351	-0,180	-0,171
-721,064	-200,000	0,028	-0,100
-720,050	-124,625	-0,112	0,012
-719,035	-50,729	0,129	-0,044
-718,021	302,413	-0,018	-0,024
-717,006	-172,480	-0,267	0,006
-715,991	-78,414	-0,072	0,018
-714,977	-200,000	-0,009	-0,032
-713,962	-34,372	0,119	0,047
-712,948	276,014	0,030	0,039
-711,933	800,000	-0,042	-0,114
-710,918	-18,293	-0,019	-0,008
-709,904	176,244	-0,084	-0,088
-708,889	-200,000	0,015	-0,123
-707,875	105,613	0,006	-0,005
-706,860	-5,908	0,052	0,026
-705,845	159,897	-0,014	0,014
-704,831	-117,986	0,059	0,008
-703,816	121,800	-0,071	-0,065
-702,802	20,420	-0,020	0,012
-701,787	-200,000	0,034	-0,157
-700,772	178,905	0,044	-0,047
-699,758	-200,000	-0,001	-0,142
-698,743	193,692	0,139	0,152
-697,729	-137,347	0,051	-0,004
-696,714	-99,239	-0,057	0,010
-695,699	50,841	-0,144	0,099
-694,685	290,987	-0,050	0,066
-693,670	130,599	-0,063	-0,059
-692,656	84,036	-0,013	0,010
-691,641	34,704	-0,089	0,056
-690,627	-200,000	0,004	0,079
-689,612	-88,231	-0,013	-0,003
-688,597	644,091	0,057	-0,107
-687,583	77,014	0,046	-0,035
-686,568	90,636	-0,060	-0,049
-685,554	-33,582	-0,090	-0,036
-684,539	-200,000	-0,021	-0,098
-683,524	-175,748	0,049	0,001
-682,510	516,712	0,064	0,109
-681,495	5,462	-0,151	0,080
-680,481	800,000	0,009	0,026
-679,466	-76,880	-0,135	-0,034
-678,451	12,393	-0,070	0,039
-677,437	41,475	-0,048	0,031
-676,422	-108,693	0,073	-0,011
-675,408	-170,748	-0,087	0,002
-674,393	164,774	0,104	-0,106
-673,378	-200,000	-0,010	-0,088
-672,364	499,543	-0,044	-0,073
-671,349	-200,000	-0,024	-0,098
-670,335	210,148	0,053	-0,060
-669,320	800,000	0,032	0,090
-668,305	382,342	0,047	0,070
-667,291	-88,648	-0,062	-0,013
-666,276	20,135	0,111	-0,064
-665,262	-96,665	-0,065	0,012
-664,247	10,981	0,037	0,020
-663,232	219,232	0,009	-0,010
-662,218	-74,008	-0,074	-0,019
-661,203	-151,760	0,105	0,005
-660,189	-200,000	-0,017	0,094
-659,174	-92,553	-0,078	0,016
-658,159	-51,734	-0,093	-0,031
-657,145	-200,000	0,036	-0,128
-656,130	800,000	0,017	-0,052
-655,116	247,202	0,111	0,136
-654,101	800,000	-0,063	0,164
-653,086	224,634	-0,067	0,078
-652,072	-200,000	0,018	-0,074
-651,057	-200,000	-0,013	-0,123
-650,043	-200,000	0,003	-0,099
-649,028	-185,519	-0,033	-0,000
-648,014	-200,000	0,006	0,055
-646,999	169,884	-0,064	-0,066
-645,984	-133,986	0,067	0,006
-644,970	49,515	-0,021	-0,014
-643,955	-200,000	-0,012	-0,091
-642,941	107,529	0,071	0,061
-641,926	800,000	-0,012	0,028
-640,911	800,000	0,019	-0,055
-639,897	186,150	-0,051	-0,055
-638,882	-148,722	-0,168	0,010
-637,868	800,000	-0,030	-0,067
-636,853	54,345	-0,141	-0,098
-635,838	295,927	-0,093	-0,124
-634,824	92,143	0,076	-0,062
-633,809	-125,972	-0,098	0,011
-632,795	50,714	0,033	0,022
-631,780	17,560	0,093	-0,053
-630,765	142,867	-0,089	-0,086
-629,751	9,102	0,049	-0,027
-628,736	-200,000	-0,003	0,037
-627,722	-200,000	-0,037	-0,229
-626,707	6,483	0,081	0,043
-625,692	-200,000	0,088	-0,000
-624,678	-0,422	0,059	0,030
-623,663	9,072	0,026	-0,014
-622,649	7,801	-0,024	-0,013
-621,634	-67,548	-0,113	-0,032
-620,619	-0,278	0,116	-0,059
-619,605	394,170	0,037	-0,056
-618,590	166,213	0,106	0,109
-617,576	43,779	-0,087	0,057
-616,561	29,532	-0,082	-0,050
-615,546	683,553	-0,045	0,085
-614,532	-200,000	-0,019	-0,079
-613,517	800,000	0,006	-0,014
-612,503	800,000	0,046	0,105
-611,488	-200,000	-0,020	0,085
-610,474	-75,887	0,041	0,010
-609,459	-200,000	0,015	-0,052
-608,444	-200,000	0,007	0,076
-607,430	-200,000	-0,003	0,068
-606,415	-13,388	-0,049	-0,023
-605,401	800,000	-0,044	0,109
-604,386	-159,332	-0,080	-0,003
-603,371	-200,000	-0,028	0,117
-602,357	-5,435	-0,135	-0,066
-601,342	227,917	-0,032	-0,037
-600,328	26,239	0,122	-0,073
-599,313	336,132	-0,126	-0,176
-598,298	-111,302	-0,065	-0,009
-597,284	-58,310	-0,053	0,017
-596,269	-105,142	0,132	0,021
-595,255	-106,902	0,028	-0,004
-594,240	-200,000	-0,008	-0,046
-593,225	-68,146	0,080	-0,022
-592,211	-76,493	-0,024	0,006
-591,196	60,026	-0,087	-0,062
-590,182	-200,000	-0,005	0,085
-589,167	-157,239	-0,077	0,003
-588,152	-200,000	0,001	-0,015
-587,138	-33,535	-0,124	-0,049
-586,123	0,729	-0,120	-0,061
-585,109	202,945	-0,066	-0,074
-584,094	24,720	-0,110	0,066
-583,079	-200,000	-0,002	-0,123
-582,065	-200,000	0,008	0,090
-581,050	639,738	-0,046	0,085
-580,036	-92,348	-0,140	-0,028
-579,021	28,319	-0,132	-0,080
-578,006	-121,201	0,025	-0,003
-576,992	-200,000	0,012	0,045
-575,977	-49,496	0,175	-0,060
-574,963	-101,484	0,042	0,007
-573,948	-133,472	0,119	-0,011
-572,934	-57,184	0,051	0,016
-571,919	84,770	-0,122	0,096
-570,904	675,069	0,064	-0,120
-569,890	17,582	-0,109	0,062
-568,875	-109,924	0,066	0,010
-567,861	800,000	-0,028	-0,057
-566,846	800,000	-0,035	-0,075
-565,831	306,138	0,085	-0,114
-564,817	83,815	-0,057	-0,045
-563,802	704,442	-0,049	-0,093
-562,788	138,234	-0,109	0,103
-561,773	-101,972	-0,088	-0,015
-560,758	-40,587	0,032	0,012
-559,744	222,666	0,098	-0,114
-558,729	-65,407	0,121	0,035
-557,715	239,423	0,040	-0,048
-556,700	164,751	-0,125	0,127
-555,685	-200,000	-0,002	0,041
-554,671	-120,061	0,107	-0,013
-553,656	-200,000	-0,011	-0,065
-552,642	-84,724	0,068	0,015
-551,627	-200,000	-0,025	0,082
-550,612	352,931	-0,086	-0,123
-549,598	-200,000	0,028	-0,318
-548,583	723,841	-0,107	-0,206
-547,569	-104,359	-0,037	0,006
-546,554	800,000	0,053	-0,132
-545,539	160,424	-0,079	0,080
-544,525	-200,000	-0,016	0,079
-543,510	-0,738	0,094	-0,048
-542,496	-200,000	0,006	-0,072
-541,481	-125,836	-0,017	-0,002
-540,466	-50,552	-0,018	0,006
-539,452	-200,000	-0,014	0,136
-538,437	-113,243	0,081	0,011
-537,423	64,467	-0,053	-0,038
-536,408	111,165	-0,128	0,111
-535,393	706,671	0,050	-0,095
-534,379	85,458	-0,097	-0,077
-533,364	-88,325	-0,056	-0,012
-532,350	530,508	0,052	-0,088
-531,335	158,480	0,160	-0,160
-530,321	174,834	-0,062	-0,064
-529,306	-138,367	0,128	0,010
-528,291	-98,289	-0,146	-0,027
-527,277	44,536	-0,069	0,046
-526,262	-86,603	-0,140	-0,031
-525,248	117,169	0,078	0,069
-524,233	-121,400	0,052	0,006
-523,218	-67,169	-0,100	0,028
-522,204	581,626	0,048	0,085
-521,189	-28,892	0,124	-0,051
-520,175	-42,341	-0,155	-0,056
-519,160	448,800	0,038	0,061
-518,145	-200,000	-0,008	-0,031
-517,131	192,593	0,050	0,055
-516,116	119,498	0,029	-0,026
-515,102	-200,000	0,008	-0,142
-514,087	191,842	-0,077	-0,083
-513,072	-200,000	0,002	0,017
-512,058	-126,708	0,138	-0,015
-511,043	-200,000	0,041	0,160
-510,029	-71,506	0,110	-0,029
-509,014	-123,268	0,007	-0,001
-507,999	-95,961	-0,045	0,009
-506,985	-22,502	-0,143	0,062
-505,970	152,414	0,056	0,055
-504,956	-200,000	0,017	0,069
-503,941	266,670	0,187	0,235
-502,926	347,857	0,011	0,016
-501,912	50,727	0,068	-0,046
-500,897	-200,000	-0,003	0,104
-499,883	800,000	-0,003	0,008
-498,868	49,677	0,058	0,039
-497,853	-92,633	0,072	0,014
-496,839	370,145	0,022	-0,032
-495,824	-104,183	0,129	-0,021
-494,810	-55,031	-0,086	-0,028
-493,795	290,397	0,039	0,051
-492,781	-200,000	-0,022	0,187
-491,766	-200,000	0,000	-0,030
-490,751	800,000	0,006	-0,015
-489,737	69,674	0,051	-0,038
-488,722	-200,000	0,025	-0,120
-487,708	-200,000	-0,020	-0,116
-486,693	201,139	0,050	-0,055
-485,678	800,000	0,052	0,123
-484,664	800,000	-0,013	-0,027
-483,649	129,489	-0,011	0,010
-482,635	128,407	0,056	0,051
-481,620	161,656	0,049	0,050
-480,605	312,907	-0,041	0,056
-479,591	-129,418	-0,077	-0,008
-478,576	-107,604	-0,052	-0,008
-477,562	150,249	0,057	0,056
-476,547	800,000	-0,061	-0,187
-475,532	-200,000	-0,001	0,205
-474,518	64,996	-0,040	-0,029
-473,503	-67,729	-0,113	-0,031
-472,489	768,987	0,016	-0,031
-471,474	57,280	-0,220	-0,154
-470,459	-200,000	-0,023	0,119
-469,445	460,626	-0,028	0,044
-468,430	21,331	0,100	0,058
-467,416	-200,000	-0,026	0,135
-466,401	-120,481	0,009	0,001
-465,386	580,903	0,093	0,164
-464,372	-116,965	-0,041	0,005
-463,357	-51,785	0,159	-0,053
-462,343	-200,000	0,007	-0,114
-461,328	11,887	-0,077	0,042
-460,313	341,713	0,005	-0,007
-459,299	517,132	0,034	0,057
-458,284	155,885	-0,075	0,074
-457,270	117,865	0,062	0,055
-456,255	695,861	-0,063	-0,119
-455,241	112,443	-0,067	-0,058
-454,226	800,000	-0,019	-0,043
-453,211	-143,918	-0,012	0,001
-452,197	-127,224	-0,130	0,013
-451,182	153,734	-0,045	0,044
-450,168	45,045	0,081	-0,053
-449,153	85,175	-0,038	0,030
-448,138	14,159	-0,083	-0,046
-447,124	7,406	0,106	-0,057
-446,109	-200,000	0,026	0,149
-445,095	-143,774	0,017	0,001
-444,080	66,628	-0,103	-0,075
-443,065	-200,000	0,006	-0,047
-442,051	137,623	-0,133	-0,125
-441,036	423,134	-0,045	-0,069
-440,022	505,478	0,020	-0,033
-439,007	147,720	-0,010	0,010
-437,992	-66,325	-0,042	0,012
-436,978	110,173	0,047	0,040
-435,963	-58,994	0,049	-0,015
-434,949	103,978	-0,036	-0,031
-433,934	800,000	0,076	-0,157
-432,919	-200,000	-0,019	-0,117
-431,905	-44,582	0,093	0,033
-430,890	733,282	0,030	-0,059
-429,876	-139,222	0,102	0,008
-428,861	-57,072	0,091	0,029
-427,846	-45,052	-0,050	-0,018
-426,832	511,934	0,047	0,079
-425,817	-102,462	0,073	-0,012
-424,803	-200,000	0,007	-0,058
-423,788	123,978	-0,091	0,082
-422,773	153,773	0,099	0,097
-421,759	-50,027	0,147	0,050
-420,744	195,953	-0,050	-0,054
-419,730	571,337	0,014	-0,025
-418,715	-200,000	-0,024	-0,196
-417,701	-200,000	0,028	-0,115
-416,686	40,831	0,065	0,042
-415,671	308,322	-0,036	-0,048
-414,657	800,000	-0,030	0,075
-413,642	-150,400	0,025	-0,001
-412,628	-200,000	0,011	-0,104
-411,613	-200,000	-0,010	0,108
-410,598	305,365	0,035	0,047
-409,584	-200,000	-0,044	0,147
-408,569	100,597	0,091	0,076
-407,555	-75,279	-0,103	0,026
-406,540	641,516	0,030	0,056
-405,525	-102,496	-0,125	0,021
-404,511	-7,523	0,022	-0,011
-403,496	-200,000	-0,005	-0,091
-402,482	-81,723	0,177	0,041
-401,467	208,448	0,052	-0,058
-400,452	800,000	0,050	0,115
-399,438	800,000	0,056	0,112
-398,423	800,000	-0,053	-0,113
-397,409	527,451	-0,078	-0,132
-396,394	800,000	0,068	0,138
-395,379	-193,784	-0,179	0,001
-394,365	-200,000	-0,004	0,105
-393,350	800,000	0,019	-0,049
-392,336	732,729	-0,035	0,066
-391,321	37,437	-0,099	-0,063
-390,306	530,259	-0,029	0,050
-389,292	64,702	-0,029	-0,021
-388,277	-116,621	-0,042	-0,005
-387,263	-200,000	0,001	0,006
-386,248	279,456	0,078	0,100
-385,233	-125,520	-0,027	-0,003
-384,219	-74,121	0,068	-0,017
-383,204	-21,821	-0,054	-0,023
-382,190	-200,000	-0,000	0,055
-381,175	60,061	0,144	0,102
-380,160	-75,330	0,076	-0,019
-379,146	-200,000	-0,006	0,025
-378,131	800,000	0,037	0,078
-377,117	742,339	-0,025	0,049
-376,102	101,455	-0,058	0,048
-375,088	-105,357	-0,104	0,017
-374,073	234,667	0,079	0,093
-373,058	-105,972	0,064	0,010
-372,044	800,000	0,054	-0,127
-371,029	-200,000	0,006	-0,102
-370,015	486,178	-0,009	-0,015
-369,000	-200,000	-0,004	0,055
-367,985	143,639	0,128	-0,122
-366,971	800,000	-0,039	0,078
-365,956	-166,816	0,028	0,001
-364,942	320,565	0,059	0,080
-363,927	284,743	0,083	0,107
-362,912	800,000	-0,028	0,067
-361,898	-106,787	-0,142	-0,022
-360,883	-46,956	-0,104	-0,036
-359,869	201,039	0,051	-0,056
-358,854	1,885	0,068	0,035
-357,839	-53,760	-0,027	0,009
-356,825	27,739	0,072	0,043
-355,810	208,854	-0,079	0,088
-354,796	-1,161	0,021	-0,011
-353,781	-200,000	-0,016	-0,113
-352,766	335,879	0,063	-0,088
-351,752	800,000	-0,033	-0,095
-350,737	-104,690	0,099	0,016
-349,723	171,658	0,072	0,074
-348,708	-29,458	0,158	0,064
-347,693	-113,534	-0,081	0,011
-346,679	-200,000	0,025	-0,108
-345,664	32,406	0,076	-0,047
-344,650	-200,000	-0,000	0,128
-343,635	800,000	0,036	0,096
-342,620	-200,000	-0,027	0,118
-341,606	-200,000	0,004	0,055
-340,591	-46,693	-0,097	-0,034
-339,577	-63,181	-0,186	-0,054
-338,562	-200,000	-0,024	-0,100
-337,548	800,000	0,022	-0,054
-336,533	555,361	0,058	0,100
-335,518	787,132	-0,052	0,103
-334,504	-200,000	0,008	0,170
-333,489	800,000	-0,058	0,125
-332,475	112,229	-0,075	0,065
-331,460	800,000	-0,039	0,106
-330,445	800,000	0,038	-0,110
-329,431	74,608	-0,060	0,045
-328,416	-79,352	0,098	0,024
-327,402	-200,000	-0,012	0,140
-326,387	168,828	-0,110	0,112
-325,372	-37,467	-0,089	0,034
-324,358	-200,000	0,015	-0,118
-323,343	-130,525	0,052	0,005
-322,329	-54,408	0,052	0,017
-321,314	222,010	-0,067	0,077
-320,299	-13,102	0,097	0,045
-319,285	556,508	-0,029	-0,051
-318,270	-200,000	-0,008	-0,035
-317,256	-200,000	-0,012	-0,089
-316,241	800,000	-0,023	0,066
-315,226	800,000	0,017	-0,050
-314,212	195,062	0,084	-0,091
-313,197	-200,000	0,005	0,103
-312,183	-200,000	0,013	-0,116
-311,168	139,946	-0,044	-0,041
-310,153	-200,000	-0,014	0,046
-309,139	623,721	0,070	0,126
-308,124	-159,415	-0,200	-0,008
-307,110	-200,000	-0,055	0,177
-306,095	-26,709	0,051	0,021
-305,080	800,000	0,030	-0,086
-304,066	800,000	-0,019	-0,041
-303,051	-139,899	0,111	-0,008
-302,037	-200,000	-0,017	0,116
-301,022	-20,569	0,127	-0,055
-300,008	218,761	0,076	0,086
-298,993	-200,000	-0,016	0,066
-297,978	800,000	0,063	0,127
-296,964	-60,249	-0,091	-0,027
-295,949	467,486	-0,060	0,096
-294,935	-87,619	-0,078	0,017
-293,920	-106,670	0,107	0,017
-292,905	-170,103	-0,037	-0,001
-291,891	-86,035	0,123	0,027
-290,876	-2,696	0,049	0,024
-289,862	-36,883	0,110	0,042
-288,847	-26,104	-0,130	-0,054
-287,832	-54,240	-0,075	-0,024
-286,818	386,049	-0,013	0,019
-285,803	800,000	-0,034	0,073
-284,789	-12,462	0,125	0,058
-283,774	53,714	-0,025	-0,017
-282,759	105,352	-0,014	0,012
-281,745	341,651	0,048	-0,067
-280,730	20,289	-0,102	-0,059
-279,716	-200,000	0,049	-0,170
-278,701	-165,900	0,160	-0,005
-277,686	316,799	-0,102	0,138
-276,672	205,274	0,093	-0,103
-275,657	-200,000	0,042	0,148
-274,643	316,689	0,057	-0,077
-273,628	-200,000	-0,008	-0,053
-272,613	800,000	0,022	-0,058
-271,599	-200,000	-0,001	0,194
-270,584	-18,225	0,135	0,060
-269,570	800,000	0,049	0,108
-268,555	39,084	-0,104	-0,066
-267,540	800,000	-0,033	-0,075
-266,526	23,790	-0,080	0,047
-265,511	537,235	-0,094	-0,159
-264,497	434,325	-0,112	0,173
-263,482	120,008	0,086	0,076
-262,467	54,200	0,072	-0,049
-261,453	-23,657	0,053	-0,022
-260,438	247,047	0,055	-0,066
-259,424	-104,547	-0,136	-0,022
-258,409	2,578	0,070	0,036
-257,395	800,000	0,026	-0,075
-256,380	800,000	-0,039	0,084
-255,365	-200,000	-0,008	0,147
-254,351	156,192	0,093	-0,092
-253,336	316,160	-0,031	-0,042
-252,322	61,407	-0,085	-0,060
-251,307	-94,829	0,099	-0,019
-250,292	800,000	0,030	0,065
-249,278	800,000	0,025	-0,051
-248,263	800,000	0,065	0,137
-247,249	-200,000	0,005	0,015
-246,234	-200,000	0,030	0,103
-245,219	-139,619	-0,128	-0,010
-244,205	65,866	0,065	-0,047
-243,190	-105,940	0,090	-0,014
-242,176	-57,061	-0,079	0,025
-241,161	-126,656	-0,026	-0,003
-240,146	-200,000	0,048	-0,165
-239,132	-200,000	0,008	-0,145
-238,117	-114,293	-0,157	-0,021
-237,103	322,832	-0,025	0,034
-236,088	-200,000	-0,021	0,071
-235,073	-3,603	0,112	-0,055
-234,059	42,329	0,088	0,057
-233,044	-47,738	0,130	0,045
-232,030	-111,935	0,033	-0,005
-231,015	-144,639	-0,066	-0,004
-230,000	277,110	-0,015	-0,019
-228,986	788,411	-0,006	0,013
-227,971	800,000	0,011	0,027
-226,957	34,550	0,073	-0,045
-225,942	-200,000	0,024	0,104
-224,927	402,302	0,045	-0,067
-223,913	-200,000	0,014	-0,065
-222,898	-83,138	-0,032	-0,007
-221,884	389,739	0,018	0,026
-220,869	720,485	-0,056	-0,105
-219,855	800,000	-0,018	0,040
-218,840	-184,238	0,060	-0,001
-217,825	260,069	0,043	0,053
-216,811	357,058	0,020	0,028
-215,796	-77,872	0,118	-0,029
-214,782	114,911	-0,171	-0,148
-213,767	151,231	-0,043	0,042
-212,752	-58,209	0,179	0,055
-211,738	343,451	-0,080	-0,112
-210,723	80,272	0,077	0,059
-209,709	-25,110	-0,068	0,028
-208,694	800,000	0,042	-0,092
-207,679	36,157	-0,076	-0,048
-206,665	-51,760	-0,090	0,030
-205,650	481,030	0,080	0,129
-204,636	145,252	-0,089	0,085
-203,621	49,763	-0,065	0,043
-202,606	-14,003	-0,054	0,024
-201,592	-200,000	-0,025	-0,206
-200,577	-200,000	0,027	-0,094
-199,563	160,146	-0,058	-0,057
-198,548	11,695	0,126	0,069
-197,533	723,314	0,016	-0,030
-196,519	-95,149	0,067	0,013
-195,504	800,000	-0,037	-0,113
-194,490	279,583	-0,089	0,113
-193,475	-30,498	0,198	0,079
-192,460	74,402	0,096	-0,072
-191,446	-71,518	-0,106	0,028
-190,431	17,017	0,133	0,075
-189,417	-200,000	0,009	-0,052
-188,402	-200,000	0,139	-0,000
-187,387	-39,371	-0,042	-0,015
-186,373	2,606	-0,161	0,082
-185,358	-96,598	-0,092	-0,017
-184,344	800,000	-0,008	0,017
-183,329	-33,499	-0,036	0,014
-182,315	154,151	0,025	-0,024
-181,300	-200,000	-0,002	0,021
-180,285	320,040	-0,111	0,149
-179,271	43,074	-0,123	-0,079
-178,256	30,715	-0,085	-0,051
-177,242	-200,000	-0,017	0,143
-176,227	13,195	0,084	-0,046
-175,212	800,000	-0,021	-0,046
-174,198	-200,000	0,010	-0,193
-173,183	-58,505	0,035	0,011
-172,169	-77,574	-0,160	0,039
-171,154	-56,006	-0,166	-0,052
-170,139	-200,000	-0,011	0,077
-169,125	-133,479	0,091	0,008
-168,110	-133,870	-0,051	-0,004
-167,096	-36,739	0,091	0,035
-166,081	-93,052	-0,081	0,016
-165,066	800,000	0,021	-0,049
-164,052	154,682	0,013	-0,013
-163,037	-40,884	0,203	-0,074
-162,023	-84,685	0,082	-0,018
-161,008	359,988	0,020	-0,028
-159,993	16,691	0,027	-0,015
-158,979	-55,943	-0,140	-0,044
-157,964	22,402	-0,028	0,016
-156,950	-6,342	0,092	-0,044
-155,935	-192,016	-0,044	0,000
-154,920	-94,954	0,095	-0,018
-153,906	291,024	0,016	0,021
-152,891	800,000	-0,032	-0,089
-151,877	-186,890	-0,037	-0,000
-150,862	800,000	-0,083	-0,175
-149,847	99,521	0,057	-0,047
-148,833	75,758	-0,098	0,073
-147,818	-200,000	0,004	-0,072
-146,804	-200,000	-0,004	-0,021
-145,789	307,795	0,015	-0,020
-144,775	800,000	-0,024	0,065
-143,760	-200,000	0,031	-0,112
-142,745	302,959	-0,075	-0,099
-141,731	-43,587	0,110	-0,039
-140,716	-200,000	0,011	-0,051
-139,702	-200,000	0,004	0,184
-138,687	-200,000	-0,011	0,058
-137,672	32,398	-0,100	0,061
-136,658	-200,000	0,001	0,014
-135,643	-200,000	0,014	-0,050
-134,629	-16,227	-0,190	0,085
-133,614	73,065	0,019	0,014
-132,599	125,026	0,160	0,143
-131,585	164,669	0,112	0,112
-130,570	449,982	-0,028	0,044
-129,556	-139,620	-0,066	-0,005
-128,541	701,474	-0,033	0,062
-127,526	-77,869	0,133	-0,032
-126,512	62,419	-0,069	0,049
-125,497	-147,124	0,093	-0,006
-124,483	800,000	-0,069	-0,169
-123,468	72,911	0,067	-0,050
-122,453	-200,000	-0,023	-0,092
-121,439	365,014	-0,080	-0,115
-120,424	-148,306	-0,105	0,006
-119,410	548,963	0,062	0,106
-118,395	154,073	0,051	-0,050
-117,380	-200,000	-0,035	0,136
-116,366	250,572	-0,071	0,086
-115,351	182,534	-0,063	-0,066
-114,337	-104,956	0,143	-0,023
-113,322	61,330	0,062	-0,044
-112,307	60,023	-0,125	-0,087
-111,293	-151,591	0,007	-0,000
-110,278	-161,296	0,089	0,003
-109,264	-20,343	-0,067	0,029
-108,249	-200,000	-0,006	-0,111
-107,234	-200,000	-0,000	-0,071
-106,220	87,138	-0,069	0,054
-105,205	-180,502	0,043	0,001
-104,191	69,078	-0,138	0,100
-103,176	-107,909	0,044	-0,007
-102,162	112,308	0,072	0,062
-101,147	-200,000	-0,001	-0,020
-100,132	8,769	-0,033	-0,018
-99,118	57,301	-0,085	-0,059
-98,103	581,845	0,059	0,103
-97,089	41,658	-0,049	-0,031
-96,074	75,367	-0,068	-0,051
-95,059	800,000	0,031	-0,084
-94,045	691,528	-0,030	-0,056
-93,030	-200,000	-0,016	-0,056
-92,016	317,713	0,052	-0,070
-91,001	119,448	-0,022	-0,019
-89,986	106,966	0,070	0,058
-88,972	151,367	0,099	-0,095
-87,957	303,019	-0,040	0,053
-86,943	331,986	-0,013	0,017
-85,928	135,202	0,103	0,095
-84,913	800,000	-0,014	0,043
-83,899	-200,000	-0,010	0,035
-82,884	-200,000	-0,041	0,187
-81,870	199,202	0,068	-0,074
-80,855	0,446	-0,020	-0,010
-79,840	235,546	0,055	-0,064
-78,826	305,322	-0,047	-0,062
-77,811	16,357	-0,135	-0,075
-76,797	-200,000	-0,028	-0,115
-75,782	-82,234	0,131	0,030
-74,767	13,879	0,076	-0,042
-73,753	-200,000	-0,015	0,101
-72,738	99,117	0,082	0,067
-71,724	-191,441	-0,038	-0,000
-70,709	167,558	0,046	-0,046
-69,694	-111,188	0,117	-0,017
-68,680	-22,199	0,038	-0,016
-67,665	-200,000	0,046	0,169
-66,651	800,000	0,067	0,133
-65,636	281,519	-0,027	-0,034
-64,622	16,150	0,129	-0,071
-63,607	92,188	-0,104	-0,083
-62,592	800,000	-0,001	-0,003
-61,578	-83,916	-0,123	-0,027
-60,563	63,235	0,103	0,073
-59,549	-89,752	-0,115	0,024
-58,534	50,779	-1,923	-1,284
-57,519	514,361	-1,212	-2,003
-56,505	-200,000	-0,367	-4,283
-55,490	558,932	0,871	1,490
-54,476	800,000	5,210	11,258
-53,461	-200,000	21,179	341,818
-52,446	800,000	761,146	2361,913
-51,432	558,303	1663,379	2842,696
-50,417	73,253	1660,599	1224,280
-49,403	17,814	1534,117	859,431
-48,388	11,777	1457,930	787,562
-47,373	19,430	1449,068	819,451
-46,359	15,358	1438,193	793,916
-45,344	10,087	1434,192	766,590
-44,330	10,011	1432,161	765,115
-43,315	10,044	1430,257	764,224
-42,300	9,984	1428,766	763,112
-41,286	10,040	1427,337	762,582
-40,271	9,974	1426,119	761,591
-39,257	9,976	1424,986	760,965
-38,242	10,017	1423,751	760,467
-37,227	9,980	1422,923	759,819
-36,213	10,001	1421,677	759,224
-35,198	10,004	1420,434	758,546
-34,184	10,068	1419,620	758,380
-33,169	10,004	1417,967	757,167
-32,154	10,037	1417,062	756,810
-31,140	10,027	1415,871	756,097
-30,125	10,083	1414,763	755,735
-29,111	10,031	1413,536	754,805
-28,096	10,011	1412,500	754,132
-27,082	9,948	1411,148	753,081
-26,067	9,932	1410,372	752,562
-25,052	9,996	1409,105	752,160
-24,038	9,991	1408,092	751,562
-23,023	9,980	1407,374	751,099
-22,009	9,991	1406,214	750,501
-20,994	9,952	1405,318	749,809
-19,979	9,980	1404,167	749,299
-18,965	9,946	1403,197	748,591
-17,950	9,970	1402,304	748,198
-16,936	9,872	1401,687	747,382
-15,921	9,879	1400,514	746,762
-14,906	9,864	1399,800	746,280
-13,892	9,945	1398,621	745,997
-12,877	9,904	1397,791	745,334
-11,863	9,889	1397,087	744,862
-10,848	9,861	1396,138	744,194
-9,833	9,832	1395,208	743,535
-8,819	9,817	1394,449	743,030
-7,804	9,793	1393,847	742,571
-6,790	9,744	1392,563	741,632
-5,775	9,790	1391,591	741,297
-4,760	9,831	1390,456	740,853
-3,746	9,805	1389,397	740,140
-2,731	9,788	1388,706	739,663
-1,717	9,735	1387,902	738,961
-0,702	9,814	1385,893	738,226
0,313	13,921	1298,771	710,575
1,327	30,446	689,396	414,584
2,342	47,303	119,164	78,129
3,356	-0,826	16,495	8,212
4,371	-1,884	3,562	1,760
5,386	23,170	0,993	0,573
6,400	-200,000	0,127	0,536
7,415	66,109	-0,180	-0,129
8,429	138,381	-0,172	-0,159
9,444	97,864	-0,258	-0,209
10,459	-28,306	-0,357	-0,145
11,473	198,388	-0,178	-0,192
12,488	45,045	-0,305	-0,198
13,502	-5,378	-0,259	-0,125
14,517	-8,831	-0,309	-0,146
15,531	131,620	-0,372	-0,337
16,546	69,764	-0,302	-0,219
17,561	85,038	-0,354	-0,273
18,575	-6,106	-0,194	-0,093
19,590	32,377	-0,246	-0,149
20,604	-164,872	-0,242	-0,007
21,619	155,020	-0,369	-0,358
22,634	72,272	-0,435	-0,319
23,648	83,490	-0,351	-0,269
24,663	143,437	-0,425	-0,399
25,677	61,252	-0,326	-0,228
26,692	84,218	-0,383	-0,294
27,707	180,451	-0,242	-0,250
28,721	35,962	-0,422	-0,260
29,736	-13,829	-0,469	-0,212
30,750	119,847	-0,380	-0,331
31,765	41,551	-0,444	-0,282
32,780	8,399	-0,471	-0,248
33,794	-86,403	-0,383	-0,082
34,809	37,596	-0,466	-0,290
35,823	72,416	-0,353	-0,258
36,838	182,228	-0,321	-0,333
37,853	107,594	-0,404	-0,338
38,867	32,031	-0,387	-0,234
39,882	67,961	-0,348	-0,250
40,896	88,333	-0,475	-0,371
41,911	111,078	-0,201	-0,170
42,926	215,426	-0,218	-0,244
43,940	43,214	-0,348	-0,223
44,955	25,541	-0,349	-0,204
45,969	141,331	-0,388	-0,361
46,984	342,968	-0,254	-0,350
47,999	-27,531	-0,508	-0,206
49,013	5,658	-0,239	-0,124
50,028	113,282	-0,350	-0,298
51,042	-29,733	-0,379	-0,151
52,057	299,188	-0,186	-0,242
53,071	-5,044	-0,530	-0,255
54,086	58,065	-0,379	-0,260
55,101	191,036	-0,338	-0,358
56,115	115,786	-0,365	-0,314
57,130	79,631	-0,218	-0,164
58,144	13,879	-0,488	-0,265
59,159	84,513	-0,369	-0,283
60,174	297,053	-0,262	-0,338
61,188	170,739	-0,336	-0,338
62,203	79,705	-0,358	-0,269
63,217	70,425	-0,307	-0,222
64,232	138,436	-0,338	-0,311
65,247	137,734	-0,405	-0,372
66,261	-39,662	-0,319	-0,116
67,276	154,809	-0,235	-0,226
68,290	104,243	-0,260	-0,215
69,305	360,454	-0,151	-0,213
70,320	159,646	-0,267	-0,261
71,334	627,442	-0,191	-0,339
72,349	33,885	-0,362	-0,220
73,363	89,323	-0,289	-0,225
74,378	180,212	-0,236	-0,243
75,393	15,862	-0,322	-0,177
76,407	165,318	-0,323	-0,320
77,422	45,575	-0,303	-0,195
78,436	49,672	-0,348	-0,229
79,451	10,646	-0,219	-0,117
80,466	80,770	-0,381	-0,288
81,480	69,056	-0,302	-0,217
82,495	7,696	-0,335	-0,175
83,509	67,329	-0,297	-0,212
84,524	353,126	-0,164	-0,229
85,539	92,782	-0,314	-0,248
86,553	654,382	-0,212	-0,382
87,568	-28,849	-0,303	-0,121
88,582	76,595	-0,308	-0,229
89,597	79,850	-0,197	-0,148
90,611	-19,074	-0,307	-0,133
91,626	-58,392	-0,315	-0,095
92,641	152,587	-0,195	-0,186
93,655	172,672	-0,197	-0,199
94,670	-155,708	-0,227	-0,010
95,684	4,496	-0,276	-0,141
96,699	-36,989	-0,290	-0,108
97,714	18,922	-0,302	-0,169
98,728	-63,344	-0,206	-0,059
99,743	48,810	-0,239	-0,156
100,757	19,314	-0,227	-0,127
101,772	-8,650	-0,265	-0,124
102,787	175,641	-0,249	-0,253
103,801	55,114	-0,277	-0,187
104,816	-20,841	-0,266	-0,113
105,830	228,029	-0,160	-0,183
106,845	-63,214	-0,219	-0,063
107,860	36,342	-0,217	-0,133
108,874	-196,436	-0,268	-0,001
109,889	127,152	-0,272	-0,241
110,903	23,122	-0,380	-0,217
111,918	611,763	-0,137	-0,240
112,933	86,047	-0,165	-0,127
113,947	39,502	-0,280	-0,175
114,962	140,900	-0,118	-0,109
115,976	58,092	-0,217	-0,148
116,991	136,121	-0,186	-0,169
118,006	-50,646	-0,391	-0,128
119,020	-25,616	-0,257	-0,106
120,035	468,447	-0,135	-0,212
121,049	174,755	-0,118	-0,120
122,064	231,393	-0,196	-0,225
123,079	12,682	-0,270	-0,145
124,093	96,006	-0,228	-0,182
125,108	-13,782	-0,346	-0,155
126,122	75,012	-0,319	-0,234
127,137	40,991	-0,131	-0,083
128,151	73,329	-0,321	-0,234
129,166	-97,055	-0,279	-0,050
130,181	772,213	-0,135	-0,257
131,195	32,314	-0,340	-0,204
132,210	46,682	-0,296	-0,191
133,224	242,931	-0,243	-0,285
134,239	-11,818	-0,219	-0,100
135,254	641,818	-0,118	-0,211
136,268	-39,991	-0,332	-0,120
137,283	-34,960	-0,373	-0,141
138,297	186,395	-0,161	-0,167
139,312	126,321	-0,238	-0,210
140,327	-23,578	-0,361	-0,150
141,341	230,957	-0,197	-0,225
142,356	51,970	-0,230	-0,152
143,370	-13,872	-0,274	-0,123
144,385	103,034	-0,197	-0,161
145,400	145,886	-0,199	-0,186
146,414	302,791	-0,200	-0,259
147,429	55,428	-0,276	-0,186
148,443	686,831	-0,081	-0,148
149,458	308,804	-0,113	-0,147
150,473	-71,776	-0,191	-0,049
151,487	13,627	-0,398	-0,215
152,502	-79,680	-0,214	-0,050
153,516	442,489	-0,197	-0,301
154,531	59,868	-0,266	-0,183
155,546	32,671	-0,190	-0,114
156,560	-52,906	-0,297	-0,095
157,575	-82,875	-0,185	-0,041
158,589	175,166	-0,237	-0,239
159,604	105,322	-0,256	-0,210
160,619	123,050	-0,256	-0,223
161,633	-71,681	-0,273	-0,070
162,648	-81,066	-0,397	-0,091
163,662	800,000	-0,093	-0,201
164,677	800,000	-0,130	-0,268
165,692	-146,382	-0,203	-0,012
166,706	-108,898	-0,232	-0,034
167,721	152,024	-0,183	-0,173
168,735	447,895	-0,163	-0,250
169,750	-23,905	-0,310	-0,128
170,764	217,304	-0,174	-0,193
171,779	129,850	-0,236	-0,210
172,794	510,379	-0,181	-0,293
173,808	74,508	-0,128	-0,093
174,823	18,818	-0,298	-0,165
175,837	333,237	-0,137	-0,185
176,852	28,169	-0,193	-0,113
177,867	196,484	-0,101	-0,107
178,881	-114,529	-0,241	0,032
179,896	-77,904	-0,225	-0,054
180,910	-51,851	-0,264	-0,085
181,925	-23,269	-0,263	-0,109
182,940	446,194	-0,141	-0,217
183,954	136,104	-0,190	-0,172
184,969	-84,911	-0,155	-0,033
185,983	38,428	-0,129	-0,080
186,998	306,586	-0,213	-0,276
188,013	-50,016	-0,236	-0,077
189,027	76,602	-0,294	-0,216
190,042	212,421	-0,178	-0,195
191,056	800,000	-0,086	-0,200
192,071	467,224	-0,160	-0,249
193,086	515,611	-0,116	-0,189
194,100	4,318	-0,211	-0,107
195,115	800,000	-0,108	-0,238
196,129	68,428	-0,254	-0,180
197,144	400,987	-0,167	-0,243
198,159	26,451	-0,285	-0,165
199,173	49,420	-0,213	-0,139
200,188	454,213	-0,119	-0,183
201,202	229,792	-0,226	-0,256
202,217	218,591	-0,173	-0,191
203,232	267,403	-0,248	-0,301
204,246	-16,229	-0,185	-0,081
205,261	40,912	-0,179	-0,112
206,275	521,104	-0,148	-0,242
207,290	-66,657	-0,159	-0,043
208,304	-32,580	-0,168	-0,064
209,319	63,668	-0,102	-0,071
210,334	75,726	-0,243	-0,177
211,348	217,725	-0,221	-0,245
212,363	-9,965	-0,158	-0,073
213,377	147,861	-0,126	-0,118
214,392	-14,048	-0,247	-0,110
215,407	88,385	-0,179	-0,138
216,421	227,384	-0,087	-0,098
217,436	230,731	-0,223	-0,253
218,450	-69,308	-0,102	-0,027
219,465	389,953	-0,205	-0,295
220,480	-100,878	-0,155	-0,026
221,494	800,000	-0,078	-0,175
222,509	-87,990	-0,179	0,037
223,523	-27,285	-0,167	-0,067
224,538	-23,322	-0,120	0,050
225,553	375,362	-0,191	-0,270
226,567	129,523	-0,253	-0,224
227,582	416,330	-0,140	-0,207
228,596	800,000	-0,084	-0,167
229,611	-114,614	-0,158	-0,021
230,626	70,731	-0,129	-0,092
231,640	82,060	-0,118	-0,089
232,655	-35,568	-0,279	-0,104
233,669	152,475	-0,230	-0,217
234,684	1,766	-0,176	-0,087
235,699	-165,591	-0,192	-0,006
236,713	-188,538	-0,305	0,003
237,728	187,515	-0,071	-0,073
238,742	551,513	-0,121	-0,201
239,757	195,894	-0,087	-0,091
240,772	332,884	-0,178	-0,238
241,786	56,676	-0,216	-0,145
242,801	380,350	-0,106	-0,150
243,815	267,598	-0,022	-0,027
244,830	-200,000	-0,052	-0,245
245,844	126,936	-0,155	-0,136
246,859	-21,134	-0,245	-0,103
247,874	179,423	-0,262	-0,265
248,888	68,626	-0,148	-0,104
249,903	-67,411	-0,321	-0,086
250,917	158,285	-0,100	-0,095
251,932	49,349	-0,157	-0,102
252,947	-52,644	-0,078	0,025
253,961	153,333	-0,185	-0,175
254,976	12,541	-0,155	-0,082
255,990	269,709	-0,192	-0,233
257,005	12,926	-0,218	-0,116
258,020	30,420	-0,156	-0,092
259,034	203,913	-0,098	-0,105
260,049	800,000	-0,102	-0,208
261,063	124,561	-0,188	-0,163
262,078	247,849	-0,149	-0,174
263,093	364,767	-0,163	-0,227
264,107	-121,525	-0,170	-0,019
265,122	47,303	-0,195	-0,125
266,136	19,548	-0,118	-0,065
267,151	26,006	-0,155	-0,089
268,166	-55,664	-0,244	-0,075
269,180	91,310	-0,180	-0,139
270,195	101,442	-0,230	-0,185
271,209	-21,931	-0,083	-0,035
272,224	212,756	-0,060	-0,066
273,239	-136,274	-0,195	-0,015
274,253	-18,252	-0,171	-0,073
275,268	-67,572	-0,235	-0,063
276,282	634,249	-0,123	-0,216
277,297	-24,213	-0,173	-0,071
278,312	142,344	-0,134	-0,122
279,326	800,000	-0,085	-0,222
280,341	472,871	-0,085	-0,133
281,355	193,887	-0,087	-0,091
282,370	574,458	-0,123	-0,207
283,384	31,727	-0,147	-0,087
284,399	-163,800	-0,086	-0,003
285,414	-28,180	-0,232	-0,092
286,428	-200,000	-0,001	-0,080
287,443	-39,555	-0,089	-0,032
288,457	-125,786	-0,115	-0,012
289,472	800,000	-0,039	-0,081
290,487	-143,554	-0,177	0,011
291,501	-170,105	-0,219	-0,005
292,516	3,445	-0,196	-0,098
293,530	569,187	-0,027	-0,045
294,545	663,565	-0,108	-0,192
295,560	-112,479	-0,188	0,026
296,574	-87,642	-0,258	-0,053
297,589	291,134	-0,180	-0,225
298,603	1,095	-0,140	-0,069
299,618	-64,264	-0,193	-0,054
300,633	112,706	-0,158	-0,131
301,647	-95,138	-0,108	0,020
302,662	595,368	-0,059	-0,100
303,676	-35,666	-0,097	-0,036
304,691	800,000	-0,094	-0,192
305,706	168,044	-0,108	-0,106
306,720	100,792	-0,157	-0,125
307,735	170,574	-0,116	-0,114
308,749	554,239	-0,085	-0,141
309,764	405,855	-0,130	-0,189
310,779	-0,438	-0,166	-0,080
311,793	-35,973	-0,212	-0,078
312,808	182,090	-0,164	-0,166
313,822	-200,000	0,029	-0,105
314,837	800,000	-0,163	-0,314
315,852	-184,956	-0,199	-0,002
316,866	163,085	-0,111	-0,107
317,881	-111,957	-0,246	-0,034
318,895	-40,668	-0,185	-0,065
319,910	54,372	-0,113	-0,075
320,925	387,734	-0,115	-0,163
321,939	-132,695	-0,170	-0,015
322,954	800,000	-0,086	-0,213
323,968	-200,000	-0,021	-0,102
324,983	68,688	-0,046	-0,033
325,997	-58,413	-0,232	0,069
327,012	800,000	-0,091	-0,184
328,027	214,144	-0,177	-0,193
329,041	800,000	-0,099	-0,251
330,056	44,456	-0,150	-0,094
331,070	720,167	-0,102	-0,187
332,085	-30,363	-0,036	0,014
333,100	600,338	-0,107	-0,183
334,114	78,855	-0,183	-0,134
335,129	800,000	-0,084	-0,175
336,143	176,687	-0,202	-0,201
337,158	-31,667	-0,104	-0,040
338,173	-147,120	-0,185	0,011
339,187	61,953	-0,160	-0,109
340,202	43,241	-0,220	-0,137
341,216	10,021	-0,157	-0,081
342,231	-49,838	-0,159	-0,051
343,246	757,998	-0,099	-0,185
344,260	161,856	-0,166	-0,159
345,275	-200,000	-0,000	-0,057
346,289	-196,451	-0,226	-0,001
347,304	-200,000	-0,027	-0,085
348,319	265,004	-0,136	-0,162
349,333	315,619	-0,113	-0,147
350,348	-40,814	-0,255	-0,090
351,362	147,156	-0,120	0,111
352,377	-105,328	-0,213	-0,033
353,392	-200,000	0,001	-0,133
354,406	-40,763	-0,147	-0,052
355,421	207,259	1306,095	1394,480
356,435	159,433	1465,741	1394,965
