DTS Sentinel unit serial number:	SN410029Multiplexer serial number:	ORYXHardware model number:	OX2-SRSoftware version number:	ORYX F/W v4,00 Oryx Data Collector v3.7.2.0data status	okinstallation	B3 Nyhavnadifferential loss correction	single-endedforward channel	channel 1reverse channel	N/Adate	2023/11/30time	17:22:30forward acquisition time	300,00reverse acquisition time	0,00gamma	499,1914k internal	0,3203k external	0,3203temperature offset calibration	1,0000default loss term (dB/km)	0,3820temperature slope calibration	1,0000multiplexer offset coefficient	1,0000multiplexer slope coefficient	1,0000fibre end	0,00T internal ref (°C)	13,11T ext. ref 1 (°C)	-1,94T ext. ref 2 (°C)	-1,97length (m)	temperature (°C)	Stokes	anti-Stokes-744,400	28,422	-0,141	-0,087
-743,385	-200,000	0,073	0,329
-742,371	77,167	-0,164	-0,126
-741,356	-200,000	0,085	0,439
-740,342	519,758	-0,155	-0,266
-739,327	800,000	0,094	0,240
-738,312	73,613	-0,266	-0,202
-737,298	800,000	-0,095	0,291
-736,283	800,000	-0,140	-0,282
-735,269	800,000	-0,137	0,376
-734,254	-200,000	-0,090	-0,333
-733,239	394,775	-0,123	0,187
-732,225	64,175	-0,179	-0,131
-731,210	258,875	0,045	0,057
-730,196	370,471	0,037	-0,054
-729,181	-200,000	0,012	0,076
-728,167	57,117	-0,092	0,065
-727,152	-82,907	0,114	0,026
-726,137	270,842	-0,022	0,029
-725,123	-34,570	-0,123	-0,049
-724,108	-87,296	-0,050	0,011
-723,094	-47,945	-0,137	0,048
-722,079	-39,376	-0,102	-0,039
-721,064	93,549	0,042	-0,034
-720,050	-170,253	0,075	-0,002
-719,035	242,222	-0,057	-0,069
-718,021	156,513	0,122	-0,123
-717,006	-200,000	0,028	-0,139
-715,991	-200,000	0,030	-0,153
-714,977	-23,263	0,123	-0,054
-713,962	481,336	0,028	-0,047
-712,948	145,394	0,047	0,046
-711,933	64,038	-0,095	0,069
-710,918	-152,565	0,134	-0,007
-709,904	279,081	-0,092	-0,119
-708,889	-152,103	-0,207	0,011
-707,875	-1,899	-0,065	-0,033
-706,860	800,000	0,044	-0,102
-705,845	-60,121	0,122	-0,037
-704,831	12,137	-0,039	0,022
-703,816	-200,000	0,016	0,079
-702,802	163,513	0,086	0,088
-701,787	-44,717	-0,036	0,013
-700,772	44,418	0,089	-0,059
-699,758	-155,244	-0,171	0,008
-698,743	364,578	-0,047	0,069
-697,729	80,582	0,124	0,097
-696,714	300,562	0,010	0,014
-695,699	-42,326	0,071	-0,026
-694,685	35,967	-0,092	0,058
-693,670	76,421	-0,099	-0,076
-692,656	357,692	0,017	-0,025
-691,641	-200,000	-0,008	0,109
-690,627	800,000	0,028	0,075
-689,612	37,593	0,071	-0,045
-688,597	193,730	-0,045	-0,049
-687,583	-45,156	-0,103	0,037
-686,568	-200,000	0,007	-0,040
-685,554	-200,000	0,000	-0,036
-684,539	-33,043	0,097	0,039
-683,524	-51,638	0,090	-0,030
-682,510	-200,000	0,006	0,108
-681,495	-34,455	-0,108	0,043
-680,481	-126,921	-0,059	-0,006
-679,466	-200,000	-0,014	-0,115
-678,451	670,961	0,041	-0,078
-677,437	205,271	-0,040	-0,045
-676,422	190,903	0,133	0,146
-675,408	102,887	0,054	0,046
-674,393	-10,605	-0,077	-0,037
-673,378	-37,586	-0,072	-0,028
-672,364	-92,587	-0,192	0,039
-671,349	-104,015	-0,119	0,020
-670,335	279,165	0,057	-0,073
-669,320	-122,337	0,070	-0,008
-668,305	-200,000	-0,027	0,090
-667,291	800,000	0,066	-0,139
-666,276	-5,078	-0,045	-0,022
-665,262	-200,000	0,017	-0,178
-664,247	176,855	-0,128	-0,135
-663,232	247,694	-0,056	0,069
-662,218	800,000	-0,036	0,093
-661,203	-200,000	-0,004	0,043
-660,189	-79,578	-0,105	-0,025
-659,174	-200,000	0,002	-0,092
-658,159	800,000	-0,029	-0,087
-657,145	-140,648	-0,079	-0,006
-656,130	800,000	-0,034	-0,094
-655,116	155,183	0,054	-0,054
-654,101	133,473	-0,056	-0,053
-653,086	201,595	-0,043	-0,049
-652,072	16,504	0,109	-0,062
-651,057	-72,268	-0,167	0,044
-650,043	800,000	0,047	0,097
-649,028	-105,617	-0,120	-0,019
-648,014	39,778	0,134	-0,087
-646,999	91,106	-0,087	-0,070
-645,984	800,000	0,027	0,066
-644,970	-104,433	-0,135	-0,022
-643,955	-156,046	-0,056	-0,003
-642,941	100,336	-0,203	-0,171
-641,926	-200,000	0,001	-0,024
-640,911	282,314	0,146	0,189
-639,897	201,642	0,069	-0,077
-638,882	-200,000	0,011	-0,036
-637,868	-69,393	-0,021	0,006
-636,853	-200,000	0,013	-0,086
-635,838	-102,557	0,072	-0,012
-634,824	-167,021	-0,040	0,001
-633,809	131,505	0,076	0,071
-632,795	84,829	-0,043	0,034
-631,780	128,288	-0,074	0,068
-630,765	-200,000	0,015	-0,142
-629,751	-200,000	-0,002	0,034
-628,736	367,473	-0,061	-0,089
-627,722	-104,722	0,055	0,009
-626,707	175,557	-0,055	0,058
-625,692	125,470	0,109	-0,100
-624,678	-200,000	-0,012	0,085
-623,663	43,299	-0,067	0,044
-622,649	-200,000	0,000	-0,127
-621,634	458,685	-0,054	-0,088
-620,619	610,929	-0,029	0,052
-619,605	4,878	0,031	0,017
-618,590	-200,000	0,013	0,058
-617,576	-200,000	0,024	0,101
-616,561	69,614	0,079	0,058
-615,546	342,500	-0,074	-0,106
-614,532	138,900	-0,082	0,078
-613,517	-61,507	-0,034	0,010
-612,503	-200,000	-0,035	0,118
-611,488	100,558	-0,135	0,113
-610,474	74,691	0,124	0,094
-609,459	-134,136	0,125	0,011
-608,444	714,463	0,044	-0,085
-607,430	-200,000	-0,000	-0,120
-606,415	800,000	-0,093	-0,190
-605,401	800,000	0,019	0,059
-604,386	-200,000	-0,022	0,150
-603,371	-85,942	-0,086	0,019
-602,357	-104,586	0,080	0,013
-601,342	78,164	0,087	0,067
-600,328	-111,340	-0,168	-0,024
-599,313	-200,000	0,004	-0,091
-598,298	327,578	-0,077	0,107
-597,284	32,525	0,059	-0,037
-596,269	-69,566	0,086	0,024
-595,255	-165,553	0,061	0,002
-594,240	-200,000	0,004	0,048
-593,225	-101,872	-0,149	-0,026
-592,211	-200,000	-0,004	-0,038
-591,196	-81,873	0,169	0,040
-590,182	-200,000	0,008	-0,028
-589,167	106,718	-0,022	0,019
-588,152	-200,000	0,001	0,090
-587,138	41,865	-0,103	-0,067
-586,123	658,874	-0,076	-0,142
-585,109	119,218	0,035	0,031
-584,094	-44,507	-0,105	0,038
-583,079	277,379	-0,016	-0,021
-582,065	-102,265	0,100	-0,017
-581,050	-111,002	-0,043	-0,006
-580,036	-112,016	-0,090	-0,013
-579,021	-33,603	-0,095	0,038
-578,006	-67,984	-0,104	-0,029
-576,992	83,871	0,045	-0,035
-575,977	23,285	0,128	-0,076
-574,963	18,075	0,014	0,008
-573,948	205,708	-0,036	-0,040
-572,934	-93,516	-0,178	0,035
-571,919	-89,536	-0,083	0,017
-570,904	-71,210	-0,087	0,023
-569,890	-2,228	0,142	-0,072
-568,875	-200,000	-0,028	0,116
-567,861	-200,000	-0,000	0,128
-566,846	-196,855	0,129	-0,001
-565,831	493,547	0,023	-0,038
-564,817	36,974	0,049	0,031
-563,802	800,000	-0,023	-0,058
-562,788	160,729	-0,026	-0,026
-561,773	197,758	-0,039	0,043
-560,758	-200,000	-0,035	-0,161
-559,744	315,462	0,108	-0,147
-558,729	-36,991	0,133	-0,051
-557,715	147,558	-0,046	-0,045
-556,700	-52,058	0,020	-0,007
-555,685	-200,000	-0,016	-0,165
-554,671	25,658	-0,116	-0,069
-553,656	-200,000	0,026	-0,097
-552,642	-200,000	0,023	0,101
-551,627	158,107	-0,181	0,181
-550,612	-200,000	-0,002	-0,035
-549,598	506,793	-0,015	0,025
-548,583	-73,066	-0,018	-0,005
-547,569	-200,000	0,006	0,034
-546,554	-137,839	0,033	-0,003
-545,539	-200,000	0,004	0,167
-544,525	-200,000	-0,011	-0,054
-543,510	751,368	0,040	-0,078
-542,496	198,415	-0,124	-0,137
-541,481	281,653	-0,022	-0,029
-540,466	-5,740	-0,150	-0,074
-539,452	53,394	0,043	-0,030
-538,437	-133,682	-0,059	0,005
-537,423	-134,808	0,056	0,005
-536,408	-92,216	-0,028	0,006
-535,393	274,338	-0,071	-0,090
-534,379	127,680	0,094	-0,086
-533,364	-7,297	0,051	0,025
-532,350	-200,000	-0,016	0,063
-531,335	111,999	-0,039	-0,034
-530,321	184,917	-0,106	0,114
-529,306	228,967	-0,081	0,096
-528,291	161,057	-0,069	0,070
-527,277	-200,000	-0,004	0,092
-526,262	-200,000	-0,017	0,116
-525,248	330,653	0,029	-0,041
-524,233	522,246	-0,055	0,093
-523,218	-150,247	-0,125	-0,007
-522,204	800,000	-0,023	-0,059
-521,189	510,724	0,033	-0,056
-520,175	-80,800	-0,025	-0,006
-519,160	-107,994	0,048	-0,007
-518,145	-200,000	-0,001	-0,073
-517,131	483,644	-0,057	0,093
-516,116	800,000	-0,059	-0,118
-515,102	29,281	0,062	0,038
-514,087	-7,227	0,018	0,009
-513,072	800,000	-0,048	-0,137
-512,058	-200,000	0,037	-0,204
-511,043	-54,277	-0,083	0,027
-510,029	-200,000	0,024	0,125
-509,014	-200,000	-0,011	0,084
-507,999	15,840	0,060	0,034
-506,985	-200,000	-0,001	-0,108
-505,970	-2,466	-0,086	-0,043
-504,956	664,852	0,045	0,083
-503,941	-200,000	-0,015	-0,122
-502,926	-200,000	-0,009	0,041
-501,912	0,163	0,071	-0,036
-500,897	-75,860	0,039	-0,010
-499,883	6,848	-0,070	0,037
-498,868	800,000	-0,020	-0,056
-497,853	-200,000	-0,007	-0,076
-496,839	654,280	0,066	0,122
-495,824	520,092	-0,059	-0,099
-494,810	-91,867	0,229	0,046
-493,795	671,936	-0,057	-0,107
-492,781	-95,573	-0,113	-0,022
-491,766	800,000	0,036	-0,103
-490,751	-95,178	-0,113	-0,022
-489,737	34,958	0,072	0,046
-488,722	93,698	0,108	0,088
-487,708	-200,000	0,009	-0,065
-486,693	800,000	0,039	0,099
-485,678	74,011	-0,062	0,047
-484,664	-200,000	0,010	0,058
-483,649	181,980	0,028	-0,030
-482,635	-149,631	0,141	0,008
-481,620	246,338	-0,135	0,164
-480,605	338,476	-0,023	-0,032
-479,591	-200,000	0,004	-0,050
-478,576	-30,552	-0,038	0,015
-477,562	800,000	-0,043	0,100
-476,547	-200,000	0,002	0,038
-475,532	-32,388	0,088	-0,035
-474,518	341,491	0,098	-0,138
-473,503	212,667	-0,093	-0,106
-472,489	-200,000	-0,007	0,028
-471,474	-89,100	-0,050	-0,011
-470,459	8,809	-0,014	0,007
-469,445	63,890	-0,163	-0,117
-468,430	26,059	-0,094	0,056
-467,416	55,456	0,066	-0,046
-466,401	22,923	0,144	-0,085
-465,386	-200,000	0,028	0,097
-464,372	282,689	0,023	-0,030
-463,357	438,018	0,083	0,131
-462,343	368,795	-0,031	-0,045
-461,328	37,907	0,016	0,010
-460,313	-65,158	-0,093	-0,027
-459,299	-42,431	0,088	-0,032
-458,284	-137,546	-0,064	-0,005
-457,270	-33,657	0,063	0,025
-456,255	105,734	0,043	-0,036
-455,241	-123,720	-0,103	-0,012
-454,226	171,506	0,068	-0,070
-453,211	567,988	0,043	-0,076
-452,197	-200,000	0,005	-0,037
-451,182	-49,182	0,101	-0,034
-450,168	623,726	-0,082	-0,149
-449,153	-98,262	-0,100	0,018
-448,138	-59,528	-0,172	0,053
-447,124	75,264	-0,034	0,026
-446,109	-98,393	-0,062	0,011
-445,095	-7,839	0,137	0,066
-444,080	800,000	0,040	0,083
-443,065	-113,434	0,066	-0,009
-442,051	-200,000	0,003	0,111
-441,036	467,010	0,044	0,071
-440,022	-155,700	-0,097	0,004
-439,007	92,299	0,088	0,071
-437,992	30,769	0,124	0,076
-436,978	230,660	-0,016	-0,019
-435,963	-200,000	0,001	-0,063
-434,949	-103,737	0,076	-0,013
-433,934	389,363	-0,062	-0,093
-432,919	33,405	-0,075	0,047
-431,905	147,075	-0,064	-0,062
-430,890	134,194	-0,051	0,048
-429,876	378,559	0,064	0,094
-428,861	135,666	0,028	-0,026
-427,846	-61,198	-0,063	0,019
-426,832	511,047	-0,025	-0,042
-425,817	-200,000	0,008	0,075
-424,803	119,459	-0,112	0,099
-423,788	-177,743	0,068	0,001
-422,773	200,687	-0,109	-0,120
-421,759	513,078	-0,046	0,077
-420,744	11,146	0,181	0,099
-419,730	507,089	0,016	-0,026
-418,715	396,198	-0,065	-0,098
-417,701	97,119	-0,051	-0,042
-416,686	2,824	0,038	-0,020
-415,671	357,142	-0,043	-0,062
-414,657	143,825	0,080	0,077
-413,642	335,629	-0,031	0,043
-412,628	73,456	-0,060	0,045
-411,613	-80,367	-0,059	-0,014
-410,598	800,000	-0,044	-0,100
-409,584	203,993	0,142	-0,157
-408,569	77,278	0,075	0,057
-407,555	98,534	0,030	-0,025
-406,540	-200,000	-0,000	-0,049
-405,525	-200,000	0,000	0,027
-404,511	-83,188	-0,108	0,025
-403,496	238,982	-0,071	-0,084
-402,482	-143,592	0,133	0,009
-401,467	589,718	-0,029	0,052
-400,452	-74,151	0,100	0,026
-399,438	-199,218	-0,068	-0,000
-398,423	-200,000	0,012	-0,047
-397,409	-200,000	0,000	-0,071
-396,394	-71,161	-0,060	0,016
-395,379	340,840	0,064	0,089
-394,365	800,000	0,074	0,198
-393,350	-162,283	-0,070	0,002
-392,336	362,099	0,080	0,116
-391,321	-200,000	-0,004	0,029
-390,306	94,160	0,080	-0,065
-389,292	189,245	-0,048	-0,051
-388,277	-200,000	-0,001	-0,031
-387,263	53,920	-0,039	0,027
-386,248	16,628	0,128	0,072
-385,233	47,149	0,125	0,083
-384,219	-126,612	-0,062	-0,007
-383,204	108,973	0,060	0,052
-382,190	-95,566	-0,105	-0,020
-381,175	86,121	0,070	-0,055
-380,160	67,407	0,132	0,096
-379,146	800,000	0,026	0,057
-378,131	132,412	0,084	0,077
-377,117	-34,035	-0,102	0,040
-376,102	-200,000	0,005	-0,017
-375,088	800,000	-0,090	-0,227
-374,073	515,655	0,038	-0,064
-373,058	-200,000	0,013	0,050
-372,044	43,821	0,140	0,092
-371,029	-80,659	0,054	0,013
-370,015	225,592	0,074	-0,086
-369,000	800,000	0,021	-0,059
-367,985	-200,000	-0,002	0,143
-366,971	779,962	0,045	-0,089
-365,956	-200,000	0,021	-0,066
-364,942	-81,245	0,093	0,022
-363,927	-85,656	0,069	0,015
-362,912	135,854	-0,101	-0,094
-361,898	-200,000	0,017	-0,214
-360,883	170,723	0,064	0,066
-359,869	-200,000	0,010	-0,113
-358,854	-200,000	-0,014	-0,097
-357,839	0,927	-0,088	0,045
-356,825	85,690	0,044	-0,034
-355,810	-27,663	-0,154	-0,064
-354,796	-152,915	-0,221	0,011
-353,781	173,339	0,052	-0,054
-352,766	144,767	0,054	-0,052
-351,752	-129,151	-0,066	0,007
-350,737	689,403	-0,060	0,112
-349,723	-94,282	0,152	0,030
-348,708	-118,978	0,083	-0,010
-347,693	-55,140	-0,059	0,019
-346,679	800,000	-0,068	0,187
-345,664	-17,043	-0,030	-0,013
-344,650	-132,342	0,052	0,005
-343,635	130,555	0,071	0,065
-342,620	116,356	-0,053	-0,047
-341,606	800,000	-0,014	-0,029
-340,591	-200,000	-0,032	-0,117
-339,577	-71,842	-0,099	-0,026
-338,562	-200,000	-0,001	0,051
-337,548	-200,000	-0,031	-0,133
-336,533	174,123	0,027	-0,028
-335,518	800,000	-0,081	0,211
-334,504	-16,085	0,107	-0,048
-333,489	-171,527	0,086	0,002
-332,475	574,094	-0,036	0,064
-331,460	96,862	0,116	0,095
-330,445	-200,000	-0,008	0,028
-329,431	800,000	-0,021	0,057
-328,416	800,000	-0,017	0,047
-327,402	57,470	0,102	0,071
-326,387	800,000	-0,063	0,163
-325,372	30,897	0,076	-0,047
-324,358	97,803	0,058	0,048
-323,343	-200,000	-0,015	0,087
-322,329	-200,000	0,002	-0,086
-321,314	72,575	0,093	0,069
-320,299	-84,347	0,133	-0,030
-319,285	800,000	0,016	-0,039
-318,270	-144,774	-0,138	0,009
-317,256	126,419	0,137	0,124
-316,241	-61,959	-0,062	-0,019
-315,226	-13,022	0,176	0,082
-314,212	24,343	0,129	0,076
-313,197	39,979	0,067	0,043
-312,183	-156,602	-0,048	-0,002
-311,168	-22,750	0,168	-0,072
-310,153	21,359	-0,031	0,018
-309,139	105,558	0,117	-0,098
-308,124	343,407	0,014	0,020
-307,110	-200,000	-0,019	0,089
-306,095	267,256	-0,039	-0,049
-305,080	485,854	-0,079	0,129
-304,066	-76,866	0,152	-0,038
-303,051	-200,000	-0,010	-0,128
-302,037	581,258	-0,056	0,099
-301,022	-200,000	0,013	0,120
-300,008	243,158	0,049	0,058
-298,993	-200,000	-0,010	0,250
-297,978	435,544	0,046	0,071
-296,964	-27,688	0,129	-0,053
-295,949	251,210	0,049	0,059
-294,935	553,850	-0,053	-0,091
-293,920	-11,193	-0,060	-0,028
-292,905	800,000	0,042	-0,122
-291,891	142,442	0,040	0,038
-290,876	-57,699	0,109	-0,034
-289,862	-123,999	-0,009	-0,001
-288,847	-155,450	-0,046	0,002
-287,832	-57,944	-0,048	-0,015
-286,818	-200,000	0,047	-0,160
-285,803	-200,000	0,011	-0,045
-284,789	36,085	-0,073	-0,046
-283,774	167,907	-0,056	0,057
-282,759	-200,000	0,021	-0,172
-281,745	40,818	-0,038	-0,024
-280,730	-120,436	0,120	0,014
-279,716	24,140	0,124	-0,073
-278,701	477,575	0,046	-0,075
-277,686	-186,254	0,186	-0,002
-276,672	-132,070	-0,080	0,007
-275,657	8,672	-0,122	-0,066
-274,643	100,120	-0,138	-0,114
-273,628	497,979	-0,038	-0,063
-272,613	60,075	-0,034	-0,024
-271,599	800,000	-0,012	0,030
-270,584	252,626	0,019	0,023
-269,570	-26,898	0,156	0,065
-268,555	56,108	0,022	0,016
-267,540	-86,200	-0,047	-0,010
-266,526	-200,000	0,014	0,066
-265,511	800,000	-0,042	-0,095
-264,497	25,253	0,096	-0,057
-263,482	2,013	0,084	0,043
-262,467	173,269	0,052	0,053
-261,453	398,989	-0,039	0,059
-260,438	-200,000	-0,006	-0,021
-259,424	-200,000	0,019	-0,061
-258,409	-200,000	-0,033	-0,181
-257,395	-200,000	0,019	-0,083
-256,380	-200,000	-0,012	0,046
-255,365	-94,472	0,074	-0,014
-254,351	-200,000	-0,024	0,139
-253,336	631,599	-0,046	0,083
-252,322	800,000	-0,021	-0,057
-251,307	800,000	0,025	-0,079
-250,292	69,528	0,063	-0,046
-249,278	-114,062	0,125	0,017
-248,263	209,082	-0,008	-0,009
-247,249	800,000	-0,072	0,176
-246,234	8,452	-0,076	-0,040
-245,219	-144,775	-0,078	0,005
-244,205	24,263	-0,058	0,034
-243,190	-200,000	-0,008	-0,111
-242,176	-0,899	-0,027	-0,014
-241,161	-200,000	0,006	0,058
-240,146	-34,741	0,069	-0,027
-239,132	800,000	0,032	0,078
-238,117	800,000	-0,023	0,049
-237,103	-200,000	0,022	-0,170
-236,088	-200,000	-0,007	-0,052
-235,073	136,758	0,145	0,135
-234,059	289,781	0,026	0,033
-233,044	-200,000	-0,021	0,101
-232,030	-109,992	-0,090	0,013
-231,015	320,932	-0,066	-0,090
-230,000	-93,215	0,091	0,018
-228,986	151,020	-0,019	0,019
-227,971	800,000	-0,053	0,130
-226,957	-200,000	-0,005	-0,029
-225,942	-200,000	0,009	-0,067
-224,927	251,189	-0,047	-0,057
-223,913	19,811	-0,104	0,060
-222,898	174,385	-0,050	-0,052
-221,884	-90,372	-0,144	0,030
-220,869	-100,468	-0,050	-0,009
-219,855	-200,000	0,011	-0,054
-218,840	96,441	0,115	0,094
-217,825	78,289	0,021	-0,016
-216,811	477,937	0,019	-0,031
-215,796	161,191	-0,107	-0,106
-214,782	41,710	0,080	0,052
-213,767	395,921	0,048	0,072
-212,752	109,110	0,140	0,120
-211,738	-27,584	-0,087	0,036
-210,723	-69,347	-0,088	0,024
-209,709	29,706	0,090	0,054
-208,694	-200,000	0,025	0,100
-207,679	-82,530	0,021	-0,005
-206,665	380,611	0,030	-0,044
-205,650	42,456	-0,008	0,005
-204,636	-200,000	0,028	0,123
-203,621	-89,554	-0,205	0,042
-202,606	68,285	-0,038	-0,028
-201,592	453,229	-0,050	-0,079
-200,577	-200,000	0,028	0,159
-199,563	-109,250	-0,063	-0,009
-198,548	800,000	0,006	-0,015
-197,533	-200,000	0,022	0,143
-196,519	-200,000	-0,012	-0,151
-195,504	800,000	-0,054	-0,121
-194,490	104,723	-0,046	0,038
-193,475	-200,000	0,014	-0,198
-192,460	316,500	0,042	-0,056
-191,446	-200,000	-0,012	0,093
-190,431	168,315	0,020	-0,020
-189,417	800,000	-0,021	0,045
-188,402	387,364	-0,015	-0,022
-187,387	800,000	-0,048	-0,149
-186,373	39,193	-0,164	-0,104
-185,358	-58,370	-0,050	-0,015
-184,344	-15,113	0,019	0,009
-183,329	-200,000	0,001	0,033
-182,315	-67,823	-0,017	0,005
-181,300	0,751	-0,092	-0,047
-180,285	31,913	-0,056	0,034
-179,271	-99,504	-0,142	0,025
-178,256	-32,029	0,023	0,009
-177,242	800,000	0,018	0,047
-176,227	-28,437	0,157	-0,064
-175,212	-83,164	0,049	0,011
-174,198	-36,618	-0,050	0,019
-173,183	750,731	-0,005	-0,010
-172,169	-13,206	0,032	-0,015
-171,154	56,615	-0,087	0,060
-170,139	800,000	0,016	-0,038
-169,125	-200,000	0,028	0,104
-168,110	-30,217	0,130	0,052
-167,096	800,000	-0,047	0,107
-166,081	-140,840	0,073	0,005
-165,066	-32,786	-0,027	-0,011
-164,052	327,438	0,031	-0,043
-163,037	74,086	0,056	0,042
-162,023	-84,572	0,213	-0,047
-161,008	182,741	-0,090	-0,094
-159,993	201,788	-0,040	0,044
-158,979	-120,958	-0,053	0,006
-157,964	444,389	-0,089	-0,140
-156,950	657,671	-0,037	0,069
-155,935	800,000	0,011	0,035
-154,920	-200,000	0,004	0,093
-153,906	-59,893	0,216	0,065
-152,891	-200,000	-0,031	0,120
-151,877	-136,880	-0,053	0,004
-150,862	-62,603	0,043	0,012
-149,847	295,457	0,083	0,108
-148,833	435,980	-0,056	0,087
-147,818	-81,310	0,117	0,027
-146,804	232,370	-0,059	-0,069
-145,789	800,000	-0,008	-0,017
-144,775	-142,262	-0,085	0,006
-143,760	153,323	0,086	0,084
-142,745	-10,455	-0,075	-0,035
-141,731	-3,665	-0,083	0,041
-140,716	-200,000	0,001	-0,040
-139,702	25,287	0,234	0,138
-138,687	-200,000	-0,022	0,125
-137,672	-54,665	-0,038	0,012
-136,658	-200,000	-0,001	-0,179
-135,643	18,814	-0,153	-0,087
-134,629	-88,241	0,087	0,018
-133,614	-200,000	-0,013	0,075
-132,599	-200,000	-0,004	0,093
-131,585	40,454	-0,100	0,064
-130,570	-200,000	-0,025	0,094
-129,556	402,271	-0,066	-0,098
-128,541	426,703	-0,052	-0,079
-127,526	-27,373	-0,008	0,003
-126,512	-200,000	-0,025	0,086
-125,497	-171,857	0,140	-0,003
-124,483	-200,000	-0,007	0,068
-123,468	-90,005	0,140	0,029
-122,453	-200,000	-0,011	0,069
-121,439	51,475	0,014	-0,009
-120,424	-85,405	0,077	-0,017
-119,410	800,000	0,050	0,139
-118,395	800,000	0,050	0,105
-117,380	338,807	-0,033	0,046
-116,366	-17,722	-0,068	0,030
-115,351	-130,858	0,055	-0,005
-114,337	731,460	-0,024	-0,046
-113,322	800,000	-0,027	0,059
-112,307	-200,000	0,024	0,080
-111,293	84,281	0,123	0,095
-110,278	-200,000	-0,005	-0,036
-109,264	-200,000	-0,015	-0,232
-108,249	289,677	0,004	0,005
-107,234	-200,000	-0,002	-0,142
-106,220	-134,153	-0,113	0,010
-105,205	-200,000	0,003	0,040
-104,191	-4,942	0,099	-0,048
-103,176	-132,313	0,181	0,016
-102,162	100,803	0,053	0,043
-101,147	143,332	-0,020	0,019
-100,132	70,972	0,073	0,054
-99,118	-149,841	-0,090	0,005
-98,103	18,291	-0,091	0,051
-97,089	-48,182	0,080	0,027
-96,074	-200,000	-0,052	0,211
-95,059	-164,843	0,065	0,002
-94,045	-172,136	0,104	0,002
-93,030	-200,000	0,067	-0,000
-92,016	-200,000	0,022	-0,129
-91,001	142,234	0,093	-0,088
-89,986	-171,499	-0,045	0,001
-88,972	407,526	0,095	0,142
-87,957	-200,000	-0,003	0,079
-86,943	-83,995	0,035	-0,008
-85,928	-102,354	0,132	-0,022
-84,913	-20,756	-0,070	-0,030
-83,899	114,497	-0,090	-0,077
-82,884	302,180	-0,087	0,114
-81,870	800,000	-0,054	0,158
-80,855	-200,000	0,018	-0,111
-79,840	92,067	0,018	0,014
-78,826	-200,000	0,002	-0,010
-77,811	-115,560	0,080	-0,011
-76,797	51,854	0,042	-0,029
-75,782	-149,518	0,144	0,008
-74,767	-200,000	0,002	0,066
-73,753	363,294	-0,131	0,187
-72,738	800,000	0,028	-0,086
-71,724	-119,319	0,070	-0,009
-70,709	175,190	-0,092	0,094
-69,694	-200,000	0,029	-0,118
-68,680	199,471	-0,074	-0,080
-67,665	75,734	0,125	-0,093
-66,651	126,198	0,104	-0,093
-65,636	-200,000	-0,014	0,182
-64,622	-92,212	-0,084	0,017
-63,607	800,000	0,053	-0,138
-62,592	421,777	0,051	-0,078
-61,578	800,000	-0,015	0,046
-60,563	242,580	-0,009	-0,010
-59,549	-200,000	-0,054	0,211
-58,534	-41,755	-1,777	-0,642
-57,519	369,036	-1,378	-1,978
-56,505	-200,000	-0,424	-4,427
-55,490	228,724	1,007	1,163
-54,476	800,000	5,059	11,277
-53,461	-200,000	19,298	324,239
-52,446	-200,000	740,198	2336,636
-51,432	573,033	1651,816	2859,865
-50,417	77,928	1666,658	1255,749
-49,403	21,092	1540,065	881,654
-48,388	14,983	1462,370	807,564
-47,373	18,275	1452,742	818,073
-46,359	16,825	1442,536	805,363
-45,344	13,267	1437,972	785,800
-44,330	13,152	1436,163	784,228
-43,315	13,147	1434,272	783,141
-42,300	13,184	1432,706	782,432
-41,286	13,208	1431,337	781,768
-40,271	13,138	1430,173	780,768
-39,257	13,139	1428,970	780,086
-38,242	13,197	1427,694	779,633
-37,227	13,205	1426,270	778,860
-36,213	13,239	1425,037	778,317
-35,198	13,193	1423,807	777,398
-34,184	13,242	1423,101	777,214
-33,169	13,169	1421,861	776,160
-32,154	13,220	1420,614	775,689
-31,140	13,263	1419,396	775,196
-30,125	13,250	1418,158	774,427
-29,111	13,244	1417,091	773,785
-28,096	13,197	1416,106	772,999
-27,082	13,116	1415,131	772,052
-26,067	13,125	1413,909	771,397
-25,052	13,123	1412,819	770,764
-24,038	13,095	1411,997	770,156
-23,023	13,162	1410,806	769,787
-22,009	13,146	1409,895	769,184
-20,994	13,086	1409,100	768,438
-19,979	13,082	1408,196	767,896
-18,965	13,107	1407,036	767,351
-17,950	13,079	1406,358	766,819
-16,936	13,086	1405,432	766,315
-15,921	13,070	1404,129	765,503
-14,906	13,002	1403,397	764,753
-13,892	13,063	1402,327	764,426
-12,877	13,054	1401,443	763,871
-11,863	13,071	1400,509	763,410
-10,848	13,059	1399,674	762,873
-9,833	13,038	1398,996	762,373
-8,819	12,968	1398,094	761,525
-7,804	12,938	1397,124	760,826
-6,790	12,999	1395,993	760,464
-5,775	12,949	1395,034	759,683
-4,760	12,957	1394,036	759,143
-3,746	12,948	1393,152	758,592
-2,731	12,956	1392,430	758,206
-1,717	12,905	1391,535	757,452
-0,702	12,895	1389,725	756,390
0,313	16,859	1306,281	729,237
1,327	33,244	700,987	429,024
2,342	51,482	122,571	82,200
3,356	0,673	16,613	8,375
4,371	8,307	3,317	1,757
5,386	-31,786	0,495	0,195
6,400	-200,000	0,003	0,205
7,415	36,327	-0,244	-0,152
8,429	20,592	-0,309	-0,176
9,444	84,173	-0,374	-0,289
10,459	43,272	-0,325	-0,209
11,473	-28,324	-0,207	-0,084
12,488	112,008	-0,258	-0,220
13,502	-2,855	-0,389	-0,191
14,517	141,204	-0,256	-0,239
15,531	86,050	-0,317	-0,246
16,546	-37,722	-0,259	-0,097
17,561	57,247	-0,388	-0,267
18,575	-11,720	-0,204	-0,094
19,590	-37,559	-0,324	-0,121
20,604	-35,646	-0,380	-0,145
21,619	119,265	-0,421	-0,368
22,634	140,531	-0,453	-0,422
23,648	130,191	-0,437	-0,395
24,663	164,325	-0,367	-0,365
25,677	220,448	-0,270	-0,306
26,692	96,302	-0,327	-0,264
27,707	138,612	-0,302	-0,280
28,721	53,175	-0,416	-0,281
29,736	102,716	-0,356	-0,294
30,750	106,001	-0,374	-0,312
31,765	31,359	-0,392	-0,237
32,780	52,526	-0,296	-0,199
33,794	-49,357	-0,280	-0,094
34,809	4,313	-0,415	-0,214
35,823	-64,193	-0,414	-0,118
36,838	58,940	-0,305	-0,211
37,853	58,627	-0,274	-0,189
38,867	120,075	-0,293	-0,256
39,882	55,490	-0,396	-0,270
40,896	-136,878	-0,361	-0,029
41,911	162,771	-0,268	-0,266
42,926	52,629	-0,327	-0,220
43,940	66,916	-0,514	-0,368
44,955	99,933	-0,368	-0,300
45,969	-8,060	-0,404	-0,191
46,984	-15,083	-0,388	-0,174
47,999	54,271	-0,408	-0,276
49,013	-87,452	-0,369	-0,078
50,028	109,834	-0,273	-0,231
51,042	187,990	-0,284	-0,299
52,057	340,160	-0,190	-0,261
53,071	67,387	-0,317	-0,227
54,086	-9,531	-0,335	-0,157
55,101	-31,154	-0,245	-0,097
56,115	16,143	-0,316	-0,175
57,130	96,956	-0,291	-0,234
58,144	96,741	-0,368	-0,296
59,159	-21,647	-0,437	-0,186
60,174	-33,519	-0,413	-0,160
61,188	153,521	-0,357	-0,344
62,203	-22,810	-0,378	-0,160
63,217	19,221	-0,241	-0,136
64,232	76,572	-0,212	-0,158
65,247	106,882	-0,329	-0,275
66,261	-54,998	-0,270	-0,085
67,276	105,150	-0,335	-0,277
68,290	-108,454	-0,321	-0,048
69,305	-16,612	-0,395	-0,175
70,320	69,573	-0,316	-0,228
71,334	-38,926	-0,215	-0,079
72,349	-145,131	-0,212	0,013
73,363	31,595	-0,424	-0,256
74,378	43,380	-0,404	-0,259
75,393	314,909	-0,257	-0,342
76,407	38,979	-0,285	-0,178
77,422	86,412	-0,163	-0,126
78,436	1,950	-0,268	-0,135
79,451	-21,970	-0,205	-0,087
80,466	68,561	-0,333	-0,239
81,480	58,891	-0,271	-0,187
82,495	86,023	-0,311	-0,240
83,509	457,091	-0,220	-0,344
84,524	-122,379	-0,333	-0,038
85,539	76,096	-0,152	-0,113
86,553	267,354	-0,102	-0,126
87,568	32,179	-0,298	-0,180
88,582	33,225	-0,137	-0,083
89,597	119,738	-0,306	-0,266
90,611	-2,178	-0,253	-0,124
91,626	-114,289	-0,332	-0,044
92,641	81,375	-0,313	-0,237
93,655	125,138	-0,242	-0,214
94,670	68,316	-0,229	-0,165
95,684	379,728	-0,100	-0,145
96,699	77,693	-0,252	-0,188
97,714	239,748	-0,242	-0,283
98,728	-33,384	-0,213	-0,082
99,743	-77,398	-0,313	-0,076
100,757	231,509	-0,219	-0,252
101,772	72,287	-0,334	-0,244
102,787	27,512	-0,300	-0,176
103,801	265,887	-0,247	-0,302
104,816	-83,992	-0,402	-0,089
105,830	30,008	-0,312	-0,186
106,845	30,095	-0,356	-0,212
107,860	13,594	-0,394	-0,213
108,874	-127,864	-0,354	-0,035
109,889	287,510	-0,248	-0,315
110,903	165,306	-0,169	-0,167
111,918	292,819	-0,143	-0,183
112,933	-89,072	-0,289	-0,059
113,947	257,020	-0,224	-0,270
114,962	357,496	-0,239	-0,335
115,976	718,397	-0,174	-0,325
116,991	-118,257	-0,219	-0,027
118,006	30,452	-0,422	-0,252
119,020	197,802	-0,181	-0,194
120,035	75,124	-0,232	-0,171
121,049	-95,853	-0,323	-0,060
122,064	83,517	-0,245	-0,187
123,079	-25,028	-0,256	-0,106
124,093	-27,210	-0,303	-0,123
125,108	237,261	-0,227	-0,264
126,122	52,578	-0,379	-0,252
127,137	55,305	-0,215	-0,145
128,151	499,578	-0,086	-0,139
129,166	-46,383	-0,245	-0,084
130,181	69,154	-0,262	-0,188
131,195	-153,885	-0,298	-0,014
132,210	93,815	-0,252	-0,200
133,224	257,134	-0,228	-0,274
134,239	763,909	-0,109	-0,209
135,254	-126,309	-0,126	0,013
136,268	196,632	-0,198	-0,211
137,283	35,613	-0,227	-0,139
138,297	232,502	-0,287	-0,330
139,312	-24,375	-0,326	-0,135
140,327	88,006	-0,290	-0,225
141,341	118,020	-0,193	-0,166
142,356	104,385	-0,277	-0,228
143,370	-76,909	-0,238	-0,058
144,385	50,986	-0,274	-0,181
145,400	-3,691	-0,301	-0,146
146,414	491,862	-0,204	-0,328
147,429	63,881	-0,273	-0,191
148,443	139,473	-0,147	-0,135
149,458	185,634	-0,070	-0,073
150,473	-11,862	-0,088	0,040
151,487	11,981	-0,265	-0,142
152,502	-175,053	-0,373	0,007
153,516	-20,538	-0,353	-0,151
154,531	41,879	-0,220	-0,139
155,546	6,044	-0,280	-0,144
156,560	238,857	-0,284	-0,329
157,575	721,891	-0,180	-0,335
158,589	56,887	-0,269	-0,182
159,604	2,695	-0,286	-0,144
160,619	194,949	-0,270	-0,286
161,633	50,895	-0,309	-0,204
162,648	42,986	-0,263	-0,167
163,662	211,639	-0,237	-0,260
164,677	46,704	-0,237	-0,153
165,692	116,744	-0,239	-0,204
166,706	323,461	-0,184	-0,246
167,721	63,334	-0,183	-0,128
168,735	7,670	-0,336	-0,175
169,750	163,735	-0,102	-0,100
170,764	-37,585	-0,185	-0,068
171,779	22,937	-0,186	0,106
172,794	92,828	-0,177	-0,139
173,808	113,276	-0,245	-0,207
174,823	329,469	-0,190	-0,255
175,837	-82,830	-0,238	-0,053
176,852	120,146	-0,205	-0,177
177,867	-120,367	-0,225	-0,026
178,881	100,820	-0,140	-0,113
179,896	61,984	-0,289	-0,200
180,910	-40,155	-0,321	-0,116
181,925	182,519	-0,123	-0,127
182,940	-80,322	-0,242	-0,056
183,954	-11,836	-0,230	-0,104
184,969	427,401	-0,152	-0,229
185,983	196,080	-0,177	-0,188
186,998	395,304	-0,104	-0,151
188,013	171,495	-0,167	-0,167
189,027	246,976	-0,151	-0,177
190,042	-71,178	-0,246	-0,064
191,056	-44,810	-0,241	-0,083
192,071	226,662	-0,180	-0,203
193,086	353,722	-0,109	-0,151
194,100	47,631	-0,141	-0,091
195,115	59,150	-0,239	-0,163
196,129	-59,657	-0,183	-0,054
197,144	511,894	-0,144	-0,234
198,159	143,594	-0,235	-0,218
199,173	143,985	-0,154	-0,143
200,188	-124,844	-0,136	-0,014
201,202	-18,290	-0,259	-0,112
202,217	-59,658	-0,183	-0,054
203,232	264,466	-0,174	-0,211
204,246	-101,000	-0,237	-0,040
205,261	96,935	-0,193	-0,153
206,275	129,368	-0,140	-0,124
207,290	213,723	-0,182	-0,200
208,304	-18,420	-0,257	-0,111
209,319	66,202	-0,201	-0,142
210,334	-0,904	-0,310	-0,152
211,348	96,566	-0,185	-0,147
212,363	-135,042	-0,184	-0,015
213,377	10,139	-0,159	-0,084
214,392	176,500	-0,132	-0,134
215,407	26,152	-0,162	-0,094
216,421	-9,948	-0,123	-0,056
217,436	-99,563	-0,300	-0,052
218,450	390,943	-0,162	-0,234
219,465	349,436	-0,119	-0,163
220,480	130,608	-0,157	-0,140
221,494	506,298	-0,075	-0,121
222,509	-43,821	-0,166	-0,058
223,523	-66,303	-0,167	0,046
224,538	87,161	-0,222	-0,170
225,553	800,000	-0,111	-0,215
226,567	97,919	-0,137	-0,109
227,582	197,374	-0,274	-0,291
228,596	71,518	-0,274	-0,197
229,611	170,827	-0,171	-0,170
230,626	-159,065	-0,094	-0,004
231,640	108,912	-0,253	-0,209
232,655	345,870	-0,183	-0,250
233,669	117,770	-0,210	-0,179
234,684	106,672	-0,116	-0,095
235,699	225,343	-0,068	-0,076
236,713	-200,000	-0,017	0,055
237,728	-122,343	-0,158	0,018
238,742	337,662	-0,152	-0,205
239,757	-200,000	-0,061	-0,242
240,772	126,985	-0,170	-0,149
241,786	91,094	-0,199	-0,155
242,801	45,653	-0,175	-0,112
243,815	-37,228	-0,230	-0,085
244,830	-48,719	-0,091	-0,030
245,844	43,140	-0,161	-0,102
246,859	-54,552	-0,266	-0,083
247,874	277,116	-0,188	-0,232
248,888	275,327	-0,120	-0,147
249,903	13,750	-0,181	-0,097
250,917	53,549	-0,130	-0,086
251,932	140,192	-0,198	-0,180
252,947	14,869	-0,093	-0,050
253,961	800,000	-0,091	-0,176
254,976	259,379	-0,135	-0,162
255,990	-13,251	-0,187	-0,084
257,005	-33,952	-0,103	-0,039
258,020	800,000	-0,065	-0,159
259,034	-20,208	-0,151	-0,064
260,049	-154,473	-0,055	-0,003
261,063	94,350	-0,158	-0,124
262,078	73,756	-0,195	-0,141
263,093	31,483	-0,307	-0,182
264,107	205,905	-0,174	-0,187
265,122	-14,172	-0,181	-0,080
266,136	303,396	-0,129	-0,166
267,151	-200,000	-0,027	-0,186
268,166	146,637	-0,242	-0,224
269,180	427,550	-0,189	-0,283
270,195	239,197	-0,127	-0,146
271,209	161,833	-0,159	-0,154
272,224	134,435	-0,156	-0,140
273,239	-123,127	-0,146	0,016
274,253	-29,548	-0,215	-0,084
275,268	30,355	-0,132	-0,078
276,282	68,727	-0,220	-0,156
277,297	-71,104	-0,175	-0,045
278,312	-62,233	-0,109	0,031
279,326	700,099	-0,070	-0,128
280,341	682,731	-0,112	-0,202
281,355	-130,500	-0,198	-0,018
282,370	210,020	-0,185	-0,201
283,384	-200,000	-0,024	-0,191
284,399	-46,103	-0,300	-0,101
285,414	129,542	-0,105	-0,092
286,428	295,775	-0,078	-0,099
287,443	-151,961	-0,106	-0,005
288,457	-200,000	-0,036	-0,163
289,472	-126,452	-0,132	0,013
290,487	82,313	-0,137	-0,102
291,501	228,802	-0,200	-0,225
292,516	-200,000	-0,052	-0,229
293,530	-200,000	-0,004	-0,081
294,545	-200,000	-0,033	-0,161
295,560	-191,477	-0,088	-0,001
296,574	157,437	-0,125	-0,119
297,589	231,541	-0,125	-0,142
298,603	460,417	-0,160	-0,247
299,618	-72,410	-0,084	-0,021
300,633	96,939	-0,192	-0,152
301,647	800,000	-0,063	-0,153
302,662	482,228	-0,040	-0,063
303,676	-80,386	-0,109	0,025
304,691	-200,000	-0,060	-0,187
305,706	200,144	-0,167	-0,177
306,720	142,885	-0,152	-0,140
307,735	-157,819	-0,047	0,002
308,749	-140,366	-0,094	-0,007
309,764	415,371	-0,019	-0,028
310,779	50,608	-0,163	-0,106
311,793	455,982	-0,109	-0,167
312,808	-10,483	-0,128	-0,058
313,822	-99,307	-0,201	-0,035
314,837	320,940	-0,212	-0,277
315,852	-66,490	-0,113	0,031
316,866	662,905	-0,065	-0,115
317,881	-136,939	-0,108	-0,008
318,895	-135,431	-0,141	-0,011
319,910	184,406	-0,155	-0,158
320,925	618,900	-0,088	-0,152
321,939	63,729	-0,104	-0,072
322,954	281,837	-0,075	-0,092
323,968	547,983	-0,046	-0,076
324,983	-200,000	-0,061	-0,204
325,997	28,771	-0,125	0,073
327,012	384,833	-0,165	-0,235
328,027	129,216	-0,155	-0,136
329,041	-73,082	-0,180	-0,045
330,056	-35,598	-0,074	-0,028
331,070	-81,213	-0,029	-0,007
332,085	-70,978	-0,050	-0,013
333,100	-200,000	0,012	-0,097
334,114	-33,060	-0,207	-0,079
335,129	-12,180	-0,255	-0,114
336,143	118,426	-0,123	-0,104
337,158	128,317	-0,154	-0,134
338,173	-200,000	-0,012	-0,144
339,187	112,712	-0,186	-0,154
340,202	-6,275	-0,211	-0,098
341,216	24,664	-0,146	-0,083
342,231	8,295	-0,115	-0,059
343,246	415,423	-0,128	-0,188
344,260	285,134	-0,085	-0,105
345,275	61,127	-0,085	0,058
346,289	408,463	-0,063	-0,091
347,304	139,740	-0,129	-0,116
348,319	306,993	-0,070	-0,090
349,333	126,802	-0,147	-0,128
350,348	90,738	-0,121	-0,093
351,362	106,672	-0,105	-0,085
352,377	194,763	0,025	-0,027
353,392	75,676	-0,034	-0,025
354,406	-137,091	-0,041	0,003
355,421	206,370	1311,138	1400,732
356,435	158,717	1471,414	1401,251
