DTS Sentinel unit serial number:	SN410029Multiplexer serial number:	ORYXHardware model number:	OX2-SRSoftware version number:	ORYX F/W v4,00 Oryx Data Collector v3.7.2.0data status	okinstallation	B3 Nyhavnadifferential loss correction	single-endedforward channel	channel 1reverse channel	N/Adate	2023/12/03time	08:52:30forward acquisition time	300,00reverse acquisition time	0,00gamma	499,1914k internal	0,3201k external	0,3201temperature offset calibration	1,0000default loss term (dB/km)	0,3820temperature slope calibration	1,0000multiplexer offset coefficient	1,0000multiplexer slope coefficient	1,0000fibre end	0,00T internal ref (°C)	13,34T ext. ref 1 (°C)	-1,63T ext. ref 2 (°C)	-1,65length (m)	temperature (°C)	Stokes	anti-Stokes-744,400	393,663	-0,214	-0,324
-743,385	-200,000	0,032	0,287
-742,371	481,432	-0,149	-0,246
-741,356	-200,000	0,022	0,213
-740,342	94,864	-0,194	-0,160
-739,327	800,000	-0,116	0,236
-738,312	156,295	-0,250	-0,251
-737,298	284,038	-0,177	0,232
-736,283	-200,000	-0,051	-0,179
-735,269	-200,000	-0,042	0,343
-734,254	35,519	-0,125	-0,080
-733,239	-138,964	-0,255	0,020
-732,225	-200,000	-0,031	-0,170
-731,210	-200,000	-0,024	0,090
-730,196	255,145	-0,041	0,052
-729,181	186,872	0,081	-0,088
-728,167	-135,555	0,101	-0,009
-727,152	-200,000	0,009	0,156
-726,137	800,000	0,046	-0,108
-725,123	-4,702	-0,172	-0,086
-724,108	-19,279	-0,109	0,049
-723,094	-200,000	0,029	-0,112
-722,079	637,267	0,037	-0,068
-721,064	-56,641	-0,067	-0,021
-720,050	779,653	0,016	-0,031
-719,035	-78,907	-0,003	-0,001
-718,021	-200,000	-0,007	0,050
-717,006	-120,729	-0,157	0,019
-715,991	-133,535	-0,125	-0,011
-714,977	-69,209	-0,085	-0,024
-713,962	-62,362	-0,045	-0,014
-712,948	-51,746	-0,077	0,026
-711,933	-101,585	-0,040	0,007
-710,918	-200,000	0,012	-0,104
-709,904	352,023	-0,138	-0,200
-708,889	481,151	-0,025	-0,042
-707,875	-200,000	0,007	-0,124
-706,860	-14,369	0,050	-0,023
-705,845	-200,000	-0,011	0,110
-704,831	326,487	-0,066	0,092
-703,816	90,711	-0,092	-0,075
-702,802	-200,000	0,015	-0,105
-701,787	-200,000	0,002	-0,126
-700,772	42,932	-0,060	-0,039
-699,758	-74,444	0,177	0,046
-698,743	392,821	-0,004	0,006
-697,729	128,421	-0,087	0,080
-696,714	202,670	0,089	-0,100
-695,699	200,617	0,105	0,117
-694,685	211,214	-0,074	-0,084
-693,670	30,872	-0,076	-0,047
-692,656	-140,695	-0,078	-0,006
-691,641	-61,399	0,018	-0,005
-690,627	800,000	-0,006	0,015
-689,612	-31,098	0,087	-0,036
-688,597	-200,000	-0,006	-0,112
-687,583	-40,530	0,091	-0,034
-686,568	-200,000	-0,009	-0,103
-685,554	-84,651	-0,084	-0,019
-684,539	155,929	0,113	-0,113
-683,524	-200,000	0,004	0,117
-682,510	205,735	-0,038	0,043
-681,495	800,000	0,026	-0,067
-680,481	192,749	0,017	-0,018
-679,466	-200,000	-0,018	-0,075
-678,451	-200,000	0,010	-0,044
-677,437	652,662	0,064	0,120
-676,422	-200,000	0,000	0,143
-675,408	-178,301	0,065	0,001
-674,393	-101,534	0,091	0,016
-673,378	459,395	-0,066	-0,108
-672,364	-200,000	-0,009	-0,158
-671,349	800,000	0,067	-0,153
-670,335	-111,670	-0,062	0,009
-669,320	-46,254	0,049	-0,017
-668,305	800,000	-0,086	-0,180
-667,291	-10,491	-0,094	0,045
-666,276	-112,583	0,045	-0,006
-665,262	-200,000	-0,055	-0,199
-664,247	-29,386	-0,058	0,024
-663,232	800,000	0,026	-0,056
-662,218	-155,262	0,031	0,001
-661,203	-91,608	-0,054	0,011
-660,189	-200,000	0,007	0,058
-659,174	-200,000	-0,002	0,014
-658,159	-130,690	0,080	0,008
-657,145	-106,303	-0,030	0,005
-656,130	54,310	0,153	-0,107
-655,116	-200,000	-0,009	0,088
-654,101	6,409	-0,048	-0,026
-653,086	-34,750	0,152	0,060
-652,072	-200,000	0,013	-0,230
-651,057	149,255	-0,037	0,036
-650,043	77,261	0,093	-0,072
-649,028	-0,067	-0,116	0,060
-648,014	800,000	-0,023	0,060
-646,999	800,000	0,060	-0,154
-645,984	235,704	0,138	-0,166
-644,970	649,211	-0,021	-0,039
-643,955	128,886	0,016	0,014
-642,941	-200,000	-0,000	-0,091
-641,926	-1,128	-0,069	-0,035
-640,911	-200,000	-0,008	0,126
-639,897	-200,000	0,015	0,095
-638,882	-54,860	-0,135	-0,044
-637,868	242,328	0,035	-0,042
-636,853	430,791	0,103	0,162
-635,838	20,038	-0,185	-0,108
-634,824	115,112	-0,057	-0,051
-633,809	78,167	0,049	0,038
-632,795	91,822	-0,087	0,071
-631,780	7,923	-0,057	0,031
-630,765	-200,000	-0,011	0,037
-629,751	-200,000	0,009	0,042
-628,736	-101,124	-0,149	0,026
-627,722	-108,251	0,145	0,022
-626,707	800,000	0,048	0,115
-625,692	800,000	-0,030	0,072
-624,678	347,342	0,044	-0,063
-623,663	75,837	0,064	0,049
-622,649	346,462	0,084	-0,120
-621,634	138,132	-0,060	-0,057
-620,619	40,325	-0,016	0,011
-619,605	561,452	0,018	0,032
-618,590	-107,531	-0,060	-0,009
-617,576	418,899	-0,060	0,093
-616,561	-39,888	-0,018	0,007
-615,546	-200,000	-0,002	-0,084
-614,532	-89,250	0,034	0,007
-613,517	-55,757	-0,138	0,044
-612,503	-3,951	0,060	-0,030
-611,488	-200,000	0,021	0,186
-610,474	-200,000	0,005	0,103
-609,459	613,538	0,028	-0,050
-608,444	-200,000	-0,025	-0,127
-607,430	62,449	-0,073	-0,053
-606,415	-200,000	0,012	-0,127
-605,401	279,111	-0,055	-0,071
-604,386	113,464	0,071	-0,062
-603,371	-28,803	-0,019	0,008
-602,357	-200,000	-0,003	-0,029
-601,342	-128,563	-0,102	-0,010
-600,328	-200,000	-0,005	-0,092
-599,313	-88,787	-0,227	0,048
-598,298	269,660	0,052	-0,066
-597,284	-200,000	0,014	0,048
-596,269	-200,000	0,038	0,142
-595,255	54,621	0,122	0,085
-594,240	-146,129	-0,005	-0,000
-593,225	-78,997	0,052	-0,013
-592,211	-200,000	-0,004	0,061
-591,196	-112,046	-0,173	-0,025
-590,182	-200,000	0,016	0,209
-589,167	-200,000	-0,010	-0,086
-588,152	-140,723	-0,022	-0,002
-587,138	-41,960	-0,026	-0,009
-586,123	158,299	-0,079	-0,080
-585,109	-143,403	-0,098	-0,007
-584,094	-200,000	0,005	0,126
-583,079	-114,695	-0,208	-0,028
-582,065	741,777	0,010	0,019
-581,050	130,743	-0,048	0,044
-580,036	-187,611	-0,115	-0,001
-579,021	-156,824	0,090	-0,004
-578,006	-123,120	-0,155	0,018
-576,992	-177,285	-0,065	-0,001
-575,977	94,625	0,047	0,039
-574,963	-103,371	-0,066	0,011
-573,948	-200,000	0,000	0,039
-572,934	-32,774	-0,146	0,059
-571,919	-200,000	-0,016	0,069
-570,904	433,042	-0,061	-0,095
-569,890	-28,794	0,024	0,010
-568,875	-34,202	-0,066	-0,026
-567,861	21,709	-0,043	-0,025
-566,846	-73,807	0,070	-0,018
-565,831	182,386	0,031	-0,034
-564,817	800,000	0,019	0,059
-563,802	-1,713	-0,121	-0,061
-562,788	-200,000	-0,029	-0,108
-561,773	0,881	0,069	-0,036
-560,758	77,963	0,076	-0,059
-559,744	683,534	0,039	-0,073
-558,729	61,941	-0,023	-0,017
-557,715	-200,000	0,000	-0,038
-556,700	-200,000	-0,017	-0,130
-555,685	-200,000	0,021	0,076
-554,671	-57,299	-0,014	-0,004
-553,656	-40,548	-0,105	-0,039
-552,642	35,424	0,075	-0,047
-551,627	-119,589	0,022	0,003
-550,612	67,871	0,050	0,037
-549,598	-200,000	-0,004	-0,016
-548,583	146,377	0,042	-0,041
-547,569	800,000	0,026	-0,073
-546,554	-98,752	-0,110	0,020
-545,539	452,788	-0,052	-0,084
-544,525	-200,000	0,034	0,126
-543,510	-50,540	-0,033	-0,011
-542,496	537,985	-0,051	-0,088
-541,481	228,894	-0,086	0,101
-540,466	-141,022	0,109	0,008
-539,452	47,690	-0,079	-0,053
-538,437	-200,000	0,010	0,086
-537,423	-30,647	0,148	0,060
-536,408	-58,651	-0,066	0,020
-535,393	-125,622	-0,063	0,007
-534,379	-106,729	0,117	-0,019
-533,364	-99,683	-0,147	-0,026
-532,350	-200,000	-0,004	0,115
-531,335	-200,000	-0,031	0,122
-530,321	-103,232	0,068	-0,011
-529,306	800,000	0,078	-0,243
-528,291	32,705	0,080	-0,050
-527,277	771,709	-0,037	0,073
-526,262	194,658	-0,053	-0,058
-525,248	-200,000	0,024	0,102
-524,233	-200,000	0,032	0,123
-523,218	800,000	-0,027	0,079
-522,204	-63,861	0,106	-0,031
-521,189	734,352	-0,066	-0,128
-520,175	-200,000	0,021	-0,134
-519,160	396,846	0,028	-0,043
-518,145	-200,000	-0,007	0,080
-517,131	507,321	-0,045	0,075
-516,116	193,150	-0,055	0,061
-515,102	-117,032	0,081	0,011
-514,087	-92,326	-0,110	0,022
-513,072	-200,000	-0,015	0,186
-512,058	-90,495	-0,053	-0,011
-511,043	380,070	0,022	-0,032
-510,029	-200,000	-0,007	0,037
-509,014	-200,000	0,010	-0,054
-507,999	-72,727	0,035	-0,009
-506,985	15,957	-0,046	0,026
-505,970	489,991	-0,007	0,012
-504,956	800,000	0,037	-0,094
-503,941	800,000	-0,020	-0,056
-502,926	800,000	0,070	-0,143
-501,912	31,703	-0,051	-0,031
-500,897	151,505	0,034	-0,034
-499,883	-66,419	0,036	-0,010
-498,868	-200,000	-0,007	-0,095
-497,853	-200,000	0,021	-0,183
-496,839	-12,530	0,066	-0,031
-495,824	21,275	-0,012	0,007
-494,810	-85,435	0,057	0,013
-493,795	2,867	-0,103	-0,054
-492,781	-200,000	-0,029	-0,123
-491,766	-200,000	-0,010	-0,107
-490,751	241,692	-0,040	-0,048
-489,737	2,483	0,086	-0,045
-488,722	-200,000	0,007	-0,033
-487,708	-114,258	0,050	-0,007
-486,693	129,729	0,031	0,029
-485,678	-112,528	-0,068	0,010
-484,664	242,202	-0,060	-0,072
-483,649	741,478	0,024	-0,046
-482,635	493,183	-0,029	0,047
-481,620	-108,415	0,020	0,003
-480,605	800,000	0,037	0,083
-479,591	-200,000	0,002	-0,150
-478,576	-200,000	0,011	0,048
-477,562	-200,000	0,024	-0,180
-476,547	57,024	-0,030	0,021
-475,532	147,216	-0,063	-0,061
-474,518	-200,000	-0,020	-0,070
-473,503	800,000	-0,041	0,120
-472,489	-156,368	0,110	-0,005
-471,474	-2,242	-0,073	-0,037
-470,459	46,572	-0,066	-0,044
-469,445	800,000	-0,043	-0,131
-468,430	-200,000	0,010	-0,066
-467,416	-200,000	-0,020	0,165
-466,401	-200,000	0,002	-0,026
-465,386	-67,062	0,106	0,030
-464,372	800,000	-0,052	0,150
-463,357	-200,000	0,022	-0,080
-462,343	-200,000	0,004	0,065
-461,328	625,089	-0,051	0,093
-460,313	-200,000	-0,008	0,035
-459,299	-86,606	0,117	-0,026
-458,284	429,327	-0,062	-0,096
-457,270	-200,000	-0,009	0,093
-456,255	140,576	0,034	0,032
-455,241	46,174	-0,061	-0,040
-454,226	-152,175	0,067	-0,003
-453,211	-101,719	-0,086	-0,015
-452,197	-200,000	0,043	0,139
-451,182	800,000	-0,050	0,123
-450,168	152,332	0,029	-0,028
-449,153	329,212	-0,034	-0,046
-448,138	-74,805	-0,034	0,009
-447,124	418,990	-0,029	-0,045
-446,109	-200,000	-0,024	-0,079
-445,095	-99,155	0,118	-0,021
-444,080	800,000	-0,048	-0,098
-443,065	438,616	0,057	0,089
-442,051	-74,608	-0,078	0,020
-441,036	57,477	-0,082	0,058
-440,022	800,000	0,013	-0,036
-439,007	-36,088	-0,038	0,015
-437,992	800,000	-0,036	-0,092
-436,978	480,468	0,085	0,139
-435,963	800,000	0,049	0,140
-434,949	-18,698	-0,084	0,037
-433,934	-75,753	-0,052	0,013
-432,919	145,679	0,073	-0,071
-431,905	-20,999	0,117	-0,051
-430,890	235,226	0,087	-0,104
-429,876	-200,000	-0,011	0,167
-428,861	-200,000	0,032	0,134
-427,846	565,358	-0,061	0,106
-426,832	646,086	0,048	0,088
-425,817	-200,000	0,010	-0,079
-424,803	-200,000	0,012	-0,083
-423,788	-61,597	0,070	0,021
-422,773	40,843	0,055	0,036
-421,759	68,979	0,108	0,079
-420,744	-200,000	-0,018	0,152
-419,730	287,480	-0,097	-0,127
-418,715	-73,173	0,066	-0,017
-417,701	3,460	0,083	0,043
-416,686	-108,704	0,175	0,027
-415,671	-94,268	0,022	0,004
-414,657	-80,939	0,118	0,028
-413,642	-123,078	-0,066	-0,008
-412,628	110,536	-0,074	0,064
-411,613	-173,186	-0,065	0,001
-410,598	13,500	-0,075	0,042
-409,584	-200,000	-0,001	-0,040
-408,569	460,304	0,057	0,092
-407,555	-200,000	0,015	0,101
-406,540	55,166	0,187	0,130
-405,525	22,277	0,063	0,037
-404,511	267,164	-0,020	-0,026
-403,496	532,723	-0,034	0,057
-402,482	-78,105	0,120	0,029
-401,467	-200,000	0,032	0,106
-400,452	800,000	0,019	-0,049
-399,438	-200,000	0,007	-0,068
-398,423	731,630	-0,044	-0,086
-397,409	186,640	-0,125	-0,133
-396,394	800,000	0,030	-0,064
-395,379	-142,805	0,097	0,007
-394,365	-62,352	0,125	-0,037
-393,350	380,557	-0,057	-0,084
-392,336	234,085	-0,073	-0,086
-391,321	-200,000	0,023	-0,076
-390,306	-92,002	0,068	-0,014
-389,292	-200,000	-0,013	-0,068
-388,277	422,619	0,015	0,023
-387,263	-200,000	0,003	-0,010
-386,248	169,418	0,112	0,115
-385,233	618,626	-0,055	-0,100
-384,219	-200,000	0,017	-0,067
-383,204	90,363	-0,062	0,050
-382,190	41,395	-0,058	-0,038
-381,175	-69,277	0,028	-0,008
-380,160	352,874	-0,040	0,057
-379,146	50,322	0,097	0,066
-378,131	56,903	-0,058	0,041
-377,117	150,988	0,056	0,055
-376,102	-129,952	0,025	-0,002
-375,088	220,812	-0,098	-0,113
-374,073	218,049	-0,075	-0,086
-373,058	-1,504	0,102	0,051
-372,044	74,345	0,103	0,077
-371,029	20,130	-0,120	-0,069
-370,015	-51,364	-0,093	-0,031
-369,000	29,483	-0,042	-0,026
-367,985	-32,491	0,032	0,013
-366,971	-200,000	-0,010	0,071
-365,956	346,206	0,043	0,060
-364,942	62,214	0,072	0,051
-363,927	51,532	-0,038	0,026
-362,912	-3,594	0,057	0,028
-361,898	-76,449	-0,097	0,024
-360,883	150,212	0,031	-0,030
-359,869	-43,643	-0,117	-0,042
-358,854	-14,150	0,100	0,046
-357,839	206,380	0,050	-0,056
-356,825	538,654	0,026	-0,044
-355,810	455,735	0,066	0,105
-354,796	-200,000	0,013	-0,124
-353,781	331,292	0,065	-0,090
-352,766	-200,000	-0,007	0,110
-351,752	-55,324	-0,140	-0,045
-350,737	217,641	0,066	0,075
-349,723	1,349	0,105	-0,054
-348,708	278,286	-0,121	0,154
-347,693	145,125	-0,013	-0,013
-346,679	-200,000	-0,014	0,113
-345,664	-143,665	-0,169	-0,011
-344,650	398,930	0,120	-0,181
-343,635	-200,000	0,007	-0,079
-342,620	154,686	0,018	0,018
-341,606	-123,513	-0,058	0,007
-340,591	800,000	0,018	-0,044
-339,577	-200,000	0,021	-0,143
-338,562	-132,978	-0,076	-0,007
-337,548	-200,000	0,003	-0,082
-336,533	135,111	-0,072	0,067
-335,518	-82,852	-0,022	0,005
-334,504	-130,325	0,137	-0,013
-333,489	-200,000	-0,017	0,099
-332,475	252,421	-0,059	-0,072
-331,460	241,706	0,074	0,089
-330,445	-27,350	0,113	0,047
-329,431	800,000	0,029	0,068
-328,416	-200,000	0,018	-0,082
-327,402	-200,000	0,017	0,103
-326,387	-53,796	-0,202	0,066
-325,372	119,619	-0,039	-0,035
-324,358	-122,159	0,048	-0,006
-323,343	-54,151	0,039	-0,013
-322,329	9,465	0,019	-0,010
-321,314	367,697	0,021	0,030
-320,299	800,000	0,021	0,053
-319,285	-116,709	0,069	0,009
-318,270	81,885	-0,067	0,052
-317,256	156,392	-0,064	-0,063
-316,241	-38,191	0,095	-0,036
-315,226	-200,000	0,008	-0,030
-314,212	643,093	0,054	0,099
-313,197	-200,000	0,013	0,192
-312,183	-1,271	-0,025	-0,013
-311,168	417,431	-0,103	-0,158
-310,153	800,000	-0,032	0,099
-309,139	-58,425	0,113	-0,035
-308,124	240,937	-0,035	-0,042
-307,110	286,275	-0,065	0,084
-306,095	-200,000	-0,039	0,124
-305,080	-53,985	0,037	0,012
-304,066	167,395	-0,050	0,051
-303,051	800,000	0,028	-0,061
-302,037	-140,989	0,027	-0,002
-301,022	-2,833	0,012	0,006
-300,008	800,000	0,056	0,125
-298,993	-34,616	-0,062	-0,024
-297,978	-19,663	0,040	0,018
-296,964	33,636	0,095	0,059
-295,949	-106,531	0,058	0,009
-294,935	706,181	-0,054	0,103
-293,920	23,305	0,071	-0,041
-292,905	337,122	0,069	0,095
-291,891	-200,000	-0,001	0,113
-290,876	-41,278	0,105	0,039
-289,862	-200,000	-0,022	-0,085
-288,847	-200,000	-0,001	-0,141
-287,832	-15,262	0,053	-0,024
-286,818	235,706	-0,060	-0,071
-285,803	-150,401	0,068	0,004
-284,789	-200,000	-0,012	-0,078
-283,774	-67,087	-0,140	-0,039
-282,759	-200,000	-0,015	-0,048
-281,745	33,609	-0,156	-0,097
-280,730	800,000	0,026	-0,057
-279,716	800,000	-0,019	-0,042
-278,701	176,577	-0,098	0,102
-277,686	483,320	-0,051	0,083
-276,672	-168,118	-0,077	0,002
-275,657	-200,000	-0,002	-0,159
-274,643	-200,000	-0,004	-0,165
-273,628	151,933	-0,090	-0,088
-272,613	234,090	-0,105	-0,124
-271,599	-200,000	0,003	0,051
-270,584	-126,744	0,026	0,003
-269,570	-200,000	-0,018	0,082
-268,555	254,130	-0,021	0,026
-267,540	416,683	0,095	-0,146
-266,526	11,702	-0,086	0,047
-265,511	800,000	-0,040	0,079
-264,497	191,139	0,110	-0,119
-263,482	558,088	-0,015	0,027
-262,467	-31,591	0,082	0,033
-261,453	27,722	0,080	0,048
-260,438	-200,000	-0,014	-0,170
-259,424	800,000	-0,020	-0,046
-258,409	31,493	0,042	-0,026
-257,395	422,227	-0,047	0,072
-256,380	70,390	0,083	0,061
-255,365	-71,093	0,055	-0,015
-254,351	-200,000	-0,006	0,132
-253,336	-200,000	-0,025	0,103
-252,322	800,000	0,054	-0,148
-251,307	-107,471	0,096	-0,015
-250,292	-145,779	0,137	0,009
-249,278	212,518	0,030	-0,034
-248,263	-51,892	0,171	0,057
-247,249	-109,095	-0,037	0,006
-246,234	-182,908	-0,047	0,001
-245,219	72,495	-0,067	-0,049
-244,205	534,250	-0,051	0,087
-243,190	800,000	0,046	-0,134
-242,176	-40,365	0,025	0,009
-241,161	563,238	0,028	-0,049
-240,146	-79,562	-0,038	-0,009
-239,132	72,320	0,141	0,105
-238,117	-163,188	-0,130	-0,004
-237,103	-154,340	-0,071	0,003
-236,088	-200,000	-0,002	0,083
-235,073	800,000	-0,038	0,095
-234,059	-142,049	0,144	0,010
-233,044	-39,661	0,031	0,011
-232,030	-2,975	-0,093	0,046
-231,015	263,794	-0,070	-0,087
-230,000	-200,000	0,008	-0,051
-228,986	169,976	-0,083	-0,085
-227,971	800,000	-0,020	-0,051
-226,957	-120,368	0,086	0,010
-225,942	157,158	0,056	0,055
-224,927	39,361	0,132	0,084
-223,913	-107,159	-0,136	-0,021
-222,898	-73,844	-0,068	0,017
-221,884	-200,000	0,014	-0,096
-220,869	800,000	-0,025	0,062
-219,855	52,871	0,160	0,109
-218,840	-200,000	-0,025	0,094
-217,825	82,660	-0,085	0,066
-216,811	192,706	-0,096	-0,103
-215,796	264,025	0,038	-0,047
-214,782	323,629	-0,067	-0,091
-213,767	-71,961	0,129	-0,034
-212,752	-62,502	0,050	-0,015
-211,738	512,488	-0,047	0,079
-210,723	126,968	-0,051	0,046
-209,709	-200,000	0,024	0,108
-208,694	-200,000	0,010	-0,153
-207,679	800,000	0,012	-0,029
-206,665	-200,000	-0,014	0,054
-205,650	-200,000	0,005	0,129
-204,636	348,748	0,083	0,117
-203,621	-66,683	-0,058	-0,016
-202,606	40,134	-0,057	-0,036
-201,592	-200,000	0,004	-0,115
-200,577	-200,000	0,002	-0,022
-199,563	-200,000	0,022	0,140
-198,548	-148,770	0,124	0,007
-197,533	-152,711	0,209	0,010
-196,519	366,610	0,036	-0,051
-195,504	73,492	0,093	-0,069
-194,490	646,021	-0,019	-0,035
-193,475	-200,000	0,005	-0,029
-192,460	-18,293	0,131	0,058
-191,446	-200,000	0,003	-0,014
-190,431	71,895	-0,094	-0,069
-189,417	-200,000	0,001	-0,016
-188,402	800,000	0,028	0,060
-187,387	629,900	-0,025	-0,045
-186,373	306,434	0,026	-0,035
-185,358	-31,904	-0,033	0,013
-184,344	800,000	0,058	-0,170
-183,329	50,151	-0,079	0,053
-182,315	-42,388	0,255	-0,092
-181,300	45,680	-0,097	-0,064
-180,285	-46,079	-0,044	-0,015
-179,271	-22,381	-0,093	0,040
-178,256	80,429	0,057	0,044
-177,242	41,898	0,029	-0,019
-176,227	-107,537	0,076	0,012
-175,212	-52,359	0,067	0,022
-174,198	-125,486	-0,056	-0,006
-173,183	-58,303	-0,095	0,029
-172,169	-200,000	-0,009	-0,096
-171,154	-70,160	0,083	-0,022
-170,139	-200,000	-0,015	0,095
-169,125	154,065	0,068	0,066
-168,110	-200,000	0,038	0,123
-167,096	359,819	-0,026	0,037
-166,081	-119,344	-0,110	0,013
-165,066	-140,470	-0,056	-0,004
-164,052	-42,250	-0,069	0,025
-163,037	-61,059	0,064	-0,019
-162,023	-61,578	0,077	-0,023
-161,008	-200,000	0,008	0,045
-159,993	65,948	0,032	-0,023
-158,979	-139,640	-0,060	0,004
-157,964	582,576	0,040	0,070
-156,950	-115,438	0,057	0,008
-155,935	800,000	0,019	-0,050
-154,920	507,534	-0,028	0,047
-153,906	-200,000	0,003	0,131
-152,891	-108,329	-0,059	-0,009
-151,877	-41,208	-0,064	0,023
-150,862	323,204	-0,091	-0,124
-149,847	800,000	0,025	0,057
-148,833	-22,798	-0,104	-0,044
-147,818	18,314	0,126	0,071
-146,804	-200,000	0,008	-0,041
-145,789	-200,000	0,042	-0,137
-144,775	69,729	0,023	0,016
-143,760	-90,557	-0,133	-0,027
-142,745	-101,218	-0,100	-0,017
-141,731	-72,184	-0,083	0,022
-140,716	-200,000	-0,002	0,170
-139,702	-200,000	0,029	0,194
-138,687	800,000	0,041	-0,089
-137,672	357,787	0,008	0,012
-136,658	-63,684	0,029	-0,008
-135,643	-200,000	0,001	0,102
-134,629	-200,000	0,003	-0,108
-133,614	86,018	0,116	-0,090
-132,599	-200,000	0,025	0,115
-131,585	-77,512	0,087	-0,021
-130,570	-117,886	-0,085	-0,011
-129,556	-200,000	0,008	0,026
-128,541	29,494	-0,101	0,061
-127,526	-184,581	0,058	-0,001
-126,512	602,408	0,025	-0,045
-125,497	240,633	0,070	0,083
-124,483	800,000	0,039	-0,089
-123,468	751,661	0,018	0,035
-122,453	376,998	-0,066	0,096
-121,439	-200,000	-0,018	0,088
-120,424	110,706	0,091	-0,077
-119,410	-0,750	0,014	0,007
-118,395	-90,374	0,053	-0,011
-117,380	800,000	0,039	0,096
-116,366	-175,089	-0,031	0,001
-115,351	-200,000	-0,034	-0,171
-114,337	319,542	-0,033	0,045
-113,322	229,523	0,073	-0,084
-112,307	431,789	0,022	0,034
-111,293	800,000	0,051	0,122
-110,278	800,000	-0,028	-0,067
-109,264	-200,000	0,009	0,036
-108,249	-122,773	-0,182	-0,021
-107,234	169,589	-0,087	-0,088
-106,220	91,024	-0,047	0,037
-105,205	279,494	0,062	0,079
-104,191	-88,812	0,149	0,031
-103,176	-43,492	-0,058	0,021
-102,162	123,743	0,122	-0,109
-101,147	-200,000	0,013	-0,094
-100,132	573,890	-0,093	-0,161
-99,118	290,733	-0,055	-0,071
-98,103	228,166	0,116	-0,134
-97,089	-200,000	0,002	0,100
-96,074	-200,000	0,016	0,089
-95,059	8,748	0,117	0,062
-94,045	-200,000	0,030	-0,096
-93,030	10,219	-0,068	-0,037
-92,016	-200,000	0,003	-0,149
-91,001	168,329	0,064	-0,065
-89,986	-72,842	0,071	-0,018
-88,972	163,777	0,053	0,053
-87,957	34,096	0,168	-0,103
-86,943	800,000	0,017	-0,046
-85,928	508,829	-0,031	0,051
-84,913	407,641	0,061	-0,091
-83,899	92,929	-0,070	-0,056
-82,884	800,000	-0,010	-0,028
-81,870	-200,000	0,019	0,142
-80,855	-77,339	-0,041	-0,010
-79,840	-200,000	-0,005	-0,051
-78,826	202,172	-0,076	-0,083
-77,811	-123,088	-0,091	0,010
-76,797	40,175	0,043	0,027
-75,782	67,118	0,074	-0,053
-74,767	-200,000	0,002	0,145
-73,753	-71,555	-0,063	-0,017
-72,738	149,224	-0,049	0,047
-71,724	38,270	-0,089	-0,056
-70,709	779,980	0,011	-0,022
-69,694	687,631	0,016	-0,029
-68,680	168,143	-0,066	-0,067
-67,665	95,378	0,114	0,092
-66,651	800,000	-0,069	0,152
-65,636	-2,375	-0,080	-0,040
-64,622	-200,000	-0,008	-0,078
-63,607	224,558	-0,011	-0,013
-62,592	-200,000	0,019	-0,093
-61,578	-79,036	0,060	0,014
-60,563	-200,000	0,008	0,165
-59,549	-200,000	-0,014	0,072
-58,534	-12,797	-1,582	-0,727
-57,519	360,041	-1,426	-2,027
-56,505	-200,000	-0,506	-4,458
-55,490	210,350	1,075	1,197
-54,476	800,000	4,697	11,017
-53,461	-200,000	19,007	319,813
-52,446	-200,000	740,071	2335,344
-51,432	574,143	1655,285	2870,560
-50,417	78,380	1671,215	1262,572
-49,403	21,329	1544,092	885,932
-48,388	15,223	1466,731	811,840
-47,373	17,980	1456,659	819,562
-46,359	16,723	1446,746	807,919
-45,344	13,449	1441,891	789,495
-44,330	13,395	1440,036	788,187
-43,315	13,396	1438,323	787,223
-42,300	13,385	1436,668	786,231
-41,286	13,430	1435,386	785,717
-40,271	13,377	1434,019	784,682
-39,257	13,362	1432,674	783,844
-38,242	13,393	1431,350	783,238
-37,227	13,448	1430,169	782,820
-36,213	13,446	1429,053	782,167
-35,198	13,406	1427,840	781,284
-34,184	13,474	1426,868	781,046
-33,169	13,433	1425,515	780,077
-32,154	13,468	1424,360	779,583
-31,140	13,457	1423,082	778,798
-30,125	13,484	1422,005	778,307
-29,111	13,434	1421,162	777,577
-28,096	13,454	1419,786	776,888
-27,082	13,388	1418,543	775,864
-26,067	13,374	1417,559	775,231
-25,052	13,352	1416,587	774,565
-24,038	13,348	1415,471	773,907
-23,023	13,331	1414,485	773,256
-22,009	13,335	1413,479	772,695
-20,994	13,349	1412,510	772,199
-19,979	13,355	1411,652	771,726
-18,965	13,287	1410,857	770,943
-17,950	13,347	1409,852	770,642
-16,936	13,316	1408,846	769,919
-15,921	13,304	1407,719	769,217
-14,906	13,263	1407,009	768,605
-13,892	13,323	1405,782	768,185
-12,877	13,279	1405,032	767,537
-11,863	13,289	1404,206	767,103
-10,848	13,258	1403,239	766,403
-9,833	13,225	1402,390	765,753
-8,819	13,190	1401,755	765,214
-7,804	13,182	1400,670	764,553
-6,790	13,196	1399,611	764,009
-5,775	13,172	1398,583	763,309
-4,760	13,221	1397,566	762,951
-3,746	13,162	1396,860	762,259
-2,731	13,132	1395,952	761,593
-1,717	13,159	1395,226	761,295
-0,702	13,164	1393,131	760,141
0,313	17,011	1310,125	732,676
1,327	33,269	703,969	431,278
2,342	50,871	123,422	82,602
3,356	2,937	16,601	8,502
4,371	-3,525	3,388	1,661
5,386	-27,287	0,541	0,222
6,400	800,000	0,070	0,143
7,415	327,379	-0,127	-0,173
8,429	349,619	-0,194	-0,272
9,444	30,798	-0,372	-0,225
10,459	800,000	-0,164	-0,329
11,473	336,056	-0,180	-0,248
12,488	69,929	-0,328	-0,239
13,502	45,571	-0,298	-0,194
14,517	266,002	-0,199	-0,246
15,531	25,672	-0,413	-0,242
16,546	217,896	-0,310	-0,350
17,561	58,993	-0,424	-0,294
18,575	-95,337	-0,214	-0,040
19,590	93,450	-0,314	-0,251
20,604	-9,359	-0,209	-0,098
21,619	160,874	-0,324	-0,320
22,634	89,063	-0,300	-0,236
23,648	41,971	-0,468	-0,300
24,663	31,120	-0,543	-0,328
25,677	95,241	-0,358	-0,288
26,692	-10,878	-0,415	-0,193
27,707	170,379	-0,281	-0,284
28,721	58,747	-0,457	-0,316
29,736	209,519	-0,300	-0,332
30,750	192,424	-0,322	-0,343
31,765	282,131	-0,370	-0,470
32,780	46,007	-0,400	-0,261
33,794	184,630	-0,275	-0,288
34,809	272,486	-0,359	-0,447
35,823	86,844	-0,372	-0,290
36,838	-2,560	-0,361	-0,178
37,853	101,031	-0,287	-0,235
38,867	66,840	-0,370	-0,266
39,882	130,083	-0,308	-0,278
40,896	248,556	-0,306	-0,366
41,911	-15,905	-0,452	-0,202
42,926	236,132	-0,288	-0,336
43,940	139,959	-0,354	-0,329
44,955	133,896	-0,271	-0,247
45,969	-22,568	-0,479	-0,203
46,984	-41,084	-0,380	-0,138
47,999	156,284	-0,291	-0,283
49,013	423,154	-0,164	-0,250
50,028	72,136	-0,320	-0,235
51,042	49,825	-0,356	-0,236
52,057	107,925	-0,368	-0,309
53,071	136,699	-0,291	-0,268
54,086	224,207	-0,305	-0,348
55,101	148,850	-0,265	-0,253
56,115	149,351	-0,306	-0,292
57,130	107,018	-0,189	-0,158
58,144	68,908	-0,375	-0,271
59,159	-19,119	-0,486	-0,212
60,174	-37,646	-0,390	-0,146
61,188	88,410	-0,333	-0,260
62,203	98,232	-0,407	-0,330
63,217	101,880	-0,281	-0,231
64,232	56,424	-0,338	-0,231
65,247	45,788	-0,234	-0,152
66,261	42,316	-0,385	-0,245
67,276	131,379	-0,346	-0,313
68,290	304,302	-0,276	-0,361
69,305	-4,476	-0,406	-0,197
70,320	-42,401	-0,194	-0,069
71,334	45,511	-0,195	-0,127
72,349	14,838	-0,283	-0,155
73,363	39,686	-0,417	-0,262
74,378	9,758	-0,378	-0,201
75,393	273,483	-0,299	-0,373
76,407	268,554	-0,260	-0,321
77,422	-56,261	-0,327	-0,102
78,436	299,348	-0,273	-0,355
79,451	204,265	-0,272	-0,296
80,466	183,863	-0,231	-0,241
81,480	144,003	-0,296	-0,278
82,495	111,954	-0,313	-0,266
83,509	61,480	-0,250	-0,174
84,524	-0,457	-0,294	-0,146
85,539	-78,682	-0,343	-0,082
86,553	-8,590	-0,191	-0,090
87,568	366,490	-0,240	-0,340
88,582	218,529	-0,274	-0,308
89,597	217,753	-0,304	-0,340
90,611	80,481	-0,236	-0,178
91,626	-9,997	-0,337	-0,157
92,641	-62,100	-0,324	-0,094
93,655	147,180	-0,109	-0,103
94,670	-28,490	-0,214	-0,086
95,684	265,589	-0,175	-0,215
96,699	183,574	-0,245	-0,254
97,714	-165,562	-0,318	0,010
98,728	127,743	-0,320	-0,285
99,743	69,658	-0,241	-0,174
100,757	-19,373	-0,277	-0,120
101,772	160,395	-0,296	-0,290
102,787	94,650	-0,188	-0,150
103,801	91,911	-0,299	-0,236
104,816	-9,011	-0,401	-0,187
105,830	465,837	-0,166	-0,261
106,845	150,475	-0,249	-0,237
107,860	195,164	-0,177	-0,189
108,874	434,397	-0,183	-0,280
109,889	295,162	-0,236	-0,304
110,903	159,419	-0,270	-0,264
111,918	114,384	-0,248	-0,211
112,933	92,424	-0,195	-0,154
113,947	129,858	-0,207	-0,186
114,962	150,337	-0,195	-0,186
115,976	1,897	-0,297	-0,149
116,991	93,100	-0,343	-0,271
118,006	40,449	-0,280	-0,176
119,020	22,493	-0,267	-0,153
120,035	513,679	-0,113	-0,185
121,049	-104,996	-0,258	-0,041
122,064	192,257	-0,231	-0,245
123,079	79,186	-0,193	-0,145
124,093	34,877	-0,272	-0,166
125,108	-33,668	-0,419	-0,161
126,122	-29,572	-0,263	-0,105
127,137	24,918	-0,310	-0,180
128,151	-92,015	-0,132	-0,026
129,166	257,771	-0,163	-0,197
130,181	-52,401	-0,256	-0,082
131,195	122,810	-0,277	-0,243
132,210	119,421	-0,233	-0,202
133,224	161,951	-0,158	-0,154
134,239	18,964	-0,241	-0,135
135,254	112,130	-0,199	-0,168
136,268	-57,189	-0,194	-0,059
137,283	66,305	-0,347	-0,246
138,297	146,561	-0,309	-0,291
139,312	42,591	-0,327	-0,207
140,327	-86,342	-0,368	-0,078
141,341	800,000	-0,120	-0,283
142,356	-66,144	-0,339	-0,094
143,370	104,431	-0,329	-0,270
144,385	464,444	-0,181	-0,284
145,400	106,241	-0,231	-0,191
146,414	396,065	-0,148	-0,216
147,429	18,208	-0,281	-0,156
148,443	132,672	-0,237	-0,214
149,458	182,031	-0,154	-0,158
150,473	118,879	-0,228	-0,197
151,487	315,688	-0,301	-0,398
152,502	47,106	-0,288	-0,187
153,516	198,392	-0,244	-0,261
154,531	-52,287	-0,177	-0,057
155,546	51,020	-0,269	-0,178
156,560	-5,284	-0,281	-0,135
157,575	-35,044	-0,313	-0,119
158,589	-41,115	-0,261	-0,094
159,604	136,531	-0,281	-0,256
160,619	89,515	-0,260	-0,202
161,633	3,025	-0,192	-0,097
162,648	254,512	-0,203	-0,243
163,662	198,254	-0,133	-0,142
164,677	10,532	-0,168	-0,089
165,692	129,610	-0,195	-0,174
166,706	12,543	-0,263	-0,141
167,721	31,246	-0,305	-0,182
168,735	44,789	-0,255	-0,163
169,750	296,945	-0,270	-0,347
170,764	30,595	-0,254	-0,151
171,779	-24,759	-0,201	-0,083
172,794	42,580	-0,142	-0,090
173,808	21,705	-0,234	-0,132
174,823	213,567	-0,285	-0,315
175,837	24,221	-0,187	-0,107
176,852	442,171	-0,111	-0,170
177,867	65,186	-0,156	-0,110
178,881	-57,615	-0,191	-0,058
179,896	27,501	-0,192	-0,112
180,910	220,706	-0,118	-0,132
181,925	483,087	-0,237	-0,377
182,940	369,956	-0,212	-0,299
183,954	-30,401	-0,206	-0,081
184,969	784,560	-0,109	-0,210
185,983	-115,058	-0,122	-0,016
186,998	2,424	-0,149	-0,075
188,013	18,368	-0,145	-0,081
189,027	478,040	-0,139	-0,220
190,042	16,519	-0,347	-0,190
191,056	800,000	-0,172	-0,379
192,071	800,000	-0,138	-0,307
193,086	298,125	-0,104	-0,133
194,100	-13,641	-0,123	-0,055
195,115	-200,000	-0,063	-0,217
196,129	94,716	-0,194	-0,154
197,144	41,258	-0,284	-0,178
198,159	-0,327	-0,301	-0,148
199,173	292,756	-0,250	-0,317
200,188	147,796	-0,148	-0,139
201,202	101,160	-0,074	-0,060
202,217	-63,997	-0,269	-0,076
203,232	21,580	-0,306	-0,172
204,246	215,131	-0,261	-0,288
205,261	304,558	-0,249	-0,322
206,275	-47,807	-0,296	-0,099
207,290	21,119	-0,125	-0,070
208,304	-50,531	-0,279	-0,091
209,319	102,105	-0,093	0,076
210,334	297,167	-0,197	-0,252
211,348	45,880	-0,106	-0,068
212,363	180,944	-0,244	-0,249
213,377	557,795	-0,073	-0,123
214,392	54,122	-0,244	-0,163
215,407	285,134	-0,152	-0,190
216,421	-138,646	-0,119	-0,009
217,436	254,926	-0,193	-0,230
218,450	-78,982	-0,197	-0,046
219,465	161,461	-0,217	-0,211
220,480	195,792	-0,191	-0,202
221,494	148,632	-0,197	-0,185
222,509	5,219	-0,151	-0,077
223,523	96,674	-0,198	-0,158
224,538	184,600	-0,134	-0,138
225,553	656,836	-0,167	-0,299
226,567	-31,755	-0,421	-0,163
227,582	-64,039	-0,211	-0,059
228,596	313,477	-0,076	-0,099
229,611	-176,945	-0,209	0,004
230,626	269,434	-0,144	-0,175
231,640	-77,505	-0,167	-0,040
232,655	74,285	-0,084	-0,061
233,669	191,285	-0,216	-0,225
234,684	82,853	-0,194	-0,146
235,699	21,808	-0,113	-0,064
236,713	517,921	-0,094	-0,154
237,728	23,179	-0,267	-0,151
238,742	-200,000	-0,047	-0,175
239,757	148,372	-0,138	-0,129
240,772	40,648	-0,105	-0,065
241,786	3,545	-0,253	-0,127
242,801	800,000	-0,060	-0,167
243,815	349,649	-0,114	-0,156
244,830	102,711	-0,127	-0,103
245,844	235,607	-0,172	-0,197
246,859	276,960	-0,185	-0,228
247,874	129,322	-0,221	-0,196
248,888	-200,000	-0,075	-0,312
249,903	800,000	-0,096	-0,217
250,917	378,177	-0,150	-0,212
251,932	170,516	-0,236	-0,234
252,947	203,652	-0,124	-0,133
253,961	93,745	-0,166	-0,130
254,976	314,909	-0,126	-0,165
255,990	113,012	-0,185	-0,155
257,005	182,699	-0,132	-0,135
258,020	-144,955	-0,149	-0,009
259,034	-28,973	-0,230	-0,091
260,049	686,893	-0,126	-0,229
261,063	41,470	-0,136	-0,085
262,078	571,595	-0,086	-0,145
263,093	372,143	-0,204	-0,287
264,107	282,035	-0,202	-0,251
265,122	278,006	-0,173	-0,213
266,136	119,537	-0,103	-0,088
267,151	-200,000	-0,060	-0,218
268,166	26,722	-0,138	-0,080
269,180	128,163	-0,144	-0,127
270,195	158,327	-0,173	-0,166
271,209	206,256	-0,188	-0,203
272,224	24,359	-0,131	-0,075
273,239	-134,900	-0,134	-0,011
274,253	800,000	-0,017	0,047
275,268	131,626	-0,118	-0,105
276,282	15,693	-0,134	-0,072
277,297	-13,127	-0,290	-0,130
278,312	205,654	-0,172	-0,185
279,326	0,277	-0,097	0,047
280,341	259,956	-0,104	-0,124
281,355	61,641	-0,116	-0,080
282,370	88,747	-0,183	-0,140
283,384	-123,648	-0,181	0,020
284,399	29,434	-0,230	-0,135
285,414	-200,000	-0,047	-0,231
286,428	52,185	-0,154	-0,101
287,443	68,051	-0,185	-0,131
288,457	230,491	-0,135	-0,153
289,472	649,806	-0,104	-0,184
290,487	800,000	-0,096	-0,234
291,501	313,333	-0,086	-0,111
292,516	-45,332	-0,252	-0,086
293,530	217,472	-0,101	-0,111
294,545	667,612	-0,092	-0,164
295,560	57,484	-0,147	-0,099
296,574	-46,361	-0,275	-0,093
297,589	257,181	-0,203	-0,242
298,603	108,586	-0,099	-0,081
299,618	187,390	-0,110	-0,113
300,633	800,000	-0,066	-0,154
301,647	800,000	-0,057	-0,118
302,662	351,065	-0,112	-0,153
303,676	156,257	-0,048	-0,045
304,691	-44,803	-0,219	0,075
305,706	-14,237	-0,294	-0,130
306,720	-200,000	-0,057	-0,182
307,735	261,178	-0,085	-0,101
308,749	-95,321	-0,018	-0,003
309,764	-200,000	0,039	-0,125
310,779	21,852	-0,066	-0,037
311,793	180,424	-0,136	-0,138
312,808	196,618	-0,138	-0,145
313,822	164,345	-0,210	-0,204
314,837	73,173	-0,190	-0,137
315,852	272,725	-0,094	-0,115
316,866	-56,070	-0,266	-0,081
317,881	-29,034	-0,161	-0,063
318,895	-7,161	-0,164	-0,076
319,910	58,634	-0,194	-0,131
320,925	17,743	-0,150	-0,082
321,939	137,694	-0,119	-0,107
322,954	-126,399	-0,151	0,015
323,968	83,283	-0,065	-0,049
324,983	14,370	-0,168	-0,090
325,997	330,840	-0,136	-0,180
327,012	171,685	-0,158	-0,156
328,027	800,000	-0,083	-0,179
329,041	800,000	-0,075	-0,146
330,056	-91,933	-0,077	0,015
331,070	-104,521	-0,084	-0,013
332,085	128,669	-0,189	-0,166
333,100	456,567	-0,151	-0,232
334,114	800,000	-0,023	-0,061
335,129	800,000	-0,147	-0,324
336,143	240,390	-0,115	-0,132
337,158	-200,000	0,014	-0,160
338,173	115,091	-0,082	0,068
339,187	-185,497	-0,159	0,002
340,202	48,782	-0,115	-0,074
341,216	164,740	-0,145	-0,141
342,231	800,000	-0,100	-0,197
343,246	-200,000	-0,023	-0,077
344,260	16,441	-0,152	-0,082
345,275	28,610	-0,151	-0,087
346,289	-157,759	-0,117	0,005
347,304	48,100	-0,160	-0,103
348,319	6,707	-0,187	-0,095
349,333	44,543	-0,156	-0,098
350,348	-200,000	-0,038	-0,197
351,362	602,758	-0,113	-0,193
352,377	238,678	-0,145	-0,166
353,392	267,231	-0,140	-0,169
354,406	610,745	-0,042	-0,073
355,421	209,245	1314,348	1414,119
356,435	161,039	1475,015	1414,610
