DTS Sentinel unit serial number:	SN410029Multiplexer serial number:	ORYXHardware model number:	OX2-SRSoftware version number:	ORYX F/W v4,00 Oryx Data Collector v3.7.2.0data status	okinstallation	B3 Nyhavnadifferential loss correction	single-endedforward channel	channel 1reverse channel	N/Adate	2023/12/02time	03:22:30forward acquisition time	300,00reverse acquisition time	0,00gamma	499,1914k internal	0,3194k external	0,3194temperature offset calibration	1,0000default loss term (dB/km)	0,3820temperature slope calibration	1,0000multiplexer offset coefficient	1,0000multiplexer slope coefficient	1,0000fibre end	0,00T internal ref (°C)	16,66T ext. ref 1 (°C)	1,69T ext. ref 2 (°C)	1,68length (m)	temperature (°C)	Stokes	anti-Stokes-744,400	40,122	-0,233	-0,152
-743,385	800,000	0,143	0,392
-742,371	567,519	-0,206	-0,366
-741,356	-200,000	0,013	0,352
-740,342	-63,936	-0,241	-0,071
-739,327	-200,000	0,082	0,385
-738,312	379,186	-0,210	-0,314
-737,298	-200,000	-0,009	0,302
-736,283	785,060	-0,120	-0,242
-735,269	-200,000	-0,013	0,342
-734,254	113,759	-0,223	-0,197
-733,239	154,936	-0,160	0,160
-732,225	800,000	-0,104	-0,247
-731,210	176,084	0,097	0,103
-730,196	47,578	-0,089	-0,061
-729,181	-130,048	-0,041	-0,004
-728,167	-200,000	0,017	-0,062
-727,152	0,671	-0,021	0,011
-726,137	35,806	-0,075	-0,048
-725,123	404,197	-0,063	-0,098
-724,108	-60,738	-0,107	0,033
-723,094	-200,000	-0,043	-0,254
-722,079	15,714	-0,100	0,057
-721,064	-59,907	0,072	0,022
-720,050	50,563	0,133	0,091
-719,035	119,235	-0,044	-0,040
-718,021	-200,000	-0,004	-0,049
-717,006	-130,795	-0,027	0,003
-715,991	-115,831	0,060	-0,008
-714,977	52,312	-0,147	-0,102
-713,962	-36,011	-0,045	0,018
-712,948	-200,000	0,001	-0,130
-711,933	682,681	0,082	-0,157
-710,918	35,521	-0,033	0,021
-709,904	34,082	-0,141	-0,089
-708,889	-119,762	0,042	-0,005
-707,875	452,620	-0,085	-0,137
-706,860	-200,000	-0,035	-0,126
-705,845	352,633	-0,038	-0,055
-704,831	597,071	-0,041	0,074
-703,816	751,660	-0,029	-0,057
-702,802	578,502	0,080	-0,143
-701,787	-200,000	0,016	-0,074
-700,772	73,594	0,127	-0,097
-699,758	-13,516	-0,072	-0,034
-698,743	-114,102	0,067	-0,009
-697,729	378,287	-0,099	0,148
-696,714	-200,000	-0,006	0,137
-695,699	-200,000	-0,011	-0,108
-694,685	264,294	0,058	-0,074
-693,670	800,000	-0,050	-0,111
-692,656	-200,000	0,009	0,044
-691,641	-12,619	0,067	-0,032
-690,627	119,226	0,039	0,035
-689,612	-37,962	0,043	0,016
-688,597	89,768	-0,133	-0,108
-687,583	-200,000	0,022	-0,185
-686,568	-64,469	-0,131	-0,039
-685,554	-200,000	-0,013	-0,062
-684,539	-200,000	0,000	-0,056
-683,524	-59,018	0,161	0,050
-682,510	410,688	0,014	0,022
-681,495	800,000	0,004	0,009
-680,481	76,205	-0,013	0,010
-679,466	800,000	-0,042	-0,102
-678,451	9,954	-0,144	-0,079
-677,437	422,033	-0,049	0,076
-676,422	-20,344	-0,069	-0,031
-675,408	23,741	-0,078	-0,047
-674,393	800,000	0,039	0,087
-673,378	-200,000	-0,026	-0,115
-672,364	800,000	-0,028	-0,079
-671,349	-200,000	0,001	-0,037
-670,335	-200,000	-0,032	-0,114
-669,320	304,724	-0,062	-0,083
-668,305	-200,000	0,004	-0,104
-667,291	141,460	0,068	-0,066
-666,276	-151,153	-0,075	0,004
-665,262	1,432	-0,049	0,025
-664,247	800,000	-0,053	-0,112
-663,232	77,185	-0,142	-0,109
-662,218	-119,884	0,078	0,010
-661,203	-86,352	0,106	0,023
-660,189	-200,000	-0,008	-0,106
-659,174	29,986	-0,123	-0,076
-658,159	800,000	-0,060	-0,134
-657,145	131,418	-0,089	-0,083
-656,130	181,556	-0,025	-0,027
-655,116	-172,815	0,146	-0,003
-654,101	-98,477	0,046	0,008
-653,086	-200,000	-0,014	-0,057
-652,072	-200,000	0,002	-0,038
-651,057	280,546	-0,051	-0,066
-650,043	-200,000	0,050	-0,171
-649,028	-200,000	0,011	0,167
-648,014	12,536	0,061	0,034
-646,999	800,000	-0,037	-0,108
-645,984	343,204	0,028	-0,040
-644,970	-51,687	0,099	0,033
-643,955	-146,828	0,080	-0,005
-642,941	-200,000	0,004	-0,078
-641,926	395,499	-0,022	0,034
-640,911	85,807	0,075	-0,060
-639,897	-66,984	0,100	-0,029
-638,882	800,000	0,050	-0,108
-637,868	-200,000	0,001	-0,082
-636,853	114,429	-0,097	-0,086
-635,838	-125,399	0,117	-0,013
-634,824	2,573	-0,075	0,040
-633,809	-200,000	0,005	-0,025
-632,795	-136,764	-0,094	0,008
-631,780	-1,261	-0,156	0,080
-630,765	154,295	-0,016	-0,016
-629,751	-123,078	-0,047	-0,005
-628,736	-150,220	-0,033	0,002
-627,722	103,844	-0,031	-0,027
-626,707	102,474	0,111	-0,094
-625,692	-36,270	0,069	0,027
-624,678	800,000	-0,027	0,086
-623,663	43,553	-0,067	0,044
-622,649	-136,428	-0,118	0,010
-621,634	244,528	0,037	-0,045
-620,619	256,314	-0,016	-0,020
-619,605	-200,000	-0,032	0,129
-618,590	349,651	0,013	0,019
-617,576	408,838	-0,077	0,118
-616,561	49,683	0,197	-0,134
-615,546	-200,000	-0,013	-0,101
-614,532	800,000	-0,049	-0,120
-613,517	2,816	-0,106	-0,056
-612,503	-27,223	-0,113	-0,048
-611,488	800,000	-0,031	0,088
-610,474	-24,836	-0,074	-0,032
-609,459	568,121	-0,011	-0,019
-608,444	-66,433	-0,067	0,019
-607,430	58,412	-0,112	-0,079
-606,415	86,330	-0,092	-0,073
-605,401	66,507	0,115	-0,085
-604,386	128,924	0,027	0,025
-603,371	179,242	0,089	0,095
-602,357	-173,736	0,035	-0,001
-601,342	172,259	-0,020	-0,021
-600,328	800,000	-0,025	-0,053
-599,313	-174,959	-0,169	0,003
-598,298	136,019	0,054	-0,051
-597,284	-98,774	-0,103	-0,019
-596,269	35,955	0,073	-0,046
-595,255	670,663	-0,040	-0,075
-594,240	29,693	0,067	-0,041
-593,225	189,237	0,032	0,035
-592,211	159,042	0,060	-0,060
-591,196	347,051	-0,019	0,028
-590,182	-0,081	0,055	-0,028
-589,167	-200,000	-0,016	0,089
-588,152	192,309	0,130	0,142
-587,138	-200,000	-0,003	0,051
-586,123	-138,131	-0,110	-0,009
-585,109	-166,007	-0,068	0,002
-584,094	122,987	-0,071	-0,065
-583,079	-200,000	0,023	-0,111
-582,065	448,242	0,032	-0,051
-581,050	-200,000	0,012	0,144
-580,036	-143,071	-0,019	0,001
-579,021	48,848	-0,090	-0,061
-578,006	68,230	0,021	-0,015
-576,992	-75,299	-0,132	0,034
-575,977	-200,000	-0,001	0,048
-574,963	-55,533	0,037	0,012
-573,948	409,020	0,080	-0,123
-572,934	-123,357	0,062	0,007
-571,919	52,957	0,048	0,033
-570,904	-117,588	0,054	0,007
-569,890	43,512	-0,127	-0,084
-568,875	-67,699	0,051	-0,014
-567,861	151,422	0,066	0,066
-566,846	-200,000	-0,006	0,083
-565,831	-200,000	0,033	0,111
-564,817	-97,100	0,080	0,015
-563,802	-200,000	0,002	0,035
-562,788	800,000	-0,020	-0,055
-561,773	-131,302	0,043	-0,004
-560,758	309,521	0,044	0,060
-559,744	88,510	0,062	0,050
-558,729	800,000	0,057	0,120
-557,715	124,886	0,030	-0,027
-556,700	46,779	-0,141	-0,095
-555,685	800,000	0,055	-0,154
-554,671	11,833	0,040	0,022
-553,656	-47,528	0,059	0,021
-552,642	-129,209	0,090	0,009
-551,627	-200,000	0,000	-0,075
-550,612	719,047	0,027	0,053
-549,598	-200,000	0,001	0,009
-548,583	409,083	0,013	-0,021
-547,569	-200,000	0,020	0,120
-546,554	-135,238	0,052	-0,004
-545,539	-200,000	-0,035	0,123
-544,525	526,605	0,023	0,039
-543,510	-108,003	-0,134	-0,021
-542,496	800,000	-0,012	0,029
-541,481	95,019	0,074	-0,061
-540,466	270,864	-0,060	-0,076
-539,452	-81,424	0,042	0,010
-538,437	800,000	0,038	0,082
-537,423	-200,000	-0,012	0,058
-536,408	80,338	-0,132	-0,102
-535,393	800,000	-0,038	-0,085
-534,379	-200,000	-0,010	-0,112
-533,364	-200,000	-0,012	0,082
-532,350	-119,891	-0,110	-0,013
-531,335	-145,987	0,055	0,003
-530,321	168,497	0,056	0,058
-529,306	-116,202	-0,046	0,006
-528,291	-42,546	0,067	-0,025
-527,277	-200,000	0,038	-0,209
-526,262	445,213	0,063	0,101
-525,248	-9,086	0,041	-0,020
-524,233	-200,000	-0,014	-0,121
-523,218	800,000	0,026	0,064
-522,204	108,025	-0,036	0,031
-521,189	367,072	-0,065	0,096
-520,175	46,238	0,058	0,039
-519,160	-64,437	0,047	0,014
-518,145	-42,953	0,142	0,052
-517,131	-200,000	0,006	0,112
-516,116	-15,191	0,091	-0,042
-515,102	800,000	0,048	0,122
-514,087	285,215	0,062	0,081
-513,072	177,120	-0,063	-0,066
-512,058	45,061	0,087	-0,058
-511,043	800,000	0,050	0,134
-510,029	245,478	0,094	0,115
-509,014	99,178	-0,080	0,067
-507,999	115,960	-0,029	0,026
-506,985	-83,798	-0,097	0,022
-505,970	800,000	-0,020	0,046
-504,956	-200,000	-0,020	-0,116
-503,941	-200,000	0,005	0,051
-502,926	192,192	0,106	0,115
-501,912	158,024	0,057	0,057
-500,897	341,864	-0,110	0,155
-499,883	64,768	0,031	-0,023
-498,868	-141,272	0,121	0,009
-497,853	-200,000	-0,008	0,068
-496,839	184,258	0,085	-0,091
-495,824	278,171	0,104	-0,134
-494,810	800,000	0,007	-0,018
-493,795	193,366	-0,029	-0,032
-492,781	-51,857	-0,050	0,017
-491,766	116,044	-0,037	0,033
-490,751	-101,420	0,128	-0,022
-489,737	5,185	-0,116	0,061
-488,722	-200,000	0,005	0,052
-487,708	-200,000	-0,010	0,063
-486,693	29,391	0,052	0,032
-485,678	290,128	-0,049	0,065
-484,664	-53,373	0,156	0,051
-483,649	-200,000	0,026	-0,106
-482,635	-63,008	0,128	0,038
-481,620	315,852	-0,035	-0,048
-480,605	-200,000	-0,004	0,040
-479,591	52,476	0,037	0,026
-478,576	-200,000	-0,026	0,130
-477,562	-89,978	-0,143	0,030
-476,547	800,000	0,030	-0,062
-475,532	-91,511	-0,076	-0,016
-474,518	-200,000	0,023	0,125
-473,503	800,000	0,019	0,060
-472,489	800,000	0,033	0,089
-471,474	87,651	0,113	0,090
-470,459	3,379	-0,070	-0,036
-469,445	-200,000	-0,006	-0,081
-468,430	-153,400	-0,162	-0,008
-467,416	268,453	-0,076	0,097
-466,401	260,826	0,039	-0,049
-465,386	756,379	0,042	0,082
-464,372	239,785	-0,053	0,064
-463,357	-0,873	0,048	0,025
-462,343	-172,292	-0,220	-0,005
-461,328	-78,685	0,107	-0,026
-460,313	194,166	0,115	-0,125
-459,299	111,258	0,145	-0,126
-458,284	140,093	0,025	0,024
-457,270	170,690	-0,114	-0,118
-456,255	535,692	-0,061	-0,105
-455,241	19,515	-0,093	-0,054
-454,226	416,740	0,042	0,065
-453,211	113,332	0,115	0,100
-452,197	74,182	-0,089	-0,067
-451,182	-200,000	0,008	-0,188
-450,168	1,172	0,047	0,024
-449,153	-200,000	-0,011	0,172
-448,138	21,645	-0,021	-0,012
-447,124	-200,000	-0,046	-0,190
-446,109	93,308	-0,032	-0,026
-445,095	-200,000	-0,028	0,092
-444,080	11,563	0,019	-0,011
-443,065	-59,104	-0,133	0,041
-442,051	-61,485	0,120	-0,036
-441,036	-200,000	0,013	-0,115
-440,022	800,000	-0,069	0,178
-439,007	287,183	-0,026	0,034
-437,992	800,000	-0,026	-0,066
-436,978	-72,749	0,142	0,037
-435,963	-200,000	-0,002	-0,062
-434,949	-85,675	0,050	0,011
-433,934	-134,965	-0,068	0,006
-432,919	-100,917	0,137	-0,024
-431,905	-83,049	-0,098	0,022
-430,890	-200,000	0,012	0,064
-429,876	-13,885	0,189	0,087
-428,861	800,000	-0,040	0,082
-427,846	227,414	-0,066	-0,077
-426,832	-200,000	0,035	-0,121
-425,817	800,000	-0,065	-0,160
-424,803	-200,000	-0,013	-0,053
-423,788	736,663	-0,035	-0,068
-422,773	-200,000	0,000	-0,063
-421,759	173,814	-0,077	0,080
-420,744	336,785	0,060	-0,084
-419,730	-96,759	-0,074	0,014
-418,715	-200,000	-0,001	0,030
-417,701	37,516	-0,094	-0,060
-416,686	-200,000	0,020	-0,104
-415,671	331,291	0,054	-0,075
-414,657	480,827	0,050	0,082
-413,642	-34,826	0,053	0,021
-412,628	-200,000	-0,008	0,085
-411,613	-41,865	-0,049	-0,018
-410,598	-200,000	0,004	0,075
-409,584	-146,930	0,075	0,005
-408,569	-54,720	0,095	0,031
-407,555	-200,000	0,006	0,141
-406,540	-200,000	-0,024	0,115
-405,525	71,200	0,052	0,039
-404,511	-200,000	-0,007	-0,109
-403,496	61,476	0,094	-0,067
-402,482	501,788	0,022	-0,037
-401,467	351,487	0,092	0,131
-400,452	-200,000	-0,014	0,099
-399,438	-200,000	-0,013	0,073
-398,423	-108,192	-0,029	-0,004
-397,409	-160,204	-0,054	0,002
-396,394	296,215	-0,049	0,065
-395,379	273,317	0,051	-0,065
-394,365	349,702	-0,064	-0,091
-393,350	-11,504	0,129	0,061
-392,336	-132,291	-0,100	-0,009
-391,321	800,000	0,026	0,065
-390,306	800,000	-0,025	-0,057
-389,292	-66,282	-0,154	-0,044
-388,277	7,232	-0,105	-0,056
-387,263	-76,693	0,070	-0,018
-386,248	477,485	0,075	0,122
-385,233	44,751	0,204	0,135
-384,219	-200,000	0,001	0,040
-383,204	464,689	0,077	-0,123
-382,190	-200,000	-0,012	-0,096
-381,175	121,509	-0,129	-0,115
-380,160	127,231	0,075	0,068
-379,146	-200,000	-0,005	0,122
-378,131	-200,000	-0,000	0,106
-377,117	798,915	-0,010	0,019
-376,102	800,000	-0,057	0,140
-375,088	-200,000	-0,004	-0,109
-374,073	5,059	0,086	-0,045
-373,058	274,199	-0,035	-0,045
-372,044	-200,000	0,019	0,150
-371,029	-26,234	-0,102	-0,043
-370,015	800,000	0,035	-0,105
-369,000	113,018	-0,070	-0,061
-367,985	-200,000	-0,019	-0,079
-366,971	-200,000	-0,005	0,032
-365,956	-93,055	-0,105	-0,021
-364,942	21,308	0,157	0,091
-363,927	248,398	-0,037	-0,045
-362,912	-77,922	-0,122	-0,030
-361,898	800,000	0,038	-0,080
-360,883	371,409	-0,013	-0,019
-359,869	47,574	-0,054	0,036
-358,854	-26,100	0,091	0,038
-357,839	-51,300	0,049	0,016
-356,825	682,453	-0,028	0,052
-355,810	-106,362	-0,063	0,010
-354,796	-13,153	-0,089	0,041
-353,781	74,826	0,075	-0,057
-352,766	79,407	0,063	0,048
-351,752	-22,895	-0,031	-0,013
-350,737	-200,000	-0,003	0,080
-349,723	624,978	-0,064	-0,116
-348,708	34,390	0,079	-0,049
-347,693	124,745	0,034	0,031
-346,679	580,532	-0,061	0,108
-345,664	465,269	-0,082	0,132
-344,650	-200,000	0,005	-0,025
-343,635	-91,704	0,143	0,029
-342,620	-200,000	0,015	0,076
-341,606	-200,000	0,008	0,081
-340,591	236,647	-0,059	-0,071
-339,577	-200,000	0,026	-0,136
-338,562	-200,000	-0,013	-0,124
-337,548	-200,000	0,002	-0,171
-336,533	-200,000	0,040	-0,156
-335,518	800,000	0,050	-0,122
-334,504	-137,470	-0,057	0,005
-333,489	800,000	0,048	-0,100
-332,475	-71,190	-0,146	0,039
-331,460	588,281	-0,047	-0,083
-330,445	321,306	0,058	-0,079
-329,431	-6,046	-0,160	-0,078
-328,416	-56,116	0,063	-0,020
-327,402	800,000	0,019	-0,056
-326,387	-15,006	-0,024	-0,011
-325,372	-200,000	0,005	-0,078
-324,358	106,078	-0,055	0,047
-323,343	800,000	0,044	-0,088
-322,329	259,697	0,026	-0,032
-321,314	-110,919	0,072	-0,010
-320,299	0,217	-0,019	-0,010
-319,285	-200,000	-0,000	-0,045
-318,270	-96,310	0,176	-0,033
-317,256	-200,000	0,013	-0,111
-316,241	-111,425	-0,078	0,011
-315,226	-106,492	-0,061	-0,010
-314,212	453,673	0,097	-0,155
-313,197	583,751	0,080	-0,141
-312,183	244,458	0,032	-0,039
-311,168	422,477	-0,025	-0,039
-310,153	800,000	-0,036	-0,107
-309,139	-200,000	-0,013	0,054
-308,124	-10,802	0,140	-0,066
-307,110	-200,000	0,009	0,078
-306,095	800,000	0,033	0,077
-305,080	-28,580	-0,062	0,025
-304,066	-200,000	-0,009	-0,080
-303,051	115,400	0,078	-0,068
-302,037	295,988	-0,114	-0,151
-301,022	-34,243	-0,065	0,026
-300,008	-4,576	-0,089	-0,044
-298,993	-200,000	0,005	-0,096
-297,978	-76,801	-0,063	-0,016
-296,964	-200,000	0,006	0,089
-295,949	-97,820	0,145	0,027
-294,935	500,208	-0,089	-0,147
-293,920	105,135	-0,048	-0,041
-292,905	-200,000	0,002	-0,074
-291,891	103,100	0,070	-0,059
-290,876	800,000	0,017	-0,049
-289,862	-200,000	0,018	0,180
-288,847	284,648	-0,045	-0,058
-287,832	89,636	-0,073	-0,058
-286,818	800,000	-0,053	-0,138
-285,803	-83,898	0,111	0,025
-284,789	-200,000	-0,031	0,187
-283,774	37,935	-0,064	-0,041
-282,759	314,479	-0,059	-0,080
-281,745	234,776	-0,094	-0,111
-280,730	-85,257	-0,124	0,027
-279,716	52,525	-0,032	-0,022
-278,701	116,121	-0,094	0,083
-277,686	246,369	-0,066	-0,080
-276,672	-2,938	0,070	-0,035
-275,657	681,773	-0,038	0,072
-274,643	7,928	-0,100	0,053
-273,628	255,212	0,075	0,092
-272,613	-200,000	0,033	0,110
-271,599	97,410	0,056	0,046
-270,584	-86,383	0,120	0,026
-269,570	-74,782	-0,149	0,038
-268,555	71,174	-0,027	0,020
-267,540	123,179	0,062	-0,056
-266,526	-69,986	-0,094	-0,025
-265,511	800,000	-0,064	-0,132
-264,497	-4,862	-0,060	0,029
-263,482	-200,000	-0,003	0,029
-262,467	-200,000	0,034	0,113
-261,453	800,000	-0,071	0,152
-260,438	126,957	0,121	0,110
-259,424	56,846	-0,025	0,018
-258,409	-42,982	-0,135	0,049
-257,395	260,527	-0,058	-0,072
-256,380	800,000	0,051	-0,104
-255,365	-159,042	-0,185	-0,007
-254,351	800,000	-0,010	-0,028
-253,336	154,678	0,104	0,102
-252,322	44,693	-0,116	0,076
-251,307	23,782	0,063	-0,037
-250,292	800,000	-0,042	-0,127
-249,278	-200,000	0,005	0,109
-248,263	-200,000	0,013	0,135
-247,249	47,094	0,032	-0,021
-246,234	-200,000	-0,001	0,149
-245,219	-200,000	0,014	-0,102
-244,205	-200,000	0,001	-0,073
-243,190	-154,056	-0,120	0,006
-242,176	62,886	0,069	0,049
-241,161	100,613	0,028	-0,023
-240,146	149,909	0,100	0,097
-239,132	-71,237	0,123	0,033
-238,117	-200,000	-0,003	0,043
-237,103	38,208	0,032	-0,020
-236,088	8,349	0,120	0,064
-235,073	214,492	0,080	-0,090
-234,059	89,988	0,127	0,101
-233,044	331,382	-0,075	0,103
-232,030	-101,814	0,052	-0,009
-231,015	800,000	0,045	0,096
-230,000	-35,487	-0,082	-0,032
-228,986	240,927	0,099	0,118
-227,971	-144,198	0,161	-0,011
-226,957	-124,582	0,140	-0,015
-225,942	-148,854	-0,126	0,007
-224,927	35,732	0,036	0,022
-223,913	-200,000	-0,002	-0,083
-222,898	53,574	0,114	-0,078
-221,884	-200,000	-0,048	-0,179
-220,869	113,616	0,085	-0,074
-219,855	800,000	-0,090	0,207
-218,840	-200,000	0,003	0,167
-217,825	-106,455	-0,043	-0,007
-216,811	-80,616	-0,114	-0,027
-215,796	-200,000	0,013	0,099
-214,782	-200,000	-0,028	0,097
-213,767	800,000	0,012	0,033
-212,752	-200,000	-0,000	0,006
-211,738	218,918	-0,065	0,074
-210,723	669,086	-0,054	0,101
-209,709	800,000	0,049	0,109
-208,694	487,519	-0,065	-0,106
-207,679	-158,754	-0,191	-0,008
-206,665	-56,399	0,114	0,036
-205,650	-159,357	0,044	0,002
-204,636	335,153	-0,063	-0,088
-203,621	103,509	0,024	-0,020
-202,606	230,486	0,038	0,044
-201,592	800,000	-0,032	0,095
-200,577	50,162	-0,119	-0,080
-199,563	300,262	0,049	-0,064
-198,548	-51,171	-0,085	0,028
-197,533	341,362	0,014	-0,019
-196,519	-107,343	0,106	-0,017
-195,504	74,364	-0,111	-0,083
-194,490	246,323	-0,035	0,042
-193,475	520,848	0,068	-0,115
-192,460	-66,861	-0,097	-0,027
-191,446	20,855	-0,081	0,047
-190,431	406,054	0,153	0,231
-189,417	-200,000	0,034	0,117
-188,402	32,991	-0,072	-0,044
-187,387	-200,000	-0,006	-0,072
-186,373	-180,957	-0,076	-0,001
-185,358	800,000	-0,018	0,053
-184,344	99,807	-0,034	-0,028
-183,329	-123,073	0,060	-0,007
-182,315	-103,748	0,027	-0,005
-181,300	-57,686	-0,034	-0,011
-180,285	44,522	-0,092	0,060
-179,271	150,142	-0,033	-0,032
-178,256	-200,000	0,001	-0,040
-177,242	-200,000	-0,009	-0,075
-176,227	-96,686	0,078	-0,015
-175,212	-200,000	0,000	-0,026
-174,198	111,472	-0,046	0,039
-173,183	-200,000	-0,011	-0,059
-172,169	6,696	-0,104	-0,055
-171,154	-200,000	0,007	-0,068
-170,139	-169,671	-0,077	0,002
-169,125	148,421	0,105	0,101
-168,110	-200,000	-0,017	0,161
-167,096	190,146	0,048	0,052
-166,081	474,717	-0,057	0,092
-165,066	800,000	0,029	-0,090
-164,052	96,730	-0,034	0,027
-163,037	419,915	-0,082	-0,125
-162,023	-57,978	0,091	0,028
-161,008	-7,682	0,131	0,063
-159,993	-39,327	-0,184	0,069
-158,979	-22,456	0,033	0,014
-157,964	-200,000	-0,007	-0,051
-156,950	-145,390	-0,092	0,006
-155,935	-37,736	0,088	0,033
-154,920	-22,466	0,038	0,016
-153,906	352,010	-0,025	-0,036
-152,891	120,766	0,070	-0,062
-151,877	430,399	-0,056	-0,087
-150,862	251,956	0,095	-0,116
-149,847	-61,915	-0,065	0,019
-148,833	-200,000	0,003	0,056
-147,818	800,000	0,066	0,142
-146,804	-36,956	0,094	-0,036
-145,789	1,518	0,115	0,059
-144,775	128,308	-0,121	0,110
-143,760	-13,531	-0,074	-0,034
-142,745	-130,920	0,148	0,014
-141,731	800,000	-0,034	0,071
-140,716	800,000	0,032	-0,082
-139,702	80,348	0,168	0,129
-138,687	40,845	-0,143	0,092
-137,672	568,141	0,061	-0,106
-136,658	78,594	0,066	-0,050
-135,643	261,534	-0,053	-0,065
-134,629	-200,000	-0,012	-0,072
-133,614	-97,320	0,076	-0,014
-132,599	-121,007	0,152	0,018
-131,585	305,375	-0,082	0,109
-130,570	41,501	-0,027	-0,017
-129,556	800,000	-0,083	-0,218
-128,541	-120,265	-0,047	-0,006
-127,526	-140,905	0,087	-0,006
-126,512	-200,000	0,002	0,070
-125,497	181,934	0,041	0,043
-124,483	-200,000	0,001	0,115
-123,468	359,805	-0,048	0,068
-122,453	-120,494	0,025	0,003
-121,439	-15,645	-0,073	-0,033
-120,424	-200,000	-0,000	-0,092
-119,410	-26,584	0,167	0,069
-118,395	94,151	-0,069	0,056
-117,380	3,077	-0,041	0,021
-116,366	158,751	-0,090	0,089
-115,351	33,658	0,044	0,027
-114,337	494,810	-0,095	-0,156
-113,322	9,575	-0,155	-0,083
-112,307	-118,337	-0,119	0,015
-111,293	137,941	0,063	0,059
-110,278	-66,301	0,069	0,019
-109,264	243,741	-0,027	0,032
-108,249	-120,620	-0,073	-0,009
-107,234	588,077	-0,089	-0,156
-106,220	197,145	-0,048	-0,052
-105,205	-105,565	-0,010	-0,002
-104,191	-126,039	0,091	-0,010
-103,176	-200,000	0,006	0,045
-102,162	800,000	0,019	0,047
-101,147	-93,802	0,058	-0,011
-100,132	-30,689	-0,113	-0,045
-99,118	-7,172	0,083	0,040
-98,103	-200,000	-0,007	0,130
-97,089	-98,972	0,053	0,009
-96,074	-200,000	0,002	0,061
-95,059	-200,000	-0,005	0,080
-94,045	-40,166	-0,057	-0,021
-93,030	10,013	-0,059	-0,032
-92,016	-93,507	0,113	0,022
-91,001	17,187	-0,134	0,075
-89,986	300,013	-0,049	0,064
-88,972	-11,956	0,083	0,038
-87,957	800,000	-0,021	0,065
-86,943	74,504	-0,070	0,052
-85,928	-132,477	-0,193	-0,017
-84,913	-196,875	0,050	0,000
-83,899	462,348	0,083	-0,133
-82,884	-200,000	-0,020	-0,068
-81,870	-200,000	0,010	0,128
-80,855	182,879	-0,091	-0,095
-79,840	305,342	0,148	0,196
-78,826	800,000	-0,024	-0,071
-77,811	-145,156	-0,181	0,011
-76,797	-200,000	-0,007	0,026
-75,782	-200,000	0,001	0,013
-74,767	-152,543	0,139	0,007
-73,753	-37,472	0,052	-0,019
-72,738	311,740	-0,050	0,067
-71,724	-200,000	-0,113	0,000
-70,709	154,897	-0,098	0,096
-69,694	-200,000	-0,014	-0,048
-68,680	60,104	0,141	0,099
-67,665	-200,000	0,015	0,060
-66,651	-200,000	-0,016	-0,119
-65,636	-42,419	-0,145	-0,052
-64,622	138,704	-0,065	-0,060
-63,607	-200,000	-0,027	-0,165
-62,592	17,824	0,072	0,041
-61,578	-200,000	-0,008	0,025
-60,563	293,030	-0,045	0,058
-59,549	-23,312	0,112	0,048
-58,534	-81,151	-1,278	-0,297
-57,519	377,663	-1,565	-2,277
-56,505	-200,000	-0,544	-4,400
-55,490	62,448	0,856	0,606
-54,476	800,000	4,713	11,358
-53,461	-200,000	17,188	269,241
-52,446	800,000	714,819	2180,441
-51,432	552,331	1629,270	2787,300
-50,417	81,483	1655,460	1268,810
-49,403	24,502	1529,601	895,387
-48,388	18,504	1453,168	821,772
-47,373	18,618	1442,532	816,271
-46,359	18,345	1433,381	809,762
-45,344	16,810	1428,826	799,873
-44,330	16,745	1426,760	798,378
-43,315	16,722	1425,361	797,453
-42,300	16,825	1423,369	796,794
-41,286	16,780	1422,552	796,091
-40,271	16,744	1420,900	794,967
-39,257	16,722	1419,820	794,226
-38,242	16,758	1418,465	793,607
-37,227	16,776	1417,271	792,993
-36,213	16,747	1416,171	792,209
-35,198	16,744	1414,906	791,454
-34,184	16,764	1413,968	790,994
-33,169	16,751	1412,565	790,117
-32,154	16,745	1411,733	789,592
-31,140	16,766	1410,351	788,885
-30,125	16,795	1409,104	788,293
-29,111	16,802	1408,043	787,698
-28,096	16,714	1407,000	786,673
-27,082	16,724	1405,695	785,959
-26,067	16,717	1404,535	785,249
-25,052	16,706	1403,665	784,680
-24,038	16,710	1402,627	784,083
-23,023	16,686	1401,490	783,306
-22,009	16,659	1400,672	782,694
-20,994	16,640	1399,723	782,045
-19,979	16,630	1398,825	781,464
-18,965	16,645	1397,781	780,920
-17,950	16,613	1396,796	780,188
-16,936	16,585	1396,030	779,601
-15,921	16,604	1394,797	778,971
-14,906	16,555	1393,963	778,246
-13,892	16,602	1392,912	777,848
-12,877	16,600	1391,986	777,288
-11,863	16,610	1391,079	776,797
-10,848	16,590	1390,307	776,246
-9,833	16,577	1389,399	775,645
-8,819	16,555	1388,128	774,804
-7,804	16,512	1387,521	774,237
-6,790	16,501	1386,337	773,495
-5,775	16,456	1385,442	772,758
-4,760	16,441	1384,685	772,234
-3,746	16,509	1383,642	771,935
-2,731	16,447	1382,981	771,251
-1,717	16,497	1381,880	770,838
-0,702	16,439	1380,056	769,522
0,313	20,226	1301,982	743,443
1,327	36,651	707,720	442,227
2,342	56,230	125,849	86,535
3,356	2,819	16,668	8,547
4,371	2,594	3,075	1,575
5,386	-49,063	0,533	0,180
6,400	800,000	-0,054	0,129
7,415	141,751	-0,137	-0,128
8,429	-28,062	-0,390	-0,159
9,444	-5,529	-0,329	-0,159
10,459	122,842	-0,222	-0,197
11,473	35,691	-0,363	-0,226
12,488	367,311	-0,261	-0,375
13,502	204,111	-0,376	-0,413
14,517	104,836	-0,237	-0,198
15,531	51,592	-0,388	-0,260
16,546	66,328	-0,338	-0,243
17,561	328,547	-0,282	-0,385
18,575	-48,195	-0,391	-0,133
19,590	454,189	-0,180	-0,284
20,604	-4,267	-0,268	-0,131
21,619	-9,135	-0,491	-0,232
22,634	201,890	-0,436	-0,477
23,648	83,218	-0,445	-0,343
24,663	410,829	-0,283	-0,425
25,677	57,762	-0,450	-0,311
26,692	21,086	-0,257	-0,147
27,707	87,842	-0,477	-0,373
28,721	313,364	-0,261	-0,348
29,736	-0,447	-0,443	-0,222
30,750	62,694	-0,439	-0,310
31,765	246,701	-0,292	-0,349
32,780	254,251	-0,266	-0,322
33,794	31,207	-0,378	-0,229
34,809	-52,704	-0,352	-0,114
35,823	342,234	-0,255	-0,354
36,838	159,096	-0,382	-0,376
37,853	403,132	-0,312	-0,466
38,867	18,970	-0,373	-0,211
39,882	330,038	-0,294	-0,401
40,896	353,177	-0,180	-0,253
41,911	279,724	-0,172	-0,217
42,926	48,380	-0,392	-0,259
43,940	-20,357	-0,341	-0,148
44,955	134,677	-0,319	-0,293
45,969	48,550	-0,319	-0,211
46,984	86,682	-0,295	-0,230
47,999	475,106	-0,180	-0,288
49,013	29,549	-0,256	-0,153
50,028	-26,187	-0,384	-0,159
51,042	212,613	-0,224	-0,250
52,057	90,784	-0,328	-0,259
53,071	77,613	-0,434	-0,326
54,086	94,652	-0,365	-0,293
55,101	124,884	-0,322	-0,287
56,115	179,830	-0,267	-0,277
57,130	1,583	-0,376	-0,191
58,144	-37,182	-0,565	-0,212
59,159	49,108	-0,378	-0,250
60,174	30,511	-0,365	-0,220
61,188	64,579	-0,382	-0,271
62,203	120,762	-0,316	-0,277
63,217	-38,437	-0,361	-0,134
64,232	-71,344	-0,326	-0,085
65,247	97,557	-0,335	-0,271
66,261	104,551	-0,328	-0,272
67,276	10,905	-0,370	-0,199
68,290	48,670	-0,355	-0,234
69,305	-41,203	-0,351	-0,127
70,320	61,843	-0,308	-0,216
71,334	174,328	-0,329	-0,336
72,349	36,041	-0,340	-0,210
73,363	85,124	-0,383	-0,296
74,378	69,804	-0,419	-0,304
75,393	-7,070	-0,345	-0,165
76,407	20,122	-0,270	-0,153
77,422	156,905	-0,264	-0,257
78,436	-24,626	-0,301	-0,125
79,451	-65,577	-0,462	-0,130
80,466	-2,310	-0,327	-0,161
81,480	71,985	-0,322	-0,235
82,495	57,724	-0,317	-0,218
83,509	192,418	-0,270	-0,287
84,524	-33,896	-0,302	-0,117
85,539	-102,428	-0,327	-0,055
86,553	128,438	-0,229	-0,205
87,568	92,378	-0,297	-0,236
88,582	319,661	-0,203	-0,272
89,597	11,651	-0,333	-0,179
90,611	-26,650	-0,335	-0,137
91,626	235,402	-0,187	-0,218
92,641	117,796	-0,157	-0,136
93,655	222,573	-0,219	-0,248
94,670	-116,857	-0,349	-0,044
95,684	106,546	-0,323	-0,269
96,699	13,516	-0,372	-0,202
97,714	-141,063	-0,309	-0,022
98,728	-200,000	-0,023	-0,178
99,743	24,940	-0,302	-0,175
100,757	14,499	-0,327	-0,179
101,772	56,007	-0,309	-0,210
102,787	65,759	-0,340	-0,242
103,801	29,554	-0,300	-0,179
104,816	196,162	-0,210	-0,225
105,830	24,482	-0,286	-0,166
106,845	151,593	-0,165	-0,158
107,860	-10,996	-0,142	-0,065
108,874	84,467	-0,265	-0,204
109,889	-16,129	-0,241	-0,107
110,903	119,782	-0,117	-0,101
111,918	-50,452	-0,284	-0,094
112,933	95,229	-0,270	-0,216
113,947	169,883	-0,278	-0,279
114,962	9,514	-0,388	-0,206
115,976	131,902	-0,210	-0,190
116,991	64,343	-0,222	-0,157
118,006	780,925	-0,178	-0,343
119,020	-5,407	-0,214	-0,103
120,035	-106,500	-0,240	-0,037
121,049	234,676	-0,231	-0,267
122,064	40,228	-0,202	-0,127
123,079	58,626	-0,244	-0,168
124,093	51,566	-0,411	-0,274
125,108	115,604	-0,220	-0,189
126,122	-28,261	-0,267	-0,108
127,137	-153,910	-0,282	-0,013
128,151	4,481	-0,244	-0,125
129,166	139,174	-0,227	-0,209
130,181	66,699	-0,209	-0,149
131,195	59,856	-0,323	-0,223
132,210	264,860	-0,295	-0,361
133,224	221,415	-0,181	-0,204
134,239	30,915	-0,353	-0,211
135,254	-14,776	-0,242	-0,108
136,268	147,427	-0,197	-0,186
137,283	21,065	-0,189	-0,107
138,297	192,076	-0,239	-0,253
139,312	50,762	-0,306	-0,203
140,327	37,536	-0,312	-0,194
141,341	100,972	-0,251	-0,204
142,356	140,357	-0,178	-0,164
143,370	-49,030	-0,179	-0,060
144,385	-25,597	-0,258	-0,106
145,400	133,518	-0,258	-0,234
146,414	68,433	-0,297	-0,213
147,429	26,275	-0,259	-0,151
148,443	234,448	-0,203	-0,234
149,458	-24,388	-0,231	-0,096
150,473	-20,094	-0,265	-0,114
151,487	112,463	-0,264	-0,224
152,502	139,962	-0,205	-0,189
153,516	199,739	-0,218	-0,234
154,531	200,915	-0,296	-0,319
155,546	114,636	-0,255	-0,217
156,560	800,000	-0,049	-0,135
157,575	-69,879	-0,194	-0,051
158,589	261,230	-0,134	-0,162
159,604	66,643	-0,136	-0,097
160,619	-34,128	-0,301	-0,115
161,633	112,361	-0,300	-0,254
162,648	-36,120	-0,146	-0,055
163,662	800,000	-0,142	-0,300
164,677	90,083	-0,221	-0,173
165,692	-21,635	-0,285	-0,121
166,706	90,095	-0,285	-0,222
167,721	17,555	-0,341	-0,189
168,735	-47,950	-0,257	0,086
169,750	0,531	-0,214	-0,106
170,764	103,555	-0,163	-0,134
171,779	239,830	-0,097	-0,114
172,794	404,288	-0,219	-0,323
173,808	82,954	-0,153	-0,116
174,823	24,175	-0,256	-0,148
175,837	-19,463	-0,329	-0,142
176,852	-15,644	-0,194	-0,086
177,867	39,846	-0,080	-0,050
178,881	800,000	-0,066	-0,190
179,896	800,000	-0,138	-0,312
180,910	67,982	-0,162	-0,115
181,925	715,559	-0,119	-0,222
182,940	140,269	-0,291	-0,268
183,954	-89,373	-0,227	-0,046
184,969	306,611	-0,128	-0,167
185,983	122,406	-0,208	-0,182
186,998	559,781	-0,090	-0,152
188,013	294,176	-0,197	-0,252
189,027	506,859	-0,192	-0,312
190,042	-3,911	-0,289	-0,139
191,056	60,026	-0,302	-0,208
192,071	40,359	-0,123	-0,077
193,086	-20,725	-0,138	-0,059
194,100	89,362	-0,193	-0,150
195,115	129,730	-0,159	-0,141
196,129	-16,383	-0,258	-0,114
197,144	6,830	-0,301	-0,156
198,159	-36,426	-0,228	-0,085
199,173	418,326	-0,135	-0,201
200,188	355,708	-0,079	-0,110
201,202	57,864	-0,175	-0,119
202,217	75,161	-0,201	-0,148
203,232	-25,347	-0,251	-0,103
204,246	191,057	-0,164	-0,172
205,261	-142,041	-0,241	0,016
206,275	19,883	-0,140	-0,079
207,290	800,000	-0,116	-0,273
208,304	561,489	-0,154	-0,261
209,319	119,370	-0,153	-0,132
210,334	-7,257	-0,322	-0,151
211,348	388,522	-0,194	-0,281
212,363	86,821	-0,163	-0,125
213,377	-6,823	-0,262	-0,124
214,392	800,000	-0,079	-0,204
215,407	31,499	-0,061	-0,037
216,421	167,692	-0,138	-0,136
217,436	-87,568	-0,167	-0,035
218,450	41,693	-0,247	-0,156
219,465	38,534	-0,258	-0,159
220,480	-96,815	-0,258	-0,047
221,494	57,359	-0,136	-0,092
222,509	92,191	-0,106	-0,083
223,523	95,165	-0,145	-0,115
224,538	-10,950	-0,241	-0,110
225,553	141,257	-0,145	-0,133
226,567	123,229	-0,137	-0,119
227,582	-200,000	-0,054	-0,181
228,596	-89,540	-0,216	0,044
229,611	-127,222	-0,124	-0,012
230,626	122,297	-0,133	-0,116
231,640	-10,852	-0,221	-0,101
232,655	470,092	-0,113	-0,177
233,669	75,605	-0,254	-0,186
234,684	40,240	-0,214	-0,133
235,699	191,061	-0,050	-0,052
236,713	218,738	-0,061	-0,068
237,728	81,723	-0,226	-0,170
238,742	429,157	-0,169	-0,255
239,757	71,551	-0,247	-0,178
240,772	-48,978	-0,336	-0,111
241,786	-50,827	-0,260	-0,084
242,801	-200,000	-0,039	-0,180
243,815	12,558	-0,141	-0,075
244,830	75,788	-0,189	-0,139
245,844	341,921	-0,127	-0,173
246,859	110,163	-0,252	-0,210
247,874	603,057	-0,084	-0,146
248,888	257,983	-0,134	-0,160
249,903	-47,703	-0,165	-0,055
250,917	-45,288	-0,269	-0,092
251,932	-60,634	-0,126	0,037
252,947	-71,490	-0,105	-0,027
253,961	191,749	-0,130	-0,136
254,976	-36,345	-0,302	-0,112
255,990	-115,053	-0,340	-0,044
257,005	-145,133	-0,216	0,013
258,020	682,040	-0,115	-0,209
259,034	-7,014	-0,123	-0,058
260,049	-136,097	-0,205	-0,016
261,063	67,215	-0,153	-0,108
262,078	-18,134	-0,278	-0,120
263,093	165,372	-0,218	-0,213
264,107	297,576	-0,172	-0,219
265,122	188,290	-0,087	-0,090
266,136	78,438	-0,189	-0,140
267,151	-23,141	-0,091	-0,038
268,166	251,661	-0,113	-0,133
269,180	1,491	-0,176	-0,087
270,195	181,286	-0,146	-0,149
271,209	213,540	-0,165	-0,181
272,224	-3,935	-0,192	-0,092
273,239	800,000	-0,079	-0,221
274,253	474,266	-0,131	-0,206
275,268	177,197	-0,149	-0,151
276,282	44,132	-0,266	-0,168
277,297	-29,951	-0,132	-0,052
278,312	-111,725	-0,116	-0,016
279,326	89,380	-0,130	-0,100
280,341	37,509	-0,152	-0,093
281,355	49,602	-0,191	-0,125
282,370	191,496	-0,156	-0,163
283,384	129,951	-0,243	-0,215
284,399	282,426	-0,229	-0,284
285,414	156,359	-0,284	-0,271
286,428	34,361	-0,130	-0,078
287,443	258,522	-0,116	-0,138
288,457	145,346	-0,210	-0,194
289,472	133,980	-0,141	-0,127
290,487	276,943	-0,196	-0,242
291,501	58,803	-0,136	-0,092
292,516	-135,953	-0,275	0,022
293,530	335,014	-0,098	-0,132
294,545	-55,589	-0,174	-0,054
295,560	13,844	-0,133	-0,071
296,574	130,527	-0,148	-0,131
297,589	280,590	-0,154	-0,191
298,603	112,278	-0,310	-0,259
299,618	142,728	-0,118	-0,109
300,633	-94,727	-0,265	-0,049
301,647	-64,971	-0,179	-0,050
302,662	194,943	-0,107	-0,112
303,676	276,300	-0,088	-0,108
304,691	37,709	-0,213	-0,130
305,706	234,981	-0,176	-0,201
306,720	661,063	-0,099	-0,178
307,735	-52,958	-0,158	-0,050
308,749	800,000	-0,085	-0,164
309,764	101,130	-0,068	-0,055
310,779	77,122	-0,097	-0,071
311,793	33,158	-0,194	-0,116
312,808	800,000	-0,046	-0,122
313,822	551,927	-0,082	-0,136
314,837	70,631	-0,138	-0,098
315,852	22,840	-0,157	-0,089
316,866	-167,800	-0,211	0,006
317,881	-13,586	-0,187	-0,083
318,895	800,000	-0,100	-0,200
319,910	154,625	-0,100	-0,095
320,925	-30,510	-0,139	-0,054
321,939	-170,120	-0,252	-0,006
322,954	430,097	-0,065	-0,097
323,968	370,170	-0,047	-0,066
324,983	5,697	-0,227	-0,115
325,997	27,677	-0,126	-0,073
327,012	-12,953	-0,256	-0,114
328,027	23,534	-0,137	-0,077
329,041	235,951	-0,174	-0,198
330,056	-60,762	-0,187	-0,054
331,070	-63,092	-0,114	-0,032
332,085	311,249	-0,097	-0,126
333,100	-200,000	-0,016	-0,066
334,114	-200,000	-0,043	-0,188
335,129	329,031	-0,139	-0,184
336,143	-200,000	0,011	-0,194
337,158	-200,000	-0,017	-0,072
338,173	9,987	-0,207	-0,108
339,187	-200,000	-0,001	-0,026
340,202	99,672	-0,272	-0,217
341,216	-51,459	-0,290	-0,093
342,231	82,216	-0,175	-0,131
343,246	619,993	-0,135	-0,234
344,260	123,733	-0,040	-0,035
345,275	217,357	-0,158	-0,174
346,289	293,406	-0,188	-0,236
347,304	-30,217	-0,020	-0,008
348,319	70,312	-0,063	-0,045
349,333	800,000	-0,087	-0,238
350,348	377,223	-0,192	-0,271
351,362	-60,588	-0,197	-0,057
352,377	474,995	-0,088	-0,138
353,392	-146,985	-0,085	-0,005
354,406	24,786	-0,182	-0,104
355,421	209,984	1315,140	1420,013
356,435	161,628	1475,980	1420,545
