DTS Sentinel unit serial number:	SN410029Multiplexer serial number:	ORYXHardware model number:	OX2-SRSoftware version number:	ORYX F/W v4,00 Oryx Data Collector v3.7.2.0data status	okinstallation	B3 Nyhavnadifferential loss correction	single-endedforward channel	channel 1reverse channel	N/Adate	2023/11/30time	18:07:30forward acquisition time	300,00reverse acquisition time	0,00gamma	499,1914k internal	0,3203k external	0,3203temperature offset calibration	1,0000default loss term (dB/km)	0,3820temperature slope calibration	1,0000multiplexer offset coefficient	1,0000multiplexer slope coefficient	1,0000fibre end	0,00T internal ref (°C)	12,88T ext. ref 1 (°C)	-2,32T ext. ref 2 (°C)	-2,41length (m)	temperature (°C)	Stokes	anti-Stokes-744,400	496,975	-0,184	-0,309
-743,385	-200,000	0,023	0,332
-742,371	283,833	-0,202	-0,264
-741,356	-200,000	0,089	0,348
-740,342	-52,339	-0,271	-0,091
-739,327	-200,000	0,044	0,389
-738,312	596,595	-0,181	-0,328
-737,298	330,205	-0,123	0,172
-736,283	145,369	-0,156	-0,151
-735,269	-200,000	0,002	0,354
-734,254	800,000	-0,062	-0,167
-733,239	52,916	-0,169	0,117
-732,225	134,313	-0,260	-0,245
-731,210	-34,615	0,119	0,047
-730,196	777,807	-0,029	-0,057
-729,181	-200,000	-0,003	0,029
-728,167	656,752	-0,045	-0,085
-727,152	-200,000	-0,015	-0,084
-726,137	-137,364	-0,202	0,016
-725,123	112,002	-0,070	-0,061
-724,108	-200,000	-0,046	-0,212
-723,094	108,616	0,059	0,052
-722,079	-83,772	-0,099	0,023
-721,064	54,968	0,046	-0,032
-720,050	-135,153	-0,091	0,008
-719,035	446,706	-0,023	-0,038
-718,021	185,232	0,023	0,024
-717,006	800,000	-0,007	-0,015
-715,991	-77,281	-0,243	-0,061
-714,977	440,577	0,066	-0,106
-713,962	800,000	-0,022	-0,047
-712,948	142,641	0,040	0,039
-711,933	460,759	-0,022	0,035
-710,918	362,944	0,019	0,028
-709,904	124,808	-0,102	0,094
-708,889	-95,708	-0,227	0,044
-707,875	-80,735	0,052	-0,012
-706,860	-138,992	0,144	0,011
-705,845	-200,000	-0,008	-0,111
-704,831	800,000	0,012	0,030
-703,816	-200,000	-0,017	0,137
-702,802	513,651	-0,037	-0,063
-701,787	17,567	-0,155	-0,089
-700,772	-108,717	0,047	-0,007
-699,758	-200,000	-0,019	0,090
-698,743	-23,427	-0,023	0,010
-697,729	-40,904	0,113	-0,042
-696,714	-200,000	0,023	-0,127
-695,699	95,523	-0,083	-0,068
-694,685	-200,000	-0,014	-0,105
-693,670	637,722	0,041	-0,075
-692,656	473,320	0,041	-0,067
-691,641	279,148	-0,028	-0,037
-690,627	-5,817	-0,040	0,020
-689,612	-73,489	0,186	0,049
-688,597	18,199	-0,014	-0,008
-687,583	-117,883	-0,070	-0,009
-686,568	-56,323	-0,103	0,033
-685,554	800,000	-0,033	-0,073
-684,539	-116,429	0,075	0,010
-683,524	-35,352	0,128	0,050
-682,510	-27,653	-0,144	0,060
-681,495	293,731	0,049	0,065
-680,481	59,528	0,072	-0,051
-679,466	-4,568	-0,164	-0,082
-678,451	800,000	0,019	-0,054
-677,437	208,150	-0,102	-0,116
-676,422	800,000	0,024	-0,051
-675,408	-93,539	0,048	-0,010
-674,393	397,264	0,065	-0,099
-673,378	185,366	-0,110	-0,118
-672,364	119,291	-0,089	-0,080
-671,349	-78,620	-0,099	-0,024
-670,335	88,989	0,084	-0,068
-669,320	-200,000	0,007	0,063
-668,305	9,679	-0,047	0,026
-667,291	259,513	0,080	0,100
-666,276	239,505	-0,099	-0,119
-665,262	237,343	-0,090	-0,108
-664,247	-142,191	-0,080	0,006
-663,232	487,886	0,026	0,043
-662,218	800,000	0,024	-0,059
-661,203	118,290	-0,112	0,100
-660,189	84,931	-0,067	0,053
-659,174	-200,000	-0,046	-0,155
-658,159	-12,816	-0,071	-0,033
-657,145	-28,943	-0,144	-0,060
-656,130	-4,590	0,077	-0,038
-655,116	800,000	-0,007	-0,020
-654,101	670,752	0,082	-0,155
-653,086	603,504	-0,046	-0,082
-652,072	113,517	-0,098	0,086
-651,057	-64,196	-0,115	-0,034
-650,043	-55,006	0,054	-0,018
-649,028	392,919	-0,059	-0,089
-648,014	-94,893	0,208	0,040
-646,999	-87,965	0,107	-0,023
-645,984	256,988	-0,109	0,136
-644,970	95,552	-0,080	-0,066
-643,955	548,430	0,044	-0,076
-642,941	216,694	-0,058	-0,067
-641,926	108,266	-0,110	-0,095
-640,911	23,828	-0,078	-0,047
-639,897	-50,028	0,086	0,029
-638,882	-7,258	-0,174	0,085
-637,868	236,633	-0,035	0,042
-636,853	-84,498	-0,041	0,009
-635,838	-30,891	-0,058	-0,024
-634,824	800,000	-0,073	-0,178
-633,809	-92,133	0,150	-0,030
-632,795	-200,000	-0,017	0,132
-631,780	90,378	0,119	-0,097
-630,765	-200,000	-0,011	-0,034
-629,751	21,556	0,100	0,059
-628,736	110,017	-0,129	-0,112
-627,722	149,653	0,107	-0,105
-626,707	-85,649	-0,022	0,005
-625,692	37,871	0,183	0,117
-624,678	800,000	0,047	-0,121
-623,663	-0,702	-0,008	-0,004
-622,649	11,971	0,006	-0,003
-621,634	-120,976	-0,032	-0,004
-620,619	-48,720	-0,116	0,040
-619,605	-200,000	-0,038	-0,151
-618,590	225,262	-0,015	-0,017
-617,576	186,130	-0,038	0,041
-616,561	534,345	0,021	0,037
-615,546	749,144	-0,078	-0,154
-614,532	-167,213	0,054	-0,002
-613,517	283,900	0,026	-0,034
-612,503	-4,875	-0,045	0,022
-611,488	93,851	0,131	-0,107
-610,474	-187,275	-0,095	-0,001
-609,459	-18,613	0,059	-0,026
-608,444	-200,000	0,020	-0,211
-607,430	-200,000	0,001	0,011
-606,415	-40,184	-0,168	0,063
-605,401	-10,542	0,167	-0,080
-604,386	-200,000	0,002	0,028
-603,371	-62,229	-0,062	0,019
-602,357	-37,983	0,012	-0,005
-601,342	-70,104	-0,068	-0,019
-600,328	48,488	-0,173	-0,117
-599,313	-200,000	0,008	-0,126
-598,298	-71,186	-0,064	0,017
-597,284	-164,857	0,069	0,002
-596,269	315,467	0,032	-0,043
-595,255	382,797	0,015	0,022
-594,240	-200,000	-0,022	-0,093
-593,225	-200,000	0,018	-0,058
-592,211	-105,249	0,120	-0,020
-591,196	70,595	-0,121	0,090
-590,182	-64,046	-0,044	-0,013
-589,167	-200,000	-0,003	-0,047
-588,152	800,000	-0,030	-0,062
-587,138	-2,367	-0,025	0,013
-586,123	117,753	-0,083	-0,074
-585,109	-100,263	0,217	-0,039
-584,094	800,000	-0,069	-0,150
-583,079	-34,528	-0,099	0,039
-582,065	315,927	0,108	0,148
-581,050	-200,000	-0,037	0,129
-580,036	800,000	-0,057	-0,147
-579,021	96,751	-0,044	0,036
-578,006	-200,000	0,013	-0,067
-576,992	8,748	-0,129	-0,070
-575,977	730,494	-0,029	-0,056
-574,963	119,195	-0,019	0,017
-573,948	667,093	0,058	-0,109
-572,934	800,000	-0,028	0,077
-571,919	199,194	-0,053	-0,058
-570,904	-57,666	0,179	-0,056
-569,890	24,225	0,043	0,026
-568,875	491,071	-0,043	0,071
-567,861	800,000	-0,034	0,091
-566,846	226,320	0,040	0,047
-565,831	-200,000	0,052	0,173
-564,817	-108,508	-0,044	-0,007
-563,802	-192,321	0,089	-0,001
-562,788	237,053	0,017	0,021
-561,773	-119,997	0,008	-0,001
-560,758	37,538	0,102	0,065
-559,744	-107,700	0,125	0,020
-558,729	1,560	-0,040	0,021
-557,715	135,050	-0,046	-0,043
-556,700	24,175	-0,155	-0,092
-555,685	-82,067	-0,068	-0,016
-554,671	63,349	-0,124	0,090
-553,656	-200,000	-0,032	0,109
-552,642	225,354	0,022	0,025
-551,627	-28,485	0,110	0,046
-550,612	-200,000	-0,003	0,019
-549,598	134,276	0,060	-0,056
-548,583	144,792	-0,061	-0,059
-547,569	195,553	0,102	-0,112
-546,554	-122,082	0,084	0,010
-545,539	-200,000	0,009	0,051
-544,525	-110,373	-0,045	-0,007
-543,510	-80,803	-0,112	-0,027
-542,496	-200,000	0,013	0,114
-541,481	370,648	-0,089	-0,131
-540,466	-200,000	-0,006	-0,025
-539,452	800,000	-0,066	-0,151
-538,437	168,165	0,052	-0,054
-537,423	5,576	0,058	0,031
-536,408	-200,000	-0,052	-0,217
-535,393	-140,546	0,020	-0,001
-534,379	800,000	-0,054	-0,135
-533,364	-200,000	0,041	-0,192
-532,350	-200,000	-0,023	0,176
-531,335	-129,024	-0,008	0,001
-530,321	-149,224	-0,130	0,007
-529,306	524,372	0,044	-0,075
-528,291	800,000	-0,054	0,120
-527,277	-92,321	-0,105	-0,021
-526,262	29,524	0,072	0,044
-525,248	800,000	-0,012	0,029
-524,233	290,766	0,038	-0,050
-523,218	500,202	-0,044	0,073
-522,204	-57,740	-0,094	-0,029
-521,189	800,000	-0,063	0,141
-520,175	489,061	-0,050	0,083
-519,160	243,946	0,022	-0,027
-518,145	149,749	0,079	-0,077
-517,131	-106,493	0,122	-0,019
-516,116	-200,000	-0,002	-0,027
-515,102	704,528	-0,058	0,111
-514,087	-200,000	-0,002	-0,051
-513,072	-75,433	-0,155	-0,040
-512,058	229,297	-0,021	0,024
-511,043	800,000	0,069	0,171
-510,029	48,989	-0,081	0,054
-509,014	15,455	0,060	0,034
-507,999	117,221	-0,060	-0,053
-506,985	-200,000	-0,005	0,035
-505,970	-39,446	-0,128	-0,048
-504,956	-26,640	-0,074	0,031
-503,941	84,767	0,027	0,021
-502,926	-200,000	0,018	-0,089
-501,912	-200,000	0,014	0,123
-500,897	800,000	-0,032	0,077
-499,883	60,680	-0,048	-0,034
-498,868	800,000	-0,026	-0,058
-497,853	468,031	-0,032	0,052
-496,839	221,073	-0,072	-0,084
-495,824	-200,000	0,011	0,072
-494,810	81,538	-0,073	0,057
-493,795	-155,440	0,065	0,003
-492,781	-67,431	0,028	0,008
-491,766	800,000	-0,019	-0,047
-490,751	-200,000	0,004	0,046
-489,737	-191,587	0,087	-0,001
-488,722	-196,232	0,057	0,000
-487,708	800,000	-0,023	0,063
-486,693	-11,685	0,108	-0,051
-485,678	626,721	0,054	0,099
-484,664	-163,097	-0,097	-0,003
-483,649	-81,050	-0,134	-0,032
-482,635	244,672	-0,062	-0,075
-481,620	-200,000	0,005	-0,022
-480,605	29,089	0,151	0,092
-479,591	85,532	0,038	0,030
-478,576	800,000	-0,037	0,112
-477,562	426,954	-0,073	0,114
-476,547	-200,000	0,018	0,076
-475,532	16,336	0,035	0,020
-474,518	211,007	0,119	0,135
-473,503	44,476	0,135	0,089
-472,489	482,517	0,008	0,013
-471,474	526,533	0,045	0,077
-470,459	-124,200	-0,096	-0,011
-469,445	126,662	-0,018	-0,016
-468,430	-200,000	0,026	-0,122
-467,416	-200,000	0,021	0,079
-466,401	202,333	0,063	0,070
-465,386	-200,000	0,022	-0,198
-464,372	-200,000	-0,005	-0,046
-463,357	343,267	-0,097	0,137
-462,343	56,775	0,107	0,075
-461,328	-12,051	-0,177	-0,083
-460,313	18,684	-0,043	0,024
-459,299	-5,284	0,061	0,030
-458,284	273,514	0,044	-0,057
-457,270	120,809	0,099	-0,089
-456,255	-200,000	-0,029	-0,131
-455,241	25,452	0,055	0,033
-454,226	-92,374	-0,156	0,031
-453,211	157,947	0,131	0,131
-452,197	137,800	0,095	0,090
-451,182	-200,000	0,008	-0,052
-450,168	284,338	0,079	-0,103
-449,153	-200,000	-0,015	0,145
-448,138	12,029	-0,112	-0,062
-447,124	153,110	-0,045	-0,044
-446,109	28,343	0,095	-0,058
-445,095	800,000	0,042	0,108
-444,080	-74,086	0,185	0,048
-443,065	800,000	-0,033	0,072
-442,051	-33,679	0,063	0,025
-441,036	-55,191	0,095	-0,031
-440,022	28,539	-0,075	-0,045
-439,007	-200,000	-0,008	-0,073
-437,992	322,980	-0,084	0,115
-436,978	253,527	0,110	0,135
-435,963	-200,000	0,007	0,116
-434,949	800,000	-0,041	0,096
-433,934	-200,000	-0,018	0,114
-432,919	800,000	0,020	-0,046
-431,905	120,011	-0,127	-0,113
-430,890	-200,000	0,005	0,086
-429,876	-200,000	-0,005	-0,114
-428,861	319,065	0,028	-0,038
-427,846	800,000	0,050	0,105
-426,832	433,825	-0,095	-0,149
-425,817	155,516	0,085	-0,084
-424,803	-181,529	0,045	-0,001
-423,788	105,449	0,029	-0,024
-422,773	524,936	0,051	0,087
-421,759	221,986	-0,071	0,082
-420,744	-145,057	-0,231	0,015
-419,730	259,110	0,064	-0,079
-418,715	-200,000	0,012	-0,164
-417,701	106,072	-0,051	-0,044
-416,686	561,543	0,040	-0,070
-415,671	-60,829	0,051	0,015
-414,657	617,505	-0,064	0,116
-413,642	-22,112	0,075	0,032
-412,628	-25,547	-0,104	0,044
-411,613	146,402	-0,157	-0,151
-410,598	-34,388	0,144	-0,056
-409,584	39,006	0,034	0,022
-408,569	-101,208	0,161	0,028
-407,555	-87,926	0,065	0,014
-406,540	-200,000	-0,003	0,106
-405,525	-22,090	0,103	-0,045
-404,511	-200,000	-0,005	0,030
-403,496	-107,309	-0,106	0,017
-402,482	-18,201	-0,060	-0,027
-401,467	91,942	0,088	0,071
-400,452	-200,000	0,026	0,182
-399,438	800,000	0,029	0,084
-398,423	425,954	-0,098	0,152
-397,409	65,248	-0,018	-0,013
-396,394	800,000	0,019	0,051
-395,379	-80,652	-0,107	0,025
-394,365	-45,138	-0,050	-0,018
-393,350	-99,862	0,143	0,025
-392,336	-200,000	0,017	0,189
-391,321	-200,000	-0,001	-0,033
-390,306	70,466	0,011	-0,008
-389,292	90,808	-0,069	-0,056
-388,277	-137,996	-0,130	-0,010
-387,263	261,626	0,112	-0,139
-386,248	83,813	-0,078	0,061
-385,233	800,000	-0,010	0,030
-384,219	-75,094	-0,030	0,008
-383,204	800,000	0,007	-0,018
-382,190	441,878	-0,015	0,023
-381,175	800,000	-0,016	0,034
-380,160	-93,132	0,106	0,021
-379,146	275,230	0,073	0,092
-378,131	71,818	0,037	-0,027
-377,117	800,000	-0,042	-0,102
-376,102	800,000	0,038	-0,079
-375,088	118,587	-0,104	0,092
-374,073	313,051	-0,034	-0,046
-373,058	-200,000	0,006	0,059
-372,044	-200,000	0,011	-0,099
-371,029	-200,000	-0,030	0,115
-370,015	215,841	0,026	0,030
-369,000	800,000	-0,017	-0,052
-367,985	-200,000	0,009	-0,039
-366,971	-148,825	0,069	0,004
-365,956	-153,226	-0,091	0,004
-364,942	-76,683	0,074	-0,019
-363,927	-154,732	0,161	-0,008
-362,912	647,177	-0,048	0,087
-361,898	282,303	-0,068	0,087
-360,883	-200,000	-0,051	0,000
-359,869	-125,625	-0,133	-0,014
-358,854	111,082	0,023	-0,020
-357,839	-174,130	0,076	0,002
-356,825	339,396	0,061	-0,086
-355,810	-122,557	-0,118	0,014
-354,796	-65,450	-0,072	0,021
-353,781	-110,494	0,055	0,008
-352,766	85,740	-0,117	0,092
-351,752	800,000	0,065	0,192
-350,737	800,000	0,049	0,115
-349,723	800,000	0,067	0,145
-348,708	-138,784	0,113	0,009
-347,693	-200,000	-0,005	0,018
-346,679	16,802	0,076	-0,043
-345,664	151,477	-0,035	0,035
-344,650	-98,848	0,070	-0,013
-343,635	-6,022	-0,097	-0,047
-342,620	-200,000	-0,014	0,055
-341,606	325,362	0,012	0,017
-340,591	-162,032	0,151	-0,005
-339,577	195,698	-0,113	-0,123
-338,562	-200,000	-0,005	-0,041
-337,548	800,000	-0,057	-0,144
-336,533	197,377	0,115	-0,126
-335,518	263,739	0,013	0,016
-334,504	-101,119	-0,017	0,003
-333,489	360,924	-0,083	-0,119
-332,475	17,081	-0,074	-0,042
-331,460	475,974	-0,131	-0,213
-330,445	-32,085	0,096	0,038
-329,431	110,540	0,069	0,059
-328,416	-200,000	0,016	0,081
-327,402	56,316	-0,043	-0,030
-326,387	-200,000	-0,003	0,054
-325,372	470,213	-0,050	-0,080
-324,358	18,537	-0,143	0,081
-323,343	84,599	0,077	0,060
-322,329	800,000	0,027	0,071
-321,314	116,180	0,077	0,067
-320,299	-200,000	-0,009	-0,029
-319,285	165,672	-0,092	-0,093
-318,270	800,000	0,008	-0,020
-317,256	637,578	0,054	-0,098
-316,241	-200,000	0,015	-0,077
-315,226	681,992	-0,043	0,081
-314,212	1,129	0,058	0,030
-313,197	-200,000	-0,008	-0,199
-312,183	294,567	-0,087	-0,114
-311,168	-200,000	0,002	-0,029
-310,153	-89,897	-0,071	0,015
-309,139	76,294	-0,061	0,046
-308,124	-133,294	-0,100	0,009
-307,110	62,218	0,061	-0,043
-306,095	-200,000	0,054	0,188
-305,080	-200,000	0,005	0,086
-304,066	-200,000	0,008	-0,055
-303,051	68,564	0,047	-0,035
-302,037	288,298	-0,071	-0,091
-301,022	365,138	-0,013	0,019
-300,008	267,201	0,078	0,098
-298,993	-200,000	-0,003	0,086
-297,978	451,909	0,061	0,097
-296,964	12,749	-0,014	-0,008
-295,949	112,473	0,043	-0,038
-294,935	-200,000	-0,000	-0,057
-293,920	84,404	0,019	-0,015
-292,905	800,000	0,049	0,137
-291,891	-83,187	-0,061	0,014
-290,876	-74,554	0,133	0,034
-289,862	73,051	0,060	0,044
-288,847	70,989	0,012	-0,009
-287,832	636,758	0,104	-0,190
-286,818	156,238	-0,045	-0,044
-285,803	-107,057	0,098	0,015
-284,789	-200,000	0,014	0,074
-283,774	800,000	0,073	0,228
-282,759	253,782	0,027	-0,033
-281,745	-74,826	0,076	0,019
-280,730	-161,616	-0,023	-0,001
-279,716	-200,000	-0,010	0,130
-278,701	800,000	-0,076	0,219
-277,686	-200,000	-0,010	0,090
-276,672	321,494	0,054	0,073
-275,657	-36,689	0,070	-0,027
-274,643	191,388	-0,124	-0,134
-273,628	146,015	-0,118	-0,113
-272,613	800,000	0,056	-0,117
-271,599	-200,000	0,006	0,057
-270,584	-63,492	0,179	-0,052
-269,570	-200,000	-0,017	0,072
-268,555	-200,000	0,006	-0,063
-267,540	-9,494	0,026	-0,012
-266,526	43,117	-0,099	-0,064
-265,511	-25,155	-0,033	0,014
-264,497	16,483	0,113	-0,064
-263,482	800,000	0,079	0,167
-262,467	651,957	-0,072	0,131
-261,453	549,038	0,087	0,148
-260,438	784,380	-0,035	0,069
-259,424	201,202	-0,022	0,025
-258,409	63,795	-0,010	0,007
-257,395	-134,954	0,069	0,006
-256,380	-18,028	0,132	0,059
-255,365	-63,583	-0,113	-0,033
-254,351	141,631	-0,018	0,017
-253,336	-200,000	0,080	0,000
-252,322	-189,953	-0,050	-0,000
-251,307	800,000	0,056	-0,157
-250,292	164,555	0,034	0,034
-249,278	-200,000	0,004	0,052
-248,263	-121,152	0,077	0,009
-247,249	59,057	-0,051	-0,035
-246,234	169,370	0,030	-0,031
-245,219	39,183	0,111	-0,070
-244,205	-60,491	-0,091	-0,027
-243,190	-39,207	-0,062	-0,023
-242,176	44,550	0,106	0,069
-241,161	-200,000	-0,011	-0,092
-240,146	300,058	0,046	0,060
-239,132	800,000	0,016	-0,045
-238,117	-86,133	-0,076	-0,017
-237,103	131,330	-0,039	-0,036
-236,088	125,597	0,075	-0,068
-235,073	507,362	-0,070	0,115
-234,059	-21,673	0,071	0,030
-233,044	-200,000	0,027	0,125
-232,030	358,909	-0,045	-0,065
-231,015	314,864	-0,054	-0,073
-230,000	53,218	-0,154	-0,105
-228,986	-200,000	0,107	-0,000
-227,971	232,612	0,065	-0,077
-226,957	371,484	0,027	-0,039
-225,942	800,000	-0,014	-0,035
-224,927	303,989	-0,078	0,103
-223,913	-125,742	0,089	0,009
-222,898	392,934	-0,057	0,084
-221,884	64,553	-0,054	-0,039
-220,869	24,738	0,057	0,033
-219,855	180,375	-0,051	0,054
-218,840	199,908	0,045	-0,049
-217,825	-139,193	0,105	0,008
-216,811	-129,446	-0,035	0,003
-215,796	800,000	0,037	-0,093
-214,782	91,993	0,039	-0,031
-213,767	-34,010	-0,078	-0,030
-212,752	-200,000	0,005	0,116
-211,738	242,368	0,028	-0,033
-210,723	-200,000	0,007	0,072
-209,709	-101,506	-0,075	-0,013
-208,694	800,000	-0,030	-0,077
-207,679	116,455	-0,033	-0,029
-206,665	91,960	0,122	-0,098
-205,650	-27,847	0,004	0,002
-204,636	-200,000	0,012	0,160
-203,621	-200,000	0,011	0,075
-202,606	82,060	-0,108	0,083
-201,592	-63,883	-0,063	-0,018
-200,577	155,427	0,107	-0,105
-199,563	-44,845	0,049	-0,017
-198,548	725,803	0,058	0,111
-197,533	-200,000	0,003	-0,099
-196,519	-68,105	0,045	-0,012
-195,504	-140,485	0,084	-0,006
-194,490	-50,389	-0,119	-0,040
-193,475	800,000	-0,032	-0,096
-192,460	800,000	0,016	0,038
-191,446	-200,000	-0,019	-0,067
-190,431	169,371	0,022	-0,023
-189,417	84,859	0,104	0,081
-188,402	30,853	-0,061	0,037
-187,387	800,000	0,040	0,100
-186,373	427,678	-0,090	-0,139
-185,358	220,265	0,038	-0,044
-184,344	800,000	-0,040	0,097
-183,329	38,493	-0,021	-0,014
-182,315	-116,236	-0,062	0,008
-181,300	17,585	-0,083	-0,047
-180,285	-101,952	0,035	-0,006
-179,271	500,557	0,075	0,124
-178,256	50,458	0,041	-0,028
-177,242	-75,781	-0,243	0,061
-176,227	58,621	0,085	-0,060
-175,212	16,343	0,062	-0,034
-174,198	800,000	-0,021	-0,047
-173,183	-200,000	-0,027	-0,095
-172,169	195,309	0,088	-0,096
-171,154	520,761	-0,044	-0,074
-170,139	431,619	0,029	-0,045
-169,125	800,000	-0,036	-0,099
-168,110	-200,000	0,002	-0,009
-167,096	-167,055	0,010	-0,000
-166,081	365,820	-0,055	0,079
-165,066	20,923	-0,080	-0,046
-164,052	240,503	-0,034	0,041
-163,037	-129,256	0,092	0,009
-162,023	-184,198	-0,089	-0,001
-161,008	-111,625	0,081	-0,012
-159,993	800,000	0,037	0,080
-158,979	84,517	-0,027	-0,021
-157,964	-69,967	-0,064	0,017
-156,950	394,882	-0,028	-0,041
-155,935	289,813	-0,067	0,087
-154,920	-200,000	-0,036	-0,118
-153,906	800,000	0,051	-0,116
-152,891	-96,235	-0,012	0,002
-151,877	-129,316	-0,127	0,012
-150,862	-38,722	-0,178	-0,066
-149,847	100,539	-0,013	0,010
-148,833	-10,126	-0,045	-0,021
-147,818	-153,085	-0,054	0,003
-146,804	-28,711	0,112	0,046
-145,789	-200,000	-0,005	-0,127
-144,775	-139,522	-0,145	-0,011
-143,760	109,510	-0,093	-0,079
-142,745	-59,403	0,057	0,017
-141,731	200,460	0,136	-0,149
-140,716	-24,020	0,131	-0,055
-139,702	238,855	-0,089	0,106
-138,687	11,908	-0,092	0,050
-137,672	800,000	-0,022	-0,054
-136,658	-11,265	-0,131	0,061
-135,643	139,824	-0,031	0,029
-134,629	48,608	-0,042	0,028
-133,614	618,649	-0,044	-0,080
-132,599	-200,000	-0,024	0,147
-131,585	209,434	-0,022	-0,025
-130,570	619,490	-0,036	0,065
-129,556	-27,537	-0,015	-0,006
-128,541	-200,000	-0,032	-0,169
-127,526	800,000	-0,069	-0,141
-126,512	-100,608	-0,070	0,012
-125,497	-72,781	-0,054	-0,014
-124,483	800,000	0,024	-0,056
-123,468	-137,102	-0,121	-0,010
-122,453	107,040	-0,058	0,049
-121,439	-200,000	0,000	-0,110
-120,424	369,988	-0,031	-0,044
-119,410	30,176	0,128	0,077
-118,395	-99,817	0,140	0,025
-117,380	-162,998	0,178	0,006
-116,366	-22,750	-0,099	-0,042
-115,351	-71,300	0,114	0,030
-114,337	-54,622	0,026	-0,008
-113,322	328,483	-0,055	-0,076
-112,307	-55,570	0,091	-0,029
-111,293	215,872	-0,069	-0,078
-110,278	-95,858	0,170	-0,032
-109,264	729,678	0,062	0,118
-108,249	-200,000	-0,033	0,148
-107,234	-200,000	0,013	-0,065
-106,220	-200,000	-0,034	0,132
-105,205	-200,000	0,002	-0,080
-104,191	800,000	-0,025	-0,068
-103,176	61,453	0,089	-0,063
-102,162	800,000	-0,017	-0,039
-101,147	-129,668	0,130	0,013
-100,132	-61,605	0,109	-0,032
-99,118	-124,427	-0,159	-0,017
-98,103	296,068	0,076	-0,099
-97,089	492,514	-0,048	0,079
-96,074	-30,359	-0,064	-0,026
-95,059	-192,467	0,110	0,001
-94,045	570,647	-0,018	0,031
-93,030	247,167	0,024	0,028
-92,016	201,930	-0,084	-0,092
-91,001	135,314	-0,069	0,064
-89,986	100,186	0,173	-0,142
-88,972	18,313	0,150	0,085
-87,957	548,227	-0,087	0,148
-86,943	-142,165	-0,124	-0,009
-85,928	-15,640	0,153	-0,069
-84,913	69,895	0,047	-0,035
-83,899	-106,722	0,074	-0,012
-82,884	149,584	0,080	-0,077
-81,870	161,225	0,081	-0,080
-80,855	295,488	-0,067	-0,087
-79,840	245,397	-0,030	-0,035
-78,826	-200,000	-0,043	-0,137
-77,811	800,000	-0,042	-0,101
-76,797	-200,000	0,000	0,081
-75,782	586,849	0,101	-0,176
-74,767	125,395	0,023	0,020
-73,753	-69,078	0,143	0,039
-72,738	294,127	-0,018	-0,023
-71,724	800,000	-0,099	-0,198
-70,709	-40,666	-0,081	-0,030
-69,694	149,730	0,099	-0,095
-68,680	-83,847	-0,124	0,028
-67,665	416,079	-0,041	0,062
-66,651	-131,061	-0,063	0,006
-65,636	800,000	-0,033	-0,098
-64,622	-193,898	-0,067	0,000
-63,607	-200,000	-0,022	-0,123
-62,592	372,541	-0,088	-0,127
-61,578	-49,083	-0,060	0,020
-60,563	-200,000	-0,018	0,104
-59,549	71,051	-0,160	0,118
-58,534	-20,555	-1,813	-0,785
-57,519	338,901	-1,483	-2,050
-56,505	-200,000	-0,458	-4,417
-55,490	369,339	0,850	1,221
-54,476	800,000	4,909	11,199
-53,461	-200,000	19,471	327,630
-52,446	-200,000	742,543	2338,683
-51,432	570,873	1652,919	2857,565
-50,417	77,478	1666,485	1253,378
-49,403	20,834	1540,123	880,407
-48,388	14,775	1462,540	806,680
-47,373	18,487	1452,886	819,202
-46,359	16,839	1442,566	805,477
-45,344	12,997	1438,281	784,706
-44,330	12,899	1436,363	783,161
-43,315	12,928	1434,576	782,292
-42,300	12,973	1432,609	781,404
-41,286	12,975	1431,596	780,831
-40,271	12,945	1430,119	779,849
-39,257	12,886	1429,072	778,969
-38,242	12,922	1427,855	778,445
-37,227	12,960	1426,550	777,882
-36,213	12,949	1425,296	777,113
-35,198	12,968	1424,056	776,500
-34,184	13,048	1423,170	776,364
-33,169	12,970	1421,689	775,155
-32,154	13,000	1420,683	774,717
-31,140	13,007	1419,475	774,062
-30,125	13,029	1418,377	773,536
-29,111	12,989	1417,219	772,685
-28,096	12,999	1416,190	772,139
-27,082	12,940	1415,001	771,186
-26,067	12,911	1414,020	770,483
-25,052	12,944	1412,789	769,935
-24,038	12,869	1412,036	769,144
-23,023	12,899	1410,940	768,658
-22,009	12,893	1409,952	768,061
-20,994	12,882	1409,283	767,615
-19,979	12,881	1408,280	767,031
-18,965	12,854	1407,194	766,285
-17,950	12,854	1406,325	765,780
-16,936	12,868	1405,328	765,272
-15,921	12,862	1404,228	764,616
-14,906	12,845	1403,470	764,095
-13,892	12,865	1402,421	763,584
-12,877	12,784	1401,574	762,715
-11,863	12,799	1400,796	762,334
-10,848	12,791	1399,822	761,736
-9,833	12,784	1398,976	761,212
-8,819	12,732	1397,992	760,406
-7,804	12,737	1397,495	760,129
-6,790	12,730	1396,379	759,455
-5,775	12,764	1395,116	758,897
-4,760	12,734	1394,052	758,148
-3,746	12,697	1393,512	757,657
-2,731	12,686	1392,664	757,113
-1,717	12,695	1391,653	756,576
-0,702	12,655	1389,798	755,351
0,313	16,586	1306,143	728,008
1,327	32,997	699,902	427,812
2,342	50,722	122,423	81,808
3,356	3,261	16,610	8,518
4,371	1,084	3,284	1,660
5,386	-32,604	0,648	0,254
6,400	-200,000	0,013	0,198
7,415	448,256	-0,178	-0,278
8,429	-165,694	-0,233	0,007
9,444	52,942	-0,191	-0,129
10,459	88,482	-0,269	-0,211
11,473	-87,053	-0,248	-0,053
12,488	-43,025	-0,296	-0,106
13,502	53,009	-0,323	-0,218
14,517	-78,613	-0,212	-0,051
15,531	88,168	-0,357	-0,279
16,546	22,536	-0,360	-0,207
17,561	186,193	-0,386	-0,406
18,575	-8,074	-0,185	-0,088
19,590	336,201	-0,215	-0,296
20,604	106,513	-0,231	-0,194
21,619	67,151	-0,471	-0,339
22,634	121,561	-0,483	-0,425
23,648	72,320	-0,483	-0,355
24,663	365,096	-0,266	-0,379
25,677	124,198	-0,311	-0,276
26,692	85,056	-0,484	-0,374
27,707	-58,846	-0,391	-0,119
28,721	14,282	-0,344	-0,188
29,736	145,936	-0,323	-0,306
30,750	96,012	-0,414	-0,333
31,765	-13,122	-0,509	-0,232
32,780	46,270	-0,308	-0,201
33,794	24,089	-0,361	-0,210
34,809	35,658	-0,562	-0,347
35,823	18,029	-0,341	-0,191
36,838	171,065	-0,303	-0,307
37,853	173,402	-0,370	-0,377
38,867	4,190	-0,443	-0,228
39,882	8,852	-0,383	-0,203
40,896	111,897	-0,351	-0,298
41,911	13,553	-0,318	-0,174
42,926	-9,220	-0,516	-0,242
43,940	50,662	-0,320	-0,213
44,955	17,755	-0,493	-0,276
45,969	-120,664	-0,307	-0,036
46,984	253,616	-0,251	-0,303
47,999	125,865	-0,245	-0,218
49,013	-20,886	-0,428	-0,184
50,028	-22,013	-0,461	-0,197
51,042	38,651	-0,361	-0,226
52,057	39,586	-0,332	-0,209
53,071	498,088	-0,206	-0,334
54,086	16,062	-0,205	-0,114
55,101	80,260	-0,225	-0,170
56,115	19,571	-0,349	-0,197
57,130	-124,707	-0,352	-0,038
58,144	393,989	-0,229	-0,337
59,159	125,477	-0,411	-0,365
60,174	-43,249	-0,448	-0,159
61,188	-32,881	-0,572	-0,222
62,203	-40,748	-0,443	-0,160
63,217	228,983	-0,341	-0,392
64,232	21,100	-0,422	-0,240
65,247	55,646	-0,344	-0,234
66,261	64,915	-0,284	-0,201
67,276	282,784	-0,263	-0,333
68,290	131,117	-0,308	-0,278
69,305	133,460	-0,363	-0,330
70,320	-12,038	-0,192	-0,088
71,334	162,445	-0,339	-0,335
72,349	26,013	-0,447	-0,261
73,363	1,443	-0,325	-0,164
74,378	-81,910	-0,292	-0,066
75,393	59,141	-0,263	-0,181
76,407	-74,894	-0,226	-0,057
77,422	193,062	-0,284	-0,302
78,436	84,247	-0,238	-0,183
79,451	-54,875	-0,372	-0,117
80,466	115,354	-0,268	-0,230
81,480	579,554	-0,228	-0,394
82,495	140,068	-0,327	-0,303
83,509	52,339	-0,219	-0,147
84,524	123,417	-0,188	-0,166
85,539	137,345	-0,211	-0,193
86,553	180,573	-0,209	-0,215
87,568	-6,138	-0,386	-0,184
88,582	-52,479	-0,376	-0,121
89,597	242,375	-0,280	-0,329
90,611	243,635	-0,199	-0,235
91,626	174,195	-0,221	-0,225
92,641	161,276	-0,236	-0,232
93,655	40,892	-0,411	-0,260
94,670	64,327	-0,307	-0,216
95,684	2,526	-0,212	-0,107
96,699	457,277	-0,196	-0,306
97,714	-77,825	-0,214	-0,051
98,728	92,079	-0,240	-0,189
99,743	107,035	-0,259	-0,216
100,757	75,026	-0,120	-0,089
101,772	39,988	-0,293	-0,184
102,787	-24,334	-0,265	-0,110
103,801	39,902	-0,228	-0,143
104,816	219,023	-0,197	-0,221
105,830	74,170	-0,239	-0,175
106,845	22,489	-0,120	-0,069
107,860	87,216	-0,154	-0,119
108,874	378,337	-0,202	-0,290
109,889	-123,902	-0,327	-0,036
110,903	11,910	-0,173	-0,093
111,918	27,821	-0,306	-0,180
112,933	19,467	-0,255	-0,143
113,947	238,884	-0,188	-0,219
114,962	596,215	-0,153	-0,266
115,976	-10,073	-0,286	-0,133
116,991	113,590	-0,183	-0,156
118,006	-110,866	-0,375	-0,053
119,020	176,579	-0,193	-0,197
120,035	-189,529	-0,239	-0,002
121,049	-53,545	-0,205	-0,065
122,064	449,755	-0,193	-0,298
123,079	74,690	-0,184	-0,135
124,093	139,870	-0,308	-0,284
125,108	202,976	-0,241	-0,260
126,122	93,723	-0,270	-0,213
127,137	180,509	-0,235	-0,242
128,151	112,791	-0,266	-0,226
129,166	3,727	-0,286	-0,146
130,181	16,666	-0,237	-0,131
131,195	41,946	-0,252	-0,160
132,210	31,462	-0,273	-0,163
133,224	239,230	-0,232	-0,270
134,239	110,607	-0,256	-0,215
135,254	-77,435	-0,247	0,060
136,268	77,962	-0,211	-0,157
137,283	-36,852	-0,229	-0,085
138,297	162,949	-0,336	-0,330
139,312	132,939	-0,295	-0,266
140,327	81,268	-0,305	-0,230
141,341	74,923	-0,191	-0,140
142,356	70,658	-0,118	-0,085
143,370	84,022	-0,265	-0,202
144,385	325,581	-0,084	-0,113
145,400	211,954	-0,194	-0,214
146,414	0,076	-0,242	-0,120
147,429	85,473	-0,239	-0,183
148,443	800,000	-0,107	-0,244
149,458	129,443	-0,236	-0,211
150,473	293,008	-0,235	-0,300
151,487	226,246	-0,163	-0,185
152,502	73,046	-0,182	-0,132
153,516	1,139	-0,282	-0,141
154,531	392,463	-0,159	-0,231
155,546	81,199	-0,223	-0,168
156,560	78,010	-0,207	-0,154
157,575	118,152	-0,191	-0,164
158,589	-13,618	-0,319	-0,144
159,604	109,928	-0,182	-0,152
160,619	518,883	-0,190	-0,311
161,633	-12,616	-0,145	-0,066
162,648	-26,020	-0,232	-0,095
163,662	-130,780	-0,247	0,023
164,677	11,919	-0,223	-0,119
165,692	800,000	-0,137	-0,277
166,706	191,767	-0,192	-0,202
167,721	163,870	-0,174	-0,171
168,735	800,000	-0,158	-0,308
169,750	301,035	-0,146	-0,188
170,764	-29,731	-0,208	-0,082
171,779	74,652	-0,139	-0,102
172,794	10,844	-0,138	-0,073
173,808	217,593	-0,195	-0,216
174,823	42,576	-0,282	-0,178
175,837	800,000	-0,123	-0,252
176,852	137,330	-0,188	-0,171
177,867	104,270	-0,152	-0,124
178,881	107,055	-0,200	-0,166
179,896	-106,555	-0,327	-0,050
180,910	105,879	-0,301	-0,248
181,925	-9,845	-0,190	-0,088
182,940	276,300	-0,218	-0,270
183,954	800,000	-0,142	-0,287
184,969	31,521	-0,144	-0,086
185,983	-148,438	-0,155	0,009
186,998	242,165	-0,133	-0,155
188,013	-158,863	-0,318	-0,012
189,027	31,852	-0,169	-0,101
190,042	144,257	-0,121	-0,112
191,056	429,918	-0,103	-0,155
192,071	-37,204	-0,259	-0,096
193,086	31,898	-0,215	-0,128
194,100	148,374	-0,153	-0,144
195,115	-200,000	-0,333	0,001
196,129	108,672	-0,279	-0,232
197,144	292,174	-0,172	-0,219
198,159	283,062	-0,232	-0,290
199,173	69,524	-0,179	-0,128
200,188	-3,674	-0,132	-0,063
201,202	141,776	-0,137	-0,127
202,217	63,312	-0,169	-0,118
203,232	-41,403	-0,311	-0,111
204,246	127,741	-0,282	-0,249
205,261	155,987	-0,212	-0,203
206,275	-3,139	-0,251	-0,121
207,290	224,302	-0,231	-0,260
208,304	46,098	-0,210	-0,135
209,319	-130,698	-0,268	-0,025
210,334	302,533	-0,145	-0,187
211,348	748,194	-0,129	-0,242
212,363	186,359	-0,149	-0,154
213,377	676,860	-0,158	-0,287
214,392	-139,842	-0,208	-0,015
215,407	73,146	-0,163	-0,118
216,421	54,872	-0,200	-0,134
217,436	-16,757	-0,215	-0,094
218,450	-6,775	-0,213	-0,100
219,465	375,960	-0,153	-0,217
220,480	78,149	-0,287	-0,213
221,494	95,838	-0,222	-0,176
222,509	-117,488	-0,074	0,009
223,523	226,911	-0,128	-0,145
224,538	60,781	-0,316	-0,217
225,553	67,540	-0,189	-0,133
226,567	281,374	-0,178	-0,221
227,582	-162,572	-0,198	0,007
228,596	101,611	-0,116	-0,093
229,611	69,208	-0,102	-0,073
230,626	66,563	-0,163	0,115
231,640	83,201	-0,195	-0,147
232,655	515,014	-0,171	-0,278
233,669	268,073	-0,203	-0,246
234,684	206,770	-0,179	-0,193
235,699	-68,286	-0,091	-0,024
236,713	-16,116	-0,183	-0,080
237,728	330,183	-0,166	-0,222
238,742	456,066	-0,202	-0,311
239,757	800,000	-0,078	-0,194
240,772	127,534	-0,178	-0,156
241,786	108,306	-0,232	-0,192
242,801	215,506	-0,150	-0,165
243,815	86,022	-0,204	-0,155
244,830	200,845	-0,151	-0,161
245,844	-1,529	-0,133	-0,065
246,859	-71,924	-0,242	-0,062
247,874	-23,907	-0,217	-0,090
248,888	-38,163	-0,294	-0,107
249,903	800,000	-0,049	-0,109
250,917	800,000	-0,062	-0,179
251,932	45,362	-0,125	-0,080
252,947	95,196	-0,167	-0,132
253,961	-86,189	-0,196	-0,042
254,976	131,771	-0,139	-0,123
255,990	-55,678	-0,167	-0,051
257,005	-163,362	-0,176	-0,006
258,020	61,164	-0,198	-0,136
259,034	53,442	-0,165	-0,109
260,049	66,358	-0,177	-0,124
261,063	284,547	-0,110	-0,137
262,078	14,535	-0,292	-0,157
263,093	486,281	-0,101	-0,159
264,107	127,038	-0,207	-0,181
265,122	293,713	-0,119	-0,150
266,136	-200,000	-0,042	-0,267
267,151	-23,823	-0,236	-0,097
268,166	269,764	-0,156	-0,190
269,180	372,038	-0,151	-0,212
270,195	521,755	-0,195	-0,318
271,209	137,503	-0,137	-0,124
272,224	350,694	-0,150	-0,205
273,239	-200,000	-0,005	-0,115
274,253	-162,393	-0,259	0,009
275,268	-200,000	-0,056	-0,196
276,282	100,412	-0,137	-0,110
277,297	176,660	-0,097	-0,097
278,312	-147,247	-0,175	-0,010
279,326	-79,078	-0,154	-0,036
280,341	234,155	-0,186	-0,211
281,355	101,686	-0,101	-0,081
282,370	-200,000	-0,099	-0,306
283,384	64,824	-0,277	-0,193
284,399	720,892	-0,149	-0,275
285,414	30,608	-0,127	-0,075
286,428	-34,484	-0,244	-0,092
287,443	-79,882	-0,111	-0,025
288,457	144,627	-0,173	-0,160
289,472	167,868	-0,109	-0,107
290,487	57,098	-0,124	0,083
291,501	145,420	-0,169	-0,156
292,516	-57,060	-0,154	-0,046
293,530	-43,869	-0,159	-0,055
294,545	167,660	-0,116	-0,113
295,560	-200,000	-0,009	-0,035
296,574	516,675	-0,131	-0,212
297,589	-124,365	-0,288	0,031
298,603	63,760	-0,298	-0,206
299,618	80,348	-0,138	-0,102
300,633	23,701	-0,188	-0,106
301,647	-41,537	-0,108	-0,038
302,662	18,651	-0,046	0,025
303,676	206,366	0,068	-0,074
304,691	-200,000	-0,080	-0,273
305,706	32,747	-0,126	-0,075
306,720	205,760	-0,088	-0,095
307,735	-174,366	-0,119	0,002
308,749	30,025	-0,137	-0,080
309,764	-88,678	-0,133	-0,027
310,779	11,585	-0,096	-0,051
311,793	-72,718	-0,065	-0,016
312,808	-86,090	-0,133	-0,028
313,822	73,280	-0,126	-0,091
314,837	144,268	-0,170	-0,156
315,852	-144,090	-0,243	-0,015
316,866	172,733	-0,026	0,026
317,881	-107,240	-0,093	-0,014
318,895	115,556	-0,200	-0,168
319,910	-200,000	-0,026	-0,157
320,925	64,197	-0,067	-0,046
321,939	-23,622	-0,160	-0,066
322,954	-11,121	-0,228	-0,103
323,968	133,111	-0,161	-0,143
324,983	-200,000	-0,034	-0,118
325,997	13,670	-0,092	-0,049
327,012	110,434	-0,213	-0,176
328,027	55,619	-0,237	-0,157
329,041	800,000	-0,073	-0,187
330,056	-72,503	-0,091	-0,023
331,070	288,560	-0,026	-0,032
332,085	-200,000	0,009	-0,110
333,100	-200,000	-0,039	-0,128
334,114	92,648	-0,065	-0,051
335,129	19,003	-0,287	-0,157
336,143	406,770	-0,088	-0,128
337,158	60,998	-0,200	-0,136
338,173	30,723	-0,095	-0,055
339,187	170,722	-0,106	-0,105
340,202	103,626	-0,124	-0,100
341,216	66,633	-0,208	-0,145
342,231	-200,000	-0,020	-0,114
343,246	185,556	-0,229	-0,233
344,260	172,860	-0,066	-0,065
345,275	244,780	-0,087	-0,100
346,289	-100,960	-0,236	-0,039
347,304	800,000	-0,023	0,068
348,319	512,054	-0,120	-0,192
349,333	298,412	-0,171	-0,216
350,348	219,524	-0,159	-0,175
351,362	800,000	-0,057	-0,151
352,377	232,371	-0,157	-0,177
353,392	24,017	-0,181	-0,102
354,406	-97,229	-0,182	0,032
355,421	208,306	1310,916	1406,425
356,435	160,277	1471,188	1406,928
