DTS Sentinel unit serial number:	SN410029Multiplexer serial number:	ORYXHardware model number:	OX2-SRSoftware version number:	ORYX F/W v4,00 Oryx Data Collector v3.7.2.0data status	okinstallation	B3 Nyhavnadifferential loss correction	single-endedforward channel	channel 1reverse channel	N/Adate	2023/12/05time	06:17:30forward acquisition time	300,00reverse acquisition time	0,00gamma	499,1914k internal	0,3200k external	0,3200temperature offset calibration	1,0000default loss term (dB/km)	0,3820temperature slope calibration	1,0000multiplexer offset coefficient	1,0000multiplexer slope coefficient	1,0000fibre end	0,00T internal ref (°C)	13,94T ext. ref 1 (°C)	-1,05T ext. ref 2 (°C)	-1,09length (m)	temperature (°C)	Stokes	anti-Stokes-744,400	715,902	-0,169	-0,327
-743,385	-200,000	-0,080	0,348
-742,371	-8,396	-0,231	-0,113
-741,356	-200,000	0,097	0,454
-740,342	87,136	-0,179	-0,144
-739,327	-200,000	-0,029	0,186
-738,312	437,038	-0,201	-0,319
-737,298	-200,000	-0,031	0,297
-736,283	437,851	-0,090	-0,143
-735,269	-200,000	-0,021	0,345
-734,254	49,409	-0,225	-0,154
-733,239	162,358	-0,166	0,169
-732,225	161,284	-0,176	-0,179
-731,210	800,000	0,059	0,140
-730,196	-21,882	-0,031	-0,014
-729,181	800,000	-0,020	-0,053
-728,167	187,721	0,125	-0,136
-727,152	535,725	0,033	0,057
-726,137	-7,376	-0,096	0,047
-725,123	-88,173	-0,065	-0,014
-724,108	-33,134	-0,135	-0,054
-723,094	800,000	-0,031	-0,084
-722,079	-12,203	-0,185	-0,088
-721,064	-22,979	0,109	-0,048
-720,050	-6,384	0,053	0,026
-719,035	-83,111	0,043	0,010
-718,021	267,403	0,008	-0,010
-717,006	-200,000	-0,032	-0,124
-715,991	-200,000	0,019	-0,190
-714,977	-65,408	-0,226	0,065
-713,962	-200,000	-0,024	0,197
-712,948	409,873	0,040	-0,062
-711,933	93,965	0,071	-0,059
-710,918	-114,437	0,082	-0,011
-709,904	-41,834	-0,037	0,014
-708,889	-200,000	0,004	0,137
-707,875	10,177	-0,127	-0,070
-706,860	800,000	-0,041	0,088
-705,845	56,701	0,033	-0,023
-704,831	-200,000	0,029	0,149
-703,816	154,540	-0,132	0,131
-702,802	-200,000	0,016	-0,130
-701,787	-145,497	0,090	0,006
-700,772	-200,000	0,020	-0,126
-699,758	164,680	0,027	-0,028
-698,743	-179,942	0,022	0,000
-697,729	76,705	0,047	0,036
-696,714	-200,000	0,004	0,081
-695,699	44,234	-0,047	0,031
-694,685	800,000	-0,038	0,101
-693,670	-200,000	-0,059	-0,238
-692,656	1,561	0,060	0,031
-691,641	-200,000	0,001	-0,028
-690,627	234,483	-0,044	0,052
-689,612	-126,996	-0,115	0,012
-688,597	-131,022	0,112	0,011
-687,583	-140,225	-0,057	0,004
-686,568	22,429	0,024	0,014
-685,554	-42,496	-0,108	-0,040
-684,539	128,598	-0,080	0,074
-683,524	355,698	0,073	0,105
-682,510	-96,720	0,147	0,028
-681,495	800,000	0,018	0,050
-680,481	-200,000	-0,015	0,049
-679,466	-200,000	0,012	-0,153
-678,451	-200,000	-0,001	-0,109
-677,437	-32,828	-0,114	0,046
-676,422	-91,510	0,103	0,021
-675,408	800,000	0,063	-0,186
-674,393	-22,471	0,076	0,033
-673,378	-84,235	-0,146	0,033
-672,364	-200,000	-0,001	-0,049
-671,349	11,388	-0,105	-0,058
-670,335	800,000	-0,035	0,093
-669,320	229,936	0,057	0,068
-668,305	-81,705	0,145	-0,034
-667,291	-1,748	-0,098	0,050
-666,276	800,000	0,031	-0,099
-665,262	800,000	-0,080	-0,179
-664,247	800,000	0,029	-0,068
-663,232	-200,000	0,006	-0,052
-662,218	-4,611	0,095	0,047
-661,203	46,387	0,016	-0,011
-660,189	47,496	0,168	0,113
-659,174	-36,285	-0,156	0,061
-658,159	-200,000	-0,001	-0,011
-657,145	143,570	0,046	0,045
-656,130	186,728	0,008	-0,008
-655,116	465,786	0,051	0,083
-654,101	311,834	0,033	0,045
-653,086	-50,574	-0,081	-0,027
-652,072	23,704	-0,136	-0,081
-651,057	-200,000	0,012	-0,062
-650,043	-153,574	0,035	0,002
-649,028	499,034	-0,034	0,057
-648,014	-71,319	-0,143	-0,039
-646,999	305,824	-0,083	-0,112
-645,984	113,582	0,123	0,109
-644,970	45,968	-0,038	0,025
-643,955	-130,257	0,065	-0,006
-642,941	-200,000	-0,013	-0,057
-641,926	-200,000	-0,015	0,080
-640,911	184,095	0,102	-0,109
-639,897	-76,473	-0,005	-0,001
-638,882	492,305	-0,067	0,111
-637,868	-200,000	-0,015	-0,067
-636,853	-200,000	-0,025	0,138
-635,838	26,929	-0,136	-0,083
-634,824	-200,000	0,010	-0,122
-633,809	263,296	-0,025	0,032
-632,795	800,000	0,072	0,215
-631,780	98,547	-0,048	-0,040
-630,765	95,986	-0,100	0,083
-629,751	28,207	0,027	-0,017
-628,736	-10,703	-0,049	0,023
-627,722	118,720	-0,043	0,038
-626,707	-79,413	-0,055	-0,013
-625,692	-200,000	0,023	0,117
-624,678	-158,328	0,176	-0,007
-623,663	124,181	-0,152	0,138
-622,649	-104,847	-0,022	0,004
-621,634	-200,000	0,024	0,100
-620,619	175,036	0,034	0,035
-619,605	314,043	0,031	0,042
-618,590	-200,000	0,006	0,095
-617,576	-200,000	0,006	0,033
-616,561	-120,130	0,034	0,004
-615,546	118,785	0,069	-0,061
-614,532	-75,438	-0,071	0,018
-613,517	23,883	0,168	-0,100
-612,503	581,615	-0,017	0,030
-611,488	17,420	0,035	-0,020
-610,474	509,155	0,015	-0,025
-609,459	166,715	-0,061	0,063
-608,444	800,000	-0,006	-0,014
-607,430	50,990	-0,055	-0,038
-606,415	733,359	0,057	0,110
-605,401	-65,578	-0,059	-0,017
-604,386	-200,000	0,002	0,105
-603,371	-200,000	-0,004	0,070
-602,357	-200,000	-0,034	-0,115
-601,342	492,622	-0,026	0,043
-600,328	800,000	-0,023	-0,064
-599,313	461,895	0,063	-0,103
-598,298	413,876	0,067	-0,103
-597,284	-79,590	-0,157	0,038
-596,269	0,614	0,175	-0,090
-595,255	-200,000	-0,003	0,014
-594,240	-200,000	0,008	-0,062
-593,225	193,330	0,091	-0,099
-592,211	-91,647	-0,114	-0,023
-591,196	130,904	-0,013	0,012
-590,182	-200,000	-0,014	0,077
-589,167	69,164	0,099	0,074
-588,152	800,000	-0,009	-0,022
-587,138	800,000	-0,022	0,067
-586,123	416,343	-0,104	0,161
-585,109	-142,313	-0,137	0,010
-584,094	800,000	0,008	-0,024
-583,079	-132,687	-0,178	-0,016
-582,065	295,234	-0,031	-0,042
-581,050	-1,348	0,190	0,096
-580,036	-12,534	-0,104	0,049
-579,021	433,914	-0,044	-0,069
-578,006	-106,001	0,159	0,026
-576,992	21,988	-0,144	-0,085
-575,977	-119,728	0,074	0,009
-574,963	346,315	0,059	0,085
-573,948	-63,217	0,121	0,036
-572,934	800,000	0,038	-0,116
-571,919	-100,652	-0,027	-0,005
-570,904	800,000	0,040	-0,104
-569,890	-49,847	-0,205	-0,070
-568,875	-143,744	-0,066	0,004
-567,861	-14,809	-0,111	-0,051
-566,846	-79,354	0,154	0,037
-565,831	391,731	0,058	0,087
-564,817	-200,000	0,002	0,044
-563,802	601,251	-0,033	-0,060
-562,788	-6,729	0,086	-0,042
-561,773	-200,000	-0,011	-0,160
-560,758	224,132	-0,021	-0,024
-559,744	-64,963	0,087	0,025
-558,729	367,439	-0,110	-0,161
-557,715	-200,000	0,000	-0,060
-556,700	240,480	-0,048	-0,058
-555,685	625,629	-0,034	-0,063
-554,671	0,216	0,022	-0,011
-553,656	-200,000	0,019	0,082
-552,642	511,042	0,017	0,029
-551,627	597,928	0,016	0,029
-550,612	342,527	-0,036	-0,051
-549,598	-14,286	-0,147	0,068
-548,583	800,000	-0,032	0,073
-547,569	168,009	-0,060	-0,062
-546,554	-190,434	0,059	0,000
-545,539	-99,381	-0,058	0,010
-544,525	-150,254	0,091	0,005
-543,510	-109,938	0,041	-0,006
-542,496	448,182	0,024	0,039
-541,481	7,743	-0,023	0,012
-540,466	114,909	0,003	0,002
-539,452	531,515	0,039	0,066
-538,437	-164,515	-0,007	0,000
-537,423	103,595	0,040	0,034
-536,408	-7,624	-0,086	-0,042
-535,393	-200,000	-0,050	-0,211
-534,379	164,143	-0,125	-0,128
-533,364	-200,000	0,032	-0,119
-532,350	476,381	0,030	-0,049
-531,335	141,367	0,103	0,098
-530,321	-14,591	0,055	-0,025
-529,306	-200,000	0,002	0,024
-528,291	-200,000	-0,020	-0,142
-527,277	713,472	0,035	0,067
-526,262	800,000	0,036	-0,100
-525,248	800,000	-0,022	-0,062
-524,233	-200,000	-0,020	0,163
-523,218	-200,000	0,001	-0,059
-522,204	800,000	-0,017	0,050
-521,189	-200,000	0,020	-0,116
-520,175	-146,972	-0,159	-0,010
-519,160	-200,000	0,006	0,182
-518,145	800,000	0,058	0,162
-517,131	-84,997	0,090	0,020
-516,116	254,247	0,113	0,140
-515,102	-70,283	-0,086	0,023
-514,087	-85,235	-0,056	0,013
-513,072	-56,138	0,045	-0,014
-512,058	636,551	0,078	0,144
-511,043	-59,416	0,038	-0,012
-510,029	-200,000	-0,023	0,079
-509,014	-200,000	0,016	-0,074
-507,999	800,000	-0,085	0,183
-506,985	-111,021	-0,009	-0,001
-505,970	75,013	-0,025	0,019
-504,956	800,000	-0,027	-0,080
-503,941	116,898	-0,098	-0,086
-502,926	56,618	0,047	0,033
-501,912	-200,000	0,026	0,152
-500,897	-200,000	0,022	-0,092
-499,883	-15,281	-0,148	0,068
-498,868	-44,905	0,053	0,019
-497,853	226,018	0,081	0,094
-496,839	-200,000	0,017	-0,059
-495,824	17,433	-0,101	0,058
-494,810	378,727	0,037	-0,055
-493,795	-200,000	-0,018	0,104
-492,781	800,000	0,052	0,110
-491,766	-92,887	0,092	0,018
-490,751	-200,000	0,005	-0,082
-489,737	800,000	-0,020	0,058
-488,722	284,358	0,088	0,115
-487,708	-120,539	0,073	0,009
-486,693	134,089	0,016	-0,015
-485,678	93,083	-0,059	0,048
-484,664	154,488	0,109	-0,108
-483,649	800,000	0,051	-0,128
-482,635	-87,854	-0,051	-0,011
-481,620	753,228	0,030	-0,058
-480,605	254,805	0,079	0,098
-479,591	105,782	0,043	-0,037
-478,576	240,335	0,075	0,090
-477,562	140,837	0,090	0,085
-476,547	-115,144	-0,183	0,025
-475,532	-6,137	-0,028	-0,014
-474,518	-16,884	0,172	0,078
-473,503	-200,000	-0,007	0,044
-472,489	800,000	-0,018	0,036
-471,474	-118,507	-0,034	0,004
-470,459	-85,982	-0,134	-0,030
-469,445	-27,921	-0,045	0,019
-468,430	424,543	-0,021	0,032
-467,416	-168,634	-0,052	-0,001
-466,401	211,053	-0,120	0,136
-465,386	140,127	0,079	0,075
-464,372	-200,000	0,008	-0,072
-463,357	305,961	-0,053	-0,071
-462,343	434,708	-0,034	-0,054
-461,328	-3,837	-0,050	-0,025
-460,313	-53,705	-0,062	-0,020
-459,299	-200,000	0,003	-0,095
-458,284	-200,000	-0,013	-0,064
-457,270	-74,660	-0,062	0,016
-456,255	14,686	-0,068	0,038
-455,241	25,707	0,070	0,042
-454,226	-39,528	-0,096	0,036
-453,211	104,391	-0,125	-0,106
-452,197	-200,000	-0,016	0,124
-451,182	731,955	0,047	0,090
-450,168	-200,000	0,001	0,022
-449,153	127,730	-0,084	-0,077
-448,138	154,067	0,063	-0,062
-447,124	350,842	0,019	0,027
-446,109	-31,026	-0,068	-0,027
-445,095	113,192	0,131	0,114
-444,080	-200,000	-0,017	0,142
-443,065	-200,000	0,008	0,040
-442,051	800,000	0,054	-0,114
-441,036	-117,714	0,068	-0,009
-440,022	36,521	-0,073	0,046
-439,007	150,275	0,038	-0,037
-437,992	196,229	-0,030	0,033
-436,978	186,268	0,101	0,108
-435,963	-76,235	-0,043	0,011
-434,949	63,465	0,126	0,091
-433,934	-200,000	-0,034	0,116
-432,919	800,000	0,039	-0,086
-431,905	232,010	0,077	-0,091
-430,890	800,000	0,020	-0,040
-429,876	-200,000	0,000	0,051
-428,861	800,000	-0,016	0,050
-427,846	-50,984	-0,129	-0,043
-426,832	800,000	0,066	-0,139
-425,817	184,388	-0,062	-0,066
-424,803	-136,483	0,044	0,004
-423,788	-120,279	-0,108	0,013
-422,773	194,822	0,110	0,120
-421,759	260,035	0,071	-0,088
-420,744	800,000	-0,042	-0,094
-419,730	89,423	-0,070	0,056
-418,715	-200,000	-0,005	-0,074
-417,701	277,085	0,019	0,024
-416,686	800,000	-0,046	0,101
-415,671	-100,810	-0,059	0,010
-414,657	-56,313	0,060	0,019
-413,642	-94,368	0,028	0,005
-412,628	-200,000	0,020	0,074
-411,613	247,205	0,058	-0,070
-410,598	-105,808	0,126	-0,020
-409,584	280,309	-0,072	0,093
-408,569	800,000	0,031	0,079
-407,555	95,010	0,163	-0,133
-406,540	139,211	0,071	-0,067
-405,525	-77,066	-0,121	0,030
-404,511	366,110	-0,110	-0,160
-403,496	135,985	0,065	0,060
-402,482	800,000	-0,014	0,040
-401,467	-52,116	0,108	0,036
-400,452	800,000	-0,031	0,089
-399,438	-24,839	-0,044	-0,019
-398,423	-58,143	0,067	-0,021
-397,409	473,177	-0,062	-0,101
-396,394	48,816	0,086	-0,058
-395,379	135,160	-0,099	0,092
-394,365	-157,816	0,088	0,004
-393,350	384,513	0,099	0,147
-392,336	127,557	0,074	0,068
-391,321	-200,000	0,020	0,157
-390,306	619,151	0,092	0,166
-389,292	141,249	-0,071	0,068
-388,277	800,000	-0,065	-0,184
-387,263	-42,607	0,091	-0,033
-386,248	-200,000	-0,010	0,083
-385,233	-200,000	-0,053	0,193
-384,219	140,704	0,040	-0,038
-383,204	-200,000	-0,008	-0,043
-382,190	-200,000	-0,003	-0,115
-381,175	-200,000	-0,020	-0,136
-380,160	-52,650	0,074	-0,024
-379,146	79,863	-0,122	0,094
-378,131	41,858	0,115	0,074
-377,117	258,702	-0,023	-0,028
-376,102	-200,000	0,002	-0,118
-375,088	-200,000	-0,011	-0,070
-374,073	533,757	0,032	0,055
-373,058	800,000	0,029	0,059
-372,044	-200,000	0,026	0,095
-371,029	-105,578	0,137	0,022
-370,015	265,744	0,052	-0,065
-369,000	-200,000	0,020	0,082
-367,985	-120,264	0,152	-0,018
-366,971	800,000	-0,055	-0,157
-365,956	-72,875	-0,119	-0,031
-364,942	563,452	0,047	-0,082
-363,927	-200,000	0,006	0,072
-362,912	676,667	-0,051	-0,096
-361,898	-17,630	-0,162	-0,073
-360,883	182,436	0,036	0,039
-359,869	377,906	-0,083	-0,123
-358,854	-200,000	0,015	-0,109
-357,839	-103,094	0,053	-0,009
-356,825	-200,000	0,006	0,137
-355,810	-200,000	-0,034	-0,120
-354,796	-200,000	-0,003	-0,074
-353,781	-200,000	-0,001	0,088
-352,766	40,532	0,073	-0,047
-351,752	800,000	-0,059	-0,129
-350,737	-15,507	-0,198	0,090
-349,723	-73,259	0,045	-0,012
-348,708	20,358	0,104	0,060
-347,693	-200,000	0,046	-0,165
-346,679	-167,181	0,082	0,002
-345,664	-72,368	0,071	0,019
-344,650	800,000	0,039	-0,078
-343,635	-200,000	-0,019	0,134
-342,620	800,000	0,082	0,164
-341,606	-200,000	0,001	-0,017
-340,591	-200,000	0,033	0,171
-339,577	353,583	-0,067	-0,096
-338,562	395,618	-0,071	-0,107
-337,548	32,891	0,058	-0,036
-336,533	58,860	-0,038	-0,027
-335,518	-200,000	-0,020	-0,158
-334,504	84,582	-0,056	-0,044
-333,489	69,829	-0,137	-0,101
-332,475	-35,402	-0,092	-0,036
-331,460	275,404	0,096	-0,122
-330,445	131,679	-0,016	-0,014
-329,431	256,901	0,041	0,051
-328,416	-149,415	-0,030	-0,002
-327,402	782,878	0,022	0,043
-326,387	599,614	0,049	-0,088
-325,372	-200,000	0,017	0,057
-324,358	19,022	-0,099	0,057
-323,343	-4,090	-0,042	0,021
-322,329	270,845	-0,016	-0,021
-321,314	-97,761	0,287	0,053
-320,299	-13,654	-0,068	0,031
-319,285	48,671	-0,069	0,046
-318,270	-91,408	-0,110	-0,022
-317,256	798,212	-0,029	-0,058
-316,241	23,121	0,063	0,037
-315,226	-200,000	0,008	-0,094
-314,212	2,244	0,041	-0,021
-313,197	-200,000	0,001	-0,183
-312,183	-145,348	-0,047	0,003
-311,168	-186,350	-0,034	0,000
-310,153	547,088	-0,033	-0,056
-309,139	-200,000	-0,005	-0,128
-308,124	-74,129	0,148	-0,038
-307,110	10,655	-0,075	-0,041
-306,095	800,000	-0,035	0,083
-305,080	-111,648	0,065	-0,009
-304,066	-200,000	0,037	-0,191
-303,051	20,265	-0,118	0,068
-302,037	82,826	-0,047	-0,036
-301,022	27,415	0,088	-0,053
-300,008	-4,647	0,052	0,026
-298,993	-200,000	-0,025	-0,086
-297,978	283,993	0,029	-0,037
-296,964	-158,571	-0,106	-0,004
-295,949	800,000	0,050	-0,108
-294,935	800,000	-0,042	-0,119
-293,920	1,940	0,080	-0,041
-292,905	800,000	-0,049	-0,109
-291,891	69,160	0,091	-0,067
-290,876	-13,115	-0,104	0,048
-289,862	168,841	0,111	0,114
-288,847	-56,935	-0,161	-0,050
-287,832	569,215	0,053	-0,092
-286,818	-200,000	0,024	-0,101
-285,803	-200,000	-0,001	0,040
-284,789	-200,000	0,001	0,183
-283,774	156,785	-0,038	0,038
-282,759	-200,000	-0,018	-0,103
-281,745	169,831	-0,028	0,028
-280,730	-67,197	-0,131	0,037
-279,716	653,393	0,048	-0,088
-278,701	-106,487	0,126	0,020
-277,686	-148,565	0,161	-0,009
-276,672	800,000	-0,028	0,057
-275,657	756,951	0,052	-0,101
-274,643	29,813	0,096	0,059
-273,628	-81,136	-0,174	-0,041
-272,613	206,586	-0,091	0,102
-271,599	81,103	-0,189	-0,146
-270,584	44,839	-0,079	0,052
-269,570	90,108	-0,043	-0,034
-268,555	-200,000	-0,006	-0,060
-267,540	-200,000	-0,003	-0,016
-266,526	21,890	0,079	0,046
-265,511	170,103	0,060	-0,061
-264,497	226,073	-0,120	-0,140
-263,482	-135,286	-0,035	0,003
-262,467	-200,000	0,013	0,084
-261,453	-200,000	0,006	0,042
-260,438	-144,034	-0,017	0,001
-259,424	793,335	0,064	0,126
-258,409	-200,000	-0,033	-0,151
-257,395	-113,551	-0,183	-0,025
-256,380	-200,000	0,001	-0,014
-255,365	147,636	-0,013	-0,012
-254,351	-178,704	-0,053	-0,001
-253,336	-144,302	-0,085	-0,006
-252,322	97,668	-0,110	0,090
-251,307	73,026	0,121	-0,090
-250,292	-129,583	0,141	-0,014
-249,278	709,554	0,024	-0,045
-248,263	-200,000	0,003	-0,065
-247,249	194,311	0,136	0,148
-246,234	-200,000	-0,019	-0,096
-245,219	392,925	-0,056	-0,084
-244,205	800,000	-0,077	0,208
-243,190	354,573	-0,011	0,016
-242,176	23,904	0,013	0,007
-241,161	800,000	0,026	-0,057
-240,146	-200,000	-0,002	0,144
-239,132	-64,749	0,081	0,023
-238,117	22,783	-0,013	-0,008
-237,103	101,164	0,031	0,026
-236,088	-200,000	-0,049	-0,179
-235,073	800,000	0,056	-0,142
-234,059	-79,351	-0,102	0,024
-233,044	54,490	0,029	0,020
-232,030	-200,000	0,031	0,135
-231,015	87,116	-0,060	0,047
-230,000	-200,000	0,015	0,075
-228,986	-43,072	0,024	0,009
-227,971	800,000	-0,025	-0,070
-226,957	541,411	0,064	0,110
-225,942	174,502	-0,037	-0,038
-224,927	-164,223	0,085	-0,003
-223,913	43,116	0,045	0,029
-222,898	-22,370	-0,161	-0,069
-221,884	-137,886	0,019	0,002
-220,869	54,158	0,090	-0,062
-219,855	52,475	0,043	0,029
-218,840	-58,473	0,072	0,022
-217,825	-4,640	-0,042	0,020
-216,811	-129,857	0,154	-0,015
-215,796	-15,239	0,132	-0,060
-214,782	-200,000	0,009	0,067
-213,767	-200,000	-0,024	0,127
-212,752	204,938	0,047	0,052
-211,738	315,562	-0,029	0,039
-210,723	55,173	0,040	0,028
-209,709	-200,000	0,001	0,083
-208,694	27,564	-0,129	0,077
-207,679	-200,000	-0,032	-0,208
-206,665	-200,000	0,035	0,156
-205,650	-61,029	-0,051	-0,015
-204,636	-129,898	0,151	-0,015
-203,621	-200,000	0,020	-0,066
-202,606	-47,891	-0,115	-0,039
-201,592	-200,000	-0,015	0,075
-200,577	17,122	-0,061	0,034
-199,563	800,000	0,018	-0,040
-198,548	-150,469	-0,037	-0,002
-197,533	29,241	0,094	0,057
-196,519	84,806	0,043	-0,034
-195,504	2,134	-0,021	-0,011
-194,490	-186,174	0,049	0,000
-193,475	-64,858	-0,121	-0,035
-192,460	42,279	-0,074	0,048
-191,446	-34,257	0,027	-0,011
-190,431	1,885	-0,029	0,015
-189,417	396,225	0,019	0,028
-188,402	800,000	0,059	-0,170
-187,387	800,000	0,010	0,020
-186,373	-68,089	0,094	0,026
-185,358	117,367	-0,064	-0,056
-184,344	800,000	0,033	0,096
-183,329	184,218	0,119	-0,126
-182,315	155,544	-0,085	0,084
-181,300	162,916	-0,023	-0,023
-180,285	-200,000	0,021	-0,102
-179,271	-78,396	0,081	-0,020
-178,256	-110,926	-0,073	-0,011
-177,242	-200,000	0,041	0,158
-176,227	-37,171	-0,081	-0,031
-175,212	6,623	0,071	0,037
-174,198	51,043	-0,084	0,056
-173,183	300,077	-0,050	0,066
-172,169	-200,000	0,007	-0,092
-171,154	-200,000	0,003	-0,115
-170,139	-9,365	0,133	0,063
-169,125	-43,547	-0,034	-0,012
-168,110	739,276	0,053	0,103
-167,096	243,946	0,069	0,083
-166,081	2,601	-0,044	0,023
-165,066	-30,107	-0,144	-0,058
-164,052	278,372	-0,025	-0,031
-163,037	298,537	0,101	0,132
-162,023	80,318	-0,092	-0,070
-161,008	161,606	0,060	-0,060
-159,993	48,171	-0,046	-0,031
-158,979	-52,639	-0,033	0,011
-157,964	163,413	-0,129	-0,129
-156,950	246,480	-0,066	-0,079
-155,935	24,484	0,132	0,077
-154,920	62,448	0,120	0,085
-153,906	-13,044	0,082	0,038
-152,891	131,071	-0,117	0,107
-151,877	-49,480	-0,080	0,027
-150,862	-200,000	0,010	0,032
-149,847	800,000	0,044	-0,119
-148,833	-200,000	0,035	0,165
-147,818	719,529	0,031	-0,060
-146,804	-200,000	-0,028	0,112
-145,789	-32,771	0,110	0,043
-144,775	-108,037	-0,084	-0,013
-143,760	800,000	0,018	0,052
-142,745	-51,995	0,091	0,030
-141,731	473,194	0,052	0,083
-140,716	-67,770	0,113	-0,031
-139,702	72,054	0,143	0,106
-138,687	119,471	-0,051	0,045
-137,672	-200,000	-0,048	0,000
-136,658	-139,006	-0,064	-0,005
-135,643	800,000	-0,052	0,154
-134,629	-74,053	-0,057	0,015
-133,614	-200,000	0,001	-0,084
-132,599	639,257	0,071	0,128
-131,585	-72,283	-0,108	-0,028
-130,570	209,327	-0,042	0,047
-129,556	-200,000	-0,005	-0,092
-128,541	-200,000	0,010	-0,077
-127,526	800,000	0,012	0,030
-126,512	765,174	-0,024	0,046
-125,497	361,454	0,116	0,165
-124,483	800,000	-0,045	0,122
-123,468	-200,000	0,010	0,034
-122,453	-200,000	0,004	-0,136
-121,439	197,621	-0,042	-0,046
-120,424	800,000	-0,065	-0,135
-119,410	800,000	0,091	0,191
-118,395	-200,000	-0,031	0,105
-117,380	-200,000	-0,013	0,134
-116,366	-129,135	0,029	0,003
-115,351	-174,583	0,090	0,002
-114,337	-76,676	-0,137	-0,034
-113,322	-119,556	0,075	0,009
-112,307	484,735	-0,088	0,142
-111,293	780,512	0,048	0,093
-110,278	800,000	0,017	-0,037
-109,264	-120,538	-0,184	0,022
-108,249	-143,128	-0,019	-0,001
-107,234	93,363	-0,111	-0,089
-106,220	-128,331	-0,186	-0,019
-105,205	-200,000	0,021	0,091
-104,191	-59,728	-0,048	0,014
-103,176	-137,794	0,128	0,010
-102,162	-200,000	-0,059	0,238
-101,147	-200,000	-0,005	-0,083
-100,132	-200,000	-0,006	-0,240
-99,118	800,000	-0,045	0,105
-98,103	348,700	-0,019	0,027
-97,089	-200,000	-0,007	0,131
-96,074	53,963	-0,079	0,054
-95,059	-156,844	-0,034	0,001
-94,045	800,000	0,024	0,065
-93,030	-55,563	-0,130	-0,041
-92,016	-124,313	-0,124	0,014
-91,001	63,956	-0,081	-0,058
-89,986	-200,000	-0,010	-0,055
-88,972	-94,788	0,103	-0,020
-87,957	-26,601	-0,019	-0,008
-86,943	627,760	-0,094	-0,168
-85,928	-6,714	-0,087	-0,042
-84,913	-200,000	-0,029	-0,162
-83,899	-200,000	0,010	-0,147
-82,884	-31,298	0,049	-0,019
-81,870	196,780	0,116	0,126
-80,855	165,642	-0,023	0,023
-79,840	-200,000	-0,014	-0,063
-78,826	800,000	0,030	0,067
-77,811	800,000	-0,093	-0,212
-76,797	-129,663	-0,136	0,013
-75,782	263,676	-0,001	-0,002
-74,767	680,940	0,080	-0,148
-73,753	354,023	0,066	-0,093
-72,738	311,335	-0,043	0,057
-71,724	-87,651	-0,042	-0,009
-70,709	-16,392	-0,073	0,033
-69,694	800,000	0,016	0,045
-68,680	-200,000	0,007	-0,077
-67,665	176,313	0,068	0,070
-66,651	-200,000	0,000	-0,035
-65,636	-200,000	-0,022	-0,080
-64,622	-31,493	-0,088	0,035
-63,607	-88,980	-0,166	-0,035
-62,592	23,784	-0,180	-0,105
-61,578	-200,000	-0,014	0,110
-60,563	800,000	0,014	0,038
-59,549	18,220	-0,033	0,018
-58,534	-33,592	-1,429	-0,556
-57,519	492,704	-1,249	-2,035
-56,505	-200,000	-0,657	-4,481
-55,490	216,894	0,983	1,110
-54,476	800,000	4,974	11,418
-53,461	-200,000	18,800	309,242
-52,446	-200,000	738,171	2312,181
-51,432	573,014	1654,514	2867,089
-50,417	79,110	1670,987	1266,174
-49,403	21,908	1544,118	888,935
-48,388	15,819	1466,603	814,710
-47,373	17,744	1456,607	818,427
-46,359	16,825	1446,718	808,427
-45,344	14,096	1442,117	792,751
-44,330	14,004	1440,258	791,261
-43,315	13,994	1438,483	790,203
-42,300	13,989	1437,000	789,337
-41,286	14,027	1435,607	788,722
-40,271	13,978	1434,444	787,817
-39,257	13,969	1433,069	786,989
-38,242	13,996	1431,898	786,441
-37,227	14,019	1430,882	785,963
-36,213	14,064	1429,343	785,300
-35,198	14,009	1428,309	784,436
-34,184	14,073	1427,236	784,120
-33,169	14,013	1425,753	782,990
-32,154	14,088	1424,796	782,791
-31,140	14,059	1423,421	781,865
-30,125	14,079	1422,612	781,484
-29,111	14,064	1421,219	780,616
-28,096	14,056	1420,124	779,947
-27,082	13,977	1419,296	779,087
-26,067	13,946	1418,138	778,275
-25,052	13,959	1417,053	777,713
-24,038	13,969	1415,860	777,071
-23,023	13,956	1415,083	776,554
-22,009	13,925	1414,135	775,859
-20,994	13,939	1413,022	775,284
-19,979	13,922	1412,243	774,746
-18,965	13,886	1411,288	774,023
-17,950	13,921	1410,333	773,629
-16,936	13,910	1409,201	772,928
-15,921	13,860	1408,372	772,208
-14,906	13,840	1407,621	771,672
-13,892	13,922	1406,320	771,309
-12,877	13,873	1405,507	770,607
-11,863	13,882	1404,681	770,163
-10,848	13,849	1403,789	769,491
-9,833	13,825	1402,911	768,868
-8,819	13,808	1402,063	768,293
-7,804	13,794	1400,877	767,547
-6,790	13,820	1399,781	767,037
-5,775	13,845	1398,845	766,610
-4,760	13,820	1397,861	765,925
-3,746	13,793	1397,278	765,447
-2,731	13,782	1396,424	764,899
-1,717	13,775	1395,603	764,385
-0,702	13,755	1393,892	763,326
0,313	17,557	1311,499	735,848
1,327	33,845	705,819	433,752
2,342	52,038	124,042	83,481
3,356	1,534	16,753	8,501
4,371	12,588	3,142	1,711
5,386	38,247	0,587	0,369
6,400	-200,000	0,077	0,245
7,415	318,210	-0,221	-0,296
8,429	-42,944	-0,403	-0,144
9,444	168,532	-0,218	-0,220
10,459	-25,839	-0,250	-0,104
11,473	50,630	-0,311	-0,208
12,488	30,495	-0,324	-0,196
13,502	55,028	-0,350	-0,239
14,517	225,175	-0,199	-0,228
15,531	174,323	-0,352	-0,360
16,546	-23,502	-0,340	-0,144
17,561	138,173	-0,443	-0,411
18,575	259,563	-0,158	-0,193
19,590	76,648	-0,298	-0,223
20,604	79,875	-0,231	-0,175
21,619	-97,537	-0,438	-0,080
22,634	153,527	-0,389	-0,376
23,648	74,469	-0,384	-0,285
24,663	41,735	-0,404	-0,258
25,677	153,222	-0,374	-0,362
26,692	77,279	-0,275	-0,206
27,707	-38,838	-0,289	-0,107
28,721	114,143	-0,300	-0,258
29,736	60,781	-0,381	-0,266
30,750	715,427	-0,285	-0,537
31,765	-3,781	-0,414	-0,202
32,780	-5,041	-0,394	-0,191
33,794	84,647	-0,333	-0,257
34,809	145,455	-0,296	-0,280
35,823	72,030	-0,386	-0,283
36,838	67,967	-0,379	-0,273
37,853	78,417	-0,395	-0,297
38,867	116,296	-0,350	-0,302
39,882	104,897	-0,316	-0,263
40,896	-55,859	-0,468	-0,146
41,911	-78,800	-0,394	-0,094
42,926	123,122	-0,241	-0,213
43,940	230,594	-0,231	-0,267
44,955	-24,352	-0,384	-0,161
45,969	3,806	-0,353	-0,181
46,984	44,261	-0,340	-0,220
47,999	263,682	-0,193	-0,237
49,013	5,890	-0,438	-0,228
50,028	29,418	-0,395	-0,236
51,042	50,350	-0,299	-0,198
52,057	90,350	-0,283	-0,223
53,071	800,000	-0,145	-0,375
54,086	-13,984	-0,293	-0,133
55,101	65,390	-0,397	-0,283
56,115	14,723	-0,289	-0,159
57,130	15,182	-0,377	-0,208
58,144	-7,234	-0,422	-0,201
59,159	118,050	-0,341	-0,296
60,174	37,748	-0,287	-0,179
61,188	7,148	-0,396	-0,207
62,203	154,480	-0,277	-0,268
63,217	-5,046	-0,320	-0,155
64,232	57,555	-0,333	-0,228
65,247	47,950	-0,376	-0,247
66,261	34,080	-0,403	-0,246
67,276	102,364	-0,348	-0,286
68,290	262,848	-0,240	-0,294
69,305	6,849	-0,251	-0,131
70,320	117,484	-0,211	-0,183
71,334	22,482	-0,333	-0,191
72,349	80,457	-0,303	-0,229
73,363	63,358	-0,275	-0,194
74,378	-36,500	-0,375	-0,141
75,393	44,705	-0,337	-0,217
76,407	207,977	-0,277	-0,305
77,422	668,277	-0,072	-0,131
78,436	29,008	-0,186	-0,110
79,451	73,976	-0,303	-0,223
80,466	-29,032	-0,421	-0,169
81,480	-44,582	-0,245	-0,086
82,495	-36,376	-0,256	-0,097
83,509	7,061	-0,318	-0,166
84,524	379,745	-0,146	-0,211
85,539	55,254	-0,235	-0,160
86,553	116,185	-0,240	-0,206
87,568	800,000	-0,180	-0,362
88,582	164,904	-0,333	-0,330
89,597	121,118	-0,249	-0,217
90,611	173,997	-0,202	-0,205
91,626	-27,817	-0,267	-0,108
92,641	-56,670	-0,399	-0,123
93,655	34,500	-0,283	-0,173
94,670	68,536	-0,247	-0,177
95,684	57,575	-0,427	-0,293
96,699	-12,149	-0,402	-0,184
97,714	113,291	-0,290	-0,247
98,728	38,178	-0,167	-0,104
99,743	-14,149	-0,222	-0,100
100,757	170,903	-0,234	-0,235
101,772	-20,952	-0,153	-0,065
102,787	169,887	-0,260	-0,261
103,801	31,967	-0,338	-0,204
104,816	106,309	-0,262	-0,217
105,830	-0,848	-0,298	-0,148
106,845	56,766	-0,253	-0,173
107,860	136,573	-0,212	-0,194
108,874	31,023	-0,270	-0,162
109,889	268,234	-0,155	-0,191
110,903	231,892	-0,148	-0,170
111,918	-60,694	-0,237	-0,070
112,933	-155,583	-0,336	-0,015
113,947	132,114	-0,206	-0,186
114,962	-4,128	-0,334	-0,162
115,976	94,624	-0,277	-0,221
116,991	25,640	-0,319	-0,185
118,006	29,749	-0,300	-0,178
119,020	-15,389	-0,364	-0,162
120,035	11,172	-0,268	-0,143
121,049	50,132	-0,236	-0,156
122,064	-85,817	-0,271	-0,058
123,079	-75,932	-0,287	-0,071
124,093	-12,748	-0,248	-0,113
125,108	-33,044	-0,262	-0,101
126,122	74,796	-0,240	-0,177
127,137	-53,788	-0,282	-0,089
128,151	166,188	-0,177	-0,176
129,166	36,871	-0,301	-0,186
130,181	5,779	-0,288	-0,149
131,195	-32,654	-0,282	-0,109
132,210	145,505	-0,299	-0,280
133,224	209,903	-0,247	-0,271
134,239	-81,098	-0,259	-0,059
135,254	374,857	-0,152	-0,218
136,268	41,068	-0,338	-0,213
137,283	212,178	-0,260	-0,287
138,297	41,100	-0,281	-0,177
139,312	1,264	-0,335	-0,168
140,327	8,183	-0,328	-0,171
141,341	264,598	-0,153	-0,187
142,356	-88,971	-0,278	-0,057
143,370	-143,436	-0,353	-0,023
144,385	91,757	-0,210	-0,165
145,400	149,719	-0,242	-0,230
146,414	-26,911	-0,338	-0,137
147,429	35,137	-0,316	-0,193
148,443	120,916	-0,229	-0,199
149,458	159,853	-0,241	-0,235
150,473	-34,908	-0,222	-0,084
151,487	-56,058	-0,217	-0,067
152,502	16,722	-0,191	-0,105
153,516	-45,536	-0,329	-0,113
154,531	-16,012	-0,278	-0,123
155,546	7,120	-0,374	-0,194
156,560	168,564	-0,090	-0,090
157,575	-64,495	-0,275	-0,077
158,589	271,631	-0,128	-0,157
159,604	-34,565	-0,141	-0,054
160,619	-0,230	-0,404	-0,200
161,633	-8,946	-0,331	-0,154
162,648	217,740	-0,233	-0,260
163,662	-52,875	-0,204	-0,065
164,677	1,047	-0,155	-0,077
165,692	410,504	-0,096	-0,142
166,706	103,486	-0,192	-0,157
167,721	-0,551	-0,355	-0,175
168,735	596,658	-0,192	-0,333
169,750	50,311	-0,333	-0,219
170,764	25,570	-0,186	-0,107
171,779	47,655	-0,304	-0,197
172,794	156,302	-0,188	-0,181
173,808	-6,469	-0,316	-0,150
174,823	164,802	-0,173	-0,170
175,837	117,231	-0,295	-0,253
176,852	490,961	-0,181	-0,289
177,867	-113,776	-0,179	-0,024
178,881	-171,055	-0,264	0,006
179,896	-192,827	-0,243	-0,001
180,910	209,492	-0,133	-0,146
181,925	67,717	-0,182	-0,129
182,940	800,000	-0,098	-0,197
183,954	350,285	-0,162	-0,223
184,969	247,944	-0,106	-0,124
185,983	178,256	-0,208	-0,212
186,998	223,008	-0,160	-0,180
188,013	64,102	-0,208	-0,146
189,027	725,794	-0,154	-0,286
190,042	552,347	-0,163	-0,274
191,056	6,113	-0,347	-0,178
192,071	452,246	-0,076	-0,118
193,086	-22,569	-0,226	-0,095
194,100	-152,247	-0,037	-0,002
195,115	-21,756	-0,144	-0,061
196,129	100,338	-0,194	-0,156
197,144	47,296	-0,276	-0,179
198,159	-76,054	-0,238	-0,058
199,173	242,433	-0,257	-0,300
200,188	-200,000	-0,033	-0,183
201,202	40,602	-0,295	-0,185
202,217	121,329	-0,184	-0,159
203,232	112,551	-0,154	-0,129
204,246	162,297	-0,192	-0,187
205,261	74,015	-0,255	-0,186
206,275	125,931	-0,087	-0,077
207,290	-200,000	-0,053	-0,251
208,304	-165,003	-0,206	-0,006
209,319	130,211	-0,296	-0,263
210,334	-127,595	-0,332	-0,033
211,348	248,335	-0,180	-0,212
212,363	86,816	-0,212	-0,162
213,377	-200,000	0,014	-0,160
214,392	516,085	-0,146	-0,237
215,407	85,825	-0,086	-0,066
216,421	45,311	-0,262	-0,167
217,436	31,578	-0,186	-0,111
218,450	294,893	-0,162	-0,206
219,465	-53,367	-0,147	-0,047
220,480	-29,410	-0,262	-0,104
221,494	-200,000	-0,043	-0,221
222,509	263,496	-0,095	-0,115
223,523	-75,984	-0,253	-0,062
224,538	800,000	-0,098	-0,194
225,553	800,000	-0,095	-0,242
226,567	800,000	-0,083	-0,186
227,582	60,341	-0,241	-0,165
228,596	207,875	-0,130	-0,141
229,611	-158,542	-0,164	0,006
230,626	347,192	-0,114	-0,156
231,640	365,904	-0,136	-0,190
232,655	187,010	-0,154	-0,160
233,669	108,992	-0,194	-0,160
234,684	85,034	-0,169	-0,129
235,699	15,413	-0,287	-0,155
236,713	-30,140	-0,113	-0,044
237,728	-28,620	-0,181	-0,072
238,742	-71,006	-0,256	-0,066
239,757	-56,539	-0,213	-0,065
240,772	203,803	-0,173	-0,185
241,786	0,225	-0,152	-0,075
242,801	-113,330	-0,249	-0,033
243,815	-62,843	-0,227	-0,065
244,830	69,084	-0,103	-0,073
245,844	168,134	-0,138	-0,136
246,859	-23,505	-0,215	-0,089
247,874	603,505	-0,116	-0,201
248,888	-10,426	-0,181	-0,083
249,903	91,931	-0,139	-0,108
250,917	800,000	-0,047	-0,122
251,932	-154,261	-0,154	-0,007
252,947	336,028	-0,115	-0,155
253,961	60,963	-0,237	-0,162
254,976	433,076	-0,110	-0,165
255,990	184,212	-0,152	-0,156
257,005	-62,004	-0,247	-0,071
258,020	87,257	-0,105	-0,080
259,034	-200,000	-0,011	-0,190
260,049	-137,303	-0,110	0,008
261,063	-48,229	-0,161	-0,054
262,078	79,772	-0,225	-0,167
263,093	174,879	-0,177	-0,178
264,107	14,211	-0,143	-0,077
265,122	-19,903	-0,123	-0,052
266,136	-144,907	-0,120	-0,007
267,151	34,079	-0,236	-0,142
268,166	601,843	-0,100	-0,172
269,180	-25,846	-0,201	-0,082
270,195	86,502	-0,106	-0,081
271,209	77,024	-0,194	-0,142
272,224	-30,587	-0,149	-0,058
273,239	34,966	-0,160	-0,097
274,253	27,932	-0,142	-0,082
275,268	22,578	-0,178	-0,101
276,282	93,257	-0,111	-0,087
277,297	139,569	-0,171	-0,155
278,312	140,472	-0,171	-0,156
279,326	252,473	-0,108	-0,127
280,341	86,936	-0,083	-0,063
281,355	38,934	-0,073	-0,045
282,370	13,325	-0,219	-0,117
283,384	116,597	-0,196	-0,166
284,399	-15,713	-0,310	-0,136
285,414	-37,897	-0,208	-0,076
286,428	485,235	-0,120	-0,189
287,443	111,046	-0,161	-0,134
288,457	-200,000	-0,021	-0,089
289,472	202,800	-0,124	-0,133
290,487	-53,528	-0,121	-0,038
291,501	120,121	-0,211	-0,180
292,516	39,167	-0,193	-0,119
293,530	-29,261	-0,250	-0,098
294,545	-132,864	-0,188	0,016
295,560	102,639	-0,160	-0,129
296,574	84,223	-0,154	-0,116
297,589	21,237	-0,223	-0,125
298,603	77,279	-0,150	-0,110
299,618	-110,325	-0,278	-0,039
300,633	-113,198	-0,182	-0,024
301,647	-2,235	-0,069	-0,033
302,662	-30,919	-0,175	-0,068
303,676	-123,152	-0,202	-0,022
304,691	-66,726	-0,113	-0,031
305,706	-105,856	-0,224	-0,035
306,720	30,288	-0,212	-0,124
307,735	46,027	-0,135	-0,086
308,749	-200,000	-0,018	-0,130
309,764	800,000	-0,083	-0,184
310,779	115,768	-0,107	-0,090
311,793	-39,436	-0,208	-0,075
312,808	-88,193	-0,293	-0,060
313,822	800,000	-0,098	-0,195
314,837	133,155	-0,207	-0,184
315,852	216,327	-0,092	-0,101
316,866	341,397	-0,043	-0,058
317,881	-200,000	-0,002	-0,055
318,895	352,250	-0,099	-0,135
319,910	-154,259	-0,195	0,009
320,925	42,053	-0,190	-0,118
321,939	-107,193	-0,180	-0,027
322,954	44,147	-0,215	-0,136
323,968	12,496	-0,009	0,005
324,983	215,482	-0,045	0,049
325,997	96,055	-0,191	-0,150
327,012	-35,441	-0,118	-0,044
328,027	313,402	-0,173	-0,224
329,041	-200,000	-0,028	-0,116
330,056	-87,318	-0,042	0,009
331,070	213,393	-0,055	-0,060
332,085	-40,483	-0,130	-0,046
333,100	11,951	-0,264	-0,139
334,114	-84,621	-0,147	-0,032
335,129	102,178	-0,092	0,074
336,143	140,847	-0,114	-0,103
337,158	-146,051	-0,062	-0,004
338,173	537,134	-0,070	-0,115
339,187	129,792	-0,090	-0,079
340,202	37,876	-0,143	-0,087
341,216	-116,534	-0,102	-0,013
342,231	258,443	-0,137	-0,162
343,246	14,944	-0,165	-0,089
344,260	800,000	-0,093	-0,193
345,275	800,000	-0,069	-0,133
346,289	-7,703	-0,077	-0,035
347,304	-200,000	0,004	-0,072
348,319	-80,696	-0,169	0,038
349,333	-92,114	-0,264	-0,051
350,348	261,742	-0,089	-0,106
351,362	170,617	-0,103	-0,101
352,377	149,644	-0,108	-0,100
353,392	195,078	-0,057	0,060
354,406	-24,546	-0,219	-0,089
355,421	209,770	1314,354	1415,778
356,435	161,455	1475,046	1416,258
