DTS Sentinel unit serial number:	SN410029Multiplexer serial number:	ORYXHardware model number:	OX2-SRSoftware version number:	ORYX F/W v4,00 Oryx Data Collector v3.7.2.0data status	okinstallation	B3 Nyhavnadifferential loss correction	single-endedforward channel	channel 1reverse channel	N/Adate	2023/12/02time	04:42:30forward acquisition time	300,00reverse acquisition time	0,00gamma	499,1914k internal	0,3194k external	0,3194temperature offset calibration	1,0000default loss term (dB/km)	0,3820temperature slope calibration	1,0000multiplexer offset coefficient	1,0000multiplexer slope coefficient	1,0000fibre end	0,00T internal ref (°C)	16,45T ext. ref 1 (°C)	1,24T ext. ref 2 (°C)	1,23length (m)	temperature (°C)	Stokes	anti-Stokes-744,400	522,557	-0,177	-0,304
-743,385	-200,000	-0,010	0,143
-742,371	105,035	-0,240	-0,207
-741,356	-200,000	-0,023	0,418
-740,342	385,563	-0,186	-0,280
-739,327	800,000	0,141	0,380
-738,312	108,100	-0,310	-0,269
-737,298	-200,000	0,078	0,348
-736,283	236,623	-0,210	-0,253
-735,269	-200,000	0,066	0,279
-734,254	800,000	-0,086	-0,273
-733,239	31,431	-0,116	0,073
-732,225	-200,000	-0,023	-0,387
-731,210	800,000	0,086	0,176
-730,196	109,183	0,079	-0,069
-729,181	-0,798	-0,082	0,042
-728,167	-200,000	0,004	-0,049
-727,152	66,730	0,070	-0,052
-726,137	-103,436	-0,134	0,023
-725,123	61,733	0,073	-0,053
-724,108	800,000	0,059	-0,142
-723,094	800,000	-0,048	-0,150
-722,079	306,107	-0,078	-0,105
-721,064	-38,947	-0,028	0,011
-720,050	-73,086	0,063	-0,017
-719,035	123,491	-0,092	-0,084
-718,021	-108,181	-0,097	0,015
-717,006	-121,527	-0,132	-0,016
-715,991	163,383	-0,139	-0,142
-714,977	-200,000	0,020	-0,095
-713,962	94,082	-0,136	-0,112
-712,948	-38,036	-0,089	-0,034
-711,933	146,540	0,088	0,087
-710,918	600,128	-0,018	-0,033
-709,904	496,375	-0,048	-0,081
-708,889	-71,910	-0,124	-0,033
-707,875	12,468	-0,205	-0,115
-706,860	-200,000	0,009	-0,126
-705,845	-200,000	-0,002	-0,034
-704,831	-23,299	0,092	-0,040
-703,816	-20,987	0,028	-0,012
-702,802	-40,281	-0,061	0,023
-701,787	297,294	-0,090	-0,120
-700,772	-200,000	-0,031	-0,118
-699,758	204,642	-0,058	0,065
-698,743	-200,000	0,011	0,101
-697,729	119,281	-0,072	-0,065
-696,714	7,839	0,090	-0,049
-695,699	354,572	0,038	-0,055
-694,685	-200,000	-0,003	-0,136
-693,670	-200,000	0,003	-0,131
-692,656	-14,629	0,175	-0,081
-691,641	800,000	0,056	-0,118
-690,627	175,762	0,024	-0,025
-689,612	-167,396	0,059	-0,002
-688,597	-200,000	-0,022	-0,114
-687,583	-200,000	-0,032	-0,223
-686,568	-200,000	0,015	-0,119
-685,554	208,644	-0,042	-0,048
-684,539	-200,000	-0,004	0,069
-683,524	18,474	-0,068	-0,039
-682,510	274,051	-0,048	-0,062
-681,495	-200,000	0,008	-0,100
-680,481	-200,000	0,032	-0,137
-679,466	800,000	0,020	-0,041
-678,451	-200,000	-0,009	0,063
-677,437	-76,921	-0,056	0,014
-676,422	-122,862	0,076	0,009
-675,408	-200,000	-0,018	0,076
-674,393	-119,889	0,022	0,003
-673,378	303,482	-0,048	-0,065
-672,364	-23,525	-0,094	-0,041
-671,349	713,789	0,047	-0,092
-670,335	444,115	-0,035	0,056
-669,320	-132,525	-0,207	0,019
-668,305	269,191	0,077	-0,098
-667,291	-70,571	-0,040	0,011
-666,276	-200,000	0,007	0,028
-665,262	217,681	-0,093	-0,108
-664,247	80,916	-0,095	-0,075
-663,232	30,452	-0,069	0,043
-662,218	118,825	-0,057	0,051
-661,203	-200,000	0,010	-0,068
-660,189	-96,088	-0,086	-0,016
-659,174	-11,992	0,062	0,029
-658,159	105,494	-0,037	-0,032
-657,145	-200,000	-0,010	0,047
-656,130	-131,852	0,052	0,005
-655,116	117,839	0,024	-0,021
-654,101	-24,737	0,059	0,026
-653,086	-145,473	0,053	-0,003
-652,072	121,575	-0,110	-0,100
-651,057	800,000	-0,039	-0,082
-650,043	216,660	-0,101	-0,117
-649,028	-200,000	-0,023	-0,089
-648,014	-200,000	-0,034	-0,116
-646,999	233,667	0,077	0,092
-645,984	161,246	0,071	0,072
-644,970	4,097	0,029	0,015
-643,955	800,000	-0,055	-0,150
-642,941	-200,000	0,005	-0,057
-641,926	-93,309	-0,178	-0,036
-640,911	-75,356	0,123	-0,031
-639,897	-200,000	0,007	-0,050
-638,882	-200,000	-0,000	0,049
-637,868	-200,000	0,007	-0,027
-636,853	113,775	-0,053	-0,047
-635,838	-200,000	-0,015	0,055
-634,824	-200,000	0,024	-0,184
-633,809	132,852	0,090	-0,084
-632,795	-12,842	0,090	0,042
-631,780	31,595	-0,035	-0,022
-630,765	-200,000	0,087	0,000
-629,751	-147,069	-0,018	0,001
-628,736	-102,186	0,029	-0,005
-627,722	-75,440	0,059	-0,015
-626,707	216,055	0,044	-0,051
-625,692	8,602	0,093	-0,051
-624,678	800,000	-0,030	0,062
-623,663	800,000	-0,020	0,061
-622,649	800,000	-0,009	-0,024
-621,634	-154,111	-0,209	-0,010
-620,619	663,172	-0,112	-0,211
-619,605	10,004	0,043	0,023
-618,590	257,261	0,042	-0,053
-617,576	-7,736	-0,088	0,043
-616,561	800,000	0,027	0,070
-615,546	-121,138	-0,042	0,005
-614,532	3,412	-0,063	-0,033
-613,517	592,531	0,040	-0,072
-612,503	312,975	0,051	-0,070
-611,488	-200,000	0,007	0,069
-610,474	-97,349	0,041	0,008
-609,459	800,000	-0,009	0,021
-608,444	278,155	-0,028	0,036
-607,430	-34,206	-0,019	-0,008
-606,415	15,695	0,050	0,029
-605,401	-163,557	0,082	-0,003
-604,386	-63,068	-0,048	-0,014
-603,371	-200,000	0,002	0,194
-602,357	-118,753	-0,012	-0,001
-601,342	165,615	0,060	0,062
-600,328	-99,246	-0,085	0,015
-599,313	9,205	-0,075	0,041
-598,298	-3,410	-0,062	-0,031
-597,284	-112,576	0,072	0,010
-596,269	586,859	0,036	0,064
-595,255	30,338	0,054	0,033
-594,240	214,202	0,055	0,064
-593,225	-200,000	-0,001	0,006
-592,211	270,716	-0,080	-0,103
-591,196	-181,809	0,028	-0,000
-590,182	-1,422	0,021	0,011
-589,167	-12,016	-0,098	-0,046
-588,152	-109,086	-0,109	0,017
-587,138	210,319	-0,166	-0,189
-586,123	441,690	0,020	0,032
-585,109	-200,000	0,012	-0,044
-584,094	301,541	-0,089	-0,119
-583,079	322,639	-0,045	-0,063
-582,065	-137,380	0,073	-0,006
-581,050	-200,000	-0,013	-0,156
-580,036	24,660	-0,014	0,008
-579,021	800,000	-0,058	-0,153
-578,006	-200,000	-0,010	-0,043
-576,992	-4,102	0,105	-0,052
-575,977	379,411	0,108	0,161
-574,963	223,290	0,088	0,103
-573,948	800,000	-0,022	0,050
-572,934	46,002	-0,085	-0,057
-571,919	379,403	-0,058	0,086
-570,904	20,161	-0,050	-0,029
-569,890	572,178	-0,053	-0,095
-568,875	-20,230	-0,110	0,049
-567,861	-200,000	-0,021	0,081
-566,846	-41,571	-0,027	0,010
-565,831	55,855	0,135	0,094
-564,817	97,833	-0,013	-0,010
-563,802	612,579	-0,029	-0,052
-562,788	133,398	-0,009	0,009
-561,773	273,090	0,048	0,061
-560,758	-200,000	-0,027	0,167
-559,744	-115,478	-0,089	-0,012
-558,729	66,221	-0,096	0,071
-557,715	-9,551	-0,078	-0,038
-556,700	80,869	-0,097	-0,076
-555,685	-200,000	-0,027	-0,153
-554,671	800,000	-0,057	-0,181
-553,656	192,527	0,108	-0,118
-552,642	-50,610	0,085	0,029
-551,627	-200,000	0,020	0,221
-550,612	99,750	-0,079	-0,066
-549,598	-27,924	-0,070	-0,029
-548,583	189,668	0,078	-0,085
-547,569	42,896	-0,043	-0,028
-546,554	48,184	0,120	0,081
-545,539	236,144	-0,134	0,161
-544,525	800,000	0,061	0,159
-543,510	-72,438	0,086	-0,023
-542,496	75,372	0,061	0,046
-541,481	-101,353	-0,106	0,019
-540,466	103,231	0,035	0,030
-539,452	-200,000	-0,007	0,026
-538,437	230,257	0,092	0,109
-537,423	-115,105	-0,108	0,015
-536,408	-200,000	0,021	0,077
-535,393	421,758	-0,040	-0,063
-534,379	800,000	-0,032	-0,065
-533,364	-200,000	0,020	0,067
-532,350	10,734	0,050	-0,027
-531,335	419,162	0,022	-0,034
-530,321	800,000	-0,028	0,064
-529,306	37,989	-0,132	0,084
-528,291	219,876	-0,055	-0,063
-527,277	800,000	0,045	0,108
-526,262	227,110	-0,057	-0,067
-525,248	230,305	0,033	0,038
-524,233	250,588	0,038	-0,046
-523,218	-200,000	0,011	0,089
-522,204	-157,363	-0,102	0,004
-521,189	45,677	-0,066	-0,044
-520,175	90,487	-0,076	-0,061
-519,160	-200,000	0,032	-0,191
-518,145	356,483	0,082	-0,119
-517,131	-95,467	0,077	-0,015
-516,116	-137,988	0,033	0,003
-515,102	414,264	-0,031	0,048
-514,087	477,499	0,018	-0,030
-513,072	800,000	0,071	-0,165
-512,058	800,000	0,027	-0,080
-511,043	-26,831	-0,089	-0,037
-510,029	800,000	0,079	0,248
-509,014	-200,000	-0,001	0,014
-507,999	50,092	0,029	0,020
-506,985	800,000	-0,033	-0,098
-505,970	700,724	-0,050	0,095
-504,956	123,734	-0,081	-0,074
-503,941	-200,000	-0,003	-0,065
-502,926	56,416	-0,068	-0,048
-501,912	800,000	0,031	0,063
-500,897	203,510	0,041	-0,045
-499,883	-200,000	-0,016	-0,110
-498,868	-80,594	0,074	0,018
-497,853	39,508	-0,022	0,014
-496,839	-80,734	-0,121	0,029
-495,824	-89,374	-0,114	-0,024
-494,810	-86,759	0,139	-0,031
-493,795	-59,383	0,073	0,023
-492,781	405,319	-0,046	0,070
-491,766	-191,827	-0,054	0,000
-490,751	-141,131	0,215	-0,016
-489,737	-200,000	-0,027	0,088
-488,722	27,506	0,034	0,020
-487,708	145,157	0,132	0,128
-486,693	-200,000	0,016	-0,056
-485,678	-200,000	0,019	0,081
-484,664	-59,203	-0,053	-0,016
-483,649	217,403	-0,037	0,043
-482,635	-200,000	-0,031	0,102
-481,620	248,082	0,083	-0,102
-480,605	119,342	-0,049	0,044
-479,591	-200,000	0,001	-0,008
-478,576	800,000	0,067	-0,164
-477,562	111,636	-0,065	0,057
-476,547	-2,866	-0,110	0,055
-475,532	406,113	-0,093	-0,142
-474,518	-76,908	0,056	0,014
-473,503	-22,142	-0,045	0,019
-472,489	238,069	-0,026	-0,032
-471,474	343,337	0,023	0,033
-470,459	-200,000	-0,015	-0,087
-469,445	231,446	0,029	-0,034
-468,430	-103,345	0,087	0,015
-467,416	211,231	-0,057	-0,065
-466,401	68,020	0,086	-0,064
-465,386	-22,930	0,059	-0,025
-464,372	-85,946	0,020	0,004
-463,357	-51,396	-0,052	-0,017
-462,343	-119,764	0,108	-0,013
-461,328	41,420	-0,056	-0,037
-460,313	-58,793	-0,060	-0,019
-459,299	800,000	-0,018	0,055
-458,284	-54,635	0,121	-0,039
-457,270	397,303	0,037	0,056
-456,255	-113,742	-0,084	-0,012
-455,241	74,535	-0,019	-0,015
-454,226	247,007	0,084	0,102
-453,211	-97,233	-0,069	0,013
-452,197	358,421	-0,032	0,046
-451,182	376,971	0,053	0,078
-450,168	-184,804	-0,023	0,000
-449,153	36,177	0,048	-0,031
-448,138	495,889	-0,100	-0,165
-447,124	-123,724	0,180	0,020
-446,109	142,576	-0,041	-0,040
-445,095	800,000	-0,030	0,089
-444,080	257,539	0,048	-0,059
-443,065	800,000	-0,026	-0,070
-442,051	-38,594	0,022	-0,008
-441,036	683,982	0,036	-0,068
-440,022	234,665	-0,075	-0,090
-439,007	800,000	-0,031	-0,088
-437,992	-200,000	-0,006	-0,057
-436,978	-200,000	0,024	0,096
-435,963	800,000	-0,012	0,028
-434,949	-113,274	0,021	0,003
-433,934	408,896	0,023	0,036
-432,919	179,104	-0,043	-0,045
-431,905	800,000	-0,015	-0,041
-430,890	-200,000	0,043	-0,150
-429,876	89,267	0,055	0,044
-428,861	-200,000	0,009	0,123
-427,846	417,394	-0,063	-0,098
-426,832	67,494	-0,151	0,111
-425,817	228,365	-0,054	0,063
-424,803	-124,317	-0,026	-0,003
-423,788	-5,817	-0,078	-0,038
-422,773	90,262	0,098	0,079
-421,759	543,411	-0,081	0,140
-420,744	167,958	0,071	0,073
-419,730	-200,000	0,030	0,253
-418,715	-85,498	0,123	0,027
-417,701	88,413	0,097	-0,077
-416,686	69,909	0,023	0,017
-415,671	-111,952	0,173	-0,025
-414,657	7,216	0,088	0,047
-413,642	-118,481	0,067	0,008
-412,628	-200,000	0,001	0,006
-411,613	59,105	0,038	-0,027
-410,598	193,831	0,121	-0,132
-409,584	195,527	-0,078	-0,085
-408,569	-59,514	0,181	-0,056
-407,555	582,823	0,018	-0,032
-406,540	248,619	0,010	0,012
-405,525	239,914	0,099	-0,119
-404,511	24,684	-0,069	-0,041
-403,496	795,559	0,028	-0,055
-402,482	30,928	0,044	0,027
-401,467	66,705	0,113	0,083
-400,452	-122,029	0,145	-0,017
-399,438	-200,000	0,011	0,156
-398,423	-200,000	-0,006	-0,069
-397,409	-200,000	0,024	-0,115
-396,394	-103,929	-0,086	0,014
-395,379	-66,343	-0,015	-0,004
-394,365	-59,203	0,127	0,039
-393,350	800,000	0,059	-0,118
-392,336	-187,355	0,028	0,000
-391,321	18,653	-0,037	-0,021
-390,306	221,178	-0,067	-0,078
-389,292	-172,631	0,080	0,002
-388,277	43,039	0,120	-0,078
-387,263	266,228	-0,040	0,050
-386,248	-92,923	0,094	0,019
-385,233	-200,000	0,010	0,070
-384,219	-200,000	0,013	-0,135
-383,204	-1,443	0,123	-0,062
-382,190	800,000	-0,062	-0,144
-381,175	61,168	-0,093	-0,066
-380,160	442,407	0,014	0,023
-379,146	-94,602	0,132	0,026
-378,131	800,000	0,021	-0,044
-377,117	-93,511	-0,016	0,003
-376,102	123,641	0,051	-0,046
-375,088	271,416	-0,048	-0,061
-374,073	800,000	0,016	0,039
-373,058	800,000	0,043	-0,090
-372,044	482,865	-0,075	0,123
-371,029	159,868	-0,028	0,028
-370,015	116,168	-0,067	-0,059
-369,000	19,744	-0,112	0,065
-367,985	232,342	0,057	-0,067
-366,971	232,881	0,078	-0,092
-365,956	87,272	-0,052	0,041
-364,942	1,260	0,075	0,038
-363,927	-57,812	-0,105	0,033
-362,912	-200,000	0,011	0,129
-361,898	265,663	-0,135	-0,169
-360,883	-106,692	-0,091	0,014
-359,869	-121,944	0,085	-0,010
-358,854	63,511	0,035	-0,025
-357,839	-200,000	-0,004	0,076
-356,825	-200,000	-0,006	-0,068
-355,810	101,754	0,045	-0,037
-354,796	-200,000	-0,008	0,093
-353,781	-126,397	-0,041	0,004
-352,766	-200,000	0,000	0,025
-351,752	800,000	0,040	-0,099
-350,737	-153,527	0,012	0,001
-349,723	388,334	0,103	0,154
-348,708	-53,848	-0,031	0,010
-347,693	112,424	-0,109	-0,095
-346,679	800,000	-0,043	-0,095
-345,664	4,375	-0,108	0,057
-344,650	-112,530	0,145	-0,020
-343,635	-141,146	-0,034	0,002
-342,620	291,692	-0,044	0,058
-341,606	-0,534	-0,042	0,021
-340,591	-200,000	0,009	-0,040
-339,577	-200,000	-0,005	-0,051
-338,562	66,306	0,143	-0,104
-337,548	-200,000	-0,008	-0,080
-336,533	622,274	0,037	-0,068
-335,518	-155,757	0,169	0,008
-334,504	145,370	-0,065	0,063
-333,489	-200,000	0,001	-0,029
-332,475	-107,793	-0,040	-0,006
-331,460	-200,000	0,002	0,137
-330,445	-27,726	-0,024	0,010
-329,431	62,368	0,129	-0,092
-328,416	35,902	-0,070	0,044
-327,402	-200,000	-0,035	0,219
-326,387	-91,684	-0,069	-0,014
-325,372	800,000	-0,070	-0,157
-324,358	29,791	0,065	-0,039
-323,343	-18,466	-0,138	0,061
-322,329	-144,042	0,047	-0,003
-321,314	-200,000	-0,026	-0,096
-320,299	800,000	0,073	0,170
-319,285	78,266	-0,026	-0,020
-318,270	-57,556	0,017	-0,005
-317,256	-109,303	0,070	0,011
-316,241	111,080	-0,155	-0,134
-315,226	396,082	0,095	0,143
-314,212	-200,000	-0,007	0,112
-313,197	-200,000	0,025	-0,092
-312,183	-153,447	-0,080	0,004
-311,168	-181,186	-0,074	-0,001
-310,153	-200,000	-0,009	-0,064
-309,139	40,562	0,048	-0,031
-308,124	150,075	-0,073	-0,071
-307,110	800,000	0,054	0,123
-306,095	241,483	0,073	0,087
-305,080	-200,000	0,008	-0,113
-304,066	-102,225	-0,048	0,008
-303,051	-200,000	-0,009	-0,101
-302,037	800,000	-0,027	-0,059
-301,022	-8,846	-0,073	-0,035
-300,008	-200,000	0,011	0,052
-298,993	439,181	-0,138	0,216
-297,978	-200,000	-0,007	0,180
-296,964	-200,000	-0,013	0,082
-295,949	-200,000	0,017	0,140
-294,935	14,642	0,005	-0,003
-293,920	-127,689	0,105	0,011
-292,905	113,804	-0,064	-0,055
-291,891	-200,000	0,025	0,129
-290,876	9,558	0,077	-0,042
-289,862	800,000	0,048	0,151
-288,847	-76,146	-0,130	-0,033
-287,832	-81,355	-0,064	-0,015
-286,818	-72,894	0,014	0,004
-285,803	-200,000	0,001	0,069
-284,789	-200,000	0,016	0,290
-283,774	124,720	0,107	-0,096
-282,759	182,232	-0,018	0,019
-281,745	1,271	0,035	-0,018
-280,730	717,592	0,024	-0,047
-279,716	-200,000	0,015	-0,116
-278,701	-12,182	0,083	0,039
-277,686	-25,788	0,063	-0,026
-276,672	-200,000	-0,027	0,085
-275,657	17,276	-0,021	-0,012
-274,643	-129,064	-0,043	-0,004
-273,628	-107,397	0,031	-0,005
-272,613	762,765	-0,039	0,076
-271,599	-178,859	0,105	0,002
-270,584	-200,000	0,009	0,087
-269,570	81,130	0,140	0,108
-268,555	56,907	-0,064	0,044
-267,540	48,177	0,070	-0,047
-266,526	78,912	0,095	-0,073
-265,511	-102,208	-0,078	-0,013
-264,497	-194,117	0,105	-0,001
-263,482	437,730	0,083	0,130
-262,467	378,046	0,012	0,017
-261,453	-26,372	-0,078	0,032
-260,438	22,033	0,095	-0,056
-259,424	23,700	-0,113	-0,066
-258,409	-29,307	0,044	-0,018
-257,395	344,381	0,094	0,133
-256,380	213,349	-0,055	0,063
-255,365	800,000	-0,034	0,086
-254,351	-166,481	0,046	0,001
-253,336	-200,000	-0,004	-0,076
-252,322	646,823	0,081	-0,148
-251,307	-200,000	-0,001	-0,209
-250,292	-200,000	-0,024	-0,093
-249,278	406,075	0,093	0,141
-248,263	800,000	-0,064	0,187
-247,249	-36,746	0,010	-0,004
-246,234	-92,227	0,095	-0,019
-245,219	-130,330	-0,139	-0,013
-244,205	-62,836	-0,039	-0,011
-243,190	124,528	0,037	-0,033
-242,176	-93,927	0,087	-0,017
-241,161	426,755	0,120	0,186
-240,146	709,732	-0,049	0,092
-239,132	205,778	-0,099	0,110
-238,117	-200,000	-0,012	-0,074
-237,103	-105,349	-0,091	-0,015
-236,088	-200,000	0,020	0,070
-235,073	800,000	0,026	0,077
-234,059	-200,000	0,017	0,064
-233,044	-36,640	0,088	0,034
-232,030	9,528	0,063	0,034
-231,015	-11,011	0,054	0,025
-230,000	0,398	-0,113	-0,058
-228,986	157,427	0,088	0,088
-227,971	449,087	-0,056	0,089
-226,957	800,000	-0,006	-0,016
-225,942	-134,656	0,035	0,003
-224,927	335,724	-0,111	-0,155
-223,913	-200,000	-0,014	-0,066
-222,898	-6,168	-0,081	-0,039
-221,884	-149,131	-0,087	0,005
-220,869	83,359	-0,071	-0,056
-219,855	-200,000	-0,013	0,111
-218,840	800,000	0,040	0,119
-217,825	51,176	-0,020	0,013
-216,811	241,232	-0,007	-0,008
-215,796	-177,380	-0,066	-0,001
-214,782	-200,000	0,001	0,064
-213,767	-38,594	0,033	0,012
-212,752	-200,000	-0,003	0,065
-211,738	-95,615	-0,037	-0,007
-210,723	-141,010	-0,067	-0,005
-209,709	122,545	-0,086	0,077
-208,694	-200,000	-0,003	-0,035
-207,679	89,336	0,068	-0,054
-206,665	-61,394	-0,063	-0,019
-205,650	-129,188	-0,054	-0,005
-204,636	20,413	0,029	0,017
-203,621	800,000	-0,036	-0,113
-202,606	185,521	-0,075	0,079
-201,592	-200,000	0,027	-0,087
-200,577	177,574	-0,046	0,048
-199,563	-63,198	0,061	-0,018
-198,548	800,000	-0,013	0,030
-197,533	-200,000	-0,009	0,108
-196,519	-145,707	0,173	0,011
-195,504	800,000	-0,012	-0,027
-194,490	-47,713	-0,100	-0,035
-193,475	-1,199	0,064	0,032
-192,460	345,285	0,038	-0,053
-191,446	352,217	-0,071	0,101
-190,431	204,450	-0,099	0,110
-189,417	294,144	0,067	0,088
-188,402	268,900	-0,032	-0,040
-187,387	-72,978	-0,120	0,031
-186,373	-162,539	-0,183	-0,006
-185,358	443,806	-0,068	-0,106
-184,344	337,597	-0,063	-0,088
-183,329	-200,000	0,032	0,225
-182,315	-97,156	0,028	0,005
-181,300	614,328	0,036	-0,064
-180,285	-200,000	0,013	-0,092
-179,271	-151,563	-0,080	-0,004
-178,256	-12,701	-0,111	-0,051
-177,242	-131,444	-0,063	0,006
-176,227	-200,000	0,016	0,057
-175,212	243,812	-0,019	-0,023
-174,198	178,580	0,004	-0,004
-173,183	296,198	0,031	-0,040
-172,169	35,826	-0,124	-0,077
-171,154	409,420	-0,045	-0,068
-170,139	0,298	0,097	0,049
-169,125	-33,240	0,146	-0,057
-168,110	-200,000	-0,016	-0,110
-167,096	-200,000	-0,011	0,075
-166,081	800,000	0,052	-0,133
-165,066	641,675	0,038	-0,069
-164,052	-200,000	-0,025	0,182
-163,037	446,878	-0,011	0,017
-162,023	-120,569	0,060	0,007
-161,008	-200,000	0,005	-0,021
-159,993	2,079	-0,108	0,055
-158,979	104,174	-0,021	-0,018
-157,964	-158,479	-0,068	0,003
-156,950	-16,707	-0,084	0,038
-155,935	-71,635	-0,146	-0,039
-154,920	33,103	0,132	-0,081
-153,906	396,270	0,076	0,113
-152,891	800,000	-0,029	0,061
-151,877	-200,000	-0,021	-0,125
-150,862	25,381	-0,223	-0,132
-149,847	-7,290	0,046	0,022
-148,833	208,833	0,086	0,096
-147,818	47,303	-0,119	0,079
-146,804	-200,000	-0,005	0,026
-145,789	-200,000	0,028	-0,130
-144,775	-8,305	-0,146	-0,069
-143,760	800,000	0,029	-0,078
-142,745	-38,793	0,155	-0,058
-141,731	-200,000	0,005	-0,147
-140,716	-200,000	0,004	0,026
-139,702	366,085	0,032	0,045
-138,687	479,361	0,035	-0,057
-137,672	800,000	-0,021	-0,052
-136,658	105,919	0,119	-0,100
-135,643	195,203	-0,097	0,105
-134,629	-200,000	0,001	0,066
-133,614	-200,000	0,009	0,036
-132,599	256,643	0,096	0,118
-131,585	45,567	0,059	-0,039
-130,570	800,000	-0,021	-0,042
-129,556	-85,061	-0,163	-0,036
-128,541	249,408	-0,074	-0,089
-127,526	-200,000	0,015	-0,102
-126,512	-17,625	-0,063	-0,028
-125,497	375,905	0,088	-0,128
-124,483	93,204	0,030	-0,024
-123,468	-32,854	-0,132	0,052
-122,453	-53,333	-0,151	-0,049
-121,439	-122,579	0,063	-0,007
-120,424	173,788	0,037	-0,038
-119,410	94,317	-0,059	0,047
-118,395	44,938	-0,061	0,040
-117,380	-35,720	0,144	0,055
-116,366	800,000	0,038	0,104
-115,351	-143,989	0,065	0,004
-114,337	359,905	-0,071	-0,102
-113,322	-200,000	0,002	0,045
-112,307	-200,000	-0,017	-0,073
-111,293	-181,103	0,057	0,001
-110,278	316,694	0,060	0,080
-109,264	144,156	-0,105	-0,100
-108,249	272,260	-0,026	0,032
-107,234	-123,792	-0,169	0,019
-106,220	-200,000	-0,009	-0,036
-105,205	-87,751	-0,105	0,022
-104,191	-200,000	0,025	0,198
-103,176	198,710	-0,046	0,050
-102,162	422,276	0,030	-0,046
-101,147	139,886	-0,016	-0,015
-100,132	-200,000	0,000	-0,013
-99,118	-200,000	-0,013	0,055
-98,103	-200,000	0,020	-0,098
-97,089	-200,000	-0,001	0,119
-96,074	248,939	-0,027	-0,033
-95,059	6,592	-0,076	0,040
-94,045	-165,401	0,062	-0,002
-93,030	94,010	-0,009	-0,007
-92,016	-73,060	0,027	0,007
-91,001	-98,719	0,048	-0,009
-89,986	257,579	0,073	0,089
-88,972	421,316	0,106	0,163
-87,957	-169,204	-0,090	0,002
-86,943	196,442	-0,051	0,055
-85,928	-200,000	-0,000	0,015
-84,913	139,525	0,051	-0,048
-83,899	-200,000	-0,006	0,064
-82,884	243,191	-0,042	0,050
-81,870	210,475	0,080	0,089
-80,855	-200,000	-0,001	-0,039
-79,840	15,833	0,054	0,030
-78,826	-90,916	-0,109	-0,022
-77,811	-110,695	-0,046	-0,007
-76,797	-9,361	-0,125	-0,059
-75,782	800,000	0,038	0,090
-74,767	-160,893	0,105	-0,004
-73,753	675,866	0,082	0,153
-72,738	800,000	-0,029	0,061
-71,724	800,000	0,052	-0,129
-70,709	42,366	-0,069	-0,045
-69,694	-156,977	0,037	-0,002
-68,680	-200,000	0,008	-0,033
-67,665	800,000	0,050	-0,117
-66,651	-200,000	0,033	0,109
-65,636	-200,000	0,006	0,102
-64,622	800,000	0,040	0,081
-63,607	4,863	-0,085	-0,044
-62,592	-200,000	-0,002	-0,097
-61,578	-200,000	-0,023	-0,103
-60,563	587,277	0,055	-0,096
-59,549	-200,000	0,005	0,042
-58,534	-89,700	-1,324	-0,273
-57,519	273,111	-1,658	-2,083
-56,505	-200,000	-0,390	-4,313
-55,490	12,896	1,013	0,554
-54,476	800,000	4,777	11,349
-53,461	-200,000	17,418	272,580
-52,446	800,000	716,581	2194,753
-51,432	555,830	1630,871	2797,519
-50,417	81,383	1655,982	1268,867
-49,403	24,278	1530,521	894,904
-48,388	18,239	1453,811	820,958
-47,373	18,470	1443,016	815,937
-46,359	18,228	1433,763	809,521
-45,344	16,606	1429,038	799,124
-44,330	16,498	1427,218	797,561
-43,315	16,514	1425,549	796,669
-42,300	16,577	1423,971	796,056
-41,286	16,606	1422,780	795,496
-40,271	16,567	1421,422	794,522
-39,257	16,556	1420,047	793,668
-38,242	16,570	1418,783	792,998
-37,227	16,540	1417,779	792,261
-36,213	16,548	1416,423	791,512
-35,198	16,526	1415,129	790,651
-34,184	16,519	1414,439	790,205
-33,169	16,515	1412,985	789,341
-32,154	16,549	1412,069	788,959
-31,140	16,549	1410,844	788,243
-30,125	16,613	1409,505	787,764
-29,111	16,568	1408,391	786,897
-28,096	16,498	1407,376	785,972
-27,082	16,470	1406,253	785,183
-26,067	16,450	1405,110	784,418
-25,052	16,510	1403,866	783,973
-24,038	16,481	1403,002	783,328
-23,023	16,472	1401,879	782,625
-22,009	16,437	1400,942	781,908
-20,994	16,414	1400,350	781,440
-19,979	16,413	1399,099	780,707
-18,965	16,378	1398,294	780,063
-17,950	16,410	1397,207	779,574
-16,936	16,407	1396,327	779,036
-15,921	16,418	1394,888	778,257
-14,906	16,351	1394,154	777,506
-13,892	16,433	1393,092	777,260
-12,877	16,392	1392,205	776,548
-11,863	16,384	1391,401	776,029
-10,848	16,411	1390,269	775,492
-9,833	16,382	1389,429	774,861
-8,819	16,363	1388,501	774,224
-7,804	16,293	1387,772	773,464
-6,790	16,268	1386,650	772,694
-5,775	16,246	1385,688	772,025
-4,760	16,245	1384,987	771,600
-3,746	16,259	1384,078	771,127
-2,731	16,227	1383,348	770,541
-1,717	16,229	1382,271	769,919
-0,702	16,237	1380,329	768,844
0,313	20,184	1302,003	743,368
1,327	36,739	707,876	442,583
2,342	56,487	125,725	86,563
3,356	3,894	16,500	8,521
4,371	0,405	3,068	1,548
5,386	-27,552	0,578	0,237
6,400	307,313	-0,071	0,093
7,415	237,269	-0,220	-0,259
8,429	8,199	-0,116	-0,062
9,444	22,014	-0,349	-0,201
10,459	-35,786	-0,301	-0,115
11,473	299,468	-0,242	-0,316
12,488	-10,489	-0,314	-0,147
13,502	-54,194	-0,265	-0,085
14,517	-112,268	-0,467	-0,066
15,531	35,319	-0,353	-0,219
16,546	95,894	-0,339	-0,274
17,561	136,150	-0,337	-0,312
18,575	331,440	-0,115	-0,157
19,590	165,519	-0,304	-0,305
20,604	-172,047	-0,214	0,005
21,619	37,462	-0,469	-0,294
22,634	22,419	-0,480	-0,277
23,648	35,857	-0,537	-0,333
24,663	105,488	-0,377	-0,315
25,677	88,309	-0,391	-0,307
26,692	82,526	-0,417	-0,320
27,707	8,054	-0,379	-0,200
28,721	101,006	-0,279	-0,229
29,736	95,087	-0,304	-0,245
30,750	65,370	-0,332	-0,237
31,765	78,475	-0,400	-0,302
32,780	122,713	-0,369	-0,327
33,794	121,838	-0,318	-0,281
34,809	154,645	-0,374	-0,364
35,823	121,230	-0,392	-0,345
36,838	20,317	-0,394	-0,224
37,853	157,788	-0,382	-0,374
38,867	4,821	-0,526	-0,272
39,882	112,558	-0,378	-0,323
40,896	-91,955	-0,332	-0,066
41,911	15,754	-0,382	-0,212
42,926	76,150	-0,349	-0,261
43,940	-11,641	-0,353	-0,163
44,955	58,051	-0,481	-0,333
45,969	109,710	-0,229	-0,194
46,984	-2,686	-0,396	-0,195
47,999	59,798	-0,314	-0,219
49,013	33,281	-0,414	-0,253
50,028	-45,236	-0,385	-0,134
51,042	154,616	-0,354	-0,344
52,057	93,522	-0,282	-0,225
53,071	13,124	-0,428	-0,233
54,086	203,185	-0,299	-0,327
55,101	10,715	-0,315	-0,169
56,115	35,003	-0,373	-0,230
57,130	181,482	-0,218	-0,227
58,144	13,549	-0,449	-0,245
59,159	42,854	-0,289	-0,185
60,174	180,490	-0,287	-0,297
61,188	19,624	-0,423	-0,240
62,203	-96,852	-0,356	0,065
63,217	71,182	-0,263	-0,192
64,232	144,643	-0,321	-0,302
65,247	122,759	-0,391	-0,345
66,261	96,805	-0,284	-0,229
67,276	221,872	-0,273	-0,310
68,290	-34,084	-0,382	-0,147
69,305	18,877	-0,351	-0,198
70,320	120,246	-0,162	-0,141
71,334	189,067	-0,296	-0,312
72,349	462,465	-0,147	-0,231
73,363	-13,397	-0,350	-0,160
74,378	9,891	-0,382	-0,204
75,393	113,831	-0,260	-0,222
76,407	3,569	-0,376	-0,193
77,422	28,616	-0,233	-0,138
78,436	6,166	-0,361	-0,188
79,451	8,105	-0,219	-0,116
80,466	389,478	-0,150	-0,220
81,480	56,659	-0,398	-0,272
82,495	257,516	-0,250	-0,303
83,509	39,744	-0,287	-0,181
84,524	85,685	-0,277	-0,214
85,539	-26,153	-0,352	-0,145
86,553	237,053	-0,154	-0,179
87,568	-38,792	-0,228	-0,084
88,582	40,942	-0,338	-0,214
89,597	-114,880	-0,150	-0,020
90,611	-5,538	-0,339	-0,163
91,626	223,533	-0,182	-0,207
92,641	-47,469	-0,266	-0,091
93,655	57,634	-0,278	-0,191
94,670	-19,006	-0,417	-0,181
95,684	-70,522	-0,374	-0,099
96,699	126,825	-0,188	-0,167
97,714	-55,741	-0,325	-0,102
98,728	22,555	-0,297	-0,170
99,743	56,651	-0,179	-0,123
100,757	-92,837	-0,176	-0,034
101,772	131,215	-0,304	-0,275
102,787	800,000	-0,128	-0,289
103,801	-22,860	-0,417	-0,176
104,816	15,695	-0,252	-0,139
105,830	78,883	-0,169	-0,127
106,845	296,583	-0,124	-0,160
107,860	-85,973	-0,274	-0,059
108,874	-14,648	-0,339	-0,153
109,889	95,226	-0,279	-0,223
110,903	281,312	-0,196	-0,247
111,918	136,079	-0,289	-0,265
112,933	-47,357	-0,265	-0,090
113,947	53,219	-0,244	-0,164
114,962	-25,961	-0,233	-0,096
115,976	73,503	-0,222	-0,163
116,991	-108,137	-0,237	-0,036
118,006	349,785	-0,256	-0,356
119,020	-63,211	-0,400	-0,115
120,035	155,386	-0,219	-0,212
121,049	-9,051	-0,234	-0,110
122,064	248,840	-0,208	-0,248
123,079	50,815	-0,230	-0,152
124,093	13,393	-0,236	-0,128
125,108	296,474	-0,278	-0,358
126,122	18,172	-0,279	-0,155
127,137	74,822	-0,240	-0,177
128,151	-1,018	-0,267	-0,132
129,166	39,248	-0,149	-0,093
130,181	137,930	-0,242	-0,222
131,195	-156,100	-0,314	-0,014
132,210	-71,085	-0,267	-0,070
133,224	-9,225	-0,221	-0,103
134,239	177,205	-0,262	-0,268
135,254	112,935	-0,293	-0,249
136,268	-146,721	-0,220	-0,013
137,283	183,626	-0,228	-0,236
138,297	180,274	-0,223	-0,230
139,312	121,208	-0,311	-0,271
140,327	-23,829	-0,448	-0,187
141,341	-112,872	-0,195	-0,027
142,356	217,710	-0,181	-0,203
143,370	90,304	-0,219	-0,171
144,385	-0,813	-0,266	-0,132
145,400	800,000	-0,111	-0,218
146,414	11,930	-0,386	-0,207
147,429	110,602	-0,236	-0,198
148,443	34,285	-0,132	-0,080
149,458	53,025	-0,218	-0,146
150,473	136,366	-0,302	-0,276
151,487	173,817	-0,145	-0,146
152,502	265,386	-0,235	-0,288
153,516	18,024	-0,309	-0,172
154,531	35,162	-0,239	-0,146
155,546	63,121	-0,342	-0,239
156,560	32,568	-0,293	-0,177
157,575	160,330	-0,241	-0,235
158,589	-119,738	-0,276	0,033
159,604	8,802	-0,225	-0,119
160,619	171,268	-0,262	-0,263
161,633	127,870	-0,196	-0,174
162,648	117,723	-0,208	-0,179
163,662	88,987	-0,146	-0,114
164,677	67,879	-0,227	-0,162
165,692	-66,082	-0,279	-0,077
166,706	-24,766	-0,218	-0,090
167,721	143,217	-0,245	-0,228
168,735	115,459	-0,348	-0,297
169,750	45,360	-0,291	-0,188
170,764	69,670	-0,201	-0,144
171,779	-72,691	-0,147	-0,038
172,794	196,040	-0,243	-0,258
173,808	800,000	-0,097	-0,217
174,823	52,315	-0,266	-0,177
175,837	-36,284	-0,228	-0,085
176,852	93,917	-0,321	-0,254
177,867	371,150	-0,129	-0,183
178,881	74,060	-0,282	-0,206
179,896	157,527	-0,262	-0,253
180,910	184,736	-0,238	-0,246
181,925	36,761	-0,318	-0,196
182,940	460,495	-0,133	-0,207
183,954	155,777	-0,223	-0,215
184,969	23,222	-0,256	-0,146
185,983	61,154	-0,204	-0,141
186,998	63,302	-0,245	-0,171
188,013	63,864	-0,195	-0,137
189,027	149,038	-0,319	-0,302
190,042	11,378	-0,176	-0,094
191,056	110,201	-0,226	-0,189
192,071	56,727	-0,255	-0,173
193,086	225,002	-0,287	-0,324
194,100	151,572	-0,115	-0,109
195,115	800,000	-0,099	-0,197
196,129	86,518	-0,201	-0,154
197,144	800,000	-0,116	-0,315
198,159	145,427	-0,121	-0,113
199,173	-75,692	-0,234	-0,057
200,188	73,553	-0,083	-0,061
201,202	800,000	-0,089	-0,207
202,217	41,325	-0,137	-0,086
203,232	3,228	-0,241	-0,122
204,246	28,335	-0,162	-0,095
205,261	148,437	-0,136	-0,128
206,275	-109,924	-0,107	-0,016
207,290	139,920	-0,160	-0,147
208,304	-54,385	-0,292	-0,092
209,319	-98,622	-0,160	0,028
210,334	-13,191	-0,171	-0,077
211,348	-118,551	-0,308	-0,038
212,363	210,594	-0,263	-0,288
213,377	195,285	-0,110	-0,116
214,392	10,072	-0,159	-0,084
215,407	103,946	-0,146	0,120
216,421	546,593	-0,104	-0,173
217,436	183,239	-0,159	-0,163
218,450	66,298	-0,213	-0,150
219,465	-81,934	-0,213	-0,048
220,480	-27,892	-0,172	-0,069
221,494	118,389	-0,144	-0,123
222,509	67,293	-0,229	-0,162
223,523	245,558	-0,152	-0,178
224,538	-32,133	-0,256	-0,099
225,553	-14,382	-0,208	-0,093
226,567	30,897	-0,228	-0,136
227,582	42,801	-0,300	-0,190
228,596	82,044	-0,106	-0,079
229,611	89,073	-0,127	-0,098
230,626	-44,466	-0,212	-0,073
231,640	38,989	-0,174	-0,108
232,655	-15,879	-0,240	-0,106
233,669	-42,288	-0,299	-0,106
234,684	-117,959	-0,235	-0,029
235,699	800,000	-0,027	-0,067
236,713	-23,844	-0,245	-0,101
237,728	-18,734	-0,154	-0,066
238,742	-154,403	-0,155	-0,007
239,757	19,417	-0,195	-0,109
240,772	10,796	-0,184	-0,097
241,786	676,631	-0,084	-0,153
242,801	-80,305	-0,152	-0,035
243,815	288,863	-0,184	-0,232
244,830	393,262	-0,087	-0,125
245,844	-53,244	-0,233	-0,074
246,859	-58,611	-0,239	-0,071
247,874	-10,926	-0,169	-0,077
248,888	112,020	-0,161	-0,135
249,903	12,659	-0,140	-0,075
250,917	51,240	-0,169	-0,111
251,932	-83,729	-0,272	-0,060
252,947	-118,351	-0,165	-0,020
253,961	300,385	-0,236	-0,303
254,976	662,290	-0,180	-0,323
255,990	129,572	-0,276	-0,244
257,005	158,703	-0,240	-0,232
258,020	800,000	0,041	-0,097
259,034	-70,665	-0,187	-0,049
260,049	-18,772	-0,172	-0,074
261,063	33,264	-0,314	-0,189
262,078	69,062	-0,265	-0,189
263,093	-200,000	-0,262	-0,001
264,107	100,961	-0,148	-0,119
265,122	68,242	-0,114	-0,081
266,136	75,114	-0,209	-0,152
267,151	-200,000	-0,045	-0,215
268,166	-128,216	-0,199	-0,019
269,180	94,928	-0,115	-0,091
270,195	-48,895	-0,129	-0,043
271,209	-59,889	-0,187	-0,055
272,224	-70,123	-0,208	-0,054
273,239	215,758	-0,211	-0,232
274,253	800,000	-0,084	-0,202
275,268	392,346	-0,124	-0,179
276,282	176,282	-0,115	-0,115
277,297	193,272	-0,257	-0,269
278,312	23,611	-0,250	-0,142
279,326	280,976	-0,146	-0,181
280,341	69,175	-0,126	-0,089
281,355	-59,600	-0,191	-0,056
282,370	177,714	-0,158	-0,160
283,384	676,847	-0,101	-0,182
284,399	-33,229	-0,202	-0,077
285,414	-4,858	-0,130	-0,062
286,428	-200,000	0,003	-0,168
287,443	12,070	-0,126	-0,067
288,457	46,156	-0,137	-0,087
289,472	-200,000	-0,004	0,022
290,487	51,138	-0,143	-0,094
291,501	800,000	-0,152	-0,298
292,516	173,981	-0,129	-0,129
293,530	90,806	-0,186	-0,144
294,545	-200,000	-0,026	-0,136
295,560	-35,461	-0,109	-0,041
296,574	53,889	-0,154	0,102
297,589	370,229	-0,137	-0,193
298,603	260,636	-0,094	-0,112
299,618	2,862	-0,128	-0,064
300,633	129,095	-0,121	-0,106
301,647	-124,264	-0,077	0,008
302,662	-30,380	-0,210	-0,082
303,676	-53,003	-0,145	-0,046
304,691	-51,012	-0,267	-0,086
305,706	98,392	-0,182	-0,145
306,720	32,736	-0,128	-0,077
307,735	-200,000	-0,062	-0,212
308,749	800,000	-0,084	-0,165
309,764	9,531	-0,157	-0,082
310,779	800,000	-0,108	-0,268
311,793	800,000	-0,086	-0,240
312,808	77,158	-0,158	-0,116
313,822	307,697	-0,190	-0,246
314,837	-42,364	-0,209	-0,073
315,852	-105,887	-0,134	-0,021
316,866	-0,056	-0,232	0,114
317,881	-200,000	0,021	-0,317
318,895	95,202	-0,167	-0,131
319,910	271,814	-0,206	-0,251
320,925	96,953	-0,103	-0,081
321,939	59,175	-0,227	-0,154
322,954	196,822	-0,114	-0,120
323,968	800,000	-0,056	-0,115
324,983	-41,932	-0,253	-0,089
325,997	106,889	-0,099	-0,081
327,012	234,749	-0,146	-0,167
328,027	4,979	-0,120	-0,060
329,041	466,510	-0,148	-0,230
330,056	-115,099	-0,066	0,008
331,070	112,482	-0,114	-0,095
332,085	136,203	-0,029	-0,026
333,100	-200,000	0,017	-0,209
334,114	349,175	-0,114	-0,155
335,129	201,603	-0,196	-0,209
336,143	1,438	-0,106	-0,052
337,158	-9,122	-0,182	-0,084
338,173	420,343	-0,093	-0,137
339,187	690,970	-0,122	-0,221
340,202	-28,122	-0,019	0,008
341,216	242,591	-0,171	-0,198
342,231	217,206	-0,148	-0,162
343,246	152,174	-0,177	-0,166
344,260	-78,744	-0,176	-0,041
345,275	199,207	-0,093	-0,098
346,289	-65,802	-0,124	-0,034
347,304	34,981	-0,171	-0,103
348,319	-200,000	-0,005	-0,109
349,333	-68,409	-0,205	-0,054
350,348	17,390	-0,134	-0,073
351,362	-75,292	-0,116	-0,028
352,377	800,000	-0,067	-0,167
353,392	-49,992	-0,177	-0,057
354,406	-193,721	-0,182	-0,001
355,421	210,319	1312,229	1418,062
356,435	161,902	1472,710	1418,600
