DTS Sentinel unit serial number:	SN410029Multiplexer serial number:	ORYXHardware model number:	OX2-SRSoftware version number:	ORYX F/W v4,00 Oryx Data Collector v3.7.2.0data status	okinstallation	B3 Nyhavnadifferential loss correction	single-endedforward channel	channel 1reverse channel	N/Adate	2023/12/02time	04:02:30forward acquisition time	300,00reverse acquisition time	0,00gamma	499,1914k internal	0,3194k external	0,3194temperature offset calibration	1,0000default loss term (dB/km)	0,3820temperature slope calibration	1,0000multiplexer offset coefficient	1,0000multiplexer slope coefficient	1,0000fibre end	0,00T internal ref (°C)	16,58T ext. ref 1 (°C)	1,50T ext. ref 2 (°C)	1,49length (m)	temperature (°C)	Stokes	anti-Stokes-744,400	112,172	-0,276	-0,243
-743,385	-200,000	0,033	0,368
-742,371	298,176	-0,208	-0,279
-741,356	-200,000	0,048	0,378
-740,342	187,443	-0,188	-0,205
-739,327	-200,000	-0,068	0,303
-738,312	272,591	-0,322	-0,416
-737,298	-200,000	0,024	0,249
-736,283	478,562	-0,181	-0,299
-735,269	-200,000	0,032	0,246
-734,254	372,897	-0,146	-0,218
-733,239	56,443	-0,234	0,166
-732,225	800,000	-0,077	-0,235
-731,210	597,179	0,069	-0,124
-730,196	-200,000	-0,002	0,039
-729,181	-200,000	-0,133	-0,000
-728,167	-65,499	0,081	-0,023
-727,152	800,000	0,011	0,027
-726,137	-200,000	-0,011	0,079
-725,123	-14,219	-0,158	-0,074
-724,108	-6,777	-0,051	-0,025
-723,094	-200,000	-0,055	-0,182
-722,079	144,501	-0,111	-0,108
-721,064	-5,284	-0,097	-0,048
-720,050	130,443	0,043	-0,040
-719,035	278,082	-0,045	-0,058
-718,021	800,000	-0,024	0,064
-717,006	318,879	-0,101	-0,140
-715,991	157,530	-0,080	-0,081
-714,977	196,738	-0,056	-0,062
-713,962	672,572	-0,048	-0,092
-712,948	463,794	0,053	0,087
-711,933	-147,269	-0,056	0,003
-710,918	-104,392	-0,052	-0,009
-709,904	124,515	-0,064	-0,058
-708,889	-5,947	-0,089	-0,044
-707,875	-200,000	-0,025	-0,152
-706,860	600,907	-0,009	-0,016
-705,845	-200,000	-0,014	0,085
-704,831	800,000	0,056	-0,170
-703,816	800,000	-0,056	0,128
-702,802	9,590	-0,183	-0,101
-701,787	-89,224	-0,199	0,042
-700,772	800,000	-0,014	-0,039
-699,758	-49,974	-0,051	0,017
-698,743	778,396	0,060	-0,119
-697,729	-200,000	0,012	0,091
-696,714	-157,031	0,145	0,006
-695,699	372,427	0,069	0,103
-694,685	453,540	0,024	0,039
-693,670	-131,585	-0,097	0,009
-692,656	-200,000	0,044	0,221
-691,641	56,364	0,093	-0,066
-690,627	340,370	-0,068	0,097
-689,612	-50,804	0,059	-0,020
-688,597	97,940	-0,039	0,033
-687,583	84,083	-0,023	-0,018
-686,568	-200,000	-0,004	-0,131
-685,554	800,000	-0,020	-0,050
-684,539	-109,539	-0,049	-0,007
-683,524	63,628	0,184	0,134
-682,510	-74,635	-0,139	-0,036
-681,495	-0,125	-0,078	-0,040
-680,481	250,958	-0,033	-0,041
-679,466	9,459	-0,187	-0,103
-678,451	656,508	-0,041	-0,077
-677,437	800,000	-0,090	-0,252
-676,422	-16,052	-0,089	-0,041
-675,408	745,250	-0,029	0,058
-674,393	-151,921	0,056	-0,003
-673,378	-85,277	-0,131	0,030
-672,364	-142,823	-0,069	-0,005
-671,349	-200,000	-0,003	-0,054
-670,335	199,521	0,024	0,027
-669,320	137,402	-0,056	-0,054
-668,305	132,006	-0,031	-0,029
-667,291	-44,600	0,104	0,038
-666,276	800,000	0,053	-0,160
-665,262	-200,000	-0,021	-0,098
-664,247	399,704	-0,098	-0,150
-663,232	-200,000	0,024	-0,101
-662,218	800,000	-0,008	-0,026
-661,203	-200,000	-0,028	-0,126
-660,189	-200,000	0,023	-0,086
-659,174	-59,695	-0,153	-0,047
-658,159	201,524	-0,076	-0,085
-657,145	-79,567	-0,039	0,010
-656,130	71,586	0,082	0,062
-655,116	-200,000	0,012	0,108
-654,101	-105,356	-0,121	0,020
-653,086	-63,293	-0,163	0,048
-652,072	-108,258	-0,057	0,009
-651,057	98,976	-0,171	-0,144
-650,043	-200,000	0,028	-0,146
-649,028	-137,129	0,030	0,002
-648,014	490,495	-0,031	-0,051
-646,999	-200,000	0,006	-0,033
-645,984	-200,000	0,002	-0,096
-644,970	-94,060	-0,026	0,005
-643,955	141,679	0,021	-0,020
-642,941	-131,057	-0,083	0,008
-641,926	303,093	0,013	0,018
-640,911	584,253	-0,035	-0,062
-639,897	-68,109	0,027	0,008
-638,882	800,000	0,081	0,188
-637,868	-138,035	-0,081	0,006
-636,853	400,032	0,037	-0,057
-635,838	761,669	-0,075	-0,148
-634,824	206,670	-0,054	-0,061
-633,809	-200,000	0,019	0,067
-632,795	47,075	0,088	0,060
-631,780	-200,000	0,001	0,057
-630,765	509,934	-0,091	0,155
-629,751	-67,935	-0,017	-0,005
-628,736	128,368	0,038	-0,035
-627,722	6,866	-0,083	-0,045
-626,707	476,638	-0,019	0,031
-625,692	220,923	0,044	0,052
-624,678	38,470	-0,085	0,055
-623,663	366,928	-0,016	-0,023
-622,649	-15,073	0,101	0,047
-621,634	-200,000	0,002	-0,048
-620,619	340,559	-0,061	-0,087
-619,605	-121,432	0,107	0,013
-618,590	-200,000	0,011	-0,079
-617,576	265,219	0,100	0,127
-616,561	-52,012	-0,017	0,006
-615,546	-200,000	0,014	-0,087
-614,532	-200,000	-0,055	-0,179
-613,517	800,000	-0,051	-0,128
-612,503	-85,869	0,084	0,019
-611,488	-200,000	0,036	0,148
-610,474	-200,000	0,022	-0,086
-609,459	-59,630	0,071	-0,022
-608,444	40,447	-0,119	-0,077
-607,430	-94,115	-0,032	-0,006
-606,415	-200,000	-0,012	-0,121
-605,401	-63,498	0,087	0,026
-604,386	355,309	-0,038	0,055
-603,371	-138,131	-0,027	-0,002
-602,357	314,673	-0,097	-0,133
-601,342	-200,000	-0,102	-0,000
-600,328	54,727	-0,135	-0,094
-599,313	800,000	-0,061	-0,131
-598,298	128,439	0,042	-0,039
-597,284	-200,000	-0,012	-0,067
-596,269	270,550	-0,009	-0,012
-595,255	-144,934	-0,077	-0,005
-594,240	17,230	-0,055	0,032
-593,225	0,099	-0,152	-0,078
-592,211	-192,320	-0,088	-0,001
-591,196	800,000	0,030	-0,073
-590,182	66,577	-0,042	-0,031
-589,167	291,594	0,101	-0,133
-588,152	6,332	0,039	0,021
-587,138	30,533	-0,052	-0,032
-586,123	-114,276	-0,151	0,021
-585,109	-59,971	-0,053	-0,016
-584,094	800,000	0,006	-0,013
-583,079	800,000	0,028	0,060
-582,065	-200,000	-0,003	-0,025
-581,050	103,600	-0,061	-0,052
-580,036	-82,396	-0,123	-0,029
-579,021	-200,000	0,024	-0,111
-578,006	65,320	-0,053	-0,039
-576,992	-163,820	-0,072	-0,002
-575,977	-199,232	0,013	0,000
-574,963	-2,643	0,065	0,033
-573,948	-200,000	0,001	0,017
-572,934	800,000	-0,035	0,081
-571,919	-200,000	-0,011	0,117
-570,904	-200,000	-0,007	-0,084
-569,890	58,264	-0,058	-0,041
-568,875	538,725	0,058	-0,101
-567,861	-78,622	0,118	-0,029
-566,846	12,152	0,079	-0,044
-565,831	-200,000	0,006	0,031
-564,817	-200,000	0,006	0,046
-563,802	77,621	-0,094	-0,072
-562,788	598,314	0,054	-0,098
-561,773	-112,922	-0,013	0,002
-560,758	800,000	-0,050	0,102
-559,744	800,000	-0,045	-0,097
-558,729	-33,336	0,060	-0,024
-557,715	134,722	-0,133	-0,125
-556,700	379,219	0,040	-0,060
-555,685	178,308	-0,112	-0,118
-554,671	-200,000	-0,009	-0,099
-553,656	800,000	0,048	-0,151
-552,642	-200,000	0,013	0,094
-551,627	-2,546	-0,035	0,018
-550,612	-200,000	-0,000	-0,015
-549,598	11,852	-0,076	-0,042
-548,583	108,150	0,042	0,036
-547,569	-74,297	0,040	0,010
-546,554	800,000	-0,041	0,088
-545,539	12,394	0,037	-0,021
-544,525	-8,178	0,166	0,081
-543,510	-200,000	0,018	-0,083
-542,496	-79,441	-0,258	-0,063
-541,481	144,375	-0,097	-0,093
-540,466	420,870	-0,012	0,018
-539,452	-200,000	0,013	0,053
-538,437	-71,088	-0,136	0,037
-537,423	-70,029	0,110	0,030
-536,408	800,000	-0,061	-0,158
-535,393	800,000	-0,038	-0,097
-534,379	-31,260	-0,040	-0,016
-533,364	-200,000	0,003	-0,011
-532,350	71,873	0,042	0,032
-531,335	221,326	-0,018	-0,020
-530,321	3,997	-0,118	0,062
-529,306	-200,000	0,002	0,114
-528,291	24,512	0,028	0,017
-527,277	800,000	-0,057	0,134
-526,262	800,000	0,018	0,047
-525,248	-15,427	0,111	0,051
-524,233	439,846	-0,011	-0,018
-523,218	-200,000	-0,006	-0,028
-522,204	-43,129	0,143	0,052
-521,189	677,742	-0,017	-0,031
-520,175	178,901	-0,180	-0,190
-519,160	10,152	0,123	-0,067
-518,145	800,000	-0,034	0,090
-517,131	-200,000	0,023	0,101
-516,116	-200,000	0,011	0,061
-515,102	20,425	-0,076	-0,044
-514,087	168,432	0,088	0,090
-513,072	-200,000	-0,011	0,099
-512,058	611,595	0,033	-0,060
-511,043	87,619	0,066	0,053
-510,029	-200,000	0,025	0,124
-509,014	661,783	0,014	-0,026
-507,999	-22,410	0,126	0,055
-506,985	12,934	0,020	-0,011
-505,970	-54,519	-0,057	-0,018
-504,956	241,489	-0,061	-0,074
-503,941	-2,399	0,037	0,019
-502,926	84,399	-0,053	-0,042
-501,912	-174,906	-0,119	0,002
-500,897	117,626	-0,128	0,114
-499,883	-200,000	0,018	0,187
-498,868	-200,000	-0,003	-0,048
-497,853	225,921	-0,133	-0,155
-496,839	555,222	0,085	-0,148
-495,824	117,450	0,077	0,068
-494,810	-200,000	-0,050	0,196
-493,795	135,546	0,062	0,058
-492,781	333,406	-0,060	0,085
-491,766	-200,000	0,016	0,142
-490,751	73,922	0,123	0,093
-489,737	174,587	-0,058	0,061
-488,722	97,395	0,097	0,080
-487,708	-119,123	-0,047	0,006
-486,693	800,000	0,059	-0,169
-485,678	800,000	-0,036	-0,106
-484,664	-114,492	-0,074	-0,010
-483,649	-143,272	0,080	0,005
-482,635	-174,468	0,104	0,002
-481,620	477,863	-0,029	0,047
-480,605	0,675	0,063	0,032
-479,591	209,588	-0,060	0,068
-478,576	89,410	-0,037	-0,030
-477,562	33,547	-0,168	-0,105
-476,547	-99,698	0,059	0,011
-475,532	800,000	0,037	-0,097
-474,518	-200,000	-0,010	-0,063
-473,503	-200,000	0,012	0,098
-472,489	-88,409	0,060	0,013
-471,474	158,974	-0,058	-0,059
-470,459	-154,018	0,052	-0,003
-469,445	-200,000	-0,022	-0,115
-468,430	-200,000	0,046	-0,276
-467,416	43,976	0,090	-0,059
-466,401	-71,101	0,018	-0,005
-465,386	-200,000	0,009	-0,101
-464,372	206,856	0,061	0,068
-463,357	103,833	-0,021	-0,018
-462,343	-0,984	-0,152	-0,077
-461,328	-131,450	0,067	-0,006
-460,313	-159,624	0,150	0,006
-459,299	-170,476	0,053	-0,001
-458,284	6,846	0,059	-0,032
-457,270	-200,000	-0,009	-0,075
-456,255	-180,173	0,142	-0,002
-455,241	-63,787	-0,121	-0,036
-454,226	-150,896	0,094	0,005
-453,211	-200,000	0,023	0,075
-452,197	88,958	0,111	-0,089
-451,182	-200,000	-0,004	0,032
-450,168	-200,000	-0,005	-0,022
-449,153	8,749	0,142	0,077
-448,138	-59,455	-0,183	-0,056
-447,124	86,503	-0,141	0,112
-446,109	258,192	-0,041	0,051
-445,095	800,000	-0,019	-0,056
-444,080	258,597	-0,072	-0,089
-443,065	416,690	-0,033	0,051
-442,051	-200,000	0,007	0,098
-441,036	-200,000	-0,012	0,087
-440,022	159,567	-0,021	0,022
-439,007	697,161	0,105	-0,199
-437,992	-37,458	0,067	-0,026
-436,978	62,882	0,154	0,111
-435,963	23,790	0,071	-0,042
-434,949	409,732	-0,051	0,078
-433,934	-200,000	0,005	0,087
-432,919	72,992	-0,050	-0,038
-431,905	800,000	0,005	0,014
-430,890	-200,000	-0,008	0,029
-429,876	237,732	0,095	-0,113
-428,861	-200,000	-0,007	-0,029
-427,846	-45,708	-0,179	-0,064
-426,832	6,962	-0,083	-0,045
-425,817	-90,615	0,043	0,009
-424,803	-200,000	0,010	0,087
-423,788	187,405	-0,044	0,047
-422,773	427,607	0,065	0,102
-421,759	800,000	0,052	0,154
-420,744	800,000	-0,038	0,120
-419,730	-200,000	-0,003	-0,124
-418,715	-200,000	0,014	-0,241
-417,701	87,292	-0,105	0,083
-416,686	-53,555	0,117	-0,038
-415,671	-31,505	-0,082	0,033
-414,657	15,035	0,055	0,031
-413,642	-200,000	0,047	0,154
-412,628	-96,097	-0,067	-0,013
-411,613	692,467	-0,066	-0,125
-410,598	120,384	-0,020	-0,018
-409,584	618,676	0,040	-0,073
-408,569	246,478	0,061	-0,075
-407,555	-120,091	0,153	0,019
-406,540	800,000	-0,024	-0,052
-405,525	-200,000	0,025	0,086
-404,511	273,261	-0,057	-0,072
-403,496	-200,000	-0,012	-0,057
-402,482	800,000	-0,044	0,133
-401,467	800,000	0,042	0,109
-400,452	3,891	-0,108	0,057
-399,438	-72,557	0,088	-0,023
-398,423	57,193	-0,052	0,037
-397,409	43,344	-0,043	0,028
-396,394	683,180	0,025	-0,047
-395,379	-109,811	0,122	-0,018
-394,365	-20,030	0,126	0,056
-393,350	193,472	-0,105	0,114
-392,336	-200,000	-0,016	0,117
-391,321	-200,000	-0,017	0,105
-390,306	98,816	-0,117	0,097
-389,292	-43,575	0,092	0,033
-388,277	584,624	0,079	-0,140
-387,263	65,601	0,145	0,106
-386,248	33,688	0,089	0,056
-385,233	29,493	0,093	0,057
-384,219	-92,914	0,091	-0,018
-383,204	70,648	-0,030	-0,022
-382,190	-70,787	-0,099	0,027
-381,175	-60,851	-0,126	0,038
-380,160	51,161	0,083	0,056
-379,146	800,000	0,035	-0,090
-378,131	-82,456	0,226	-0,052
-377,117	-95,471	-0,128	-0,024
-376,102	-124,659	-0,149	-0,016
-375,088	428,781	0,006	-0,009
-374,073	-200,000	-0,017	-0,238
-373,058	-50,988	-0,061	-0,020
-372,044	800,000	0,043	0,088
-371,029	800,000	-0,014	0,031
-370,015	-200,000	-0,037	-0,144
-369,000	-200,000	0,002	-0,116
-367,985	5,347	-0,012	0,006
-366,971	-6,347	0,065	0,032
-365,956	800,000	0,059	-0,120
-364,942	341,556	0,059	-0,083
-363,927	-112,512	-0,102	-0,014
-362,912	800,000	0,037	-0,080
-361,898	382,448	0,014	0,020
-360,883	-200,000	0,011	-0,041
-359,869	-31,341	0,102	-0,041
-358,854	-200,000	-0,023	0,114
-357,839	-200,000	0,000	0,201
-356,825	-46,681	-0,100	0,035
-355,810	-56,315	-0,167	-0,053
-354,796	-200,000	0,001	0,005
-353,781	-14,763	-0,052	-0,024
-352,766	-200,000	0,001	-0,067
-351,752	92,568	0,034	0,028
-350,737	-200,000	-0,007	0,104
-349,723	389,709	0,058	-0,086
-348,708	137,605	-0,071	0,067
-347,693	-200,000	-0,006	0,101
-346,679	-35,487	-0,092	-0,036
-345,664	-30,159	0,070	-0,029
-344,650	34,639	-0,060	0,038
-343,635	3,826	0,079	-0,041
-342,620	309,305	0,032	0,043
-341,606	515,155	0,029	-0,048
-340,591	253,123	0,090	-0,111
-339,577	-83,845	-0,216	-0,049
-338,562	-44,334	0,070	-0,025
-337,548	800,000	0,011	-0,022
-336,533	0,311	0,191	0,097
-335,518	9,146	0,092	0,050
-334,504	-40,955	0,112	-0,041
-333,489	84,372	-0,119	0,093
-332,475	143,595	-0,085	-0,081
-331,460	146,503	-0,064	-0,062
-330,445	209,568	-0,078	-0,088
-329,431	-89,433	-0,111	0,023
-328,416	80,031	0,079	0,061
-327,402	-128,972	0,053	0,005
-326,387	14,361	-0,102	-0,057
-325,372	-200,000	-0,021	0,085
-324,358	800,000	0,020	-0,059
-323,343	721,814	0,067	0,128
-322,329	59,155	0,081	-0,057
-321,314	303,752	0,062	-0,083
-320,299	248,194	0,140	0,170
-319,285	210,941	0,040	0,045
-318,270	-200,000	-0,010	0,087
-317,256	800,000	0,022	-0,048
-316,241	-67,033	-0,112	-0,031
-315,226	-91,111	0,047	0,010
-314,212	176,811	0,075	0,079
-313,197	-56,809	-0,061	0,019
-312,183	383,684	0,041	0,061
-311,168	479,401	-0,075	-0,122
-310,153	-140,069	-0,079	0,006
-309,139	-128,944	-0,114	-0,011
-308,124	208,502	-0,033	-0,037
-307,110	-68,063	0,152	-0,042
-306,095	-200,000	0,009	-0,094
-305,080	116,489	0,068	-0,060
-304,066	54,778	-0,125	-0,087
-303,051	318,936	-0,037	0,051
-302,037	1,526	-0,106	0,054
-301,022	209,026	0,014	-0,015
-300,008	36,382	-0,083	0,052
-298,993	482,129	0,028	0,046
-297,978	85,644	-0,018	-0,015
-296,964	-200,000	-0,001	-0,117
-295,949	-200,000	0,012	-0,140
-294,935	800,000	-0,033	-0,078
-293,920	-121,848	-0,139	-0,016
-292,905	-200,000	0,010	-0,055
-291,891	-200,000	0,026	-0,101
-290,876	41,660	0,027	0,018
-289,862	59,659	-0,061	0,043
-288,847	118,129	0,021	0,018
-287,832	-76,877	-0,030	0,007
-286,818	9,962	0,018	0,010
-285,803	-94,119	0,147	0,029
-284,789	-200,000	0,029	0,209
-283,774	-200,000	0,006	0,050
-282,759	-95,014	-0,038	0,007
-281,745	-200,000	-0,006	-0,125
-280,730	-83,840	0,004	0,001
-279,716	-115,812	0,167	-0,022
-278,701	-82,103	0,034	0,008
-277,686	11,925	-0,056	0,031
-276,672	135,604	-0,046	0,042
-275,657	-149,378	0,107	-0,006
-274,643	382,358	-0,018	-0,027
-273,628	650,957	-0,011	0,020
-272,613	-200,000	0,021	0,117
-271,599	800,000	0,021	-0,057
-270,584	465,269	-0,057	0,092
-269,570	254,621	0,113	0,139
-268,555	-200,000	0,026	0,099
-267,540	-200,000	-0,026	0,127
-266,526	771,663	0,020	-0,040
-265,511	-200,000	-0,013	0,172
-264,497	455,645	0,019	-0,031
-263,482	800,000	0,018	-0,038
-262,467	-123,494	-0,085	-0,010
-261,453	336,922	0,064	0,088
-260,438	347,797	0,042	-0,060
-259,424	86,230	-0,067	-0,053
-258,409	-32,510	-0,113	0,045
-257,395	-10,040	-0,020	0,009
-256,380	-38,355	0,079	-0,030
-255,365	-148,534	-0,059	0,003
-254,351	-84,153	0,174	-0,039
-253,336	-200,000	-0,012	0,099
-252,322	19,810	0,164	0,094
-251,307	-148,641	0,027	0,002
-250,292	476,256	-0,035	-0,056
-249,278	290,901	0,164	0,214
-248,263	-200,000	0,011	0,224
-247,249	-103,902	-0,043	-0,007
-246,234	23,506	0,009	0,005
-245,219	62,673	0,028	0,020
-244,205	-141,475	-0,095	0,007
-243,190	-40,806	0,139	-0,051
-242,176	96,210	-0,060	-0,049
-241,161	14,350	-0,134	0,075
-240,146	163,231	0,047	0,047
-239,132	374,683	-0,016	0,023
-238,117	30,970	0,057	0,035
-237,103	128,722	-0,078	0,071
-236,088	-23,498	0,055	0,023
-235,073	-145,927	0,054	-0,003
-234,059	-7,598	-0,070	-0,034
-233,044	200,645	0,040	0,044
-232,030	-200,000	-0,021	0,076
-231,015	-200,000	-0,006	0,140
-230,000	350,894	-0,057	-0,081
-228,986	98,103	-0,022	-0,018
-227,971	216,056	-0,103	0,118
-226,957	-69,203	0,078	0,021
-225,942	-200,000	0,002	0,027
-224,927	491,262	0,040	0,066
-223,913	-200,000	0,009	-0,109
-222,898	-38,620	-0,073	0,027
-221,884	85,623	0,008	-0,006
-220,869	144,250	-0,071	0,067
-219,855	169,258	0,050	0,051
-218,840	-87,791	0,070	-0,015
-217,825	-200,000	0,030	-0,126
-216,811	800,000	-0,050	-0,138
-215,796	-140,753	0,072	-0,005
-214,782	-195,719	-0,012	0,000
-213,767	-200,000	-0,005	0,120
-212,752	678,523	0,103	0,193
-211,738	800,000	0,048	0,118
-210,723	-200,000	0,039	-0,133
-209,709	-162,073	0,079	0,003
-208,694	524,484	-0,009	-0,016
-207,679	29,828	-0,168	-0,102
-206,665	-118,026	-0,191	-0,024
-205,650	272,547	0,127	0,160
-204,636	-200,000	0,003	0,048
-203,621	19,989	-0,079	-0,046
-202,606	-13,692	-0,101	0,047
-201,592	-169,568	0,071	0,002
-200,577	-56,026	-0,034	0,011
-199,563	-72,595	-0,027	-0,007
-198,548	-82,475	0,094	-0,022
-197,533	129,715	-0,151	-0,138
-196,519	-200,000	0,008	0,056
-195,504	-58,458	0,074	-0,023
-194,490	55,503	0,059	-0,041
-193,475	272,758	-0,104	0,131
-192,460	-200,000	-0,005	0,108
-191,446	-200,000	-0,031	0,127
-190,431	-39,700	-0,050	0,019
-189,417	675,245	0,064	0,120
-188,402	-44,154	-0,093	-0,033
-187,387	800,000	-0,011	0,025
-186,373	443,864	0,105	-0,165
-185,358	-8,506	-0,082	-0,039
-184,344	-12,270	-0,114	0,053
-183,329	-200,000	0,003	0,017
-182,315	402,316	0,080	-0,120
-181,300	39,082	-0,013	0,008
-180,285	13,037	0,083	0,046
-179,271	-152,131	0,015	-0,001
-178,256	549,990	-0,029	0,050
-177,242	-161,700	0,096	0,003
-176,227	-14,564	0,074	-0,034
-175,212	800,000	0,034	-0,098
-174,198	-200,000	0,015	0,056
-173,183	132,997	-0,077	-0,071
-172,169	-28,806	-0,066	-0,027
-171,154	-49,393	-0,053	-0,018
-170,139	305,248	0,101	0,134
-169,125	-14,825	0,090	0,041
-168,110	-133,264	0,113	0,010
-167,096	-7,694	0,096	0,046
-166,081	-200,000	-0,002	-0,151
-165,066	-200,000	-0,058	-0,207
-164,052	443,969	-0,040	-0,063
-163,037	-113,878	0,123	0,017
-162,023	-114,977	-0,125	-0,017
-161,008	-2,834	-0,046	-0,023
-159,993	-44,713	0,084	0,030
-158,979	-43,131	0,035	0,013
-157,964	-200,000	0,020	-0,103
-156,950	176,021	-0,045	-0,047
-155,935	-200,000	0,001	0,132
-154,920	132,259	0,064	0,059
-153,906	-200,000	-0,018	0,114
-152,891	-65,631	0,128	0,036
-151,877	424,927	0,015	0,023
-150,862	-20,402	-0,103	-0,045
-149,847	349,798	-0,024	-0,033
-148,833	-110,549	0,035	0,005
-147,818	570,491	0,040	0,069
-146,804	486,043	-0,021	0,035
-145,789	-95,626	0,093	-0,018
-144,775	64,133	-0,066	0,047
-143,760	-200,000	-0,041	-0,135
-142,745	-200,000	0,009	-0,089
-141,731	800,000	0,016	0,042
-140,716	-114,552	-0,130	-0,018
-139,702	-200,000	0,004	-0,014
-138,687	-200,000	0,035	0,117
-137,672	128,810	-0,111	-0,100
-136,658	441,493	-0,023	-0,036
-135,643	26,652	-0,059	0,035
-134,629	6,624	0,014	0,007
-133,614	384,064	0,048	0,070
-132,599	379,072	-0,047	0,068
-131,585	100,190	0,052	0,043
-130,570	234,054	0,067	-0,079
-129,556	-200,000	-0,039	-0,160
-128,541	-100,220	-0,070	0,012
-127,526	30,334	-0,155	-0,094
-126,512	153,192	-0,060	-0,059
-125,497	800,000	-0,051	0,108
-124,483	46,273	-0,098	0,064
-123,468	-106,148	-0,125	-0,020
-122,453	-107,309	0,031	-0,005
-121,439	800,000	-0,046	-0,104
-120,424	-86,966	-0,068	-0,015
-119,410	-200,000	-0,005	-0,050
-118,395	-200,000	0,034	0,120
-117,380	309,814	-0,070	0,094
-116,366	87,010	-0,021	-0,016
-115,351	-172,177	-0,089	-0,002
-114,337	800,000	0,082	0,168
-113,322	-200,000	-0,007	-0,034
-112,307	-200,000	0,021	0,074
-111,293	-99,912	0,182	-0,032
-110,278	-200,000	0,017	0,117
-109,264	-200,000	0,005	0,094
-108,249	-160,408	-0,089	0,003
-107,234	-200,000	0,010	0,046
-106,220	-69,389	-0,152	0,041
-105,205	-32,354	-0,100	-0,039
-104,191	8,978	-0,068	-0,036
-103,176	-35,030	-0,042	0,016
-102,162	800,000	0,034	0,084
-101,147	800,000	-0,016	-0,032
-100,132	800,000	-0,091	-0,249
-99,118	-103,984	-0,081	0,013
-98,103	-59,141	-0,060	0,018
-97,089	-42,210	0,029	-0,010
-96,074	800,000	0,061	-0,152
-95,059	249,939	-0,077	0,092
-94,045	-92,560	-0,092	-0,018
-93,030	70,342	0,062	-0,045
-92,016	-37,028	0,064	-0,024
-91,001	-86,718	0,066	0,014
-89,986	-200,000	-0,011	0,089
-88,972	-191,472	0,100	-0,001
-87,957	-35,032	-0,106	0,041
-86,943	59,125	-0,099	0,069
-85,928	661,328	-0,029	-0,053
-84,913	-133,556	0,151	0,013
-83,899	140,236	0,127	0,120
-82,884	211,365	-0,040	0,044
-81,870	225,604	-0,019	0,022
-80,855	800,000	0,085	0,169
-79,840	372,102	-0,059	0,085
-78,826	37,468	0,059	-0,037
-77,811	-200,000	-0,034	-0,112
-76,797	-200,000	-0,007	-0,023
-75,782	800,000	-0,040	-0,123
-74,767	113,819	-0,074	0,064
-73,753	492,504	-0,075	0,123
-72,738	-108,013	-0,016	0,002
-71,724	800,000	-0,044	0,091
-70,709	800,000	0,060	0,128
-69,694	-200,000	-0,015	-0,105
-68,680	152,365	0,099	-0,096
-67,665	800,000	0,052	0,117
-66,651	800,000	-0,022	0,047
-65,636	741,262	0,056	0,106
-64,622	800,000	-0,034	-0,104
-63,607	82,796	-0,102	-0,079
-62,592	800,000	-0,013	0,027
-61,578	486,181	0,084	0,137
-60,563	589,964	-0,024	-0,042
-59,549	-200,000	-0,011	0,047
-58,534	-123,847	-1,467	-0,162
-57,519	372,683	-1,603	-2,318
-56,505	-200,000	-0,408	-4,509
-55,490	85,410	0,924	0,720
-54,476	800,000	4,767	11,339
-53,461	-200,000	17,304	270,249
-52,446	800,000	715,512	2184,169
-51,432	552,487	1629,723	2788,905
-50,417	81,370	1655,394	1268,424
-49,403	24,401	1529,803	895,157
-48,388	18,374	1453,428	821,445
-47,373	18,551	1442,612	816,147
-46,359	18,264	1433,192	809,417
-45,344	16,683	1428,865	799,436
-44,330	16,614	1426,850	797,949
-43,315	16,658	1425,235	797,224
-42,300	16,716	1423,409	796,447
-41,286	16,703	1422,401	795,792
-40,271	16,679	1420,978	794,850
-39,257	16,657	1419,667	793,981
-38,242	16,681	1418,501	793,411
-37,227	16,693	1417,356	792,794
-36,213	16,676	1415,903	791,870
-35,198	16,700	1414,739	791,302
-34,184	16,693	1413,818	790,723
-33,169	16,681	1412,456	789,873
-32,154	16,689	1411,665	789,434
-31,140	16,733	1410,208	788,794
-30,125	16,735	1409,194	788,205
-29,111	16,682	1408,009	787,263
-28,096	16,650	1407,043	786,543
-27,082	16,608	1405,800	785,623
-26,067	16,620	1404,604	784,978
-25,052	16,623	1403,504	784,344
-24,038	16,612	1402,590	783,753
-23,023	16,612	1401,549	783,141
-22,009	16,604	1400,404	782,432
-20,994	16,539	1399,698	781,702
-19,979	16,527	1398,832	781,131
-18,965	16,527	1397,876	780,570
-17,950	16,539	1396,869	780,031
-16,936	16,536	1395,759	779,367
-15,921	16,511	1394,692	778,622
-14,906	16,508	1393,873	778,119
-13,892	16,541	1393,038	777,775
-12,877	16,531	1392,005	777,121
-11,863	16,543	1390,932	776,547
-10,848	16,556	1390,005	776,059
-9,833	16,491	1389,209	775,287
-8,819	16,447	1388,365	774,583
-7,804	16,432	1387,430	773,959
-6,790	16,422	1386,327	773,265
-5,775	16,413	1385,167	772,546
-4,760	16,425	1384,444	772,168
-3,746	16,417	1383,620	771,642
-2,731	16,373	1383,067	771,101
-1,717	16,406	1381,825	770,530
-0,702	16,405	1379,922	769,435
0,313	20,170	1301,620	743,135
1,327	36,629	707,437	442,080
2,342	56,167	125,856	86,531
3,356	5,750	16,514	8,632
4,371	4,519	3,121	1,618
5,386	-28,778	0,495	0,201
6,400	5,153	0,096	-0,050
7,415	-2,434	-0,397	-0,197
8,429	-81,052	-0,261	-0,061
9,444	-9,395	-0,292	-0,138
10,459	149,502	-0,301	-0,289
11,473	166,659	-0,278	-0,279
12,488	-97,942	-0,250	-0,045
13,502	0,649	-0,246	-0,124
14,517	-17,261	-0,402	-0,179
15,531	182,453	-0,311	-0,325
16,546	108,681	-0,372	-0,314
17,561	89,290	-0,331	-0,261
18,575	-88,793	-0,306	-0,064
19,590	207,101	-0,278	-0,308
20,604	43,175	-0,343	-0,221
21,619	232,693	-0,331	-0,386
22,634	265,560	-0,407	-0,503
23,648	51,721	-0,550	-0,370
24,663	86,572	-0,418	-0,326
25,677	71,983	-0,433	-0,318
26,692	-47,260	-0,391	-0,134
27,707	363,523	-0,252	-0,359
28,721	11,838	-0,426	-0,231
29,736	233,578	-0,338	-0,394
30,750	32,378	-0,355	-0,216
31,765	154,323	-0,392	-0,381
32,780	-63,977	-0,325	-0,093
33,794	96,001	-0,333	-0,269
34,809	17,870	-0,465	-0,261
35,823	113,328	-0,351	-0,301
36,838	102,444	-0,400	-0,330
37,853	12,819	-0,466	-0,254
38,867	73,993	-0,446	-0,330
39,882	172,530	-0,290	-0,295
40,896	122,403	-0,388	-0,343
41,911	129,132	-0,337	-0,304
42,926	36,497	-0,334	-0,208
43,940	55,399	-0,425	-0,290
44,955	26,066	-0,338	-0,199
45,969	-8,520	-0,510	-0,241
46,984	145,349	-0,275	-0,260
47,999	48,870	-0,274	-0,181
49,013	38,196	-0,431	-0,271
50,028	6,288	-0,361	-0,188
51,042	161,986	-0,312	-0,309
52,057	-33,531	-0,401	-0,156
53,071	136,801	-0,378	-0,349
54,086	86,378	-0,354	-0,275
55,101	24,154	-0,352	-0,204
56,115	224,894	-0,302	-0,346
57,130	-36,379	-0,451	-0,171
58,144	24,723	-0,391	-0,228
59,159	121,689	-0,484	-0,426
60,174	-65,164	-0,334	-0,094
61,188	36,543	-0,321	-0,199
62,203	-8,458	-0,400	-0,189
63,217	7,151	-0,411	-0,215
64,232	5,016	-0,332	-0,172
65,247	137,803	-0,400	-0,369
66,261	-64,044	-0,378	-0,108
67,276	31,209	-0,342	-0,207
68,290	75,712	-0,259	-0,192
69,305	60,606	-0,264	-0,184
70,320	52,496	-0,204	-0,137
71,334	112,974	-0,295	-0,252
72,349	57,872	-0,204	-0,141
73,363	-0,639	-0,423	-0,211
74,378	56,307	-0,429	-0,293
75,393	52,340	-0,263	-0,176
76,407	28,403	-0,302	-0,179
77,422	-144,619	-0,348	-0,022
78,436	-84,528	-0,415	-0,091
79,451	115,108	-0,250	-0,215
80,466	244,540	-0,248	-0,294
81,480	119,370	-0,372	-0,324
82,495	317,648	-0,242	-0,323
83,509	98,599	-0,199	-0,161
84,524	30,137	-0,251	-0,150
85,539	48,626	-0,269	-0,177
86,553	47,954	-0,379	-0,249
87,568	-24,428	-0,306	-0,128
88,582	-5,020	-0,363	-0,175
89,597	71,997	-0,376	-0,275
90,611	67,775	-0,376	-0,270
91,626	236,307	-0,186	-0,216
92,641	-87,370	-0,357	-0,075
93,655	229,458	-0,313	-0,360
94,670	66,315	-0,276	-0,197
95,684	115,277	-0,311	-0,267
96,699	-56,090	-0,408	-0,127
97,714	28,583	-0,183	-0,108
98,728	-33,676	-0,337	-0,130
99,743	16,633	-0,355	-0,197
100,757	759,983	-0,171	-0,328
101,772	-34,555	-0,397	-0,152
102,787	220,376	-0,296	-0,334
103,801	127,808	-0,236	-0,211
104,816	124,823	-0,245	-0,217
105,830	800,000	-0,113	-0,294
106,845	128,375	-0,217	-0,195
107,860	385,574	-0,161	-0,234
108,874	269,805	-0,125	-0,155
109,889	-8,777	-0,354	-0,166
110,903	118,120	-0,253	-0,219
111,918	-39,311	-0,339	-0,124
112,933	67,876	-0,199	-0,142
113,947	10,164	-0,259	-0,138
114,962	-64,951	-0,303	-0,086
115,976	330,797	-0,151	-0,205
116,991	76,815	-0,246	-0,183
118,006	-77,537	-0,382	-0,092
119,020	-119,626	-0,323	-0,039
120,035	-61,301	-0,107	-0,031
121,049	302,191	-0,119	-0,155
122,064	74,005	-0,248	-0,183
123,079	56,367	-0,317	-0,216
124,093	199,075	-0,218	-0,235
125,108	82,161	-0,274	-0,208
126,122	91,232	-0,279	-0,220
127,137	-1,478	-0,262	-0,129
128,151	-9,473	-0,205	-0,096
129,166	303,801	-0,158	-0,206
130,181	34,445	-0,272	-0,166
131,195	-84,734	-0,301	-0,066
132,210	80,157	-0,294	-0,222
133,224	541,788	-0,129	-0,216
134,239	431,217	-0,211	-0,321
135,254	523,457	-0,131	-0,216
136,268	-38,445	-0,306	-0,113
137,283	173,598	-0,252	-0,255
138,297	146,213	-0,277	-0,261
139,312	-180,616	-0,309	-0,004
140,327	-171,389	-0,191	0,004
141,341	77,577	-0,199	-0,148
142,356	223,809	-0,151	-0,171
143,370	-52,902	-0,121	-0,039
144,385	-23,803	-0,324	-0,135
145,400	213,260	-0,330	-0,365
146,414	3,989	-0,290	-0,148
147,429	182,370	-0,192	-0,198
148,443	121,811	-0,284	-0,248
149,458	220,312	-0,197	-0,222
150,473	-61,085	-0,266	-0,078
151,487	-99,280	-0,220	-0,039
152,502	-53,457	-0,215	-0,069
153,516	34,082	-0,329	-0,200
154,531	173,020	-0,197	-0,199
155,546	452,014	-0,114	-0,177
156,560	800,000	-0,170	-0,417
157,575	-49,766	-0,290	-0,096
158,589	265,856	-0,160	-0,196
159,604	64,207	-0,151	-0,106
160,619	88,003	-0,243	-0,189
161,633	34,476	-0,269	-0,164
162,648	192,896	-0,122	-0,129
163,662	59,165	-0,235	-0,162
164,677	123,348	-0,185	-0,162
165,692	90,717	-0,240	-0,187
166,706	-64,237	-0,356	-0,101
167,721	405,247	-0,269	-0,398
168,735	272,708	-0,141	-0,174
169,750	-64,489	-0,375	-0,106
170,764	208,782	-0,243	-0,266
171,779	96,433	-0,184	-0,147
172,794	11,809	-0,212	-0,113
173,808	88,333	-0,228	-0,177
174,823	-54,894	-0,224	-0,070
175,837	-132,707	-0,293	-0,026
176,852	800,000	-0,076	-0,160
177,867	763,391	-0,132	-0,251
178,881	67,258	-0,277	-0,197
179,896	-86,447	-0,246	-0,052
180,910	120,670	-0,197	-0,171
181,925	-11,224	-0,211	-0,097
182,940	76,943	-0,319	-0,236
183,954	191,105	-0,212	-0,222
184,969	5,163	-0,196	-0,101
185,983	-200,000	-0,042	-0,156
186,998	123,158	-0,215	-0,188
188,013	-118,758	-0,199	-0,024
189,027	306,551	-0,142	-0,185
190,042	99,068	-0,271	-0,219
191,056	-2,245	-0,307	-0,150
192,071	154,260	-0,175	-0,167
193,086	76,761	-0,129	-0,095
194,100	-135,443	-0,253	-0,021
195,115	433,485	-0,087	-0,133
196,129	62,723	-0,182	-0,127
197,144	142,083	-0,199	-0,184
198,159	114,245	-0,151	-0,128
199,173	159,243	-0,189	-0,183
200,188	64,603	-0,182	-0,128
201,202	3,053	-0,176	-0,089
202,217	-76,987	-0,224	0,054
203,232	262,434	-0,115	-0,139
204,246	-74,790	-0,226	-0,056
205,261	-200,000	0,014	-0,188
206,275	174,187	-0,139	-0,140
207,290	137,635	-0,291	-0,265
208,304	216,945	-0,123	-0,136
209,319	-30,535	-0,176	-0,069
210,334	15,874	-0,335	-0,183
211,348	209,592	-0,226	-0,247
212,363	-53,761	-0,456	-0,144
213,377	175,281	-0,273	-0,275
214,392	21,815	-0,192	-0,109
215,407	35,506	-0,251	-0,153
216,421	48,315	-0,145	-0,094
217,436	12,146	-0,147	-0,078
218,450	-57,323	-0,232	-0,071
219,465	154,314	-0,244	-0,233
220,480	448,791	-0,213	-0,328
221,494	59,310	-0,264	-0,180
222,509	-94,119	-0,227	-0,043
223,523	459,181	-0,086	-0,134
224,538	441,925	-0,112	-0,171
225,553	192,939	-0,051	-0,054
226,567	34,999	-0,152	-0,092
227,582	81,234	-0,279	-0,210
228,596	90,579	-0,123	-0,095
229,611	23,314	-0,104	0,059
230,626	4,498	-0,150	-0,076
231,640	-144,763	-0,198	-0,012
232,655	105,148	-0,117	-0,096
233,669	71,740	-0,286	-0,206
234,684	38,420	-0,318	-0,197
235,699	140,125	-0,108	-0,099
236,713	32,531	-0,151	-0,090
237,728	-23,658	-0,170	-0,070
238,742	-1,155	-0,117	-0,057
239,757	4,074	-0,122	-0,062
240,772	135,586	-0,133	-0,120
241,786	44,329	-0,236	-0,150
242,801	-42,222	-0,241	-0,085
243,815	-200,000	0,012	-0,097
244,830	94,441	-0,160	-0,126
245,844	-127,174	-0,252	-0,025
246,859	-91,473	-0,374	0,074
247,874	-47,013	-0,254	-0,086
248,888	-8,085	-0,150	-0,070
249,903	107,374	-0,171	-0,141
250,917	148,168	-0,148	-0,138
251,932	624,944	-0,050	-0,087
252,947	-27,729	-0,182	-0,073
253,961	-6,746	-0,286	-0,134
254,976	-85,358	-0,156	0,033
255,990	329,558	-0,222	-0,296
257,005	-55,520	-0,136	-0,042
258,020	-9,787	-0,195	-0,090
259,034	10,855	-0,162	-0,086
260,049	-97,153	-0,205	-0,037
261,063	123,131	-0,145	-0,126
262,078	25,183	-0,284	-0,163
263,093	237,998	-0,074	-0,085
264,107	318,553	-0,124	-0,163
265,122	-34,206	-0,127	-0,048
266,136	-84,966	-0,129	-0,028
267,151	-30,654	-0,251	-0,098
268,166	437,355	-0,140	-0,212
269,180	160,851	-0,121	-0,117
270,195	800,000	-0,072	-0,168
271,209	254,205	-0,153	-0,182
272,224	164,957	-0,171	-0,168
273,239	-200,000	0,045	-0,179
274,253	80,780	-0,235	-0,176
275,268	337,020	-0,101	-0,136
276,282	800,000	-0,088	-0,207
277,297	93,890	-0,266	-0,209
278,312	123,492	-0,191	-0,166
279,326	109,580	-0,266	-0,220
280,341	683,657	-0,107	-0,193
281,355	539,464	-0,106	-0,175
282,370	120,168	-0,154	-0,132
283,384	117,341	-0,192	-0,164
284,399	60,170	-0,161	-0,110
285,414	149,003	-0,185	-0,173
286,428	-200,000	0,006	-0,224
287,443	800,000	-0,028	-0,055
288,457	800,000	-0,065	-0,170
289,472	-77,575	-0,070	-0,017
290,487	30,318	-0,350	-0,206
291,501	563,822	-0,125	-0,209
292,516	-70,282	-0,177	-0,046
293,530	134,505	-0,127	-0,114
294,545	57,842	-0,175	-0,118
295,560	43,377	-0,101	-0,064
296,574	238,137	-0,107	-0,123
297,589	800,000	-0,086	-0,175
298,603	21,735	-0,206	-0,115
299,618	318,794	-0,134	-0,176
300,633	-26,320	-0,237	-0,095
301,647	-42,292	-0,056	-0,020
302,662	70,097	-0,113	0,080
303,676	261,843	-0,106	-0,127
304,691	-55,173	-0,142	-0,044
305,706	452,726	-0,162	-0,249
306,720	628,665	-0,081	-0,142
307,735	-27,266	-0,101	-0,040
308,749	800,000	-0,096	-0,189
309,764	-119,449	-0,197	-0,023
310,779	-29,862	-0,110	-0,043
311,793	-18,732	-0,206	-0,088
312,808	213,019	-0,144	-0,157
313,822	800,000	-0,115	-0,238
314,837	16,165	-0,222	-0,121
315,852	800,000	-0,032	-0,064
316,866	75,667	-0,086	-0,062
317,881	578,982	-0,099	-0,167
318,895	-200,000	-0,009	-0,058
319,910	-160,986	-0,191	0,007
320,925	72,610	-0,174	-0,125
321,939	-56,395	-0,215	-0,065
322,954	193,136	-0,119	-0,124
323,968	-54,654	-0,051	-0,016
324,983	77,588	-0,166	-0,121
325,997	-44,523	-0,260	-0,089
327,012	800,000	-0,056	-0,154
328,027	72,269	-0,145	-0,104
329,041	-200,000	-0,036	-0,143
330,056	-200,000	-0,006	-0,063
331,070	-169,645	0,028	-0,001
332,085	800,000	-0,015	0,040
333,100	70,583	-0,194	-0,138
334,114	-96,941	-0,199	-0,036
335,129	643,520	-0,148	-0,261
336,143	10,219	-0,147	-0,077
337,158	-200,000	0,048	-0,165
338,173	-200,000	0,005	-0,056
339,187	-25,049	-0,044	-0,018
340,202	-200,000	-0,015	-0,129
341,216	46,288	-0,181	-0,115
342,231	-31,127	-0,205	-0,079
343,246	800,000	-0,115	-0,220
344,260	378,184	-0,140	-0,198
345,275	118,148	-0,195	-0,165
346,289	-190,319	-0,189	0,001
347,304	16,161	-0,197	-0,107
348,319	250,867	-0,099	-0,116
349,333	330,345	-0,119	-0,158
350,348	0,248	-0,140	-0,068
351,362	-63,526	-0,086	-0,024
352,377	756,725	-0,007	-0,013
353,392	57,234	-0,123	-0,082
354,406	126,645	-0,088	-0,076
355,421	209,570	1314,000	1417,787
356,435	161,301	1474,674	1418,321
