DTS Sentinel unit serial number:	SN410029Multiplexer serial number:	ORYXHardware model number:	OX2-SRSoftware version number:	ORYX F/W v4,00 Oryx Data Collector v3.7.2.0data status	okinstallation	B3 Nyhavnadifferential loss correction	single-endedforward channel	channel 1reverse channel	N/Adate	2023/12/01time	23:27:30forward acquisition time	300,00reverse acquisition time	0,00gamma	499,1914k internal	0,3196k external	0,3196temperature offset calibration	1,0000default loss term (dB/km)	0,3820temperature slope calibration	1,0000multiplexer offset coefficient	1,0000multiplexer slope coefficient	1,0000fibre end	0,00T internal ref (°C)	15,90T ext. ref 1 (°C)	1,38T ext. ref 2 (°C)	1,36length (m)	temperature (°C)	Stokes	anti-Stokes-744,400	348,595	-0,204	-0,294
-743,385	-200,000	0,063	0,273
-742,371	340,714	-0,216	-0,308
-741,356	715,034	0,170	0,330
-740,342	49,062	-0,187	-0,128
-739,327	632,166	0,098	0,182
-738,312	304,996	-0,238	-0,322
-737,298	-200,000	0,052	0,277
-736,283	128,354	-0,161	-0,149
-735,269	-200,000	0,114	0,426
-734,254	-44,741	-0,219	-0,079
-733,239	800,000	-0,103	0,229
-732,225	387,242	-0,105	-0,158
-731,210	-19,041	0,106	-0,048
-730,196	-200,000	0,013	-0,174
-729,181	108,161	0,028	0,024
-728,167	800,000	0,036	-0,112
-727,152	-81,757	-0,099	0,023
-726,137	-100,490	-0,072	-0,013
-725,123	9,652	-0,096	0,053
-724,108	123,743	0,076	-0,069
-723,094	-200,000	-0,019	-0,151
-722,079	227,887	-0,127	-0,150
-721,064	590,213	-0,033	-0,060
-720,050	39,603	-0,077	-0,050
-719,035	-41,001	0,112	0,042
-718,021	-56,012	-0,211	0,068
-717,006	-52,749	-0,145	-0,048
-715,991	-18,796	-0,061	-0,027
-714,977	205,030	-0,086	-0,097
-713,962	778,843	-0,021	-0,042
-712,948	800,000	0,041	0,085
-711,933	800,000	-0,051	-0,127
-710,918	-78,744	-0,131	0,032
-709,904	-33,686	-0,106	0,042
-708,889	-200,000	-0,005	-0,066
-707,875	-122,810	-0,021	-0,002
-706,860	771,521	-0,025	-0,050
-705,845	-61,819	-0,042	0,013
-704,831	252,064	0,072	0,089
-703,816	43,978	-0,098	0,065
-702,802	-200,000	0,018	0,122
-701,787	62,735	-0,135	-0,098
-700,772	100,564	-0,077	-0,065
-699,758	250,173	-0,058	0,071
-698,743	-200,000	-0,033	-0,111
-697,729	-200,000	-0,011	0,170
-696,714	251,419	0,044	0,055
-695,699	131,059	0,022	-0,020
-694,685	-18,039	-0,073	-0,033
-693,670	-200,000	0,015	-0,073
-692,656	350,936	0,023	0,033
-691,641	-104,474	0,118	0,020
-690,627	-65,286	0,053	0,015
-689,612	124,654	-0,016	-0,014
-688,597	41,307	-0,085	0,056
-687,583	-200,000	-0,027	-0,152
-686,568	129,078	-0,061	-0,056
-685,554	182,753	-0,044	-0,047
-684,539	-43,776	0,094	0,034
-683,524	-200,000	0,025	0,111
-682,510	-132,817	0,043	0,004
-681,495	-102,435	-0,207	-0,036
-680,481	-200,000	0,011	0,116
-679,466	734,205	-0,074	-0,145
-678,451	-200,000	0,005	-0,102
-677,437	800,000	-0,037	0,115
-676,422	-163,193	0,157	-0,005
-675,408	-184,144	0,031	0,000
-674,393	-63,601	0,081	0,024
-673,378	-129,261	-0,177	0,018
-672,364	800,000	-0,057	-0,132
-671,349	-134,167	0,130	0,011
-670,335	-50,117	-0,071	0,024
-669,320	-200,000	-0,025	-0,128
-668,305	-200,000	0,012	0,049
-667,291	800,000	0,029	-0,064
-666,276	-106,021	-0,118	0,019
-665,262	-75,532	-0,066	-0,017
-664,247	351,951	-0,025	-0,036
-663,232	800,000	0,043	-0,123
-662,218	-200,000	0,005	0,080
-661,203	148,096	-0,072	-0,071
-660,189	-200,000	0,013	-0,080
-659,174	-27,955	-0,097	-0,041
-658,159	-73,623	-0,171	-0,045
-657,145	291,893	0,022	-0,030
-656,130	191,739	-0,077	-0,084
-655,116	305,543	0,050	0,068
-654,101	167,968	0,030	-0,031
-653,086	-102,723	-0,111	0,019
-652,072	-68,715	0,062	0,017
-651,057	-39,054	-0,111	-0,042
-650,043	-84,895	-0,153	0,034
-649,028	285,261	0,056	-0,073
-648,014	-200,000	-0,011	-0,106
-646,999	-110,369	-0,086	-0,013
-645,984	-82,098	-0,037	0,009
-644,970	66,628	-0,144	-0,106
-643,955	-200,000	-0,001	-0,073
-642,941	-136,862	-0,146	0,012
-641,926	175,570	0,155	-0,163
-640,911	380,613	0,072	-0,108
-639,897	183,403	0,029	0,031
-638,882	-200,000	-0,006	0,070
-637,868	-200,000	-0,009	0,045
-636,853	-73,000	0,066	0,018
-635,838	-90,147	-0,138	-0,029
-634,824	-200,000	0,002	-0,023
-633,809	-84,835	0,097	-0,022
-632,795	-111,170	0,211	-0,031
-631,780	-200,000	-0,002	-0,049
-630,765	-200,000	0,024	-0,141
-629,751	659,034	0,025	-0,047
-628,736	-48,487	-0,108	-0,037
-627,722	800,000	0,062	0,126
-626,707	243,543	0,039	-0,047
-625,692	-12,455	0,020	0,009
-624,678	131,052	0,018	0,017
-623,663	21,044	0,022	0,013
-622,649	536,467	-0,063	-0,109
-621,634	97,049	0,126	-0,105
-620,619	540,828	-0,015	0,026
-619,605	370,369	0,011	-0,016
-618,590	-123,288	0,128	0,015
-617,576	130,313	-0,064	-0,060
-616,561	-12,143	-0,024	0,011
-615,546	-125,789	0,054	-0,006
-614,532	461,825	0,059	-0,095
-613,517	11,630	-0,049	-0,027
-612,503	334,857	0,018	0,026
-611,488	-200,000	-0,012	-0,076
-610,474	-200,000	-0,012	-0,061
-609,459	800,000	0,017	0,049
-608,444	-43,880	-0,147	0,053
-607,430	15,380	0,046	0,026
-606,415	800,000	0,063	0,152
-605,401	352,727	-0,049	0,071
-604,386	-79,779	-0,015	-0,004
-603,371	-200,000	-0,022	0,098
-602,357	196,662	-0,108	0,120
-601,342	-87,417	-0,060	0,013
-600,328	-200,000	0,000	0,066
-599,313	-71,694	-0,117	-0,032
-598,298	-200,000	-0,000	0,058
-597,284	-200,000	0,003	0,092
-596,269	780,394	-0,038	-0,076
-595,255	800,000	0,034	0,105
-594,240	-94,153	-0,128	0,025
-593,225	-155,224	-0,084	0,004
-592,211	106,274	-0,044	-0,038
-591,196	-154,676	0,055	0,003
-590,182	-200,000	-0,016	-0,095
-589,167	333,153	-0,015	-0,022
-588,152	-70,189	0,117	-0,032
-587,138	800,000	-0,071	0,168
-586,123	328,505	0,133	-0,185
-585,109	48,454	-0,045	0,031
-584,094	800,000	-0,026	-0,056
-583,079	-141,538	0,157	-0,011
-582,065	-9,749	0,028	0,014
-581,050	73,889	-0,034	0,026
-580,036	525,814	0,017	0,029
-579,021	99,071	-0,112	-0,093
-578,006	641,565	-0,034	-0,064
-576,992	357,975	0,090	-0,130
-575,977	201,644	-0,045	-0,050
-574,963	800,000	-0,003	0,009
-573,948	-200,000	0,032	0,202
-572,934	-15,818	-0,034	-0,016
-571,919	-42,465	-0,057	-0,021
-570,904	136,696	-0,085	0,080
-569,890	30,118	-0,026	-0,016
-568,875	-64,791	0,057	-0,017
-567,861	-93,557	0,160	0,032
-566,846	27,395	-0,084	-0,051
-565,831	800,000	0,010	-0,029
-564,817	-200,000	0,007	-0,090
-563,802	-6,738	-0,116	-0,057
-562,788	-200,000	-0,001	-0,076
-561,773	-200,000	-0,013	0,053
-560,758	-200,000	0,006	0,067
-559,744	-20,683	0,053	-0,023
-558,729	-152,488	-0,097	-0,005
-557,715	-100,414	0,047	0,008
-556,700	23,781	-0,273	-0,162
-555,685	-200,000	0,002	-0,062
-554,671	-106,339	0,018	0,003
-553,656	-35,077	-0,027	-0,011
-552,642	-200,000	0,039	-0,197
-551,627	-97,315	-0,138	0,026
-550,612	-200,000	-0,005	-0,108
-549,598	-200,000	-0,019	-0,095
-548,583	-52,572	-0,076	0,025
-547,569	-200,000	-0,052	-0,167
-546,554	13,310	-0,053	0,030
-545,539	-200,000	0,026	0,180
-544,525	-165,802	0,047	0,001
-543,510	-125,945	0,031	-0,003
-542,496	-200,000	0,027	-0,171
-541,481	-131,788	0,111	-0,010
-540,466	79,612	0,124	-0,096
-539,452	-110,434	0,070	-0,010
-538,437	-119,214	0,038	-0,005
-537,423	-166,846	0,072	0,002
-536,408	237,309	0,046	0,056
-535,393	64,124	0,035	0,025
-534,379	-200,000	0,011	-0,129
-533,364	800,000	-0,016	-0,040
-532,350	28,592	-0,206	-0,125
-531,335	-200,000	0,006	0,071
-530,321	365,043	0,029	0,043
-529,306	197,927	-0,012	-0,013
-528,291	566,329	0,048	-0,085
-527,277	-200,000	-0,018	-0,269
-526,262	800,000	0,089	-0,189
-525,248	217,812	0,062	-0,072
-524,233	6,365	0,105	0,056
-523,218	389,691	-0,036	0,054
-522,204	42,808	0,082	0,054
-521,189	800,000	-0,030	-0,086
-520,175	-74,237	-0,102	-0,027
-519,160	-141,860	0,051	0,004
-518,145	-200,000	-0,012	-0,121
-517,131	-200,000	-0,016	0,092
-516,116	-82,094	-0,074	0,017
-515,102	-3,979	-0,058	0,029
-514,087	-24,875	-0,058	0,025
-513,072	-137,897	-0,032	0,003
-512,058	65,792	-0,089	0,065
-511,043	-124,636	-0,164	0,018
-510,029	-8,313	0,048	0,023
-509,014	800,000	-0,055	0,154
-507,999	-200,000	0,039	0,264
-506,985	-160,253	-0,177	-0,007
-505,970	-102,117	0,114	-0,020
-504,956	-200,000	0,014	-0,050
-503,941	-124,183	-0,074	0,008
-502,926	15,757	0,017	-0,009
-501,912	-200,000	0,004	-0,096
-500,897	191,101	-0,048	-0,052
-499,883	-54,103	0,090	0,030
-498,868	15,020	-0,078	-0,044
-497,853	357,172	-0,083	-0,119
-496,839	517,811	0,031	0,053
-495,824	-59,963	0,216	0,066
-494,810	112,251	0,089	0,078
-493,795	163,863	0,028	-0,028
-492,781	666,297	-0,057	-0,106
-491,766	-123,771	-0,152	0,017
-490,751	232,940	-0,055	-0,065
-489,737	-200,000	-0,002	0,024
-488,722	-200,000	0,011	0,119
-487,708	157,363	0,106	0,106
-486,693	-200,000	-0,002	0,083
-485,678	-122,097	-0,036	0,004
-484,664	800,000	0,045	-0,091
-483,649	-200,000	-0,016	0,124
-482,635	-1,914	0,037	0,019
-481,620	333,139	-0,045	-0,063
-480,605	-200,000	-0,009	0,090
-479,591	800,000	-0,012	-0,038
-478,576	74,132	-0,070	0,053
-477,562	-200,000	0,010	0,047
-476,547	800,000	0,013	-0,038
-475,532	-30,178	-0,155	-0,063
-474,518	53,792	0,088	-0,061
-473,503	-58,722	0,142	0,044
-472,489	800,000	-0,023	0,070
-471,474	-200,000	0,001	0,051
-470,459	78,908	0,050	-0,039
-469,445	-200,000	-0,006	-0,023
-468,430	53,783	-0,180	-0,124
-467,416	800,000	-0,054	0,112
-466,401	800,000	-0,048	0,133
-465,386	-122,551	-0,070	0,008
-464,372	-200,000	0,013	0,073
-463,357	-43,900	-0,145	-0,052
-462,343	-200,000	-0,015	0,056
-461,328	59,391	0,109	-0,078
-460,313	333,549	-0,045	-0,063
-459,299	98,388	0,055	0,045
-458,284	10,679	0,091	0,050
-457,270	-7,862	0,101	0,049
-456,255	800,000	-0,040	-0,090
-455,241	-42,769	0,079	0,029
-454,226	246,780	0,067	0,081
-453,211	-29,685	-0,045	0,018
-452,197	-109,049	0,064	-0,010
-451,182	800,000	-0,058	0,180
-450,168	-200,000	0,013	-0,081
-449,153	-200,000	-0,004	0,050
-448,138	-84,853	-0,077	-0,017
-447,124	-45,923	-0,072	-0,025
-446,109	769,229	0,010	0,019
-445,095	-116,179	0,081	-0,011
-444,080	-6,522	0,151	0,074
-443,065	-81,763	0,049	0,011
-442,051	-50,479	0,064	-0,022
-441,036	431,581	0,007	-0,011
-440,022	-76,915	-0,037	0,009
-439,007	-53,679	-0,032	0,010
-437,992	344,719	0,097	0,138
-436,978	-200,000	-0,021	-0,092
-435,963	-2,184	-0,082	-0,041
-434,949	-132,741	-0,181	0,016
-433,934	-200,000	-0,017	-0,076
-432,919	-200,000	-0,027	-0,117
-431,905	277,811	0,050	-0,065
-430,890	-71,063	0,146	0,039
-429,876	-200,000	0,027	0,160
-428,861	-200,000	0,007	0,052
-427,846	-200,000	-0,017	-0,153
-426,832	214,734	0,033	0,038
-425,817	191,824	-0,094	-0,102
-424,803	-200,000	0,046	-0,158
-423,788	91,434	0,093	-0,075
-422,773	800,000	0,099	0,200
-421,759	328,066	0,056	0,077
-420,744	191,552	-0,104	0,113
-419,730	249,384	0,016	-0,019
-418,715	13,273	-0,183	0,102
-417,701	205,345	-0,075	-0,084
-416,686	-165,242	0,062	-0,002
-415,671	-200,000	0,002	-0,073
-414,657	97,653	-0,129	0,107
-413,642	-200,000	0,034	0,119
-412,628	-104,556	-0,064	0,010
-411,613	242,671	-0,090	0,108
-410,598	702,110	-0,035	-0,067
-409,584	406,463	0,061	0,093
-408,569	-200,000	-0,001	0,113
-407,555	800,000	0,035	0,073
-406,540	26,601	0,113	-0,068
-405,525	800,000	-0,052	0,156
-404,511	240,885	-0,021	0,025
-403,496	512,242	-0,011	-0,018
-402,482	-68,614	0,046	0,013
-401,467	-78,815	0,129	-0,031
-400,452	84,514	-0,100	0,079
-399,438	-200,000	0,053	0,174
-398,423	-58,171	-0,065	0,020
-397,409	-57,274	-0,135	0,042
-396,394	-200,000	0,013	-0,081
-395,379	118,818	-0,042	-0,037
-394,365	-152,121	0,080	0,004
-393,350	800,000	0,044	0,106
-392,336	-35,877	0,174	-0,067
-391,321	60,541	-0,105	0,075
-390,306	800,000	0,031	-0,076
-389,292	57,531	-0,036	0,025
-388,277	64,211	-0,074	-0,053
-387,263	110,445	0,070	-0,060
-386,248	-1,597	0,117	0,059
-385,233	-200,000	-0,022	0,091
-384,219	-200,000	-0,011	0,090
-383,204	-55,442	-0,055	-0,018
-382,190	-43,158	-0,052	0,019
-381,175	-61,143	-0,185	0,056
-380,160	-98,781	0,103	0,019
-379,146	-200,000	0,020	0,126
-378,131	-105,828	-0,085	0,014
-377,117	-171,645	-0,067	0,002
-376,102	-144,897	-0,026	-0,002
-375,088	66,244	-0,127	-0,092
-374,073	-200,000	0,006	-0,047
-373,058	-200,000	-0,006	-0,070
-372,044	183,772	-0,032	-0,034
-371,029	-62,738	-0,056	0,017
-370,015	800,000	0,030	-0,085
-369,000	50,774	0,023	-0,016
-367,985	329,851	-0,058	-0,080
-366,971	180,459	-0,116	0,123
-365,956	141,834	0,082	-0,078
-364,942	-113,567	-0,066	0,009
-363,927	181,303	0,039	-0,041
-362,912	-55,592	-0,065	-0,021
-361,898	13,738	-0,075	-0,042
-360,883	170,865	0,131	-0,135
-359,869	-200,000	0,004	0,031
-358,854	191,524	0,033	0,036
-357,839	800,000	0,055	0,111
-356,825	-200,000	0,007	0,030
-355,810	-200,000	0,001	0,042
-354,796	800,000	-0,040	0,119
-353,781	599,791	0,068	0,122
-352,766	136,741	0,052	-0,049
-351,752	200,122	0,067	0,074
-350,737	-200,000	0,014	0,059
-349,723	800,000	-0,040	-0,097
-348,708	-1,539	0,166	-0,084
-347,693	-184,336	0,083	-0,001
-346,679	-151,204	-0,130	0,007
-345,664	-130,722	0,075	-0,007
-344,650	-155,722	-0,111	0,005
-343,635	-200,000	0,007	-0,094
-342,620	-200,000	-0,020	-0,089
-341,606	800,000	-0,039	0,112
-340,591	-18,607	-0,111	-0,050
-339,577	261,841	-0,051	0,063
-338,562	472,483	0,011	0,018
-337,548	80,565	0,041	0,032
-336,533	800,000	-0,037	0,085
-335,518	292,151	0,158	0,207
-334,504	-175,510	0,053	0,001
-333,489	800,000	-0,040	0,091
-332,475	261,196	-0,033	0,042
-331,460	-200,000	-0,019	-0,069
-330,445	-200,000	-0,026	-0,105
-329,431	-200,000	0,013	-0,048
-328,416	428,834	-0,049	0,076
-327,402	-18,090	0,091	-0,040
-326,387	-156,094	0,130	0,006
-325,372	294,437	-0,048	0,062
-324,358	-70,036	-0,086	-0,023
-323,343	800,000	0,054	0,118
-322,329	-13,320	0,103	0,048
-321,314	-168,359	-0,059	-0,002
-320,299	-125,215	0,045	-0,005
-319,285	800,000	-0,034	-0,104
-318,270	426,231	-0,037	0,058
-317,256	-200,000	0,007	-0,115
-316,241	-200,000	-0,006	-0,032
-315,226	546,016	-0,067	-0,114
-314,212	800,000	0,026	0,075
-313,197	264,281	-0,065	0,081
-312,183	-147,509	0,148	-0,009
-311,168	-54,127	-0,152	0,049
-310,153	-132,253	-0,105	-0,010
-309,139	-68,429	-0,110	0,030
-308,124	31,762	0,192	0,118
-307,110	370,923	-0,126	0,184
-306,095	-76,745	0,038	-0,010
-305,080	-200,000	0,018	0,137
-304,066	-200,000	0,047	0,169
-303,051	-200,000	0,026	0,133
-302,037	8,193	0,085	0,046
-301,022	-173,566	-0,061	-0,001
-300,008	52,181	0,053	-0,036
-298,993	-200,000	-0,006	0,068
-297,978	-190,949	0,080	0,001
-296,964	800,000	-0,073	-0,147
-295,949	384,424	0,108	-0,160
-294,935	-200,000	-0,027	-0,092
-293,920	800,000	0,036	-0,078
-292,905	-53,459	-0,085	-0,028
-291,891	-200,000	0,018	0,150
-290,876	128,436	0,101	-0,092
-289,862	77,424	-0,017	-0,013
-288,847	800,000	0,025	-0,065
-287,832	764,953	0,031	-0,061
-286,818	-87,300	-0,093	-0,020
-285,803	796,161	-0,051	-0,102
-284,789	-23,972	0,094	0,040
-283,774	147,094	0,049	0,047
-282,759	-21,801	0,132	-0,057
-281,745	-40,878	-0,198	-0,073
-280,730	-41,195	-0,106	-0,039
-279,716	439,456	0,081	0,126
-278,701	-4,576	0,125	-0,062
-277,686	-16,904	0,045	0,020
-276,672	-122,649	0,113	0,013
-275,657	-200,000	-0,003	-0,027
-274,643	800,000	0,038	0,096
-273,628	45,534	-0,116	-0,077
-272,613	576,967	-0,056	-0,099
-271,599	77,984	0,124	-0,094
-270,584	800,000	-0,029	0,091
-269,570	17,026	0,051	-0,029
-268,555	-200,000	0,007	-0,042
-267,540	3,788	0,142	0,074
-266,526	610,888	-0,101	-0,182
-265,511	-200,000	-0,002	0,018
-264,497	71,899	0,088	-0,065
-263,482	-181,850	0,125	0,002
-262,467	342,793	0,064	0,090
-261,453	800,000	0,020	0,061
-260,438	-28,852	-0,030	-0,012
-259,424	309,825	-0,064	0,086
-258,409	-8,564	-0,065	0,031
-257,395	210,972	-0,032	-0,036
-256,380	-52,659	0,087	0,028
-255,365	465,938	0,062	0,100
-254,351	-66,001	0,071	-0,020
-253,336	-43,613	-0,100	0,036
-252,322	-200,000	-0,024	-0,107
-251,307	30,627	-0,171	-0,104
-250,292	305,802	-0,053	-0,070
-249,278	-200,000	0,018	-0,128
-248,263	-200,000	0,024	0,103
-247,249	-113,872	0,118	0,016
-246,234	-40,249	0,024	-0,009
-245,219	233,635	-0,022	0,026
-244,205	-62,790	-0,071	-0,021
-243,190	16,266	-0,020	0,011
-242,176	-200,000	0,010	0,097
-241,161	44,517	-0,040	-0,027
-240,146	-200,000	0,020	-0,130
-239,132	606,709	0,040	0,072
-238,117	614,396	0,078	-0,141
-237,103	253,092	0,079	-0,096
-236,088	-157,316	0,068	-0,003
-235,073	100,674	-0,069	0,057
-234,059	-59,248	0,089	0,027
-233,044	-200,000	0,006	0,043
-232,030	-6,757	0,165	0,080
-231,015	33,929	-0,186	-0,115
-230,000	-200,000	0,005	0,115
-228,986	155,433	-0,028	-0,028
-227,971	37,290	-0,040	-0,025
-226,957	-36,629	0,049	-0,019
-225,942	24,748	-0,130	0,077
-224,927	-74,659	0,125	-0,032
-223,913	49,378	-0,006	-0,004
-222,898	21,019	-0,035	-0,020
-221,884	-200,000	-0,000	0,153
-220,869	800,000	0,031	0,075
-219,855	-25,208	0,131	0,055
-218,840	-200,000	-0,013	0,044
-217,825	800,000	0,037	-0,086
-216,811	-200,000	-0,034	-0,122
-215,796	-54,290	-0,054	-0,017
-214,782	138,871	0,100	0,094
-213,767	-60,800	0,081	-0,024
-212,752	-15,149	0,112	0,051
-211,738	800,000	0,049	0,124
-210,723	-94,052	0,122	-0,024
-209,709	800,000	-0,060	-0,126
-208,694	126,743	0,139	-0,125
-207,679	121,412	-0,021	0,018
-206,665	800,000	-0,017	-0,043
-205,650	-69,219	0,047	-0,013
-204,636	-200,000	0,005	0,085
-203,621	428,230	-0,049	0,076
-202,606	-200,000	0,008	0,141
-201,592	265,012	-0,044	-0,055
-200,577	800,000	0,019	-0,037
-199,563	255,197	-0,055	0,067
-198,548	-200,000	-0,039	0,142
-197,533	213,885	-0,054	0,061
-196,519	-200,000	0,017	0,107
-195,504	-34,392	-0,035	0,014
-194,490	283,164	0,036	-0,046
-193,475	295,789	-0,047	-0,062
-192,460	-147,235	-0,068	-0,004
-191,446	-200,000	-0,004	-0,078
-190,431	202,387	0,040	-0,044
-189,417	-200,000	0,056	0,180
-188,402	71,578	0,082	-0,061
-187,387	-200,000	0,003	0,034
-186,373	800,000	-0,037	0,109
-185,358	-46,002	0,100	-0,035
-184,344	800,000	0,012	0,034
-183,329	667,491	-0,091	0,168
-182,315	-81,983	0,120	-0,028
-181,300	118,709	-0,082	-0,073
-180,285	-200,000	-0,011	-0,035
-179,271	492,568	-0,040	-0,065
-178,256	-49,754	0,095	-0,032
-177,242	40,466	0,074	-0,047
-176,227	346,781	-0,052	0,073
-175,212	33,904	0,100	0,062
-174,198	108,993	-0,107	-0,091
-173,183	-17,176	-0,081	-0,036
-172,169	275,118	-0,094	-0,118
-171,154	-76,844	-0,051	-0,013
-170,139	-158,604	0,026	-0,001
-169,125	141,814	0,024	0,023
-168,110	254,105	0,048	0,059
-167,096	532,247	0,052	-0,089
-166,081	-90,805	-0,117	0,024
-165,066	-200,000	-0,010	-0,032
-164,052	-200,000	-0,015	-0,129
-163,037	55,167	0,142	0,098
-162,023	-200,000	0,030	0,097
-161,008	-176,618	-0,065	-0,001
-159,993	41,104	-0,067	-0,043
-158,979	800,000	0,054	-0,110
-157,964	270,543	-0,076	-0,096
-156,950	-1,735	-0,092	-0,046
-155,935	362,749	0,019	-0,027
-154,920	-200,000	0,012	0,047
-153,906	343,508	-0,041	-0,057
-152,891	-200,000	-0,009	0,068
-151,877	800,000	0,038	-0,087
-150,862	-174,977	0,116	-0,002
-149,847	800,000	-0,030	0,081
-148,833	318,769	0,103	0,140
-147,818	-200,000	0,005	0,098
-146,804	-200,000	-0,006	0,169
-145,789	445,756	0,023	0,036
-144,775	-88,344	-0,035	0,007
-143,760	-200,000	-0,003	0,086
-142,745	-200,000	0,029	-0,129
-141,731	-108,069	-0,041	-0,006
-140,716	380,913	0,044	-0,064
-139,702	66,715	0,103	-0,074
-138,687	-126,637	-0,031	-0,003
-137,672	480,739	-0,037	0,059
-136,658	-41,584	0,050	-0,018
-135,643	178,105	0,046	-0,048
-134,629	86,107	0,120	0,094
-133,614	-105,762	0,184	0,029
-132,599	86,071	0,131	-0,103
-131,585	780,045	0,025	0,050
-130,570	133,888	-0,081	-0,075
-129,556	-200,000	0,008	0,102
-128,541	455,374	-0,039	-0,062
-127,526	348,509	-0,042	-0,060
-126,512	100,698	0,104	-0,086
-125,497	-66,690	-0,083	0,023
-124,483	-130,476	0,035	-0,003
-123,468	490,878	-0,075	0,122
-122,453	254,477	0,046	0,056
-121,439	-200,000	0,017	0,058
-120,424	800,000	-0,045	-0,109
-119,410	-200,000	0,009	0,033
-118,395	369,804	0,086	0,124
-117,380	-131,803	0,023	0,002
-116,366	-182,224	-0,052	0,001
-115,351	154,829	-0,035	-0,034
-114,337	81,413	-0,118	-0,090
-113,322	234,550	-0,083	0,097
-112,307	192,690	0,073	0,079
-111,293	-7,000	0,146	-0,070
-110,278	42,979	0,052	0,034
-109,264	-200,000	0,022	0,120
-108,249	59,058	-0,083	-0,058
-107,234	601,564	0,038	-0,068
-106,220	458,558	0,054	-0,085
-105,205	-47,271	-0,087	-0,030
-104,191	1,912	0,070	-0,036
-103,176	800,000	0,029	-0,068
-102,162	-139,967	-0,120	0,009
-101,147	29,455	0,093	0,056
-100,132	-15,305	-0,069	0,031
-99,118	-200,000	-0,017	-0,059
-98,103	-5,033	-0,088	-0,043
-97,089	-82,003	0,048	0,011
-96,074	228,868	0,078	0,091
-95,059	57,391	0,024	0,016
-94,045	212,120	-0,064	-0,072
-93,030	-200,000	-0,022	-0,120
-92,016	-29,369	-0,068	-0,028
-91,001	-114,420	0,129	-0,017
-89,986	500,149	0,024	0,040
-88,972	-200,000	-0,037	0,168
-87,957	28,039	0,059	-0,035
-86,943	-200,000	-0,031	-0,116
-85,928	-200,000	0,009	-0,108
-84,913	-200,000	0,016	0,053
-83,899	424,569	0,068	0,104
-82,884	421,480	0,057	-0,087
-81,870	-145,964	0,027	0,002
-80,855	22,741	-0,016	0,009
-79,840	800,000	-0,084	-0,167
-78,826	-85,882	-0,040	-0,009
-77,811	-66,831	-0,177	-0,049
-76,797	-200,000	-0,012	0,056
-75,782	270,351	0,047	0,059
-74,767	76,390	0,131	0,098
-73,753	71,528	0,089	0,066
-72,738	-174,977	0,136	0,003
-71,724	-200,000	0,004	-0,079
-70,709	-200,000	0,039	-0,136
-69,694	800,000	0,002	0,004
-68,680	800,000	-0,048	0,138
-67,665	-200,000	-0,043	0,150
-66,651	-200,000	-0,025	0,152
-65,636	800,000	-0,038	-0,112
-64,622	-52,497	-0,098	0,032
-63,607	-180,066	0,116	-0,002
-62,592	175,704	-0,068	-0,070
-61,578	28,059	-0,201	-0,120
-60,563	-74,006	0,109	0,028
-59,549	-200,000	0,038	0,130
-58,534	-73,952	-1,379	-0,352
-57,519	442,229	-1,431	-2,230
-56,505	-200,000	-0,640	-4,516
-55,490	114,632	0,904	0,781
-54,476	800,000	4,785	11,292
-53,461	-200,000	17,737	281,863
-52,446	800,000	720,509	2224,313
-51,432	562,655	1634,805	2815,892
-50,417	80,941	1658,288	1267,412
-49,403	23,756	1532,664	892,821
-48,388	17,743	1455,944	819,125
-47,373	18,200	1445,577	815,456
-46,359	17,793	1436,283	808,239
-45,344	16,031	1431,422	797,093
-44,330	15,941	1429,516	795,576
-43,315	15,960	1427,691	794,617
-42,300	16,014	1426,092	793,951
-41,286	16,042	1424,908	793,392
-40,271	15,971	1423,773	792,395
-39,257	16,015	1422,423	791,821
-38,242	16,020	1420,976	791,006
-37,227	16,030	1419,911	790,431
-36,213	16,062	1418,574	789,803
-35,198	15,992	1417,430	788,807
-34,184	15,992	1416,438	788,223
-33,169	15,961	1415,087	787,296
-32,154	15,991	1414,319	786,976
-31,140	16,027	1412,888	786,317
-30,125	16,056	1411,636	785,726
-29,111	16,038	1410,316	784,877
-28,096	15,985	1409,366	784,068
-27,082	15,895	1408,550	783,161
-26,067	15,947	1407,143	782,590
-25,052	15,939	1406,484	782,155
-24,038	15,891	1405,402	781,301
-23,023	15,933	1404,112	780,745
-22,009	15,884	1403,342	780,059
-20,994	15,884	1402,314	779,459
-19,979	15,882	1401,195	778,795
-18,965	15,883	1400,368	778,307
-17,950	15,885	1399,430	777,769
-16,936	15,892	1398,287	777,131
-15,921	15,810	1397,444	776,252
-14,906	15,792	1396,250	775,477
-13,892	15,852	1395,438	775,272
-12,877	15,832	1394,450	774,602
-11,863	15,857	1393,588	774,205
-10,848	15,831	1392,565	773,486
-9,833	15,838	1391,630	772,969
-8,819	15,740	1390,740	771,992
-7,804	15,745	1389,664	771,388
-6,790	15,715	1388,689	770,678
-5,775	15,754	1387,779	770,322
-4,760	15,744	1387,019	769,820
-3,746	15,710	1386,109	769,128
-2,731	15,698	1385,449	768,677
-1,717	15,689	1384,522	768,092
-0,702	15,734	1382,568	767,182
0,313	19,522	1303,088	740,552
1,327	35,802	706,361	439,141
2,342	55,367	124,976	85,537
3,356	2,099	16,651	8,492
4,371	0,821	3,041	1,538
5,386	-25,283	0,617	0,258
6,400	-200,000	0,038	0,149
7,415	227,454	-0,238	-0,275
8,429	63,806	-0,328	-0,233
9,444	-63,143	-0,384	-0,111
10,459	69,667	-0,121	-0,088
11,473	139,789	-0,340	-0,317
12,488	152,016	-0,323	-0,312
13,502	20,195	-0,324	-0,185
14,517	-25,300	-0,389	-0,162
15,531	107,417	-0,385	-0,324
16,546	31,188	-0,425	-0,257
17,561	174,293	-0,339	-0,347
18,575	289,081	-0,145	-0,186
19,590	504,237	-0,207	-0,341
20,604	158,430	-0,200	-0,197
21,619	87,376	-0,409	-0,320
22,634	82,544	-0,450	-0,345
23,648	234,963	-0,378	-0,442
24,663	133,741	-0,401	-0,367
25,677	215,421	-0,411	-0,461
26,692	60,520	-0,369	-0,258
27,707	-2,587	-0,317	-0,156
28,721	-6,210	-0,422	-0,203
29,736	138,280	-0,349	-0,323
30,750	174,865	-0,334	-0,342
31,765	88,348	-0,325	-0,255
32,780	103,552	-0,396	-0,328
33,794	233,814	-0,328	-0,383
34,809	76,238	-0,381	-0,284
35,823	52,973	-0,305	-0,206
36,838	800,000	-0,179	-0,361
37,853	84,934	-0,332	-0,257
38,867	31,359	-0,439	-0,266
39,882	94,752	-0,381	-0,306
40,896	57,819	-0,314	-0,217
41,911	-36,089	-0,360	-0,136
42,926	40,712	-0,340	-0,216
43,940	100,864	-0,388	-0,318
44,955	56,789	-0,357	-0,245
45,969	202,208	-0,305	-0,332
46,984	-8,583	-0,429	-0,203
47,999	126,932	-0,355	-0,318
49,013	-37,606	-0,251	-0,094
50,028	-3,895	-0,363	-0,177
51,042	143,430	-0,419	-0,394
52,057	366,449	-0,286	-0,408
53,071	32,900	-0,419	-0,256
54,086	27,495	-0,378	-0,223
55,101	165,053	-0,315	-0,314
56,115	127,271	-0,318	-0,284
57,130	183,702	-0,276	-0,288
58,144	96,112	-0,369	-0,297
59,159	106,891	-0,427	-0,358
60,174	287,637	-0,264	-0,337
61,188	40,629	-0,225	-0,143
62,203	105,414	-0,341	-0,284
63,217	87,206	-0,388	-0,302
64,232	611,053	-0,225	-0,398
65,247	177,188	-0,346	-0,355
66,261	167,755	-0,303	-0,304
67,276	108,726	-0,230	-0,193
68,290	101,450	-0,388	-0,318
69,305	22,981	-0,271	-0,156
70,320	-90,051	-0,299	-0,061
71,334	63,101	-0,371	-0,261
72,349	-11,937	-0,289	-0,133
73,363	121,647	-0,285	-0,250
74,378	49,193	-0,282	-0,186
75,393	64,918	-0,314	-0,223
76,407	26,043	-0,355	-0,208
77,422	13,416	-0,350	-0,191
78,436	38,134	-0,230	-0,144
79,451	67,415	-0,262	-0,188
80,466	26,241	-0,352	-0,206
81,480	14,092	-0,403	-0,220
82,495	159,366	-0,282	-0,276
83,509	-38,658	-0,253	-0,094
84,524	-149,756	-0,318	-0,017
85,539	69,035	-0,280	-0,202
86,553	99,040	-0,196	-0,159
87,568	-14,424	-0,267	-0,120
88,582	108,879	-0,302	-0,254
89,597	-5,310	-0,288	-0,139
90,611	-46,553	-0,241	-0,082
91,626	-160,437	-0,273	-0,010
92,641	-2,394	-0,338	-0,166
93,655	94,273	-0,154	-0,123
94,670	127,976	-0,234	-0,209
95,684	100,421	-0,229	-0,187
96,699	94,839	-0,279	-0,223
97,714	110,704	-0,262	-0,222
98,728	37,982	-0,174	-0,108
99,743	47,172	-0,332	-0,216
100,757	87,473	-0,255	-0,198
101,772	4,915	-0,113	-0,058
102,787	153,061	-0,242	-0,233
103,801	137,287	-0,276	-0,254
104,816	146,967	-0,233	-0,221
105,830	800,000	-0,181	-0,415
106,845	-46,864	-0,214	-0,073
107,860	55,151	-0,165	-0,112
108,874	180,896	-0,246	-0,254
109,889	-9,018	-0,314	-0,147
110,903	-6,961	-0,219	-0,104
111,918	47,971	-0,266	-0,174
112,933	-6,777	-0,231	-0,110
113,947	211,385	-0,143	-0,158
114,962	326,661	-0,158	-0,213
115,976	35,076	-0,292	-0,179
116,991	19,927	-0,374	-0,211
118,006	-34,580	-0,314	-0,120
119,020	10,042	-0,248	-0,132
120,035	-36,815	-0,305	-0,114
121,049	256,046	-0,089	-0,107
122,064	362,105	-0,128	-0,181
123,079	175,499	-0,197	-0,200
124,093	229,876	-0,156	-0,179
125,108	59,185	-0,213	-0,147
126,122	26,354	-0,272	-0,159
127,137	100,095	-0,288	-0,234
128,151	-108,342	-0,159	-0,024
129,166	-58,639	-0,137	-0,041
130,181	378,617	-0,162	-0,233
131,195	115,372	-0,262	-0,224
132,210	170,655	-0,230	-0,231
133,224	15,740	-0,312	-0,171
134,239	96,214	-0,237	-0,190
135,254	0,594	-0,173	-0,086
136,268	127,283	-0,204	-0,182
137,283	38,197	-0,217	-0,135
138,297	225,652	-0,176	-0,201
139,312	198,475	-0,137	-0,147
140,327	130,773	-0,239	-0,215
141,341	120,645	-0,313	-0,272
142,356	-121,877	-0,219	-0,025
143,370	-87,148	-0,318	-0,067
144,385	-107,751	-0,261	-0,039
145,400	219,241	-0,274	-0,307
146,414	29,602	-0,097	-0,057
147,429	84,439	-0,160	-0,122
148,443	109,398	-0,216	-0,181
149,458	-86,569	-0,207	-0,044
150,473	136,117	-0,134	-0,122
151,487	-80,541	-0,272	0,063
152,502	98,401	-0,206	-0,166
153,516	311,216	-0,274	-0,360
154,531	131,600	-0,277	-0,249
155,546	224,276	-0,188	-0,212
156,560	635,845	-0,141	-0,251
157,575	295,695	-0,164	-0,211
158,589	243,446	-0,221	-0,260
159,604	185,350	-0,147	-0,153
160,619	157,123	-0,199	-0,192
161,633	800,000	-0,168	-0,346
162,648	800,000	-0,087	-0,213
163,662	127,712	-0,331	-0,294
164,677	40,785	-0,278	-0,175
165,692	33,426	-0,192	-0,116
166,706	156,586	-0,194	-0,187
167,721	37,321	-0,269	-0,166
168,735	139,595	-0,236	-0,217
169,750	26,659	-0,203	-0,118
170,764	-15,303	-0,154	-0,068
171,779	380,093	-0,207	-0,297
172,794	282,392	-0,051	-0,064
173,808	-1,828	-0,257	-0,126
174,823	374,006	-0,137	-0,195
175,837	109,837	-0,242	-0,203
176,852	205,413	-0,215	-0,233
177,867	120,785	-0,189	-0,164
178,881	-34,412	-0,199	-0,076
179,896	148,869	-0,186	-0,175
180,910	105,026	-0,324	-0,267
181,925	133,343	-0,303	-0,274
182,940	84,596	-0,191	-0,146
183,954	196,781	-0,177	-0,189
184,969	-3,790	-0,077	-0,037
185,983	406,601	-0,136	-0,201
186,998	-84,897	-0,192	-0,042
188,013	-200,000	-0,028	-0,100
189,027	1,489	-0,282	-0,141
190,042	20,770	-0,083	-0,047
191,056	43,906	-0,330	-0,210
192,071	409,881	-0,147	-0,217
193,086	72,691	-0,146	-0,106
194,100	123,860	-0,178	-0,156
195,115	17,952	-0,238	-0,132
196,129	415,815	-0,064	-0,095
197,144	15,571	-0,186	-0,101
198,159	103,350	-0,259	-0,211
199,173	119,911	-0,194	-0,167
200,188	111,657	-0,127	-0,107
201,202	303,760	-0,150	-0,194
202,217	800,000	-0,061	-0,168
203,232	-40,823	-0,151	-0,054
204,246	416,504	-0,164	-0,244
205,261	-178,121	-0,097	0,002
206,275	-86,964	-0,358	-0,075
207,290	154,497	-0,194	-0,185
208,304	78,243	-0,194	-0,144
209,319	41,765	-0,212	-0,133
210,334	92,172	-0,147	-0,115
211,348	-5,833	-0,346	-0,164
212,363	76,065	-0,180	-0,132
213,377	-51,815	-0,270	-0,087
214,392	252,785	-0,142	-0,168
215,407	30,158	-0,232	-0,137
216,421	-41,540	-0,224	-0,080
217,436	47,531	-0,200	-0,130
218,450	184,407	-0,238	-0,246
219,465	166,916	-0,245	-0,242
220,480	166,271	-0,253	-0,249
221,494	167,194	-0,206	-0,203
222,509	-200,000	-0,066	-0,228
223,523	66,190	-0,180	0,127
224,538	100,379	-0,248	-0,200
225,553	255,840	-0,202	-0,241
226,567	641,105	-0,099	-0,176
227,582	508,712	-0,149	-0,242
228,596	566,710	-0,067	-0,114
229,611	-14,334	-0,188	-0,084
230,626	800,000	-0,107	-0,262
231,640	398,180	-0,118	-0,172
232,655	800,000	-0,086	-0,201
233,669	25,313	-0,236	-0,136
234,684	93,557	-0,296	-0,233
235,699	192,669	-0,219	-0,230
236,713	205,210	-0,141	-0,152
237,728	50,201	-0,170	-0,111
238,742	-3,294	-0,231	-0,111
239,757	756,118	-0,199	-0,375
240,772	91,421	-0,181	-0,141
241,786	82,033	-0,228	-0,171
242,801	139,084	-0,196	-0,179
243,815	-71,958	-0,160	0,041
244,830	-200,000	-0,038	-0,123
245,844	-85,842	-0,108	-0,023
246,859	116,995	-0,290	-0,247
247,874	-37,514	-0,251	-0,092
248,888	-3,081	-0,280	-0,135
249,903	68,074	-0,168	-0,119
250,917	92,792	-0,241	-0,188
251,932	323,280	-0,158	-0,209
252,947	-73,804	-0,159	-0,040
253,961	-63,241	-0,138	-0,039
254,976	132,483	-0,132	-0,118
255,990	800,000	-0,128	-0,252
257,005	25,208	-0,246	-0,141
258,020	-73,693	-0,099	0,025
259,034	-200,000	-0,010	-0,196
260,049	202,625	-0,096	-0,103
261,063	469,956	-0,094	-0,147
262,078	54,269	-0,217	-0,145
263,093	568,662	-0,121	-0,204
264,107	-173,349	-0,098	-0,002
265,122	255,375	-0,121	-0,144
266,136	-43,235	-0,155	-0,054
267,151	90,062	-0,110	-0,085
268,166	-12,510	-0,180	-0,081
269,180	154,903	-0,130	-0,123
270,195	433,925	-0,140	-0,212
271,209	800,000	-0,087	-0,239
272,224	162,352	-0,105	-0,102
273,239	-3,123	-0,117	0,056
274,253	-200,000	0,012	-0,041
275,268	234,938	-0,123	-0,141
276,282	-0,219	-0,208	-0,102
277,297	-162,790	-0,196	0,007
278,312	800,000	-0,082	-0,189
279,326	800,000	-0,049	-0,098
280,341	-52,044	-0,074	-0,024
281,355	-141,895	-0,162	-0,011
282,370	681,364	-0,099	-0,178
283,384	216,263	-0,157	-0,173
284,399	106,234	-0,164	-0,135
285,414	-200,000	-0,036	-0,143
286,428	-49,361	-0,070	0,023
287,443	-4,211	-0,220	-0,105
288,457	41,000	-0,084	-0,052
289,472	-91,373	-0,132	-0,026
290,487	-41,037	-0,201	-0,071
291,501	37,119	-0,179	-0,109
292,516	154,544	-0,079	-0,075
293,530	-200,000	-0,022	0,067
294,545	1,226	-0,148	0,073
295,560	-68,809	-0,182	-0,048
296,574	800,000	-0,081	-0,182
297,589	661,272	-0,061	-0,109
298,603	800,000	-0,107	-0,207
299,618	674,293	-0,114	-0,204
300,633	-200,000	-0,055	-0,185
301,647	64,246	-0,053	-0,036
302,662	516,682	-0,071	-0,115
303,676	-200,000	-0,037	-0,143
304,691	800,000	-0,089	-0,201
305,706	69,240	-0,155	-0,110
306,720	245,615	-0,167	-0,194
307,735	22,449	-0,145	-0,081
308,749	37,152	-0,154	-0,094
309,764	32,832	-0,202	-0,120
310,779	-171,796	-0,111	-0,002
311,793	337,825	-0,129	-0,174
312,808	-89,971	-0,127	-0,025
313,822	-90,027	-0,192	-0,038
314,837	141,166	-0,037	-0,034
315,852	446,205	-0,070	-0,106
316,866	-110,828	-0,123	-0,017
317,881	-200,000	-0,015	-0,086
318,895	-107,409	-0,152	-0,023
319,910	280,496	-0,045	-0,055
320,925	21,191	-0,201	-0,112
321,939	168,611	-0,085	-0,084
322,954	306,326	-0,157	-0,202
323,968	24,374	-0,109	-0,062
324,983	-65,389	-0,161	-0,044
325,997	800,000	-0,043	-0,095
327,012	800,000	-0,138	-0,288
328,027	-10,193	-0,172	-0,078
329,041	371,852	-0,076	-0,106
330,056	-9,395	-0,154	-0,070
331,070	222,605	-0,065	-0,072
332,085	-0,525	0,083	-0,040
333,100	303,951	-0,052	0,067
334,114	800,000	-0,055	-0,136
335,129	62,860	-0,216	-0,148
336,143	110,680	0,030	-0,025
337,158	126,955	-0,225	-0,197
338,173	-33,012	-0,067	-0,025
339,187	-33,120	-0,064	-0,024
340,202	33,203	-0,147	-0,088
341,216	226,398	-0,109	-0,122
342,231	800,000	-0,068	-0,166
343,246	46,527	-0,207	-0,132
344,260	505,766	-0,079	-0,126
345,275	101,432	-0,102	-0,082
346,289	-200,000	-0,025	-0,095
347,304	134,242	-0,118	-0,105
348,319	190,020	-0,102	-0,105
349,333	372,626	-0,117	-0,164
350,348	680,552	-0,076	-0,136
351,362	96,053	-0,024	-0,019
352,377	129,978	-0,123	-0,108
353,392	31,643	-0,151	-0,089
354,406	14,476	-0,179	0,096
355,421	210,038	1312,552	1416,455
356,435	161,673	1473,066	1416,979
