DTS Sentinel unit serial number:	SN410029Multiplexer serial number:	ORYXHardware model number:	OX2-SRSoftware version number:	ORYX F/W v4,00 Oryx Data Collector v3.7.2.0data status	okinstallation	B3 Nyhavnadifferential loss correction	single-endedforward channel	channel 1reverse channel	N/Adate	2023/11/29time	19:32:30forward acquisition time	300,00reverse acquisition time	0,00gamma	499,1914k internal	0,3209k external	0,3209temperature offset calibration	1,0000default loss term (dB/km)	0,3820temperature slope calibration	1,0000multiplexer offset coefficient	1,0000multiplexer slope coefficient	1,0000fibre end	0,00T internal ref (°C)	10,93T ext. ref 1 (°C)	-4,37T ext. ref 2 (°C)	-4,48length (m)	temperature (°C)	Stokes	anti-Stokes-744,400	800,000	-0,100	-0,230
-743,385	-200,000	0,043	0,421
-742,371	-200,000	-0,045	-0,211
-741,356	-200,000	0,065	0,226
-740,342	84,356	-0,250	-0,198
-739,327	-200,000	0,030	0,300
-738,312	71,222	-0,260	-0,195
-737,298	-200,000	0,074	0,275
-736,283	164,216	-0,284	-0,290
-735,269	-200,000	-0,035	0,231
-734,254	444,082	-0,140	-0,223
-733,239	-73,120	-0,229	0,060
-732,225	-200,000	-0,057	-0,200
-731,210	800,000	-0,043	0,090
-730,196	-142,295	-0,042	-0,003
-729,181	-22,139	-0,132	-0,058
-728,167	-56,574	0,136	-0,043
-727,152	-42,705	-0,091	0,033
-726,137	-123,769	-0,108	-0,012
-725,123	-94,184	-0,070	-0,014
-724,108	800,000	-0,015	-0,033
-723,094	236,075	-0,122	-0,146
-722,079	-200,000	-0,046	-0,160
-721,064	800,000	0,026	0,057
-720,050	22,807	0,027	0,016
-719,035	410,345	-0,050	-0,077
-718,021	235,671	0,117	-0,140
-717,006	356,668	-0,062	-0,090
-715,991	42,481	-0,213	-0,140
-714,977	-200,000	0,024	-0,083
-713,962	-80,367	-0,017	-0,004
-712,948	370,977	-0,009	0,013
-711,933	-52,836	0,035	0,012
-710,918	-200,000	-0,022	-0,126
-709,904	-200,000	-0,035	-0,122
-708,889	129,076	0,045	0,042
-707,875	-86,203	-0,075	-0,017
-706,860	-169,069	0,043	-0,001
-705,845	-131,372	0,089	0,008
-704,831	-200,000	0,018	0,088
-703,816	34,992	-0,105	-0,066
-702,802	-200,000	0,008	-0,089
-701,787	-200,000	0,057	-0,184
-700,772	16,538	-0,160	-0,091
-699,758	461,471	-0,044	-0,071
-698,743	53,508	0,103	0,072
-697,729	-200,000	0,004	0,134
-696,714	213,734	-0,116	0,133
-695,699	-88,001	-0,075	-0,016
-694,685	800,000	-0,099	-0,253
-693,670	-109,493	-0,080	-0,012
-692,656	188,270	-0,082	-0,089
-691,641	-200,000	-0,028	0,109
-690,627	330,350	0,077	0,108
-689,612	-200,000	0,017	-0,072
-688,597	-54,675	-0,131	0,042
-687,583	800,000	0,035	-0,074
-686,568	-200,000	-0,036	-0,253
-685,554	26,448	-0,064	-0,039
-684,539	-32,884	-0,081	-0,032
-683,524	-200,000	-0,021	0,134
-682,510	110,372	-0,025	0,022
-681,495	175,647	0,029	-0,030
-680,481	-16,669	-0,166	-0,076
-679,466	-200,000	-0,002	-0,136
-678,451	-200,000	-0,010	-0,061
-677,437	265,495	-0,037	0,046
-676,422	277,680	0,070	0,090
-675,408	-81,111	-0,115	0,027
-674,393	-104,636	-0,026	-0,004
-673,378	-131,450	-0,093	-0,009
-672,364	-200,000	0,010	0,049
-671,349	-200,000	0,001	-0,051
-670,335	64,491	0,115	0,084
-669,320	800,000	-0,021	-0,056
-668,305	-200,000	-0,001	0,111
-667,291	-200,000	-0,019	0,112
-666,276	21,210	-0,059	0,034
-665,262	25,072	-0,085	0,051
-664,247	-82,413	-0,162	0,038
-663,232	724,596	0,025	0,048
-662,218	800,000	-0,011	-0,027
-661,203	-200,000	0,012	0,058
-660,189	-200,000	0,010	0,179
-659,174	-200,000	-0,015	-0,065
-658,159	118,288	0,033	0,029
-657,145	800,000	0,057	-0,172
-656,130	48,896	0,077	-0,052
-655,116	800,000	-0,012	-0,025
-654,101	17,920	-0,088	-0,050
-653,086	-200,000	-0,010	0,080
-652,072	304,139	0,092	-0,124
-651,057	752,948	-0,089	-0,175
-650,043	619,224	-0,061	0,111
-649,028	658,525	-0,021	-0,040
-648,014	657,727	-0,027	-0,050
-646,999	-200,000	0,005	0,068
-645,984	-62,089	0,003	-0,001
-644,970	-66,417	-0,117	-0,033
-643,955	-41,016	-0,050	-0,018
-642,941	178,737	-0,096	0,101
-641,926	-152,797	0,027	0,001
-640,911	-130,981	0,029	-0,003
-639,897	-67,702	0,174	0,049
-638,882	92,650	-0,068	0,056
-637,868	-200,000	0,036	-0,122
-636,853	-200,000	-0,022	-0,091
-635,838	-63,229	-0,082	-0,024
-634,824	800,000	0,029	-0,086
-633,809	800,000	-0,048	-0,147
-632,795	18,204	0,066	0,038
-631,780	162,640	0,064	0,064
-630,765	53,028	-0,068	-0,047
-629,751	-177,918	-0,156	-0,003
-628,736	326,781	-0,073	0,102
-627,722	-200,000	-0,049	0,158
-626,707	163,794	0,034	-0,034
-625,692	800,000	-0,057	0,172
-624,678	173,274	0,122	0,127
-623,663	41,420	-0,044	0,029
-622,649	-149,179	-0,149	0,008
-621,634	463,736	0,117	-0,189
-620,619	116,787	0,024	0,021
-619,605	-200,000	0,008	0,039
-618,590	536,259	0,063	0,108
-617,576	-24,003	-0,110	-0,047
-616,561	587,611	-0,049	0,088
-615,546	231,675	-0,051	0,061
-614,532	800,000	0,039	-0,088
-613,517	-43,466	-0,100	-0,036
-612,503	800,000	-0,037	-0,088
-611,488	60,675	-0,069	-0,049
-610,474	-74,378	-0,143	0,037
-609,459	2,748	0,041	-0,022
-608,444	433,507	-0,086	-0,136
-607,430	-28,894	-0,085	0,035
-606,415	-200,000	-0,014	-0,146
-605,401	800,000	-0,013	0,039
-604,386	800,000	-0,049	-0,099
-603,371	137,522	0,091	0,086
-602,357	14,363	0,065	0,037
-601,342	16,759	-0,081	0,046
-600,328	-200,000	0,010	-0,049
-599,313	800,000	0,040	-0,085
-598,298	194,600	0,020	0,022
-597,284	-32,421	0,085	0,034
-596,269	34,980	-0,097	0,061
-595,255	-80,805	-0,164	-0,039
-594,240	-102,468	-0,086	0,015
-593,225	4,548	-0,121	-0,064
-592,211	43,091	0,038	0,025
-591,196	-200,000	0,028	-0,125
-590,182	800,000	-0,028	0,080
-589,167	800,000	0,039	0,124
-588,152	800,000	-0,029	0,069
-587,138	169,739	-0,102	-0,105
-586,123	-97,665	-0,039	-0,007
-585,109	-70,066	-0,091	0,025
-584,094	-72,254	0,137	-0,036
-583,079	-200,000	0,002	0,108
-582,065	674,812	-0,042	0,080
-581,050	-37,949	-0,117	0,045
-580,036	-52,816	0,044	-0,014
-579,021	653,184	-0,049	0,091
-578,006	-2,917	-0,187	-0,094
-576,992	-125,745	0,132	-0,014
-575,977	-98,132	0,175	-0,032
-574,963	-169,481	0,094	-0,002
-573,948	135,197	-0,035	-0,033
-572,934	-200,000	-0,008	0,093
-571,919	-178,275	0,094	-0,002
-570,904	164,560	-0,182	-0,185
-569,890	-200,000	-0,002	-0,069
-568,875	522,274	0,091	-0,154
-567,861	714,574	-0,079	0,151
-566,846	-54,695	0,147	0,048
-565,831	2,286	-0,151	-0,078
-564,817	96,052	-0,037	-0,030
-563,802	377,762	0,053	-0,078
-562,788	-91,909	-0,065	-0,013
-561,773	-200,000	0,016	0,058
-560,758	113,878	0,085	0,074
-559,744	768,155	0,048	-0,094
-558,729	-169,903	0,015	-0,000
-557,715	-130,620	-0,032	-0,003
-556,700	800,000	-0,071	-0,147
-555,685	199,065	-0,073	0,081
-554,671	-26,688	0,074	0,031
-553,656	111,940	-0,052	0,046
-552,642	-200,000	0,008	0,047
-551,627	-89,403	0,036	0,008
-550,612	178,921	-0,084	0,088
-549,598	-108,168	-0,031	0,005
-548,583	800,000	-0,051	0,105
-547,569	800,000	0,031	-0,084
-546,554	-167,046	0,100	0,003
-545,539	73,402	-0,067	0,050
-544,525	-161,101	-0,033	-0,001
-543,510	-77,012	0,097	-0,024
-542,496	-200,000	0,007	-0,060
-541,481	800,000	0,039	-0,083
-540,466	-200,000	-0,012	-0,074
-539,452	-200,000	0,008	-0,074
-538,437	145,542	0,117	0,113
-537,423	13,275	-0,105	0,058
-536,408	1,493	0,128	0,066
-535,393	-71,728	0,068	-0,018
-534,379	86,137	0,124	-0,098
-533,364	-200,000	0,058	0,000
-532,350	764,246	-0,027	-0,053
-531,335	-200,000	0,003	0,097
-530,321	-188,523	0,030	-0,000
-529,306	-200,000	0,017	0,086
-528,291	800,000	0,007	0,019
-527,277	34,730	-0,077	-0,048
-526,262	-136,681	0,084	0,007
-525,248	651,431	0,056	-0,103
-524,233	25,393	-0,045	-0,027
-523,218	290,063	-0,053	0,069
-522,204	79,102	-0,071	0,055
-521,189	-68,818	-0,088	0,024
-520,175	-200,000	0,006	-0,023
-519,160	-98,934	-0,010	-0,002
-518,145	387,075	-0,066	-0,099
-517,131	800,000	0,003	-0,010
-516,116	-200,000	-0,007	0,140
-515,102	-200,000	0,000	-0,016
-514,087	371,080	-0,121	-0,176
-513,072	346,485	-0,104	-0,148
-512,058	-109,918	-0,087	-0,013
-511,043	-71,573	0,129	-0,034
-510,029	-200,000	0,020	0,121
-509,014	-6,614	0,140	0,069
-507,999	-72,554	-0,075	0,020
-506,985	800,000	0,050	-0,131
-505,970	-6,997	0,092	-0,045
-504,956	-3,128	0,026	-0,013
-503,941	142,330	-0,032	-0,030
-502,926	567,212	-0,014	0,024
-501,912	362,453	0,056	0,081
-500,897	-200,000	-0,000	-0,031
-499,883	800,000	-0,055	0,124
-498,868	800,000	-0,028	-0,067
-497,853	12,111	-0,042	0,023
-496,839	47,520	0,106	-0,071
-495,824	-65,212	-0,070	-0,020
-494,810	-23,129	0,063	-0,027
-493,795	305,362	-0,054	0,072
-492,781	-200,000	0,045	-0,000
-491,766	-96,950	-0,092	0,017
-490,751	38,121	0,040	-0,025
-489,737	-5,129	0,086	0,042
-488,722	-94,904	-0,130	-0,025
-487,708	300,713	0,153	0,203
-486,693	800,000	0,089	0,250
-485,678	73,962	0,100	0,075
-484,664	26,638	-0,045	-0,027
-483,649	800,000	0,042	-0,116
-482,635	140,367	-0,043	-0,040
-481,620	-30,550	0,064	-0,026
-480,605	-200,000	-0,013	0,053
-479,591	-70,756	0,074	0,020
-478,576	-200,000	0,003	-0,011
-477,562	-200,000	0,051	-0,185
-476,547	-195,685	-0,031	-0,000
-475,532	73,912	0,115	-0,087
-474,518	-40,299	0,026	-0,010
-473,503	413,929	0,057	0,088
-472,489	492,376	0,025	0,041
-471,474	16,270	0,108	0,061
-470,459	-66,611	-0,145	0,041
-469,445	54,835	0,171	-0,119
-468,430	149,229	0,044	0,043
-467,416	-108,413	0,053	0,008
-466,401	-29,849	0,110	0,045
-465,386	46,214	-0,170	0,113
-464,372	800,000	-0,036	0,076
-463,357	13,298	0,127	0,070
-462,343	800,000	0,003	-0,007
-461,328	191,846	0,062	0,067
-460,313	-200,000	-0,018	-0,075
-459,299	153,975	0,114	0,112
-458,284	-61,897	0,057	0,017
-457,270	800,000	-0,006	0,017
-456,255	-200,000	0,035	-0,118
-455,241	43,207	-0,037	-0,024
-454,226	-1,192	-0,106	0,054
-453,211	-174,372	0,056	0,001
-452,197	89,981	0,060	0,048
-451,182	-200,000	-0,010	0,084
-450,168	-200,000	-0,005	0,016
-449,153	103,198	0,063	0,053
-448,138	800,000	-0,040	-0,086
-447,124	738,991	0,027	-0,053
-446,109	-200,000	-0,005	-0,019
-445,095	125,402	-0,048	-0,043
-444,080	-200,000	-0,006	-0,036
-443,065	-200,000	-0,020	-0,124
-442,051	-200,000	0,024	-0,103
-441,036	64,181	-0,116	-0,084
-440,022	233,988	0,032	0,038
-439,007	-36,800	0,097	-0,037
-437,992	8,381	0,083	-0,045
-436,978	134,277	0,088	0,082
-435,963	800,000	-0,048	-0,102
-434,949	173,429	-0,055	-0,057
-433,934	406,168	0,058	0,088
-432,919	-18,429	-0,033	0,015
-431,905	293,682	0,066	-0,087
-430,890	531,490	0,039	0,067
-429,876	800,000	0,054	0,145
-428,861	42,399	-0,068	0,044
-427,846	37,272	-0,060	0,038
-426,832	-55,685	0,111	0,035
-425,817	-200,000	-0,003	-0,117
-424,803	88,463	-0,104	-0,083
-423,788	-120,205	0,175	-0,021
-422,773	-200,000	0,007	0,023
-421,759	-85,540	0,197	-0,044
-420,744	206,960	-0,100	-0,112
-419,730	800,000	0,023	-0,058
-418,715	84,045	0,120	-0,094
-417,701	4,408	0,053	0,028
-416,686	800,000	0,036	0,084
-415,671	-143,936	0,072	0,005
-414,657	70,684	-0,034	0,025
-413,642	-200,000	-0,023	0,082
-412,628	67,222	-0,120	-0,088
-411,613	-149,830	-0,130	0,007
-410,598	69,990	0,101	-0,074
-409,584	-200,000	-0,003	-0,045
-408,569	-81,826	0,039	0,009
-407,555	-200,000	0,006	0,046
-406,540	-200,000	-0,027	0,141
-405,525	104,661	0,058	-0,049
-404,511	-66,569	-0,015	-0,004
-403,496	185,081	-0,093	0,099
-402,482	-200,000	-0,026	0,111
-401,467	800,000	0,058	0,166
-400,452	-200,000	0,028	0,113
-399,438	318,761	-0,058	0,078
-398,423	-114,383	0,123	0,017
-397,409	-85,031	-0,175	-0,039
-396,394	-98,455	-0,177	0,032
-395,379	-200,000	-0,021	-0,072
-394,365	-35,333	0,063	-0,024
-393,350	-61,541	-0,108	0,032
-392,336	-200,000	-0,011	0,098
-391,321	343,969	-0,082	-0,115
-390,306	-200,000	0,016	-0,077
-389,292	449,745	-0,088	0,140
-388,277	-81,841	-0,095	0,022
-387,263	-55,150	0,144	-0,046
-386,248	800,000	-0,058	0,137
-385,233	72,542	-0,065	0,049
-384,219	-138,971	0,049	-0,004
-383,204	-200,000	0,030	-0,110
-382,190	800,000	-0,007	-0,015
-381,175	85,506	0,073	0,057
-380,160	48,714	0,129	0,086
-379,146	80,367	0,141	-0,108
-378,131	-112,864	-0,075	0,011
-377,117	527,148	0,084	0,142
-376,102	-37,368	-0,097	-0,037
-375,088	-76,451	0,214	0,054
-374,073	-143,328	0,047	-0,003
-373,058	-111,347	0,103	0,015
-372,044	-200,000	0,005	0,063
-371,029	167,098	0,037	-0,037
-370,015	124,124	-0,116	-0,104
-369,000	300,595	-0,134	-0,177
-367,985	-112,661	-0,071	0,010
-366,971	-85,290	-0,040	-0,009
-365,956	-200,000	0,020	0,091
-364,942	120,619	0,033	-0,029
-363,927	-180,019	0,186	0,003
-362,912	623,734	0,029	-0,052
-361,898	763,828	-0,032	0,063
-360,883	427,409	-0,072	-0,112
-359,869	-200,000	0,007	-0,098
-358,854	-88,214	-0,055	0,012
-357,839	800,000	-0,038	0,094
-356,825	247,442	-0,020	-0,025
-355,810	-39,424	-0,059	0,022
-354,796	800,000	-0,071	-0,157
-353,781	-200,000	-0,008	-0,076
-352,766	394,649	-0,014	0,020
-351,752	-118,502	0,150	0,019
-350,737	-200,000	0,002	0,049
-349,723	800,000	-0,023	-0,046
-348,708	185,826	-0,068	-0,072
-347,693	344,364	0,038	-0,053
-346,679	731,421	0,034	-0,065
-345,664	551,508	-0,072	-0,124
-344,650	114,355	0,097	-0,084
-343,635	-200,000	-0,002	-0,025
-342,620	-193,106	-0,062	0,000
-341,606	-200,000	-0,028	0,120
-340,591	-85,074	-0,054	-0,012
-339,577	-200,000	0,028	-0,112
-338,562	62,267	0,032	-0,023
-337,548	-200,000	0,014	-0,104
-336,533	-200,000	0,019	0,069
-335,518	109,561	0,059	0,051
-334,504	497,378	-0,007	-0,011
-333,489	474,505	-0,071	-0,115
-332,475	800,000	-0,028	-0,084
-331,460	-200,000	0,022	-0,139
-330,445	87,161	0,151	-0,119
-329,431	41,060	0,043	0,028
-328,416	74,951	0,100	0,075
-327,402	95,448	0,113	0,092
-326,387	392,598	-0,032	0,047
-325,372	172,677	-0,067	0,069
-324,358	-200,000	0,001	-0,045
-323,343	13,760	0,167	0,092
-322,329	800,000	0,018	0,050
-321,314	78,951	0,116	0,089
-320,299	-40,056	0,125	-0,046
-319,285	800,000	-0,046	-0,107
-318,270	800,000	-0,014	-0,029
-317,256	-200,000	-0,020	0,113
-316,241	-31,903	-0,048	0,019
-315,226	-104,865	-0,069	-0,011
-314,212	-36,767	0,130	0,050
-313,197	51,248	-0,093	0,063
-312,183	-72,934	-0,071	-0,018
-311,168	371,654	0,049	-0,071
-310,153	-103,006	-0,060	-0,010
-309,139	-146,115	-0,118	-0,007
-308,124	161,137	0,023	0,023
-307,110	21,946	0,092	-0,053
-306,095	30,033	0,044	-0,027
-305,080	-40,199	0,026	-0,010
-304,066	-200,000	-0,028	-0,198
-303,051	82,250	-0,016	0,013
-302,037	-42,240	0,097	-0,035
-301,022	-7,042	-0,094	0,045
-300,008	539,288	0,055	-0,093
-298,993	-200,000	0,011	0,099
-297,978	172,917	-0,064	-0,066
-296,964	289,475	-0,020	-0,026
-295,949	46,396	-0,022	0,015
-294,935	-200,000	0,014	-0,048
-293,920	-46,382	-0,139	-0,048
-292,905	-65,478	-0,054	-0,015
-291,891	-6,153	0,044	0,021
-290,876	-22,641	-0,023	-0,010
-289,862	147,083	-0,033	-0,032
-288,847	78,778	-0,125	-0,095
-287,832	800,000	0,024	0,071
-286,818	26,106	-0,061	0,036
-285,803	323,210	-0,128	0,174
-284,789	-98,220	0,137	0,025
-283,774	-200,000	0,030	0,099
-282,759	-34,660	0,052	0,020
-281,745	120,004	-0,096	-0,085
-280,730	800,000	-0,021	-0,042
-279,716	633,306	-0,020	0,037
-278,701	158,540	-0,045	-0,045
-277,686	-27,446	0,052	-0,022
-276,672	-61,561	0,072	-0,022
-275,657	3,603	-0,030	-0,016
-274,643	-200,000	0,045	-0,201
-273,628	-44,755	0,062	0,022
-272,613	24,802	-0,054	-0,032
-271,599	-200,000	0,042	0,187
-270,584	146,855	0,096	0,092
-269,570	426,567	-0,059	0,091
-268,555	-200,000	0,007	-0,134
-267,540	-181,769	-0,125	-0,002
-266,526	-176,154	-0,068	0,001
-265,511	-200,000	0,009	-0,085
-264,497	302,947	0,059	-0,078
-263,482	71,828	-0,081	0,060
-262,467	800,000	-0,003	-0,005
-261,453	-200,000	0,013	-0,077
-260,438	595,482	-0,023	-0,040
-259,424	95,684	-0,021	-0,017
-258,409	800,000	0,064	-0,151
-257,395	-59,542	0,134	-0,041
-256,380	-12,438	0,046	-0,021
-255,365	-200,000	-0,017	0,120
-254,351	436,288	-0,036	-0,056
-253,336	-200,000	-0,009	0,041
-252,322	800,000	-0,024	-0,061
-251,307	800,000	0,021	-0,046
-250,292	34,857	0,034	0,021
-249,278	-200,000	-0,015	-0,057
-248,263	295,874	-0,060	-0,079
-247,249	300,612	0,074	0,097
-246,234	189,785	0,062	0,066
-245,219	743,771	-0,038	0,073
-244,205	101,168	-0,108	0,089
-243,190	800,000	0,028	0,085
-242,176	586,187	-0,013	0,023
-241,161	-200,000	-0,027	0,098
-240,146	27,224	-0,132	0,079
-239,132	-200,000	0,035	0,193
-238,117	35,591	-0,056	0,035
-237,103	-200,000	0,056	-0,234
-236,088	143,420	-0,103	-0,098
-235,073	-184,183	0,052	0,001
-234,059	800,000	-0,045	0,115
-233,044	182,486	0,058	0,060
-232,030	263,306	0,022	0,027
-231,015	-42,271	-0,082	-0,030
-230,000	53,258	-0,020	-0,014
-228,986	323,300	-0,054	-0,073
-227,971	-31,766	0,042	-0,017
-226,957	-54,617	0,179	-0,057
-225,942	-4,663	-0,072	0,035
-224,927	76,360	0,034	0,025
-223,913	558,390	-0,014	-0,025
-222,898	-27,050	-0,134	-0,055
-221,884	139,419	-0,058	-0,054
-220,869	95,933	-0,025	0,020
-219,855	423,844	0,056	0,086
-218,840	800,000	0,037	0,099
-217,825	79,853	0,019	-0,015
-216,811	800,000	-0,071	-0,191
-215,796	-200,000	0,003	-0,072
-214,782	-108,504	-0,102	0,016
-213,767	119,463	0,038	-0,034
-212,752	800,000	-0,028	0,083
-211,738	-200,000	0,011	0,127
-210,723	-61,277	-0,061	0,018
-209,709	800,000	0,018	0,047
-208,694	232,657	0,061	-0,071
-207,679	85,157	0,037	-0,029
-206,665	648,477	-0,059	0,108
-205,650	-200,000	0,029	0,134
-204,636	-62,010	-0,053	0,016
-203,621	204,896	-0,036	0,040
-202,606	116,672	0,097	0,085
-201,592	-200,000	-0,012	-0,100
-200,577	138,730	-0,088	0,082
-199,563	-33,558	0,045	-0,018
-198,548	71,647	-0,099	0,073
-197,533	-189,086	0,097	-0,001
-196,519	-164,350	-0,090	0,003
-195,504	-200,000	-0,002	-0,038
-194,490	800,000	-0,082	-0,182
-193,475	72,911	-0,066	0,049
-192,460	-200,000	0,013	0,093
-191,446	-200,000	0,029	0,139
-190,431	-200,000	0,026	0,123
-189,417	-99,315	-0,101	0,018
-188,402	-200,000	-0,017	-0,138
-187,387	554,332	-0,118	-0,202
-186,373	-48,486	-0,059	-0,020
-185,358	-131,778	0,068	-0,006
-184,344	-70,942	0,145	-0,038
-183,329	44,456	0,084	-0,054
-182,315	582,249	-0,070	0,123
-181,300	-200,000	0,006	0,066
-180,285	-57,774	0,135	-0,042
-179,271	19,120	-0,081	-0,046
-178,256	82,513	0,065	0,050
-177,242	74,469	0,082	-0,061
-176,227	399,059	0,012	0,019
-175,212	-200,000	0,008	0,062
-174,198	-200,000	-0,006	0,075
-173,183	-200,000	-0,006	-0,087
-172,169	126,474	-0,088	0,079
-171,154	-200,000	0,010	0,087
-170,139	130,333	-0,034	0,031
-169,125	504,882	0,036	0,060
-168,110	800,000	0,042	-0,084
-167,096	158,751	0,097	-0,095
-166,081	-45,618	0,085	-0,030
-165,066	-87,216	-0,114	-0,024
-164,052	800,000	0,054	0,143
-163,037	77,575	0,036	0,027
-162,023	351,949	0,089	0,126
-161,008	100,073	0,032	0,026
-159,993	92,337	-0,033	0,027
-158,979	-39,611	-0,089	-0,033
-157,964	-32,782	-0,041	-0,016
-156,950	115,594	-0,098	-0,085
-155,935	-200,000	0,013	0,096
-154,920	-93,534	0,127	0,025
-153,906	-138,511	0,085	-0,007
-152,891	-54,043	-0,081	-0,026
-151,877	293,487	-0,032	-0,041
-150,862	760,023	0,057	-0,110
-149,847	-42,150	0,076	0,027
-148,833	270,595	0,051	-0,063
-147,818	-19,822	0,087	0,038
-146,804	338,326	-0,047	0,065
-145,789	800,000	0,079	0,203
-144,775	-92,785	-0,140	-0,027
-143,760	37,669	-0,201	-0,126
-142,745	-84,907	-0,027	0,006
-141,731	487,339	-0,031	0,050
-140,716	-200,000	0,065	0,218
-139,702	130,367	-0,108	0,098
-138,687	-137,503	0,036	-0,003
-137,672	178,979	0,039	0,041
-136,658	14,044	-0,071	-0,039
-135,643	-156,749	0,112	0,005
-134,629	-170,091	-0,033	0,001
-133,614	-200,000	-0,020	0,194
-132,599	-14,080	0,101	-0,046
-131,585	-83,242	-0,107	0,024
-130,570	-200,000	-0,028	-0,099
-129,556	169,328	-0,086	-0,088
-128,541	-48,807	0,097	-0,033
-127,526	386,257	-0,069	-0,101
-126,512	-200,000	0,025	0,104
-125,497	93,924	0,122	-0,098
-124,483	-141,487	-0,135	-0,010
-123,468	116,894	-0,023	0,020
-122,453	-87,682	-0,056	0,012
-121,439	421,393	0,027	0,042
-120,424	-171,009	0,062	-0,001
-119,410	83,404	0,021	-0,017
-118,395	-2,415	0,071	-0,035
-117,380	-14,259	0,133	0,060
-116,366	-136,706	-0,132	0,011
-115,351	146,568	-0,068	-0,064
-114,337	26,893	-0,058	0,035
-113,322	-23,118	0,005	0,002
-112,307	-33,177	0,154	-0,060
-111,293	-200,000	0,027	0,098
-110,278	-180,212	-0,130	-0,002
-109,264	172,305	0,060	-0,061
-108,249	232,844	0,018	0,021
-107,234	32,957	-0,119	0,073
-106,220	43,856	-0,122	0,079
-105,205	800,000	-0,011	0,031
-104,191	182,691	-0,086	0,090
-103,176	-200,000	0,008	0,087
-102,162	-43,767	-0,015	0,005
-101,147	-31,366	-0,147	-0,058
-100,132	74,588	0,075	-0,056
-99,118	-81,247	-0,195	-0,045
-98,103	363,757	0,069	0,098
-97,089	62,146	0,156	-0,110
-96,074	-130,580	0,133	0,012
-95,059	-117,578	-0,145	-0,018
-94,045	24,845	-0,091	-0,053
-93,030	548,568	0,013	-0,021
-92,016	384,226	-0,020	-0,030
-91,001	-200,000	0,041	0,000
-89,986	199,344	-0,051	0,056
-88,972	-163,466	0,083	-0,003
-87,957	235,742	0,034	0,040
-86,943	473,674	0,078	-0,124
-85,928	800,000	0,052	-0,112
-84,913	459,075	0,048	-0,076
-83,899	369,025	-0,040	0,057
-82,884	42,394	0,048	0,031
-81,870	41,703	-0,073	-0,047
-80,855	199,466	0,166	0,181
-79,840	-96,413	-0,048	0,009
-78,826	16,479	-0,186	-0,104
-77,811	135,933	0,027	0,025
-76,797	-22,864	-0,109	0,046
-75,782	51,156	-0,118	0,079
-74,767	377,895	0,044	0,064
-73,753	290,780	-0,024	-0,030
-72,738	-141,770	-0,063	0,004
-71,724	-40,617	0,005	0,002
-70,709	107,014	0,137	-0,115
-69,694	-59,306	0,039	-0,012
-68,680	-63,386	0,136	-0,039
-67,665	-35,387	0,170	0,065
-66,651	197,566	0,075	-0,081
-65,636	-91,065	0,140	-0,028
-64,622	-200,000	0,020	0,115
-63,607	409,264	-0,030	-0,045
-62,592	-139,384	-0,027	-0,002
-61,578	491,106	0,060	-0,097
-60,563	-200,000	0,007	-0,035
-59,549	57,871	0,058	-0,040
-58,534	40,563	-1,982	-1,259
-57,519	495,554	-1,265	-2,060
-56,505	-200,000	-0,288	-4,221
-55,490	585,590	0,837	1,459
-54,476	800,000	5,071	11,272
-53,461	-200,000	20,978	330,062
-52,446	800,000	757,365	2324,038
-51,432	550,176	1662,376	2826,053
-50,417	73,530	1664,316	1229,242
-49,403	18,776	1537,315	866,673
-48,388	12,793	1460,376	794,330
-47,373	19,076	1451,262	819,532
-46,359	15,896	1440,601	798,337
-45,344	11,069	1436,176	772,847
-44,330	10,982	1434,240	771,360
-43,315	10,953	1432,613	770,318
-42,300	11,014	1430,649	769,519
-41,286	10,990	1429,346	768,674
-40,271	10,907	1428,265	767,671
-39,257	10,965	1426,971	767,218
-38,242	11,007	1425,735	766,723
-37,227	10,985	1424,798	766,086
-36,213	10,998	1423,597	765,468
-35,198	11,055	1422,364	765,047
-34,184	11,048	1421,527	764,531
-33,169	10,950	1420,248	763,352
-32,154	10,996	1419,194	762,969
-31,140	11,091	1417,634	762,552
-30,125	11,069	1416,815	761,976
-29,111	11,081	1415,735	761,423
-28,096	11,011	1414,619	760,461
-27,082	11,003	1413,271	759,668
-26,067	10,944	1412,456	758,923
-25,052	10,998	1411,171	758,456
-24,038	10,989	1410,257	757,891
-23,023	10,953	1409,341	757,204
-22,009	10,946	1408,377	756,621
-20,994	10,957	1407,232	756,026
-19,979	10,954	1406,380	755,524
-18,965	10,900	1405,464	754,750
-17,950	10,919	1404,600	754,347
-16,936	10,931	1403,895	753,992
-15,921	10,843	1402,900	753,018
-14,906	10,860	1401,729	752,440
-13,892	10,899	1400,698	752,039
-12,877	10,919	1399,819	751,630
-11,863	10,856	1399,025	750,883
-10,848	10,819	1398,347	750,315
-9,833	10,833	1397,252	749,762
-8,819	10,767	1396,530	749,039
-7,804	10,797	1395,601	748,649
-6,790	10,785	1394,563	748,006
-5,775	10,775	1393,474	747,349
-4,760	10,750	1392,655	746,762
-3,746	10,808	1391,590	746,430
-2,731	10,787	1390,845	745,904
-1,717	10,782	1390,145	745,478
-0,702	10,773	1388,262	744,397
0,313	14,769	1301,912	716,422
1,327	30,956	693,023	418,190
2,342	48,055	120,188	79,141
3,356	-0,225	16,583	8,294
4,371	1,133	3,513	1,773
5,386	-11,015	0,930	0,432
6,400	-200,000	0,089	0,520
7,415	121,000	-0,195	-0,171
8,429	-195,767	-0,361	-0,002
9,444	-29,759	-0,268	-0,107
10,459	-8,720	-0,247	-0,116
11,473	24,418	-0,185	-0,107
12,488	84,821	-0,197	-0,152
13,502	38,569	-0,402	-0,252
14,517	-51,777	-0,312	-0,102
15,531	101,922	-0,311	-0,256
16,546	49,994	-0,268	-0,178
17,561	211,084	-0,296	-0,328
18,575	-119,023	-0,209	0,026
19,590	193,095	-0,227	-0,242
20,604	128,176	-0,208	-0,186
21,619	7,415	-0,520	-0,273
22,634	125,853	-0,361	-0,321
23,648	139,750	-0,391	-0,363
24,663	174,691	-0,246	-0,251
25,677	71,263	-0,308	-0,225
26,692	113,136	-0,363	-0,310
27,707	-24,631	-0,485	-0,202
28,721	100,304	-0,276	-0,226
29,736	66,069	-0,375	-0,267
30,750	88,799	-0,466	-0,364
31,765	68,249	-0,387	-0,278
32,780	47,309	-0,403	-0,263
33,794	169,998	-0,336	-0,339
34,809	-22,384	-0,408	-0,173
35,823	35,103	-0,425	-0,262
36,838	77,613	-0,398	-0,298
37,853	800,000	-0,158	-0,389
38,867	158,888	-0,327	-0,320
39,882	105,056	-0,329	-0,273
40,896	211,345	-0,268	-0,297
41,911	264,768	-0,282	-0,346
42,926	148,887	-0,289	-0,275
43,940	-15,149	-0,433	-0,194
44,955	44,178	-0,425	-0,274
45,969	110,152	-0,343	-0,290
46,984	76,315	-0,412	-0,306
47,999	-3,686	-0,339	-0,165
49,013	32,714	-0,370	-0,224
50,028	65,295	-0,310	-0,220
51,042	42,529	-0,217	-0,138
52,057	65,458	-0,322	-0,229
53,071	227,926	-0,341	-0,391
54,086	122,423	-0,220	-0,193
55,101	57,062	-0,307	-0,210
56,115	20,376	-0,416	-0,235
57,130	31,979	-0,374	-0,226
58,144	-31,388	-0,451	-0,177
59,159	-0,543	-0,369	-0,184
60,174	13,117	-0,408	-0,221
61,188	-142,591	-0,508	-0,034
62,203	-40,555	-0,419	-0,152
63,217	125,928	-0,186	-0,165
64,232	-11,058	-0,404	-0,186
65,247	215,272	-0,262	-0,292
66,261	67,075	-0,341	-0,243
67,276	-29,987	-0,442	-0,176
68,290	86,617	-0,260	-0,201
69,305	46,213	-0,323	-0,209
70,320	-132,556	-0,377	0,034
71,334	-3,531	-0,368	-0,179
72,349	30,796	-0,335	-0,200
73,363	-24,936	-0,489	-0,203
74,378	-34,816	-0,404	-0,154
75,393	-60,746	-0,280	-0,083
76,407	136,411	-0,232	-0,212
77,422	-14,133	-0,381	-0,172
78,436	-13,220	-0,399	-0,181
79,451	101,610	-0,245	-0,200
80,466	3,114	-0,346	-0,176
81,480	-47,749	-0,482	-0,163
82,495	-10,331	-0,394	-0,182
83,509	259,119	-0,179	-0,216
84,524	196,250	-0,187	-0,199
85,539	37,583	-0,317	-0,197
86,553	-64,018	-0,300	-0,085
87,568	100,540	-0,235	-0,191
88,582	-0,870	-0,335	-0,166
89,597	133,907	-0,214	-0,194
90,611	81,973	-0,203	-0,154
91,626	-77,452	-0,298	-0,072
92,641	-45,388	-0,320	-0,111
93,655	72,358	-0,261	-0,190
94,670	55,460	-0,297	-0,201
95,684	190,828	-0,329	-0,347
96,699	152,525	-0,174	-0,166
97,714	56,640	-0,270	-0,183
98,728	223,468	-0,212	-0,240
99,743	2,954	-0,163	-0,083
100,757	140,520	-0,204	-0,188
101,772	-72,920	-0,353	-0,090
102,787	-162,078	-0,352	0,012
103,801	680,436	-0,182	-0,333
104,816	42,643	-0,307	-0,195
105,830	176,070	-0,109	-0,111
106,845	84,345	-0,192	-0,146
107,860	28,349	-0,288	-0,169
108,874	277,130	-0,144	-0,180
109,889	226,213	-0,241	-0,274
110,903	23,817	-0,210	-0,121
111,918	46,277	-0,293	-0,189
112,933	300,331	-0,191	-0,246
113,947	76,040	-0,310	-0,229
114,962	114,070	-0,171	-0,145
115,976	88,884	-0,235	-0,183
116,991	225,180	-0,219	-0,248
118,006	140,303	-0,257	-0,237
119,020	-25,515	-0,215	-0,088
120,035	-6,482	-0,261	-0,124
121,049	-153,764	-0,180	-0,008
122,064	468,003	-0,162	-0,254
123,079	-58,476	-0,218	-0,066
124,093	43,054	-0,349	-0,222
125,108	-22,056	-0,339	-0,143
126,122	108,236	-0,198	-0,165
127,137	-164,575	-0,207	-0,006
128,151	101,709	-0,265	-0,215
129,166	35,852	-0,150	-0,092
130,181	84,535	-0,276	-0,210
131,195	203,168	-0,186	-0,200
132,210	174,513	-0,275	-0,278
133,224	-4,468	-0,257	-0,123
134,239	-12,076	-0,194	-0,088
135,254	355,599	-0,253	-0,352
136,268	145,663	-0,191	-0,179
137,283	-15,513	-0,259	-0,115
138,297	15,619	-0,244	-0,133
139,312	-31,804	-0,250	-0,097
140,327	-49,847	-0,201	-0,066
141,341	-41,259	-0,279	-0,100
142,356	59,126	-0,223	-0,153
143,370	58,418	-0,192	-0,131
144,385	50,698	-0,268	-0,177
145,400	62,148	-0,393	-0,273
146,414	4,201	-0,334	-0,170
147,429	43,845	-0,286	-0,182
148,443	-154,828	-0,261	-0,012
149,458	74,294	-0,185	-0,135
150,473	94,170	-0,191	-0,151
151,487	-30,065	-0,308	-0,121
152,502	-96,726	-0,288	-0,052
153,516	-11,305	-0,279	-0,128
154,531	49,367	-0,246	-0,161
155,546	157,133	-0,239	-0,231
156,560	47,255	-0,325	-0,210
157,575	59,402	-0,179	-0,123
158,589	95,700	-0,274	-0,218
159,604	326,972	-0,152	-0,204
160,619	243,795	-0,269	-0,315
161,633	140,301	-0,294	-0,270
162,648	293,370	-0,239	-0,305
163,662	43,241	-0,245	-0,156
164,677	-88,116	-0,245	-0,051
165,692	68,140	-0,126	-0,090
166,706	-71,735	-0,383	-0,099
167,721	-16,284	-0,356	-0,157
168,735	70,208	-0,226	-0,162
169,750	70,428	-0,196	-0,141
170,764	24,977	-0,413	-0,238
171,779	-104,822	-0,262	-0,042
172,794	8,838	-0,226	-0,118
173,808	-42,856	-0,354	-0,124
174,823	25,909	-0,219	-0,126
175,837	-9,746	-0,381	-0,176
176,852	-2,205	-0,127	-0,062
177,867	-54,290	-0,290	-0,091
178,881	-65,194	-0,148	-0,041
179,896	724,292	-0,100	-0,185
180,910	34,376	-0,313	-0,189
181,925	-6,066	-0,280	-0,133
182,940	153,729	-0,161	-0,153
183,954	511,510	-0,103	-0,167
184,969	15,036	-0,254	-0,138
185,983	-81,077	-0,159	0,036
186,998	60,613	-0,177	-0,121
188,013	417,612	-0,058	-0,086
189,027	-77,191	-0,283	-0,068
190,042	-48,049	-0,321	-0,107
191,056	-105,678	-0,140	-0,022
192,071	170,290	-0,233	-0,231
193,086	116,636	-0,140	-0,119
194,100	95,555	-0,147	-0,116
195,115	181,463	-0,115	-0,117
196,129	-33,498	-0,236	-0,090
197,144	188,079	-0,298	-0,309
198,159	106,909	-0,279	-0,229
199,173	-162,240	-0,227	-0,008
200,188	-12,383	-0,263	-0,119
201,202	800,000	-0,051	-0,104
202,217	-200,000	-0,001	-0,074
203,232	186,300	-0,112	-0,116
204,246	84,953	-0,212	-0,161
205,261	97,837	-0,247	-0,197
206,275	593,141	-0,170	-0,292
207,290	173,640	-0,130	-0,130
208,304	244,696	-0,085	-0,099
209,319	151,093	-0,092	-0,087
210,334	80,398	-0,207	-0,154
211,348	161,492	-0,169	-0,164
212,363	-99,272	-0,155	-0,027
213,377	-121,635	-0,177	-0,020
214,392	569,867	-0,107	-0,182
215,407	54,449	-0,090	0,060
216,421	14,722	-0,209	-0,113
217,436	109,868	-0,225	-0,187
218,450	491,404	-0,133	-0,212
219,465	-60,472	-0,214	-0,063
220,480	328,252	-0,120	-0,160
221,494	283,423	-0,174	-0,217
222,509	168,282	-0,206	-0,203
223,523	69,962	-0,166	-0,118
224,538	116,990	-0,124	-0,105
225,553	-44,335	-0,139	-0,048
226,567	-190,196	-0,253	-0,002
227,582	210,890	-0,111	-0,121
228,596	458,114	-0,098	-0,151
229,611	2,541	-0,090	0,045
230,626	-59,030	-0,198	-0,059
231,640	-58,032	-0,225	-0,067
232,655	456,578	-0,145	-0,224
233,669	243,011	-0,167	-0,194
234,684	-26,617	-0,263	-0,106
235,699	-200,000	-0,044	-0,180
236,713	637,182	-0,140	-0,246
237,728	-200,000	-0,056	-0,284
238,742	69,771	-0,101	-0,072
239,757	403,601	-0,147	-0,214
240,772	330,636	-0,141	-0,188
241,786	227,610	-0,162	-0,183
242,801	32,965	-0,233	-0,139
243,815	5,649	-0,035	0,018
244,830	11,561	-0,195	-0,103
245,844	0,854	-0,173	-0,085
246,859	-162,126	-0,180	0,006
247,874	567,365	-0,116	-0,195
248,888	-28,672	-0,277	-0,110
249,903	104,238	-0,259	-0,210
250,917	40,905	-0,218	-0,136
251,932	-3,043	-0,268	-0,129
252,947	26,546	-0,157	-0,091
253,961	25,742	-0,303	-0,174
254,976	560,980	-0,104	-0,175
255,990	120,799	-0,128	-0,110
257,005	-30,801	-0,193	-0,075
258,020	118,155	-0,092	-0,079
259,034	427,633	-0,109	-0,162
260,049	62,737	-0,137	-0,094
261,063	-23,243	-0,329	-0,136
262,078	162,444	-0,103	-0,099
263,093	45,993	-0,178	-0,113
264,107	609,650	-0,079	-0,136
265,122	19,475	-0,117	-0,064
266,136	-148,975	-0,177	-0,010
267,151	800,000	-0,071	-0,165
268,166	800,000	-0,038	-0,077
269,180	95,658	-0,204	-0,160
270,195	-75,061	-0,267	-0,065
271,209	578,347	-0,097	-0,164
272,224	-34,640	-0,131	0,049
273,239	-131,066	-0,106	0,010
274,253	-63,996	-0,184	-0,051
275,268	-105,673	-0,161	0,025
276,282	-84,565	-0,125	-0,027
277,297	800,000	-0,056	-0,165
278,312	80,809	-0,300	-0,223
279,326	386,121	-0,142	-0,203
280,341	25,187	-0,096	-0,055
281,355	800,000	-0,106	-0,238
282,370	105,686	-0,052	0,042
283,384	288,169	-0,116	-0,145
284,399	159,458	-0,135	-0,129
285,414	532,076	-0,108	-0,176
286,428	441,345	-0,050	-0,075
287,443	16,307	-0,140	-0,076
288,457	28,015	-0,077	-0,045
289,472	169,880	-0,152	-0,149
290,487	-200,000	-0,068	-0,211
291,501	168,786	-0,182	-0,179
292,516	24,197	-0,194	-0,110
293,530	-6,877	-0,181	-0,084
294,545	237,089	-0,109	-0,125
295,560	330,123	-0,168	-0,224
296,574	369,511	-0,095	-0,132
297,589	-124,510	-0,144	0,015
298,603	18,703	-0,132	-0,072
299,618	165,703	-0,124	-0,121
300,633	-200,000	0,019	-0,159
301,647	-148,409	-0,132	0,007
302,662	-86,316	-0,277	-0,058
303,676	45,253	-0,169	-0,107
304,691	-41,853	-0,066	-0,023
305,706	66,719	-0,118	-0,082
306,720	800,000	-0,054	-0,126
307,735	226,783	-0,162	-0,181
308,749	-198,072	-0,070	0,000
309,764	-122,418	-0,132	-0,015
310,779	233,778	0,003	0,004
311,793	334,127	-0,119	-0,159
312,808	-147,200	-0,246	-0,014
313,822	136,550	-0,068	-0,061
314,837	174,678	-0,059	-0,058
315,852	-151,376	-0,248	-0,012
316,866	-200,000	-0,018	-0,142
317,881	800,000	-0,053	0,129
318,895	-107,173	-0,122	-0,018
319,910	99,488	-0,232	-0,184
320,925	53,350	-0,137	-0,090
321,939	-37,875	-0,109	-0,039
322,954	222,351	-0,112	-0,124
323,968	114,453	-0,206	0,172
324,983	-72,249	-0,090	0,023
325,997	-200,000	-0,030	-0,181
327,012	135,629	-0,154	-0,137
328,027	374,222	-0,165	-0,230
329,041	-200,000	-0,001	-0,087
330,056	800,000	-0,063	-0,170
331,070	43,638	-0,079	0,050
332,085	-49,095	-0,164	-0,054
333,100	348,684	-0,179	-0,242
334,114	-88,160	-0,180	-0,037
335,129	-112,350	-0,202	-0,027
336,143	-117,188	-0,170	0,021
337,158	-200,000	-0,011	-0,045
338,173	0,122	-0,133	0,065
339,187	-200,000	-0,066	-0,258
340,202	59,261	-0,207	-0,140
341,216	91,437	-0,149	-0,115
342,231	-200,000	-0,036	-0,164
343,246	97,892	-0,165	-0,130
344,260	800,000	-0,071	-0,138
345,275	800,000	-0,059	-0,175
346,289	-107,269	-0,176	0,026
347,304	-46,277	-0,099	-0,033
348,319	167,689	-0,075	-0,073
349,333	-96,419	-0,122	-0,022
350,348	-97,174	-0,132	-0,023
351,362	219,652	-0,180	-0,198
352,377	-106,920	-0,128	-0,019
353,392	170,816	-0,024	0,023
354,406	-172,500	-0,283	0,006
355,421	207,650	1310,880	1401,691
356,435	159,744	1471,135	1402,182
