DTS Sentinel unit serial number:	SN410029Multiplexer serial number:	ORYXHardware model number:	OX2-SRSoftware version number:	ORYX F/W v4,00 Oryx Data Collector v3.7.2.0data status	okinstallation	B3 Nyhavnadifferential loss correction	single-endedforward channel	channel 1reverse channel	N/Adate	2023/12/05time	08:37:30forward acquisition time	300,00reverse acquisition time	0,00gamma	499,1914k internal	0,3190k external	0,3190temperature offset calibration	1,0000default loss term (dB/km)	0,3820temperature slope calibration	1,0000multiplexer offset coefficient	1,0000multiplexer slope coefficient	1,0000fibre end	0,00T internal ref (°C)	12,87T ext. ref 1 (°C)	-3,07T ext. ref 2 (°C)	-3,31length (m)	temperature (°C)	Stokes	anti-Stokes-744,400	800,000	-0,040	-0,100
-743,385	-200,000	-0,026	0,261
-742,371	800,000	-0,029	-0,069
-741,356	-200,000	-0,057	0,285
-740,342	567,752	0,082	-0,145
-739,327	278,684	-0,205	0,267
-738,312	147,707	-0,153	-0,151
-737,298	-200,000	-0,048	0,195
-736,283	297,377	-0,084	-0,113
-735,269	261,870	-0,109	0,139
-734,254	800,000	-0,055	-0,119
-733,239	79,655	-0,187	-0,147
-732,225	-29,377	0,066	-0,027
-731,210	397,380	-0,097	0,149
-730,196	-200,000	0,007	-0,068
-729,181	-18,426	0,058	0,026
-728,167	148,803	-0,064	-0,063
-727,152	-200,000	0,001	-0,047
-726,137	35,858	-0,125	-0,080
-725,123	-36,806	-0,082	-0,032
-724,108	800,000	-0,036	0,096
-723,094	-145,250	-0,095	-0,006
-722,079	-200,000	-0,003	-0,087
-721,064	-115,710	-0,135	-0,018
-720,050	-173,651	0,051	-0,001
-719,035	800,000	0,014	-0,033
-718,021	-200,000	-0,007	-0,141
-717,006	-75,132	-0,117	-0,030
-715,991	-200,000	-0,043	-0,152
-714,977	-200,000	0,001	-0,107
-713,962	-180,658	-0,104	0,002
-712,948	-94,584	0,182	-0,036
-711,933	239,360	-0,080	0,098
-710,918	-200,000	-0,024	0,094
-709,904	800,000	-0,023	-0,058
-708,889	-155,759	-0,022	-0,001
-707,875	43,974	-0,019	-0,013
-706,860	-39,505	-0,080	-0,030
-705,845	800,000	-0,025	-0,071
-704,831	-152,223	0,159	0,008
-703,816	-200,000	0,000	0,041
-702,802	-200,000	0,024	-0,150
-701,787	58,556	-0,182	-0,130
-700,772	-200,000	0,017	0,059
-699,758	-70,872	0,069	-0,019
-698,743	373,428	0,043	0,064
-697,729	89,130	0,128	0,104
-696,714	-146,997	-0,094	-0,006
-695,699	800,000	0,031	0,064
-694,685	-112,900	-0,088	0,013
-693,670	-137,730	0,040	0,003
-692,656	-47,692	-0,051	-0,018
-691,641	800,000	-0,006	0,012
-690,627	117,479	-0,027	0,024
-689,612	3,654	0,118	0,063
-688,597	158,051	-0,028	0,028
-687,583	25,780	0,071	-0,043
-686,568	149,782	0,057	-0,057
-685,554	423,314	-0,050	-0,079
-684,539	106,937	0,008	0,007
-683,524	412,138	0,073	-0,113
-682,510	219,653	-0,067	0,078
-681,495	-200,000	0,013	-0,103
-680,481	307,734	-0,132	-0,179
-679,466	-200,000	-0,019	-0,166
-678,451	-64,097	-0,069	-0,020
-677,437	-107,685	0,102	-0,016
-676,422	677,125	-0,097	-0,184
-675,408	111,664	0,127	-0,111
-674,393	226,525	-0,081	0,095
-673,378	46,884	-0,158	-0,107
-672,364	-109,145	0,132	0,020
-671,349	-192,326	-0,064	0,000
-670,335	96,393	0,118	-0,098
-669,320	-39,832	-0,073	-0,028
-668,305	-83,604	0,103	0,024
-667,291	785,900	-0,042	-0,084
-666,276	-136,028	0,048	-0,004
-665,262	-200,000	-0,028	-0,110
-664,247	-51,627	0,056	-0,019
-663,232	-12,655	-0,047	-0,022
-662,218	485,309	0,055	0,091
-661,203	63,823	0,098	-0,072
-660,189	-69,845	0,019	-0,005
-659,174	-34,968	-0,105	-0,042
-658,159	58,831	0,050	-0,035
-657,145	800,000	-0,088	-0,190
-656,130	-200,000	-0,004	-0,088
-655,116	-92,269	-0,065	0,013
-654,101	101,329	0,116	0,098
-653,086	302,596	0,083	0,112
-652,072	382,363	-0,053	-0,080
-651,057	61,936	-0,028	-0,020
-650,043	152,892	-0,070	-0,070
-649,028	-200,000	0,017	-0,062
-648,014	109,369	-0,035	-0,031
-646,999	113,636	0,111	-0,098
-645,984	578,014	0,073	-0,131
-644,970	234,087	-0,019	0,023
-643,955	-200,000	0,002	-0,063
-642,941	-102,178	0,092	0,016
-641,926	-152,457	-0,069	0,004
-640,911	-200,000	-0,012	0,040
-639,897	-200,000	-0,001	-0,020
-638,882	800,000	-0,034	-0,098
-637,868	-68,406	-0,122	-0,034
-636,853	-200,000	-0,011	0,170
-635,838	800,000	0,007	-0,022
-634,824	-200,000	-0,009	-0,117
-633,809	800,000	-0,058	0,125
-632,795	80,634	0,081	0,063
-631,780	-200,000	-0,014	0,089
-630,765	-104,450	0,066	0,011
-629,751	-200,000	0,012	-0,125
-628,736	27,441	-0,096	0,058
-627,722	353,835	0,038	-0,055
-626,707	-27,364	-0,167	0,070
-625,692	327,563	0,005	0,007
-624,678	188,028	0,028	0,030
-623,663	83,462	0,046	0,037
-622,649	-96,523	0,080	0,015
-621,634	-70,305	-0,056	0,015
-620,619	-140,777	-0,174	-0,013
-619,605	800,000	0,023	-0,060
-618,590	-67,540	-0,086	-0,024
-617,576	-117,136	0,079	0,010
-616,561	295,742	-0,020	-0,027
-615,546	800,000	-0,108	-0,225
-614,532	-58,799	-0,123	0,038
-613,517	800,000	-0,011	0,031
-612,503	800,000	0,003	0,009
-611,488	279,281	-0,060	-0,078
-610,474	59,532	-0,049	0,035
-609,459	452,542	0,066	0,106
-608,444	-200,000	0,004	-0,159
-607,430	-200,000	-0,035	-0,191
-606,415	-200,000	-0,011	-0,082
-605,401	800,000	-0,024	0,058
-604,386	6,872	0,001	0,001
-603,371	35,605	0,102	0,065
-602,357	-91,289	-0,018	0,004
-601,342	641,853	-0,002	0,003
-600,328	120,910	-0,057	-0,051
-599,313	342,968	0,007	0,010
-598,298	-200,000	-0,004	-0,045
-597,284	-24,908	0,046	-0,020
-596,269	800,000	-0,023	-0,064
-595,255	-32,855	-0,059	-0,023
-594,240	51,251	0,140	-0,096
-593,225	-48,240	-0,055	-0,019
-592,211	-48,069	-0,042	-0,015
-591,196	104,774	0,062	0,053
-590,182	-140,225	0,089	-0,007
-589,167	27,039	0,063	-0,038
-588,152	800,000	-0,057	0,144
-587,138	-133,612	0,109	0,010
-586,123	-200,000	-0,004	0,061
-585,109	34,575	0,035	-0,022
-584,094	-27,591	0,046	-0,019
-583,079	43,727	-0,144	-0,096
-582,065	87,940	0,051	0,041
-581,050	31,429	-0,122	-0,076
-580,036	800,000	-0,028	0,082
-579,021	395,047	0,068	0,104
-578,006	-94,341	0,063	-0,012
-576,992	34,259	-0,159	-0,100
-575,977	639,955	-0,017	0,031
-574,963	-134,898	-0,043	-0,004
-573,948	-200,000	-0,018	-0,075
-572,934	109,473	-0,041	0,036
-571,919	24,433	-0,148	-0,088
-570,904	286,815	0,059	0,077
-569,890	-127,387	-0,071	0,007
-568,875	-164,607	-0,092	-0,003
-567,861	130,195	-0,044	-0,040
-566,846	58,541	0,073	-0,052
-565,831	-49,037	0,075	-0,026
-564,817	129,342	0,081	-0,075
-563,802	-168,187	-0,141	-0,004
-562,788	-200,000	0,019	-0,152
-561,773	-38,372	0,158	-0,060
-560,758	-166,832	0,098	-0,003
-559,744	253,907	-0,047	0,058
-558,729	-200,000	0,004	-0,017
-557,715	-200,000	-0,020	-0,074
-556,700	529,188	-0,042	-0,072
-555,685	5,649	-0,083	0,044
-554,671	149,635	-0,122	0,120
-553,656	-62,999	0,053	0,016
-552,642	-97,252	-0,039	0,007
-551,627	254,305	-0,095	0,118
-550,612	800,000	0,010	-0,029
-549,598	-36,561	-0,053	0,021
-548,583	766,255	0,057	-0,113
-547,569	-200,000	-0,004	-0,036
-546,554	-25,345	0,053	-0,023
-545,539	-95,532	0,158	-0,030
-544,525	131,904	0,015	0,014
-543,510	-13,430	-0,055	-0,026
-542,496	-200,000	-0,037	-0,153
-541,481	-200,000	0,003	-0,091
-540,466	-12,306	-0,102	0,048
-539,452	326,138	0,005	-0,007
-538,437	52,759	0,048	0,033
-537,423	365,966	0,031	-0,045
-536,408	526,575	-0,041	0,069
-535,393	800,000	-0,019	0,056
-534,379	-7,545	-0,107	-0,052
-533,364	-170,583	-0,088	-0,002
-532,350	162,014	0,136	0,138
-531,335	212,529	-0,114	0,130
-530,321	-200,000	-0,015	0,063
-529,306	-200,000	0,008	-0,055
-528,291	-46,969	0,054	-0,019
-527,277	337,115	-0,063	-0,089
-526,262	700,923	0,008	0,016
-525,248	-200,000	0,003	-0,138
-524,233	695,955	0,074	0,141
-523,218	-200,000	0,027	0,115
-522,204	-200,000	-0,000	0,029
-521,189	800,000	0,036	0,103
-520,175	2,961	-0,116	-0,061
-519,160	-186,354	-0,064	-0,001
-518,145	246,379	0,048	-0,059
-517,131	167,218	-0,050	-0,052
-516,116	163,779	0,107	0,109
-515,102	-138,982	-0,166	-0,013
-514,087	800,000	0,046	0,143
-513,072	756,402	0,032	0,062
-512,058	206,152	-0,068	-0,076
-511,043	-200,000	-0,003	-0,135
-510,029	588,707	0,037	0,065
-509,014	-13,072	-0,039	-0,018
-507,999	800,000	-0,025	-0,061
-506,985	53,283	0,063	-0,044
-505,970	-25,604	-0,075	0,032
-504,956	-200,000	0,003	-0,107
-503,941	27,371	0,034	-0,021
-502,926	763,480	0,061	0,121
-501,912	800,000	-0,030	0,095
-500,897	73,620	0,075	0,057
-499,883	-46,682	0,062	-0,022
-498,868	183,889	-0,122	-0,131
-497,853	22,238	-0,032	-0,019
-496,839	-200,000	0,003	-0,041
-495,824	-105,564	-0,068	0,011
-494,810	264,786	0,076	0,096
-493,795	-200,000	-0,016	0,188
-492,781	155,341	-0,045	-0,045
-491,766	524,858	-0,067	-0,115
-490,751	-39,846	-0,148	-0,056
-489,737	800,000	-0,041	0,131
-488,722	93,430	0,025	-0,021
-487,708	-135,797	0,103	-0,009
-486,693	-128,596	-0,126	0,013
-485,678	-47,681	0,061	0,021
-484,664	-200,000	-0,004	0,197
-483,649	156,824	-0,134	-0,134
-482,635	368,850	-0,047	-0,069
-481,620	-200,000	-0,012	0,047
-480,605	-200,000	0,027	0,090
-479,591	62,291	0,151	0,109
-478,576	123,350	-0,065	0,059
-477,562	-200,000	0,001	0,068
-476,547	-200,000	0,022	0,129
-475,532	-25,383	-0,071	0,030
-474,518	-65,189	0,133	-0,039
-473,503	-103,819	0,155	-0,026
-472,489	40,668	-0,118	-0,077
-471,474	-200,000	0,021	-0,116
-470,459	800,000	-0,050	-0,134
-469,445	-200,000	-0,031	-0,172
-468,430	-70,279	0,077	-0,021
-467,416	136,353	0,055	-0,052
-466,401	268,927	0,083	0,105
-465,386	800,000	0,023	-0,051
-464,372	800,000	0,020	-0,054
-463,357	290,932	0,031	0,041
-462,343	-119,108	0,038	-0,005
-461,328	19,583	0,020	-0,011
-460,313	-150,160	0,196	0,011
-459,299	-200,000	0,021	-0,159
-458,284	-64,114	0,139	-0,041
-457,270	-200,000	0,012	0,063
-456,255	7,647	-0,055	-0,029
-455,241	-119,625	0,054	-0,007
-454,226	5,692	0,128	-0,068
-453,211	-200,000	-0,023	0,118
-452,197	-200,000	-0,000	-0,009
-451,182	60,799	-0,048	0,034
-450,168	-200,000	-0,003	0,049
-449,153	-23,856	-0,111	-0,048
-448,138	-114,434	-0,110	-0,015
-447,124	-100,994	-0,089	-0,016
-446,109	800,000	0,028	0,071
-445,095	620,928	-0,025	0,046
-444,080	800,000	0,052	0,119
-443,065	68,546	0,058	0,043
-442,051	442,386	-0,069	0,110
-441,036	-73,747	-0,167	-0,044
-440,022	-200,000	-0,055	-0,182
-439,007	-43,387	0,095	-0,034
-437,992	-122,458	0,027	0,003
-436,978	-73,251	0,023	0,006
-435,963	800,000	0,031	0,084
-434,949	167,652	-0,036	0,037
-433,934	-60,486	-0,180	-0,055
-432,919	27,656	-0,025	-0,015
-431,905	-200,000	0,031	-0,115
-430,890	47,899	0,059	-0,040
-429,876	-66,678	0,015	0,004
-428,861	-200,000	0,016	0,059
-427,846	-200,000	-0,010	-0,066
-426,832	-200,000	-0,007	0,112
-425,817	4,334	-0,032	0,017
-424,803	224,407	-0,033	-0,039
-423,788	800,000	0,046	0,126
-422,773	800,000	0,049	0,137
-421,759	-200,000	0,031	0,139
-420,744	-200,000	-0,011	0,172
-419,730	-152,029	0,063	0,003
-418,715	-200,000	-0,013	-0,049
-417,701	307,975	0,080	-0,108
-416,686	-46,005	0,112	-0,040
-415,671	-200,000	0,008	0,037
-414,657	-200,000	0,008	0,074
-413,642	101,916	-0,109	0,092
-412,628	450,889	0,010	0,015
-411,613	324,911	-0,120	-0,165
-410,598	404,446	-0,056	-0,085
-409,584	-59,474	0,123	0,038
-408,569	-30,125	-0,045	0,018
-407,555	-9,792	0,162	-0,078
-406,540	-52,823	-0,144	-0,047
-405,525	21,120	0,104	-0,060
-404,511	-200,000	0,001	-0,038
-403,496	-200,000	0,036	0,123
-402,482	-127,002	0,128	0,013
-401,467	-0,769	0,057	0,029
-400,452	-200,000	0,005	0,041
-399,438	223,551	-0,042	-0,048
-398,423	-200,000	0,003	-0,022
-397,409	800,000	0,071	-0,143
-396,394	-91,312	0,104	-0,021
-395,379	-200,000	-0,010	-0,050
-394,365	354,840	-0,038	-0,055
-393,350	391,140	0,047	0,070
-392,336	-9,347	0,028	0,013
-391,321	-93,697	0,169	0,033
-390,306	126,549	-0,060	0,055
-389,292	800,000	0,034	0,070
-388,277	-32,823	0,045	-0,018
-387,263	791,500	-0,037	0,074
-386,248	-105,275	0,079	0,013
-385,233	800,000	0,015	0,043
-384,219	52,965	-0,023	-0,016
-383,204	-9,903	-0,080	0,038
-382,190	7,582	0,088	0,047
-381,175	-133,006	-0,108	0,010
-380,160	-200,000	-0,014	0,066
-379,146	30,332	0,069	0,042
-378,131	103,299	0,065	-0,055
-377,117	-81,665	-0,113	0,027
-376,102	800,000	-0,080	-0,163
-375,088	-200,000	0,017	-0,073
-374,073	800,000	-0,038	-0,088
-373,058	33,627	-0,062	-0,039
-372,044	800,000	0,101	0,212
-371,029	549,934	0,051	-0,089
-370,015	35,644	-0,115	-0,073
-369,000	800,000	0,038	-0,101
-367,985	800,000	-0,026	-0,077
-366,971	265,116	-0,022	-0,028
-365,956	278,300	0,067	0,086
-364,942	-200,000	-0,018	-0,093
-363,927	534,852	0,031	0,053
-362,912	800,000	0,003	0,006
-361,898	225,133	-0,033	0,039
-360,883	-150,061	0,035	0,002
-359,869	53,113	0,048	-0,033
-358,854	-200,000	-0,029	0,103
-357,839	-200,000	0,009	0,035
-356,825	-53,479	0,029	0,009
-355,810	74,649	0,078	-0,059
-354,796	63,159	-0,090	-0,065
-353,781	-200,000	0,013	-0,171
-352,766	800,000	0,018	0,050
-351,752	-200,000	-0,011	0,071
-350,737	-200,000	0,030	0,151
-349,723	-22,278	0,157	0,068
-348,708	-1,218	-0,018	-0,009
-347,693	-170,425	0,006	-0,000
-346,679	-82,879	-0,082	0,019
-345,664	800,000	-0,047	-0,114
-344,650	-85,662	0,080	0,018
-343,635	92,957	0,099	0,081
-342,620	-200,000	0,016	0,070
-341,606	-73,112	0,091	-0,024
-340,591	-68,026	-0,088	-0,025
-339,577	47,243	-0,085	-0,057
-338,562	-62,548	0,067	-0,020
-337,548	-157,647	-0,145	0,006
-336,533	-78,367	0,141	0,034
-335,518	-62,235	0,143	-0,042
-334,504	19,245	0,086	0,049
-333,489	-22,322	0,032	-0,014
-332,475	-200,000	0,006	-0,058
-331,460	-200,000	-0,148	0,000
-330,445	800,000	-0,015	-0,039
-329,431	43,567	-0,087	0,057
-328,416	102,082	0,122	0,102
-327,402	-57,631	-0,093	0,029
-326,387	50,221	0,087	0,059
-325,372	-200,000	0,003	0,095
-324,358	52,058	0,038	-0,026
-323,343	800,000	-0,007	0,023
-322,329	800,000	0,022	0,065
-321,314	252,556	-0,088	-0,108
-320,299	-44,647	0,014	0,005
-319,285	-150,352	0,043	-0,002
-318,270	-200,000	-0,013	0,077
-317,256	-137,082	-0,103	-0,008
-316,241	114,785	-0,079	-0,070
-315,226	108,116	0,041	0,035
-314,212	-157,939	-0,036	-0,002
-313,197	-200,000	0,015	0,121
-312,183	71,907	-0,061	-0,046
-311,168	-200,000	0,005	0,131
-310,153	800,000	0,053	-0,148
-309,139	9,604	-0,158	-0,086
-308,124	-200,000	-0,015	0,060
-307,110	-115,126	0,057	0,008
-306,095	-200,000	0,003	0,091
-305,080	800,000	0,041	0,096
-304,066	285,377	-0,048	-0,062
-303,051	220,988	0,043	0,049
-302,037	-124,772	0,172	-0,019
-301,022	-98,183	-0,061	-0,011
-300,008	-113,665	0,133	0,018
-298,993	-36,620	-0,027	-0,011
-297,978	63,572	-0,042	0,030
-296,964	-7,132	-0,091	0,044
-295,949	-200,000	0,024	-0,112
-294,935	-8,062	-0,070	0,034
-293,920	-122,753	-0,097	0,011
-292,905	289,362	0,054	-0,070
-291,891	-45,244	-0,064	-0,023
-290,876	138,671	0,059	-0,055
-289,862	102,618	-0,088	0,073
-288,847	55,967	-0,173	0,120
-287,832	195,861	0,028	0,031
-286,818	463,628	-0,126	0,203
-285,803	-120,310	0,073	0,009
-284,789	-200,000	0,006	0,068
-283,774	212,664	-0,090	-0,102
-282,759	-200,000	0,014	-0,134
-281,745	-200,000	0,025	-0,127
-280,730	-200,000	0,052	-0,197
-279,716	-200,000	0,004	-0,024
-278,701	800,000	-0,018	0,057
-277,686	37,556	0,026	0,016
-276,672	-200,000	0,014	0,105
-275,657	-1,356	-0,078	0,039
-274,643	75,406	0,002	-0,002
-273,628	-22,219	-0,044	0,019
-272,613	724,158	0,041	-0,080
-271,599	-164,691	0,078	-0,002
-270,584	-46,047	-0,097	0,034
-269,570	275,806	-0,027	0,034
-268,555	-200,000	0,010	-0,059
-267,540	748,293	-0,038	0,074
-266,526	-200,000	0,012	-0,077
-265,511	612,361	-0,100	-0,180
-264,497	-200,000	0,015	0,116
-263,482	-200,000	0,004	0,048
-262,467	398,857	0,025	0,037
-261,453	-200,000	-0,026	0,114
-260,438	133,657	0,055	0,051
-259,424	410,696	-0,092	-0,140
-258,409	174,203	0,059	0,061
-257,395	-60,836	0,077	0,023
-256,380	104,765	0,084	0,071
-255,365	377,249	-0,097	0,143
-254,351	-200,000	0,005	-0,123
-253,336	370,829	-0,093	-0,136
-252,322	-200,000	-0,017	0,059
-251,307	-200,000	-0,032	-0,141
-250,292	-200,000	0,018	0,066
-249,278	-165,255	0,087	-0,003
-248,263	85,817	0,065	-0,051
-247,249	-200,000	-0,037	0,166
-246,234	258,694	-0,089	-0,109
-245,219	87,686	-0,077	-0,061
-244,205	-200,000	-0,023	-0,181
-243,190	636,315	0,024	-0,044
-242,176	-200,000	-0,018	-0,060
-241,161	52,650	0,102	0,070
-240,146	-200,000	-0,008	-0,030
-239,132	-25,546	-0,073	0,031
-238,117	-200,000	-0,015	-0,058
-237,103	118,063	0,150	-0,132
-236,088	669,755	-0,030	0,056
-235,073	274,221	0,056	0,071
-234,059	-200,000	-0,012	0,083
-233,044	38,871	0,063	-0,040
-232,030	-66,444	0,063	-0,018
-231,015	-100,777	0,076	0,013
-230,000	-15,984	-0,138	-0,062
-228,986	534,391	-0,052	-0,089
-227,971	-60,858	0,079	-0,024
-226,957	-200,000	-0,008	0,040
-225,942	15,057	-0,128	-0,072
-224,927	800,000	-0,044	0,114
-223,913	23,188	-0,054	0,032
-222,898	-200,000	-0,004	-0,061
-221,884	790,871	-0,015	-0,029
-220,869	-200,000	0,018	0,139
-219,855	-169,093	0,036	0,001
-218,840	72,309	0,059	0,044
-217,825	-4,235	-0,095	-0,047
-216,811	-148,318	0,095	0,006
-215,796	-48,300	-0,074	-0,025
-214,782	-200,000	-0,014	0,231
-213,767	580,670	0,054	-0,094
-212,752	432,642	0,062	0,097
-211,738	-56,082	0,148	0,047
-210,723	-48,960	-0,112	-0,038
-209,709	-200,000	-0,013	-0,079
-208,694	-15,401	-0,087	-0,040
-207,679	-132,221	-0,041	-0,004
-206,665	-200,000	-0,008	-0,029
-205,650	-200,000	-0,029	0,103
-204,636	-44,338	0,170	0,060
-203,621	19,268	-0,067	0,039
-202,606	305,628	-0,044	0,058
-201,592	-80,110	-0,148	-0,035
-200,577	361,578	-0,061	-0,088
-199,563	531,232	-0,047	0,080
-198,548	78,554	-0,077	0,059
-197,533	-200,000	0,014	0,114
-196,519	397,160	-0,026	0,039
-195,504	64,477	0,036	0,026
-194,490	16,568	0,107	0,060
-193,475	-69,380	-0,140	-0,038
-192,460	-200,000	-0,012	-0,093
-191,446	-134,815	0,116	0,010
-190,431	6,297	0,054	-0,028
-189,417	137,192	0,186	0,173
-188,402	-200,000	-0,014	-0,113
-187,387	800,000	-0,016	0,036
-186,373	325,242	-0,069	0,094
-185,358	38,293	-0,074	0,047
-184,344	-200,000	0,024	-0,152
-183,329	-200,000	0,027	0,117
-182,315	159,909	-0,046	-0,046
-181,300	800,000	0,041	0,113
-180,285	171,196	0,070	0,072
-179,271	6,328	0,044	-0,023
-178,256	800,000	0,054	-0,135
-177,242	-200,000	0,039	-0,126
-176,227	-109,905	0,137	-0,020
-175,212	-172,741	0,028	0,001
-174,198	124,521	0,060	-0,054
-173,183	547,399	0,004	0,007
-172,169	-200,000	-0,018	0,094
-171,154	9,953	0,103	-0,056
-170,139	79,795	-0,077	0,059
-169,125	103,088	0,102	-0,086
-168,110	-82,718	-0,102	0,023
-167,096	-200,000	-0,003	-0,074
-166,081	348,075	0,062	-0,087
-165,066	81,748	0,100	0,077
-164,052	142,789	0,017	-0,016
-163,037	742,436	0,055	-0,107
-162,023	-33,212	-0,058	0,023
-161,008	24,614	0,128	-0,075
-159,993	169,779	-0,026	-0,027
-158,979	273,054	-0,039	-0,049
-157,964	12,884	-0,031	-0,017
-156,950	-200,000	0,023	0,077
-155,935	342,812	0,072	0,101
-154,920	278,271	0,071	0,090
-153,906	-200,000	0,023	0,163
-152,891	800,000	-0,020	0,058
-151,877	800,000	-0,022	-0,048
-150,862	226,786	-0,107	-0,124
-149,847	-73,614	-0,054	0,014
-148,833	8,085	0,040	-0,021
-147,818	-15,197	0,104	-0,047
-146,804	291,126	0,024	0,031
-145,789	-45,663	-0,056	0,020
-144,775	694,762	0,031	-0,058
-143,760	800,000	-0,102	-0,270
-142,745	-200,000	0,015	-0,120
-141,731	-200,000	-0,030	0,114
-140,716	-200,000	-0,021	0,121
-139,702	255,829	0,087	0,107
-138,687	191,927	-0,022	-0,024
-137,672	135,175	-0,054	-0,050
-136,658	-97,530	0,077	0,014
-135,643	81,051	0,016	-0,013
-134,629	800,000	-0,037	-0,087
-133,614	708,646	0,080	0,151
-132,599	-200,000	-0,005	0,180
-131,585	-145,918	0,102	-0,006
-130,570	800,000	-0,009	-0,020
-129,556	800,000	-0,044	-0,097
-128,541	253,014	-0,107	-0,130
-127,526	-11,903	0,120	0,056
-126,512	-73,760	0,124	0,032
-125,497	706,181	-0,053	-0,099
-124,483	800,000	-0,038	0,109
-123,468	-77,839	0,050	0,012
-122,453	800,000	-0,054	-0,126
-121,439	-200,000	0,020	-0,186
-120,424	-200,000	-0,024	-0,131
-119,410	-200,000	0,001	0,024
-118,395	800,000	-0,031	-0,065
-117,380	-52,298	0,034	0,011
-116,366	800,000	0,038	0,093
-115,351	316,309	-0,009	0,013
-114,337	-200,000	0,003	-0,114
-113,322	-126,981	0,098	-0,010
-112,307	376,759	-0,015	0,022
-111,293	-38,678	-0,109	-0,041
-110,278	59,077	0,103	0,072
-109,264	-129,547	0,104	0,010
-108,249	-93,498	0,072	-0,014
-107,234	800,000	-0,050	-0,105
-106,220	-200,000	0,016	-0,093
-105,205	42,337	0,079	-0,051
-104,191	103,480	0,213	0,178
-103,176	-200,000	0,011	-0,045
-102,162	-200,000	-0,007	-0,055
-101,147	512,934	-0,065	-0,108
-100,132	3,128	0,078	-0,040
-99,118	800,000	-0,006	0,013
-98,103	800,000	-0,029	-0,070
-97,089	-200,000	-0,005	-0,036
-96,074	-103,440	0,096	-0,016
-95,059	74,722	-0,056	0,042
-94,045	-90,822	-0,048	-0,010
-93,030	58,001	-0,173	-0,120
-92,016	534,147	-0,038	0,064
-91,001	94,257	-0,106	-0,085
-89,986	-36,766	0,073	0,028
-88,972	61,632	-0,004	-0,003
-87,957	271,598	0,054	0,068
-86,943	800,000	-0,023	-0,068
-85,928	59,043	0,066	0,046
-84,913	778,769	-0,082	0,159
-83,899	-153,975	0,110	-0,005
-82,884	-200,000	-0,011	0,079
-81,870	17,810	0,053	0,030
-80,855	198,603	-0,037	0,041
-79,840	-200,000	-0,003	0,097
-78,826	352,357	0,069	0,098
-77,811	293,731	-0,041	0,054
-76,797	-72,768	0,041	-0,011
-75,782	-200,000	0,010	-0,147
-74,767	39,375	-0,086	0,055
-73,753	261,394	-0,017	0,021
-72,738	-200,000	-0,015	-0,090
-71,724	-44,165	-0,089	0,031
-70,709	203,876	-0,076	0,084
-69,694	488,664	0,043	0,071
-68,680	-200,000	-0,036	0,159
-67,665	305,386	0,071	0,095
-66,651	195,560	-0,025	0,027
-65,636	-200,000	0,024	-0,115
-64,622	228,119	0,029	-0,034
-63,607	-28,716	-0,232	-0,094
-62,592	-200,000	0,025	-0,219
-61,578	-200,000	0,001	0,145
-60,563	33,769	0,063	-0,039
-59,549	-200,000	0,033	0,146
-58,534	22,084	-1,891	-1,094
-57,519	800,000	-0,601	-1,436
-56,505	-200,000	-0,845	-4,793
-55,490	125,731	0,988	0,886
-54,476	800,000	5,135	11,751
-53,461	-200,000	19,507	332,442
-52,446	-200,000	748,264	2347,175
-51,432	562,069	1660,412	2864,081
-50,417	76,785	1673,149	1259,858
-49,403	20,766	1546,318	887,134
-48,388	14,735	1469,103	813,342
-47,373	18,316	1459,119	825,178
-46,359	16,676	1448,678	811,339
-45,344	13,006	1444,315	791,188
-44,330	12,918	1442,446	789,712
-43,315	12,935	1440,510	788,703
-42,300	12,945	1439,007	787,894
-41,286	12,986	1437,425	787,197
-40,271	12,910	1436,281	786,174
-39,257	12,916	1435,146	785,551
-38,242	12,990	1433,729	785,097
-37,227	12,996	1432,483	784,410
-36,213	12,958	1431,351	783,577
-35,198	12,939	1430,244	782,851
-34,184	13,002	1429,008	782,442
-33,169	12,958	1427,811	781,547
-32,154	12,990	1426,534	780,968
-31,140	13,004	1425,475	780,426
-30,125	13,009	1424,231	779,736
-29,111	12,995	1423,238	779,096
-28,096	12,964	1421,930	778,205
-27,082	12,922	1420,969	777,449
-26,067	12,881	1419,929	776,651
-25,052	12,928	1418,917	776,289
-24,038	12,867	1417,984	775,460
-23,023	12,884	1416,924	774,930
-22,009	12,897	1415,753	774,321
-20,994	12,868	1414,846	773,657
-19,979	12,879	1413,825	773,119
-18,965	12,831	1413,224	772,537
-17,950	12,826	1412,192	771,917
-16,936	12,841	1411,199	771,413
-15,921	12,831	1410,137	770,757
-14,906	12,775	1409,357	770,033
-13,892	12,852	1408,262	769,769
-12,877	12,797	1407,605	769,120
-11,863	12,829	1406,605	768,692
-10,848	12,823	1405,559	768,062
-9,833	12,771	1404,890	767,424
-8,819	12,760	1403,926	766,813
-7,804	12,676	1403,278	766,036
-6,790	12,693	1402,042	765,413
-5,775	12,740	1400,960	765,010
-4,760	12,750	1399,973	764,489
-3,746	12,721	1399,045	763,814
-2,731	12,674	1398,297	763,158
-1,717	12,663	1397,347	762,558
-0,702	12,715	1395,400	761,706
0,313	16,617	1310,766	733,639
1,327	32,945	701,427	430,338
2,342	50,342	122,524	82,054
3,356	0,915	16,562	8,396
4,371	16,351	3,224	1,801
5,386	60,151	0,664	0,465
6,400	593,175	0,154	0,271
7,415	69,455	-0,177	-0,129
8,429	357,390	-0,226	-0,320
9,444	152,894	-0,213	-0,207
10,459	14,539	-0,341	-0,188
11,473	164,324	-0,264	-0,264
12,488	509,448	-0,192	-0,317
13,502	12,416	-0,431	-0,235
14,517	105,852	-0,352	-0,295
15,531	200,033	-0,258	-0,281
16,546	125,141	-0,261	-0,233
17,561	144,857	-0,228	-0,216
18,575	3,880	-0,290	-0,150
19,590	146,385	-0,200	-0,191
20,604	37,187	-0,315	-0,197
21,619	76,223	-0,306	-0,229
22,634	39,890	-0,462	-0,294
23,648	129,583	-0,343	-0,311
24,663	168,558	-0,351	-0,355
25,677	105,929	-0,332	-0,278
26,692	73,067	-0,356	-0,263
27,707	84,069	-0,304	-0,235
28,721	59,248	-0,315	-0,219
29,736	333,604	-0,327	-0,449
30,750	53,062	-0,462	-0,313
31,765	308,553	-0,182	-0,241
32,780	31,817	-0,369	-0,224
33,794	35,728	-0,362	-0,225
34,809	-17,660	-0,385	-0,171
35,823	-50,178	-0,542	-0,181
36,838	14,998	-0,376	-0,208
37,853	25,713	-0,332	-0,195
38,867	2,068	-0,392	-0,200
39,882	23,008	-0,385	-0,223
40,896	17,742	-0,395	-0,222
41,911	262,757	-0,232	-0,286
42,926	274,650	-0,194	-0,244
43,940	445,305	-0,231	-0,361
44,955	39,189	-0,360	-0,227
45,969	72,002	-0,358	-0,263
46,984	104,795	-0,282	-0,235
47,999	62,136	-0,403	-0,284
49,013	37,798	-0,319	-0,200
50,028	1,418	-0,387	-0,196
51,042	115,765	-0,322	-0,278
52,057	88,663	-0,443	-0,348
53,071	-33,269	-0,346	-0,135
54,086	271,704	-0,278	-0,347
55,101	83,473	-0,342	-0,263
56,115	221,292	-0,317	-0,360
57,130	142,039	-0,346	-0,324
58,144	193,132	-0,285	-0,304
59,159	116,470	-0,372	-0,322
60,174	57,657	-0,368	-0,254
61,188	6,173	-0,370	-0,193
62,203	159,234	-0,319	-0,313
63,217	-120,604	-0,389	-0,046
64,232	117,397	-0,239	-0,207
65,247	-90,871	-0,422	-0,085
66,261	215,765	-0,302	-0,339
67,276	118,537	-0,252	-0,220
68,290	83,606	-0,242	-0,186
69,305	-21,231	-0,333	-0,143
70,320	156,474	-0,173	-0,169
71,334	35,284	-0,310	-0,191
72,349	-59,735	-0,357	-0,107
73,363	-91,273	-0,309	-0,062
74,378	136,664	-0,307	-0,283
75,393	176,100	-0,286	-0,293
76,407	230,129	-0,199	-0,230
77,422	369,385	-0,180	-0,257
78,436	19,990	-0,358	-0,203
79,451	112,140	-0,242	-0,206
80,466	49,856	-0,270	-0,179
81,480	17,520	-0,270	-0,151
82,495	28,398	-0,396	-0,236
83,509	128,123	-0,159	-0,143
84,524	55,385	-0,233	-0,159
85,539	120,179	-0,216	-0,189
86,553	37,329	-0,315	-0,196
87,568	17,219	-0,308	-0,171
88,582	55,449	-0,313	-0,213
89,597	6,071	-0,311	-0,162
90,611	242,852	-0,215	-0,254
91,626	-4,290	-0,316	-0,153
92,641	255,712	-0,165	-0,199
93,655	279,286	-0,230	-0,289
94,670	202,331	-0,245	-0,266
95,684	110,760	-0,334	-0,282
96,699	442,078	-0,258	-0,399
97,714	-5,487	-0,255	-0,123
98,728	-46,956	-0,258	-0,088
99,743	-29,939	-0,345	-0,138
100,757	128,476	-0,224	-0,201
101,772	89,613	-0,299	-0,234
102,787	-50,038	-0,441	-0,146
103,801	49,351	-0,260	-0,172
104,816	323,008	-0,131	-0,176
105,830	286,877	-0,214	-0,272
106,845	170,205	-0,176	-0,177
107,860	-11,913	-0,273	-0,125
108,874	17,108	-0,334	-0,186
109,889	46,231	-0,276	-0,179
110,903	10,509	-0,308	-0,165
111,918	32,501	-0,278	-0,168
112,933	26,764	-0,225	-0,132
113,947	37,418	-0,282	-0,176
114,962	117,816	-0,276	-0,239
115,976	318,819	-0,207	-0,276
116,991	106,703	-0,254	-0,212
118,006	191,147	-0,247	-0,261
119,020	-77,023	-0,396	-0,096
120,035	194,891	-0,156	-0,167
121,049	104,050	-0,327	-0,270
122,064	139,478	-0,255	-0,236
123,079	46,927	-0,105	-0,069
124,093	79,117	-0,341	-0,256
125,108	728,726	-0,198	-0,373
126,122	-13,810	-0,281	-0,127
127,137	-33,886	-0,188	-0,072
128,151	-49,066	-0,275	-0,092
129,166	170,990	-0,149	-0,150
130,181	128,012	-0,191	-0,171
131,195	42,724	-0,266	-0,170
132,210	605,557	-0,274	-0,480
133,224	285,645	-0,237	-0,301
134,239	-103,806	-0,255	-0,041
135,254	22,843	-0,286	-0,164
136,268	-110,526	-0,271	-0,039
137,283	304,524	-0,229	-0,299
138,297	94,592	-0,164	-0,131
139,312	312,549	-0,264	-0,349
140,327	-13,151	-0,322	-0,146
141,341	84,694	-0,281	-0,216
142,356	704,263	-0,096	-0,178
143,370	-143,972	-0,207	0,013
144,385	353,765	-0,120	-0,168
145,400	-50,801	-0,251	-0,082
146,414	83,614	-0,329	-0,251
147,429	189,551	-0,170	-0,179
148,443	-22,163	-0,291	-0,123
149,458	-65,525	-0,280	-0,078
150,473	74,757	-0,209	-0,154
151,487	154,636	-0,231	-0,223
152,502	268,134	-0,194	-0,239
153,516	105,360	-0,180	-0,149
154,531	349,395	-0,260	-0,360
155,546	-56,957	-0,198	-0,061
156,560	29,637	-0,244	-0,145
157,575	86,536	-0,083	-0,064
158,589	29,043	-0,262	-0,155
159,604	136,610	-0,164	-0,150
160,619	800,000	-0,167	-0,354
161,633	155,704	-0,160	-0,155
162,648	228,520	-0,203	-0,231
163,662	451,750	-0,149	-0,232
164,677	389,672	-0,220	-0,320
165,692	125,276	-0,116	-0,103
166,706	61,089	-0,267	-0,185
167,721	-17,650	-0,289	-0,126
168,735	229,375	-0,189	-0,216
169,750	44,049	-0,297	-0,190
170,764	220,838	-0,149	-0,167
171,779	327,506	-0,158	-0,213
172,794	108,590	-0,226	-0,189
173,808	315,064	-0,209	-0,277
174,823	-23,495	-0,305	-0,128
175,837	389,017	-0,182	-0,264
176,852	73,869	-0,281	-0,206
177,867	0,654	-0,273	-0,136
178,881	-30,587	-0,143	-0,056
179,896	69,556	-0,192	-0,138
180,910	-112,840	-0,318	-0,044
181,925	-35,572	-0,333	-0,126
182,940	89,740	-0,223	-0,173
183,954	-2,038	-0,265	-0,130
184,969	-3,846	-0,261	-0,126
185,983	99,628	-0,172	-0,139
186,998	174,532	-0,156	-0,158
188,013	104,527	-0,201	-0,165
189,027	-14,323	-0,144	-0,065
190,042	-11,768	-0,304	-0,139
191,056	331,803	-0,135	-0,182
192,071	-200,000	-0,076	-0,272
193,086	800,000	-0,101	-0,281
194,100	-130,042	-0,347	0,033
195,115	184,704	-0,198	-0,205
196,129	-115,955	-0,229	0,029
197,144	49,867	-0,206	-0,135
198,159	214,620	-0,206	-0,228
199,173	149,934	-0,131	-0,124
200,188	149,104	-0,234	-0,221
201,202	3,685	-0,177	-0,090
202,217	-95,900	-0,208	0,038
203,232	124,080	-0,128	-0,112
204,246	765,176	-0,102	-0,195
205,261	-95,797	-0,246	-0,045
206,275	101,697	-0,151	-0,123
207,290	800,000	-0,094	-0,183
208,304	71,350	-0,139	-0,101
209,319	-48,323	-0,110	-0,037
210,334	12,303	-0,190	-0,102
211,348	10,122	-0,248	-0,131
212,363	495,810	-0,085	-0,136
213,377	-131,841	-0,159	0,014
214,392	-200,000	-0,036	-0,190
215,407	179,159	-0,159	-0,162
216,421	81,358	-0,192	-0,145
217,436	3,912	-0,152	-0,077
218,450	233,843	-0,198	-0,228
219,465	800,000	-0,091	-0,180
220,480	-49,727	-0,213	0,070
221,494	360,230	-0,112	-0,156
222,509	800,000	-0,040	-0,098
223,523	-67,329	-0,271	-0,074
224,538	168,844	-0,118	-0,117
225,553	207,936	-0,175	-0,190
226,567	140,573	-0,162	-0,149
227,582	254,283	-0,168	-0,200
228,596	97,923	-0,134	-0,107
229,611	363,128	-0,081	-0,113
230,626	5,545	-0,153	-0,078
231,640	19,099	-0,129	-0,072
232,655	467,597	-0,084	-0,132
233,669	-94,374	-0,278	-0,052
234,684	95,202	-0,262	-0,207
235,699	-146,901	-0,149	-0,009
236,713	120,695	-0,117	-0,101
237,728	-190,096	-0,071	0,001
238,742	266,950	-0,142	-0,173
239,757	107,178	-0,245	-0,202
240,772	578,165	-0,170	-0,290
241,786	94,009	-0,206	-0,162
242,801	213,294	-0,196	-0,215
243,815	-138,450	-0,205	-0,015
244,830	-122,626	-0,260	0,029
245,844	-88,351	-0,198	-0,041
246,859	589,709	-0,092	-0,159
247,874	12,988	-0,289	-0,155
248,888	800,000	-0,123	-0,243
249,903	63,634	-0,163	-0,113
250,917	37,535	-0,179	-0,110
251,932	-200,000	-0,038	-0,123
252,947	259,075	-0,074	-0,089
253,961	-45,757	-0,216	-0,074
254,976	133,402	-0,187	-0,168
255,990	461,287	0,060	0,093
257,005	27,529	-0,206	-0,120
258,020	174,500	-0,229	-0,230
259,034	-18,855	-0,170	-0,073
260,049	-200,000	-0,002	-0,072
261,063	800,000	-0,093	-0,232
262,078	-40,320	-0,210	-0,075
263,093	2,200	-0,166	-0,083
264,107	280,107	-0,158	-0,197
265,122	23,908	-0,254	-0,145
266,136	31,117	-0,162	-0,096
267,151	800,000	-0,070	-0,190
268,166	137,732	-0,187	-0,170
269,180	309,896	-0,116	-0,151
270,195	134,630	-0,251	-0,226
271,209	205,455	-0,107	-0,115
272,224	-95,997	-0,184	-0,034
273,239	-200,000	-0,035	-0,139
274,253	272,712	-0,052	-0,064
275,268	33,599	-0,143	-0,086
276,282	-200,000	-0,066	-0,288
277,297	216,297	-0,200	-0,221
278,312	93,972	-0,205	-0,161
279,326	627,408	-0,064	-0,113
280,341	71,011	-0,128	-0,092
281,355	-26,631	-0,128	-0,052
282,370	105,987	-0,159	-0,131
283,384	125,676	-0,138	-0,121
284,399	-200,000	-0,041	-0,240
285,414	56,345	-0,180	-0,121
286,428	225,356	0,019	0,021
287,443	-23,664	-0,155	-0,064
288,457	-95,977	-0,106	-0,019
289,472	740,008	-0,100	-0,187
290,487	402,605	-0,228	-0,333
291,501	800,000	-0,106	-0,223
292,516	138,901	-0,158	-0,144
293,530	10,108	0,027	-0,014
294,545	507,556	-0,048	-0,078
295,560	75,841	-0,154	-0,113
296,574	292,285	-0,157	-0,199
297,589	219,296	-0,194	-0,215
298,603	517,698	-0,190	-0,309
299,618	800,000	-0,068	0,145
300,633	-200,000	0,001	-0,159
301,647	800,000	-0,075	-0,157
302,662	-0,507	-0,012	-0,006
303,676	5,470	-0,170	0,087
304,691	177,560	-0,061	-0,062
305,706	286,857	-0,069	-0,087
306,720	471,902	-0,070	-0,109
307,735	18,889	-0,230	-0,127
308,749	60,273	-0,052	-0,035
309,764	-21,588	-0,235	-0,098
310,779	8,782	-0,072	-0,037
311,793	10,508	-0,154	-0,081
312,808	350,958	-0,124	-0,170
313,822	128,584	-0,151	-0,133
314,837	800,000	-0,048	-0,121
315,852	-8,256	-0,216	-0,100
316,866	10,401	-0,169	-0,088
317,881	-158,641	-0,046	0,002
318,895	-102,417	-0,242	-0,040
319,910	65,447	-0,237	-0,165
320,925	19,121	-0,289	-0,159
321,939	273,090	-0,105	-0,128
322,954	800,000	-0,074	-0,146
323,968	-45,841	-0,172	-0,058
324,983	-32,555	-0,095	-0,036
325,997	159,202	-0,243	-0,233
327,012	55,011	-0,155	-0,103
328,027	119,895	-0,137	-0,117
329,041	-31,822	-0,225	-0,086
330,056	255,768	-0,034	0,040
331,070	-5,966	-0,124	0,058
332,085	595,838	-0,059	-0,101
333,100	45,300	-0,185	-0,118
334,114	64,255	-0,140	-0,097
335,129	113,452	-0,148	-0,123
336,143	216,849	-0,186	-0,205
337,158	100,321	-0,103	-0,082
338,173	-109,382	-0,122	-0,018
339,187	137,994	-0,119	-0,108
340,202	800,000	-0,049	-0,130
341,216	206,988	-0,130	-0,140
342,231	502,571	-0,079	-0,126
343,246	76,051	-0,182	-0,132
344,260	131,575	-0,236	-0,209
345,275	-200,000	0,001	-0,134
346,289	-200,000	0,009	-0,146
347,304	-136,297	-0,183	-0,014
348,319	-143,302	-0,200	0,013
349,333	147,240	-0,101	-0,093
350,348	668,282	-0,098	-0,176
351,362	419,696	-0,046	-0,069
352,377	136,215	-0,137	-0,123
353,392	13,859	-0,106	0,057
354,406	319,633	-0,107	-0,140
355,421	208,598	1314,012	1416,267
356,435	160,508	1474,422	1416,527
