DTS Sentinel unit serial number:	SN410029Multiplexer serial number:	ORYXHardware model number:	OX2-SRSoftware version number:	ORYX F/W v4,00 Oryx Data Collector v3.7.2.0data status	okinstallation	B3 Nyhavnadifferential loss correction	single-endedforward channel	channel 1reverse channel	N/Adate	2023/12/01time	14:07:30forward acquisition time	300,00reverse acquisition time	0,00gamma	499,1914k internal	0,3213k external	0,3213temperature offset calibration	1,0000default loss term (dB/km)	0,3820temperature slope calibration	1,0000multiplexer offset coefficient	1,0000multiplexer slope coefficient	1,0000fibre end	0,00T internal ref (°C)	10,29T ext. ref 1 (°C)	-3,05T ext. ref 2 (°C)	-3,11length (m)	temperature (°C)	Stokes	anti-Stokes-744,400	570,247	-0,145	-0,256
-743,385	-200,000	-0,044	0,232
-742,371	651,066	-0,154	-0,287
-741,356	-200,000	0,021	0,191
-740,342	113,935	-0,147	-0,129
-739,327	800,000	-0,075	0,215
-738,312	153,742	-0,254	-0,253
-737,298	800,000	-0,095	0,276
-736,283	800,000	-0,035	-0,107
-735,269	-200,000	-0,027	0,234
-734,254	82,938	-0,242	-0,190
-733,239	800,000	-0,071	0,171
-732,225	-187,565	-0,107	0,001
-731,210	-58,644	0,122	0,038
-730,196	-188,012	-0,122	0,001
-729,181	-200,000	0,000	0,054
-728,167	246,407	-0,012	-0,014
-727,152	800,000	-0,023	-0,057
-726,137	-200,000	-0,010	-0,073
-725,123	475,913	-0,046	0,075
-724,108	-200,000	0,050	-0,163
-723,094	108,420	-0,058	-0,050
-722,079	-200,000	-0,001	-0,066
-721,064	-3,910	-0,088	-0,044
-720,050	270,417	-0,083	-0,106
-719,035	-6,317	0,047	0,023
-718,021	800,000	0,057	-0,178
-717,006	227,125	0,064	0,075
-715,991	-147,803	-0,158	0,009
-714,977	-61,947	-0,007	0,002
-713,962	800,000	-0,021	-0,051
-712,948	159,108	-0,028	0,028
-711,933	-106,304	-0,069	-0,011
-710,918	-200,000	-0,022	-0,101
-709,904	146,422	-0,043	0,042
-708,889	325,575	-0,045	-0,062
-707,875	-26,774	-0,112	-0,047
-706,860	312,675	0,068	-0,093
-705,845	638,887	0,047	0,088
-704,831	-200,000	0,012	0,094
-703,816	97,216	0,058	-0,048
-702,802	-152,706	0,092	0,005
-701,787	157,975	0,007	-0,007
-700,772	-161,066	-0,072	-0,003
-699,758	51,210	-0,093	-0,064
-698,743	800,000	0,029	0,076
-697,729	-162,758	0,066	0,002
-696,714	32,896	-0,040	-0,025
-695,699	153,305	-0,059	0,058
-694,685	-45,141	0,054	0,019
-693,670	273,324	-0,060	-0,077
-692,656	-96,927	-0,077	-0,014
-691,641	-200,000	0,007	0,040
-690,627	43,165	-0,110	0,073
-689,612	-3,454	-0,107	-0,054
-688,597	800,000	0,069	-0,204
-687,583	-200,000	-0,038	-0,151
-686,568	284,185	0,013	-0,017
-685,554	-200,000	-0,003	-0,109
-684,539	-36,148	0,057	-0,022
-683,524	-149,232	0,030	-0,002
-682,510	167,098	0,073	-0,075
-681,495	-136,117	-0,089	-0,007
-680,481	80,882	0,010	-0,008
-679,466	20,989	-0,119	-0,070
-678,451	800,000	0,048	-0,109
-677,437	800,000	0,020	-0,044
-676,422	-23,388	0,052	0,022
-675,408	-194,030	-0,043	0,000
-674,393	743,150	0,008	0,016
-673,378	-200,000	-0,017	-0,064
-672,364	127,994	-0,120	-0,110
-671,349	1,019	0,223	-0,115
-670,335	751,490	0,053	0,103
-669,320	-7,133	-0,075	-0,037
-668,305	-9,396	0,073	-0,035
-667,291	-200,000	-0,002	-0,067
-666,276	-168,129	0,103	0,003
-665,262	76,137	-0,223	-0,170
-664,247	-59,970	0,082	-0,025
-663,232	-12,473	-0,151	-0,071
-662,218	-99,638	0,088	-0,016
-661,203	-200,000	0,029	-0,156
-660,189	800,000	0,015	-0,040
-659,174	-19,305	-0,167	-0,074
-658,159	-200,000	-0,018	-0,167
-657,145	29,831	-0,035	-0,021
-656,130	328,814	0,024	-0,033
-655,116	800,000	0,030	0,074
-654,101	45,433	-0,026	-0,017
-653,086	-200,000	-0,016	0,061
-652,072	-200,000	0,034	-0,121
-651,057	-200,000	-0,007	-0,121
-650,043	23,283	-0,190	-0,112
-649,028	800,000	-0,027	-0,082
-648,014	800,000	-0,016	-0,036
-646,999	-92,736	-0,072	-0,014
-645,984	42,240	0,069	0,045
-644,970	70,273	-0,030	-0,022
-643,955	2,499	-0,054	-0,028
-642,941	413,910	0,070	-0,108
-641,926	-16,420	-0,059	-0,027
-640,911	-118,500	0,236	0,030
-639,897	800,000	0,005	-0,015
-638,882	-19,252	0,050	0,022
-637,868	-200,000	0,001	0,041
-636,853	-21,244	-0,055	0,024
-635,838	4,786	0,098	0,052
-634,824	-0,095	-0,082	0,042
-633,809	489,782	0,060	0,100
-632,795	488,981	0,049	-0,080
-631,780	778,391	-0,074	0,146
-630,765	578,022	0,029	-0,051
-629,751	-48,555	-0,010	0,004
-628,736	-124,171	-0,137	0,015
-627,722	-38,511	0,050	-0,019
-626,707	12,496	-0,083	0,046
-625,692	-2,897	0,024	-0,012
-624,678	571,019	0,047	-0,084
-623,663	284,200	-0,118	-0,154
-622,649	-200,000	0,000	0,092
-621,634	800,000	-0,012	0,030
-620,619	-163,165	-0,145	-0,005
-619,605	-51,350	-0,118	-0,040
-618,590	-200,000	0,003	0,017
-617,576	-51,204	0,082	-0,028
-616,561	-200,000	0,005	0,061
-615,546	347,854	-0,063	-0,089
-614,532	800,000	-0,032	-0,076
-613,517	657,788	-0,039	-0,073
-612,503	-200,000	-0,032	0,128
-611,488	516,013	0,010	-0,017
-610,474	196,575	-0,062	0,068
-609,459	-200,000	-0,028	-0,097
-608,444	394,486	-0,040	-0,061
-607,430	-141,156	-0,104	-0,008
-606,415	12,489	-0,008	0,004
-605,401	179,790	-0,033	-0,034
-604,386	212,729	-0,088	0,100
-603,371	171,169	-0,109	0,113
-602,357	579,426	-0,027	0,048
-601,342	800,000	-0,011	0,034
-600,328	-49,719	0,041	0,014
-599,313	270,054	-0,134	-0,170
-598,298	-200,000	-0,025	-0,140
-597,284	800,000	-0,055	0,168
-596,269	-70,013	-0,092	-0,025
-595,255	-200,000	0,028	0,176
-594,240	358,054	-0,073	0,105
-593,225	268,718	-0,015	0,018
-592,211	216,464	-0,049	-0,057
-591,196	-60,000	0,037	0,011
-590,182	-38,055	-0,027	0,010
-589,167	399,205	0,020	-0,031
-588,152	-37,049	-0,077	-0,029
-587,138	376,575	-0,096	-0,142
-586,123	-200,000	-0,020	-0,084
-585,109	-149,531	-0,060	0,003
-584,094	174,123	-0,092	-0,096
-583,079	800,000	-0,008	0,019
-582,065	-23,330	-0,080	-0,034
-581,050	318,819	0,084	0,114
-580,036	293,599	-0,072	-0,095
-579,021	68,735	0,115	-0,085
-578,006	56,867	-0,098	-0,068
-576,992	386,502	-0,031	0,046
-575,977	-70,727	0,064	-0,017
-574,963	189,406	0,117	0,126
-573,948	101,130	0,093	-0,078
-572,934	-83,295	-0,051	0,012
-571,919	-193,423	-0,226	-0,001
-570,904	27,427	0,083	0,050
-569,890	-102,528	0,112	0,019
-568,875	-200,000	-0,001	0,032
-567,861	71,277	-0,087	-0,065
-566,846	176,636	0,029	0,031
-565,831	-29,074	-0,094	-0,039
-564,817	274,998	-0,003	0,004
-563,802	800,000	0,019	-0,051
-562,788	-34,472	0,018	-0,007
-561,773	-150,540	-0,019	0,001
-560,758	93,200	0,069	0,056
-559,744	-200,000	-0,024	0,081
-558,729	26,812	0,018	-0,011
-557,715	-200,000	-0,031	-0,112
-556,700	-42,011	-0,103	-0,038
-555,685	83,720	-0,016	0,012
-554,671	37,940	0,117	0,075
-553,656	800,000	0,032	0,074
-552,642	-200,000	0,015	0,139
-551,627	-184,083	-0,095	0,001
-550,612	-200,000	0,022	-0,141
-549,598	-128,140	-0,163	0,017
-548,583	-200,000	0,022	-0,132
-547,569	800,000	-0,045	0,099
-546,554	-85,161	-0,124	0,028
-545,539	-200,000	-0,022	0,126
-544,525	440,153	-0,033	-0,052
-543,510	-200,000	0,004	0,024
-542,496	198,715	-0,101	-0,111
-541,481	-200,000	0,023	-0,115
-540,466	315,874	-0,119	-0,162
-539,452	-200,000	0,006	0,066
-538,437	-200,000	-0,007	0,066
-537,423	-115,950	0,022	-0,003
-536,408	-67,236	0,046	-0,013
-535,393	157,988	-0,130	-0,129
-534,379	-200,000	-0,044	-0,206
-533,364	580,405	-0,081	-0,143
-532,350	28,020	-0,017	-0,011
-531,335	800,000	0,073	-0,187
-530,321	-168,804	-0,011	-0,000
-529,306	73,379	-0,144	-0,108
-528,291	-159,916	-0,118	0,005
-527,277	800,000	0,039	-0,080
-526,262	-200,000	0,008	0,092
-525,248	57,294	0,122	0,086
-524,233	-200,000	-0,013	0,123
-523,218	-200,000	0,023	-0,094
-522,204	-14,622	-0,052	0,024
-521,189	66,311	-0,047	0,035
-520,175	59,425	-0,068	0,048
-519,160	-200,000	-0,008	0,050
-518,145	221,903	0,079	0,092
-517,131	84,273	-0,094	0,074
-516,116	458,732	0,122	0,195
-515,102	800,000	0,066	-0,176
-514,087	-200,000	-0,036	-0,162
-513,072	-200,000	-0,035	-0,132
-512,058	800,000	-0,025	-0,051
-511,043	-54,907	0,134	0,043
-510,029	-22,748	0,115	0,049
-509,014	-200,000	-0,020	0,071
-507,999	365,941	0,064	-0,093
-506,985	48,764	-0,089	0,060
-505,970	356,227	0,053	-0,076
-504,956	-200,000	0,001	-0,021
-503,941	-37,821	0,110	-0,042
-502,926	60,450	0,025	0,018
-501,912	114,941	0,008	-0,007
-500,897	-141,311	0,064	0,005
-499,883	166,836	0,022	0,022
-498,868	800,000	0,035	-0,091
-497,853	-200,000	0,006	-0,035
-496,839	333,103	-0,055	-0,077
-495,824	61,307	0,114	-0,081
-494,810	-62,094	-0,109	0,033
-493,795	-46,618	-0,082	-0,029
-492,781	-91,134	-0,113	-0,023
-491,766	-6,157	-0,149	-0,073
-490,751	-200,000	0,020	0,093
-489,737	800,000	-0,057	-0,155
-488,722	440,281	0,063	0,099
-487,708	421,361	0,047	0,073
-486,693	605,837	-0,037	0,067
-485,678	-116,746	-0,170	-0,022
-484,664	351,300	-0,080	-0,114
-483,649	-28,023	0,073	-0,030
-482,635	-200,000	0,009	0,143
-481,620	-11,073	0,102	-0,048
-480,605	21,786	0,093	-0,054
-479,591	800,000	0,051	0,110
-478,576	800,000	0,023	0,071
-477,562	-123,250	-0,146	-0,017
-476,547	185,166	0,069	0,074
-475,532	-111,528	0,049	-0,007
-474,518	386,776	-0,071	0,106
-473,503	-200,000	-0,003	-0,038
-472,489	487,333	-0,056	0,092
-471,474	-71,964	0,042	0,011
-470,459	31,285	-0,051	-0,031
-469,445	800,000	-0,010	0,025
-468,430	800,000	0,016	0,038
-467,416	-53,913	0,040	0,013
-466,401	711,488	-0,030	0,056
-465,386	-200,000	0,016	-0,131
-464,372	-200,000	0,034	0,119
-463,357	-200,000	0,017	-0,150
-462,343	-200,000	0,026	-0,144
-461,328	69,213	-0,072	-0,053
-460,313	10,887	0,097	0,053
-459,299	8,665	0,109	-0,059
-458,284	30,185	0,191	-0,117
-457,270	177,773	-0,042	0,044
-456,255	87,396	0,029	0,023
-455,241	-40,595	-0,085	-0,031
-454,226	-200,000	0,014	-0,141
-453,211	-66,543	-0,138	-0,039
-452,197	607,815	-0,028	0,051
-451,182	800,000	0,065	0,138
-450,168	800,000	0,026	0,061
-449,153	100,357	0,011	0,009
-448,138	227,579	-0,020	0,023
-447,124	-8,255	-0,077	0,037
-446,109	129,516	0,046	-0,042
-445,095	-75,465	0,138	0,035
-444,080	644,081	0,029	0,054
-443,065	105,103	-0,111	-0,093
-442,051	-57,907	0,070	-0,022
-441,036	-200,000	0,030	-0,187
-440,022	-200,000	0,009	-0,084
-439,007	-103,594	-0,104	-0,017
-437,992	-108,397	0,013	-0,002
-436,978	-57,792	-0,042	-0,013
-435,963	-63,942	0,086	0,025
-434,949	-200,000	0,005	-0,065
-433,934	-45,485	0,072	-0,025
-432,919	275,009	-0,100	-0,128
-431,905	-200,000	-0,018	-0,066
-430,890	136,578	0,080	-0,075
-429,876	319,921	0,059	-0,081
-428,861	349,242	0,075	0,106
-427,846	-200,000	0,023	-0,118
-426,832	-200,000	0,004	-0,041
-425,817	180,661	-0,039	0,041
-424,803	-200,000	0,023	0,074
-423,788	-112,675	0,132	-0,019
-422,773	266,145	0,057	0,071
-421,759	317,520	-0,097	-0,132
-420,744	167,974	-0,050	0,051
-419,730	768,111	0,029	0,056
-418,715	-200,000	0,011	-0,076
-417,701	171,578	0,038	0,039
-416,686	114,358	-0,045	0,039
-415,671	340,646	0,065	-0,090
-414,657	800,000	-0,012	-0,031
-413,642	6,624	0,134	0,071
-412,628	-151,459	-0,088	-0,005
-411,613	800,000	0,037	-0,092
-410,598	-17,706	0,033	0,015
-409,584	800,000	-0,027	0,073
-408,569	641,220	-0,047	0,085
-407,555	-200,000	-0,006	0,125
-406,540	-86,796	0,088	0,019
-405,525	-92,781	-0,115	0,023
-404,511	-70,317	0,018	0,005
-403,496	41,697	0,066	-0,043
-402,482	-200,000	0,020	0,064
-401,467	90,009	-0,062	0,049
-400,452	-19,790	0,127	-0,056
-399,438	-56,574	0,091	0,029
-398,423	659,680	-0,082	0,152
-397,409	226,694	0,025	0,029
-396,394	56,375	0,160	-0,111
-395,379	-165,401	-0,026	0,001
-394,365	-45,739	0,087	0,030
-393,350	335,398	0,114	0,158
-392,336	-200,000	-0,065	0,233
-391,321	93,425	-0,078	0,063
-390,306	360,177	-0,062	0,089
-389,292	-93,877	-0,008	-0,002
-388,277	-28,409	0,076	0,031
-387,263	-69,928	-0,138	0,037
-386,248	-200,000	0,013	0,042
-385,233	800,000	-0,062	0,172
-384,219	72,055	0,055	-0,041
-383,204	-200,000	-0,013	0,043
-382,190	51,587	-0,066	0,045
-381,175	51,577	0,207	-0,140
-380,160	-200,000	-0,015	-0,065
-379,146	800,000	0,080	0,209
-378,131	522,007	0,066	0,112
-377,117	17,945	0,052	0,030
-376,102	-200,000	-0,001	-0,020
-375,088	227,373	-0,056	-0,066
-374,073	739,131	-0,044	-0,085
-373,058	445,506	-0,105	0,165
-372,044	-146,029	0,136	0,008
-371,029	768,519	-0,063	0,123
-370,015	13,585	0,105	-0,058
-369,000	-200,000	-0,008	0,026
-367,985	342,530	0,058	-0,081
-366,971	800,000	-0,078	-0,175
-365,956	-200,000	-0,030	0,113
-364,942	-160,231	0,103	0,004
-363,927	206,967	0,032	-0,036
-362,912	-17,279	-0,026	0,012
-361,898	-200,000	-0,008	0,034
-360,883	-33,159	-0,080	-0,032
-359,869	79,249	0,038	-0,029
-358,854	182,464	-0,023	-0,024
-357,839	224,674	0,042	-0,049
-356,825	-47,510	0,051	0,018
-355,810	122,172	0,125	0,112
-354,796	317,049	0,046	-0,062
-353,781	125,543	-0,028	-0,025
-352,766	800,000	-0,045	-0,092
-351,752	273,395	-0,111	-0,141
-350,737	299,829	-0,022	0,029
-349,723	-55,178	0,106	0,034
-348,708	-69,065	-0,090	0,025
-347,693	800,000	0,034	0,100
-346,679	-93,672	-0,138	0,027
-345,664	-15,632	-0,097	0,044
-344,650	-182,713	0,049	-0,001
-343,635	800,000	-0,023	-0,050
-342,620	-200,000	-0,031	0,103
-341,606	135,003	0,080	0,074
-340,591	272,305	0,035	-0,044
-339,577	205,439	-0,084	0,093
-338,562	-200,000	-0,018	0,127
-337,548	584,593	0,017	0,030
-336,533	-200,000	0,000	0,034
-335,518	718,856	-0,043	0,083
-334,504	-200,000	0,031	0,124
-333,489	417,196	-0,059	0,090
-332,475	142,439	-0,111	0,105
-331,460	-200,000	-0,055	0,222
-330,445	800,000	-0,011	0,031
-329,431	419,844	0,036	0,056
-328,416	-65,368	0,035	-0,010
-327,402	35,210	-0,125	0,078
-326,387	190,572	0,087	-0,093
-325,372	-200,000	0,024	0,155
-324,358	106,500	-0,179	-0,151
-323,343	241,220	-0,067	-0,080
-322,329	262,628	-0,016	0,020
-321,314	260,263	0,106	0,131
-320,299	118,532	-0,049	0,043
-319,285	31,836	0,053	0,032
-318,270	392,629	0,084	-0,125
-317,256	-200,000	-0,033	-0,153
-316,241	-54,590	-0,063	0,020
-315,226	-178,630	0,113	-0,002
-314,212	-51,863	0,016	0,005
-313,197	-127,972	-0,068	-0,007
-312,183	800,000	0,037	0,107
-311,168	134,899	0,095	-0,088
-310,153	-90,623	0,089	-0,018
-309,139	332,857	-0,028	-0,039
-308,124	350,349	0,136	0,192
-307,110	-200,000	-0,014	0,072
-306,095	-200,000	0,025	0,082
-305,080	35,452	-0,115	-0,072
-304,066	602,317	0,033	-0,059
-303,051	800,000	-0,019	-0,045
-302,037	-200,000	0,004	-0,100
-301,022	-200,000	0,014	0,052
-300,008	257,161	0,070	0,086
-298,993	-123,820	0,110	-0,012
-297,978	-52,855	-0,053	0,017
-296,964	-158,673	0,036	0,001
-295,949	161,175	0,048	-0,048
-294,935	150,733	-0,055	0,053
-293,920	800,000	-0,032	0,096
-292,905	196,296	0,054	0,059
-291,891	-200,000	0,044	0,150
-290,876	135,432	0,025	0,023
-289,862	800,000	-0,034	-0,092
-288,847	-200,000	-0,036	-0,146
-287,832	-200,000	-0,013	-0,041
-286,818	800,000	-0,038	0,105
-285,803	106,751	0,069	-0,059
-284,789	-43,321	0,104	0,037
-283,774	-200,000	-0,005	0,160
-282,759	-124,296	0,016	0,002
-281,745	262,425	-0,095	-0,117
-280,730	-200,000	-0,017	0,107
-279,716	-200,000	-0,004	-0,123
-278,701	800,000	0,031	0,077
-277,686	44,072	-0,058	0,038
-276,672	-22,237	-0,049	-0,021
-275,657	50,291	0,088	0,059
-274,643	6,623	-0,051	-0,027
-273,628	-18,075	-0,108	-0,048
-272,613	-200,000	0,033	-0,110
-271,599	177,567	0,078	-0,081
-270,584	800,000	0,032	-0,082
-269,570	-200,000	0,006	0,075
-268,555	-44,413	0,103	-0,037
-267,540	800,000	0,031	0,095
-266,526	312,576	0,020	0,026
-265,511	736,414	0,071	-0,137
-264,497	800,000	-0,023	0,054
-263,482	800,000	0,025	-0,059
-262,467	226,239	0,012	0,014
-261,453	165,724	0,079	0,079
-260,438	-200,000	0,000	-0,156
-259,424	800,000	-0,098	-0,225
-258,409	-82,827	-0,133	0,030
-257,395	-5,280	0,103	0,050
-256,380	-200,000	-0,007	0,029
-255,365	800,000	-0,008	0,018
-254,351	226,054	-0,034	-0,039
-253,336	417,671	-0,020	-0,031
-252,322	-200,000	-0,014	-0,177
-251,307	-200,000	0,019	-0,100
-250,292	346,251	0,032	0,044
-249,278	573,416	0,046	0,081
-248,263	112,685	-0,111	-0,096
-247,249	81,053	-0,037	0,028
-246,234	767,815	0,066	-0,128
-245,219	-9,693	0,040	0,019
-244,205	-59,173	0,052	0,016
-243,190	-200,000	0,008	0,124
-242,176	800,000	-0,022	-0,058
-241,161	-76,379	0,063	0,016
-240,146	-200,000	-0,028	0,103
-239,132	-86,699	0,107	-0,023
-238,117	-53,713	0,055	0,018
-237,103	139,643	-0,069	0,065
-236,088	197,606	-0,035	0,038
-235,073	608,927	0,039	0,070
-234,059	100,716	0,070	0,058
-233,044	661,220	0,072	0,133
-232,030	800,000	0,029	-0,070
-231,015	-200,000	0,008	-0,104
-230,000	-97,787	-0,079	0,014
-228,986	-200,000	0,015	0,090
-227,971	-101,268	0,041	-0,007
-226,957	-200,000	0,000	0,167
-225,942	282,732	0,059	0,075
-224,927	64,677	-0,056	0,040
-223,913	800,000	0,013	0,031
-222,898	50,577	-0,083	-0,056
-221,884	252,301	-0,043	0,052
-220,869	83,533	0,048	-0,037
-219,855	180,777	0,070	-0,073
-218,840	-147,003	0,166	0,010
-217,825	259,702	-0,076	0,093
-216,811	-200,000	-0,021	-0,076
-215,796	800,000	-0,056	0,164
-214,782	-65,681	-0,097	0,027
-213,767	-34,680	0,089	-0,034
-212,752	39,097	0,107	0,068
-211,738	800,000	0,043	-0,123
-210,723	-200,000	-0,000	-0,062
-209,709	-11,053	-0,095	0,044
-208,694	-122,748	-0,070	0,008
-207,679	-42,986	-0,098	-0,035
-206,665	-153,389	0,026	-0,001
-205,650	-200,000	-0,006	-0,029
-204,636	-22,665	0,108	-0,046
-203,621	223,975	0,028	0,033
-202,606	-1,971	0,038	-0,019
-201,592	-83,267	0,006	0,001
-200,577	-62,385	-0,051	-0,015
-199,563	-200,000	-0,028	-0,090
-198,548	784,018	0,024	-0,046
-197,533	-161,129	0,099	0,004
-196,519	156,294	-0,092	-0,091
-195,504	210,108	0,039	0,044
-194,490	-200,000	0,003	0,025
-193,475	-200,000	0,008	0,075
-192,460	800,000	0,022	-0,049
-191,446	265,462	-0,031	0,038
-190,431	-57,994	-0,020	0,006
-189,417	-166,996	0,075	-0,002
-188,402	-200,000	0,015	-0,081
-187,387	-58,003	0,151	0,047
-186,373	146,991	0,119	-0,114
-185,358	712,802	0,095	-0,180
-184,344	-200,000	0,006	0,020
-183,329	615,439	-0,027	0,048
-182,315	800,000	0,058	0,129
-181,300	-200,000	-0,015	-0,101
-180,285	127,729	0,126	-0,114
-179,271	800,000	-0,060	-0,134
-178,256	224,323	-0,083	-0,095
-177,242	-200,000	-0,032	-0,124
-176,227	-4,300	-0,095	0,046
-175,212	-158,742	0,032	-0,001
-174,198	800,000	-0,023	0,064
-173,183	-17,350	0,045	0,020
-172,169	-4,671	-0,068	-0,033
-171,154	-163,976	-0,051	0,002
-170,139	-200,000	-0,012	-0,044
-169,125	-200,000	0,029	0,141
-168,110	122,689	0,088	0,078
-167,096	170,526	-0,027	0,027
-166,081	-200,000	0,003	0,026
-165,066	36,078	0,057	0,035
-164,052	-200,000	0,011	-0,132
-163,037	-200,000	-0,000	0,075
-162,023	-63,575	0,034	-0,010
-161,008	299,887	-0,028	-0,036
-159,993	15,171	0,126	0,070
-158,979	-77,214	-0,047	0,012
-157,964	593,691	0,074	-0,130
-156,950	-108,368	-0,096	-0,014
-155,935	-65,294	0,168	0,048
-154,920	-159,052	-0,072	0,003
-153,906	165,420	0,015	-0,015
-152,891	800,000	-0,038	-0,110
-151,877	-82,698	0,093	0,021
-150,862	614,035	-0,034	0,060
-149,847	-64,547	0,085	-0,024
-148,833	209,932	0,040	0,045
-147,818	371,607	-0,020	0,029
-146,804	420,704	0,052	0,079
-145,789	-72,396	-0,123	0,032
-144,775	390,991	0,032	0,048
-143,760	553,118	0,064	-0,110
-142,745	18,046	-0,036	-0,020
-141,731	-28,843	-0,111	0,045
-140,716	60,034	0,120	0,084
-139,702	-183,034	0,112	-0,001
-138,687	-65,591	0,042	-0,012
-137,672	-200,000	-0,002	-0,006
-136,658	253,583	-0,070	-0,084
-135,643	792,123	0,054	-0,105
-134,629	81,683	0,063	0,048
-133,614	-65,837	0,131	-0,037
-132,599	-200,000	-0,014	-0,124
-131,585	10,666	-0,029	0,015
-130,570	-79,619	0,162	0,038
-129,556	-141,535	-0,142	-0,010
-128,541	-32,220	-0,134	0,053
-127,526	63,142	0,126	-0,089
-126,512	-116,506	0,085	-0,011
-125,497	-63,162	0,076	0,022
-124,483	27,858	0,136	0,081
-123,468	30,732	0,118	0,071
-122,453	-200,000	0,019	-0,096
-121,439	660,945	0,049	-0,090
-120,424	138,268	-0,099	-0,091
-119,410	276,796	-0,016	0,020
-118,395	-29,194	0,061	0,025
-117,380	-148,882	0,122	-0,007
-116,366	-57,034	0,084	0,026
-115,351	800,000	0,059	0,181
-114,337	-85,681	-0,078	0,017
-113,322	-48,344	-0,077	-0,026
-112,307	92,706	-0,005	0,004
-111,293	228,323	-0,066	-0,077
-110,278	-71,455	0,061	0,016
-109,264	726,451	-0,049	0,092
-108,249	234,803	-0,077	-0,090
-107,234	10,855	-0,092	-0,050
-106,220	800,000	0,035	-0,098
-105,205	-45,553	-0,153	0,053
-104,191	800,000	-0,045	0,141
-103,176	421,038	0,062	0,095
-102,162	-118,789	-0,027	0,003
-101,147	205,713	0,061	-0,067
-100,132	-22,065	0,059	0,025
-99,118	11,507	0,137	-0,074
-98,103	-200,000	0,003	-0,085
-97,089	800,000	0,089	0,175
-96,074	485,456	-0,019	0,030
-95,059	-117,306	0,147	0,019
-94,045	161,351	-0,135	0,133
-93,030	-200,000	-0,029	-0,101
-92,016	-114,461	0,047	0,006
-91,001	-180,552	-0,059	-0,001
-89,986	-12,844	0,124	0,057
-88,972	644,646	-0,058	0,106
-87,957	800,000	-0,010	0,029
-86,943	372,009	0,008	-0,011
-85,928	321,708	-0,060	0,080
-84,913	800,000	0,021	0,054
-83,899	-200,000	-0,002	-0,185
-82,884	-200,000	-0,003	0,059
-81,870	377,829	0,090	0,130
-80,855	-3,792	0,099	-0,048
-79,840	116,256	0,052	0,045
-78,826	-200,000	0,012	-0,072
-77,811	800,000	0,030	-0,089
-76,797	-46,164	0,180	0,062
-75,782	-91,300	-0,100	0,020
-74,767	-200,000	0,016	0,073
-73,753	139,835	0,007	-0,007
-72,738	-45,594	-0,109	-0,038
-71,724	-72,488	0,104	-0,027
-70,709	301,058	-0,027	0,035
-69,694	800,000	-0,024	-0,054
-68,680	161,376	-0,033	-0,033
-67,665	6,140	0,081	0,042
-66,651	3,267	0,073	0,037
-65,636	-87,725	-0,059	-0,012
-64,622	800,000	0,010	-0,027
-63,607	73,402	0,039	-0,028
-62,592	573,114	-0,031	0,053
-61,578	-60,861	-0,050	0,015
-60,563	375,834	-0,042	-0,061
-59,549	-24,300	0,097	-0,041
-58,534	34,571	-1,943	-1,195
-57,519	576,365	-1,128	-1,952
-56,505	-200,000	-0,445	-4,508
-55,490	410,474	0,983	1,475
-54,476	800,000	5,065	11,253
-53,461	-200,000	21,083	337,234
-52,446	800,000	757,943	2340,680
-51,432	555,038	1661,981	2832,067
-50,417	73,408	1663,506	1226,552
-49,403	18,150	1536,947	862,258
-48,388	12,101	1460,200	789,933
-47,373	19,268	1451,163	819,416
-46,359	15,495	1440,558	795,448
-45,344	10,385	1436,301	768,728
-44,330	10,293	1434,298	767,186
-43,315	10,329	1432,493	766,361
-42,300	10,317	1430,641	765,284
-41,286	10,360	1429,483	764,837
-40,271	10,322	1428,182	763,931
-39,257	10,342	1427,069	763,402
-38,242	10,327	1425,984	762,721
-37,227	10,343	1424,977	762,226
-36,213	10,379	1423,465	761,555
-35,198	10,363	1422,301	760,828
-34,184	10,428	1421,323	760,582
-33,169	10,321	1420,106	759,395
-32,154	10,345	1419,271	759,033
-31,140	10,390	1417,700	758,374
-30,125	10,456	1416,766	758,155
-29,111	10,425	1415,459	757,280
-28,096	10,386	1414,541	756,573
-27,082	10,325	1413,196	755,540
-26,067	10,306	1412,271	754,927
-25,052	10,327	1411,138	754,387
-24,038	10,329	1410,169	753,852
-23,023	10,304	1409,186	753,177
-22,009	10,327	1408,189	752,722
-20,994	10,289	1407,193	751,981
-19,979	10,356	1406,091	751,676
-18,965	10,296	1405,441	751,021
-17,950	10,257	1404,471	750,290
-16,936	10,285	1403,561	749,906
-15,921	10,213	1402,789	749,128
-14,906	10,212	1401,999	748,670
-13,892	10,267	1400,746	748,228
-12,877	10,181	1400,029	747,416
-11,863	10,183	1399,349	747,030
-10,848	10,229	1398,208	746,606
-9,833	10,190	1397,113	745,812
-8,819	10,160	1396,426	745,273
-7,804	10,083	1395,594	744,445
-6,790	10,108	1394,633	744,021
-5,775	10,182	1393,302	743,620
-4,760	10,143	1392,517	742,992
-3,746	10,145	1391,442	742,398
-2,731	10,138	1390,648	741,915
-1,717	10,145	1390,016	741,577
-0,702	10,120	1388,175	740,452
0,313	14,164	1301,062	712,492
1,327	30,496	691,331	415,637
2,342	47,353	119,973	78,637
3,356	0,591	16,661	8,368
4,371	-0,660	3,545	1,766
5,386	17,308	1,054	0,588
6,400	800,000	0,224	0,522
7,415	221,821	-0,151	-0,171
8,429	20,868	-0,289	-0,165
9,444	110,900	-0,323	-0,274
10,459	41,304	-0,426	-0,270
11,473	26,918	-0,270	-0,159
12,488	97,869	-0,246	-0,199
13,502	337,984	-0,135	-0,186
14,517	51,182	-0,381	-0,254
15,531	137,604	-0,347	-0,320
16,546	-14,066	-0,398	-0,180
17,561	26,537	-0,300	-0,176
18,575	-200,000	-0,012	-0,148
19,590	194,053	-0,190	-0,203
20,604	-145,150	-0,138	0,009
21,619	-20,515	-0,473	-0,204
22,634	76,445	-0,382	-0,285
23,648	64,413	-0,459	-0,325
24,663	77,373	-0,403	-0,301
25,677	-58,048	-0,387	-0,118
26,692	117,070	-0,225	-0,195
27,707	47,919	-0,319	-0,209
28,721	88,806	-0,280	-0,219
29,736	4,805	-0,477	-0,246
30,750	-29,864	-0,454	-0,181
31,765	71,011	-0,405	-0,294
32,780	130,903	-0,337	-0,304
33,794	-22,979	-0,485	-0,205
34,809	3,160	-0,217	-0,110
35,823	228,498	-0,332	-0,381
36,838	175,174	-0,411	-0,419
37,853	86,201	-0,424	-0,328
38,867	185,368	-0,350	-0,366
39,882	103,336	-0,377	-0,310
40,896	18,281	-0,411	-0,230
41,911	146,320	-0,248	-0,234
42,926	544,097	-0,197	-0,332
43,940	79,802	-0,351	-0,264
44,955	-37,208	-0,369	-0,138
45,969	20,197	-0,322	-0,182
46,984	-5,955	-0,310	-0,149
47,999	61,843	-0,284	-0,198
49,013	123,264	-0,262	-0,231
50,028	123,932	-0,314	-0,276
51,042	-3,389	-0,330	-0,161
52,057	-96,177	-0,274	-0,051
53,071	54,087	-0,404	-0,272
54,086	138,076	-0,248	-0,229
55,101	188,045	-0,189	-0,199
56,115	-32,775	-0,573	-0,222
57,130	31,500	-0,380	-0,229
58,144	48,192	-0,263	-0,172
59,159	-27,269	-0,600	-0,244
60,174	210,645	-0,298	-0,329
61,188	30,398	-0,439	-0,262
62,203	-49,745	-0,308	-0,102
63,217	-23,873	-0,367	-0,153
64,232	-10,824	-0,348	-0,161
65,247	98,468	-0,377	-0,305
66,261	91,166	-0,374	-0,294
67,276	20,004	-0,428	-0,241
68,290	97,663	-0,246	-0,198
69,305	181,901	-0,290	-0,299
70,320	10,945	-0,221	-0,118
71,334	111,295	-0,213	-0,180
72,349	-27,220	-0,384	-0,156
73,363	154,554	-0,351	-0,338
74,378	508,418	-0,181	-0,296
75,393	-8,050	-0,298	-0,140
76,407	172,373	-0,160	-0,161
77,422	-93,941	-0,125	-0,024
78,436	31,249	-0,354	-0,212
79,451	74,450	-0,256	-0,188
80,466	-174,583	-0,375	-0,007
81,480	30,269	-0,265	-0,158
82,495	46,837	-0,285	-0,185
83,509	-43,849	-0,336	-0,118
84,524	-50,580	-0,285	-0,093
85,539	322,186	-0,171	-0,229
86,553	-89,502	-0,160	-0,033
87,568	60,392	-0,333	-0,230
88,582	-12,365	-0,266	-0,121
89,597	1,874	-0,383	-0,192
90,611	106,003	-0,299	-0,247
91,626	3,593	-0,318	-0,162
92,641	-62,003	-0,247	-0,072
93,655	47,248	-0,309	-0,201
94,670	141,777	-0,216	-0,200
95,684	56,197	-0,206	-0,140
96,699	619,222	-0,116	-0,204
97,714	-35,257	-0,189	-0,071
98,728	279,919	-0,143	-0,179
99,743	110,603	-0,163	-0,137
100,757	6,153	-0,298	-0,154
101,772	40,074	-0,164	-0,103
102,787	61,307	-0,295	-0,204
103,801	249,438	-0,299	-0,354
104,816	78,664	-0,291	-0,217
105,830	36,667	-0,167	-0,103
106,845	-82,033	-0,275	-0,062
107,860	123,225	-0,225	-0,197
108,874	181,577	-0,237	-0,244
109,889	328,573	-0,226	-0,304
110,903	66,262	-0,250	-0,177
111,918	355,729	-0,209	-0,291
112,933	99,038	-0,215	-0,173
113,947	170,038	-0,244	-0,243
114,962	-91,616	-0,269	-0,053
115,976	460,504	-0,113	-0,177
116,991	149,171	-0,130	-0,122
118,006	-58,808	-0,346	-0,104
119,020	-96,351	-0,349	-0,064
120,035	239,287	-0,233	-0,271
121,049	130,991	-0,214	-0,191
122,064	6,065	-0,311	-0,160
123,079	-100,665	-0,239	-0,041
124,093	62,882	-0,234	-0,163
125,108	-105,707	-0,278	-0,043
126,122	110,804	-0,245	-0,205
127,137	-43,045	-0,199	-0,070
128,151	81,820	-0,328	-0,247
129,166	242,449	-0,146	-0,171
130,181	465,587	-0,158	-0,247
131,195	102,325	-0,238	-0,193
132,210	30,537	-0,319	-0,190
133,224	245,684	-0,210	-0,247
134,239	96,442	-0,239	-0,190
135,254	-64,104	-0,232	-0,065
136,268	212,477	-0,208	-0,229
137,283	9,203	-0,213	-0,112
138,297	182,013	-0,227	-0,233
139,312	-84,140	-0,282	-0,062
140,327	0,336	-0,377	-0,187
141,341	800,000	-0,094	-0,246
142,356	-125,357	-0,131	-0,014
143,370	149,016	-0,226	-0,213
144,385	-83,221	-0,208	-0,046
145,400	3,067	-0,326	-0,164
146,414	22,997	-0,374	-0,213
147,429	218,419	-0,075	-0,083
148,443	-51,378	-0,314	-0,101
149,458	34,456	-0,211	-0,128
150,473	58,972	-0,190	-0,130
151,487	315,073	-0,206	-0,271
152,502	104,917	-0,335	-0,275
153,516	79,674	-0,255	-0,191
154,531	238,078	-0,288	-0,333
155,546	141,574	-0,221	-0,204
156,560	-76,204	-0,239	-0,058
157,575	108,070	-0,249	-0,207
158,589	267,817	-0,219	-0,267
159,604	45,472	-0,178	-0,114
160,619	-34,104	-0,306	-0,116
161,633	299,669	-0,166	-0,213
162,648	365,269	-0,180	-0,253
163,662	350,963	-0,146	-0,201
164,677	14,189	-0,214	-0,115
165,692	113,341	-0,270	-0,228
166,706	382,672	-0,141	-0,202
167,721	84,617	-0,277	-0,210
168,735	35,824	-0,241	-0,147
169,750	17,506	-0,205	-0,113
170,764	800,000	-0,107	-0,214
171,779	50,999	-0,187	-0,123
172,794	-85,752	-0,248	-0,053
173,808	89,474	-0,233	-0,180
174,823	-25,608	-0,287	-0,117
175,837	26,639	-0,205	-0,119
176,852	208,222	-0,159	-0,172
177,867	-77,284	-0,177	-0,043
178,881	172,377	-0,202	-0,202
179,896	-27,721	-0,288	-0,115
180,910	91,837	-0,153	-0,119
181,925	87,644	-0,292	-0,224
182,940	318,960	-0,205	-0,270
183,954	46,619	-0,211	-0,136
184,969	275,259	-0,169	-0,208
185,983	68,341	-0,228	-0,162
186,998	50,631	-0,212	-0,139
188,013	-31,735	-0,298	-0,115
189,027	110,248	-0,284	-0,237
190,042	66,518	-0,275	-0,194
191,056	-29,142	-0,138	-0,055
192,071	-11,954	-0,233	-0,105
193,086	-85,456	-0,267	-0,057
194,100	-89,296	-0,124	-0,025
195,115	308,398	-0,142	-0,184
196,129	71,972	-0,140	-0,101
197,144	112,267	-0,264	-0,221
198,159	-54,075	-0,169	-0,053
199,173	160,168	-0,204	-0,197
200,188	396,629	-0,091	-0,133
201,202	78,327	-0,095	-0,070
202,217	119,122	-0,240	-0,205
203,232	340,384	-0,176	-0,238
204,246	212,370	-0,176	-0,192
205,261	289,341	-0,163	-0,205
206,275	240,112	-0,123	-0,142
207,290	-17,477	-0,291	-0,126
208,304	-39,857	-0,151	-0,054
209,319	-4,426	-0,190	-0,090
210,334	-101,918	-0,171	-0,028
211,348	105,576	-0,293	-0,239
212,363	195,243	-0,111	-0,117
213,377	12,163	-0,384	-0,204
214,392	48,267	-0,161	-0,104
215,407	328,924	-0,108	-0,143
216,421	106,867	-0,106	-0,087
217,436	226,165	-0,165	-0,185
218,450	59,001	-0,264	-0,179
219,465	157,095	-0,144	-0,138
220,480	189,941	-0,197	-0,204
221,494	103,250	-0,165	-0,134
222,509	-19,488	-0,116	0,050
223,523	88,910	-0,162	-0,124
224,538	105,177	-0,199	-0,162
225,553	208,726	-0,196	-0,212
226,567	19,844	-0,177	-0,098
227,582	154,173	-0,197	-0,187
228,596	800,000	-0,104	-0,241
229,611	85,884	-0,116	-0,088
230,626	-200,000	-0,045	-0,155
231,640	-49,199	-0,146	-0,048
232,655	51,192	-0,203	-0,133
233,669	141,211	-0,133	-0,121
234,684	200,883	-0,107	-0,113
235,699	-15,580	-0,157	-0,069
236,713	800,000	-0,091	-0,177
237,728	340,541	-0,097	-0,130
238,742	145,775	-0,159	-0,147
239,757	98,884	-0,270	-0,215
240,772	22,743	-0,232	-0,131
241,786	0,130	-0,221	-0,109
242,801	654,173	-0,092	-0,164
243,815	-114,977	-0,279	-0,036
244,830	-200,000	-0,023	-0,189
245,844	-57,867	-0,140	-0,042
246,859	679,523	-0,116	-0,210
247,874	28,857	-0,314	-0,183
248,888	-180,328	-0,159	-0,002
249,903	-109,351	-0,060	-0,009
250,917	232,394	-0,148	-0,168
251,932	115,611	-0,189	-0,159
252,947	157,589	-0,170	-0,162
253,961	-90,641	-0,383	-0,076
254,976	75,200	-0,167	-0,121
255,990	486,805	-0,160	-0,252
257,005	537,496	-0,107	-0,176
258,020	-163,839	-0,168	0,005
259,034	526,843	-0,145	-0,236
260,049	-9,516	-0,139	-0,064
261,063	492,848	-0,122	-0,193
262,078	443,450	-0,134	-0,204
263,093	-200,000	-0,060	-0,205
264,107	206,310	-0,171	-0,183
265,122	56,509	-0,082	-0,055
266,136	717,993	-0,097	-0,179
267,151	-21,072	-0,128	-0,054
268,166	331,472	-0,093	-0,124
269,180	800,000	-0,092	-0,192
270,195	93,756	-0,205	-0,160
271,209	-16,042	-0,120	-0,052
272,224	615,129	-0,109	-0,188
273,239	200,521	-0,205	-0,217
274,253	175,103	-0,208	-0,207
275,268	-113,057	-0,212	0,028
276,282	148,910	-0,110	-0,102
277,297	396,373	-0,119	-0,171
278,312	-200,000	-0,051	-0,256
279,326	-200,000	-0,032	-0,150
280,341	110,047	-0,125	-0,103
281,355	800,000	-0,060	-0,126
282,370	305,108	-0,091	-0,116
283,384	377,296	-0,168	-0,236
284,399	334,192	-0,137	-0,183
285,414	-87,853	-0,206	-0,042
286,428	395,063	-0,098	-0,140
287,443	34,539	-0,136	-0,082
288,457	182,923	-0,113	-0,115
289,472	688,541	-0,061	-0,111
290,487	364,499	-0,175	-0,243
291,501	26,612	-0,151	-0,087
292,516	-49,421	-0,149	-0,049
293,530	34,144	-0,089	-0,053
294,545	800,000	-0,053	-0,142
295,560	-60,473	-0,128	0,037
296,574	-135,811	-0,180	-0,014
297,589	33,700	-0,223	-0,133
298,603	67,446	-0,269	-0,188
299,618	246,937	-0,142	-0,164
300,633	-86,644	-0,187	-0,039
301,647	-63,457	-0,171	-0,048
302,662	800,000	-0,005	0,012
303,676	294,705	-0,089	-0,112
304,691	236,941	-0,168	-0,191
305,706	-184,935	-0,075	0,001
306,720	100,450	-0,180	-0,143
307,735	-42,396	-0,240	-0,084
308,749	74,355	-0,227	-0,164
309,764	428,096	-0,060	0,089
310,779	-41,698	-0,220	-0,077
311,793	71,277	-0,117	0,083
312,808	-200,000	0,051	-0,199
313,822	15,185	-0,189	-0,101
314,837	72,352	-0,143	-0,102
315,852	389,592	0,058	0,082
316,866	-98,818	-0,057	-0,010
317,881	267,810	-0,054	-0,065
318,895	272,395	-0,131	-0,159
319,910	404,464	-0,070	-0,101
320,925	-187,005	-0,173	-0,002
321,939	128,058	-0,190	-0,166
322,954	219,291	-0,124	-0,136
323,968	-152,461	-0,070	0,003
324,983	-200,000	-0,066	-0,214
325,997	-38,042	-0,277	-0,100
327,012	-50,191	-0,211	-0,068
328,027	608,680	-0,130	-0,222
329,041	-83,134	-0,150	-0,033
330,056	13,660	-0,050	0,027
331,070	-159,253	-0,147	0,006
332,085	162,108	-0,118	-0,114
333,100	800,000	-0,077	-0,166
334,114	-121,699	-0,227	-0,025
335,129	173,808	-0,147	-0,146
336,143	239,075	-0,150	-0,171
337,158	22,165	-0,099	-0,055
338,173	-170,687	-0,246	-0,006
339,187	167,533	-0,031	0,030
340,202	795,577	-0,051	-0,096
341,216	-51,172	-0,239	-0,076
342,231	282,451	-0,142	-0,174
343,246	190,284	-0,169	-0,174
344,260	147,829	-0,083	-0,076
345,275	245,209	-0,087	-0,100
346,289	-200,000	-0,057	-0,228
347,304	-0,851	-0,129	-0,062
348,319	173,943	-0,175	-0,173
349,333	-101,106	-0,127	-0,021
350,348	800,000	-0,059	-0,152
351,362	201,360	-0,111	-0,117
352,377	-200,000	-0,036	-0,176
353,392	-163,179	-0,096	-0,003
354,406	-113,921	-0,171	-0,022
355,421	208,690	1313,397	1405,853
356,435	160,589	1473,934	1406,326
