DTS Sentinel unit serial number:	SN410029Multiplexer serial number:	ORYXHardware model number:	OX2-SRSoftware version number:	ORYX F/W v4,00 Oryx Data Collector v3.7.2.0data status	okinstallation	B3 Nyhavnadifferential loss correction	single-endedforward channel	channel 1reverse channel	N/Adate	2023/12/03time	19:42:30forward acquisition time	300,00reverse acquisition time	0,00gamma	499,1914k internal	0,3198k external	0,3198temperature offset calibration	1,0000default loss term (dB/km)	0,3820temperature slope calibration	1,0000multiplexer offset coefficient	1,0000multiplexer slope coefficient	1,0000fibre end	0,00T internal ref (°C)	14,19T ext. ref 1 (°C)	-1,16T ext. ref 2 (°C)	-1,18length (m)	temperature (°C)	Stokes	anti-Stokes-744,400	80,197	-0,248	-0,194
-743,385	-200,000	0,020	0,278
-742,371	151,467	-0,198	-0,196
-741,356	-200,000	0,027	0,187
-740,342	1,308	-0,242	-0,126
-739,327	-200,000	0,071	0,304
-738,312	142,306	-0,330	-0,319
-737,298	-200,000	0,018	0,290
-736,283	-47,083	-0,227	-0,080
-735,269	-200,000	0,051	0,321
-734,254	-50,753	-0,303	-0,103
-733,239	-37,158	-0,233	0,090
-732,225	35,839	-0,218	-0,139
-731,210	143,915	-0,104	0,101
-730,196	-28,749	-0,104	0,043
-729,181	2,113	-0,112	0,059
-728,167	-200,000	-0,001	-0,212
-727,152	-13,057	-0,033	0,016
-726,137	131,281	0,085	-0,079
-725,123	-122,167	-0,119	-0,014
-724,108	-97,118	-0,071	-0,013
-723,094	632,661	-0,060	-0,110
-722,079	706,027	-0,102	-0,196
-721,064	800,000	0,060	-0,126
-720,050	-200,000	0,034	-0,195
-719,035	208,998	0,048	0,055
-718,021	30,557	-0,086	0,053
-717,006	-116,794	-0,058	0,008
-715,991	156,761	-0,206	-0,207
-714,977	289,513	-0,026	-0,035
-713,962	-33,908	0,058	-0,023
-712,948	-47,259	-0,105	0,037
-711,933	69,242	-0,072	-0,054
-710,918	-110,237	0,034	0,005
-709,904	800,000	0,049	-0,112
-708,889	42,604	-0,068	0,045
-707,875	800,000	0,043	0,088
-706,860	-39,264	0,018	-0,007
-705,845	-13,709	0,058	0,027
-704,831	-66,479	0,064	-0,018
-703,816	-200,000	-0,007	0,063
-702,802	-66,574	0,099	0,028
-701,787	800,000	-0,036	-0,114
-700,772	-125,105	-0,050	0,005
-699,758	724,242	0,040	-0,077
-698,743	-111,870	0,028	-0,004
-697,729	368,811	-0,029	0,042
-696,714	800,000	0,008	0,018
-695,699	282,236	0,031	-0,040
-694,685	723,696	-0,078	-0,152
-693,670	-200,000	-0,011	0,041
-692,656	800,000	-0,032	-0,095
-691,641	232,650	-0,033	0,040
-690,627	30,845	0,033	-0,021
-689,612	-200,000	0,021	-0,083
-688,597	-21,280	0,092	0,041
-687,583	90,115	0,061	0,049
-686,568	29,039	-0,062	-0,038
-685,554	-200,000	-0,001	0,057
-684,539	-200,000	0,015	0,079
-683,524	17,578	0,044	0,025
-682,510	-176,791	-0,100	0,002
-681,495	-160,277	-0,170	-0,007
-680,481	-85,241	-0,053	-0,012
-679,466	530,270	-0,025	-0,044
-678,451	-37,370	0,118	0,046
-677,437	34,238	0,113	-0,071
-676,422	247,216	-0,039	0,048
-675,408	131,061	0,048	0,045
-674,393	-27,440	0,129	-0,054
-673,378	89,239	-0,071	0,057
-672,364	19,264	-0,115	0,067
-671,349	800,000	0,009	-0,021
-670,335	474,903	0,071	-0,117
-669,320	-200,000	0,005	-0,033
-668,305	-41,772	-0,188	0,070
-667,291	800,000	0,026	0,069
-666,276	256,444	-0,030	-0,037
-665,262	-200,000	-0,058	-0,193
-664,247	-143,347	-0,177	-0,012
-663,232	-200,000	0,019	-0,084
-662,218	555,448	0,028	0,049
-661,203	-122,369	-0,012	-0,001
-660,189	-127,882	-0,044	-0,005
-659,174	17,583	-0,052	-0,030
-658,159	-64,177	-0,085	-0,025
-657,145	63,545	-0,097	-0,071
-656,130	-108,876	-0,077	-0,012
-655,116	800,000	0,015	0,034
-654,101	44,356	0,049	0,033
-653,086	52,243	-0,125	0,086
-652,072	-36,772	0,041	-0,016
-651,057	-62,851	-0,072	0,021
-650,043	319,338	0,089	-0,123
-649,028	28,800	0,054	0,033
-648,014	199,309	-0,049	0,055
-646,999	-32,453	0,121	-0,049
-645,984	-200,000	-0,017	-0,058
-644,970	238,077	-0,094	-0,113
-643,955	-200,000	-0,029	-0,123
-642,941	113,194	-0,122	0,108
-641,926	800,000	0,024	0,055
-640,911	-200,000	0,003	-0,124
-639,897	-200,000	0,000	0,077
-638,882	-200,000	-0,038	0,140
-637,868	-200,000	0,001	0,020
-636,853	-200,000	0,016	-0,178
-635,838	800,000	-0,014	-0,037
-634,824	251,643	-0,044	0,054
-633,809	-94,063	0,059	0,012
-632,795	-29,225	-0,081	0,033
-631,780	205,781	-0,029	-0,033
-630,765	-141,457	-0,068	-0,005
-629,751	225,505	0,033	-0,038
-628,736	-1,949	-0,094	-0,048
-627,722	-200,000	-0,014	0,074
-626,707	800,000	0,021	0,042
-625,692	800,000	0,089	0,197
-624,678	153,020	0,119	0,118
-623,663	296,127	-0,051	-0,068
-622,649	800,000	0,039	-0,107
-621,634	-78,512	-0,051	-0,013
-620,619	67,207	-0,024	0,018
-619,605	-200,000	0,010	0,060
-618,590	800,000	0,070	0,163
-617,576	-200,000	-0,013	0,103
-616,561	-200,000	-0,013	0,047
-615,546	41,671	0,026	0,017
-614,532	-200,000	-0,022	-0,120
-613,517	72,273	0,099	-0,075
-612,503	196,959	-0,039	-0,043
-611,488	-68,503	-0,093	0,026
-610,474	800,000	0,015	0,045
-609,459	-19,963	-0,099	-0,044
-608,444	-12,932	-0,064	-0,030
-607,430	800,000	-0,053	0,111
-606,415	344,320	0,090	-0,129
-605,401	3,564	-0,058	0,031
-604,386	-200,000	0,030	0,099
-603,371	-0,397	-0,121	0,062
-602,357	-124,656	0,067	-0,007
-601,342	-158,595	-0,194	0,008
-600,328	-150,399	-0,119	-0,007
-599,313	-17,138	-0,078	-0,035
-598,298	236,425	-0,040	-0,048
-597,284	261,929	0,088	0,111
-596,269	800,000	0,024	-0,071
-595,255	-94,755	-0,109	-0,021
-594,240	66,291	-0,003	-0,002
-593,225	-131,081	-0,097	-0,009
-592,211	-200,000	-0,010	-0,068
-591,196	-200,000	-0,017	-0,057
-590,182	-200,000	0,009	-0,032
-589,167	-129,146	-0,107	0,011
-588,152	252,532	0,053	0,066
-587,138	-200,000	0,010	-0,057
-586,123	171,487	-0,162	0,169
-585,109	800,000	-0,042	-0,100
-584,094	691,610	0,069	0,131
-583,079	-200,000	0,007	-0,099
-582,065	63,384	-0,055	-0,040
-581,050	-77,697	-0,104	0,026
-580,036	-200,000	-0,003	0,033
-579,021	67,269	-0,060	0,044
-578,006	526,583	0,015	0,025
-576,992	-200,000	-0,017	0,085
-575,977	800,000	0,010	-0,031
-574,963	92,783	-0,078	0,063
-573,948	-149,424	0,165	0,009
-572,934	62,628	-0,027	-0,019
-571,919	-58,463	-0,176	-0,055
-570,904	-200,000	-0,006	-0,061
-569,890	91,779	-0,168	-0,136
-568,875	176,806	0,073	0,077
-567,861	-200,000	0,015	-0,090
-566,846	-200,000	0,021	0,114
-565,831	86,449	-0,034	-0,027
-564,817	-84,509	-0,028	-0,006
-563,802	-104,090	-0,021	0,004
-562,788	800,000	0,042	-0,099
-561,773	73,565	0,050	-0,038
-560,758	-95,807	0,076	0,015
-559,744	275,514	-0,088	0,113
-558,729	-200,000	0,001	0,017
-557,715	10,084	-0,067	-0,036
-556,700	-163,610	0,037	-0,001
-555,685	184,818	0,059	0,063
-554,671	800,000	0,082	0,209
-553,656	162,637	0,056	-0,057
-552,642	800,000	0,058	0,134
-551,627	117,682	-0,085	0,075
-550,612	-51,730	0,075	-0,025
-549,598	-200,000	-0,034	0,120
-548,583	60,403	-0,074	-0,053
-547,569	108,645	0,063	0,054
-546,554	800,000	0,036	0,109
-545,539	-200,000	0,012	0,096
-544,525	73,280	0,006	0,004
-543,510	-192,837	-0,025	-0,000
-542,496	-107,899	0,016	-0,003
-541,481	134,926	0,016	0,015
-540,466	622,608	-0,062	-0,113
-539,452	-200,000	-0,006	0,061
-538,437	-122,657	0,130	0,015
-537,423	94,742	-0,073	-0,060
-536,408	-107,243	0,105	0,016
-535,393	-200,000	-0,013	-0,056
-534,379	-76,351	-0,044	0,011
-533,364	-200,000	0,046	-0,156
-532,350	-200,000	0,006	0,036
-531,335	-200,000	0,013	-0,079
-530,321	-200,000	-0,003	-0,024
-529,306	106,413	-0,077	0,066
-528,291	-200,000	-0,009	-0,114
-527,277	-186,579	0,060	0,001
-526,262	36,407	0,025	-0,016
-525,248	-200,000	0,002	0,081
-524,233	-44,753	0,116	-0,041
-523,218	-31,142	0,072	-0,029
-522,204	332,663	-0,004	0,006
-521,189	-123,113	0,114	0,013
-520,175	-54,427	-0,118	-0,038
-519,160	800,000	0,022	-0,061
-518,145	689,686	-0,036	-0,068
-517,131	612,979	-0,030	-0,055
-516,116	225,356	0,018	-0,022
-515,102	266,438	-0,037	0,047
-514,087	-200,000	-0,034	-0,139
-513,072	271,139	-0,053	-0,068
-512,058	-159,888	0,071	-0,003
-511,043	800,000	-0,018	-0,056
-510,029	-200,000	0,003	0,118
-509,014	-200,000	0,029	0,154
-507,999	173,084	-0,052	-0,054
-506,985	800,000	-0,046	-0,128
-505,970	250,729	-0,059	-0,072
-504,956	430,848	-0,040	-0,062
-503,941	-200,000	-0,007	0,034
-502,926	355,408	-0,017	0,024
-501,912	401,822	0,021	0,032
-500,897	-94,366	-0,084	-0,016
-499,883	-29,527	-0,061	-0,025
-498,868	57,552	0,009	0,006
-497,853	-111,183	-0,106	0,016
-496,839	656,205	-0,036	0,066
-495,824	-200,000	-0,025	-0,107
-494,810	176,606	0,092	0,096
-493,795	-200,000	-0,014	-0,050
-492,781	243,095	0,137	-0,166
-491,766	-200,000	0,012	-0,134
-490,751	-116,309	0,094	0,012
-489,737	237,883	0,023	0,028
-488,722	-200,000	-0,027	-0,105
-487,708	294,042	-0,049	0,064
-486,693	-200,000	0,010	0,105
-485,678	509,190	-0,017	0,029
-484,664	248,488	-0,022	-0,027
-483,649	-200,000	0,000	-0,161
-482,635	-200,000	0,009	0,081
-481,620	173,575	0,024	-0,025
-480,605	-200,000	0,005	-0,042
-479,591	29,766	0,097	0,059
-478,576	66,174	-0,072	-0,053
-477,562	127,591	0,092	-0,084
-476,547	-1,131	-0,062	-0,031
-475,532	126,558	0,151	0,138
-474,518	-10,365	-0,059	0,028
-473,503	462,327	0,038	0,062
-472,489	205,181	0,116	0,130
-471,474	-18,740	-0,055	0,024
-470,459	800,000	-0,010	0,023
-469,445	-25,031	0,010	-0,004
-468,430	520,368	0,095	-0,160
-467,416	416,848	0,042	-0,065
-466,401	-200,000	0,009	-0,092
-465,386	-158,654	0,059	-0,002
-464,372	800,000	-0,017	0,055
-463,357	45,839	0,006	-0,004
-462,343	-200,000	-0,067	0,214
-461,328	127,316	0,041	0,037
-460,313	531,809	-0,014	0,025
-459,299	5,867	0,080	0,042
-458,284	800,000	0,012	0,037
-457,270	-200,000	0,004	-0,015
-456,255	24,558	-0,077	-0,046
-455,241	800,000	-0,089	-0,204
-454,226	-200,000	-0,035	-0,133
-453,211	-176,419	0,049	-0,001
-452,197	525,421	-0,030	0,051
-451,182	107,432	-0,110	0,094
-450,168	-200,000	0,003	0,030
-449,153	427,938	0,037	-0,057
-448,138	469,342	-0,103	-0,167
-447,124	-200,000	0,008	0,034
-446,109	247,937	-0,074	-0,090
-445,095	-200,000	-0,017	0,093
-444,080	108,725	0,037	-0,032
-443,065	262,485	0,079	0,099
-442,051	-82,791	-0,129	0,030
-441,036	-30,978	-0,078	0,032
-440,022	-56,676	-0,057	0,018
-439,007	231,896	0,058	-0,069
-437,992	-94,126	0,075	0,015
-436,978	-10,445	-0,018	0,009
-435,963	800,000	0,071	0,163
-434,949	800,000	0,027	-0,067
-433,934	6,817	-0,025	0,013
-432,919	247,055	0,079	-0,096
-431,905	-200,000	0,003	-0,059
-430,890	-200,000	0,003	-0,047
-429,876	-143,175	0,151	0,010
-428,861	-34,219	0,096	0,038
-427,846	800,000	0,043	0,087
-426,832	-200,000	0,003	0,071
-425,817	335,230	-0,103	-0,144
-424,803	-103,855	-0,118	0,020
-423,788	-193,913	0,158	0,001
-422,773	680,705	0,061	0,115
-421,759	723,898	-0,055	-0,106
-420,744	91,269	-0,052	0,042
-419,730	800,000	-0,013	0,027
-418,715	-16,623	-0,108	-0,049
-417,701	800,000	-0,025	0,064
-416,686	-200,000	0,005	-0,031
-415,671	55,353	-0,087	-0,061
-414,657	-132,194	0,074	-0,007
-413,642	-75,406	-0,148	0,038
-412,628	-200,000	0,015	-0,126
-411,613	800,000	0,062	0,123
-410,598	-200,000	0,020	0,066
-409,584	-164,042	0,048	-0,002
-408,569	800,000	-0,032	0,072
-407,555	-199,970	-0,077	-0,000
-406,540	0,064	0,089	0,046
-405,525	-200,000	-0,005	-0,093
-404,511	-68,748	0,102	-0,028
-403,496	-21,640	-0,069	-0,030
-402,482	-200,000	-0,003	0,038
-401,467	-200,000	0,018	0,087
-400,452	-200,000	0,004	-0,043
-399,438	-28,462	0,116	-0,048
-398,423	-29,659	-0,129	0,052
-397,409	-69,564	-0,067	-0,018
-396,394	-44,111	0,042	0,015
-395,379	-200,000	-0,027	-0,101
-394,365	-91,060	0,213	-0,043
-393,350	-200,000	-0,001	0,068
-392,336	800,000	-0,016	0,035
-391,321	800,000	-0,061	-0,177
-390,306	87,941	-0,134	-0,107
-389,292	324,386	0,033	-0,046
-388,277	-200,000	-0,016	-0,077
-387,263	-200,000	0,011	-0,144
-386,248	398,411	0,095	0,143
-385,233	-200,000	-0,019	0,121
-384,219	477,903	0,024	0,039
-383,204	-46,182	-0,043	0,015
-382,190	-194,030	0,157	-0,001
-381,175	-90,653	-0,090	-0,018
-380,160	-63,051	-0,055	0,016
-379,146	102,481	-0,061	0,051
-378,131	-55,559	0,053	-0,017
-377,117	800,000	0,030	0,065
-376,102	93,984	-0,096	-0,078
-375,088	-115,540	-0,108	-0,014
-374,073	209,793	-0,084	0,095
-373,058	800,000	0,030	0,078
-372,044	-200,000	-0,024	0,168
-371,029	-200,000	0,009	0,028
-370,015	360,882	-0,055	0,079
-369,000	-5,882	-0,062	-0,030
-367,985	557,681	0,014	0,024
-366,971	800,000	-0,051	0,144
-365,956	-200,000	-0,004	0,064
-364,942	-200,000	-0,010	0,060
-363,927	-20,451	0,074	0,032
-362,912	427,999	0,051	-0,079
-361,898	-78,680	-0,103	-0,025
-360,883	-48,879	-0,114	-0,039
-359,869	254,143	0,059	-0,072
-358,854	102,974	-0,069	-0,058
-357,839	-138,103	0,255	0,020
-356,825	33,374	0,020	0,012
-355,810	558,538	0,037	-0,065
-354,796	800,000	-0,042	-0,127
-353,781	800,000	-0,014	-0,044
-352,766	800,000	0,024	0,068
-351,752	52,500	-0,059	0,040
-350,737	47,016	0,106	0,071
-349,723	800,000	-0,017	0,036
-348,708	282,788	-0,068	0,088
-347,693	521,557	-0,005	-0,008
-346,679	-61,222	-0,066	-0,020
-345,664	800,000	-0,034	-0,091
-344,650	-200,000	0,017	0,213
-343,635	103,668	0,120	-0,101
-342,620	-28,576	0,193	0,079
-341,606	264,772	-0,077	0,097
-340,591	800,000	-0,049	-0,117
-339,577	462,825	0,082	-0,131
-338,562	36,670	-0,015	-0,010
-337,548	16,241	0,078	0,044
-336,533	-82,138	0,106	0,025
-335,518	800,000	0,032	-0,079
-334,504	800,000	0,033	-0,069
-333,489	-58,659	-0,152	0,047
-332,475	-174,378	0,040	0,001
-331,460	800,000	-0,033	-0,103
-330,445	227,716	-0,062	0,073
-329,431	800,000	0,072	-0,144
-328,416	249,311	0,009	0,011
-327,402	-200,000	0,027	0,101
-326,387	13,945	-0,081	-0,045
-325,372	-53,134	0,075	-0,025
-324,358	-37,056	0,129	0,049
-323,343	-31,139	0,055	0,022
-322,329	-200,000	0,017	0,105
-321,314	159,912	0,055	-0,055
-320,299	-50,008	0,101	0,034
-319,285	-200,000	0,004	-0,080
-318,270	-169,131	-0,085	0,002
-317,256	-161,539	-0,095	0,003
-316,241	800,000	-0,038	0,093
-315,226	206,332	0,070	-0,078
-314,212	800,000	0,029	-0,082
-313,197	-74,151	-0,078	0,020
-312,183	-200,000	0,001	0,118
-311,168	-23,687	0,036	0,015
-310,153	-41,094	-0,036	0,013
-309,139	-113,299	0,082	-0,011
-308,124	-200,000	-0,001	-0,065
-307,110	106,846	-0,105	0,089
-306,095	800,000	-0,029	-0,060
-305,080	800,000	-0,006	0,020
-304,066	-200,000	0,020	-0,065
-303,051	145,321	0,064	-0,062
-302,037	800,000	0,078	0,156
-301,022	138,680	-0,065	0,061
-300,008	513,938	-0,093	0,156
-298,993	282,108	-0,058	0,075
-297,978	35,731	0,129	-0,081
-296,964	800,000	-0,033	0,095
-295,949	283,345	0,066	-0,085
-294,935	-96,327	-0,076	0,014
-293,920	-138,652	-0,029	-0,002
-292,905	565,532	0,041	-0,071
-291,891	-200,000	0,005	0,122
-290,876	800,000	0,028	0,060
-289,862	800,000	0,028	-0,066
-288,847	-200,000	-0,035	-0,151
-287,832	-97,133	0,088	0,016
-286,818	800,000	-0,042	-0,113
-285,803	-108,416	0,113	-0,017
-284,789	-37,812	-0,038	0,014
-283,774	-150,117	-0,130	-0,007
-282,759	-133,063	0,055	0,005
-281,745	-200,000	-0,015	-0,069
-280,730	16,834	-0,037	-0,021
-279,716	-200,000	0,010	-0,157
-278,701	451,248	0,062	0,098
-277,686	800,000	-0,062	0,145
-276,672	-41,517	-0,046	0,017
-275,657	-25,880	0,107	0,045
-274,643	-200,000	0,043	0,160
-273,628	-200,000	-0,006	-0,028
-272,613	-145,944	-0,063	0,004
-271,599	77,375	0,064	-0,049
-270,584	-111,726	0,139	-0,020
-269,570	-20,374	0,058	-0,025
-268,555	-14,480	-0,019	-0,009
-267,540	-200,000	-0,003	-0,036
-266,526	-200,000	-0,026	-0,125
-265,511	-200,000	-0,021	-0,111
-264,497	106,631	0,050	-0,042
-263,482	-38,805	0,100	-0,038
-262,467	800,000	0,031	0,081
-261,453	-200,000	-0,007	0,096
-260,438	-85,156	-0,071	-0,016
-259,424	158,479	0,058	0,058
-258,409	-200,000	-0,009	0,035
-257,395	159,996	0,034	0,034
-256,380	-200,000	0,014	-0,069
-255,365	84,198	0,145	-0,113
-254,351	707,370	0,059	-0,111
-253,336	106,097	-0,066	-0,056
-252,322	400,336	0,058	0,087
-251,307	-52,834	0,053	0,017
-250,292	11,710	0,052	-0,028
-249,278	-200,000	0,017	-0,069
-248,263	-200,000	0,005	0,097
-247,249	376,811	-0,064	0,094
-246,234	-66,632	-0,064	-0,018
-245,219	-135,453	-0,132	-0,011
-244,205	198,088	-0,027	-0,030
-243,190	-46,745	0,065	0,023
-242,176	149,099	0,051	-0,049
-241,161	65,344	0,073	0,053
-240,146	240,946	-0,045	0,054
-239,132	-200,000	0,043	0,000
-238,117	-38,285	-0,129	-0,048
-237,103	-200,000	0,016	-0,068
-236,088	84,179	-0,115	0,090
-235,073	197,695	0,080	-0,087
-234,059	435,776	0,070	0,110
-233,044	307,887	-0,055	0,074
-232,030	-200,000	0,065	-0,208
-231,015	-93,828	0,042	-0,008
-230,000	-144,401	-0,167	0,011
-228,986	96,437	-0,099	-0,080
-227,971	788,225	0,031	-0,060
-226,957	289,798	0,022	0,028
-225,942	-200,000	-0,030	0,217
-224,927	-200,000	0,001	0,148
-223,913	142,968	0,071	0,067
-222,898	-200,000	0,028	-0,176
-221,884	800,000	-0,067	-0,145
-220,869	800,000	0,024	-0,058
-219,855	7,243	0,132	-0,070
-218,840	-200,000	0,009	0,062
-217,825	595,052	0,019	0,033
-216,811	285,781	-0,097	0,125
-215,796	-169,235	-0,114	-0,003
-214,782	481,860	-0,064	-0,104
-213,767	108,477	0,032	0,028
-212,752	-200,000	0,009	0,051
-211,738	204,053	-0,070	0,078
-210,723	800,000	0,036	-0,092
-209,709	-19,619	-0,128	0,056
-208,694	-200,000	-0,007	0,027
-207,679	-200,000	-0,003	-0,017
-206,665	-153,995	0,085	0,004
-205,650	-200,000	0,027	-0,188
-204,636	-0,554	0,029	0,015
-203,621	-200,000	0,030	0,123
-202,606	-200,000	0,014	0,050
-201,592	27,877	-0,138	0,083
-200,577	800,000	-0,009	0,022
-199,563	800,000	0,051	-0,100
-198,548	-125,540	0,101	0,011
-197,533	3,997	0,067	0,035
-196,519	-35,339	0,162	-0,063
-195,504	800,000	0,048	-0,110
-194,490	183,946	-0,094	-0,099
-193,475	-39,615	-0,046	-0,017
-192,460	128,077	0,055	-0,050
-191,446	-192,459	0,139	-0,001
-190,431	-200,000	-0,007	0,131
-189,417	800,000	-0,004	-0,009
-188,402	800,000	-0,006	0,016
-187,387	130,890	0,033	-0,030
-186,373	51,831	-0,043	0,029
-185,358	696,894	-0,046	0,086
-184,344	-93,071	0,065	0,013
-183,329	518,774	0,019	0,032
-182,315	-10,623	0,097	0,046
-181,300	224,430	-0,099	-0,114
-180,285	800,000	-0,078	-0,171
-179,271	252,159	-0,055	-0,067
-178,256	-34,605	-0,046	-0,018
-177,242	45,032	-0,090	0,059
-176,227	-177,823	0,029	0,000
-175,212	-82,008	0,031	-0,007
-174,198	800,000	0,015	0,036
-173,183	169,081	0,034	-0,034
-172,169	-200,000	0,023	-0,128
-171,154	-83,967	0,075	-0,017
-170,139	800,000	0,020	-0,056
-169,125	-16,090	0,158	0,071
-168,110	16,747	0,088	-0,049
-167,096	282,274	-0,049	0,063
-166,081	-200,000	-0,014	0,103
-165,066	525,063	-0,010	-0,017
-164,052	322,098	0,034	-0,046
-163,037	800,000	0,031	-0,069
-162,023	800,000	0,065	0,166
-161,008	-200,000	0,011	0,111
-159,993	800,000	-0,076	0,204
-158,979	800,000	0,019	-0,049
-157,964	-200,000	-0,031	-0,127
-156,950	-158,132	-0,114	-0,005
-155,935	-200,000	0,010	0,045
-154,920	-200,000	0,016	-0,080
-153,906	-200,000	-0,004	0,033
-152,891	169,983	0,007	-0,007
-151,877	-31,922	-0,068	0,027
-150,862	-200,000	-0,011	0,099
-149,847	563,473	0,085	-0,147
-148,833	612,438	0,039	-0,069
-147,818	-200,000	0,031	0,140
-146,804	-200,000	0,005	0,085
-145,789	-97,246	0,118	0,022
-144,775	-200,000	-0,006	-0,118
-143,760	198,538	-0,184	-0,200
-142,745	-200,000	-0,015	-0,105
-141,731	307,335	0,086	0,114
-140,716	473,920	0,046	0,074
-139,702	-151,123	-0,100	-0,005
-138,687	528,235	-0,029	0,049
-137,672	800,000	0,032	-0,100
-136,658	-81,674	-0,116	0,027
-135,643	86,550	-0,121	-0,095
-134,629	-200,000	-0,028	0,093
-133,614	716,996	-0,033	0,063
-132,599	70,924	0,109	-0,080
-131,585	-200,000	-0,001	-0,093
-130,570	131,821	-0,029	0,027
-129,556	330,249	0,047	-0,064
-128,541	-66,179	-0,032	0,009
-127,526	-169,039	-0,152	0,004
-126,512	409,093	-0,042	-0,063
-125,497	209,685	-0,066	0,073
-124,483	-200,000	-0,003	-0,103
-123,468	37,581	-0,133	0,084
-122,453	513,611	-0,042	-0,070
-121,439	269,233	0,052	0,065
-120,424	-43,322	-0,053	-0,019
-119,410	-200,000	0,003	0,040
-118,395	94,309	0,140	0,113
-117,380	-80,142	-0,038	-0,009
-116,366	400,141	0,059	0,088
-115,351	684,646	-0,034	0,064
-114,337	-200,000	0,001	-0,111
-113,322	140,315	-0,055	-0,052
-112,307	800,000	0,026	-0,072
-111,293	-42,145	-0,051	0,018
-110,278	109,896	0,114	-0,097
-109,264	-2,548	0,084	-0,041
-108,249	-164,164	0,065	-0,002
-107,234	70,346	-0,059	-0,043
-106,220	42,708	-0,091	0,059
-105,205	-200,000	0,009	0,080
-104,191	-95,467	0,092	-0,017
-103,176	547,647	0,059	0,100
-102,162	-93,520	-0,107	0,021
-101,147	800,000	-0,042	-0,123
-100,132	18,670	-0,113	-0,064
-99,118	127,183	0,014	-0,013
-98,103	60,176	-0,064	0,045
-97,089	-108,991	0,019	-0,003
-96,074	380,234	-0,027	0,039
-95,059	800,000	-0,011	-0,024
-94,045	-200,000	-0,007	-0,041
-93,030	-120,480	0,076	-0,009
-92,016	-200,000	-0,016	-0,071
-91,001	-200,000	0,002	0,012
-89,986	300,994	0,086	0,113
-88,972	-187,488	0,052	-0,000
-87,957	-200,000	-0,020	0,142
-86,943	-200,000	0,027	-0,247
-85,928	155,392	-0,012	-0,011
-84,913	89,034	-0,133	0,105
-83,899	-60,925	-0,196	0,058
-82,884	78,999	0,078	0,059
-81,870	-200,000	0,023	0,096
-80,855	-49,621	0,087	-0,029
-79,840	-144,523	0,093	0,006
-78,826	800,000	0,016	0,044
-77,811	-200,000	0,007	-0,050
-76,797	-200,000	-0,007	-0,164
-75,782	228,953	0,012	-0,014
-74,767	-200,000	-0,025	0,117
-73,753	109,235	-0,032	0,027
-72,738	800,000	0,011	-0,023
-71,724	3,765	0,092	-0,048
-70,709	151,610	-0,129	-0,124
-69,694	157,128	0,062	-0,061
-68,680	-200,000	-0,009	-0,146
-67,665	800,000	-0,030	0,087
-66,651	-200,000	0,004	-0,136
-65,636	800,000	-0,037	0,083
-64,622	222,939	-0,004	-0,004
-63,607	-200,000	-0,002	-0,101
-62,592	800,000	-0,019	-0,054
-61,578	76,213	0,123	0,092
-60,563	-200,000	0,034	-0,210
-59,549	166,313	-0,062	0,063
-58,534	-36,085	-1,606	-0,612
-57,519	472,024	-1,309	-2,096
-56,505	-200,000	-0,492	-4,477
-55,490	229,566	1,108	1,284
-54,476	800,000	4,763	11,025
-53,461	-200,000	18,681	303,798
-52,446	800,000	735,841	2288,187
-51,432	566,773	1652,103	2852,546
-50,417	78,920	1669,481	1265,022
-49,403	22,120	1542,423	889,708
-48,388	16,057	1465,522	815,881
-47,373	17,796	1455,390	818,611
-46,359	16,940	1445,267	808,778
-45,344	14,369	1440,732	793,901
-44,330	14,251	1438,945	792,321
-43,315	14,255	1437,228	791,362
-42,300	14,275	1435,554	790,506
-41,286	14,288	1434,461	789,931
-40,271	14,273	1433,040	789,048
-39,257	14,217	1431,829	788,080
-38,242	14,260	1430,512	787,529
-37,227	14,343	1429,188	787,163
-36,213	14,343	1427,786	786,360
-35,198	14,266	1427,083	785,580
-34,184	14,331	1425,911	785,211
-33,169	14,282	1424,511	784,173
-32,154	14,316	1423,581	783,791
-31,140	14,310	1422,140	782,941
-30,125	14,311	1421,099	782,339
-29,111	14,290	1420,084	781,650
-28,096	14,279	1418,860	780,897
-27,082	14,245	1417,836	780,141
-26,067	14,219	1416,738	779,381
-25,052	14,244	1415,562	778,822
-24,038	14,196	1414,762	778,125
-23,023	14,228	1413,643	777,632
-22,009	14,177	1412,870	776,933
-20,994	14,143	1412,046	776,290
-19,979	14,151	1411,118	775,789
-18,965	14,166	1409,919	775,169
-17,950	14,130	1409,081	774,507
-16,936	14,114	1408,278	773,962
-15,921	14,131	1406,933	773,269
-14,906	14,112	1406,174	772,734
-13,892	14,132	1405,171	772,246
-12,877	14,102	1404,223	771,555
-11,863	14,123	1403,401	771,167
-10,848	14,081	1402,715	770,568
-9,833	14,070	1401,688	769,921
-8,819	14,051	1400,644	769,227
-7,804	14,034	1399,979	768,751
-6,790	14,093	1398,706	768,295
-5,775	14,021	1397,769	767,419
-4,760	14,053	1396,544	766,861
-3,746	14,023	1395,967	766,377
-2,731	14,032	1395,241	765,989
-1,717	14,021	1394,213	765,344
-0,702	14,000	1392,529	764,290
0,313	17,832	1310,678	737,140
1,327	34,144	706,224	435,017
2,342	52,827	124,153	83,930
3,356	3,661	16,722	8,611
4,371	16,863	3,017	1,686
5,386	0,840	0,591	0,299
6,400	-200,000	0,007	0,192
7,415	266,104	-0,169	-0,209
8,429	68,244	-0,341	-0,247
9,444	77,266	-0,208	-0,156
10,459	-30,355	-0,281	-0,112
11,473	-4,835	-0,412	-0,200
12,488	48,609	-0,279	-0,185
13,502	-18,008	-0,354	-0,156
14,517	-44,472	-0,390	-0,137
15,531	24,221	-0,302	-0,176
16,546	104,133	-0,301	-0,250
17,561	14,940	-0,442	-0,244
18,575	-152,125	-0,356	-0,018
19,590	169,285	-0,236	-0,238
20,604	-161,132	-0,276	0,010
21,619	88,481	-0,466	-0,366
22,634	74,275	-0,513	-0,381
23,648	219,376	-0,313	-0,354
24,663	62,847	-0,403	-0,284
25,677	149,750	-0,287	-0,275
26,692	19,249	-0,452	-0,255
27,707	2,567	-0,244	-0,124
28,721	49,039	-0,330	-0,219
29,736	40,266	-0,413	-0,262
30,750	-38,949	-0,450	-0,166
31,765	177,362	-0,369	-0,380
32,780	97,775	-0,377	-0,306
33,794	175,773	-0,304	-0,312
34,809	106,018	-0,356	-0,298
35,823	47,447	-0,387	-0,254
36,838	179,867	-0,367	-0,380
37,853	163,874	-0,459	-0,456
38,867	4,633	-0,483	-0,250
39,882	72,882	-0,260	-0,192
40,896	463,693	-0,215	-0,340
41,911	21,326	-0,344	-0,197
42,926	50,849	-0,379	-0,253
43,940	266,999	-0,270	-0,334
44,955	24,161	-0,367	-0,213
45,969	51,913	-0,296	-0,198
46,984	-43,563	-0,456	-0,161
47,999	133,674	-0,266	-0,243
49,013	381,317	-0,211	-0,306
50,028	131,813	-0,338	-0,306
51,042	61,553	-0,329	-0,230
52,057	23,756	-0,516	-0,299
53,071	111,561	-0,326	-0,277
54,086	-34,935	-0,287	-0,110
55,101	104,737	-0,341	-0,283
56,115	-12,370	-0,359	-0,165
57,130	-16,678	-0,373	-0,166
58,144	116,694	-0,371	-0,321
59,159	106,385	-0,403	-0,336
60,174	22,008	-0,412	-0,236
61,188	69,548	-0,433	-0,314
62,203	-36,255	-0,274	-0,104
63,217	-56,880	-0,323	-0,100
64,232	21,206	-0,387	-0,221
65,247	-67,442	-0,384	-0,105
66,261	146,818	-0,344	-0,326
67,276	-58,647	-0,456	-0,138
68,290	151,571	-0,390	-0,374
69,305	86,546	-0,306	-0,238
70,320	88,956	-0,188	-0,147
71,334	-45,585	-0,281	-0,097
72,349	21,760	-0,246	-0,140
73,363	-6,626	-0,405	-0,193
74,378	86,170	-0,288	-0,223
75,393	43,483	-0,325	-0,209
76,407	47,016	-0,313	-0,204
77,422	26,555	-0,358	-0,210
78,436	173,429	-0,276	-0,280
79,451	39,850	-0,341	-0,215
80,466	124,056	-0,309	-0,273
81,480	100,963	-0,355	-0,291
82,495	194,830	-0,227	-0,242
83,509	30,784	-0,348	-0,209
84,524	-42,335	-0,283	-0,101
85,539	124,614	-0,365	-0,323
86,553	26,382	-0,285	-0,167
87,568	122,722	-0,328	-0,288
88,582	725,062	-0,147	-0,276
89,597	194,478	-0,234	-0,249
90,611	352,238	-0,202	-0,282
91,626	-54,723	-0,358	-0,113
92,641	-50,229	-0,303	-0,100
93,655	-88,216	-0,299	-0,062
94,670	-62,244	-0,293	-0,085
95,684	66,619	-0,442	-0,315
96,699	237,578	-0,188	-0,219
97,714	145,292	-0,172	-0,161
98,728	189,993	-0,224	-0,236
99,743	193,228	-0,267	-0,284
100,757	-74,948	-0,298	-0,074
101,772	70,194	-0,246	-0,178
102,787	-39,223	-0,264	-0,097
103,801	115,273	-0,289	-0,247
104,816	126,691	-0,234	-0,208
105,830	29,018	-0,276	-0,164
106,845	82,533	-0,325	-0,247
107,860	253,522	-0,175	-0,210
108,874	32,195	-0,312	-0,188
109,889	86,638	-0,282	-0,218
110,903	68,751	-0,260	-0,187
111,918	116,612	-0,237	-0,204
112,933	129,189	-0,327	-0,293
113,947	122,865	-0,289	-0,254
114,962	39,932	-0,233	-0,146
115,976	49,796	-0,284	-0,188
116,991	338,805	-0,229	-0,314
118,006	180,773	-0,199	-0,205
119,020	57,787	-0,239	-0,163
120,035	163,413	-0,240	-0,237
121,049	-53,428	-0,167	-0,053
122,064	-7,368	-0,381	-0,180
123,079	236,528	-0,262	-0,304
124,093	22,681	-0,269	-0,154
125,108	-24,487	-0,249	-0,104
126,122	30,225	-0,307	-0,183
127,137	-65,467	-0,283	-0,079
128,151	24,667	-0,315	-0,182
129,166	43,814	-0,198	-0,127
130,181	252,906	-0,200	-0,239
131,195	27,391	-0,387	-0,227
132,210	30,182	-0,419	-0,250
133,224	800,000	-0,062	-0,180
134,239	234,282	-0,194	-0,224
135,254	121,191	-0,143	-0,125
136,268	-93,864	-0,236	-0,045
137,283	-6,341	-0,223	-0,106
138,297	134,922	-0,217	-0,197
139,312	423,509	-0,218	-0,329
140,327	60,233	-0,229	-0,158
141,341	20,286	-0,271	-0,153
142,356	105,989	-0,203	-0,168
143,370	210,450	-0,149	-0,164
144,385	-83,288	-0,229	-0,051
145,400	186,132	-0,206	-0,215
146,414	-10,622	-0,354	-0,163
147,429	-17,899	-0,304	-0,133
148,443	100,923	-0,263	-0,213
149,458	800,000	-0,147	-0,291
150,473	64,797	-0,143	-0,101
151,487	597,637	-0,092	-0,160
152,502	-128,733	-0,334	-0,032
153,516	133,770	-0,353	-0,319
154,531	44,124	-0,268	-0,171
155,546	119,778	-0,217	-0,188
156,560	262,925	-0,130	-0,158
157,575	20,743	-0,329	-0,185
158,589	34,698	-0,301	-0,184
159,604	144,351	-0,309	-0,288
160,619	-63,546	-0,390	-0,111
161,633	113,016	-0,214	-0,181
162,648	123,700	-0,135	-0,118
163,662	337,129	-0,141	-0,191
164,677	-20,364	-0,211	-0,090
165,692	-38,292	-0,235	-0,086
166,706	25,254	-0,234	-0,135
167,721	109,939	-0,294	-0,246
168,735	-69,660	-0,300	-0,079
169,750	-33,900	-0,230	-0,088
170,764	142,318	-0,211	-0,195
171,779	-76,045	-0,252	-0,062
172,794	49,656	-0,195	-0,128
173,808	350,179	-0,155	-0,214
174,823	454,136	-0,110	-0,170
175,837	55,034	-0,248	-0,167
176,852	62,566	-0,273	-0,190
177,867	222,914	-0,155	-0,174
178,881	32,276	-0,180	-0,108
179,896	-23,503	-0,229	-0,095
180,910	-108,409	-0,350	-0,052
181,925	95,461	-0,205	-0,163
182,940	-26,547	-0,340	-0,138
183,954	-82,166	-0,209	-0,047
184,969	-27,118	-0,250	-0,101
185,983	5,157	-0,205	-0,105
186,998	364,925	-0,094	-0,132
188,013	-43,196	-0,276	-0,097
189,027	242,443	-0,194	-0,226
190,042	-21,247	-0,277	-0,117
191,056	54,983	-0,271	-0,182
192,071	-72,906	-0,131	-0,033
193,086	96,916	-0,177	-0,141
194,100	-50,790	-0,197	-0,064
195,115	-82,009	-0,184	-0,042
196,129	212,997	-0,181	-0,200
197,144	406,055	-0,157	-0,231
198,159	61,208	-0,247	-0,170
199,173	39,175	-0,223	-0,138
200,188	28,998	-0,205	-0,120
201,202	286,302	-0,145	-0,182
202,217	416,942	-0,134	-0,200
203,232	114,531	-0,249	-0,211
204,246	-29,372	-0,205	-0,081
205,261	800,000	-0,117	-0,275
206,275	203,370	-0,160	-0,172
207,290	47,977	-0,193	-0,125
208,304	49,674	-0,135	0,088
209,319	-26,905	-0,245	-0,099
210,334	118,720	-0,134	-0,115
211,348	-13,954	-0,346	-0,155
212,363	160,846	-0,242	-0,235
213,377	32,274	-0,200	-0,120
214,392	624,693	-0,118	-0,208
215,407	20,710	-0,199	-0,112
216,421	-33,551	-0,247	-0,094
217,436	17,080	-0,185	-0,101
218,450	447,347	-0,109	-0,168
219,465	-6,127	-0,240	-0,113
220,480	72,170	-0,228	-0,165
221,494	252,235	-0,173	-0,205
222,509	98,374	-0,125	-0,100
223,523	173,352	-0,107	-0,107
224,538	211,398	-0,077	-0,084
225,553	-21,916	-0,306	-0,129
226,567	43,987	-0,289	-0,183
227,582	30,399	-0,204	-0,120
228,596	324,167	-0,174	-0,231
229,611	289,535	-0,179	-0,226
230,626	-73,211	-0,120	-0,030
231,640	-200,000	-0,034	-0,194
232,655	163,260	-0,188	-0,183
233,669	121,723	-0,238	-0,206
234,684	57,719	-0,320	-0,216
235,699	152,985	-0,173	-0,165
236,713	800,000	-0,054	-0,113
237,728	161,370	-0,189	-0,183
238,742	-162,216	-0,151	0,005
239,757	-200,000	-0,059	-0,265
240,772	77,170	-0,164	-0,121
241,786	369,391	-0,202	-0,284
242,801	-36,384	-0,334	-0,124
243,815	56,476	-0,240	-0,162
244,830	-74,712	-0,137	0,034
245,844	-123,298	-0,266	-0,029
246,859	62,064	-0,239	-0,165
247,874	800,000	-0,064	-0,173
248,888	255,535	-0,222	-0,264
249,903	168,337	-0,204	-0,201
250,917	196,911	-0,128	-0,135
251,932	-200,000	-0,086	-0,346
252,947	5,668	-0,198	-0,101
253,961	41,769	-0,221	-0,138
254,976	184,534	-0,155	-0,159
255,990	130,690	-0,180	-0,160
257,005	155,557	-0,087	-0,083
258,020	140,334	-0,175	-0,160
259,034	214,411	-0,142	-0,155
260,049	187,853	-0,212	-0,219
261,063	-200,000	-0,036	-0,130
262,078	116,832	-0,215	-0,183
263,093	270,761	-0,134	-0,164
264,107	800,000	-0,158	-0,306
265,122	203,854	-0,084	-0,091
266,136	800,000	-0,070	-0,134
267,151	-10,465	-0,227	-0,104
268,166	34,982	-0,190	-0,115
269,180	264,853	-0,197	-0,238
270,195	800,000	-0,118	-0,247
271,209	800,000	-0,092	-0,247
272,224	91,041	-0,177	-0,137
273,239	44,094	-0,084	-0,053
274,253	-1,168	-0,224	-0,109
275,268	92,660	-0,160	-0,125
276,282	52,912	-0,203	-0,134
277,297	119,073	-0,252	-0,215
278,312	683,274	-0,123	-0,223
279,326	257,386	-0,124	-0,147
280,341	142,871	-0,090	-0,083
281,355	-31,829	-0,146	-0,056
282,370	153,031	-0,177	-0,167
283,384	66,230	-0,186	-0,131
284,399	-53,109	-0,147	-0,046
285,414	-121,621	-0,098	0,011
286,428	-200,000	-0,002	-0,286
287,443	122,230	-0,216	-0,186
288,457	-13,382	-0,187	-0,084
289,472	-145,465	-0,171	0,010
290,487	145,114	-0,216	-0,200
291,501	148,492	-0,183	-0,171
292,516	-114,324	-0,190	-0,025
293,530	23,721	-0,189	-0,107
294,545	-24,458	-0,191	-0,078
295,560	-116,599	-0,171	0,021
296,574	38,466	-0,116	-0,071
297,589	-36,437	-0,170	-0,063
298,603	379,007	-0,209	-0,296
299,618	360,479	-0,198	-0,274
300,633	-200,000	-0,087	-0,264
301,647	-121,023	-0,125	-0,014
302,662	-41,895	-0,143	-0,050
303,676	-43,630	-0,066	0,023
304,691	-97,384	-0,214	-0,038
305,706	129,209	-0,140	-0,123
306,720	84,810	-0,085	-0,064
307,735	97,730	-0,142	-0,112
308,749	800,000	-0,008	0,025
309,764	24,843	-0,197	-0,112
310,779	375,527	-0,148	-0,209
311,793	681,362	-0,024	-0,044
312,808	57,129	-0,145	-0,097
313,822	140,925	-0,164	-0,149
314,837	-55,977	-0,241	-0,073
315,852	59,477	-0,180	-0,122
316,866	-49,885	-0,088	0,029
317,881	-36,908	-0,177	-0,065
318,895	-75,413	-0,102	-0,025
319,910	235,628	-0,139	-0,158
320,925	800,000	-0,110	-0,242
321,939	490,153	-0,097	-0,154
322,954	-126,760	-0,117	-0,012
323,968	71,776	-0,114	-0,082
324,983	-45,950	-0,208	-0,070
325,997	-134,293	-0,293	-0,024
327,012	80,373	-0,133	-0,099
328,027	101,748	-0,214	-0,172
329,041	223,923	-0,175	-0,195
330,056	324,497	-0,101	-0,133
331,070	28,455	-0,100	-0,058
332,085	800,000	-0,045	-0,118
333,100	74,696	-0,116	-0,084
334,114	319,056	-0,168	-0,220
335,129	-190,741	-0,221	0,002
336,143	-37,456	-0,097	0,035
337,158	-17,238	-0,119	-0,052
338,173	-49,349	-0,173	-0,056
339,187	21,412	-0,053	-0,029
340,202	-39,371	-0,090	-0,032
341,216	-47,167	-0,036	-0,012
342,231	20,283	-0,236	-0,130
343,246	-200,000	-0,045	-0,158
344,260	240,532	-0,150	-0,172
345,275	-19,344	-0,045	-0,019
346,289	-52,392	-0,105	-0,033
347,304	17,233	-0,130	-0,071
348,319	145,220	-0,165	-0,152
349,333	-125,091	-0,121	-0,013
350,348	-97,757	-0,057	-0,010
351,362	363,781	-0,092	-0,127
352,377	-3,300	-0,071	-0,034
353,392	-200,000	-0,004	-0,111
354,406	800,000	0,021	-0,045
355,421	209,702	1315,348	1417,714
356,435	161,408	1476,150	1418,212
