DTS Sentinel unit serial number:	SN410029Multiplexer serial number:	ORYXHardware model number:	OX2-SRSoftware version number:	ORYX F/W v4,00 Oryx Data Collector v3.7.2.0data status	okinstallation	B3 Nyhavnadifferential loss correction	single-endedforward channel	channel 1reverse channel	N/Adate	2023/11/29time	09:27:30forward acquisition time	300,00reverse acquisition time	0,00gamma	499,1914k internal	0,3212k external	0,3212temperature offset calibration	1,0000default loss term (dB/km)	0,3820temperature slope calibration	1,0000multiplexer offset coefficient	1,0000multiplexer slope coefficient	1,0000fibre end	0,00T internal ref (°C)	9,12T ext. ref 1 (°C)	-5,47T ext. ref 2 (°C)	-5,59length (m)	temperature (°C)	Stokes	anti-Stokes-744,400	725,393	-0,167	-0,323
-743,385	-200,000	0,026	0,219
-742,371	800,000	-0,101	-0,219
-741,356	-200,000	0,021	0,307
-740,342	174,829	-0,234	-0,245
-739,327	-200,000	-0,049	0,175
-738,312	352,362	-0,201	-0,289
-737,298	-200,000	-0,027	0,313
-736,283	518,637	-0,140	-0,238
-735,269	-200,000	0,130	0,442
-734,254	386,414	-0,165	-0,248
-733,239	-22,910	-0,186	0,081
-732,225	-200,000	-0,075	-0,252
-731,210	487,909	0,058	0,096
-730,196	157,873	-0,025	-0,025
-729,181	164,511	-0,047	-0,048
-728,167	147,917	-0,028	-0,028
-727,152	-84,776	0,110	-0,025
-726,137	-200,000	0,009	0,041
-725,123	86,587	-0,059	0,047
-724,108	800,000	0,033	-0,101
-723,094	-200,000	-0,015	-0,068
-722,079	-19,393	-0,091	-0,041
-721,064	-200,000	-0,019	-0,092
-720,050	263,854	0,063	0,079
-719,035	290,384	-0,051	-0,067
-718,021	-162,991	-0,084	-0,003
-717,006	-97,171	-0,126	0,024
-715,991	-100,711	-0,246	-0,044
-714,977	-114,882	-0,073	-0,010
-713,962	-37,879	-0,008	0,003
-712,948	800,000	0,036	0,084
-711,933	-200,000	0,007	0,058
-710,918	-193,363	-0,059	0,000
-709,904	293,033	-0,129	-0,171
-708,889	696,141	-0,078	-0,149
-707,875	45,335	-0,024	-0,016
-706,860	265,486	0,037	0,047
-705,845	69,672	0,053	-0,040
-704,831	47,596	-0,085	-0,057
-703,816	-66,987	-0,036	-0,010
-702,802	-48,158	-0,158	-0,055
-701,787	265,634	-0,020	-0,026
-700,772	101,712	0,075	-0,063
-699,758	615,895	0,077	-0,141
-698,743	-114,243	0,231	0,032
-697,729	-200,000	-0,015	0,111
-696,714	-76,659	-0,132	-0,033
-695,699	800,000	-0,027	0,081
-694,685	-200,000	0,026	-0,127
-693,670	77,806	-0,107	-0,082
-692,656	-200,000	0,028	0,116
-691,641	321,937	0,029	0,040
-690,627	800,000	-0,068	0,157
-689,612	800,000	0,030	0,066
-688,597	-180,815	-0,080	-0,001
-687,583	82,623	-0,110	-0,087
-686,568	-68,684	-0,101	-0,028
-685,554	-105,525	-0,054	-0,009
-684,539	247,432	-0,042	0,052
-683,524	125,287	-0,027	0,024
-682,510	170,203	0,054	-0,056
-681,495	800,000	-0,031	-0,062
-680,481	-200,000	-0,030	0,110
-679,466	-199,016	-0,203	0,001
-678,451	14,024	-0,074	0,041
-677,437	-200,000	-0,015	0,095
-676,422	-200,000	-0,024	0,104
-675,408	-136,118	0,104	0,009
-674,393	-18,036	-0,151	0,068
-673,378	-200,000	0,010	-0,099
-672,364	-139,460	-0,041	-0,003
-671,349	-116,015	-0,022	-0,003
-670,335	-200,000	0,003	-0,063
-669,320	38,237	0,100	0,064
-668,305	800,000	-0,013	0,038
-667,291	47,279	-0,055	-0,037
-666,276	-200,000	0,042	-0,234
-665,262	-94,357	-0,158	-0,031
-664,247	-103,798	0,080	-0,013
-663,232	800,000	-0,068	-0,161
-662,218	-80,788	0,079	0,019
-661,203	-69,032	0,052	0,014
-660,189	800,000	-0,030	-0,066
-659,174	-43,478	0,054	-0,020
-658,159	-45,829	-0,208	-0,074
-657,145	-6,314	-0,153	-0,075
-656,130	165,090	0,085	0,086
-655,116	-131,063	0,075	-0,007
-654,101	800,000	0,017	-0,049
-653,086	45,696	0,072	-0,048
-652,072	7,097	0,179	0,096
-651,057	-22,330	-0,135	-0,059
-650,043	-200,000	-0,016	-0,054
-649,028	-200,000	-0,002	0,034
-648,014	800,000	-0,045	-0,120
-646,999	723,271	0,056	0,107
-645,984	-147,801	-0,132	-0,008
-644,970	144,081	0,078	-0,075
-643,955	800,000	-0,053	-0,112
-642,941	-200,000	-0,021	0,065
-641,926	-200,000	-0,024	-0,078
-640,911	-139,778	0,040	-0,003
-639,897	800,000	-0,014	0,041
-638,882	223,585	-0,052	0,061
-637,868	-99,521	0,132	0,024
-636,853	204,287	0,054	-0,060
-635,838	-77,826	-0,153	0,038
-634,824	-129,473	-0,119	-0,012
-633,809	-200,000	0,007	0,101
-632,795	-200,000	-0,020	0,093
-631,780	421,690	0,066	0,102
-630,765	6,422	0,043	0,023
-629,751	291,228	-0,041	-0,053
-628,736	-200,000	0,014	-0,121
-627,722	-200,000	-0,010	0,084
-626,707	800,000	0,024	0,070
-625,692	22,576	0,092	0,054
-624,678	7,950	0,065	-0,035
-623,663	46,164	0,099	-0,066
-622,649	27,220	-0,102	-0,062
-621,634	-69,155	-0,238	-0,066
-620,619	69,843	0,050	0,037
-619,605	-39,929	-0,072	0,027
-618,590	800,000	-0,032	0,092
-617,576	800,000	-0,016	0,038
-616,561	-55,617	0,097	-0,031
-615,546	-19,876	-0,076	0,034
-614,532	-168,768	-0,065	0,002
-613,517	222,011	-0,049	0,057
-612,503	-76,042	-0,088	0,022
-611,488	-123,317	0,118	-0,013
-610,474	-200,000	-0,025	-0,089
-609,459	-200,000	0,023	-0,086
-608,444	236,933	-0,051	-0,061
-607,430	-200,000	-0,015	-0,145
-606,415	329,783	0,053	-0,074
-605,401	-200,000	0,037	-0,138
-604,386	-99,721	-0,056	0,010
-603,371	368,902	-0,066	-0,097
-602,357	321,669	-0,056	-0,078
-601,342	27,470	0,084	-0,051
-600,328	-22,124	-0,120	0,052
-599,313	36,374	0,062	0,039
-598,298	390,245	-0,060	-0,090
-597,284	800,000	-0,025	0,066
-596,269	-200,000	-0,030	0,105
-595,255	-200,000	0,014	0,046
-594,240	-36,066	-0,210	-0,081
-593,225	-59,345	0,047	-0,014
-592,211	-110,730	-0,105	-0,015
-591,196	78,135	0,105	0,081
-590,182	-200,000	0,012	0,153
-589,167	800,000	0,027	-0,061
-588,152	-62,729	0,087	0,026
-587,138	-70,498	-0,066	-0,018
-586,123	63,139	0,041	0,029
-585,109	414,071	0,100	0,154
-584,094	-44,321	-0,085	-0,031
-583,079	160,793	-0,093	-0,094
-582,065	-7,794	-0,071	-0,034
-581,050	-200,000	-0,014	0,080
-580,036	643,675	-0,014	0,025
-579,021	-200,000	-0,030	-0,182
-578,006	215,087	-0,120	-0,138
-576,992	-200,000	0,021	0,072
-575,977	-15,790	-0,065	0,030
-574,963	517,352	-0,061	0,104
-573,948	420,941	-0,099	0,153
-572,934	800,000	-0,034	-0,076
-571,919	800,000	0,045	-0,105
-570,904	216,125	-0,121	-0,139
-569,890	-13,980	0,061	0,028
-568,875	-97,410	-0,040	-0,007
-567,861	-200,000	0,003	-0,107
-566,846	9,970	0,142	-0,077
-565,831	-21,524	0,114	-0,050
-564,817	128,922	0,064	-0,058
-563,802	219,743	0,009	0,010
-562,788	-200,000	0,007	-0,025
-561,773	682,900	-0,029	-0,055
-560,758	137,383	0,072	0,068
-559,744	157,583	0,047	-0,047
-558,729	-27,732	-0,109	0,045
-557,715	74,202	0,028	-0,021
-556,700	-87,014	-0,105	0,023
-555,685	247,830	-0,056	-0,069
-554,671	-36,606	-0,070	0,027
-553,656	538,793	0,042	0,072
-552,642	-200,000	0,029	-0,140
-551,627	800,000	-0,032	-0,075
-550,612	-90,201	-0,057	0,012
-549,598	-152,364	-0,061	-0,003
-548,583	53,779	-0,054	-0,038
-547,569	-150,988	-0,170	0,009
-546,554	800,000	-0,061	-0,188
-545,539	-200,000	-0,026	-0,093
-544,525	-200,000	0,005	-0,142
-543,510	-183,605	0,178	-0,002
-542,496	800,000	-0,039	-0,084
-541,481	-135,339	0,080	0,007
-540,466	-124,626	0,074	-0,008
-539,452	-200,000	-0,003	-0,017
-538,437	-200,000	0,010	0,128
-537,423	-49,120	0,034	0,012
-536,408	103,619	-0,032	0,027
-535,393	800,000	0,020	-0,057
-534,379	135,579	-0,130	-0,122
-533,364	800,000	-0,035	-0,097
-532,350	-146,395	0,092	-0,006
-531,335	800,000	0,048	0,137
-530,321	800,000	0,058	0,135
-529,306	498,273	-0,032	-0,052
-528,291	-200,000	0,032	-0,143
-527,277	800,000	-0,017	0,048
-526,262	-69,976	-0,055	0,015
-525,248	-200,000	0,004	-0,093
-524,233	-200,000	0,005	0,018
-523,218	39,749	0,113	0,073
-522,204	300,118	0,095	0,126
-521,189	-74,792	-0,149	0,038
-520,175	19,315	0,093	-0,054
-519,160	-200,000	0,000	0,148
-518,145	310,989	0,040	0,054
-517,131	-137,488	-0,085	0,007
-516,116	64,599	0,095	0,069
-515,102	7,213	0,080	0,043
-514,087	-88,876	-0,158	-0,033
-513,072	-200,000	-0,014	-0,067
-512,058	-172,356	-0,032	-0,001
-511,043	91,255	0,006	-0,005
-510,029	800,000	0,037	0,116
-509,014	800,000	-0,052	0,136
-507,999	761,748	0,049	-0,095
-506,985	500,392	0,021	-0,035
-505,970	121,292	-0,061	0,055
-504,956	11,956	-0,030	0,017
-503,941	-61,821	0,157	-0,047
-502,926	-140,344	0,086	0,006
-501,912	-119,629	-0,038	0,005
-500,897	-200,000	0,016	-0,074
-499,883	62,629	-0,114	0,081
-498,868	800,000	-0,047	-0,122
-497,853	513,502	-0,050	0,083
-496,839	-200,000	0,017	-0,071
-495,824	-101,733	-0,231	0,040
-494,810	-128,423	0,008	-0,001
-493,795	800,000	0,028	-0,082
-492,781	137,934	-0,126	-0,118
-491,766	-57,380	-0,123	-0,039
-490,751	-6,123	-0,102	0,050
-489,737	34,796	-0,063	0,039
-488,722	119,067	0,049	-0,044
-487,708	800,000	0,039	0,087
-486,693	-86,092	0,121	-0,027
-485,678	-162,022	-0,144	0,005
-484,664	-200,000	-0,038	-0,128
-483,649	627,178	0,056	-0,103
-482,635	61,697	0,029	0,021
-481,620	-200,000	0,030	-0,142
-480,605	678,645	0,082	-0,154
-479,591	27,068	0,021	-0,012
-478,576	130,952	-0,038	0,035
-477,562	85,123	-0,068	0,053
-476,547	214,135	-0,028	0,032
-475,532	159,068	-0,034	0,034
-474,518	56,736	0,045	-0,031
-473,503	276,586	0,071	-0,090
-472,489	-130,921	0,042	0,004
-471,474	-200,000	0,004	0,034
-470,459	375,564	0,076	-0,111
-469,445	65,619	-0,071	-0,051
-468,430	800,000	-0,030	-0,082
-467,416	-200,000	0,007	0,072
-466,401	-57,846	0,083	-0,026
-465,386	800,000	0,018	-0,044
-464,372	-165,986	0,028	-0,001
-463,357	-76,732	-0,012	-0,003
-462,343	-146,043	-0,031	0,002
-461,328	-86,518	0,105	-0,023
-460,313	-98,505	0,104	0,019
-459,299	-63,393	0,071	0,021
-458,284	-142,142	0,070	0,005
-457,270	-61,210	0,117	-0,035
-456,255	-64,263	-0,117	-0,034
-455,241	-200,000	0,007	0,051
-454,226	-200,000	-0,011	-0,092
-453,211	800,000	0,038	-0,090
-452,197	12,152	0,113	0,062
-451,182	451,512	-0,092	0,147
-450,168	-54,144	0,120	0,039
-449,153	223,990	-0,021	-0,025
-448,138	800,000	-0,039	-0,080
-447,124	-200,000	0,026	-0,101
-446,109	-200,000	-0,026	0,143
-445,095	-200,000	-0,023	0,130
-444,080	262,462	0,031	0,038
-443,065	113,959	0,035	-0,030
-442,051	170,536	0,085	0,087
-441,036	-46,647	-0,144	0,050
-440,022	7,118	0,124	0,066
-439,007	21,974	0,074	0,043
-437,992	-16,501	0,146	0,066
-436,978	363,441	-0,053	0,076
-435,963	53,646	-0,042	-0,029
-434,949	-200,000	0,004	0,089
-433,934	-200,000	-0,053	-0,271
-432,919	-200,000	0,013	-0,161
-431,905	-110,934	-0,133	-0,019
-430,890	-200,000	-0,008	0,064
-429,876	88,382	-0,011	0,009
-428,861	-200,000	-0,001	0,023
-427,846	58,622	-0,029	0,021
-426,832	169,892	0,056	-0,058
-425,817	114,897	-0,085	-0,074
-424,803	-137,872	0,091	-0,007
-423,788	-55,873	0,054	-0,017
-422,773	-58,894	0,044	-0,014
-421,759	-200,000	-0,001	0,021
-420,744	-160,467	0,160	-0,006
-419,730	-200,000	-0,034	-0,109
-418,715	-200,000	0,007	-0,143
-417,701	0,000	-0,117	0,059
-416,686	-200,000	-0,011	-0,140
-415,671	131,039	0,132	0,121
-414,657	-169,771	-0,040	0,001
-413,642	116,807	-0,156	-0,137
-412,628	-200,000	0,001	0,014
-411,613	229,293	-0,095	-0,111
-410,598	-13,569	0,175	0,081
-409,584	258,397	0,075	0,093
-408,569	-73,456	-0,111	0,029
-407,555	-117,395	-0,105	0,014
-406,540	800,000	0,020	0,064
-405,525	-67,707	-0,072	-0,020
-404,511	-200,000	-0,015	-0,069
-403,496	-61,519	0,096	0,029
-402,482	144,945	-0,042	0,040
-401,467	13,463	0,097	0,054
-400,452	-200,000	0,011	0,071
-399,438	368,732	0,068	-0,098
-398,423	-20,436	-0,013	0,006
-397,409	-200,000	-0,017	-0,108
-396,394	-200,000	0,006	-0,028
-395,379	-33,198	0,228	-0,090
-394,365	-106,074	-0,038	0,006
-393,350	262,653	-0,019	-0,024
-392,336	800,000	-0,040	-0,103
-391,321	270,852	-0,026	0,033
-390,306	36,022	-0,138	-0,086
-389,292	-200,000	-0,003	-0,041
-388,277	800,000	-0,017	-0,043
-387,263	-200,000	0,010	0,060
-386,248	543,076	0,021	0,036
-385,233	145,626	0,093	0,089
-384,219	86,644	0,042	0,033
-383,204	-16,087	-0,126	-0,057
-382,190	65,550	0,094	-0,068
-381,175	-200,000	-0,004	0,014
-380,160	400,009	-0,085	0,128
-379,146	800,000	0,053	0,120
-378,131	-200,000	0,029	0,135
-377,117	-200,000	0,009	-0,058
-376,102	17,263	-0,099	-0,056
-375,088	-126,756	-0,132	-0,014
-374,073	96,175	0,123	0,100
-373,058	623,494	0,034	-0,062
-372,044	156,826	0,067	0,066
-371,029	-56,419	-0,157	-0,049
-370,015	595,324	-0,052	-0,093
-369,000	-21,487	0,113	-0,049
-367,985	-200,000	0,034	0,161
-366,971	-200,000	0,016	-0,158
-365,956	255,836	-0,009	-0,011
-364,942	-200,000	-0,017	0,087
-363,927	-200,000	0,013	0,092
-362,912	57,770	0,115	-0,080
-361,898	504,361	0,032	0,053
-360,883	411,962	0,078	0,119
-359,869	576,316	-0,018	0,031
-358,854	-92,627	0,026	-0,005
-357,839	-200,000	-0,014	0,081
-356,825	-32,154	0,044	0,017
-355,810	-24,882	-0,027	-0,011
-354,796	-57,651	0,113	-0,035
-353,781	771,152	-0,064	-0,126
-352,766	-200,000	-0,001	0,014
-351,752	-68,885	0,028	-0,008
-350,737	58,952	-0,044	-0,031
-349,723	-49,428	-0,092	0,031
-348,708	-20,651	-0,106	-0,046
-347,693	410,060	-0,033	0,049
-346,679	-19,448	-0,085	-0,038
-345,664	301,893	0,009	0,013
-344,650	314,014	0,071	0,096
-343,635	800,000	0,047	0,096
-342,620	-200,000	0,010	0,064
-341,606	800,000	0,056	0,145
-340,591	-106,830	-0,053	-0,008
-339,577	-155,948	-0,115	0,005
-338,562	138,199	0,086	0,080
-337,548	203,192	0,094	-0,104
-336,533	-200,000	-0,009	0,038
-335,518	800,000	0,046	0,106
-334,504	-14,481	0,115	0,052
-333,489	127,287	-0,044	-0,040
-332,475	800,000	-0,003	0,009
-331,460	10,183	-0,076	0,041
-330,445	110,751	0,086	0,074
-329,431	-200,000	-0,008	0,105
-328,416	277,286	-0,016	0,020
-327,402	-200,000	-0,024	0,184
-326,387	-24,101	0,111	-0,047
-325,372	82,401	-0,014	0,011
-324,358	-29,952	-0,117	-0,047
-323,343	100,879	0,053	-0,044
-322,329	130,625	-0,044	0,040
-321,314	-58,421	0,099	-0,030
-320,299	-200,000	0,021	0,089
-319,285	121,377	-0,046	-0,041
-318,270	-200,000	0,001	-0,026
-317,256	101,398	-0,022	-0,019
-316,241	433,809	0,028	-0,043
-315,226	79,234	0,047	-0,036
-314,212	800,000	0,043	0,098
-313,197	-200,000	0,016	-0,098
-312,183	77,317	0,041	-0,031
-311,168	-6,690	0,153	0,074
-310,153	-65,346	-0,109	-0,031
-309,139	-200,000	0,000	-0,125
-308,124	800,000	0,062	-0,124
-307,110	800,000	0,031	0,098
-306,095	-46,780	0,049	0,017
-305,080	-144,824	-0,086	0,006
-304,066	281,227	-0,090	-0,115
-303,051	445,734	-0,036	-0,057
-302,037	99,600	-0,145	0,119
-301,022	-115,066	-0,032	0,004
-300,008	-200,000	0,002	0,027
-298,993	95,735	0,090	0,073
-297,978	691,772	-0,081	0,153
-296,964	363,484	-0,043	-0,061
-295,949	93,227	-0,081	-0,066
-294,935	-158,801	0,093	0,004
-293,920	-200,000	-0,001	0,068
-292,905	-184,778	0,062	0,001
-291,891	-200,000	0,025	0,139
-290,876	111,836	0,034	0,029
-289,862	-85,075	0,047	0,010
-288,847	-200,000	0,072	-0,240
-287,832	24,346	0,071	0,042
-286,818	-200,000	0,013	-0,068
-285,803	97,768	0,137	0,112
-284,789	70,007	0,129	-0,094
-283,774	-200,000	0,029	0,099
-282,759	-44,860	0,057	-0,020
-281,745	210,350	-0,060	-0,067
-280,730	-117,305	-0,092	-0,012
-279,716	800,000	0,038	-0,088
-278,701	800,000	0,068	0,150
-277,686	268,147	0,114	0,142
-276,672	800,000	0,031	0,078
-275,657	-5,930	0,178	0,086
-274,643	-96,606	-0,033	0,006
-273,628	800,000	-0,027	-0,064
-272,613	31,301	-0,055	0,034
-271,599	-200,000	0,045	0,200
-270,584	-165,555	0,159	-0,005
-269,570	156,987	-0,080	0,079
-268,555	411,097	-0,068	-0,104
-267,540	800,000	-0,016	-0,036
-266,526	189,597	-0,069	0,073
-265,511	147,596	-0,065	0,062
-264,497	-200,000	0,013	0,045
-263,482	-200,000	0,010	-0,045
-262,467	-6,052	-0,029	0,014
-261,453	-186,321	-0,031	-0,000
-260,438	-58,394	-0,069	0,021
-259,424	21,725	-0,036	0,021
-258,409	107,282	0,066	0,056
-257,395	-32,524	0,060	0,024
-256,380	171,682	-0,036	0,036
-255,365	282,318	-0,058	0,074
-254,351	-112,560	0,236	-0,033
-253,336	-200,000	-0,003	-0,093
-252,322	-200,000	0,000	-0,062
-251,307	63,840	-0,251	-0,179
-250,292	-23,600	0,024	-0,010
-249,278	496,471	0,017	-0,028
-248,263	771,824	0,075	-0,147
-247,249	-164,380	-0,082	0,003
-246,234	-200,000	0,002	-0,132
-245,219	800,000	-0,078	-0,160
-244,205	379,305	-0,070	-0,102
-243,190	215,468	0,013	0,015
-242,176	-200,000	0,011	-0,084
-241,161	-200,000	0,034	0,170
-240,146	-152,357	0,092	-0,005
-239,132	329,026	-0,030	-0,041
-238,117	-156,031	-0,086	0,004
-237,103	-184,443	0,059	0,001
-236,088	-20,863	-0,048	0,021
-235,073	800,000	0,019	-0,042
-234,059	-200,000	0,001	-0,065
-233,044	800,000	0,004	0,012
-232,030	-73,548	0,078	-0,020
-231,015	-89,852	0,132	-0,027
-230,000	-139,074	-0,152	-0,012
-228,986	-11,712	-0,083	0,039
-227,971	-164,457	0,069	0,002
-226,957	800,000	-0,014	0,034
-225,942	-200,000	-0,007	0,090
-224,927	-200,000	-0,012	0,064
-223,913	229,474	-0,090	-0,105
-222,898	86,759	0,053	-0,042
-221,884	303,415	0,060	-0,079
-220,869	198,029	0,032	0,035
-219,855	481,020	0,033	-0,054
-218,840	-200,000	0,008	0,026
-217,825	277,696	0,067	0,085
-216,811	159,026	-0,121	-0,120
-215,796	46,492	-0,028	-0,018
-214,782	-200,000	-0,017	-0,094
-213,767	-45,467	0,080	0,028
-212,752	800,000	0,048	0,120
-211,738	-84,363	0,048	0,011
-210,723	-87,978	-0,112	-0,024
-209,709	108,981	-0,075	0,063
-208,694	173,341	-0,009	-0,009
-207,679	34,038	0,031	-0,019
-206,665	-200,000	0,009	0,054
-205,650	-61,105	0,099	-0,029
-204,636	525,118	-0,030	0,050
-203,621	103,090	-0,056	0,046
-202,606	117,276	-0,045	0,039
-201,592	639,424	-0,066	0,119
-200,577	-163,081	-0,099	-0,003
-199,563	-200,000	0,013	-0,053
-198,548	800,000	0,055	-0,143
-197,533	-68,223	0,089	0,024
-196,519	-62,782	-0,134	0,039
-195,504	703,317	-0,015	-0,027
-194,490	-73,377	-0,083	-0,021
-193,475	-200,000	-0,014	-0,057
-192,460	-200,000	0,022	0,108
-191,446	-200,000	0,015	0,105
-190,431	115,131	0,089	0,077
-189,417	-125,738	-0,074	-0,008
-188,402	-83,416	0,094	-0,021
-187,387	800,000	0,021	-0,049
-186,373	-76,458	0,155	-0,038
-185,358	-158,712	-0,061	-0,002
-184,344	-23,399	-0,019	-0,008
-183,329	-72,812	0,011	-0,003
-182,315	373,841	0,083	0,120
-181,300	121,200	0,017	0,015
-180,285	-71,294	-0,078	-0,021
-179,271	120,935	-0,063	0,055
-178,256	-33,369	0,049	-0,019
-177,242	169,095	0,109	0,110
-176,227	18,332	0,076	0,043
-175,212	261,618	-0,084	0,104
-174,198	18,634	0,083	0,047
-173,183	-200,000	0,015	-0,050
-172,169	270,750	0,047	-0,058
-171,154	800,000	-0,035	-0,102
-170,139	347,954	-0,013	-0,019
-169,125	123,192	0,140	0,125
-168,110	-200,000	-0,005	0,068
-167,096	800,000	0,012	0,036
-166,081	-200,000	-0,004	-0,013
-165,066	-157,762	-0,025	-0,001
-164,052	-149,548	0,190	0,010
-163,037	67,827	-0,140	0,101
-162,023	800,000	-0,079	0,172
-161,008	167,379	-0,064	0,065
-159,993	-58,432	-0,123	0,037
-158,979	138,161	-0,114	0,106
-157,964	191,312	0,062	-0,066
-156,950	-115,848	-0,044	-0,006
-155,935	14,606	-0,171	0,095
-154,920	29,970	-0,039	0,024
-153,906	57,670	0,091	0,063
-152,891	-93,034	0,147	-0,029
-151,877	-152,501	0,033	0,002
-150,862	102,993	0,088	-0,073
-149,847	-166,065	-0,040	-0,001
-148,833	196,555	-0,081	0,088
-147,818	800,000	-0,053	0,141
-146,804	-200,000	-0,016	0,193
-145,789	150,558	-0,028	0,027
-144,775	-26,054	-0,121	-0,050
-143,760	104,120	0,085	-0,071
-142,745	400,308	0,044	-0,065
-141,731	-104,070	-0,140	0,023
-140,716	800,000	-0,030	0,071
-139,702	58,672	0,043	0,030
-138,687	-69,326	-0,037	0,010
-137,672	130,526	-0,070	0,063
-136,658	153,583	-0,039	0,038
-135,643	-87,421	0,112	0,024
-134,629	77,064	0,085	-0,064
-133,614	42,796	0,047	0,030
-132,599	11,436	-0,068	-0,037
-131,585	800,000	-0,017	0,034
-130,570	-200,000	0,043	0,145
-129,556	282,216	-0,063	-0,080
-128,541	-14,571	-0,027	-0,012
-127,526	-16,940	0,104	-0,046
-126,512	-106,102	0,008	0,001
-125,497	59,911	0,102	0,071
-124,483	389,725	-0,010	0,015
-123,468	44,319	-0,150	-0,098
-122,453	-200,000	-0,005	0,153
-121,439	-200,000	0,021	-0,102
-120,424	-200,000	0,000	0,051
-119,410	69,626	-0,089	0,065
-118,395	272,046	0,026	-0,032
-117,380	394,161	0,027	0,040
-116,366	800,000	0,028	-0,084
-115,351	-200,000	-0,002	-0,138
-114,337	-94,489	-0,056	0,011
-113,322	800,000	-0,021	0,051
-112,307	-200,000	0,016	-0,146
-111,293	-28,160	-0,100	0,041
-110,278	-102,396	0,034	-0,006
-109,264	-40,047	0,089	0,033
-108,249	800,000	-0,080	-0,173
-107,234	-60,873	-0,154	-0,046
-106,220	800,000	0,046	0,123
-105,205	-0,237	-0,093	-0,047
-104,191	-85,238	-0,068	-0,015
-103,176	-200,000	0,003	0,062
-102,162	-200,000	-0,037	-0,126
-101,147	94,182	-0,028	0,023
-100,132	148,549	0,075	-0,072
-99,118	-108,703	-0,063	0,010
-98,103	181,779	0,063	0,066
-97,089	-1,120	0,038	-0,019
-96,074	311,215	0,130	-0,173
-95,059	-144,280	-0,078	-0,005
-94,045	-200,000	0,006	-0,097
-93,030	301,741	-0,046	-0,060
-92,016	-0,856	0,014	0,007
-91,001	409,544	0,086	-0,129
-89,986	-200,000	-0,018	0,091
-88,972	-13,848	0,091	0,041
-87,957	-13,052	0,082	-0,038
-86,943	-54,042	-0,058	-0,019
-85,928	-200,000	0,009	0,083
-84,913	699,835	-0,031	0,058
-83,899	800,000	0,030	-0,074
-82,884	193,180	-0,028	-0,030
-81,870	-200,000	0,024	0,100
-80,855	526,991	-0,021	-0,034
-79,840	800,000	0,050	0,104
-78,826	-19,726	-0,065	-0,028
-77,811	800,000	-0,037	-0,111
-76,797	-1,528	0,113	0,056
-75,782	-71,216	-0,060	0,016
-74,767	-100,384	0,081	-0,014
-73,753	-200,000	0,001	0,049
-72,738	89,284	-0,088	0,069
-71,724	-65,166	-0,053	-0,015
-70,709	800,000	-0,016	-0,034
-69,694	361,520	-0,066	0,094
-68,680	-62,761	0,113	0,033
-67,665	-3,954	0,052	-0,025
-66,651	22,346	0,079	-0,046
-65,636	-200,000	-0,004	-0,026
-64,622	800,000	-0,035	0,077
-63,607	800,000	-0,060	-0,154
-62,592	-100,233	-0,055	-0,009
-61,578	59,126	0,072	-0,050
-60,563	49,924	-0,072	0,048
-59,549	-151,323	-0,118	-0,006
-58,534	51,360	-2,006	-1,342
-57,519	500,713	-1,116	-1,824
-56,505	-200,000	-0,484	-4,407
-55,490	541,673	0,856	1,445
-54,476	800,000	5,218	11,464
-53,461	-200,000	21,853	339,346
-52,446	800,000	761,305	2311,145
-51,432	537,285	1656,749	2787,017
-50,417	69,923	1653,117	1201,577
-49,403	16,807	1527,307	850,351
-48,388	10,929	1451,467	779,814
-47,373	19,054	1443,731	814,462
-46,359	14,359	1432,552	785,891
-45,344	9,233	1428,458	759,303
-44,330	9,216	1426,351	758,071
-43,315	9,171	1424,773	756,988
-42,300	9,227	1422,716	756,133
-41,286	9,214	1421,705	755,502
-40,271	9,175	1420,534	754,665
-39,257	9,138	1419,383	753,851
-38,242	9,197	1418,107	753,422
-37,227	9,222	1417,118	752,985
-36,213	9,217	1415,643	752,146
-35,198	9,219	1414,461	751,496
-34,184	9,199	1413,732	750,987
-33,169	9,164	1412,132	749,944
-32,154	9,194	1411,365	749,645
-31,140	9,189	1410,079	748,910
-30,125	9,286	1408,709	748,609
-29,111	9,238	1407,627	747,777
-28,096	9,200	1406,528	746,989
-27,082	9,113	1405,425	745,963
-26,067	9,121	1404,439	745,448
-25,052	9,163	1403,181	744,950
-24,038	9,170	1402,267	744,468
-23,023	9,124	1401,486	743,809
-22,009	9,150	1400,338	743,289
-20,994	9,200	1399,299	742,939
-19,979	9,129	1398,435	742,123
-18,965	9,158	1397,350	741,654
-17,950	9,123	1396,446	740,979
-16,936	9,070	1395,794	740,360
-15,921	9,025	1394,667	739,524
-14,906	9,114	1393,584	739,334
-13,892	9,086	1392,848	738,783
-12,877	9,091	1392,029	738,343
-11,863	9,051	1391,365	737,775
-10,848	9,045	1390,388	737,201
-9,833	9,016	1389,198	736,405
-8,819	8,934	1388,509	735,632
-7,804	8,952	1387,595	735,202
-6,790	9,045	1386,144	734,835
-5,775	8,947	1385,494	734,009
-4,760	8,957	1384,542	733,522
-3,746	9,022	1383,570	733,273
-2,731	8,992	1382,651	732,624
-1,717	8,963	1382,028	732,130
-0,702	8,959	1380,218	731,123
0,313	12,981	1292,007	702,694
1,327	28,884	683,662	407,565
2,342	45,136	117,696	76,336
3,356	1,602	16,488	8,340
4,371	0,327	3,730	1,871
5,386	-1,895	1,186	0,586
6,400	800,000	0,236	0,580
7,415	100,163	-0,162	-0,132
8,429	-9,447	-0,272	-0,127
9,444	47,669	-0,395	-0,259
10,459	41,221	-0,182	-0,116
11,473	256,849	-0,230	-0,278
12,488	-33,684	-0,303	-0,117
13,502	316,917	-0,173	-0,231
14,517	102,021	-0,269	-0,221
15,531	125,288	-0,410	-0,364
16,546	10,517	-0,296	-0,159
17,561	109,013	-0,300	-0,253
18,575	535,930	-0,094	-0,157
19,590	33,665	-0,201	-0,123
20,604	-6,342	-0,286	-0,137
21,619	174,264	-0,432	-0,440
22,634	87,026	-0,459	-0,356
23,648	46,919	-0,390	-0,255
24,663	48,499	-0,302	-0,199
25,677	36,170	-0,395	-0,244
26,692	12,866	-0,300	-0,163
27,707	171,184	-0,265	-0,267
28,721	-43,246	-0,405	-0,144
29,736	23,425	-0,414	-0,239
30,750	81,198	-0,458	-0,348
31,765	101,399	-0,301	-0,246
32,780	90,116	-0,324	-0,255
33,794	-22,008	-0,307	-0,131
34,809	-60,339	-0,439	-0,131
35,823	399,514	-0,249	-0,367
36,838	19,333	-0,492	-0,277
37,853	176,085	-0,329	-0,336
38,867	47,470	-0,412	-0,270
39,882	-25,944	-0,350	-0,144
40,896	204,209	-0,347	-0,378
41,911	-49,741	-0,389	-0,129
42,926	-28,535	-0,330	-0,133
43,940	233,185	-0,299	-0,346
44,955	48,427	-0,316	-0,207
45,969	96,022	-0,354	-0,284
46,984	56,181	-0,272	-0,186
47,999	119,924	-0,228	-0,198
49,013	53,873	-0,355	-0,239
50,028	-6,735	-0,415	-0,197
51,042	31,677	-0,411	-0,248
52,057	111,810	-0,381	-0,323
53,071	132,657	-0,313	-0,284
54,086	-14,947	-0,259	-0,116
55,101	-101,091	-0,417	-0,071
56,115	61,200	-0,397	-0,277
57,130	92,161	-0,355	-0,280
58,144	177,960	-0,243	-0,249
59,159	17,471	-0,372	-0,207
60,174	29,802	-0,349	-0,208
61,188	83,830	-0,354	-0,271
62,203	-66,839	-0,296	-0,081
63,217	53,148	-0,327	-0,219
64,232	-93,612	-0,308	-0,059
65,247	83,369	-0,295	-0,225
66,261	-2,949	-0,307	-0,150
67,276	-135,846	-0,302	-0,025
68,290	-24,091	-0,267	-0,112
69,305	-62,671	-0,354	-0,102
70,320	-10,075	-0,288	-0,133
71,334	-39,075	-0,352	-0,129
72,349	294,722	-0,224	-0,288
73,363	-61,351	-0,321	-0,094
74,378	-31,114	-0,287	-0,113
75,393	181,064	-0,275	-0,283
76,407	22,081	-0,294	-0,168
77,422	17,569	-0,273	-0,152
78,436	-40,013	-0,431	-0,157
79,451	-43,227	-0,326	-0,115
80,466	28,249	-0,486	-0,286
81,480	94,676	-0,308	-0,245
82,495	164,429	-0,194	-0,192
83,509	-70,319	-0,346	-0,091
84,524	69,249	-0,268	-0,193
85,539	63,428	-0,246	-0,173
86,553	-124,290	-0,239	-0,026
87,568	60,461	-0,326	-0,226
88,582	321,355	-0,200	-0,267
89,597	37,246	-0,339	-0,209
90,611	111,617	-0,338	-0,285
91,626	272,768	-0,199	-0,247
92,641	71,722	-0,285	-0,207
93,655	39,380	-0,252	-0,158
94,670	176,400	-0,250	-0,254
95,684	-21,038	-0,310	-0,132
96,699	208,042	-0,261	-0,285
97,714	568,654	-0,149	-0,255
98,728	-23,846	-0,231	0,096
99,743	-61,300	-0,248	-0,073
100,757	469,513	-0,194	-0,306
101,772	35,130	-0,311	-0,190
102,787	21,043	-0,386	-0,218
103,801	101,209	-0,303	-0,246
104,816	19,445	-0,232	-0,130
105,830	21,785	-0,268	-0,152
106,845	-29,005	-0,280	-0,112
107,860	135,356	-0,206	-0,187
108,874	-29,100	-0,315	-0,125
109,889	105,853	-0,266	-0,220
110,903	171,728	-0,214	-0,215
111,918	50,921	-0,257	-0,170
112,933	228,504	-0,126	-0,143
113,947	271,176	-0,267	-0,329
114,962	-21,479	-0,306	-0,130
115,976	-89,160	-0,328	-0,067
116,991	244,138	-0,226	-0,265
118,006	19,100	-0,338	-0,188
119,020	240,202	-0,237	-0,277
120,035	319,084	-0,149	-0,197
121,049	-32,244	-0,110	-0,043
122,064	86,072	-0,244	-0,187
123,079	40,760	-0,291	-0,183
124,093	260,523	-0,221	-0,268
125,108	33,354	-0,383	-0,231
126,122	51,504	-0,282	-0,186
127,137	152,001	-0,224	-0,213
128,151	35,502	-0,281	-0,172
129,166	15,014	-0,146	-0,080
130,181	64,406	-0,108	-0,076
131,195	199,858	-0,231	-0,248
132,210	76,583	-0,298	-0,220
133,224	161,216	-0,194	-0,189
134,239	55,782	-0,172	-0,116
135,254	-71,922	-0,278	-0,071
136,268	-47,803	-0,301	-0,101
137,283	7,514	-0,231	-0,120
138,297	14,526	-0,261	-0,142
139,312	102,138	-0,338	-0,275
140,327	800,000	-0,134	-0,301
141,341	223,283	-0,171	-0,193
142,356	-26,304	-0,316	-0,129
143,370	18,685	-0,261	-0,145
144,385	-34,225	-0,321	-0,122
145,400	-0,255	-0,386	-0,190
146,414	175,289	-0,258	-0,261
147,429	248,149	-0,226	-0,267
148,443	139,129	-0,248	-0,227
149,458	166,474	-0,205	-0,202
150,473	286,912	-0,188	-0,237
151,487	106,018	-0,263	-0,217
152,502	11,211	-0,321	-0,170
153,516	800,000	-0,136	-0,276
154,531	-36,415	-0,304	-0,113
155,546	108,018	-0,170	-0,141
156,560	-26,114	-0,289	-0,118
157,575	34,837	-0,208	-0,126
158,589	168,209	-0,122	-0,121
159,604	295,984	-0,181	-0,231
160,619	50,643	-0,211	-0,138
161,633	-48,700	-0,281	-0,093
162,648	281,969	-0,220	-0,275
163,662	800,000	-0,096	-0,199
164,677	800,000	-0,069	-0,155
165,692	220,543	-0,230	-0,257
166,706	-13,963	-0,165	-0,074
167,721	-35,566	-0,289	-0,109
168,735	226,505	-0,217	-0,245
169,750	800,000	-0,062	-0,124
170,764	-113,715	-0,203	-0,027
171,779	-6,637	-0,133	-0,062
172,794	20,398	-0,127	-0,071
173,808	101,982	-0,215	-0,175
174,823	157,979	-0,202	-0,195
175,837	32,853	-0,193	-0,116
176,852	433,164	-0,201	-0,304
177,867	-200,000	-0,051	-0,175
178,881	121,288	-0,187	-0,162
179,896	179,926	-0,202	-0,206
180,910	-113,070	-0,259	-0,035
181,925	-109,391	-0,152	-0,022
182,940	43,318	-0,253	-0,160
183,954	9,090	-0,312	-0,163
184,969	296,548	-0,173	-0,221
185,983	7,658	-0,174	-0,090
186,998	-173,599	-0,277	0,006
188,013	-57,949	-0,143	-0,043
189,027	75,235	-0,363	-0,265
190,042	84,465	-0,279	-0,211
191,056	86,456	-0,238	-0,182
192,071	-16,830	-0,280	-0,122
193,086	-21,126	-0,185	-0,078
194,100	298,568	-0,219	-0,279
195,115	-138,174	-0,210	0,016
196,129	10,417	-0,209	-0,110
197,144	28,311	-0,328	-0,192
198,159	316,930	-0,234	-0,307
199,173	-172,732	-0,157	-0,003
200,188	131,221	-0,165	-0,147
201,202	-126,691	-0,172	-0,017
202,217	235,218	-0,228	-0,261
203,232	-51,846	-0,228	-0,073
204,246	279,347	-0,128	-0,158
205,261	207,606	-0,132	-0,143
206,275	-64,654	-0,182	-0,051
207,290	9,283	-0,114	-0,060
208,304	-65,291	-0,125	0,035
209,319	-18,257	-0,136	-0,059
210,334	248,165	-0,167	-0,196
211,348	115,186	-0,121	-0,102
212,363	120,162	-0,203	-0,174
213,377	49,305	-0,188	-0,122
214,392	219,465	-0,117	-0,130
215,407	-135,309	-0,255	-0,021
216,421	-155,633	-0,186	0,008
217,436	-33,181	-0,196	-0,075
218,450	7,265	-0,328	-0,169
219,465	40,249	-0,202	-0,125
220,480	250,528	-0,227	-0,267
221,494	175,469	-0,247	-0,248
222,509	303,035	-0,179	-0,230
223,523	-78,277	-0,319	-0,075
224,538	-10,508	-0,212	-0,097
225,553	119,440	-0,199	-0,171
226,567	-200,000	-0,058	-0,239
227,582	38,770	-0,132	-0,081
228,596	131,483	-0,085	0,075
229,611	800,000	-0,073	-0,150
230,626	85,338	-0,175	-0,133
231,640	-38,461	-0,132	-0,048
232,655	800,000	-0,145	-0,311
233,669	-90,554	-0,259	-0,051
234,684	467,458	-0,123	-0,191
235,699	-65,382	-0,278	-0,077
236,713	-44,132	-0,204	-0,070
237,728	166,484	-0,162	-0,159
238,742	-136,859	-0,218	-0,017
239,757	-68,292	-0,168	-0,045
240,772	376,513	-0,195	-0,276
241,786	-66,969	-0,246	-0,067
242,801	58,045	-0,180	-0,122
243,815	85,101	-0,168	-0,127
244,830	321,336	-0,106	-0,139
245,844	94,985	-0,203	-0,159
246,859	370,886	-0,103	-0,145
247,874	-19,173	-0,240	-0,102
248,888	-25,087	-0,204	-0,083
249,903	286,499	-0,172	-0,215
250,917	-49,878	-0,128	-0,042
251,932	-71,752	-0,157	-0,040
252,947	10,281	-0,203	-0,106
253,961	-80,661	-0,157	-0,036
254,976	98,416	-0,145	-0,115
255,990	800,000	-0,077	-0,234
257,005	286,491	-0,136	-0,169
258,020	-39,171	-0,183	-0,066
259,034	7,634	-0,254	-0,131
260,049	800,000	-0,060	-0,156
261,063	-87,950	-0,148	-0,030
262,078	363,523	-0,175	-0,244
263,093	-1,547	-0,206	-0,100
264,107	105,541	-0,138	-0,112
265,122	67,336	-0,142	-0,100
266,136	-25,693	-0,116	-0,047
267,151	-7,938	-0,288	-0,133
268,166	256,504	-0,148	-0,175
269,180	-17,289	-0,232	-0,100
270,195	-63,231	-0,183	-0,051
271,209	93,615	-0,125	-0,098
272,224	122,896	-0,238	-0,205
273,239	-180,098	-0,139	0,002
274,253	-82,599	-0,155	-0,034
275,268	-81,396	-0,216	-0,049
276,282	501,992	-0,143	-0,229
277,297	9,749	-0,234	-0,122
278,312	20,555	-0,141	-0,078
279,326	-200,000	-0,000	-0,041
280,341	55,341	-0,090	0,060
281,355	215,946	-0,084	-0,092
282,370	55,211	-0,222	-0,147
283,384	16,315	-0,125	-0,067
284,399	310,755	-0,185	-0,239
285,414	-200,000	-0,009	-0,105
286,428	-200,000	-0,043	-0,145
287,443	-57,682	-0,169	-0,051
288,457	-200,000	-0,059	-0,215
289,472	57,021	-0,129	-0,086
290,487	192,902	-0,061	-0,063
291,501	40,391	-0,210	-0,129
292,516	171,935	-0,171	-0,169
293,530	445,726	-0,053	-0,080
294,545	-200,000	-0,039	-0,191
295,560	-200,000	-0,044	-0,147
296,574	59,386	-0,123	-0,083
297,589	246,234	-0,092	-0,106
298,603	-187,331	-0,202	-0,002
299,618	230,172	-0,183	-0,206
300,633	800,000	-0,074	-0,172
301,647	-200,000	-0,023	-0,080
302,662	-123,476	-0,155	-0,017
303,676	8,597	-0,100	0,052
304,691	76,420	-0,158	-0,115
305,706	17,202	-0,241	-0,131
306,720	156,411	-0,170	-0,162
307,735	-170,849	-0,116	-0,003
308,749	59,052	-0,143	-0,096
309,764	800,000	-0,117	-0,248
310,779	-85,086	-0,212	-0,045
311,793	13,103	-0,182	-0,097
312,808	167,428	-0,177	-0,172
313,822	-102,034	-0,169	-0,028
314,837	-165,400	-0,201	-0,006
315,852	5,195	-0,197	-0,099
316,866	10,849	-0,093	-0,048
317,881	104,550	-0,121	0,097
318,895	800,000	-0,057	-0,110
319,910	77,573	-0,142	-0,104
320,925	-200,000	-0,053	-0,218
321,939	800,000	-0,102	-0,211
322,954	173,764	-0,160	-0,159
323,968	59,167	-0,194	-0,131
324,983	193,837	-0,092	-0,095
325,997	-129,532	-0,202	-0,019
327,012	-37,429	-0,179	-0,065
328,027	131,657	-0,196	-0,173
329,041	150,476	-0,190	-0,177
330,056	-200,000	-0,006	-0,115
331,070	-51,572	-0,127	-0,040
332,085	252,598	-0,083	-0,097
333,100	697,833	-0,123	-0,222
334,114	503,011	-0,126	-0,200
335,129	36,723	-0,168	-0,101
336,143	63,576	-0,134	-0,092
337,158	-79,495	-0,157	-0,036
338,173	800,000	-0,063	-0,148
339,187	-181,403	-0,182	0,002
340,202	55,551	-0,231	-0,153
341,216	-200,000	0,001	-0,095
342,231	167,721	-0,145	-0,142
343,246	416,715	-0,122	-0,179
344,260	-46,934	-0,147	-0,049
345,275	-67,637	-0,178	-0,047
346,289	-200,000	0,033	-0,149
347,304	152,492	-0,095	-0,089
348,319	98,709	-0,075	-0,059
349,333	153,497	-0,112	-0,105
350,348	529,388	-0,134	-0,217
351,362	355,898	-0,120	-0,164
352,377	791,750	-0,091	-0,173
353,392	-71,416	-0,205	-0,052
354,406	-23,604	-0,116	-0,047
355,421	208,796	1305,536	1398,205
356,435	160,677	1465,100	1398,675
