DTS Sentinel unit serial number:	SN410029Multiplexer serial number:	ORYXHardware model number:	OX2-SRSoftware version number:	ORYX F/W v4,00 Oryx Data Collector v3.7.2.0data status	okinstallation	B3 Nyhavnadifferential loss correction	single-endedforward channel	channel 1reverse channel	N/Adate	2023/12/05time	05:52:30forward acquisition time	300,00reverse acquisition time	0,00gamma	499,1914k internal	0,3201k external	0,3201temperature offset calibration	1,0000default loss term (dB/km)	0,3820temperature slope calibration	1,0000multiplexer offset coefficient	1,0000multiplexer slope coefficient	1,0000fibre end	0,00T internal ref (°C)	14,00T ext. ref 1 (°C)	-0,99T ext. ref 2 (°C)	-1,01length (m)	temperature (°C)	Stokes	anti-Stokes-744,400	134,425	-0,173	-0,163
-743,385	-200,000	0,065	0,363
-742,371	51,432	-0,136	-0,094
-741,356	-200,000	-0,093	0,299
-740,342	114,038	-0,285	-0,252
-739,327	-200,000	0,059	0,319
-738,312	5,744	-0,263	-0,141
-737,298	-200,000	0,022	0,309
-736,283	117,925	-0,249	-0,223
-735,269	-200,000	0,029	0,319
-734,254	-165,278	-0,156	0,005
-733,239	127,941	-0,194	0,179
-732,225	800,000	-0,100	-0,221
-731,210	-200,000	0,017	0,362
-730,196	265,100	-0,084	-0,107
-729,181	-200,000	-0,007	-0,204
-728,167	302,538	-0,075	0,100
-727,152	-18,605	-0,079	-0,036
-726,137	248,051	0,032	0,040
-725,123	-143,656	0,138	0,009
-724,108	-200,000	0,009	-0,071
-723,094	287,623	-0,092	-0,122
-722,079	-200,000	0,001	0,063
-721,064	-20,564	-0,056	-0,025
-720,050	119,167	0,068	-0,061
-719,035	-200,000	-0,006	0,062
-718,021	143,853	-0,060	-0,058
-717,006	-124,079	-0,165	-0,019
-715,991	76,017	0,034	-0,026
-714,977	-69,144	-0,153	-0,042
-713,962	637,464	0,061	0,114
-712,948	-200,000	0,007	-0,077
-711,933	-62,917	0,101	0,030
-710,918	-16,182	0,148	0,068
-709,904	588,377	-0,030	-0,055
-708,889	168,069	-0,125	-0,129
-707,875	56,736	-0,082	-0,058
-706,860	-182,697	-0,049	0,001
-705,845	472,732	0,058	0,095
-704,831	800,000	-0,019	0,041
-703,816	64,983	-0,108	0,079
-702,802	73,711	0,078	-0,059
-701,787	-200,000	-0,017	-0,156
-700,772	385,906	-0,057	-0,085
-699,758	368,289	-0,012	-0,018
-698,743	596,412	0,049	0,089
-697,729	-145,477	-0,049	0,003
-696,714	800,000	0,047	0,110
-695,699	-112,586	-0,135	0,019
-694,685	33,706	0,067	-0,042
-693,670	474,058	-0,073	-0,119
-692,656	800,000	0,002	-0,005
-691,641	23,524	0,033	-0,020
-690,627	296,834	-0,058	0,077
-689,612	47,517	-0,065	0,044
-688,597	313,818	-0,064	-0,087
-687,583	-200,000	0,037	-0,132
-686,568	800,000	0,022	-0,061
-685,554	608,826	0,034	-0,061
-684,539	205,175	0,066	0,074
-683,524	149,561	-0,100	-0,098
-682,510	-104,116	-0,053	-0,009
-681,495	-85,540	0,059	-0,013
-680,481	800,000	0,020	-0,056
-679,466	-107,427	0,107	0,017
-678,451	-179,368	-0,103	0,002
-677,437	-200,000	0,019	0,136
-676,422	514,585	-0,035	0,060
-675,408	167,268	0,048	-0,049
-674,393	-81,328	-0,065	0,016
-673,378	800,000	-0,009	-0,027
-672,364	-200,000	0,001	-0,048
-671,349	800,000	-0,059	0,131
-670,335	5,348	0,118	-0,063
-669,320	371,340	0,029	-0,042
-668,305	4,941	0,054	0,029
-667,291	5,705	-0,076	0,041
-666,276	-200,000	-0,046	-0,163
-665,262	-130,127	0,078	0,008
-664,247	-200,000	-0,013	-0,054
-663,232	-200,000	-0,001	-0,101
-662,218	375,846	0,038	-0,056
-661,203	-81,495	0,107	0,025
-660,189	117,895	-0,092	-0,082
-659,174	44,510	-0,075	-0,050
-658,159	131,980	-0,081	-0,076
-657,145	370,079	0,043	-0,064
-656,130	800,000	0,031	-0,080
-655,116	-14,092	0,124	0,058
-654,101	244,497	0,075	0,092
-653,086	-23,042	-0,045	0,020
-652,072	-200,000	-0,008	0,095
-651,057	-41,534	-0,042	-0,015
-650,043	-200,000	-0,012	-0,085
-649,028	-200,000	0,010	0,050
-648,014	-79,490	0,085	-0,021
-646,999	50,021	0,052	-0,035
-645,984	-200,000	0,042	0,152
-644,970	386,290	0,041	0,061
-643,955	99,948	-0,094	-0,079
-642,941	-21,083	-0,085	-0,038
-641,926	605,307	-0,008	-0,015
-640,911	148,271	-0,073	0,071
-639,897	-141,927	0,144	0,010
-638,882	-0,287	-0,076	0,039
-637,868	-15,369	-0,143	-0,066
-636,853	-200,000	0,019	-0,111
-635,838	155,446	-0,104	-0,104
-634,824	-200,000	-0,009	-0,072
-633,809	-200,000	-0,019	-0,140
-632,795	210,849	-0,069	-0,079
-631,780	-132,181	-0,056	-0,005
-630,765	332,607	0,056	-0,078
-629,751	129,104	-0,026	-0,024
-628,736	645,395	-0,025	-0,046
-627,722	11,143	-0,017	0,009
-626,707	-200,000	0,012	-0,115
-625,692	-200,000	0,003	-0,055
-624,678	-200,000	0,019	-0,080
-623,663	149,410	-0,074	-0,073
-622,649	-200,000	0,009	0,050
-621,634	-200,000	0,018	-0,178
-620,619	-142,210	-0,055	0,004
-619,605	403,067	0,077	-0,118
-618,590	180,297	-0,051	0,054
-617,576	437,262	0,125	0,197
-616,561	532,531	0,009	0,016
-615,546	-25,318	0,060	0,026
-614,532	800,000	-0,054	-0,123
-613,517	98,708	-0,031	-0,026
-612,503	-200,000	0,030	-0,146
-611,488	-96,393	0,080	0,015
-610,474	-189,796	0,017	0,000
-609,459	-200,000	0,014	-0,153
-608,444	711,920	-0,033	-0,064
-607,430	800,000	-0,052	-0,156
-606,415	795,594	-0,045	-0,089
-605,401	-11,671	-0,067	-0,032
-604,386	4,967	0,080	0,043
-603,371	332,157	0,091	-0,127
-602,357	424,794	-0,008	-0,013
-601,342	249,835	-0,087	0,107
-600,328	422,979	-0,097	-0,151
-599,313	-200,000	-0,024	-0,167
-598,298	-200,000	0,003	0,138
-597,284	-137,156	-0,048	-0,004
-596,269	351,873	0,022	-0,032
-595,255	800,000	0,042	-0,113
-594,240	-61,344	-0,020	-0,006
-593,225	24,874	-0,036	-0,021
-592,211	-200,000	0,016	-0,166
-591,196	-50,911	-0,033	-0,011
-590,182	27,026	0,098	0,060
-589,167	440,277	-0,009	-0,014
-588,152	-58,694	0,052	0,016
-587,138	-50,834	0,076	-0,026
-586,123	61,034	0,065	0,047
-585,109	-58,495	-0,028	0,009
-584,094	-25,305	-0,128	0,054
-583,079	-105,879	-0,114	-0,018
-582,065	-200,000	0,006	0,118
-581,050	23,973	-0,026	0,016
-580,036	-68,142	-0,101	-0,028
-579,021	-200,000	-0,001	0,075
-578,006	-63,490	-0,148	-0,044
-576,992	-200,000	0,048	-0,192
-575,977	-22,155	-0,139	0,061
-574,963	509,834	-0,084	-0,142
-573,948	-200,000	-0,019	-0,064
-572,934	-200,000	-0,007	-0,075
-571,919	-30,364	0,102	-0,042
-570,904	-200,000	0,015	-0,158
-569,890	-5,424	-0,097	0,048
-568,875	800,000	-0,018	-0,040
-567,861	599,296	-0,046	-0,084
-566,846	479,165	0,013	-0,022
-565,831	493,321	0,047	-0,077
-564,817	800,000	-0,027	0,061
-563,802	-200,000	-0,002	-0,036
-562,788	117,801	0,016	0,015
-561,773	-157,899	0,050	0,002
-560,758	235,940	-0,045	-0,053
-559,744	-200,000	-0,013	0,065
-558,729	-81,282	-0,039	0,009
-557,715	800,000	0,043	0,100
-556,700	-111,610	-0,082	-0,012
-555,685	-200,000	0,036	-0,236
-554,671	-200,000	-0,010	0,058
-553,656	551,652	-0,039	0,068
-552,642	696,597	-0,018	-0,034
-551,627	71,271	0,099	0,074
-550,612	98,212	-0,026	0,021
-549,598	800,000	-0,030	-0,068
-548,583	53,867	-0,136	-0,094
-547,569	-70,666	0,133	0,036
-546,554	-200,000	-0,005	0,306
-545,539	427,432	0,059	0,092
-544,525	-121,586	-0,145	-0,017
-543,510	800,000	0,044	-0,115
-542,496	-200,000	0,020	0,073
-541,481	152,617	0,058	-0,058
-540,466	800,000	-0,021	0,052
-539,452	-104,263	0,027	0,004
-538,437	774,057	0,041	0,081
-537,423	-200,000	0,026	0,107
-536,408	130,417	-0,114	0,105
-535,393	-200,000	-0,017	-0,104
-534,379	-200,000	-0,028	-0,105
-533,364	98,686	0,069	0,057
-532,350	-53,114	0,093	0,031
-531,335	800,000	-0,039	0,084
-530,321	10,850	0,085	0,047
-529,306	65,770	0,034	0,025
-528,291	330,158	-0,075	-0,105
-527,277	-200,000	0,004	0,105
-526,262	-200,000	0,022	0,114
-525,248	800,000	-0,066	0,145
-524,233	-129,824	-0,076	0,007
-523,218	-68,559	0,068	0,019
-522,204	66,533	0,062	0,045
-521,189	-46,020	0,111	-0,039
-520,175	-10,910	-0,014	0,007
-519,160	173,032	-0,090	0,094
-518,145	-104,036	0,164	0,027
-517,131	212,044	-0,025	0,028
-516,116	67,972	0,076	0,056
-515,102	280,933	0,012	-0,015
-514,087	109,701	0,025	0,022
-513,072	180,199	0,038	-0,041
-512,058	102,406	0,017	-0,014
-511,043	-93,439	-0,064	-0,013
-510,029	-36,231	0,137	0,053
-509,014	-1,636	0,030	-0,015
-507,999	423,379	0,108	0,168
-506,985	800,000	0,017	-0,039
-505,970	35,973	-0,087	-0,055
-504,956	-193,919	-0,098	0,001
-503,941	271,698	0,075	-0,096
-502,926	-38,031	0,011	-0,004
-501,912	-200,000	-0,002	0,046
-500,897	31,394	-0,078	0,048
-499,883	-200,000	-0,032	0,104
-498,868	54,686	0,032	-0,022
-497,853	91,202	-0,102	-0,082
-496,839	145,326	0,113	0,109
-495,824	800,000	-0,030	-0,069
-494,810	-200,000	-0,011	0,108
-493,795	591,209	-0,044	0,078
-492,781	733,407	0,026	-0,051
-491,766	133,191	-0,080	0,075
-490,751	-133,289	-0,113	-0,010
-489,737	800,000	-0,047	-0,101
-488,722	-99,644	0,062	0,011
-487,708	-157,754	-0,169	0,007
-486,693	-5,642	0,090	0,044
-485,678	-200,000	-0,023	0,166
-484,664	403,294	0,017	-0,026
-483,649	184,764	-0,138	-0,148
-482,635	25,399	-0,054	-0,032
-481,620	419,634	0,049	-0,076
-480,605	491,624	0,032	0,052
-479,591	800,000	0,066	0,203
-478,576	-97,164	-0,064	0,012
-477,562	-59,756	-0,189	0,058
-476,547	-200,000	-0,002	-0,045
-475,532	164,806	0,049	-0,050
-474,518	-127,819	-0,072	-0,007
-473,503	-178,454	0,092	0,001
-472,489	-200,000	0,002	-0,118
-471,474	-200,000	0,006	0,041
-470,459	273,479	0,040	0,051
-469,445	340,829	-0,027	-0,038
-468,430	-92,737	-0,091	-0,018
-467,416	-116,541	0,085	0,011
-466,401	-101,567	-0,044	0,008
-465,386	-45,048	0,168	0,060
-464,372	272,807	-0,046	0,059
-463,357	294,217	0,053	0,070
-462,343	16,468	-0,035	0,020
-461,328	800,000	-0,040	-0,103
-460,313	391,144	0,017	0,025
-459,299	-76,628	0,119	0,030
-458,284	800,000	-0,059	0,131
-457,270	28,810	0,154	0,094
-456,255	-71,277	0,021	-0,006
-455,241	-136,833	-0,180	-0,015
-454,226	800,000	-0,062	0,182
-453,211	49,147	0,087	0,059
-452,197	-200,000	-0,014	0,113
-451,182	800,000	0,056	0,127
-450,168	800,000	-0,020	0,058
-449,153	-128,298	-0,135	0,014
-448,138	508,496	-0,056	-0,093
-447,124	416,940	-0,073	0,112
-446,109	172,002	0,045	0,046
-445,095	-133,581	-0,060	-0,005
-444,080	598,777	-0,080	0,143
-443,065	96,028	0,097	-0,079
-442,051	-50,593	-0,040	0,014
-441,036	641,994	-0,074	-0,137
-440,022	553,210	0,058	-0,101
-439,007	308,569	-0,058	0,078
-437,992	-92,121	0,122	-0,025
-436,978	285,686	0,049	0,063
-435,963	356,294	0,021	0,030
-434,949	104,749	-0,028	0,024
-433,934	310,768	0,096	-0,130
-432,919	793,372	0,012	0,023
-431,905	-200,000	0,015	0,144
-430,890	-99,909	-0,072	-0,013
-429,876	387,444	0,121	0,180
-428,861	-200,000	0,022	0,118
-427,846	120,507	-0,126	0,113
-426,832	277,210	-0,014	0,018
-425,817	17,776	0,109	-0,062
-424,803	-89,972	0,038	0,008
-423,788	-157,781	0,020	-0,001
-422,773	-64,307	0,090	0,026
-421,759	507,321	-0,079	0,132
-420,744	54,077	0,024	0,017
-419,730	800,000	0,038	0,093
-418,715	307,507	-0,037	-0,050
-417,701	104,501	-0,131	-0,111
-416,686	436,362	0,047	0,074
-415,671	-93,724	0,055	-0,011
-414,657	800,000	0,039	0,097
-413,642	-84,029	-0,078	0,018
-412,628	30,263	-0,103	-0,063
-411,613	-53,932	-0,105	-0,034
-410,598	624,003	-0,061	-0,110
-409,584	-140,113	0,136	-0,010
-408,569	108,045	-0,085	0,073
-407,555	-86,360	0,134	-0,029
-406,540	-114,620	0,089	-0,012
-405,525	-200,000	0,006	0,162
-404,511	-200,000	-0,003	-0,022
-403,496	-200,000	-0,003	0,040
-402,482	-95,335	-0,047	0,009
-401,467	-1,890	-0,047	0,023
-400,452	-37,020	0,093	0,036
-399,438	800,000	0,046	0,141
-398,423	165,489	-0,039	0,040
-397,409	41,194	-0,074	0,048
-396,394	359,500	0,037	0,054
-395,379	164,482	0,084	-0,085
-394,365	262,925	0,060	0,075
-393,350	800,000	0,036	0,091
-392,336	-200,000	0,004	-0,012
-391,321	660,511	-0,049	-0,092
-390,306	-78,270	0,064	0,016
-389,292	-200,000	-0,020	0,072
-388,277	-103,850	0,052	-0,009
-387,263	23,280	0,184	0,108
-386,248	-111,456	0,157	0,023
-385,233	-33,727	0,026	-0,010
-384,219	276,453	-0,071	-0,090
-383,204	133,802	-0,038	-0,035
-382,190	-81,504	-0,067	-0,016
-381,175	800,000	-0,004	-0,008
-380,160	-200,000	0,002	0,083
-379,146	-200,000	-0,005	0,198
-378,131	-14,768	-0,024	-0,011
-377,117	93,579	0,076	-0,062
-376,102	-200,000	0,018	-0,085
-375,088	800,000	-0,081	-0,172
-374,073	-27,303	-0,100	-0,042
-373,058	800,000	0,058	0,126
-372,044	731,592	-0,033	0,064
-371,029	800,000	0,022	-0,049
-370,015	628,836	0,068	0,124
-369,000	130,837	-0,078	0,071
-367,985	-9,112	0,088	-0,042
-366,971	-200,000	-0,001	0,094
-365,956	-200,000	0,039	0,133
-364,942	-51,752	-0,153	0,051
-363,927	-158,244	0,119	-0,005
-362,912	173,203	-0,049	0,051
-361,898	-18,087	0,065	0,029
-360,883	-200,000	-0,022	-0,144
-359,869	-130,743	-0,117	-0,011
-358,854	592,277	-0,047	0,084
-357,839	184,627	0,096	0,102
-356,825	-200,000	0,013	-0,072
-355,810	-2,460	-0,101	0,051
-354,796	-177,582	0,055	-0,001
-353,781	29,921	-0,110	-0,067
-352,766	44,030	0,003	-0,002
-351,752	66,501	0,147	0,107
-350,737	-87,890	0,067	-0,014
-349,723	338,788	0,050	0,070
-348,708	-200,000	0,026	-0,093
-347,693	-47,914	-0,045	-0,015
-346,679	568,418	-0,070	-0,122
-345,664	-200,000	0,003	0,090
-344,650	104,087	-0,022	0,018
-343,635	800,000	-0,055	0,139
-342,620	238,840	0,090	0,108
-341,606	-1,752	0,196	-0,098
-340,591	63,427	-0,130	-0,093
-339,577	106,380	-0,102	-0,087
-338,562	513,702	-0,080	-0,134
-337,548	556,998	-0,032	-0,055
-336,533	-9,839	0,142	-0,067
-335,518	417,867	0,028	0,043
-334,504	-43,542	0,013	-0,005
-333,489	136,358	0,019	-0,018
-332,475	167,179	-0,047	0,048
-331,460	-128,679	-0,073	0,007
-330,445	800,000	-0,018	-0,052
-329,431	-200,000	0,015	-0,051
-328,416	-200,000	-0,006	-0,126
-327,402	-200,000	-0,014	0,074
-326,387	-1,116	-0,032	-0,016
-325,372	531,096	-0,057	-0,096
-324,358	-200,000	0,008	0,095
-323,343	-30,760	0,040	-0,016
-322,329	-94,085	0,127	0,025
-321,314	613,732	0,014	0,025
-320,299	200,659	0,017	0,019
-319,285	-200,000	0,005	0,054
-318,270	45,560	-0,009	-0,006
-317,256	254,141	-0,086	-0,105
-316,241	515,247	0,083	-0,139
-315,226	-200,000	0,004	-0,094
-314,212	-200,000	0,021	0,167
-313,197	-200,000	0,048	0,160
-312,183	1,681	-0,083	0,043
-311,168	-69,853	-0,177	-0,048
-310,153	243,393	0,079	-0,095
-309,139	758,529	0,014	-0,028
-308,124	800,000	0,048	-0,149
-307,110	800,000	0,049	0,148
-306,095	-28,859	0,034	0,014
-305,080	-200,000	-0,010	0,036
-304,066	1,024	0,027	0,014
-303,051	800,000	-0,018	0,051
-302,037	93,695	-0,050	-0,040
-301,022	212,152	0,045	-0,051
-300,008	800,000	-0,025	-0,052
-298,993	-200,000	-0,008	0,095
-297,978	-200,000	-0,012	0,054
-296,964	-121,413	-0,226	-0,027
-295,949	426,955	-0,017	-0,026
-294,935	384,059	-0,018	-0,026
-293,920	-200,000	-0,022	-0,120
-292,905	-200,000	0,025	0,084
-291,891	-200,000	0,034	0,147
-290,876	197,349	0,071	-0,078
-289,862	185,905	0,016	-0,017
-288,847	-200,000	-0,001	-0,018
-287,832	-200,000	-0,006	-0,099
-286,818	-180,119	0,058	0,001
-285,803	52,188	0,048	0,033
-284,789	414,599	0,044	-0,067
-283,774	1,553	0,028	-0,014
-282,759	-200,000	0,013	0,047
-281,745	-200,000	-0,024	-0,083
-280,730	6,556	0,064	-0,034
-279,716	61,449	0,026	-0,019
-278,701	800,000	-0,041	0,102
-277,686	-27,553	0,139	0,058
-276,672	-200,000	0,033	0,142
-275,657	-200,000	0,021	0,069
-274,643	-200,000	-0,007	0,089
-273,628	170,582	0,067	-0,069
-272,613	-26,652	0,114	0,048
-271,599	710,702	0,012	-0,023
-270,584	514,797	-0,010	-0,016
-269,570	94,369	0,083	-0,068
-268,555	-200,000	-0,047	-0,187
-267,540	800,000	-0,049	0,112
-266,526	316,656	-0,052	-0,070
-265,511	-82,165	0,041	0,009
-264,497	-75,855	-0,086	0,022
-263,482	-179,790	0,103	0,002
-262,467	-200,000	0,002	0,141
-261,453	-186,014	0,071	-0,001
-260,438	-200,000	-0,016	0,056
-259,424	-23,420	-0,163	-0,070
-258,409	639,881	-0,021	-0,037
-257,395	-12,048	0,125	0,058
-256,380	26,456	0,114	-0,068
-255,365	800,000	0,035	-0,093
-254,351	181,316	0,078	-0,082
-253,336	-127,285	-0,084	0,009
-252,322	-31,447	-0,069	-0,028
-251,307	-200,000	-0,016	-0,075
-250,292	9,877	0,035	-0,019
-249,278	90,397	-0,083	0,066
-248,263	377,609	0,023	0,034
-247,249	-23,393	-0,041	0,017
-246,234	-200,000	0,021	0,092
-245,219	-4,479	0,090	-0,044
-244,205	529,721	-0,050	-0,084
-243,190	-200,000	-0,015	0,058
-242,176	800,000	0,068	-0,156
-241,161	-3,515	0,045	-0,022
-240,146	63,190	0,087	0,062
-239,132	-21,952	-0,074	0,032
-238,117	-200,000	0,023	-0,103
-237,103	190,615	-0,121	-0,130
-236,088	-75,052	-0,083	-0,021
-235,073	800,000	-0,030	-0,083
-234,059	-200,000	0,005	0,073
-233,044	90,959	-0,073	0,059
-232,030	126,081	0,051	0,046
-231,015	344,067	-0,058	0,081
-230,000	510,682	0,075	-0,125
-228,986	228,271	0,052	0,060
-227,971	-54,475	0,077	-0,025
-226,957	-139,373	0,121	0,009
-225,942	-200,000	0,025	0,141
-224,927	535,350	-0,022	0,037
-223,913	-161,687	-0,034	-0,001
-222,898	220,284	0,030	-0,035
-221,884	-50,954	-0,119	-0,040
-220,869	-200,000	0,003	-0,014
-219,855	-200,000	0,002	-0,031
-218,840	800,000	-0,063	0,166
-217,825	476,807	0,021	-0,034
-216,811	-200,000	-0,012	-0,061
-215,796	46,794	0,086	-0,057
-214,782	-1,643	-0,110	-0,055
-213,767	286,838	0,064	-0,082
-212,752	-51,351	0,157	-0,052
-211,738	-200,000	-0,013	-0,072
-210,723	-200,000	-0,003	-0,046
-209,709	-200,000	-0,003	-0,013
-208,694	352,277	-0,060	-0,085
-207,679	-125,198	-0,043	-0,005
-206,665	16,190	-0,013	0,007
-205,650	800,000	0,014	-0,035
-204,636	-7,945	0,125	0,060
-203,621	800,000	-0,038	0,107
-202,606	113,724	0,020	-0,018
-201,592	800,000	-0,043	0,085
-200,577	800,000	-0,042	-0,125
-199,563	19,034	0,111	0,063
-198,548	82,272	-0,067	0,051
-197,533	-200,000	0,035	0,177
-196,519	-98,742	-0,065	0,012
-195,504	-70,191	0,090	0,024
-194,490	-92,720	-0,075	-0,015
-193,475	-200,000	-0,030	-0,095
-192,460	60,772	-0,058	-0,041
-191,446	-116,877	0,149	-0,019
-190,431	-0,795	-0,095	0,048
-189,417	49,118	0,126	0,084
-188,402	519,351	-0,033	-0,056
-187,387	-78,286	0,112	-0,027
-186,373	-160,175	-0,156	-0,006
-185,358	-200,000	-0,032	0,108
-184,344	-200,000	-0,009	0,033
-183,329	61,808	0,126	0,089
-182,315	2,208	0,108	-0,056
-181,300	800,000	0,034	-0,094
-180,285	-37,537	-0,037	-0,014
-179,271	-200,000	0,020	-0,172
-178,256	112,355	0,084	0,072
-177,242	-200,000	0,007	0,032
-176,227	63,165	-0,042	-0,030
-175,212	-200,000	-0,011	-0,046
-174,198	429,050	-0,024	-0,036
-173,183	800,000	-0,049	-0,109
-172,169	-200,000	-0,010	-0,085
-171,154	388,646	-0,039	-0,058
-170,139	-100,765	0,131	0,023
-169,125	-4,970	-0,141	-0,069
-168,110	-200,000	0,000	-0,018
-167,096	800,000	0,026	-0,079
-166,081	-100,375	-0,061	0,011
-165,066	68,279	-0,023	-0,017
-164,052	574,252	0,030	0,053
-163,037	169,250	0,043	0,044
-162,023	42,791	0,106	0,068
-161,008	53,199	-0,081	-0,055
-159,993	106,658	0,099	0,084
-158,979	-83,056	-0,106	0,024
-157,964	800,000	-0,017	0,049
-156,950	-107,359	-0,118	-0,018
-155,935	427,052	-0,094	-0,144
-154,920	-200,000	-0,014	-0,046
-153,906	-200,000	0,021	-0,111
-152,891	224,277	-0,063	-0,073
-151,877	-41,558	-0,035	0,013
-150,862	24,928	-0,022	0,013
-149,847	-28,531	0,021	-0,008
-148,833	-200,000	-0,011	0,084
-147,818	-109,141	-0,100	0,015
-146,804	-200,000	-0,027	0,152
-145,789	-27,396	0,095	-0,039
-144,775	103,988	0,137	0,114
-143,760	-10,608	-0,150	-0,070
-142,745	-12,396	0,233	0,108
-141,731	-200,000	-0,028	-0,095
-140,716	-200,000	-0,015	-0,081
-139,702	2,691	0,102	-0,052
-138,687	-200,000	-0,020	0,107
-137,672	800,000	-0,050	0,099
-136,658	22,939	0,084	-0,049
-135,643	273,750	0,089	0,113
-134,629	-123,018	-0,062	-0,007
-133,614	-13,331	-0,072	-0,033
-132,599	266,787	0,039	-0,048
-131,585	800,000	-0,020	-0,059
-130,570	259,789	-0,043	-0,053
-129,556	18,154	0,143	-0,081
-128,541	276,383	-0,027	-0,034
-127,526	-85,122	0,148	0,033
-126,512	362,584	-0,046	-0,066
-125,497	-63,423	-0,065	0,019
-124,483	19,854	0,104	0,059
-123,468	800,000	-0,031	0,086
-122,453	522,618	0,038	0,063
-121,439	44,653	-0,109	-0,071
-120,424	284,681	-0,030	0,038
-119,410	-82,759	0,115	0,026
-118,395	189,666	0,101	0,107
-117,380	-136,273	0,080	0,007
-116,366	800,000	0,022	-0,058
-115,351	559,979	0,054	-0,092
-114,337	-124,555	-0,083	0,009
-113,322	-200,000	-0,007	-0,067
-112,307	-200,000	0,014	0,067
-111,293	437,464	0,065	0,101
-110,278	539,785	-0,085	0,143
-109,264	82,100	0,080	-0,061
-108,249	373,993	0,054	-0,078
-107,234	-200,000	-0,021	-0,157
-106,220	557,447	-0,063	-0,109
-105,205	-80,168	-0,105	0,025
-104,191	58,682	-0,083	0,058
-103,176	-108,284	0,144	0,022
-102,162	-1,133	-0,021	-0,011
-101,147	224,102	-0,115	-0,132
-100,132	48,505	0,043	-0,028
-99,118	800,000	-0,055	-0,121
-98,103	-64,024	0,049	-0,014
-97,089	297,553	-0,010	-0,013
-96,074	34,277	0,041	0,025
-95,059	-200,000	0,010	-0,075
-94,045	-200,000	-0,006	-0,052
-93,030	-152,783	-0,127	0,006
-92,016	1,375	0,095	0,048
-91,001	800,000	0,032	0,100
-89,986	295,683	0,068	0,088
-88,972	-200,000	-0,007	-0,040
-87,957	338,199	-0,027	-0,037
-86,943	800,000	-0,027	0,072
-85,928	800,000	0,031	0,063
-84,913	-200,000	0,001	-0,068
-83,899	-75,373	-0,042	0,010
-82,884	-93,400	-0,026	-0,005
-81,870	-60,096	0,089	-0,027
-80,855	-200,000	-0,008	-0,027
-79,840	-200,000	-0,011	-0,046
-78,826	-124,407	0,088	-0,010
-77,811	-131,876	0,122	-0,011
-76,797	464,255	-0,071	-0,113
-75,782	252,235	-0,099	0,120
-74,767	426,030	0,085	0,131
-73,753	-200,000	0,161	0,000
-72,738	598,938	0,028	-0,050
-71,724	-115,000	-0,110	0,015
-70,709	-200,000	0,008	-0,102
-69,694	257,256	0,090	-0,110
-68,680	404,266	0,030	-0,045
-67,665	-200,000	-0,006	0,144
-66,651	800,000	0,052	0,109
-65,636	-200,000	0,014	0,085
-64,622	800,000	-0,043	-0,086
-63,607	62,862	-0,064	-0,045
-62,592	-200,000	-0,008	-0,132
-61,578	-200,000	0,045	0,155
-60,563	100,184	0,061	0,050
-59,549	-174,216	-0,117	0,002
-58,534	-32,076	-1,556	-0,613
-57,519	585,784	-1,311	-2,292
-56,505	-200,000	-0,634	-4,625
-55,490	143,704	1,061	1,001
-54,476	800,000	4,833	11,363
-53,461	-200,000	19,012	308,707
-52,446	-200,000	737,898	2307,362
-51,432	571,228	1654,265	2862,526
-50,417	79,048	1670,960	1265,593
-49,403	22,014	1543,652	889,036
-48,388	15,902	1466,530	814,915
-47,373	17,784	1456,393	818,339
-46,359	16,829	1446,788	808,329
-45,344	14,107	1442,143	792,668
-44,330	14,027	1440,059	791,108
-43,315	14,095	1438,243	790,405
-42,300	14,062	1436,647	789,337
-41,286	14,095	1435,553	788,864
-40,271	14,063	1434,277	787,979
-39,257	14,051	1433,024	787,199
-38,242	14,111	1431,824	786,797
-37,227	14,112	1430,496	786,038
-36,213	14,097	1429,137	785,192
-35,198	14,091	1428,036	784,527
-34,184	14,095	1427,138	784,018
-33,169	14,065	1425,811	783,120
-32,154	14,110	1424,771	782,726
-31,140	14,133	1423,246	781,966
-30,125	14,137	1422,282	781,427
-29,111	14,069	1421,306	780,538
-28,096	14,141	1419,955	780,102
-27,082	14,049	1418,905	779,065
-26,067	14,043	1417,754	778,372
-25,052	14,009	1416,860	777,690
-24,038	14,003	1415,891	777,101
-23,023	14,057	1414,650	776,643
-22,009	14,017	1413,885	776,003
-20,994	14,031	1412,879	775,484
-19,979	14,013	1412,003	774,891
-18,965	13,978	1411,159	774,234
-17,950	13,955	1410,200	773,569
-16,936	13,950	1409,449	773,102
-15,921	13,949	1408,151	772,353
-14,906	13,938	1407,416	771,869
-13,892	13,956	1406,265	771,292
-12,877	13,940	1405,376	770,699
-11,863	13,918	1404,658	770,169
-10,848	13,937	1403,677	769,692
-9,833	13,891	1402,727	768,927
-8,819	13,898	1401,678	768,350
-7,804	13,797	1401,096	767,530
-6,790	13,877	1399,961	767,251
-5,775	13,837	1398,847	766,426
-4,760	13,803	1398,306	765,942
-3,746	13,829	1397,042	765,339
-2,731	13,845	1396,233	764,939
-1,717	13,841	1395,395	764,433
-0,702	13,816	1393,727	763,369
0,313	17,702	1311,398	736,277
1,327	34,068	705,459	433,959
2,342	52,119	123,986	83,459
3,356	4,844	16,634	8,624
4,371	11,347	3,153	1,703
5,386	-22,331	0,528	0,225
6,400	-200,000	0,076	0,299
7,415	-115,905	-0,220	-0,029
8,429	130,284	-0,369	-0,334
9,444	153,506	-0,265	-0,257
10,459	24,787	-0,181	-0,106
11,473	34,726	-0,366	-0,226
12,488	77,259	-0,302	-0,227
13,502	15,299	-0,229	-0,127
14,517	76,931	-0,383	-0,287
15,531	91,444	-0,281	-0,223
16,546	-25,474	-0,451	-0,188
17,561	144,143	-0,451	-0,425
18,575	360,717	-0,134	-0,189
19,590	377,531	-0,140	-0,203
20,604	49,306	-0,262	-0,174
21,619	165,869	-0,359	-0,359
22,634	75,224	-0,575	-0,428
23,648	37,949	-0,391	-0,245
24,663	62,544	-0,449	-0,316
25,677	-31,479	-0,370	-0,146
26,692	86,803	-0,248	-0,193
27,707	37,944	-0,287	-0,179
28,721	31,366	-0,378	-0,229
29,736	74,107	-0,312	-0,231
30,750	130,328	-0,452	-0,409
31,765	117,149	-0,388	-0,337
32,780	175,201	-0,339	-0,347
33,794	16,831	-0,428	-0,239
34,809	39,320	-0,431	-0,272
35,823	28,316	-0,332	-0,198
36,838	138,352	-0,297	-0,275
37,853	373,358	-0,271	-0,390
38,867	-9,133	-0,476	-0,224
39,882	246,907	-0,226	-0,269
40,896	85,419	-0,377	-0,292
41,911	179,887	-0,348	-0,360
42,926	108,892	-0,411	-0,347
43,940	183,416	-0,289	-0,302
44,955	43,099	-0,357	-0,229
45,969	64,130	-0,379	-0,269
46,984	182,219	-0,237	-0,247
47,999	94,721	-0,204	-0,163
49,013	301,656	-0,209	-0,273
50,028	69,611	-0,269	-0,195
51,042	17,769	-0,401	-0,224
52,057	130,192	-0,279	-0,252
53,071	47,272	-0,378	-0,247
54,086	169,373	-0,345	-0,347
55,101	117,433	-0,251	-0,218
56,115	87,704	-0,362	-0,282
57,130	31,685	-0,353	-0,213
58,144	19,806	-0,375	-0,212
59,159	56,520	-0,458	-0,313
60,174	435,226	-0,237	-0,363
61,188	146,348	-0,343	-0,324
62,203	31,795	-0,291	-0,176
63,217	183,703	-0,234	-0,244
64,232	64,107	-0,437	-0,309
65,247	183,762	-0,324	-0,338
66,261	105,973	-0,330	-0,275
67,276	90,846	-0,350	-0,276
68,290	185,365	-0,282	-0,295
69,305	67,894	-0,249	-0,179
70,320	205,709	-0,213	-0,233
71,334	135,391	-0,249	-0,228
72,349	33,699	-0,335	-0,205
73,363	-18,373	-0,423	-0,185
74,378	-39,867	-0,410	-0,150
75,393	98,604	-0,308	-0,249
76,407	126,308	-0,142	-0,126
77,422	41,531	-0,228	-0,145
78,436	39,050	-0,291	-0,183
79,451	188,528	-0,253	-0,266
80,466	197,588	-0,275	-0,295
81,480	77,437	-0,346	-0,258
82,495	-62,581	-0,411	-0,119
83,509	504,979	-0,193	-0,315
84,524	-39,114	-0,267	-0,098
85,539	52,334	-0,275	-0,184
86,553	25,329	-0,299	-0,174
87,568	69,774	-0,261	-0,189
88,582	-19,567	-0,404	-0,175
89,597	124,389	-0,254	-0,224
90,611	46,712	-0,243	-0,158
91,626	387,545	-0,198	-0,289
92,641	6,151	-0,208	-0,108
93,655	-138,609	-0,310	-0,024
94,670	4,143	-0,256	-0,131
95,684	164,598	-0,314	-0,311
96,699	-71,547	-0,384	-0,100
97,714	-200,000	-0,019	-0,121
98,728	255,122	-0,196	-0,236
99,743	306,387	-0,193	-0,253
100,757	-67,130	-0,166	-0,045
101,772	21,174	-0,364	-0,207
102,787	162,578	-0,332	-0,327
103,801	171,230	-0,250	-0,252
104,816	80,658	-0,316	-0,239
105,830	227,770	-0,135	-0,155
106,845	27,408	-0,220	-0,129
107,860	25,767	-0,248	-0,145
108,874	-164,213	-0,317	0,010
109,889	80,989	-0,358	-0,271
110,903	62,157	-0,209	-0,146
111,918	800,000	-0,146	-0,299
112,933	310,035	-0,226	-0,297
113,947	167,978	-0,212	-0,212
114,962	-62,799	-0,141	-0,041
115,976	11,691	-0,222	-0,119
116,991	177,211	-0,288	-0,294
118,006	317,579	-0,200	-0,266
119,020	-119,641	-0,348	-0,042
120,035	-19,373	-0,271	-0,117
121,049	38,404	-0,236	-0,147
122,064	22,200	-0,276	-0,157
123,079	-95,136	-0,163	-0,030
124,093	87,521	-0,243	-0,188
125,108	149,197	-0,226	-0,215
126,122	43,118	-0,324	-0,206
127,137	105,356	-0,119	-0,098
128,151	-200,000	-0,072	-0,341
129,166	-6,763	-0,253	-0,120
130,181	-81,964	-0,178	-0,040
131,195	221,008	-0,261	-0,294
132,210	83,267	-0,257	-0,195
133,224	-139,611	-0,259	-0,019
134,239	70,063	-0,117	-0,084
135,254	40,360	-0,188	-0,118
136,268	113,753	-0,230	-0,195
137,283	107,413	-0,177	-0,148
138,297	244,595	-0,204	-0,241
139,312	163,793	-0,316	-0,311
140,327	240,712	-0,247	-0,288
141,341	414,013	-0,111	-0,165
142,356	38,217	-0,220	-0,137
143,370	136,822	-0,209	-0,190
144,385	74,578	-0,290	-0,213
145,400	800,000	-0,150	-0,358
146,414	145,216	-0,275	-0,257
147,429	-81,573	-0,321	-0,073
148,443	79,190	-0,185	-0,138
149,458	-111,162	-0,279	0,040
150,473	86,502	-0,121	-0,093
151,487	-82,235	-0,334	-0,075
152,502	89,081	-0,229	-0,178
153,516	43,197	-0,224	-0,143
154,531	83,449	-0,129	-0,098
155,546	83,790	-0,245	-0,186
156,560	-51,190	-0,263	-0,086
157,575	78,232	-0,117	-0,087
158,589	131,799	-0,172	-0,154
159,604	4,246	-0,387	-0,197
160,619	188,864	-0,200	-0,209
161,633	17,221	-0,287	-0,159
162,648	54,303	-0,204	-0,136
163,662	46,259	-0,150	-0,097
164,677	-110,607	-0,119	0,017
165,692	17,487	-0,183	-0,101
166,706	5,870	-0,248	-0,128
167,721	15,817	-0,175	-0,096
168,735	168,975	-0,291	-0,289
169,750	185,864	-0,182	-0,189
170,764	-56,765	-0,256	-0,078
171,779	-4,138	-0,146	-0,070
172,794	800,000	-0,090	-0,202
173,808	-24,776	-0,277	-0,114
174,823	168,581	-0,241	-0,240
175,837	800,000	-0,118	-0,292
176,852	528,341	-0,149	-0,246
177,867	-8,195	-0,214	-0,100
178,881	767,933	-0,141	-0,269
179,896	-91,060	-0,129	-0,025
180,910	467,309	-0,115	-0,180
181,925	195,306	-0,178	-0,189
182,940	195,916	-0,193	-0,204
183,954	305,576	-0,110	-0,143
184,969	74,180	-0,214	-0,157
185,983	-83,888	-0,137	-0,030
186,998	410,625	-0,167	-0,248
188,013	800,000	-0,076	-0,179
189,027	137,531	-0,217	-0,197
190,042	689,918	-0,152	-0,279
191,056	800,000	-0,078	-0,214
192,071	211,174	-0,246	-0,270
193,086	295,246	-0,176	-0,225
194,100	42,829	-0,218	-0,138
195,115	94,206	-0,168	-0,133
196,129	500,696	-0,152	-0,245
197,144	153,076	-0,174	-0,166
198,159	114,113	-0,142	-0,120
199,173	-22,359	-0,259	-0,109
200,188	800,000	-0,051	-0,147
201,202	253,528	-0,083	-0,099
202,217	198,387	-0,207	-0,221
203,232	3,317	-0,228	-0,115
204,246	-65,642	-0,158	-0,044
205,261	93,913	-0,207	-0,163
206,275	333,593	-0,121	-0,163
207,290	10,336	-0,212	-0,112
208,304	243,535	-0,097	-0,113
209,319	46,157	-0,091	-0,058
210,334	-17,457	-0,337	-0,147
211,348	238,350	-0,207	-0,239
212,363	21,836	-0,145	-0,082
213,377	-25,713	-0,142	-0,058
214,392	-107,578	-0,172	0,026
215,407	17,426	-0,036	-0,020
216,421	164,764	-0,148	-0,145
217,436	108,072	-0,304	-0,251
218,450	288,737	-0,216	-0,273
219,465	278,236	-0,187	-0,232
220,480	-200,000	-0,018	-0,131
221,494	-200,000	-0,041	-0,173
222,509	100,739	-0,068	-0,055
223,523	4,581	-0,138	0,070
224,538	800,000	-0,151	-0,294
225,553	47,847	-0,245	-0,158
226,567	3,121	-0,289	-0,145
227,582	185,933	-0,228	-0,236
228,596	-4,604	-0,185	-0,088
229,611	239,040	-0,098	-0,113
230,626	110,771	-0,132	-0,110
231,640	-15,688	-0,202	-0,089
232,655	39,278	-0,152	-0,094
233,669	456,191	-0,193	-0,298
234,684	78,019	-0,211	-0,156
235,699	85,693	-0,042	-0,032
236,713	38,683	-0,142	-0,088
237,728	-170,986	-0,284	-0,007
238,742	-62,595	-0,120	-0,034
239,757	10,503	-0,131	-0,069
240,772	75,495	-0,141	-0,103
241,786	425,502	-0,145	-0,217
242,801	-61,845	-0,156	0,045
243,815	-155,104	-0,134	0,006
244,830	-200,000	-0,015	-0,207
245,844	400,506	-0,137	-0,200
246,859	-200,000	0,004	-0,158
247,874	-61,356	-0,321	-0,093
248,888	4,178	-0,217	-0,110
249,903	-173,642	-0,180	-0,004
250,917	34,476	-0,176	-0,106
251,932	-104,737	-0,234	-0,037
252,947	91,329	-0,066	-0,052
253,961	332,129	-0,106	-0,142
254,976	-78,879	-0,187	-0,044
255,990	8,861	-0,208	-0,108
257,005	-28,192	-0,109	-0,044
258,020	-143,308	-0,266	-0,017
259,034	-106,524	-0,240	-0,037
260,049	67,815	-0,238	-0,168
261,063	-77,991	-0,190	-0,045
262,078	-40,167	-0,302	-0,108
263,093	619,899	-0,113	-0,198
264,107	41,703	-0,188	-0,117
265,122	800,000	-0,073	-0,172
266,136	-90,362	-0,192	-0,038
267,151	25,737	-0,135	-0,077
268,166	181,318	-0,119	-0,121
269,180	36,608	-0,139	-0,084
270,195	-15,612	-0,266	-0,117
271,209	71,330	-0,169	-0,121
272,224	212,858	-0,151	-0,165
273,239	81,110	-0,096	-0,071
274,253	-182,928	-0,209	0,003
275,268	-88,021	-0,104	0,021
276,282	521,284	-0,116	-0,189
277,297	340,881	-0,177	-0,240
278,312	114,207	-0,184	-0,155
279,326	78,909	-0,234	-0,172
280,341	359,087	-0,147	-0,204
281,355	71,506	-0,084	-0,060
282,370	-38,203	-0,154	-0,056
283,384	280,363	-0,160	-0,198
284,399	800,000	-0,075	-0,161
285,414	303,729	-0,086	-0,111
286,428	419,323	-0,094	-0,139
287,443	-69,832	-0,090	0,024
288,457	8,130	-0,187	-0,097
289,472	156,696	-0,182	-0,173
290,487	42,566	-0,145	-0,091
291,501	39,790	-0,143	0,088
292,516	-0,766	-0,227	-0,110
293,530	6,813	-0,049	0,025
294,545	342,403	-0,193	-0,261
295,560	800,000	-0,056	-0,150
296,574	-152,477	-0,213	-0,010
297,589	-25,534	-0,127	-0,051
298,603	326,397	-0,164	-0,217
299,618	-79,358	-0,302	-0,070
300,633	-49,197	-0,168	-0,055
301,647	37,703	-0,116	-0,071
302,662	59,535	-0,061	0,041
303,676	12,507	-0,093	-0,049
304,691	65,222	-0,026	0,018
305,706	-99,192	-0,147	-0,025
306,720	266,836	-0,142	-0,171
307,735	76,702	-0,126	-0,092
308,749	-116,289	-0,159	0,020
309,764	-49,134	-0,109	0,036
310,779	-59,336	-0,229	-0,067
311,793	34,268	-0,069	-0,041
312,808	-15,976	-0,212	-0,093
313,822	-54,337	-0,175	-0,054
314,837	47,906	-0,212	-0,136
315,852	3,731	-0,162	-0,081
316,866	472,564	-0,056	-0,087
317,881	171,133	-0,026	-0,025
318,895	393,759	-0,132	-0,190
319,910	-24,328	-0,106	-0,043
320,925	-49,274	-0,323	-0,105
321,939	309,941	-0,089	-0,115
322,954	510,203	-0,113	-0,182
323,968	-5,842	-0,195	-0,092
324,983	350,662	-0,042	-0,058
325,997	145,885	-0,159	-0,146
327,012	32,985	-0,178	-0,106
328,027	-80,520	-0,204	-0,046
329,041	538,089	-0,098	-0,161
330,056	-156,996	-0,087	-0,004
331,070	800,000	-0,056	-0,134
332,085	-200,000	-0,017	0,055
333,100	-127,602	-0,188	-0,018
334,114	-83,154	-0,244	-0,054
335,129	642,087	-0,048	-0,085
336,143	-38,477	-0,169	-0,061
337,158	75,381	-0,088	-0,063
338,173	-115,464	-0,125	0,016
339,187	-200,000	-0,014	-0,199
340,202	800,000	-0,074	-0,154
341,216	82,310	-0,143	-0,107
342,231	171,164	-0,191	-0,188
343,246	193,775	-0,192	-0,200
344,260	20,172	-0,204	-0,113
345,275	325,673	-0,077	-0,101
346,289	-200,000	0,001	-0,112
347,304	-200,000	0,005	-0,116
348,319	-108,157	-0,122	-0,018
349,333	800,000	-0,070	-0,204
350,348	30,948	-0,146	-0,086
351,362	-41,412	-0,190	-0,067
352,377	-123,446	-0,150	-0,016
353,392	-18,727	-0,228	-0,097
354,406	-200,000	-0,052	-0,177
355,421	209,772	1314,844	1416,036
356,435	161,467	1475,581	1416,539
