DTS Sentinel unit serial number:	SN410029Multiplexer serial number:	ORYXHardware model number:	OX2-SRSoftware version number:	ORYX F/W v4,00 Oryx Data Collector v3.7.2.0data status	okinstallation	B3 Nyhavnadifferential loss correction	single-endedforward channel	channel 1reverse channel	N/Adate	2023/12/05time	04:57:30forward acquisition time	300,00reverse acquisition time	0,00gamma	499,1914k internal	0,3201k external	0,3201temperature offset calibration	1,0000default loss term (dB/km)	0,3820temperature slope calibration	1,0000multiplexer offset coefficient	1,0000multiplexer slope coefficient	1,0000fibre end	0,00T internal ref (°C)	14,11T ext. ref 1 (°C)	-0,89T ext. ref 2 (°C)	-0,92length (m)	temperature (°C)	Stokes	anti-Stokes-744,400	643,566	-0,187	-0,349
-743,385	-200,000	-0,040	0,169
-742,371	349,801	-0,149	-0,214
-741,356	800,000	0,138	0,288
-740,342	35,243	-0,180	-0,114
-739,327	796,710	-0,165	0,332
-738,312	800,000	-0,060	-0,174
-737,298	-200,000	0,008	0,341
-736,283	41,444	-0,243	-0,160
-735,269	800,000	0,099	0,232
-734,254	320,160	-0,195	-0,270
-733,239	62,310	-0,176	0,128
-732,225	800,000	-0,074	-0,224
-731,210	-158,688	0,106	0,004
-730,196	-120,271	0,047	0,006
-729,181	-7,683	-0,034	-0,017
-728,167	14,485	0,104	-0,059
-727,152	-128,219	0,041	0,004
-726,137	-25,677	-0,097	-0,042
-725,123	800,000	-0,005	0,011
-724,108	-134,583	-0,047	0,004
-723,094	-60,760	-0,102	-0,031
-722,079	-117,526	-0,179	-0,023
-721,064	85,423	-0,097	0,078
-720,050	226,355	-0,059	0,070
-719,035	-200,000	-0,039	0,140
-718,021	98,925	0,022	0,019
-717,006	800,000	-0,043	-0,128
-715,991	-77,734	-0,072	-0,018
-714,977	239,808	-0,155	-0,188
-713,962	427,515	0,030	0,047
-712,948	800,000	-0,007	-0,022
-711,933	41,027	-0,061	0,040
-710,918	334,404	-0,048	0,068
-709,904	36,218	0,104	-0,067
-708,889	800,000	-0,066	-0,148
-707,875	-37,444	-0,056	0,022
-706,860	3,840	-0,093	0,049
-705,845	-200,000	0,023	-0,123
-704,831	-200,000	-0,011	0,108
-703,816	66,430	-0,044	-0,032
-702,802	-137,838	-0,209	0,017
-701,787	33,363	-0,036	0,023
-700,772	-184,307	-0,117	-0,001
-699,758	-158,631	-0,100	-0,004
-698,743	-91,690	-0,075	-0,015
-697,729	-19,868	0,112	0,050
-696,714	90,435	-0,112	-0,091
-695,699	58,258	-0,032	-0,023
-694,685	-88,592	-0,133	-0,028
-693,670	-57,762	-0,055	-0,017
-692,656	20,403	0,098	-0,057
-691,641	19,495	-0,037	0,022
-690,627	-139,896	-0,075	-0,006
-689,612	370,328	0,046	-0,067
-688,597	692,089	0,055	-0,105
-687,583	-0,864	-0,027	-0,014
-686,568	800,000	-0,012	-0,027
-685,554	-200,000	-0,003	-0,167
-684,539	-200,000	-0,008	-0,103
-683,524	800,000	0,040	-0,101
-682,510	322,245	-0,068	-0,095
-681,495	598,234	0,065	0,118
-680,481	488,388	-0,024	-0,041
-679,466	213,156	0,013	-0,015
-678,451	-165,726	0,080	-0,002
-677,437	-80,705	-0,042	-0,010
-676,422	123,985	-0,047	0,043
-675,408	-200,000	0,185	-0,000
-674,393	86,347	-0,139	0,111
-673,378	-200,000	-0,006	-0,065
-672,364	800,000	0,023	-0,075
-671,349	359,583	-0,083	-0,121
-670,335	-96,519	-0,065	0,012
-669,320	264,701	-0,040	-0,051
-668,305	-38,869	0,072	-0,027
-667,291	263,928	-0,047	0,059
-666,276	-49,099	-0,180	-0,062
-665,262	640,950	-0,059	-0,110
-664,247	125,067	-0,084	-0,077
-663,232	800,000	0,039	-0,106
-662,218	52,368	0,064	0,044
-661,203	-200,000	0,004	0,129
-660,189	287,645	0,046	-0,061
-659,174	-200,000	-0,013	-0,093
-658,159	270,310	-0,032	-0,041
-657,145	399,254	0,060	-0,092
-656,130	800,000	-0,105	-0,211
-655,116	177,226	-0,038	0,040
-654,101	-75,266	0,085	0,022
-653,086	-130,854	-0,069	-0,007
-652,072	800,000	-0,046	0,148
-651,057	-39,631	0,060	-0,023
-650,043	710,335	0,025	0,047
-649,028	-109,727	0,012	-0,002
-648,014	-7,844	0,046	-0,023
-646,999	-77,298	0,049	-0,012
-645,984	-123,160	0,050	0,006
-644,970	-87,911	-0,089	-0,019
-643,955	110,398	-0,036	0,032
-642,941	800,000	-0,027	-0,064
-641,926	-98,464	-0,101	-0,019
-640,911	507,365	-0,023	-0,040
-639,897	800,000	0,013	0,036
-638,882	-169,732	0,126	0,003
-637,868	-200,000	0,000	-0,093
-636,853	800,000	-0,059	0,140
-635,838	263,164	-0,059	-0,074
-634,824	531,683	-0,028	-0,048
-633,809	-200,000	-0,037	0,122
-632,795	16,762	0,102	-0,058
-631,780	-19,503	-0,033	-0,015
-630,765	-31,971	-0,119	-0,048
-629,751	800,000	0,051	-0,139
-628,736	626,887	-0,030	0,054
-627,722	103,154	0,057	-0,048
-626,707	14,484	-0,038	-0,022
-625,692	800,000	0,036	0,076
-624,678	-200,000	-0,020	0,136
-623,663	-14,046	-0,089	-0,041
-622,649	-105,988	0,036	-0,006
-621,634	800,000	-0,056	-0,151
-620,619	800,000	-0,051	-0,137
-619,605	-148,276	-0,078	0,005
-618,590	-200,000	0,012	0,149
-617,576	-51,398	-0,012	-0,004
-616,561	-27,930	-0,084	0,035
-615,546	-200,000	-0,001	-0,088
-614,532	178,514	0,052	-0,055
-613,517	800,000	-0,045	-0,091
-612,503	-200,000	-0,005	-0,045
-611,488	-193,384	-0,064	-0,000
-610,474	729,584	0,030	0,058
-609,459	431,343	-0,034	0,054
-608,444	-146,263	-0,092	-0,006
-607,430	800,000	0,050	-0,113
-606,415	-200,000	0,008	-0,133
-605,401	39,564	0,069	0,045
-604,386	224,104	-0,068	0,080
-603,371	-200,000	0,011	-0,112
-602,357	-200,000	0,022	-0,128
-601,342	2,587	-0,059	-0,031
-600,328	-200,000	-0,003	-0,017
-599,313	328,149	-0,101	-0,140
-598,298	800,000	-0,023	-0,052
-597,284	68,797	-0,033	0,024
-596,269	163,160	-0,051	0,052
-595,255	-157,564	-0,025	-0,001
-594,240	67,417	-0,102	-0,075
-593,225	156,393	0,060	0,060
-592,211	-71,092	-0,108	-0,029
-591,196	-200,000	0,014	0,069
-590,182	-39,949	-0,072	0,027
-589,167	-200,000	0,011	0,083
-588,152	429,149	0,027	-0,042
-587,138	349,527	0,036	0,052
-586,123	-11,955	-0,033	0,016
-585,109	-200,000	0,018	-0,210
-584,094	-200,000	-0,019	-0,241
-583,079	15,252	0,085	-0,048
-582,065	487,823	-0,066	-0,109
-581,050	-63,558	-0,117	-0,034
-580,036	173,264	-0,040	-0,042
-579,021	627,960	0,051	-0,093
-578,006	-124,960	0,063	0,007
-576,992	-200,000	-0,004	0,025
-575,977	56,649	0,109	0,077
-574,963	337,314	-0,016	-0,023
-573,948	-200,000	-0,012	0,063
-572,934	502,612	-0,033	0,056
-571,919	-120,627	-0,120	-0,014
-570,904	229,327	-0,003	-0,004
-569,890	54,499	0,057	0,039
-568,875	596,335	0,011	-0,020
-567,861	-91,953	0,194	0,039
-566,846	-84,532	0,140	0,032
-565,831	800,000	0,043	0,136
-564,817	-141,726	-0,029	0,002
-563,802	-116,334	-0,103	0,014
-562,788	46,852	0,041	0,027
-561,773	-153,151	-0,091	-0,005
-560,758	465,778	0,055	-0,089
-559,744	24,461	-0,052	0,031
-558,729	-200,000	0,018	-0,120
-557,715	180,913	-0,070	0,074
-556,700	157,619	0,050	0,050
-555,685	286,572	0,031	-0,041
-554,671	16,263	0,086	0,049
-553,656	-83,997	-0,116	-0,026
-552,642	-76,232	0,044	0,011
-551,627	704,232	0,037	-0,071
-550,612	-95,896	0,024	0,005
-549,598	102,941	-0,180	0,152
-548,583	800,000	-0,019	0,050
-547,569	87,197	-0,039	-0,031
-546,554	800,000	0,021	0,058
-545,539	99,150	0,085	0,071
-544,525	357,385	0,085	-0,123
-543,510	-200,000	0,035	-0,000
-542,496	-143,108	0,084	0,006
-541,481	297,828	-0,073	-0,097
-540,466	245,673	0,058	-0,071
-539,452	-200,000	0,038	-0,128
-538,437	800,000	0,021	0,055
-537,423	82,684	0,106	-0,083
-536,408	-162,801	0,030	-0,001
-535,393	-200,000	0,006	-0,062
-534,379	-44,791	0,076	0,027
-533,364	255,352	-0,028	0,035
-532,350	77,122	0,058	0,044
-531,335	290,417	-0,041	0,054
-530,321	-29,897	0,099	0,040
-529,306	745,589	-0,037	0,073
-528,291	800,000	-0,036	0,083
-527,277	347,076	-0,040	-0,056
-526,262	162,836	-0,145	-0,147
-525,248	-200,000	0,002	0,045
-524,233	330,111	-0,074	0,103
-523,218	800,000	-0,054	0,139
-522,204	800,000	-0,008	0,018
-521,189	-200,000	-0,020	-0,090
-520,175	56,375	-0,083	-0,058
-519,160	0,121	-0,110	-0,057
-518,145	20,207	-0,020	-0,012
-517,131	-200,000	0,034	0,128
-516,116	-143,751	0,048	-0,003
-515,102	-101,883	-0,041	-0,007
-514,087	-200,000	0,054	0,175
-513,072	-156,970	0,117	-0,005
-512,058	116,082	0,091	-0,081
-511,043	558,513	-0,037	-0,064
-510,029	300,327	-0,065	-0,087
-509,014	676,790	-0,045	0,086
-507,999	-191,351	0,146	-0,001
-506,985	-1,842	-0,174	-0,088
-505,970	-44,725	-0,117	-0,042
-504,956	-200,000	0,002	0,046
-503,941	120,173	0,112	-0,100
-502,926	508,199	0,008	-0,014
-501,912	800,000	-0,049	-0,105
-500,897	17,549	0,030	0,017
-499,883	82,557	-0,144	0,112
-498,868	75,993	0,095	0,072
-497,853	-200,000	-0,022	-0,077
-496,839	-200,000	-0,002	-0,068
-495,824	-200,000	0,025	0,085
-494,810	-200,000	0,017	0,145
-493,795	20,904	-0,078	0,045
-492,781	-9,738	-0,010	0,005
-491,766	158,124	-0,036	-0,035
-490,751	221,252	0,033	-0,038
-489,737	132,161	-0,075	-0,070
-488,722	-59,236	0,019	0,006
-487,708	-127,151	0,019	-0,002
-486,693	-34,914	-0,042	0,016
-485,678	-21,470	-0,059	-0,026
-484,664	-200,000	0,004	0,053
-483,649	-39,093	-0,100	-0,038
-482,635	-83,410	-0,067	-0,015
-481,620	45,339	0,051	0,034
-480,605	-200,000	0,001	0,025
-479,591	660,584	-0,088	0,164
-478,576	407,477	0,026	0,040
-477,562	-100,725	0,062	0,011
-476,547	-200,000	-0,017	-0,100
-475,532	-96,214	-0,230	-0,044
-474,518	800,000	0,029	0,085
-473,503	-55,826	-0,028	0,009
-472,489	800,000	-0,032	0,078
-471,474	-200,000	0,002	0,011
-470,459	292,761	0,067	-0,088
-469,445	-200,000	-0,017	-0,053
-468,430	-114,992	-0,081	-0,011
-467,416	-72,267	0,150	-0,040
-466,401	-84,612	0,068	-0,015
-465,386	34,110	0,043	0,027
-464,372	82,008	-0,040	0,031
-463,357	538,153	-0,046	-0,079
-462,343	-200,000	-0,022	-0,127
-461,328	524,367	-0,068	0,115
-460,313	-3,246	0,151	0,075
-459,299	-200,000	0,014	0,171
-458,284	-200,000	0,014	0,160
-457,270	151,063	0,071	0,069
-456,255	30,752	-0,098	0,060
-455,241	-200,000	-0,013	0,091
-454,226	759,566	0,031	0,061
-453,211	454,725	0,055	0,088
-452,197	44,313	0,089	0,059
-451,182	-200,000	0,052	0,274
-450,168	-200,000	-0,001	-0,024
-449,153	-84,788	-0,191	-0,043
-448,138	586,574	-0,021	-0,038
-447,124	16,018	0,033	-0,018
-446,109	604,646	-0,023	0,042
-445,095	224,511	0,032	0,038
-444,080	217,274	0,109	0,125
-443,065	-178,097	-0,095	-0,002
-442,051	800,000	-0,075	-0,185
-441,036	800,000	-0,017	-0,037
-440,022	5,925	0,041	0,021
-439,007	-200,000	0,045	0,217
-437,992	-57,119	0,140	0,044
-436,978	-200,000	-0,026	0,090
-435,963	619,479	0,049	-0,088
-434,949	800,000	0,037	0,097
-433,934	135,823	0,117	-0,109
-432,919	451,488	-0,094	-0,151
-431,905	479,529	0,082	-0,135
-430,890	39,910	-0,144	0,092
-429,876	-128,933	0,111	0,011
-428,861	150,644	0,138	0,135
-427,846	-200,000	-0,018	0,074
-426,832	323,600	0,044	-0,060
-425,817	174,015	-0,219	-0,227
-424,803	-200,000	0,012	0,043
-423,788	800,000	0,056	0,114
-422,773	800,000	0,091	0,198
-421,759	223,273	-0,031	-0,036
-420,744	121,533	-0,085	0,076
-419,730	53,967	-0,083	-0,057
-418,715	-200,000	0,016	-0,189
-417,701	-200,000	0,007	-0,125
-416,686	800,000	-0,034	0,081
-415,671	-116,087	0,104	-0,014
-414,657	800,000	0,022	-0,060
-413,642	-145,952	0,071	0,004
-412,628	352,794	-0,028	0,039
-411,613	-140,153	0,004	-0,000
-410,598	-200,000	0,020	0,088
-409,584	-140,967	-0,036	0,003
-408,569	-108,186	0,047	0,007
-407,555	377,785	0,024	0,035
-406,540	214,567	-0,073	-0,083
-405,525	800,000	0,041	-0,091
-404,511	-200,000	0,005	-0,127
-403,496	370,463	-0,012	-0,017
-402,482	800,000	0,011	0,023
-401,467	-86,632	0,036	-0,008
-400,452	800,000	0,025	-0,062
-399,438	-200,000	-0,015	0,157
-398,423	-41,554	0,062	0,023
-397,409	-200,000	-0,029	-0,093
-396,394	-99,347	-0,151	0,027
-395,379	-48,440	-0,155	0,053
-394,365	-38,878	0,090	0,034
-393,350	800,000	0,027	0,081
-392,336	-200,000	0,000	0,174
-391,321	-155,954	-0,111	-0,005
-390,306	755,555	0,008	0,016
-389,292	99,498	-0,065	-0,054
-388,277	155,589	0,045	0,044
-387,263	14,661	0,051	0,029
-386,248	30,180	0,069	0,042
-385,233	-69,118	-0,093	0,025
-384,219	-200,000	-0,001	-0,109
-383,204	-200,000	-0,047	-0,172
-382,190	185,344	-0,095	-0,101
-381,175	-138,883	0,090	-0,007
-380,160	479,253	0,025	0,040
-379,146	-200,000	-0,012	0,074
-378,131	104,851	0,089	-0,075
-377,117	-200,000	-0,027	0,117
-376,102	-44,296	-0,162	0,058
-375,088	-200,000	-0,025	-0,111
-374,073	-200,000	-0,022	0,159
-373,058	171,237	-0,034	-0,035
-372,044	135,061	0,013	-0,012
-371,029	209,848	-0,108	-0,122
-370,015	-17,993	-0,180	0,080
-369,000	-8,322	0,116	-0,056
-367,985	-200,000	0,004	-0,021
-366,971	800,000	0,031	0,066
-365,956	143,353	0,099	0,094
-364,942	-200,000	0,018	0,097
-363,927	800,000	0,039	0,119
-362,912	-168,098	0,127	-0,003
-361,898	-200,000	-0,006	-0,062
-360,883	-200,000	0,011	-0,165
-359,869	800,000	-0,076	-0,159
-358,854	-139,853	-0,102	0,008
-357,839	-63,130	0,092	0,027
-356,825	-83,130	0,109	0,025
-355,810	-74,232	0,061	0,016
-354,796	392,818	0,042	0,063
-353,781	-28,631	-0,131	-0,054
-352,766	-117,224	-0,071	-0,009
-351,752	131,738	0,064	-0,059
-350,737	-81,249	-0,058	0,014
-349,723	251,233	-0,013	-0,015
-348,708	264,272	0,053	-0,066
-347,693	-15,805	0,092	0,042
-346,679	-145,910	0,041	0,003
-345,664	-200,000	0,023	-0,110
-344,650	287,473	0,114	0,147
-343,635	-65,046	0,013	0,004
-342,620	-200,000	0,005	-0,028
-341,606	-112,507	-0,208	0,029
-340,591	12,638	0,077	0,042
-339,577	-24,647	0,111	-0,047
-338,562	-200,000	0,026	-0,125
-337,548	44,883	-0,170	-0,112
-336,533	270,173	0,075	0,094
-335,518	-49,201	0,111	0,038
-334,504	-200,000	0,028	0,106
-333,489	168,021	0,137	-0,140
-332,475	36,402	-0,143	0,090
-331,460	100,261	-0,061	0,050
-330,445	-44,438	0,030	-0,011
-329,431	295,938	0,023	0,031
-328,416	800,000	0,035	0,078
-327,402	-57,965	-0,088	0,027
-326,387	144,117	-0,029	0,028
-325,372	511,693	0,053	0,089
-324,358	264,353	-0,074	-0,092
-323,343	-20,962	0,073	0,032
-322,329	800,000	0,083	-0,197
-321,314	160,656	-0,040	-0,040
-320,299	-200,000	-0,004	-0,075
-319,285	800,000	-0,046	0,122
-318,270	-55,133	0,107	-0,034
-317,256	-200,000	-0,004	0,018
-316,241	85,589	0,062	-0,049
-315,226	800,000	-0,027	0,077
-314,212	-65,028	0,114	0,033
-313,197	79,644	0,127	-0,097
-312,183	-110,736	-0,142	-0,021
-311,168	144,368	-0,032	-0,030
-310,153	-192,302	-0,048	0,000
-309,139	-96,046	0,043	-0,008
-308,124	378,278	0,062	-0,092
-307,110	632,186	0,055	0,100
-306,095	800,000	0,031	0,079
-305,080	285,178	0,048	0,062
-304,066	153,364	0,042	0,041
-303,051	-74,126	-0,111	-0,029
-302,037	136,649	-0,047	-0,044
-301,022	-149,716	-0,222	-0,012
-300,008	-200,000	0,026	0,090
-298,993	-0,635	0,067	0,034
-297,978	-20,911	0,115	-0,050
-296,964	173,474	-0,047	-0,048
-295,949	800,000	0,023	-0,060
-294,935	800,000	-0,018	0,051
-293,920	800,000	-0,018	0,040
-292,905	-200,000	0,006	0,110
-291,891	461,583	0,046	0,074
-290,876	-124,091	0,074	0,008
-289,862	-200,000	0,034	-0,144
-288,847	800,000	-0,038	-0,077
-287,832	-200,000	0,002	0,088
-286,818	259,893	0,098	-0,121
-285,803	-97,328	0,058	-0,011
-284,789	-200,000	0,012	0,186
-283,774	284,669	-0,044	0,057
-282,759	800,000	0,053	-0,116
-281,745	5,023	-0,141	0,074
-280,730	800,000	0,054	0,110
-279,716	-100,026	-0,075	0,013
-278,701	273,603	0,112	-0,141
-277,686	41,185	0,016	0,011
-276,672	800,000	0,032	0,075
-275,657	-97,908	0,053	0,010
-274,643	-200,000	-0,020	-0,063
-273,628	-200,000	0,023	-0,086
-272,613	-77,397	0,074	-0,018
-271,599	-45,936	0,059	0,021
-270,584	112,547	0,058	-0,050
-269,570	112,469	0,103	0,089
-268,555	320,985	-0,054	0,073
-267,540	-118,528	-0,061	-0,008
-266,526	257,797	0,029	0,035
-265,511	210,198	-0,083	-0,093
-264,497	800,000	0,045	-0,105
-263,482	385,472	0,044	-0,066
-262,467	-6,207	-0,021	-0,010
-261,453	1,606	0,124	0,063
-260,438	-200,000	0,010	0,091
-259,424	666,807	0,052	-0,096
-258,409	800,000	0,030	-0,068
-257,395	308,237	-0,042	0,056
-256,380	-121,483	0,062	-0,007
-255,365	-200,000	-0,007	0,114
-254,351	624,251	-0,041	0,075
-253,336	343,321	0,081	0,114
-252,322	-200,000	-0,031	-0,152
-251,307	7,160	-0,046	0,024
-250,292	-200,000	0,022	0,082
-249,278	101,096	-0,036	0,030
-248,263	9,005	0,040	-0,021
-247,249	-58,649	0,116	0,036
-246,234	800,000	0,013	-0,025
-245,219	800,000	-0,029	-0,076
-244,205	42,186	0,022	-0,014
-243,190	-70,343	-0,114	0,031
-242,176	-91,664	0,038	-0,008
-241,161	-89,533	0,057	-0,012
-240,146	-200,000	-0,003	-0,041
-239,132	176,893	0,065	-0,067
-238,117	-24,715	-0,098	-0,041
-237,103	800,000	0,075	-0,154
-236,088	336,538	0,049	-0,068
-235,073	109,737	0,094	-0,080
-234,059	-200,000	0,009	0,109
-233,044	703,335	0,037	0,069
-232,030	-200,000	-0,012	-0,134
-231,015	664,206	-0,016	0,030
-230,000	55,107	0,018	-0,012
-228,986	296,909	-0,087	0,114
-227,971	-78,962	0,089	-0,021
-226,957	746,422	0,073	-0,140
-225,942	69,252	-0,095	0,070
-224,927	-200,000	-0,002	0,164
-223,913	104,708	-0,039	0,033
-222,898	-81,226	0,170	0,040
-221,884	112,082	-0,044	-0,038
-220,869	173,150	0,089	-0,091
-219,855	800,000	-0,036	-0,085
-218,840	56,280	0,038	-0,026
-217,825	310,729	-0,060	0,080
-216,811	-173,680	0,057	-0,001
-215,796	-200,000	0,003	0,085
-214,782	114,118	0,044	-0,038
-213,767	95,613	-0,059	-0,048
-212,752	-200,000	-0,050	0,196
-211,738	-200,000	0,002	-0,012
-210,723	170,625	0,010	-0,010
-209,709	540,293	0,033	0,056
-208,694	84,055	0,060	-0,047
-207,679	322,436	-0,046	-0,063
-206,665	-109,950	0,134	-0,020
-205,650	14,761	0,038	-0,021
-204,636	800,000	0,046	-0,124
-203,621	-76,920	-0,040	0,010
-202,606	102,743	-0,048	-0,040
-201,592	-200,000	0,004	-0,193
-200,577	68,782	-0,082	0,060
-199,563	-75,011	-0,022	0,006
-198,548	-90,326	-0,102	-0,021
-197,533	121,214	-0,019	0,016
-196,519	-200,000	0,010	0,075
-195,504	-200,000	0,018	0,059
-194,490	-200,000	0,006	0,144
-193,475	-66,630	-0,114	0,032
-192,460	-28,110	0,111	-0,045
-191,446	768,227	0,040	0,077
-190,431	-200,000	0,009	0,034
-189,417	-200,000	0,003	0,019
-188,402	800,000	0,061	0,140
-187,387	800,000	0,014	-0,029
-186,373	-118,628	-0,196	0,024
-185,358	800,000	0,045	0,128
-184,344	264,160	0,051	0,063
-183,329	-129,309	0,154	-0,015
-182,315	51,345	-0,141	0,095
-181,300	-49,778	-0,026	-0,009
-180,285	-175,785	-0,023	0,000
-179,271	800,000	0,008	-0,020
-178,256	-174,375	-0,059	-0,001
-177,242	21,746	0,074	-0,043
-176,227	26,949	-0,087	-0,052
-175,212	-200,000	0,004	-0,032
-174,198	-4,650	-0,116	0,057
-173,183	-200,000	-0,002	-0,142
-172,169	-68,497	-0,046	0,013
-171,154	-81,383	-0,081	-0,019
-170,139	220,109	-0,083	-0,094
-169,125	211,639	0,047	-0,052
-168,110	732,780	-0,084	0,161
-167,096	-200,000	0,001	-0,024
-166,081	-200,000	-0,004	-0,074
-165,066	-200,000	0,002	-0,083
-164,052	800,000	-0,022	-0,043
-163,037	-168,297	0,054	0,001
-162,023	147,942	0,069	-0,066
-161,008	-3,723	-0,111	0,055
-159,993	196,198	0,043	0,046
-158,979	-33,501	-0,037	-0,014
-157,964	129,462	-0,039	-0,035
-156,950	125,301	-0,049	0,044
-155,935	-200,000	0,002	-0,020
-154,920	208,045	0,020	-0,022
-153,906	131,893	-0,017	0,015
-152,891	-200,000	0,002	-0,026
-151,877	26,697	-0,104	0,062
-150,862	-21,900	-0,091	-0,039
-149,847	54,007	-0,075	-0,051
-148,833	371,062	0,024	-0,035
-147,818	-200,000	0,048	0,208
-146,804	-200,000	0,013	-0,121
-145,789	58,685	0,080	-0,056
-144,775	258,548	-0,030	-0,037
-143,760	-85,301	0,089	-0,020
-142,745	193,845	-0,017	-0,018
-141,731	-40,874	0,036	-0,013
-140,716	-200,000	-0,014	0,156
-139,702	400,020	0,074	0,110
-138,687	800,000	-0,040	0,084
-137,672	-200,000	0,215	0,001
-136,658	-39,291	-0,095	-0,035
-135,643	315,846	0,088	-0,118
-134,629	-74,666	0,063	0,016
-133,614	76,364	-0,070	-0,053
-132,599	-200,000	-0,001	0,040
-131,585	-97,255	0,065	-0,012
-130,570	95,503	-0,111	0,090
-129,556	-200,000	0,006	-0,074
-128,541	525,621	0,043	0,071
-127,526	-167,817	0,106	0,003
-126,512	-32,115	-0,047	-0,018
-125,497	-14,152	0,088	0,040
-124,483	-200,000	-0,010	0,187
-123,468	-200,000	0,008	0,080
-122,453	-10,080	-0,083	0,039
-121,439	-200,000	-0,007	-0,091
-120,424	212,707	-0,077	0,086
-119,410	-134,142	0,058	-0,005
-118,395	-200,000	0,006	0,057
-117,380	775,247	0,097	0,189
-116,366	-49,964	-0,135	-0,045
-115,351	367,024	0,043	0,061
-114,337	-158,869	-0,026	-0,001
-113,322	-200,000	0,002	0,057
-112,307	84,834	0,047	0,037
-111,293	-29,886	0,041	0,017
-110,278	101,814	0,081	0,067
-109,264	-41,391	0,037	0,013
-108,249	18,935	-0,124	-0,070
-107,234	17,110	0,041	0,023
-106,220	-174,774	-0,101	0,002
-105,205	52,368	0,071	-0,048
-104,191	444,057	-0,076	0,118
-103,176	-30,232	0,031	0,013
-102,162	-175,991	-0,104	-0,002
-101,147	-27,377	0,130	-0,053
-100,132	-128,166	0,048	0,005
-99,118	-121,438	-0,047	0,006
-98,103	-57,648	0,157	0,049
-97,089	800,000	0,014	-0,045
-96,074	123,175	0,109	0,097
-95,059	128,710	0,038	0,035
-94,045	-76,816	-0,047	0,011
-93,030	-0,032	-0,081	0,041
-92,016	107,660	-0,018	0,015
-91,001	-17,481	0,159	-0,071
-89,986	233,240	0,003	0,004
-88,972	-87,211	0,065	0,014
-87,957	215,147	-0,013	0,015
-86,943	108,980	-0,135	0,115
-85,928	-58,167	0,023	-0,007
-84,913	290,049	0,065	0,084
-83,899	-200,000	-0,033	-0,123
-82,884	170,789	0,131	0,133
-81,870	-200,000	-0,026	0,110
-80,855	165,818	0,089	0,090
-79,840	-200,000	0,010	0,065
-78,826	610,853	-0,037	-0,066
-77,811	58,085	-0,053	-0,037
-76,797	-200,000	0,054	-0,199
-75,782	212,983	-0,095	-0,106
-74,767	-45,053	-0,115	-0,040
-73,753	71,961	0,024	0,017
-72,738	-200,000	0,001	0,076
-71,724	25,177	-0,110	0,065
-70,709	-14,243	0,042	-0,019
-69,694	-34,067	-0,176	0,068
-68,680	-59,748	0,053	-0,016
-67,665	-200,000	-0,006	0,090
-66,651	12,094	0,085	-0,046
-65,636	39,167	0,054	-0,034
-64,622	800,000	0,032	-0,082
-63,607	-200,000	-0,001	0,007
-62,592	-130,850	0,062	-0,006
-61,578	-97,678	0,058	-0,011
-60,563	-200,000	0,006	0,055
-59,549	-200,000	-0,001	0,073
-58,534	-6,986	-1,436	-0,688
-57,519	398,726	-1,363	-2,026
-56,505	-200,000	-0,669	-4,609
-55,490	175,524	1,018	1,046
-54,476	800,000	4,976	11,483
-53,461	-200,000	18,842	306,197
-52,446	800,000	737,172	2296,353
-51,432	568,244	1653,188	2854,694
-50,417	78,870	1670,270	1264,171
-49,403	22,066	1543,211	889,049
-48,388	15,969	1466,021	814,962
-47,373	17,757	1455,951	817,967
-46,359	16,854	1445,963	807,995
-45,344	14,217	1441,602	792,903
-44,330	14,111	1439,720	791,328
-43,315	14,151	1437,866	790,470
-42,300	14,190	1436,165	789,689
-41,286	14,219	1435,008	789,162
-40,271	14,126	1433,792	788,017
-39,257	14,180	1432,398	787,475
-38,242	14,192	1431,343	786,921
-37,227	14,242	1430,131	786,462
-36,213	14,219	1428,811	785,598
-35,198	14,212	1427,705	784,925
-34,184	14,243	1426,696	784,483
-33,169	14,127	1425,503	783,246
-32,154	14,218	1424,180	782,920
-31,140	14,202	1423,055	782,194
-30,125	14,189	1421,787	781,407
-29,111	14,257	1420,505	780,992
-28,096	14,202	1419,720	780,268
-27,082	14,159	1418,604	779,424
-26,067	14,133	1417,575	778,701
-25,052	14,119	1416,443	777,986
-24,038	14,129	1415,506	777,488
-23,023	14,092	1414,521	776,741
-22,009	14,109	1413,451	776,203
-20,994	14,114	1412,507	775,675
-19,979	14,100	1411,667	775,117
-18,965	14,110	1410,508	774,499
-17,950	14,060	1409,903	773,900
-16,936	14,082	1408,720	773,326
-15,921	14,020	1407,945	772,578
-14,906	14,069	1406,812	772,157
-13,892	14,111	1405,789	771,757
-12,877	14,028	1405,205	771,021
-11,863	14,044	1404,031	770,420
-10,848	14,014	1403,229	769,809
-9,833	13,973	1402,632	769,259
-8,819	13,979	1401,487	768,631
-7,804	13,992	1400,435	768,083
-6,790	13,926	1399,462	767,212
-5,775	13,913	1398,549	766,621
-4,760	13,909	1397,678	766,094
-3,746	13,965	1396,564	765,715
-2,731	13,912	1395,877	765,062
-1,717	13,873	1395,145	764,445
-0,702	13,949	1393,027	763,609
0,313	17,717	1310,857	736,047
1,327	33,988	705,308	433,686
2,342	52,535	123,733	83,452
3,356	3,486	16,624	8,543
4,371	8,464	3,273	1,736
5,386	-12,641	0,633	0,291
6,400	39,132	0,106	0,067
7,415	6,341	-0,342	-0,179
8,429	47,366	-0,287	-0,189
9,444	138,933	-0,382	-0,355
10,459	12,811	-0,347	-0,189
11,473	21,031	-0,305	-0,174
12,488	-12,684	-0,252	-0,116
13,502	-157,704	-0,388	0,016
14,517	63,900	-0,216	-0,153
15,531	87,716	-0,279	-0,218
16,546	123,114	-0,290	-0,257
17,561	80,109	-0,389	-0,295
18,575	239,487	-0,069	-0,081
19,590	54,237	-0,300	-0,204
20,604	800,000	-0,088	-0,217
21,619	75,614	-0,536	-0,399
22,634	227,715	-0,425	-0,489
23,648	180,963	-0,369	-0,383
24,663	172,269	-0,313	-0,318
25,677	-35,911	-0,317	-0,121
26,692	177,434	-0,317	-0,326
27,707	-62,333	-0,380	-0,111
28,721	-35,075	-0,446	-0,171
29,736	29,728	-0,465	-0,278
30,750	32,236	-0,369	-0,224
31,765	49,484	-0,333	-0,220
32,780	47,108	-0,430	-0,282
33,794	-44,461	-0,410	-0,144
34,809	286,550	-0,177	-0,226
35,823	115,922	-0,329	-0,284
36,838	-0,848	-0,426	-0,212
37,853	76,329	-0,390	-0,291
38,867	61,671	-0,338	-0,237
39,882	74,500	-0,352	-0,260
40,896	-13,376	-0,402	-0,183
41,911	-8,055	-0,321	-0,152
42,926	11,919	-0,277	-0,149
43,940	91,514	-0,509	-0,403
44,955	154,981	-0,347	-0,337
45,969	78,126	-0,312	-0,235
46,984	-10,470	-0,376	-0,175
47,999	617,114	-0,146	-0,258
49,013	257,498	-0,192	-0,233
50,028	57,102	-0,379	-0,260
51,042	236,344	-0,264	-0,308
52,057	121,872	-0,376	-0,330
53,071	80,312	-0,384	-0,291
54,086	17,374	-0,360	-0,201
55,101	-100,171	-0,369	-0,064
56,115	43,417	-0,234	-0,150
57,130	-9,729	-0,480	-0,224
58,144	114,483	-0,369	-0,317
59,159	109,578	-0,485	-0,409
60,174	55,762	-0,449	-0,306
61,188	174,086	-0,275	-0,280
62,203	-18,432	-0,420	-0,184
63,217	110,759	-0,238	-0,202
64,232	108,439	-0,319	-0,268
65,247	134,906	-0,341	-0,312
66,261	-20,479	-0,311	-0,134
67,276	100,681	-0,305	-0,249
68,290	-60,755	-0,365	-0,108
69,305	273,961	-0,300	-0,374
70,320	111,388	-0,192	-0,163
71,334	69,904	-0,284	-0,206
72,349	87,769	-0,239	-0,186
73,363	8,583	-0,370	-0,195
74,378	107,207	-0,284	-0,237
75,393	800,000	-0,116	-0,228
76,407	18,051	-0,230	-0,129
77,422	-55,162	-0,312	-0,098
78,436	-43,183	-0,249	-0,088
79,451	-71,910	-0,411	-0,107
80,466	51,402	-0,274	-0,182
81,480	63,906	-0,377	-0,266
82,495	-86,854	-0,245	-0,052
83,509	32,542	-0,245	-0,148
84,524	384,150	-0,176	-0,255
85,539	-95,293	-0,330	-0,062
86,553	64,064	-0,169	-0,119
87,568	25,890	-0,267	-0,156
88,582	289,202	-0,291	-0,371
89,597	49,797	-0,254	-0,168
90,611	-24,506	-0,305	-0,127
91,626	16,334	-0,169	-0,093
92,641	-53,968	-0,326	-0,104
93,655	-19,945	-0,349	-0,150
94,670	72,485	-0,378	-0,277
95,684	-97,145	-0,355	-0,064
96,699	-35,949	-0,380	-0,143
97,714	115,362	-0,267	-0,228
98,728	-7,964	-0,259	-0,122
99,743	244,809	-0,257	-0,304
100,757	84,322	-0,242	-0,185
101,772	-18,802	-0,358	-0,156
102,787	33,499	-0,400	-0,243
103,801	-12,090	-0,207	-0,095
104,816	-25,235	-0,291	-0,120
105,830	138,446	-0,241	-0,222
106,845	13,578	-0,317	-0,172
107,860	5,904	-0,271	-0,140
108,874	154,179	-0,297	-0,286
109,889	83,521	-0,265	-0,202
110,903	-98,382	-0,383	-0,068
111,918	-9,835	-0,188	-0,087
112,933	88,590	-0,252	-0,196
113,947	-13,290	-0,238	-0,108
114,962	14,819	-0,246	-0,135
115,976	-33,363	-0,244	-0,094
116,991	20,726	-0,215	-0,121
118,006	-54,790	-0,297	-0,093
119,020	-115,492	-0,271	-0,035
120,035	-24,868	-0,355	-0,147
121,049	-89,106	-0,185	-0,038
122,064	254,717	-0,249	-0,299
123,079	-24,355	-0,158	-0,066
124,093	-85,038	-0,269	-0,059
125,108	84,785	-0,257	-0,197
126,122	-51,317	-0,274	-0,089
127,137	217,940	-0,173	-0,194
128,151	85,485	-0,225	-0,173
129,166	152,311	-0,283	-0,270
130,181	-17,094	-0,276	-0,121
131,195	-23,188	-0,399	-0,167
132,210	365,346	-0,212	-0,300
133,224	210,978	-0,248	-0,273
134,239	299,242	-0,087	-0,113
135,254	11,897	-0,212	-0,114
136,268	203,996	-0,244	-0,264
137,283	-44,359	-0,277	-0,096
138,297	-40,581	-0,203	-0,073
139,312	26,220	-0,324	-0,189
140,327	100,155	-0,194	-0,157
141,341	131,576	-0,283	-0,254
142,356	361,990	-0,184	-0,259
143,370	-132,104	-0,185	-0,017
144,385	104,529	-0,336	-0,276
145,400	275,289	-0,165	-0,205
146,414	-42,953	-0,337	-0,119
147,429	233,584	-0,268	-0,308
148,443	217,348	-0,140	-0,156
149,458	383,199	-0,156	-0,224
150,473	85,580	-0,320	-0,245
151,487	104,764	-0,325	-0,267
152,502	14,920	-0,259	-0,141
153,516	434,695	-0,192	-0,292
154,531	137,343	-0,298	-0,272
155,546	34,901	-0,307	-0,187
156,560	-123,995	-0,231	-0,025
157,575	12,483	-0,201	-0,108
158,589	157,636	-0,154	-0,149
159,604	-118,961	-0,281	-0,034
160,619	81,282	-0,157	-0,118
161,633	-10,509	-0,354	-0,163
162,648	27,866	-0,261	-0,153
163,662	24,639	-0,257	-0,148
164,677	-53,984	-0,252	-0,080
165,692	-44,526	-0,284	-0,098
166,706	-17,693	-0,197	-0,086
167,721	-65,031	-0,298	-0,083
168,735	52,119	-0,336	-0,223
169,750	90,229	-0,289	-0,225
170,764	39,388	-0,220	-0,137
171,779	37,888	-0,242	-0,150
172,794	-40,261	-0,229	-0,083
173,808	21,019	-0,274	-0,154
174,823	-179,688	-0,219	0,003
175,837	-112,954	-0,339	-0,046
176,852	285,146	-0,252	-0,317
177,867	-113,650	-0,217	-0,029
178,881	1,730	-0,169	-0,084
179,896	800,000	-0,121	-0,266
180,910	277,652	-0,158	-0,196
181,925	188,447	-0,206	-0,215
182,940	231,619	-0,209	-0,239
183,954	76,582	-0,195	-0,144
184,969	275,608	-0,142	-0,176
185,983	-73,451	-0,200	-0,050
186,998	75,837	-0,208	-0,153
188,013	114,974	-0,181	-0,154
189,027	39,764	-0,265	-0,165
190,042	161,645	-0,258	-0,251
191,056	141,840	-0,141	-0,130
192,071	130,387	-0,308	-0,275
193,086	132,310	-0,194	-0,174
194,100	-147,448	-0,249	0,014
195,115	217,237	-0,051	-0,056
196,129	-200,000	-0,049	-0,166
197,144	129,416	-0,258	-0,229
198,159	2,776	-0,257	-0,129
199,173	20,230	-0,198	-0,111
200,188	-21,350	-0,155	-0,066
201,202	216,005	-0,156	-0,172
202,217	342,062	-0,221	-0,301
203,232	319,588	-0,215	-0,284
204,246	193,610	-0,154	-0,162
205,261	-45,191	-0,347	-0,119
206,275	34,972	-0,166	-0,101
207,290	24,019	-0,293	-0,167
208,304	-96,255	-0,167	-0,031
209,319	-36,849	-0,115	-0,043
210,334	9,311	-0,169	-0,088
211,348	189,981	-0,239	-0,249
212,363	-30,682	-0,207	-0,081
213,377	92,587	-0,178	-0,139
214,392	24,006	-0,149	-0,085
215,407	-108,742	-0,235	-0,035
216,421	296,970	-0,171	-0,219
217,436	149,206	-0,206	-0,193
218,450	-50,540	-0,230	0,075
219,465	-38,185	-0,216	-0,079
220,480	79,719	-0,277	-0,206
221,494	-51,172	-0,250	-0,081
222,509	-22,237	-0,192	-0,080
223,523	472,987	-0,161	-0,253
224,538	29,885	-0,114	-0,067
225,553	102,820	-0,199	-0,161
226,567	104,065	-0,205	-0,167
227,582	-118,674	-0,174	-0,021
228,596	219,736	-0,198	-0,220
229,611	68,091	-0,117	-0,083
230,626	-160,047	-0,156	-0,006
231,640	110,724	-0,245	-0,204
232,655	634,376	-0,118	-0,208
233,669	48,676	-0,153	-0,099
234,684	-200,000	0,001	-0,002
235,699	10,498	-0,062	-0,032
236,713	-122,161	-0,100	-0,011
237,728	-0,786	-0,283	-0,138
238,742	12,758	-0,219	-0,117
239,757	85,569	-0,189	-0,144
240,772	-200,000	-0,051	-0,213
241,786	75,894	-0,195	-0,143
242,801	-66,022	-0,245	-0,067
243,815	176,663	-0,172	-0,174
244,830	101,203	-0,192	-0,155
245,844	107,696	-0,220	-0,181
246,859	800,000	-0,072	-0,220
247,874	485,409	-0,187	-0,295
248,888	260,804	-0,212	-0,254
249,903	49,729	-0,164	-0,106
250,917	104,565	-0,165	-0,134
251,932	61,235	-0,117	-0,080
252,947	54,592	-0,052	0,035
253,961	16,998	-0,294	-0,161
254,976	76,619	-0,217	-0,159
255,990	263,294	-0,225	-0,271
257,005	14,623	-0,147	-0,079
258,020	-105,011	-0,168	-0,026
259,034	13,959	-0,174	-0,093
260,049	171,358	-0,099	-0,098
261,063	800,000	-0,076	-0,146
262,078	133,633	-0,201	-0,180
263,093	0,307	-0,102	-0,050
264,107	22,629	-0,228	-0,129
265,122	63,910	-0,265	-0,184
266,136	9,736	-0,126	-0,066
267,151	-113,146	-0,047	-0,006
268,166	-200,000	-0,016	-0,190
269,180	43,150	-0,180	-0,113
270,195	-72,633	-0,113	0,029
271,209	-91,467	-0,156	-0,031
272,224	267,956	-0,160	-0,193
273,239	159,414	-0,137	-0,132
274,253	64,862	-0,152	-0,106
275,268	92,746	-0,221	-0,172
276,282	497,731	-0,104	-0,166
277,297	-70,048	-0,255	-0,067
278,312	267,078	-0,164	-0,198
279,326	5,523	-0,118	-0,060
280,341	-200,000	-0,044	-0,165
281,355	-122,816	-0,118	-0,013
282,370	272,682	-0,155	-0,189
283,384	-200,000	-0,039	-0,183
284,399	42,019	-0,231	-0,145
285,414	156,270	-0,167	-0,160
286,428	-14,314	-0,253	-0,112
287,443	330,462	-0,123	-0,164
288,457	-59,154	-0,239	-0,071
289,472	800,000	-0,080	-0,182
290,487	625,557	-0,126	-0,221
291,501	10,235	-0,214	-0,112
292,516	736,834	-0,162	-0,300
293,530	203,713	-0,120	-0,129
294,545	240,117	-0,185	-0,213
295,560	800,000	-0,087	-0,184
296,574	5,027	-0,024	0,012
297,589	-124,580	-0,101	-0,011
298,603	695,019	-0,035	-0,064
299,618	279,516	-0,138	-0,170
300,633	11,984	-0,133	-0,070
301,647	673,602	-0,115	-0,207
302,662	91,129	-0,068	-0,053
303,676	-98,843	-0,163	0,028
304,691	565,104	-0,089	-0,150
305,706	167,707	-0,145	-0,142
306,720	599,472	-0,174	-0,299
307,735	247,256	-0,129	-0,150
308,749	-200,000	-0,009	-0,300
309,764	800,000	-0,027	-0,058
310,779	97,545	-0,045	-0,035
311,793	-200,000	-0,065	-0,200
312,808	-136,941	-0,128	0,010
313,822	66,505	-0,169	-0,118
314,837	13,863	-0,147	-0,078
315,852	86,942	-0,118	-0,090
316,866	-100,538	-0,190	-0,032
317,881	694,102	-0,096	-0,174
318,895	-39,390	-0,114	-0,041
319,910	800,000	-0,105	-0,204
320,925	-200,000	-0,091	-0,276
321,939	6,561	-0,243	-0,124
322,954	104,216	-0,158	-0,128
323,968	42,378	-0,210	-0,131
324,983	13,684	-0,184	-0,098
325,997	132,551	-0,173	-0,154
327,012	660,395	-0,091	-0,162
328,027	305,077	-0,130	-0,167
329,041	-66,936	-0,173	-0,047
330,056	-41,682	-0,262	0,092
331,070	-81,839	-0,138	-0,031
332,085	795,380	-0,099	-0,188
333,100	-200,000	0,024	-0,129
334,114	11,372	-0,169	-0,089
335,129	148,639	-0,083	-0,077
336,143	110,521	-0,220	-0,182
337,158	131,349	-0,061	-0,053
338,173	785,477	-0,081	-0,154
339,187	155,102	-0,113	-0,107
340,202	-83,266	-0,141	0,031
341,216	509,078	-0,150	-0,240
342,231	56,452	-0,189	-0,126
343,246	201,567	-0,158	-0,167
344,260	-200,000	-0,010	-0,144
345,275	-90,961	-0,179	0,035
346,289	-52,442	-0,152	0,048
347,304	-53,150	-0,084	0,026
348,319	131,496	-0,190	-0,168
349,333	74,258	-0,234	-0,168
350,348	-140,773	-0,126	0,009
351,362	492,685	-0,026	0,042
352,377	194,500	-0,114	-0,119
353,392	-200,000	0,013	0,041
354,406	17,923	-0,225	-0,123
355,421	211,396	1313,441	1419,445
356,435	162,773	1474,021	1419,930
