DTS Sentinel unit serial number:	SN410029Multiplexer serial number:	ORYXHardware model number:	OX2-SRSoftware version number:	ORYX F/W v4,00 Oryx Data Collector v3.7.2.0data status	okinstallation	B3 Nyhavnadifferential loss correction	single-endedforward channel	channel 1reverse channel	N/Adate	2023/12/01time	09:42:30forward acquisition time	300,00reverse acquisition time	0,00gamma	499,1914k internal	0,3213k external	0,3213temperature offset calibration	1,0000default loss term (dB/km)	0,3820temperature slope calibration	1,0000multiplexer offset coefficient	1,0000multiplexer slope coefficient	1,0000fibre end	0,00T internal ref (°C)	8,00T ext. ref 1 (°C)	-6,57T ext. ref 2 (°C)	-6,70length (m)	temperature (°C)	Stokes	anti-Stokes-744,400	51,207	-0,261	-0,179
-743,385	-200,000	0,046	0,297
-742,371	107,574	-0,180	-0,155
-741,356	-200,000	-0,075	0,304
-740,342	8,338	-0,094	-0,051
-739,327	800,000	-0,121	0,323
-738,312	47,608	-0,244	-0,165
-737,298	727,396	-0,112	0,217
-736,283	346,123	-0,145	-0,207
-735,269	800,000	-0,050	0,153
-734,254	800,000	-0,086	-0,267
-733,239	-103,847	-0,236	0,040
-732,225	800,000	-0,110	-0,291
-731,210	465,131	0,046	0,075
-730,196	-60,788	0,062	-0,019
-729,181	381,287	-0,069	0,103
-728,167	-200,000	0,002	0,093
-727,152	375,248	-0,020	-0,030
-726,137	-63,113	-0,031	0,009
-725,123	-196,097	-0,110	0,001
-724,108	-17,067	-0,016	-0,007
-723,094	226,391	-0,064	-0,075
-722,079	86,628	-0,069	-0,055
-721,064	1,438	-0,113	-0,059
-720,050	800,000	-0,025	0,065
-719,035	800,000	-0,058	-0,118
-718,021	14,264	-0,212	-0,120
-717,006	-200,000	-0,017	-0,109
-715,991	37,725	0,074	-0,047
-714,977	179,539	-0,035	-0,037
-713,962	-132,383	-0,070	-0,006
-712,948	781,822	0,047	0,094
-711,933	213,289	-0,083	0,095
-710,918	-96,434	-0,069	-0,013
-709,904	-200,000	-0,009	-0,091
-708,889	-15,063	-0,083	-0,038
-707,875	-136,361	-0,063	-0,005
-706,860	800,000	0,064	-0,129
-705,845	800,000	-0,009	0,024
-704,831	800,000	-0,042	0,102
-703,816	-103,157	0,059	0,010
-702,802	-200,000	0,010	-0,049
-701,787	741,240	-0,053	-0,104
-700,772	-200,000	-0,009	-0,148
-699,758	-200,000	0,015	-0,090
-698,743	800,000	0,014	0,040
-697,729	117,639	0,052	-0,046
-696,714	27,737	0,026	-0,016
-695,699	-200,000	-0,020	-0,089
-694,685	-200,000	0,025	-0,098
-693,670	7,918	0,039	0,021
-692,656	156,051	0,027	0,027
-691,641	-200,000	-0,001	-0,019
-690,627	-159,313	0,068	-0,003
-689,612	-200,000	0,017	0,083
-688,597	-200,000	0,005	-0,019
-687,583	-200,000	0,002	0,083
-686,568	800,000	-0,053	-0,161
-685,554	7,164	0,092	0,049
-684,539	-123,084	0,032	0,004
-683,524	117,763	-0,087	-0,078
-682,510	800,000	-0,047	-0,138
-681,495	80,581	0,061	0,048
-680,481	252,263	-0,050	0,061
-679,466	361,634	0,070	-0,102
-678,451	548,828	0,053	-0,093
-677,437	215,713	-0,088	0,101
-676,422	-5,018	0,059	0,029
-675,408	800,000	0,025	-0,071
-674,393	27,354	0,020	0,012
-673,378	20,631	-0,077	-0,045
-672,364	72,731	-0,085	-0,064
-671,349	-200,000	-0,017	-0,055
-670,335	-200,000	0,013	-0,052
-669,320	425,143	0,024	-0,038
-668,305	800,000	-0,026	0,064
-667,291	-31,819	-0,055	-0,022
-666,276	-200,000	0,006	0,089
-665,262	800,000	0,028	0,070
-664,247	479,376	-0,074	-0,122
-663,232	-179,228	-0,141	0,002
-662,218	-200,000	-0,002	0,042
-661,203	331,600	0,021	-0,029
-660,189	-2,571	-0,090	-0,045
-659,174	800,000	-0,012	0,035
-658,159	-200,000	-0,006	-0,081
-657,145	461,146	-0,019	0,031
-656,130	-133,496	0,213	-0,019
-655,116	-12,371	0,050	-0,023
-654,101	-81,357	-0,063	-0,015
-653,086	-200,000	-0,017	0,129
-652,072	-200,000	0,028	-0,132
-651,057	-84,623	-0,080	-0,018
-650,043	-194,721	-0,079	0,000
-649,028	-200,000	0,014	-0,070
-648,014	-43,668	-0,070	-0,025
-646,999	-67,404	0,091	0,026
-645,984	-67,656	0,028	0,008
-644,970	256,584	-0,025	0,031
-643,955	436,383	-0,043	0,067
-642,941	-200,000	0,011	-0,081
-641,926	-30,266	-0,081	0,033
-640,911	-46,144	0,088	0,031
-639,897	-43,996	-0,047	-0,017
-638,882	-200,000	0,041	0,162
-637,868	-200,000	-0,013	-0,081
-636,853	800,000	-0,069	-0,165
-635,838	25,190	0,035	-0,021
-634,824	-200,000	0,003	-0,115
-633,809	-26,398	0,016	0,007
-632,795	800,000	0,038	-0,091
-631,780	218,902	0,073	0,084
-630,765	96,174	-0,170	-0,140
-629,751	243,892	-0,066	-0,080
-628,736	-200,000	-0,000	-0,153
-627,722	-200,000	0,017	-0,085
-626,707	249,707	-0,099	-0,121
-625,692	800,000	0,026	0,080
-624,678	676,488	-0,022	0,041
-623,663	-117,167	-0,098	-0,013
-622,649	15,163	-0,057	-0,032
-621,634	-123,526	0,031	0,003
-620,619	-76,070	0,101	-0,025
-619,605	-200,000	0,015	0,099
-618,590	-93,016	0,038	0,008
-617,576	-200,000	0,030	0,121
-616,561	376,045	-0,038	0,057
-615,546	104,284	-0,051	-0,043
-614,532	-200,000	-0,002	-0,070
-613,517	800,000	-0,031	-0,068
-612,503	84,881	0,127	-0,100
-611,488	800,000	0,062	0,147
-610,474	18,309	0,011	0,006
-609,459	-10,423	0,051	-0,024
-608,444	-47,050	0,037	0,013
-607,430	71,311	-0,031	-0,023
-606,415	92,000	-0,063	-0,051
-605,401	-200,000	-0,018	-0,082
-604,386	714,889	-0,023	0,045
-603,371	518,257	-0,065	0,110
-602,357	-159,739	-0,023	0,001
-601,342	26,299	-0,120	-0,072
-600,328	-200,000	-0,005	-0,198
-599,313	145,270	-0,093	-0,090
-598,298	-48,018	-0,042	-0,015
-597,284	92,698	0,054	0,044
-596,269	142,057	-0,066	0,063
-595,255	123,736	0,057	0,052
-594,240	-200,000	-0,052	-0,209
-593,225	-46,864	-0,056	-0,020
-592,211	27,977	-0,087	-0,053
-591,196	-6,420	-0,033	0,016
-590,182	-99,142	0,138	0,025
-589,167	-200,000	0,009	0,104
-588,152	-200,000	-0,019	0,100
-587,138	800,000	-0,021	-0,055
-586,123	-200,000	-0,027	-0,098
-585,109	10,773	-0,048	-0,026
-584,094	13,396	0,068	-0,038
-583,079	-126,365	0,046	-0,005
-582,065	85,951	0,016	0,012
-581,050	-29,260	-0,047	-0,019
-580,036	554,806	0,014	-0,025
-579,021	377,732	0,081	0,119
-578,006	-117,646	-0,058	0,007
-576,992	619,694	0,070	-0,127
-575,977	-200,000	0,000	-0,043
-574,963	800,000	-0,036	-0,078
-573,948	3,478	0,065	-0,034
-572,934	-200,000	-0,002	0,051
-571,919	13,844	-0,084	-0,047
-570,904	685,290	-0,104	-0,196
-569,890	-200,000	0,033	0,134
-568,875	800,000	0,075	0,154
-567,861	792,579	-0,053	0,106
-566,846	-200,000	0,014	-0,077
-565,831	29,065	-0,107	0,065
-564,817	136,669	0,092	0,087
-563,802	-200,000	0,017	0,058
-562,788	268,448	-0,029	-0,037
-561,773	169,631	0,030	-0,031
-560,758	145,819	-0,023	0,022
-559,744	-200,000	0,030	0,216
-558,729	-101,827	0,128	-0,022
-557,715	-23,884	-0,113	0,049
-556,700	-200,000	-0,013	-0,087
-555,685	786,720	0,041	-0,081
-554,671	147,771	-0,095	0,092
-553,656	-85,664	0,091	0,020
-552,642	-52,966	0,062	0,021
-551,627	-17,725	0,042	-0,019
-550,612	-200,000	-0,012	-0,051
-549,598	800,000	0,008	0,019
-548,583	100,120	-0,076	-0,064
-547,569	153,268	0,022	0,022
-546,554	396,271	0,058	-0,087
-545,539	-200,000	-0,019	0,092
-544,525	-136,969	-0,057	-0,005
-543,510	-200,000	0,021	-0,079
-542,496	800,000	0,025	-0,067
-541,481	638,008	-0,015	-0,027
-540,466	278,988	0,113	-0,146
-539,452	-200,000	0,004	0,040
-538,437	-21,328	-0,098	-0,043
-537,423	150,290	0,037	0,036
-536,408	75,826	-0,166	-0,126
-535,393	800,000	-0,048	-0,102
-534,379	-200,000	-0,002	0,035
-533,364	-135,857	-0,129	-0,011
-532,350	800,000	0,066	-0,155
-531,335	-103,765	0,170	-0,028
-530,321	247,211	0,072	0,087
-529,306	-150,477	-0,069	-0,004
-528,291	-200,000	-0,013	-0,079
-527,277	-157,164	-0,049	0,002
-526,262	120,660	0,032	-0,028
-525,248	424,639	0,087	0,135
-524,233	800,000	0,021	0,051
-523,218	687,778	0,023	0,042
-522,204	800,000	-0,015	-0,042
-521,189	82,044	0,026	0,020
-520,175	-200,000	-0,001	-0,029
-519,160	212,784	-0,166	-0,189
-518,145	127,955	0,152	-0,139
-517,131	235,921	0,057	0,068
-516,116	-200,000	-0,002	-0,048
-515,102	68,203	-0,062	0,046
-514,087	-147,530	-0,125	0,007
-513,072	199,682	0,062	-0,068
-512,058	-200,000	0,020	-0,095
-511,043	-200,000	0,019	0,074
-510,029	-46,037	-0,113	-0,040
-509,014	299,408	0,138	0,183
-507,999	21,476	-0,122	0,071
-506,985	301,938	-0,027	-0,036
-505,970	800,000	0,014	-0,037
-504,956	-152,336	-0,107	0,005
-503,941	71,871	0,074	-0,055
-502,926	-105,166	-0,069	0,011
-501,912	4,826	-0,169	0,089
-500,897	-193,737	0,081	0,000
-499,883	89,448	-0,091	-0,073
-498,868	131,817	0,078	-0,072
-497,853	800,000	0,042	0,097
-496,839	169,494	0,062	0,064
-495,824	-65,736	0,073	0,021
-494,810	-102,094	-0,116	-0,020
-493,795	-200,000	0,013	0,096
-492,781	126,385	-0,016	0,015
-491,766	-98,467	-0,036	0,007
-490,751	800,000	0,065	-0,170
-489,737	256,522	0,027	0,033
-488,722	-29,972	-0,096	0,039
-487,708	380,204	-0,034	0,049
-486,693	800,000	0,035	0,078
-485,678	-55,650	-0,100	-0,032
-484,664	-88,910	0,104	-0,022
-483,649	351,287	-0,034	-0,048
-482,635	-74,377	0,169	-0,043
-481,620	-154,664	-0,187	-0,009
-480,605	239,248	0,093	-0,111
-479,591	-200,000	0,037	0,188
-478,576	-86,206	-0,075	0,016
-477,562	800,000	-0,009	0,023
-476,547	183,687	-0,046	-0,049
-475,532	-200,000	-0,003	0,063
-474,518	-197,148	0,086	-0,000
-473,503	-200,000	-0,031	-0,109
-472,489	800,000	-0,031	0,076
-471,474	-111,320	-0,084	-0,012
-470,459	-75,551	-0,082	0,021
-469,445	415,649	0,038	-0,058
-468,430	20,693	-0,028	0,016
-467,416	-29,983	0,027	0,011
-466,401	203,213	0,047	0,052
-465,386	-56,459	-0,022	0,007
-464,372	43,312	-0,012	0,008
-463,357	289,286	0,109	0,142
-462,343	-47,997	0,121	-0,042
-461,328	-200,000	-0,007	-0,074
-460,313	-73,191	0,027	-0,007
-459,299	-171,645	0,103	0,002
-458,284	151,328	-0,023	0,022
-457,270	47,835	0,082	-0,055
-456,255	-200,000	0,002	0,044
-455,241	34,016	-0,111	-0,069
-454,226	-200,000	-0,003	-0,029
-453,211	3,496	-0,033	0,017
-452,197	101,377	0,061	-0,051
-451,182	-126,212	-0,040	0,004
-450,168	-200,000	0,014	-0,090
-449,153	77,620	-0,082	-0,063
-448,138	-137,278	0,104	-0,008
-447,124	64,198	0,111	0,080
-446,109	32,871	0,027	-0,016
-445,095	-80,666	0,166	0,039
-444,080	-109,520	0,056	0,008
-443,065	137,331	-0,030	0,028
-442,051	-200,000	-0,002	0,050
-441,036	800,000	-0,024	-0,051
-440,022	-22,046	-0,138	0,060
-439,007	-93,699	0,141	0,028
-437,992	60,489	0,039	0,027
-436,978	219,189	0,066	0,075
-435,963	800,000	-0,016	-0,045
-434,949	204,840	0,037	-0,041
-433,934	-81,689	-0,085	0,020
-432,919	800,000	0,033	-0,084
-431,905	195,721	0,086	0,094
-430,890	-200,000	0,007	-0,098
-429,876	12,492	0,143	0,079
-428,861	-62,233	0,126	0,037
-427,846	-37,585	0,052	-0,020
-426,832	26,048	-0,098	-0,058
-425,817	460,296	-0,027	0,044
-424,803	65,758	-0,058	-0,042
-423,788	-200,000	-0,018	-0,060
-422,773	-15,857	0,104	0,047
-421,759	-53,424	-0,070	-0,023
-420,744	206,633	-0,023	0,025
-419,730	241,999	-0,138	-0,166
-418,715	-128,922	-0,096	-0,010
-417,701	56,652	-0,094	-0,066
-416,686	58,880	0,052	0,037
-415,671	-121,792	-0,138	0,016
-414,657	-85,478	-0,046	0,010
-413,642	697,072	0,016	0,030
-412,628	72,421	-0,038	-0,029
-411,613	-200,000	-0,032	-0,161
-410,598	-200,000	0,010	0,059
-409,584	94,272	0,139	0,113
-408,569	79,507	0,020	-0,015
-407,555	-200,000	0,005	0,051
-406,540	-200,000	-0,010	0,089
-405,525	-200,000	-0,013	-0,112
-404,511	-200,000	-0,005	0,033
-403,496	-73,111	0,043	0,011
-402,482	-90,247	0,113	0,023
-401,467	484,123	-0,093	0,152
-400,452	-21,996	0,088	0,038
-399,438	-200,000	-0,013	-0,054
-398,423	-200,000	-0,012	0,123
-397,409	297,764	-0,107	-0,141
-396,394	-200,000	-0,026	-0,138
-395,379	602,050	-0,036	0,065
-394,365	800,000	0,049	0,105
-393,350	-50,005	0,112	-0,038
-392,336	-53,301	-0,088	0,029
-391,321	366,778	0,045	-0,065
-390,306	146,004	-0,033	-0,031
-389,292	-200,000	-0,012	0,052
-388,277	-200,000	0,017	-0,103
-387,263	88,261	-0,157	-0,124
-386,248	-108,026	0,179	0,028
-385,233	9,324	0,056	-0,030
-384,219	-200,000	-0,022	-0,184
-383,204	-82,253	-0,115	0,027
-382,190	800,000	0,034	-0,093
-381,175	-147,596	0,125	0,007
-380,160	173,232	0,110	0,114
-379,146	-88,273	-0,108	0,023
-378,131	800,000	0,036	0,105
-377,117	293,013	0,090	0,118
-376,102	82,408	-0,153	-0,118
-375,088	503,696	-0,142	-0,235
-374,073	-51,423	0,014	0,005
-373,058	800,000	-0,029	0,066
-372,044	-9,713	-0,074	0,035
-371,029	155,745	-0,076	-0,075
-370,015	-84,459	-0,143	0,032
-369,000	800,000	0,015	-0,036
-367,985	800,000	-0,050	0,124
-366,971	-200,000	0,004	0,046
-365,956	-200,000	0,078	0,258
-364,942	728,525	-0,073	0,140
-363,927	190,472	0,015	0,016
-362,912	131,531	-0,105	0,097
-361,898	-63,388	0,077	-0,022
-360,883	264,540	-0,041	-0,052
-359,869	800,000	-0,038	-0,112
-358,854	83,499	0,080	0,062
-357,839	-200,000	-0,006	0,032
-356,825	-200,000	0,000	0,071
-355,810	715,678	0,016	0,029
-354,796	-25,074	-0,166	0,070
-353,781	-200,000	-0,009	-0,125
-352,766	320,164	0,044	-0,060
-351,752	34,570	-0,080	0,050
-350,737	-200,000	0,006	0,036
-349,723	18,161	0,055	0,031
-348,708	596,426	-0,014	0,025
-347,693	470,147	-0,040	0,065
-346,679	-200,000	-0,016	-0,073
-345,664	800,000	-0,072	-0,211
-344,650	125,113	0,167	-0,150
-343,635	119,085	0,115	-0,101
-342,620	65,736	-0,070	-0,051
-341,606	14,535	0,055	0,031
-340,591	15,611	-0,052	0,029
-339,577	-200,000	-0,021	-0,085
-338,562	-200,000	-0,050	-0,188
-337,548	24,222	0,053	-0,031
-336,533	-200,000	-0,004	0,048
-335,518	-51,620	0,090	0,030
-334,504	-111,447	-0,107	0,015
-333,489	-11,426	0,143	0,067
-332,475	-8,508	-0,149	-0,071
-331,460	78,089	0,012	-0,009
-330,445	25,921	0,085	0,051
-329,431	-8,252	0,172	-0,082
-328,416	-183,444	0,130	-0,002
-327,402	38,428	0,008	0,005
-326,387	-200,000	0,011	0,057
-325,372	-124,080	0,034	0,004
-324,358	-40,690	0,121	-0,045
-323,343	-200,000	0,005	0,043
-322,329	800,000	0,056	-0,135
-321,314	800,000	0,020	0,046
-320,299	101,513	-0,078	0,065
-319,285	-16,164	-0,057	0,026
-318,270	-200,000	-0,006	-0,068
-317,256	800,000	0,012	0,033
-316,241	761,231	0,059	0,114
-315,226	446,874	0,074	-0,116
-314,212	-5,093	0,135	-0,066
-313,197	-40,418	-0,053	0,020
-312,183	-200,000	0,004	0,144
-311,168	-182,803	-0,035	-0,000
-310,153	125,933	0,013	0,012
-309,139	800,000	0,047	-0,101
-308,124	219,113	-0,081	-0,092
-307,110	267,675	0,096	0,120
-306,095	-48,635	-0,103	-0,035
-305,080	-200,000	-0,016	0,154
-304,066	139,883	-0,069	0,065
-303,051	-200,000	0,004	0,015
-302,037	-200,000	-0,010	-0,041
-301,022	-200,000	0,013	0,048
-300,008	-97,895	0,059	-0,011
-298,993	-200,000	-0,013	0,138
-297,978	134,965	0,071	0,066
-296,964	-96,595	-0,132	-0,025
-295,949	268,309	0,040	-0,050
-294,935	-200,000	0,012	-0,167
-293,920	156,620	0,041	0,040
-292,905	-200,000	-0,015	0,238
-291,891	160,689	0,079	-0,079
-290,876	-200,000	-0,004	0,065
-289,862	-71,795	0,112	-0,030
-288,847	-42,015	-0,096	0,035
-287,832	25,744	-0,125	0,074
-286,818	-15,827	0,119	-0,054
-285,803	-134,617	0,108	0,009
-284,789	-200,000	-0,005	0,029
-283,774	-200,000	0,031	0,158
-282,759	432,341	-0,056	0,087
-281,745	-69,616	0,222	-0,060
-280,730	800,000	-0,028	-0,056
-279,716	800,000	0,030	0,069
-278,701	-200,000	-0,055	-0,215
-277,686	800,000	-0,005	0,011
-276,672	425,120	0,053	0,082
-275,657	-200,000	0,008	-0,055
-274,643	-200,000	-0,034	-0,146
-273,628	-6,404	0,090	0,043
-272,613	-200,000	0,020	0,068
-271,599	-139,150	0,118	-0,009
-270,584	416,751	-0,076	0,116
-269,570	-200,000	0,002	0,028
-268,555	121,556	-0,059	0,053
-267,540	303,672	-0,062	-0,081
-266,526	-108,992	-0,066	-0,010
-265,511	66,147	-0,064	0,046
-264,497	-165,979	-0,029	0,001
-263,482	58,915	0,039	0,027
-262,467	192,073	0,046	-0,050
-261,453	-75,519	-0,044	-0,011
-260,438	-200,000	0,007	-0,066
-259,424	-45,663	-0,119	-0,042
-258,409	800,000	-0,047	0,126
-257,395	683,270	-0,044	0,083
-256,380	-200,000	0,020	-0,067
-255,365	-71,386	0,124	0,033
-254,351	-77,230	0,058	0,014
-253,336	45,569	-0,005	0,003
-252,322	243,115	-0,028	0,034
-251,307	29,848	-0,065	-0,039
-250,292	21,544	0,151	-0,087
-249,278	800,000	-0,033	0,099
-248,263	-200,000	-0,000	-0,040
-247,249	-49,879	-0,125	-0,042
-246,234	800,000	-0,048	-0,105
-245,219	-146,745	-0,055	-0,003
-244,205	-200,000	-0,008	0,027
-243,190	8,701	-0,089	0,047
-242,176	67,615	0,031	0,022
-241,161	309,323	-0,026	0,035
-240,146	123,204	0,070	-0,063
-239,132	-200,000	0,010	-0,089
-238,117	773,512	0,059	-0,115
-237,103	-200,000	0,017	0,103
-236,088	-46,814	-0,016	0,006
-235,073	-154,424	-0,068	-0,003
-234,059	435,922	0,081	0,125
-233,044	-156,275	-0,085	0,004
-232,030	-157,579	0,096	0,004
-231,015	370,226	-0,059	0,086
-230,000	105,171	-0,068	-0,057
-228,986	-200,000	0,018	0,094
-227,971	1,649	0,058	0,030
-226,957	-73,337	0,046	0,012
-225,942	188,818	-0,055	0,058
-224,927	95,343	-0,093	-0,075
-223,913	-135,936	0,046	-0,004
-222,898	800,000	-0,031	0,073
-221,884	229,198	-0,095	-0,110
-220,869	-56,353	0,104	0,032
-219,855	800,000	0,044	0,093
-218,840	-77,690	-0,042	0,010
-217,825	-148,509	-0,102	0,006
-216,811	-121,304	0,090	0,011
-215,796	-200,000	-0,004	-0,128
-214,782	15,656	-0,127	0,071
-213,767	59,379	0,057	0,040
-212,752	-104,846	0,102	0,016
-211,738	-200,000	0,027	0,179
-210,723	-85,178	0,040	-0,009
-209,709	800,000	-0,043	0,129
-208,694	-142,350	0,045	0,003
-207,679	-147,796	-0,067	-0,004
-206,665	-200,000	-0,000	0,084
-205,650	-39,537	0,142	-0,052
-204,636	525,127	0,018	0,029
-203,621	-84,305	0,133	-0,030
-202,606	-200,000	0,008	0,048
-201,592	-38,459	-0,122	-0,046
-200,577	257,077	-0,035	-0,043
-199,563	-200,000	-0,000	0,044
-198,548	-42,658	0,014	0,005
-197,533	-72,629	0,035	-0,009
-196,519	10,187	-0,051	0,027
-195,504	-200,000	0,002	-0,048
-194,490	489,892	-0,049	-0,079
-193,475	153,154	0,065	0,063
-192,460	89,536	-0,016	-0,013
-191,446	-9,756	-0,041	-0,019
-190,431	263,358	-0,046	0,057
-189,417	-187,681	0,107	0,001
-188,402	-200,000	0,035	-0,114
-187,387	-155,256	-0,183	0,008
-186,373	-70,165	-0,027	-0,007
-185,358	-9,336	-0,185	0,087
-184,344	123,887	0,107	-0,095
-183,329	-200,000	0,007	0,049
-182,315	-200,000	-0,009	0,174
-181,300	800,000	0,050	0,140
-180,285	-8,744	-0,136	-0,065
-179,271	347,778	0,054	-0,076
-178,256	114,010	0,081	0,069
-177,242	800,000	0,035	-0,093
-176,227	-200,000	0,003	0,115
-175,212	-145,484	-0,193	0,012
-174,198	480,804	0,074	0,120
-173,183	343,893	-0,051	-0,071
-172,169	19,374	-0,016	-0,009
-171,154	429,577	-0,080	0,123
-170,139	83,099	0,135	0,104
-169,125	206,170	0,098	-0,108
-168,110	800,000	0,033	-0,080
-167,096	-200,000	-0,014	0,078
-166,081	53,688	0,051	-0,035
-165,066	-46,780	-0,068	0,023
-164,052	-200,000	-0,003	-0,049
-163,037	-200,000	-0,026	0,118
-162,023	-200,000	0,001	0,123
-161,008	292,200	0,098	0,126
-159,993	-136,885	0,089	0,007
-158,979	800,000	0,024	-0,063
-157,964	-39,311	-0,038	0,014
-156,950	151,911	0,059	-0,057
-155,935	155,092	-0,067	-0,066
-154,920	229,209	0,028	-0,033
-153,906	-200,000	0,046	0,154
-152,891	-178,608	-0,088	0,001
-151,877	50,751	-0,046	0,031
-150,862	800,000	-0,061	0,132
-149,847	16,127	0,089	-0,050
-148,833	-200,000	0,012	0,086
-147,818	53,637	0,082	-0,055
-146,804	800,000	-0,026	0,071
-145,789	-200,000	-0,012	-0,080
-144,775	576,033	-0,027	-0,048
-143,760	-57,937	0,072	-0,022
-142,745	-105,060	-0,041	-0,007
-141,731	-200,000	-0,028	-0,102
-140,716	800,000	-0,060	-0,129
-139,702	-98,703	-0,056	0,010
-138,687	116,362	0,035	0,030
-137,672	800,000	-0,030	0,064
-136,658	178,964	-0,114	0,118
-135,643	151,143	0,041	-0,040
-134,629	-200,000	-0,000	0,028
-133,614	800,000	-0,009	-0,019
-132,599	-121,027	-0,043	0,005
-131,585	-39,115	0,058	-0,021
-130,570	-200,000	0,020	0,116
-129,556	89,623	-0,149	-0,117
-128,541	-52,656	-0,014	0,005
-127,526	-200,000	-0,001	-0,062
-126,512	-200,000	-0,005	-0,041
-125,497	-200,000	-0,005	-0,018
-124,483	800,000	-0,027	-0,076
-123,468	-73,032	-0,073	-0,019
-122,453	-114,648	0,092	0,012
-121,439	82,119	-0,118	-0,090
-120,424	-200,000	0,004	0,050
-119,410	113,883	-0,053	-0,046
-118,395	-36,049	0,045	0,017
-117,380	-110,280	0,125	0,018
-116,366	800,000	-0,015	-0,036
-115,351	-200,000	0,022	-0,131
-114,337	-200,000	-0,018	-0,172
-113,322	-200,000	-0,027	-0,208
-112,307	221,970	0,020	-0,023
-111,293	67,667	-0,056	-0,040
-110,278	-200,000	-0,014	0,079
-109,264	761,570	-0,074	0,142
-108,249	-200,000	0,011	-0,086
-107,234	-200,000	-0,030	-0,113
-106,220	358,903	0,071	-0,101
-105,205	672,625	0,061	-0,112
-104,191	-200,000	0,001	-0,090
-103,176	-142,804	-0,068	0,005
-102,162	-200,000	0,015	0,143
-101,147	-98,683	0,116	-0,021
-100,132	-73,551	-0,072	-0,018
-99,118	249,927	-0,039	-0,047
-98,103	-73,921	0,155	0,039
-97,089	349,650	-0,067	0,094
-96,074	-200,000	-0,037	0,143
-95,059	398,685	0,012	-0,017
-94,045	438,021	-0,105	0,162
-93,030	-75,082	0,054	-0,013
-92,016	35,455	0,038	-0,023
-91,001	-200,000	-0,007	-0,079
-89,986	138,462	0,048	0,045
-88,972	800,000	-0,041	0,129
-87,957	-200,000	0,011	0,168
-86,943	-29,957	-0,061	-0,025
-85,928	-150,089	-0,130	-0,007
-84,913	660,260	0,077	0,142
-83,899	-200,000	0,001	-0,137
-82,884	-179,372	-0,075	-0,001
-81,870	-99,342	0,047	0,008
-80,855	223,450	-0,181	0,207
-79,840	-200,000	0,022	0,176
-78,826	758,125	-0,026	-0,051
-77,811	-200,000	0,004	0,160
-76,797	68,532	-0,029	-0,021
-75,782	-200,000	0,001	-0,008
-74,767	40,048	-0,046	0,029
-73,753	-200,000	0,022	0,266
-72,738	-67,920	0,083	0,023
-71,724	-113,996	-0,050	0,007
-70,709	-13,417	0,031	-0,014
-69,694	-189,992	-0,098	0,001
-68,680	-200,000	-0,006	-0,021
-67,665	800,000	-0,032	-0,071
-66,651	-28,389	0,078	0,032
-65,636	-200,000	0,005	0,094
-64,622	85,401	-0,074	-0,057
-63,607	-200,000	0,009	-0,060
-62,592	18,939	0,052	-0,029
-61,578	-17,272	0,022	-0,010
-60,563	800,000	0,049	-0,123
-59,549	-200,000	0,008	0,051
-58,534	73,514	-2,063	-1,523
-57,519	611,193	-1,013	-1,794
-56,505	-200,000	-0,516	-4,671
-55,490	530,187	1,055	1,765
-54,476	800,000	5,171	11,451
-53,461	-200,000	22,360	345,627
-52,446	800,000	757,228	2292,140
-51,432	533,783	1643,870	2757,139
-50,417	67,955	1642,364	1183,421
-49,403	15,651	1519,806	840,110
-48,388	9,832	1445,817	771,270
-47,373	19,291	1438,365	812,316
-46,359	13,365	1427,227	778,036
-45,344	8,192	1423,044	751,267
-44,330	8,124	1420,925	749,798
-43,315	8,093	1419,368	748,801
-42,300	8,065	1417,547	747,678
-41,286	8,124	1416,204	747,216
-40,271	8,121	1415,090	746,583
-39,257	8,075	1413,909	745,717
-38,242	8,133	1412,695	745,319
-37,227	8,117	1411,749	744,714
-36,213	8,106	1410,262	743,849
-35,198	8,126	1409,045	743,271
-34,184	8,130	1408,157	742,791
-33,169	8,032	1406,834	741,608
-32,154	8,055	1406,127	741,311
-31,140	8,103	1404,543	740,674
-30,125	8,112	1403,384	740,074
-29,111	8,091	1402,434	739,445
-28,096	8,111	1401,094	738,800
-27,082	8,018	1400,140	737,834
-26,067	8,011	1398,975	737,159
-25,052	8,020	1398,008	736,664
-24,038	8,020	1396,898	736,050
-23,023	8,026	1395,888	735,518
-22,009	8,032	1394,934	735,014
-20,994	8,014	1393,791	734,298
-19,979	8,029	1392,891	733,865
-18,965	7,965	1392,129	733,139
-17,950	7,929	1391,180	732,443
-16,936	7,980	1390,174	732,116
-15,921	7,893	1389,219	731,182
-14,906	7,926	1388,259	730,803
-13,892	7,992	1387,308	730,579
-12,877	7,914	1386,775	729,907
-11,863	7,920	1385,834	729,408
-10,848	7,909	1385,166	728,978
-9,833	7,861	1384,028	728,133
-8,819	7,886	1383,190	727,776
-7,804	7,833	1382,257	727,011
-6,790	7,826	1381,185	726,386
-5,775	7,841	1380,251	725,939
-4,760	7,912	1379,113	725,633
-3,746	7,849	1378,382	724,931
-2,731	7,898	1377,383	724,603
-1,717	7,878	1376,539	724,039
-0,702	7,846	1374,675	722,882
0,313	11,725	1285,334	693,497
1,327	27,428	677,066	400,295
2,342	42,435	116,443	74,494
3,356	-0,432	16,567	8,265
4,371	3,962	3,930	2,018
5,386	7,897	1,320	0,695
6,400	800,000	0,278	0,655
7,415	293,501	-0,151	-0,195
8,429	151,813	-0,196	-0,188
9,444	149,654	-0,185	-0,176
10,459	-62,268	-0,322	-0,094
11,473	17,791	-0,415	-0,232
12,488	-156,470	-0,242	-0,010
13,502	40,352	-0,407	-0,257
14,517	229,116	-0,280	-0,322
15,531	-24,721	-0,523	-0,218
16,546	7,378	-0,220	-0,115
17,561	151,348	-0,315	-0,302
18,575	-15,678	-0,304	-0,136
19,590	-47,096	-0,199	-0,068
20,604	70,531	-0,229	-0,166
21,619	19,576	-0,590	-0,333
22,634	178,326	-0,415	-0,426
23,648	54,017	-0,500	-0,338
24,663	271,867	-0,303	-0,377
25,677	-37,469	-0,408	-0,152
26,692	-50,144	-0,416	-0,138
27,707	31,666	-0,449	-0,271
28,721	229,211	-0,361	-0,415
29,736	34,614	-0,385	-0,236
30,750	-66,308	-0,507	-0,141
31,765	158,790	-0,372	-0,363
32,780	39,778	-0,438	-0,275
33,794	185,386	-0,265	-0,277
34,809	68,116	-0,233	-0,167
35,823	16,352	-0,301	-0,166
36,838	111,922	-0,267	-0,226
37,853	30,646	-0,367	-0,220
38,867	93,921	-0,347	-0,276
39,882	59,218	-0,324	-0,223
40,896	797,446	-0,086	-0,167
41,911	391,011	-0,091	-0,133
42,926	-25,672	-0,263	-0,109
43,940	104,936	-0,405	-0,336
44,955	192,291	-0,268	-0,284
45,969	92,341	-0,403	-0,319
46,984	112,082	-0,284	-0,241
47,999	140,790	-0,230	-0,213
49,013	-22,163	-0,470	-0,199
50,028	143,061	-0,225	-0,210
51,042	130,473	-0,292	-0,262
52,057	62,120	-0,427	-0,298
53,071	117,341	-0,385	-0,333
54,086	-20,363	-0,433	-0,186
55,101	-1,340	-0,215	-0,106
56,115	46,932	-0,340	-0,222
57,130	284,071	-0,197	-0,249
58,144	25,998	-0,440	-0,257
59,159	43,252	-0,383	-0,245
60,174	79,332	-0,325	-0,244
61,188	99,101	-0,389	-0,315
62,203	-37,322	-0,281	-0,105
63,217	-34,664	-0,417	-0,159
64,232	-119,098	-0,331	0,040
65,247	3,064	-0,338	-0,172
66,261	205,935	-0,349	-0,381
67,276	-7,682	-0,411	-0,194
68,290	404,461	-0,222	-0,329
69,305	246,838	-0,217	-0,257
70,320	-63,018	-0,351	-0,101
71,334	-40,606	-0,301	-0,109
72,349	-26,014	-0,280	-0,115
73,363	77,854	-0,367	-0,274
74,378	42,224	-0,269	-0,171
75,393	83,208	-0,292	-0,222
76,407	-40,544	-0,261	-0,094
77,422	34,034	-0,309	-0,188
78,436	-5,049	-0,326	-0,156
79,451	106,055	-0,194	-0,161
80,466	-61,122	-0,379	-0,111
81,480	300,871	-0,221	-0,286
82,495	-40,184	-0,300	-0,109
83,509	169,768	-0,343	-0,343
84,524	286,876	-0,262	-0,332
85,539	-28,060	-0,323	-0,130
86,553	92,088	-0,315	-0,248
87,568	73,866	-0,312	-0,229
88,582	157,481	-0,311	-0,301
89,597	261,329	-0,218	-0,265
90,611	26,108	-0,335	-0,195
91,626	-48,981	-0,136	-0,045
92,641	-61,339	-0,248	-0,072
93,655	93,650	-0,289	-0,228
94,670	85,233	-0,288	-0,221
95,684	160,638	-0,173	-0,169
96,699	18,814	-0,294	-0,164
97,714	-43,476	-0,270	-0,095
98,728	155,640	-0,173	-0,166
99,743	-38,771	-0,191	-0,070
100,757	-28,487	-0,370	-0,149
101,772	188,664	-0,331	-0,346
102,787	-16,750	-0,381	-0,168
103,801	-9,497	-0,253	-0,118
104,816	-14,739	-0,246	-0,110
105,830	-32,248	-0,289	-0,112
106,845	15,764	-0,224	-0,122
107,860	-30,704	-0,271	-0,107
108,874	-29,469	-0,343	-0,136
109,889	-15,755	-0,283	-0,125
110,903	-2,114	-0,330	-0,161
111,918	-5,567	-0,294	-0,140
112,933	247,083	-0,179	-0,211
113,947	60,164	-0,174	-0,120
114,962	-54,681	-0,249	-0,078
115,976	441,204	-0,124	-0,190
116,991	329,523	-0,163	-0,219
118,006	267,889	-0,331	-0,405
119,020	207,369	-0,210	-0,229
120,035	133,232	-0,169	-0,153
121,049	143,631	-0,203	-0,189
122,064	-3,916	-0,304	-0,147
123,079	-106,892	-0,184	0,028
124,093	4,525	-0,293	-0,150
125,108	147,040	-0,273	-0,257
126,122	70,549	-0,299	-0,215
127,137	800,000	-0,097	-0,272
128,151	-91,554	-0,250	-0,049
129,166	48,690	-0,197	-0,129
130,181	73,701	-0,216	-0,158
131,195	-200,000	-0,251	0,001
132,210	242,512	-0,134	-0,157
133,224	404,553	-0,112	-0,166
134,239	10,592	-0,319	-0,169
135,254	372,244	-0,199	-0,282
136,268	-28,405	-0,256	-0,102
137,283	51,068	-0,262	-0,173
138,297	444,203	-0,121	-0,185
139,312	-12,466	-0,256	-0,116
140,327	61,675	-0,242	-0,167
141,341	-24,737	-0,369	-0,152
142,356	257,914	-0,260	-0,312
143,370	123,937	-0,245	-0,214
144,385	179,424	-0,156	-0,159
145,400	75,145	-0,235	-0,172
146,414	93,642	-0,234	-0,184
147,429	165,949	-0,179	-0,177
148,443	414,003	-0,187	-0,277
149,458	-25,268	-0,232	-0,095
150,473	180,607	-0,287	-0,293
151,487	-20,785	-0,281	-0,119
152,502	174,157	-0,187	-0,189
153,516	-8,971	-0,311	-0,144
154,531	200,883	-0,221	-0,236
155,546	174,108	-0,167	-0,168
156,560	-163,326	-0,180	0,006
157,575	174,122	-0,242	-0,244
158,589	30,830	-0,252	-0,150
159,604	74,565	-0,216	-0,158
160,619	-18,976	-0,311	-0,134
161,633	42,805	-0,262	-0,165
162,648	102,123	-0,276	-0,224
163,662	55,345	-0,244	-0,164
164,677	-92,966	-0,258	-0,050
165,692	100,125	-0,204	-0,164
166,706	56,014	-0,329	-0,222
167,721	87,264	-0,175	-0,134
168,735	348,147	-0,166	-0,228
169,750	130,655	-0,179	-0,160
170,764	-109,814	-0,209	-0,030
171,779	-81,657	-0,244	-0,055
172,794	-21,398	-0,163	-0,069
173,808	-65,244	-0,251	-0,070
174,823	229,898	-0,203	-0,230
175,837	85,730	-0,260	-0,198
176,852	115,141	-0,246	-0,208
177,867	42,106	-0,208	-0,131
178,881	-70,395	-0,210	-0,055
179,896	72,195	-0,172	-0,124
180,910	-39,041	-0,183	-0,066
181,925	-66,650	-0,326	-0,089
182,940	203,361	-0,235	-0,252
183,954	10,748	-0,221	-0,117
184,969	296,095	-0,205	-0,261
185,983	800,000	-0,108	-0,254
186,998	188,691	-0,105	-0,109
188,013	196,677	-0,238	-0,252
189,027	154,883	-0,165	-0,157
190,042	465,887	-0,130	-0,202
191,056	10,761	-0,217	-0,114
192,071	42,623	-0,207	-0,130
193,086	22,156	-0,173	-0,098
194,100	168,585	-0,171	-0,169
195,115	148,270	-0,249	-0,233
196,129	-7,018	-0,278	-0,130
197,144	71,034	-0,167	-0,120
198,159	47,556	-0,267	-0,172
199,173	69,296	-0,188	-0,134
200,188	18,659	-0,253	-0,140
201,202	347,292	-0,141	-0,192
202,217	-80,602	-0,313	-0,071
203,232	-16,609	-0,108	-0,047
204,246	800,000	-0,062	-0,168
205,261	-54,629	-0,149	-0,046
206,275	-42,074	-0,184	-0,065
207,290	-109,316	-0,186	-0,027
208,304	-45,450	-0,155	-0,053
209,319	-40,222	-0,282	-0,101
210,334	68,360	-0,236	-0,167
211,348	264,029	-0,211	-0,254
212,363	171,646	-0,133	-0,132
213,377	-123,835	-0,135	-0,015
214,392	-116,709	-0,127	-0,016
215,407	-200,000	-0,044	-0,142
216,421	-24,691	-0,198	-0,081
217,436	-20,108	-0,244	-0,104
218,450	458,285	-0,166	-0,256
219,465	224,670	-0,175	-0,195
220,480	-126,810	-0,255	-0,026
221,494	-36,723	-0,281	-0,104
222,509	-10,585	-0,158	-0,072
223,523	-136,969	-0,153	-0,012
224,538	-119,932	-0,168	-0,020
225,553	660,080	-0,092	-0,165
226,567	146,215	-0,186	-0,172
227,582	-28,444	-0,248	-0,099
228,596	2,594	-0,211	-0,105
229,611	800,000	-0,077	-0,204
230,626	800,000	-0,108	-0,217
231,640	-31,470	-0,206	-0,080
232,655	-10,791	-0,102	-0,046
233,669	-90,573	-0,275	-0,054
234,684	234,872	-0,157	-0,179
235,699	532,224	-0,140	-0,230
236,713	79,350	-0,218	-0,161
237,728	45,609	-0,176	-0,112
238,742	-24,412	-0,237	-0,097
239,757	-36,241	-0,275	-0,102
240,772	361,346	-0,129	-0,178
241,786	-129,163	-0,316	-0,030
242,801	-22,299	-0,080	-0,033
243,815	116,775	-0,263	-0,223
244,830	-5,344	-0,180	-0,085
245,844	155,257	-0,078	-0,074
246,859	16,315	-0,295	-0,160
247,874	-200,000	0,039	-0,201
248,888	184,538	-0,140	-0,144
249,903	79,222	-0,196	-0,144
250,917	258,139	-0,130	-0,155
251,932	-117,194	-0,189	0,023
252,947	-9,003	-0,192	0,088
253,961	-143,645	-0,215	-0,014
254,976	256,025	-0,194	-0,230
255,990	558,828	-0,198	-0,331
257,005	41,770	-0,268	-0,167
258,020	-18,125	-0,197	-0,085
259,034	467,821	-0,134	-0,209
260,049	-142,339	-0,338	0,023
261,063	107,756	-0,153	-0,126
262,078	-190,452	-0,231	-0,002
263,093	396,750	-0,136	-0,196
264,107	513,114	-0,145	-0,234
265,122	-59,623	-0,233	-0,068
266,136	62,539	-0,158	-0,108
267,151	-24,241	-0,119	-0,049
268,166	237,995	-0,149	-0,170
269,180	4,378	-0,305	-0,153
270,195	13,132	-0,243	-0,129
271,209	44,749	-0,171	-0,108
272,224	-113,229	-0,178	-0,024
273,239	318,567	-0,134	-0,175
274,253	13,074	-0,199	-0,106
275,268	16,289	-0,202	-0,109
276,282	20,380	-0,202	-0,112
277,297	-142,016	-0,160	0,011
278,312	800,000	-0,096	-0,208
279,326	349,324	-0,128	-0,174
280,341	0,208	-0,245	-0,120
281,355	-39,271	-0,173	-0,062
282,370	-33,669	-0,143	-0,054
283,384	231,729	-0,139	-0,157
284,399	111,367	-0,158	-0,131
285,414	-60,420	-0,257	-0,075
286,428	-200,000	-0,011	-0,087
287,443	112,724	-0,128	-0,106
288,457	387,918	-0,100	-0,143
289,472	1,568	-0,188	-0,093
290,487	302,450	-0,101	-0,128
291,501	13,258	-0,138	-0,073
292,516	-27,011	-0,115	-0,046
293,530	169,329	-0,074	-0,073
294,545	564,693	-0,039	-0,065
295,560	-101,097	-0,209	0,035
296,574	-200,000	-0,003	-0,122
297,589	83,971	-0,086	-0,064
298,603	277,126	-0,215	-0,263
299,618	800,000	-0,042	-0,111
300,633	196,516	-0,173	-0,181
301,647	36,063	-0,174	-0,105
302,662	-81,500	-0,163	-0,037
303,676	-83,339	-0,170	0,037
304,691	-95,174	-0,089	-0,016
305,706	27,030	-0,073	-0,042
306,720	425,600	-0,087	-0,130
307,735	195,929	-0,127	-0,133
308,749	-82,066	-0,102	-0,023
309,764	-194,565	-0,102	0,001
310,779	-7,926	-0,092	-0,042
311,793	49,743	-0,197	-0,127
312,808	800,000	-0,080	-0,175
313,822	13,184	-0,322	-0,170
314,837	-43,788	-0,141	-0,048
315,852	-63,950	-0,140	-0,039
316,866	85,779	-0,188	-0,142
317,881	800,000	-0,079	-0,199
318,895	-100,105	-0,138	-0,023
319,910	-48,269	-0,252	-0,083
320,925	520,128	-0,034	-0,055
321,939	-146,111	-0,176	0,010
322,954	48,746	-0,159	-0,102
323,968	-58,690	-0,073	-0,022
324,983	-40,258	-0,207	-0,073
325,997	376,041	-0,108	-0,152
327,012	130,739	-0,175	-0,154
328,027	34,205	-0,233	-0,139
329,041	127,548	-0,144	-0,125
330,056	-200,000	-0,075	-0,229
331,070	-80,147	-0,177	-0,040
332,085	-53,636	-0,089	-0,028
333,100	206,107	-0,198	-0,211
334,114	418,629	-0,160	-0,235
335,129	-200,000	-0,032	-0,217
336,143	800,000	-0,124	-0,241
337,158	-200,000	-0,018	-0,055
338,173	-6,128	-0,081	0,038
339,187	-150,442	-0,093	0,005
340,202	16,667	-0,118	-0,064
341,216	21,933	-0,180	-0,100
342,231	216,757	-0,154	-0,167
343,246	165,393	-0,111	-0,107
344,260	263,523	0,050	-0,060
345,275	-200,000	-0,032	-0,119
346,289	-56,493	-0,171	-0,052
347,304	-200,000	-0,027	-0,151
348,319	343,061	-0,096	-0,129
349,333	-94,552	-0,223	-0,041
350,348	291,143	-0,159	-0,198
351,362	46,594	-0,104	-0,066
352,377	381,491	-0,052	-0,073
353,392	800,000	-0,065	-0,142
354,406	-193,811	-0,193	0,001
355,421	209,129	1311,432	1405,103
356,435	160,944	1471,699	1405,543
