DTS Sentinel unit serial number:	SN410029Multiplexer serial number:	ORYXHardware model number:	OX2-SRSoftware version number:	ORYX F/W v4,00 Oryx Data Collector v3.7.2.0data status	okinstallation	B3 Nyhavnadifferential loss correction	single-endedforward channel	channel 1reverse channel	N/Adate	2023/11/28time	22:32:30forward acquisition time	300,00reverse acquisition time	0,00gamma	499,1914k internal	0,3211k external	0,3211temperature offset calibration	1,0000default loss term (dB/km)	0,3820temperature slope calibration	1,0000multiplexer offset coefficient	1,0000multiplexer slope coefficient	1,0000fibre end	0,00T internal ref (°C)	8,60T ext. ref 1 (°C)	-5,97T ext. ref 2 (°C)	-6,13length (m)	temperature (°C)	Stokes	anti-Stokes-744,400	91,379	-0,185	-0,150
-743,385	-22,089	-0,159	0,069
-742,371	162,147	-0,226	-0,230
-741,356	-200,000	0,014	0,372
-740,342	800,000	-0,117	-0,236
-739,327	-200,000	0,061	0,332
-738,312	28,377	-0,239	-0,146
-737,298	-200,000	-0,046	0,252
-736,283	800,000	-0,062	-0,151
-735,269	-200,000	0,056	0,347
-734,254	-200,000	-0,079	-0,278
-733,239	47,883	-0,214	0,145
-732,225	314,933	-0,118	-0,162
-731,210	-200,000	0,030	0,238
-730,196	452,305	0,034	0,055
-729,181	-200,000	-0,025	-0,100
-728,167	215,812	0,024	0,028
-727,152	-200,000	0,004	0,074
-726,137	-200,000	-0,042	-0,140
-725,123	-200,000	-0,010	-0,089
-724,108	800,000	-0,055	-0,118
-723,094	-200,000	0,012	-0,112
-722,079	800,000	-0,041	0,094
-721,064	-200,000	0,002	-0,087
-720,050	-200,000	0,027	-0,112
-719,035	-200,000	0,018	-0,068
-718,021	800,000	-0,038	0,087
-717,006	691,784	-0,025	-0,048
-715,991	-16,840	0,031	-0,014
-714,977	-40,399	-0,021	0,008
-713,962	189,221	0,036	0,040
-712,948	800,000	0,027	-0,078
-711,933	-170,415	0,050	-0,001
-710,918	-40,986	0,055	-0,021
-709,904	456,183	0,023	0,037
-708,889	-200,000	-0,004	-0,091
-707,875	-200,000	-0,019	0,115
-706,860	-17,006	0,012	0,005
-705,845	-30,476	-0,145	-0,059
-704,831	-200,000	-0,018	0,084
-703,816	-87,342	0,099	0,022
-702,802	-29,963	-0,240	-0,099
-701,787	-200,000	-0,001	-0,165
-700,772	120,967	-0,046	0,042
-699,758	-50,187	0,055	0,019
-698,743	800,000	0,043	0,094
-697,729	-200,000	0,014	-0,126
-696,714	-200,000	0,014	0,146
-695,699	574,362	-0,044	-0,078
-694,685	-93,349	0,051	0,010
-693,670	-49,063	0,223	0,077
-692,656	-57,696	0,059	0,019
-691,641	177,039	0,038	0,040
-690,627	-200,000	0,017	0,090
-689,612	23,769	0,078	-0,046
-688,597	-200,000	-0,012	-0,091
-687,583	261,404	-0,037	-0,046
-686,568	-200,000	-0,008	-0,115
-685,554	-42,216	-0,057	-0,021
-684,539	35,690	0,102	-0,065
-683,524	-26,704	-0,091	-0,038
-682,510	-200,000	-0,008	0,074
-681,495	-200,000	0,045	-0,152
-680,481	-200,000	0,013	-0,096
-679,466	198,337	-0,107	-0,119
-678,451	-200,000	-0,011	0,047
-677,437	-200,000	-0,009	-0,060
-676,422	356,289	-0,106	0,152
-675,408	800,000	-0,024	0,062
-674,393	772,589	-0,043	-0,086
-673,378	-200,000	-0,021	-0,093
-672,364	571,736	0,073	0,128
-671,349	-200,000	0,002	-0,051
-670,335	800,000	0,032	-0,067
-669,320	164,877	-0,102	0,104
-668,305	-91,813	0,100	-0,020
-667,291	499,983	-0,031	-0,052
-666,276	33,756	0,052	-0,033
-665,262	-25,446	-0,114	-0,048
-664,247	528,129	0,053	-0,090
-663,232	-200,000	0,003	-0,011
-662,218	-74,197	0,139	0,036
-661,203	-200,000	-0,006	0,025
-660,189	-200,000	0,001	0,048
-659,174	-128,206	-0,090	-0,009
-658,159	800,000	0,027	-0,071
-657,145	-200,000	-0,034	-0,123
-656,130	17,868	-0,127	-0,073
-655,116	54,324	0,022	-0,015
-654,101	-200,000	0,014	0,102
-653,086	-51,257	0,049	0,017
-652,072	-200,000	-0,012	-0,140
-651,057	-200,000	0,001	-0,085
-650,043	269,835	0,034	-0,043
-649,028	198,070	0,146	0,162
-648,014	-74,187	-0,145	0,038
-646,999	-171,491	0,113	-0,003
-645,984	800,000	-0,033	0,067
-644,970	-200,000	-0,002	0,036
-643,955	444,403	-0,058	-0,093
-642,941	-200,000	0,002	-0,086
-641,926	-200,000	-0,005	0,044
-640,911	146,180	-0,060	-0,058
-639,897	-40,150	0,108	0,040
-638,882	189,461	0,102	0,111
-637,868	323,716	0,021	0,029
-636,853	-200,000	-0,015	-0,054
-635,838	60,729	-0,050	0,036
-634,824	600,316	-0,061	0,110
-633,809	-82,488	0,122	-0,028
-632,795	-18,187	0,053	-0,024
-631,780	800,000	-0,033	0,090
-630,765	800,000	-0,025	0,059
-629,751	98,612	-0,052	-0,043
-628,736	-200,000	-0,027	-0,139
-627,722	-67,474	-0,029	0,008
-626,707	-24,825	0,113	0,048
-625,692	443,305	-0,029	0,046
-624,678	50,084	-0,041	0,028
-623,663	-200,000	0,011	-0,050
-622,649	-79,614	-0,085	-0,020
-621,634	12,916	-0,126	0,070
-620,619	-152,284	-0,018	0,001
-619,605	122,137	-0,055	0,050
-618,590	800,000	0,013	-0,035
-617,576	190,902	-0,049	0,053
-616,561	241,906	-0,039	0,047
-615,546	-48,674	-0,119	0,041
-614,532	7,154	-0,151	-0,081
-613,517	52,320	0,067	-0,046
-612,503	163,037	-0,062	-0,062
-611,488	185,875	0,079	0,085
-610,474	-101,522	0,037	0,006
-609,459	544,143	-0,018	-0,031
-608,444	-168,699	-0,083	0,002
-607,430	16,277	-0,061	-0,035
-606,415	-200,000	-0,021	0,108
-605,401	369,166	0,067	-0,098
-604,386	154,713	-0,038	-0,038
-603,371	246,449	0,028	0,034
-602,357	-200,000	0,003	0,018
-601,342	-200,000	0,002	0,089
-600,328	58,991	0,116	-0,082
-599,313	-200,000	0,038	-0,280
-598,298	-200,000	-0,031	-0,108
-597,284	-200,000	0,010	-0,062
-596,269	-0,098	0,069	0,035
-595,255	800,000	0,018	0,051
-594,240	800,000	-0,054	0,118
-593,225	-29,215	-0,135	-0,055
-592,211	-115,318	0,086	0,012
-591,196	54,018	-0,085	-0,059
-590,182	-118,594	0,084	0,011
-589,167	800,000	-0,047	0,110
-588,152	623,369	-0,060	0,110
-587,138	-200,000	0,016	-0,067
-586,123	-200,000	-0,028	-0,161
-585,109	52,912	-0,126	-0,087
-584,094	141,633	-0,038	-0,037
-583,079	28,590	0,119	-0,073
-582,065	-108,319	0,059	0,009
-581,050	-200,000	0,003	0,186
-580,036	496,486	-0,084	0,139
-579,021	-108,934	0,037	-0,006
-578,006	-200,000	-0,019	-0,090
-576,992	-38,735	0,058	0,022
-575,977	800,000	-0,038	0,080
-574,963	800,000	-0,025	0,078
-573,948	-200,000	0,003	-0,013
-572,934	-200,000	-0,011	0,088
-571,919	-128,800	0,039	0,004
-570,904	-200,000	0,034	-0,107
-569,890	-9,713	-0,031	0,015
-568,875	-200,000	0,030	0,119
-567,861	55,930	0,133	0,093
-566,846	112,705	-0,054	-0,047
-565,831	800,000	-0,054	-0,143
-564,817	-125,807	-0,036	0,004
-563,802	278,298	0,012	-0,016
-562,788	-200,000	-0,007	-0,075
-561,773	-200,000	0,006	-0,053
-560,758	-5,750	-0,019	-0,009
-559,744	800,000	0,014	0,031
-558,729	-200,000	0,001	-0,108
-557,715	9,107	-0,114	-0,062
-556,700	377,656	0,023	-0,034
-555,685	26,867	-0,119	-0,071
-554,671	-17,169	-0,080	-0,036
-553,656	-200,000	-0,008	0,128
-552,642	250,264	-0,045	0,055
-551,627	-91,361	0,083	0,017
-550,612	800,000	-0,001	0,003
-549,598	-200,000	-0,004	-0,050
-548,583	-141,868	0,229	-0,016
-547,569	800,000	-0,008	-0,021
-546,554	-72,713	0,055	0,015
-545,539	22,995	0,066	0,039
-544,525	-40,183	-0,184	-0,068
-543,510	-200,000	0,006	-0,088
-542,496	176,722	-0,091	-0,095
-541,481	-200,000	-0,012	-0,117
-540,466	800,000	0,007	0,017
-539,452	-200,000	0,009	-0,037
-538,437	463,556	0,072	0,116
-537,423	23,829	0,046	-0,027
-536,408	-200,000	-0,000	-0,034
-535,393	192,587	-0,063	-0,069
-534,379	8,693	-0,219	-0,118
-533,364	-134,550	-0,053	0,005
-532,350	264,898	0,057	-0,072
-531,335	55,877	-0,023	0,016
-530,321	-200,000	-0,029	-0,169
-529,306	-200,000	-0,008	-0,050
-528,291	-200,000	-0,027	0,092
-527,277	38,452	-0,035	0,023
-526,262	-108,783	0,135	0,021
-525,248	207,456	-0,017	0,020
-524,233	30,221	0,038	-0,023
-523,218	-85,518	0,171	-0,038
-522,204	-110,913	-0,120	-0,018
-521,189	-55,111	-0,073	0,024
-520,175	-11,408	-0,045	0,021
-519,160	-200,000	-0,006	-0,044
-518,145	-189,002	0,135	-0,001
-517,131	-200,000	-0,013	0,051
-516,116	-200,000	-0,004	-0,128
-515,102	-200,000	-0,003	0,012
-514,087	61,392	-0,052	-0,037
-513,072	318,925	0,035	-0,048
-512,058	-63,306	0,134	-0,039
-511,043	-68,777	-0,122	0,034
-510,029	-200,000	-0,004	0,145
-509,014	132,148	-0,057	0,052
-507,999	-200,000	0,010	0,056
-506,985	800,000	-0,027	-0,054
-505,970	152,959	0,046	0,045
-504,956	-200,000	-0,035	-0,119
-503,941	-111,273	-0,086	0,012
-502,926	230,145	0,102	0,120
-501,912	165,756	0,036	0,037
-500,897	507,660	-0,015	-0,026
-499,883	250,223	-0,081	0,098
-498,868	-22,247	-0,018	-0,008
-497,853	-128,737	0,102	-0,010
-496,839	800,000	0,042	-0,111
-495,824	119,552	-0,107	-0,095
-494,810	87,427	-0,049	-0,039
-493,795	-200,000	-0,011	0,084
-492,781	800,000	0,041	0,115
-491,766	-41,963	0,108	0,040
-490,751	800,000	0,068	-0,149
-489,737	578,124	0,125	-0,220
-488,722	38,903	0,104	-0,067
-487,708	-98,123	0,083	0,015
-486,693	-70,382	-0,049	0,013
-485,678	800,000	-0,024	-0,058
-484,664	-56,457	0,066	-0,021
-483,649	-200,000	0,022	-0,117
-482,635	220,033	-0,073	0,085
-481,620	-200,000	-0,003	-0,014
-480,605	-21,900	-0,089	0,038
-479,591	-11,991	0,123	0,058
-478,576	800,000	0,024	-0,077
-477,562	-111,427	-0,167	0,024
-476,547	228,845	0,032	-0,038
-475,532	277,055	0,020	-0,026
-474,518	215,023	0,078	-0,089
-473,503	-200,000	-0,025	0,121
-472,489	407,428	-0,034	0,052
-471,474	-74,227	0,072	0,019
-470,459	-200,000	-0,028	-0,100
-469,445	358,173	-0,025	0,036
-468,430	800,000	0,029	0,071
-467,416	187,149	0,128	0,137
-466,401	38,222	-0,084	0,054
-465,386	-200,000	0,030	0,141
-464,372	-124,993	0,056	0,006
-463,357	-200,000	0,033	-0,137
-462,343	-69,678	-0,085	-0,023
-461,328	333,946	0,040	0,056
-460,313	560,534	0,035	-0,062
-459,299	800,000	0,062	0,130
-458,284	81,899	-0,074	0,058
-457,270	800,000	-0,042	0,117
-456,255	-200,000	0,038	-0,186
-455,241	2,157	-0,026	-0,014
-454,226	-114,218	-0,167	-0,023
-453,211	-88,236	-0,096	-0,020
-452,197	-100,068	0,066	-0,012
-451,182	-159,815	-0,010	0,000
-450,168	800,000	-0,027	0,060
-449,153	-121,326	-0,162	-0,019
-448,138	-76,536	-0,087	0,022
-447,124	12,785	0,108	-0,060
-446,109	800,000	0,020	0,062
-445,095	380,663	0,050	0,073
-444,080	10,484	0,126	0,069
-443,065	40,927	-0,078	0,050
-442,051	800,000	0,010	0,030
-441,036	-58,154	0,019	-0,006
-440,022	151,288	-0,023	0,022
-439,007	-200,000	0,003	0,039
-437,992	75,783	0,088	-0,066
-436,978	207,069	-0,033	-0,037
-435,963	-200,000	-0,029	0,115
-434,949	109,425	0,145	0,125
-433,934	-71,621	0,037	0,010
-432,919	-110,368	-0,138	-0,020
-431,905	-200,000	-0,029	-0,138
-430,890	175,167	-0,108	-0,112
-429,876	159,735	0,050	0,050
-428,861	800,000	0,028	0,057
-427,846	-200,000	-0,007	0,067
-426,832	354,141	-0,096	-0,137
-425,817	800,000	-0,025	0,063
-424,803	741,919	-0,056	0,109
-423,788	122,325	0,099	-0,089
-422,773	2,667	0,025	0,013
-421,759	-183,183	0,110	0,001
-420,744	800,000	-0,021	0,062
-419,730	-153,015	0,010	0,000
-418,715	-2,929	-0,033	-0,017
-417,701	-200,000	-0,013	-0,099
-416,686	8,529	0,003	-0,002
-415,671	-200,000	0,165	0,000
-414,657	105,037	-0,038	0,032
-413,642	800,000	-0,007	-0,015
-412,628	21,623	0,096	-0,056
-411,613	-99,454	-0,123	-0,022
-410,598	800,000	0,038	-0,086
-409,584	800,000	-0,017	0,049
-408,569	800,000	0,048	0,098
-407,555	47,978	-0,013	0,009
-406,540	-200,000	0,024	0,120
-405,525	-170,253	0,098	0,002
-404,511	-200,000	-0,032	0,147
-403,496	-69,241	-0,130	0,036
-402,482	-70,950	0,215	-0,058
-401,467	800,000	-0,066	0,157
-400,452	-81,154	0,023	0,005
-399,438	-200,000	-0,045	-0,160
-398,423	-40,649	-0,036	-0,013
-397,409	800,000	0,034	-0,096
-396,394	-200,000	0,000	-0,178
-395,379	-95,587	0,094	0,018
-394,365	-151,093	0,142	0,008
-393,350	541,847	-0,071	-0,121
-392,336	10,117	-0,143	0,077
-391,321	77,968	-0,051	-0,039
-390,306	-200,000	0,003	0,038
-389,292	236,405	0,064	0,076
-388,277	171,079	0,078	-0,080
-387,263	-200,000	-0,005	0,045
-386,248	-141,049	0,028	0,002
-385,233	800,000	0,068	0,145
-384,219	-103,125	-0,045	-0,008
-383,204	-200,000	-0,022	-0,116
-382,190	157,057	0,130	-0,128
-381,175	734,789	-0,056	-0,107
-380,160	102,188	-0,025	0,021
-379,146	-24,021	-0,105	0,045
-378,131	-25,457	0,085	-0,036
-377,117	800,000	-0,005	0,016
-376,102	-62,379	-0,224	-0,066
-375,088	-4,450	0,093	-0,046
-374,073	584,715	-0,054	-0,095
-373,058	800,000	0,038	-0,095
-372,044	-200,000	-0,003	0,064
-371,029	56,781	-0,068	0,047
-370,015	800,000	-0,040	0,106
-369,000	-74,585	-0,119	0,030
-367,985	355,995	0,031	0,044
-366,971	43,012	-0,045	-0,030
-365,956	-200,000	0,024	0,185
-364,942	800,000	-0,042	0,102
-363,927	-119,416	0,110	0,013
-362,912	429,659	0,075	-0,117
-361,898	351,056	-0,037	-0,052
-360,883	-200,000	-0,047	-0,154
-359,869	800,000	-0,064	-0,134
-358,854	-200,000	-0,027	-0,098
-357,839	135,622	-0,075	0,070
-356,825	287,795	0,055	0,072
-355,810	-200,000	-0,027	0,000
-354,796	-200,000	-0,011	0,061
-353,781	107,800	-0,068	-0,057
-352,766	-71,899	0,038	-0,010
-351,752	-27,307	0,091	-0,038
-350,737	264,459	-0,035	0,044
-349,723	-152,675	0,094	0,005
-348,708	-200,000	0,002	0,125
-347,693	-200,000	-0,024	-0,092
-346,679	800,000	0,022	-0,058
-345,664	176,726	-0,020	-0,021
-344,650	-113,709	-0,068	-0,009
-343,635	-67,195	0,105	-0,029
-342,620	-200,000	0,027	0,110
-341,606	84,287	-0,089	0,069
-340,591	513,655	0,032	-0,053
-339,577	-61,363	0,079	0,023
-338,562	-64,638	-0,079	0,023
-337,548	-200,000	-0,005	-0,046
-336,533	800,000	0,035	-0,090
-335,518	463,388	-0,029	-0,046
-334,504	26,471	-0,158	0,094
-333,489	-200,000	0,002	0,032
-332,475	219,514	0,083	-0,095
-331,460	-200,000	-0,016	-0,104
-330,445	256,654	0,040	0,049
-329,431	189,170	-0,048	0,052
-328,416	322,769	0,084	0,115
-327,402	-7,383	0,074	-0,036
-326,387	362,691	0,081	0,117
-325,372	-144,493	-0,182	0,012
-324,358	-200,000	0,007	0,072
-323,343	32,704	-0,068	-0,042
-322,329	-5,638	0,082	0,040
-321,314	800,000	0,038	0,085
-320,299	-200,000	0,001	-0,043
-319,285	-69,504	0,079	-0,021
-318,270	-156,148	-0,207	-0,009
-317,256	60,109	-0,068	-0,048
-316,241	5,805	0,045	0,024
-315,226	-24,033	0,143	0,061
-314,212	302,843	-0,048	0,064
-313,197	41,712	0,125	0,081
-312,183	58,133	0,077	0,054
-311,168	27,689	-0,076	0,046
-310,153	-200,000	0,011	-0,068
-309,139	-33,246	0,043	0,017
-308,124	-84,438	-0,075	0,017
-307,110	-107,914	0,173	-0,027
-306,095	800,000	0,073	0,158
-305,080	138,830	-0,044	0,041
-304,066	-23,764	-0,137	-0,058
-303,051	187,339	-0,016	-0,017
-302,037	121,764	-0,112	0,099
-301,022	588,954	0,015	0,026
-300,008	-125,034	0,104	-0,011
-298,993	118,488	-0,073	0,064
-297,978	372,461	0,092	0,134
-296,964	-49,635	0,111	0,037
-295,949	-200,000	-0,022	0,080
-294,935	283,271	-0,031	-0,040
-293,920	389,673	0,043	-0,064
-292,905	282,513	0,071	0,091
-291,891	-37,207	0,043	-0,016
-290,876	800,000	-0,093	0,238
-289,862	95,657	-0,125	0,101
-288,847	318,488	-0,076	-0,102
-287,832	-200,000	-0,012	-0,125
-286,818	800,000	-0,010	-0,023
-285,803	22,359	0,057	-0,033
-284,789	-200,000	0,044	-0,175
-283,774	-200,000	-0,004	-0,033
-282,759	97,142	-0,103	0,084
-281,745	-200,000	0,024	-0,123
-280,730	262,255	0,055	-0,068
-279,716	184,508	0,089	0,094
-278,701	310,101	-0,026	0,035
-277,686	17,570	-0,075	0,042
-276,672	-78,180	-0,172	0,042
-275,657	591,256	0,023	0,041
-274,643	800,000	-0,008	-0,016
-273,628	73,788	-0,162	-0,121
-272,613	-105,912	0,074	0,012
-271,599	-200,000	0,025	0,109
-270,584	-200,000	0,005	0,047
-269,570	173,987	-0,048	0,050
-268,555	-94,754	-0,066	-0,013
-267,540	-3,803	0,094	-0,046
-266,526	-200,000	0,017	-0,114
-265,511	158,925	0,020	0,020
-264,497	-200,000	-0,019	0,149
-263,482	30,752	0,098	0,060
-262,467	31,639	0,076	-0,046
-261,453	-121,634	0,074	0,009
-260,438	598,950	0,062	-0,110
-259,424	66,426	0,056	-0,041
-258,409	-117,568	-0,066	0,008
-257,395	184,528	0,020	0,021
-256,380	233,928	0,032	0,038
-255,365	-200,000	-0,023	0,105
-254,351	204,834	-0,035	-0,039
-253,336	800,000	-0,058	0,118
-252,322	-200,000	-0,018	0,119
-251,307	100,210	-0,127	-0,105
-250,292	-144,310	-0,019	-0,001
-249,278	36,473	-0,048	0,030
-248,263	420,924	-0,064	-0,097
-247,249	-142,753	0,154	-0,011
-246,234	357,131	-0,089	-0,126
-245,219	149,971	-0,058	0,056
-244,205	-200,000	0,010	0,070
-243,190	-114,059	0,039	0,005
-242,176	-200,000	-0,005	-0,051
-241,161	416,074	-0,047	0,071
-240,146	-200,000	0,013	0,095
-239,132	800,000	0,030	-0,078
-238,117	-12,347	0,061	-0,028
-237,103	-37,612	-0,122	0,046
-236,088	337,520	0,022	-0,031
-235,073	101,207	0,026	0,022
-234,059	800,000	0,028	-0,065
-233,044	-178,207	0,149	-0,002
-232,030	454,033	0,076	0,120
-231,015	4,503	-0,125	-0,065
-230,000	800,000	-0,042	0,101
-228,986	197,334	0,018	-0,019
-227,971	-115,957	0,015	0,002
-226,957	-135,291	0,119	-0,010
-225,942	-65,633	0,149	0,042
-224,927	108,564	-0,045	0,038
-223,913	362,717	-0,027	0,038
-222,898	606,156	-0,064	-0,115
-221,884	-200,000	-0,005	-0,065
-220,869	455,401	0,052	0,082
-219,855	-99,619	-0,121	-0,021
-218,840	115,256	0,042	0,037
-217,825	15,887	-0,160	-0,089
-216,811	-113,458	0,009	0,001
-215,796	-60,408	0,009	-0,003
-214,782	296,820	-0,094	0,123
-213,767	404,475	0,045	-0,068
-212,752	-120,362	0,152	-0,018
-211,738	63,821	0,018	0,013
-210,723	82,044	0,033	-0,025
-209,709	128,524	-0,087	-0,078
-208,694	89,138	0,093	-0,074
-207,679	-200,000	0,003	-0,065
-206,665	-59,498	0,072	-0,022
-205,650	268,493	-0,019	0,024
-204,636	88,489	-0,093	0,073
-203,621	800,000	-0,028	0,057
-202,606	-200,000	0,003	-0,095
-201,592	113,985	0,040	0,034
-200,577	800,000	0,028	-0,071
-199,563	473,311	0,031	0,050
-198,548	800,000	0,013	-0,038
-197,533	0,364	0,065	0,033
-196,519	-67,276	-0,101	-0,028
-195,504	-14,218	-0,052	0,023
-194,490	-65,705	-0,078	0,022
-193,475	-22,067	0,050	-0,021
-192,460	91,541	0,058	0,047
-191,446	-112,384	0,086	0,012
-190,431	344,576	0,095	-0,132
-189,417	181,799	0,054	0,056
-188,402	285,976	-0,057	-0,073
-187,387	-200,000	-0,000	-0,096
-186,373	347,202	0,095	-0,133
-185,358	106,274	-0,061	-0,051
-184,344	6,400	-0,096	0,050
-183,329	800,000	0,050	0,099
-182,315	355,377	-0,063	0,090
-181,300	-97,416	0,053	-0,010
-180,285	311,074	0,143	-0,190
-179,271	-200,000	0,034	-0,159
-178,256	533,418	-0,062	0,105
-177,242	142,076	-0,062	0,058
-176,227	-200,000	-0,006	0,113
-175,212	270,775	-0,025	-0,031
-174,198	22,877	-0,093	0,054
-173,183	-200,000	0,003	-0,145
-172,169	-153,480	-0,231	0,011
-171,154	-42,876	0,086	0,031
-170,139	-200,000	0,039	0,189
-169,125	-200,000	0,014	0,102
-168,110	-200,000	0,017	-0,117
-167,096	-200,000	-0,029	-0,159
-166,081	-172,134	-0,070	-0,002
-165,066	-28,839	-0,033	-0,013
-164,052	330,965	0,016	-0,022
-163,037	432,048	0,045	-0,069
-162,023	560,108	0,040	0,068
-161,008	800,000	-0,045	0,098
-159,993	-82,858	0,124	0,028
-158,979	800,000	0,046	-0,111
-157,964	-200,000	0,046	-0,205
-156,950	37,312	0,020	-0,012
-155,935	800,000	0,030	0,072
-154,920	-145,060	0,207	0,013
-153,906	65,034	0,101	0,072
-152,891	61,211	-0,094	0,066
-151,877	-35,259	-0,074	-0,029
-150,862	-116,824	-0,239	-0,031
-149,847	16,514	-0,124	0,069
-148,833	800,000	-0,013	0,037
-147,818	-61,189	0,115	-0,034
-146,804	800,000	0,041	0,086
-145,789	-91,113	-0,162	0,033
-144,775	-38,621	-0,028	0,010
-143,760	-200,000	0,002	-0,097
-142,745	800,000	-0,043	0,088
-141,731	-200,000	0,024	-0,109
-140,716	-98,250	-0,024	-0,004
-139,702	800,000	0,032	-0,067
-138,687	96,606	0,024	-0,019
-137,672	469,567	0,054	-0,087
-136,658	-200,000	0,008	-0,057
-135,643	-200,000	-0,005	0,117
-134,629	-21,431	-0,138	-0,059
-133,614	-44,319	0,083	0,029
-132,599	-200,000	-0,027	0,162
-131,585	-200,000	0,000	0,191
-130,570	-200,000	-0,029	-0,139
-129,556	-200,000	-0,009	-0,122
-128,541	-66,139	-0,080	-0,023
-127,526	38,571	0,060	-0,038
-126,512	205,880	0,024	0,026
-125,497	131,838	0,108	0,098
-124,483	-9,389	0,071	-0,034
-123,468	272,677	0,073	0,091
-122,453	-200,000	-0,016	0,118
-121,439	45,541	-0,019	-0,012
-120,424	794,019	0,070	-0,137
-119,410	402,617	-0,039	-0,059
-118,395	-168,248	0,055	-0,001
-117,380	35,805	0,118	0,073
-116,366	206,451	-0,053	0,058
-115,351	103,110	-0,065	-0,054
-114,337	131,350	0,072	-0,065
-113,322	-200,000	-0,037	-0,165
-112,307	375,381	0,022	-0,032
-111,293	290,219	-0,014	-0,018
-110,278	182,662	-0,042	-0,044
-109,264	701,300	0,064	0,119
-108,249	-98,605	-0,057	-0,010
-107,234	199,448	-0,106	-0,115
-106,220	-81,341	-0,037	0,008
-105,205	63,143	-0,051	0,036
-104,191	103,008	0,062	0,052
-103,176	-49,758	0,047	0,016
-102,162	149,504	0,011	-0,011
-101,147	15,734	-0,013	-0,007
-100,132	-200,000	-0,003	-0,086
-99,118	57,492	-0,098	-0,067
-98,103	45,714	0,070	-0,045
-97,089	-200,000	0,000	0,028
-96,074	275,733	0,098	0,123
-95,059	601,226	0,051	0,090
-94,045	-200,000	-0,022	0,110
-93,030	800,000	-0,039	-0,083
-92,016	-24,929	-0,101	-0,042
-91,001	54,802	0,022	-0,015
-89,986	-200,000	0,012	-0,062
-88,972	-200,000	0,151	0,000
-87,957	-200,000	-0,007	0,059
-86,943	392,865	-0,035	-0,052
-85,928	-200,000	-0,033	-0,201
-84,913	800,000	0,024	-0,056
-83,899	-200,000	-0,006	0,122
-82,884	85,904	0,103	0,080
-81,870	-126,754	-0,054	0,006
-80,855	3,984	-0,071	-0,036
-79,840	717,315	0,012	-0,023
-78,826	-11,121	-0,072	0,033
-77,811	-65,592	-0,184	-0,052
-76,797	28,898	-0,097	0,058
-75,782	-200,000	0,044	-0,183
-74,767	800,000	-0,045	0,097
-73,753	738,974	0,078	0,148
-72,738	149,564	0,020	0,019
-71,724	800,000	0,041	0,110
-70,709	-114,112	0,073	-0,010
-69,694	36,682	-0,170	-0,106
-68,680	-86,840	0,075	-0,016
-67,665	800,000	-0,037	0,079
-66,651	-13,053	-0,130	-0,059
-65,636	7,445	-0,142	0,075
-64,622	-78,233	0,065	-0,016
-63,607	-200,000	-0,001	-0,062
-62,592	55,187	0,080	-0,054
-61,578	782,663	0,042	0,081
-60,563	800,000	0,067	0,137
-59,549	338,954	-0,073	0,100
-58,534	49,919	-2,154	-1,431
-57,519	406,127	-1,198	-1,790
-56,505	-200,000	-0,125	-4,212
-55,490	800,000	0,857	1,828
-54,476	800,000	5,207	11,254
-53,461	-200,000	21,976	340,013
-52,446	800,000	756,939	2296,293
-51,432	534,181	1648,361	2767,003
-50,417	68,799	1646,937	1191,654
-49,403	16,220	1522,201	844,749
-48,388	10,422	1446,953	775,132
-47,373	19,111	1438,822	812,156
-46,359	13,873	1427,706	781,119
-45,344	8,749	1423,732	754,677
-44,330	8,733	1421,774	753,530
-43,315	8,682	1420,038	752,342
-42,300	8,674	1418,320	751,363
-41,286	8,702	1416,848	750,687
-40,271	8,612	1415,807	749,682
-39,257	8,692	1414,479	749,326
-38,242	8,701	1413,418	748,775
-37,227	8,745	1412,259	748,336
-36,213	8,708	1410,760	747,339
-35,198	8,731	1409,631	746,820
-34,184	8,761	1408,837	746,509
-33,169	8,626	1407,567	745,176
-32,154	8,643	1406,556	744,689
-31,140	8,706	1405,141	744,205
-30,125	8,694	1404,067	743,550
-29,111	8,651	1403,155	742,839
-28,096	8,666	1401,815	742,167
-27,082	8,619	1400,657	741,308
-26,067	8,591	1399,504	740,536
-25,052	8,643	1398,564	740,255
-24,038	8,653	1397,541	739,729
-23,023	8,621	1396,546	739,023
-22,009	8,659	1395,298	738,509
-20,994	8,606	1394,444	737,785
-19,979	8,611	1393,609	737,336
-18,965	8,588	1392,564	736,648
-17,950	8,580	1391,578	736,058
-16,936	8,547	1390,911	735,524
-15,921	8,518	1389,927	734,839
-14,906	8,553	1388,725	734,335
-13,892	8,589	1387,606	733,883
-12,877	8,583	1387,179	733,598
-11,863	8,545	1386,398	732,983
-10,848	8,529	1385,546	732,428
-9,833	8,480	1384,438	731,588
-8,819	8,455	1383,658	731,032
-7,804	8,459	1382,745	730,542
-6,790	8,448	1381,580	729,847
-5,775	8,447	1380,709	729,350
-4,760	8,460	1379,702	728,850
-3,746	8,478	1378,775	728,415
-2,731	8,513	1377,660	727,956
-1,717	8,479	1377,089	727,468
-0,702	8,495	1375,190	726,509
0,313	12,502	1287,185	698,193
1,327	28,461	680,446	404,805
2,342	44,824	117,111	75,858
3,356	3,840	16,535	8,489
4,371	2,939	3,843	1,962
5,386	-29,384	1,313	0,527
6,400	-200,000	0,183	0,657
7,415	-70,947	-0,244	-0,064
8,429	90,840	-0,165	-0,131
9,444	168,415	-0,274	-0,275
10,459	-74,750	-0,101	-0,025
11,473	-16,877	-0,309	-0,137
12,488	679,349	-0,105	-0,193
13,502	217,791	-0,293	-0,329
14,517	-51,155	-0,386	-0,127
15,531	-23,726	-0,428	-0,180
16,546	0,924	-0,326	-0,164
17,561	312,441	-0,239	-0,316
18,575	191,434	-0,106	-0,113
19,590	97,848	-0,212	-0,172
20,604	43,612	-0,162	-0,104
21,619	85,211	-0,391	-0,302
22,634	-24,319	-0,512	-0,214
23,648	121,487	-0,317	-0,278
24,663	129,524	-0,282	-0,254
25,677	171,602	-0,336	-0,339
26,692	145,133	-0,183	-0,173
27,707	115,774	-0,336	-0,289
28,721	168,342	-0,335	-0,336
29,736	259,069	-0,302	-0,367
30,750	99,919	-0,365	-0,297
31,765	32,755	-0,353	-0,214
32,780	160,035	-0,369	-0,362
33,794	6,267	-0,268	-0,139
34,809	76,762	-0,281	-0,210
35,823	5,558	-0,336	-0,174
36,838	162,493	-0,322	-0,318
37,853	159,241	-0,380	-0,372
38,867	90,079	-0,376	-0,295
39,882	95,672	-0,312	-0,250
40,896	46,461	-0,284	-0,185
41,911	28,047	-0,371	-0,219
42,926	-49,734	-0,280	-0,093
43,940	2,636	-0,385	-0,195
44,955	24,636	-0,329	-0,191
45,969	73,760	-0,408	-0,300
46,984	19,152	-0,339	-0,190
47,999	30,617	-0,275	-0,165
49,013	38,716	-0,337	-0,211
50,028	-63,424	-0,244	-0,070
51,042	198,948	-0,262	-0,282
52,057	-0,906	-0,519	-0,257
53,071	87,615	-0,246	-0,191
54,086	-91,747	-0,293	-0,058
55,101	104,895	-0,290	-0,240
56,115	30,030	-0,364	-0,217
57,130	-1,597	-0,291	-0,144
58,144	217,519	-0,260	-0,291
59,159	37,208	-0,432	-0,268
60,174	137,057	-0,270	-0,247
61,188	81,581	-0,263	-0,200
62,203	277,415	-0,255	-0,318
63,217	22,111	-0,378	-0,216
64,232	5,704	-0,284	-0,147
65,247	503,043	-0,203	-0,331
66,261	-34,941	-0,595	-0,227
67,276	323,573	-0,232	-0,311
68,290	76,291	-0,365	-0,271
69,305	18,748	-0,410	-0,229
70,320	0,694	-0,375	-0,188
71,334	800,000	-0,108	-0,252
72,349	-54,252	-0,202	-0,064
73,363	-79,961	-0,300	-0,070
74,378	337,944	-0,207	-0,283
75,393	43,751	-0,407	-0,261
76,407	75,749	-0,312	-0,231
77,422	-13,473	-0,255	-0,115
78,436	19,505	-0,183	-0,103
79,451	341,436	-0,201	-0,277
80,466	-148,479	-0,395	0,022
81,480	-60,844	-0,409	-0,120
82,495	-15,301	-0,262	-0,117
83,509	67,352	-0,320	-0,228
84,524	-99,595	-0,247	-0,043
85,539	489,531	-0,105	-0,168
86,553	-44,252	-0,227	-0,079
87,568	76,779	-0,400	-0,297
88,582	4,215	-0,219	-0,112
89,597	-65,375	-0,306	-0,086
90,611	26,834	-0,180	-0,105
91,626	89,571	-0,240	-0,188
92,641	-19,922	-0,311	-0,134
93,655	-44,193	-0,287	0,100
94,670	76,632	-0,260	-0,193
95,684	84,918	-0,245	-0,188
96,699	147,998	-0,212	-0,200
97,714	69,676	-0,204	-0,147
98,728	-103,405	-0,149	0,024
99,743	144,785	-0,233	-0,217
100,757	-9,455	-0,217	-0,101
101,772	-11,168	-0,313	-0,144
102,787	40,626	-0,175	-0,110
103,801	123,993	-0,215	-0,189
104,816	162,462	-0,277	-0,272
105,830	-200,000	-0,006	-0,245
106,845	-120,418	-0,324	-0,038
107,860	-59,242	-0,179	-0,053
108,874	175,478	-0,104	-0,105
109,889	-15,674	-0,320	-0,142
110,903	141,505	-0,239	-0,221
111,918	38,680	-0,296	-0,184
112,933	-154,275	-0,305	-0,014
113,947	68,736	-0,213	-0,153
114,962	-17,609	-0,291	-0,127
115,976	17,313	-0,329	-0,182
116,991	-47,995	-0,278	-0,093
118,006	106,812	-0,275	-0,228
119,020	77,614	-0,292	-0,217
120,035	221,298	-0,180	-0,202
121,049	-200,000	-0,046	-0,156
122,064	13,493	-0,312	-0,168
123,079	-2,529	-0,298	-0,145
124,093	-25,320	-0,332	-0,136
125,108	-150,976	-0,252	-0,013
126,122	-69,166	-0,237	-0,063
127,137	107,450	-0,158	-0,131
128,151	87,951	-0,222	-0,171
129,166	340,091	-0,133	-0,182
130,181	-12,715	-0,253	-0,115
131,195	-16,420	-0,286	-0,126
132,210	30,315	-0,241	-0,143
133,224	44,446	-0,209	-0,134
134,239	-45,361	-0,244	-0,084
135,254	64,110	-0,154	-0,108
136,268	-17,263	-0,214	-0,094
137,283	8,864	-0,154	-0,081
138,297	122,411	-0,188	-0,164
139,312	-12,274	-0,287	-0,130
140,327	239,726	-0,236	-0,275
141,341	45,511	-0,264	-0,169
142,356	17,819	-0,343	-0,190
143,370	13,799	-0,209	-0,113
144,385	-15,589	-0,267	-0,118
145,400	23,495	-0,284	-0,162
146,414	800,000	-0,170	-0,332
147,429	426,453	-0,140	-0,211
148,443	18,815	-0,194	-0,108
149,458	89,797	-0,180	-0,140
150,473	-200,000	0,002	-0,050
151,487	-43,991	-0,200	-0,070
152,502	83,133	-0,275	-0,208
153,516	-13,209	-0,251	-0,113
154,531	25,734	-0,275	-0,159
155,546	-192,580	-0,198	0,001
156,560	317,611	-0,192	-0,253
157,575	501,318	-0,069	-0,111
158,589	-73,983	-0,208	-0,052
159,604	74,271	-0,244	-0,178
160,619	40,835	-0,274	-0,172
161,633	67,133	-0,304	-0,215
162,648	0,159	-0,318	-0,157
163,662	117,841	-0,053	-0,046
164,677	114,516	-0,144	-0,122
165,692	156,000	-0,140	-0,134
166,706	-32,791	-0,362	-0,139
167,721	151,950	-0,188	-0,178
168,735	528,561	-0,180	-0,296
169,750	52,365	-0,306	-0,202
170,764	111,063	-0,112	-0,094
171,779	-63,945	-0,206	-0,058
172,794	57,605	-0,202	-0,137
173,808	-33,276	-0,259	-0,099
174,823	800,000	-0,103	-0,277
175,837	147,076	-0,272	-0,254
176,852	162,210	-0,213	-0,207
177,867	470,181	-0,127	-0,199
178,881	-2,143	-0,225	-0,109
179,896	-98,644	-0,284	-0,050
180,910	101,545	-0,212	-0,172
181,925	48,949	-0,187	-0,122
182,940	9,427	-0,219	-0,115
183,954	730,948	-0,135	-0,251
184,969	183,557	-0,161	-0,166
185,983	753,281	-0,067	-0,127
186,998	550,872	-0,068	-0,114
188,013	85,648	-0,167	-0,127
189,027	24,004	-0,274	-0,156
190,042	107,596	-0,247	-0,204
191,056	113,471	-0,232	-0,195
192,071	-72,327	-0,229	-0,058
193,086	-98,999	-0,205	0,036
194,100	-38,822	-0,294	-0,107
195,115	26,030	-0,204	-0,118
196,129	9,276	-0,231	-0,121
197,144	10,381	-0,265	-0,139
198,159	100,844	-0,208	-0,168
199,173	459,735	-0,099	-0,153
200,188	232,973	-0,173	-0,198
201,202	222,012	-0,083	-0,092
202,217	173,111	-0,148	-0,148
203,232	363,496	-0,099	-0,138
204,246	343,778	-0,115	-0,157
205,261	-35,817	-0,203	-0,076
206,275	32,791	-0,202	-0,121
207,290	-129,590	-0,218	-0,021
208,304	-86,865	-0,121	0,025
209,319	130,796	-0,247	-0,219
210,334	33,605	-0,143	-0,086
211,348	21,455	-0,278	-0,156
212,363	318,798	-0,127	-0,167
213,377	5,637	-0,211	-0,108
214,392	-149,806	-0,213	0,011
215,407	-146,278	-0,111	0,007
216,421	417,604	-0,198	-0,294
217,436	-200,000	0,004	-0,059
218,450	-66,229	-0,244	-0,067
219,465	368,904	-0,151	-0,212
220,480	519,219	-0,135	-0,219
221,494	91,464	-0,103	-0,080
222,509	-144,596	-0,125	-0,008
223,523	-200,000	-0,022	-0,093
224,538	102,512	-0,159	-0,128
225,553	371,285	-0,114	-0,160
226,567	-72,660	-0,259	-0,066
227,582	267,849	-0,162	-0,196
228,596	-120,664	-0,134	0,015
229,611	151,122	-0,150	-0,141
230,626	800,000	-0,057	-0,141
231,640	259,753	-0,209	-0,249
232,655	493,896	-0,132	-0,210
233,669	-6,267	-0,146	-0,069
234,684	85,167	-0,212	-0,161
235,699	269,457	-0,103	-0,125
236,713	-103,363	-0,152	-0,025
237,728	97,639	-0,167	-0,133
238,742	-12,928	-0,262	-0,117
239,757	-37,063	-0,255	-0,094
240,772	-106,658	-0,142	-0,022
241,786	85,837	-0,191	-0,145
242,801	743,203	-0,136	-0,254
243,815	485,296	-0,177	-0,279
244,830	195,946	-0,077	-0,081
245,844	-109,477	-0,238	-0,034
246,859	10,434	-0,250	-0,131
247,874	59,019	-0,203	-0,138
248,888	504,640	-0,115	-0,184
249,903	-90,801	-0,189	-0,037
250,917	23,207	-0,164	-0,093
251,932	-200,000	-0,039	-0,222
252,947	75,819	-0,174	-0,127
253,961	800,000	-0,039	-0,116
254,976	-18,639	-0,241	-0,103
255,990	49,684	-0,308	-0,200
257,005	258,412	-0,118	-0,141
258,020	8,847	0,047	0,024
259,034	88,891	-0,115	-0,089
260,049	140,337	-0,165	-0,150
261,063	-34,906	-0,199	-0,074
262,078	73,575	-0,174	-0,125
263,093	-200,000	-0,029	-0,112
264,107	800,000	-0,103	-0,219
265,122	800,000	-0,031	-0,071
266,136	133,974	-0,116	-0,103
267,151	-35,244	-0,203	-0,076
268,166	84,906	-0,054	-0,041
269,180	164,475	-0,211	-0,205
270,195	466,397	-0,146	-0,226
271,209	14,614	-0,195	-0,104
272,224	90,349	-0,139	-0,107
273,239	189,845	-0,160	-0,166
274,253	-6,025	-0,203	-0,095
275,268	58,340	-0,193	-0,130
276,282	109,088	-0,145	-0,119
277,297	255,323	-0,221	-0,261
278,312	441,081	-0,086	-0,130
279,326	-140,486	-0,180	-0,013
280,341	6,636	-0,316	-0,161
281,355	-165,703	-0,050	-0,001
282,370	684,933	-0,158	-0,285
283,384	-200,000	-0,067	-0,226
284,399	800,000	-0,061	-0,137
285,414	119,454	-0,139	-0,119
286,428	642,952	-0,086	-0,152
287,443	-200,000	-0,042	-0,163
288,457	642,986	-0,153	-0,270
289,472	146,961	-0,081	-0,075
290,487	262,175	-0,197	-0,235
291,501	216,240	-0,153	-0,167
292,516	-99,684	-0,252	0,043
293,530	139,152	-0,241	-0,218
294,545	104,915	-0,140	-0,113
295,560	150,767	-0,110	-0,103
296,574	-123,175	-0,216	-0,023
297,589	-171,759	-0,301	-0,007
298,603	4,151	-0,169	-0,085
299,618	-200,000	-0,023	-0,091
300,633	800,000	-0,115	-0,254
301,647	800,000	-0,075	-0,161
302,662	800,000	0,047	-0,091
303,676	49,444	-0,167	-0,108
304,691	54,411	-0,233	-0,154
305,706	7,612	-0,212	-0,109
306,720	-53,574	-0,197	-0,062
307,735	-17,791	-0,055	-0,023
308,749	-21,168	-0,130	-0,054
309,764	-99,104	-0,089	-0,015
310,779	128,779	-0,120	-0,105
311,793	97,315	-0,138	-0,108
312,808	-71,974	-0,204	-0,052
313,822	-1,270	-0,255	-0,123
314,837	16,749	-0,192	-0,104
315,852	-22,285	-0,130	-0,054
316,866	169,279	-0,143	-0,141
317,881	540,385	-0,122	-0,200
318,895	527,954	-0,118	-0,191
319,910	-151,412	-0,107	-0,005
320,925	800,000	-0,079	-0,182
321,939	-43,893	-0,131	-0,045
322,954	6,296	-0,117	0,060
323,968	123,353	-0,151	-0,130
324,983	-42,792	-0,109	-0,038
325,997	65,925	-0,114	-0,079
327,012	235,398	-0,147	-0,167
328,027	-31,147	-0,177	-0,068
329,041	800,000	-0,069	-0,192
330,056	41,128	-0,141	-0,087
331,070	450,243	-0,080	-0,121
332,085	25,047	-0,110	-0,062
333,100	711,422	-0,130	-0,236
334,114	311,522	-0,102	-0,132
335,129	-85,984	-0,133	-0,028
336,143	-111,802	-0,108	-0,015
337,158	2,940	-0,121	-0,060
338,173	-124,977	-0,171	-0,018
339,187	233,748	-0,021	-0,024
340,202	-101,205	-0,116	-0,019
341,216	301,432	-0,145	-0,183
342,231	106,463	-0,134	-0,108
343,246	-3,010	-0,105	-0,050
344,260	159,959	-0,087	-0,083
345,275	550,300	-0,087	-0,144
346,289	3,583	-0,160	0,079
347,304	-93,265	-0,172	-0,032
348,319	-200,000	-0,056	-0,197
349,333	-48,789	-0,199	-0,065
350,348	-53,726	-0,238	-0,074
351,362	-129,497	-0,064	-0,006
352,377	586,717	-0,067	-0,113
353,392	512,408	-0,076	-0,122
354,406	-0,638	-0,172	-0,083
355,421	206,698	1306,755	1393,517
356,435	158,978	1466,470	1393,990
