DTS Sentinel unit serial number:	SN410029Multiplexer serial number:	ORYXHardware model number:	OX2-SRSoftware version number:	ORYX F/W v4,00 Oryx Data Collector v3.7.2.0data status	okinstallation	B3 Nyhavnadifferential loss correction	single-endedforward channel	channel 1reverse channel	N/Adate	2023/12/04time	02:47:30forward acquisition time	300,00reverse acquisition time	0,00gamma	499,1914k internal	0,3205k external	0,3205temperature offset calibration	1,0000default loss term (dB/km)	0,3820temperature slope calibration	1,0000multiplexer offset coefficient	1,0000multiplexer slope coefficient	1,0000fibre end	0,00T internal ref (°C)	12,23T ext. ref 1 (°C)	-2,91T ext. ref 2 (°C)	-2,94length (m)	temperature (°C)	Stokes	anti-Stokes-744,400	253,146	-0,213	-0,265
-743,385	-200,000	0,007	0,266
-742,371	216,553	-0,126	-0,146
-741,356	-200,000	0,053	0,320
-740,342	800,000	-0,117	-0,276
-739,327	800,000	-0,066	0,178
-738,312	245,322	-0,237	-0,290
-737,298	800,000	0,106	0,254
-736,283	99,625	-0,239	-0,201
-735,269	503,635	-0,178	0,300
-734,254	32,741	-0,151	-0,095
-733,239	96,521	-0,042	0,035
-732,225	338,670	-0,150	-0,213
-731,210	-200,000	-0,006	0,062
-730,196	-134,537	0,062	0,005
-729,181	1,194	-0,010	-0,005
-728,167	-200,000	-0,001	-0,057
-727,152	422,102	0,043	0,067
-726,137	-31,072	-0,058	0,024
-725,123	-200,000	-0,027	-0,182
-724,108	22,371	-0,113	-0,067
-723,094	-200,000	0,018	-0,124
-722,079	-200,000	-0,022	-0,111
-721,064	21,919	0,049	0,029
-720,050	19,610	-0,072	-0,042
-719,035	-195,745	0,108	0,001
-718,021	-163,392	-0,054	0,002
-717,006	625,917	-0,081	-0,149
-715,991	314,320	0,026	-0,035
-714,977	-200,000	0,025	-0,148
-713,962	-11,378	0,037	-0,017
-712,948	-85,401	-0,029	-0,006
-711,933	-123,175	-0,105	0,012
-710,918	114,359	-0,068	-0,060
-709,904	800,000	0,024	-0,066
-708,889	-200,000	-0,042	-0,185
-707,875	-200,000	0,002	-0,074
-706,860	505,721	-0,089	-0,149
-705,845	-109,095	0,187	-0,029
-704,831	-55,670	0,136	0,044
-703,816	114,373	-0,054	-0,048
-702,802	330,875	0,025	0,036
-701,787	-200,000	0,047	-0,158
-700,772	800,000	-0,011	-0,036
-699,758	703,697	0,088	0,169
-698,743	101,695	0,080	-0,068
-697,729	-200,000	-0,001	-0,009
-696,714	800,000	0,028	0,067
-695,699	800,000	-0,021	-0,066
-694,685	141,242	-0,121	-0,117
-693,670	800,000	-0,012	-0,032
-692,656	-127,159	0,103	-0,011
-691,641	221,925	-0,043	0,051
-690,627	-200,000	-0,019	0,082
-689,612	-172,373	0,105	0,002
-688,597	-200,000	0,009	-0,034
-687,583	-200,000	0,013	0,096
-686,568	-200,000	-0,008	-0,168
-685,554	-138,282	0,022	0,002
-684,539	-200,000	0,015	0,273
-683,524	-112,823	0,115	0,016
-682,510	-78,733	-0,114	0,028
-681,495	-200,000	-0,007	0,023
-680,481	-97,234	-0,149	0,028
-679,466	-145,204	-0,028	0,002
-678,451	289,370	-0,020	-0,026
-677,437	-200,000	-0,028	-0,139
-676,422	61,427	0,008	-0,006
-675,408	-200,000	-0,013	0,085
-674,393	-200,000	-0,005	0,109
-673,378	176,794	-0,097	-0,102
-672,364	489,913	-0,045	0,075
-671,349	31,591	-0,194	-0,121
-670,335	346,350	0,021	0,031
-669,320	89,268	0,012	-0,010
-668,305	800,000	-0,031	0,070
-667,291	-24,367	0,074	0,032
-666,276	-69,320	-0,157	-0,043
-665,262	159,906	-0,090	-0,091
-664,247	757,462	0,064	-0,125
-663,232	-59,259	-0,166	-0,051
-662,218	193,271	0,122	-0,134
-661,203	73,397	-0,037	0,028
-660,189	-200,000	-0,029	0,094
-659,174	-12,490	0,082	0,039
-658,159	399,277	-0,098	-0,149
-657,145	253,851	-0,029	-0,036
-656,130	49,811	-0,026	-0,017
-655,116	-200,000	-0,018	-0,135
-654,101	-44,507	0,173	-0,062
-653,086	800,000	-0,074	-0,188
-652,072	678,269	-0,031	0,059
-651,057	528,818	-0,108	-0,185
-650,043	203,078	0,132	-0,148
-649,028	-200,000	0,016	-0,088
-648,014	415,137	0,053	0,082
-646,999	-119,617	-0,056	-0,007
-645,984	800,000	0,070	0,161
-644,970	-57,388	-0,086	0,027
-643,955	196,310	0,065	0,072
-642,941	32,378	-0,136	0,085
-641,926	-94,599	-0,077	-0,015
-640,911	-48,954	0,041	0,014
-639,897	800,000	0,040	-0,083
-638,882	-14,600	-0,068	-0,031
-637,868	287,295	-0,131	0,171
-636,853	274,560	-0,056	-0,071
-635,838	34,956	-0,038	-0,024
-634,824	-16,371	0,067	0,031
-633,809	800,000	-0,064	-0,135
-632,795	319,594	0,056	0,077
-631,780	-59,572	0,055	-0,017
-630,765	8,744	0,044	-0,024
-629,751	-35,039	-0,147	-0,058
-628,736	800,000	0,106	-0,251
-627,722	-200,000	-0,011	0,071
-626,707	-140,971	0,062	0,005
-625,692	-40,795	0,027	0,010
-624,678	800,000	0,018	0,041
-623,663	-200,000	-0,007	0,056
-622,649	-59,968	-0,054	0,017
-621,634	800,000	0,001	-0,004
-620,619	3,589	0,119	-0,063
-619,605	41,958	0,065	0,042
-618,590	-200,000	-0,013	0,046
-617,576	-91,680	-0,070	-0,014
-616,561	76,552	-0,074	0,056
-615,546	-200,000	0,003	0,114
-614,532	-2,649	0,114	-0,058
-613,517	-138,526	0,090	-0,007
-612,503	16,427	-0,061	0,035
-611,488	800,000	0,023	-0,068
-610,474	474,185	0,060	-0,099
-609,459	-102,272	-0,064	-0,011
-608,444	166,668	-0,102	-0,105
-607,430	-87,880	-0,194	-0,042
-606,415	-74,461	-0,059	-0,015
-605,401	-66,931	0,064	0,018
-604,386	-110,116	0,065	0,010
-603,371	634,404	-0,059	0,109
-602,357	800,000	0,018	-0,052
-601,342	276,059	-0,163	-0,209
-600,328	800,000	0,012	-0,036
-599,313	-200,000	-0,001	-0,196
-598,298	-54,979	-0,066	-0,021
-597,284	800,000	-0,090	0,238
-596,269	-200,000	0,005	-0,037
-595,255	625,337	0,036	0,067
-594,240	109,916	0,056	-0,048
-593,225	174,799	-0,093	-0,097
-592,211	462,546	-0,069	-0,111
-591,196	40,823	0,092	-0,060
-590,182	78,751	0,116	0,090
-589,167	-58,081	0,016	-0,005
-588,152	-174,441	0,080	0,002
-587,138	-21,199	-0,015	-0,007
-586,123	142,378	-0,055	-0,052
-585,109	565,681	-0,042	-0,073
-584,094	252,184	0,116	-0,143
-583,079	436,832	-0,011	-0,017
-582,065	-200,000	0,013	-0,130
-581,050	-113,616	0,042	-0,006
-580,036	14,398	-0,108	-0,061
-579,021	-200,000	-0,007	-0,030
-578,006	245,393	-0,046	-0,056
-576,992	-170,722	0,067	0,002
-575,977	78,466	-0,158	-0,121
-574,963	-95,490	0,025	0,005
-573,948	-167,130	-0,023	0,001
-572,934	236,992	-0,066	-0,079
-571,919	-200,000	-0,034	-0,170
-570,904	-171,016	0,085	-0,002
-569,890	260,492	0,030	0,038
-568,875	-158,851	0,168	-0,007
-567,861	-139,671	-0,144	-0,011
-566,846	800,000	-0,026	0,074
-565,831	-8,097	0,132	0,064
-564,817	-200,000	-0,011	-0,035
-563,802	-54,963	-0,057	-0,018
-562,788	-200,000	-0,013	-0,048
-561,773	-174,162	0,142	0,003
-560,758	-200,000	-0,001	0,093
-559,744	-100,076	-0,119	-0,021
-558,729	-115,385	-0,074	0,010
-557,715	-200,000	0,029	0,119
-556,700	-97,497	-0,102	-0,019
-555,685	-200,000	-0,008	0,071
-554,671	-25,766	0,035	0,015
-553,656	572,016	0,028	-0,050
-552,642	111,720	0,066	0,057
-551,627	-200,000	-0,028	-0,131
-550,612	-161,523	0,104	0,004
-549,598	368,673	-0,107	-0,157
-548,583	56,312	0,078	-0,055
-547,569	41,835	-0,091	-0,059
-546,554	-200,000	0,042	0,147
-545,539	-87,029	-0,092	0,020
-544,525	507,541	0,031	-0,052
-543,510	-106,110	-0,141	-0,023
-542,496	443,551	0,079	-0,125
-541,481	112,718	-0,108	-0,095
-540,466	309,878	0,069	0,093
-539,452	-200,000	0,009	0,178
-538,437	51,237	0,076	-0,052
-537,423	-97,253	-0,079	0,015
-536,408	-200,000	0,012	-0,086
-535,393	-75,320	-0,173	-0,044
-534,379	-78,691	-0,114	-0,028
-533,364	136,198	0,104	-0,098
-532,350	192,654	-0,048	0,052
-531,335	-55,336	0,016	-0,005
-530,321	-27,172	0,049	-0,021
-529,306	88,778	-0,057	0,046
-528,291	320,966	-0,017	0,023
-527,277	-113,027	0,081	0,011
-526,262	800,000	0,073	0,191
-525,248	-200,000	-0,011	-0,061
-524,233	-200,000	0,017	0,075
-523,218	800,000	0,087	-0,178
-522,204	-200,000	-0,001	0,015
-521,189	-200,000	0,027	0,093
-520,175	-200,000	-0,042	-0,144
-519,160	-5,624	-0,081	-0,040
-518,145	-109,590	-0,132	0,020
-517,131	0,683	0,034	-0,018
-516,116	-200,000	-0,005	0,027
-515,102	-200,000	0,007	0,065
-514,087	-15,732	0,035	-0,016
-513,072	80,208	0,060	-0,046
-512,058	-200,000	0,007	0,070
-511,043	37,608	0,068	-0,043
-510,029	268,065	0,019	-0,024
-509,014	-121,468	0,166	0,020
-507,999	22,014	0,023	0,013
-506,985	23,387	-0,093	0,055
-505,970	58,961	-0,030	-0,021
-504,956	-200,000	-0,011	0,105
-503,941	-2,417	-0,153	-0,077
-502,926	163,548	0,015	0,015
-501,912	-44,705	0,054	-0,019
-500,897	173,516	-0,067	0,070
-499,883	-200,000	-0,001	0,063
-498,868	-106,002	-0,058	0,009
-497,853	23,628	-0,104	-0,061
-496,839	-200,000	-0,002	0,089
-495,824	711,115	0,065	-0,125
-494,810	800,000	-0,039	0,079
-493,795	-63,083	-0,096	-0,028
-492,781	282,782	-0,023	0,030
-491,766	-200,000	0,012	0,085
-490,751	791,343	-0,046	0,092
-489,737	-200,000	-0,022	-0,144
-488,722	78,492	0,034	0,026
-487,708	97,381	0,050	0,041
-486,693	-200,000	0,027	0,110
-485,678	-200,000	-0,001	-0,032
-484,664	-200,000	-0,007	0,035
-483,649	717,884	0,023	0,045
-482,635	800,000	0,057	-0,163
-481,620	4,927	-0,039	-0,021
-480,605	-26,412	-0,084	-0,035
-479,591	78,147	-0,035	0,027
-478,576	-145,065	-0,054	-0,003
-477,562	-35,539	-0,109	-0,042
-476,547	-97,249	-0,046	-0,009
-475,532	-200,000	-0,036	0,126
-474,518	-200,000	-0,018	0,156
-473,503	-63,526	0,131	0,038
-472,489	1,765	0,108	-0,056
-471,474	800,000	0,008	0,026
-470,459	-77,941	-0,180	0,044
-469,445	-130,034	-0,170	0,017
-468,430	-75,055	0,071	0,018
-467,416	162,312	0,093	0,094
-466,401	-200,000	0,006	0,053
-465,386	-200,000	-0,011	0,105
-464,372	800,000	-0,051	0,128
-463,357	-200,000	-0,040	0,131
-462,343	557,590	-0,053	-0,093
-461,328	-27,741	-0,126	0,052
-460,313	-200,000	-0,020	-0,091
-459,299	12,854	-0,070	0,039
-458,284	-66,841	0,038	-0,011
-457,270	-200,000	0,018	0,075
-456,255	-39,443	-0,074	-0,028
-455,241	800,000	-0,053	-0,116
-454,226	13,323	-0,053	0,029
-453,211	308,184	0,090	0,121
-452,197	800,000	0,031	0,097
-451,182	45,712	-0,059	-0,039
-450,168	-200,000	0,031	0,114
-449,153	225,510	-0,088	0,103
-448,138	13,719	0,060	-0,033
-447,124	-69,625	0,093	0,025
-446,109	-45,798	0,114	0,040
-445,095	-200,000	0,021	0,223
-444,080	-200,000	0,021	0,069
-443,065	557,119	0,064	0,111
-442,051	-166,052	-0,047	-0,001
-441,036	125,621	0,032	0,029
-440,022	325,497	0,009	-0,013
-439,007	-200,000	-0,005	-0,056
-437,992	-94,886	0,209	0,040
-436,978	-78,068	-0,077	-0,019
-435,963	215,724	-0,080	0,091
-434,949	-86,707	0,093	-0,020
-433,934	-200,000	-0,022	-0,121
-432,919	19,420	-0,163	-0,094
-431,905	-200,000	0,009	-0,122
-430,890	-46,868	0,065	0,023
-429,876	-57,807	-0,087	0,027
-428,861	481,915	0,015	-0,025
-427,846	162,240	0,012	-0,012
-426,832	317,384	0,014	-0,019
-425,817	-14,419	-0,199	-0,091
-424,803	-200,000	-0,002	-0,098
-423,788	153,780	-0,093	-0,091
-422,773	800,000	0,047	0,105
-421,759	6,953	0,121	0,064
-420,744	13,117	0,120	-0,067
-419,730	-200,000	0,014	-0,150
-418,715	-49,910	-0,075	-0,025
-417,701	-200,000	-0,017	0,061
-416,686	-124,537	0,124	0,014
-415,671	-122,610	0,132	-0,015
-414,657	-200,000	0,026	0,160
-413,642	-200,000	-0,005	-0,083
-412,628	-164,549	-0,128	-0,004
-411,613	455,558	-0,099	-0,158
-410,598	-31,897	0,118	-0,047
-409,584	50,478	0,023	0,016
-408,569	-19,170	0,072	-0,032
-407,555	-44,222	-0,120	0,043
-406,540	-17,763	0,076	0,034
-405,525	359,565	0,002	-0,003
-404,511	469,644	-0,030	0,048
-403,496	800,000	0,019	0,053
-402,482	45,031	0,033	-0,021
-401,467	800,000	0,046	0,099
-400,452	757,898	0,019	-0,037
-399,438	-120,472	0,117	-0,014
-398,423	-118,636	-0,035	0,004
-397,409	-200,000	0,001	0,004
-396,394	800,000	-0,014	-0,037
-395,379	-174,862	0,131	-0,003
-394,365	-200,000	-0,004	-0,031
-393,350	800,000	-0,029	-0,078
-392,336	25,866	0,106	0,063
-391,321	240,129	-0,063	-0,075
-390,306	-15,687	-0,059	-0,027
-389,292	677,392	0,053	0,099
-388,277	121,072	-0,069	0,061
-387,263	-200,000	0,029	0,096
-386,248	-200,000	0,008	0,117
-385,233	138,129	0,047	0,044
-384,219	-36,702	0,022	0,008
-383,204	19,712	-0,076	0,044
-382,190	-200,000	-0,025	-0,096
-381,175	-190,639	0,115	-0,001
-380,160	31,915	0,069	0,042
-379,146	11,769	0,166	0,091
-378,131	16,016	-0,101	0,057
-377,117	-8,363	0,081	0,039
-376,102	-200,000	-0,061	-0,210
-375,088	-9,995	-0,097	-0,046
-374,073	92,102	0,045	-0,036
-373,058	-127,957	0,093	0,009
-372,044	800,000	-0,031	-0,063
-371,029	-200,000	-0,027	-0,087
-370,015	598,469	-0,023	-0,040
-369,000	-200,000	-0,070	-0,273
-367,985	800,000	-0,035	-0,071
-366,971	437,185	-0,124	-0,194
-365,956	75,226	0,116	0,088
-364,942	-200,000	0,018	0,145
-363,927	702,187	0,035	0,067
-362,912	-200,000	0,001	0,111
-361,898	9,073	-0,055	-0,030
-360,883	-200,000	-0,042	-0,162
-359,869	800,000	-0,013	-0,026
-358,854	113,698	0,079	0,069
-357,839	-200,000	-0,018	0,057
-356,825	-64,924	-0,110	0,032
-355,810	-5,893	-0,036	0,018
-354,796	-200,000	0,006	0,111
-353,781	-141,411	-0,115	-0,008
-352,766	-121,813	-0,148	0,017
-351,752	-200,000	-0,012	0,043
-350,737	-4,920	-0,127	0,062
-349,723	-200,000	0,007	-0,055
-348,708	33,598	-0,114	0,071
-347,693	592,843	-0,025	0,044
-346,679	68,672	-0,031	0,022
-345,664	41,190	0,070	0,045
-344,650	96,192	-0,044	-0,036
-343,635	47,840	0,082	-0,055
-342,620	-200,000	0,021	0,111
-341,606	-137,257	-0,024	0,002
-340,591	215,309	0,092	-0,104
-339,577	185,105	-0,100	-0,106
-338,562	90,546	0,049	0,039
-337,548	38,664	-0,074	0,047
-336,533	-192,095	0,015	-0,000
-335,518	-9,169	-0,092	-0,044
-334,504	-97,745	0,072	0,013
-333,489	800,000	-0,058	0,137
-332,475	800,000	-0,049	-0,126
-331,460	311,382	-0,047	0,063
-330,445	120,608	0,025	-0,023
-329,431	800,000	0,018	0,050
-328,416	566,834	0,016	-0,027
-327,402	800,000	0,073	0,221
-326,387	40,071	0,016	-0,010
-325,372	-200,000	0,004	-0,167
-324,358	227,180	-0,071	-0,083
-323,343	-200,000	-0,021	-0,201
-322,329	264,882	-0,086	0,107
-321,314	448,337	0,021	-0,033
-320,299	-148,212	0,091	-0,005
-319,285	800,000	0,010	-0,023
-318,270	-200,000	0,000	0,065
-317,256	72,495	-0,097	-0,072
-316,241	-101,297	0,061	-0,010
-315,226	-65,334	0,185	-0,053
-314,212	204,747	0,006	-0,006
-313,197	-113,659	0,076	0,010
-312,183	7,228	0,037	0,020
-311,168	-108,297	-0,078	-0,012
-310,153	-106,789	0,211	-0,033
-309,139	701,053	-0,012	-0,023
-308,124	800,000	-0,031	-0,067
-307,110	34,581	0,113	0,071
-306,095	130,803	0,096	0,088
-305,080	800,000	-0,045	0,100
-304,066	-51,142	-0,041	0,014
-303,051	-200,000	0,002	-0,119
-302,037	-101,651	-0,123	-0,021
-301,022	37,458	0,100	-0,063
-300,008	82,279	0,077	-0,060
-298,993	3,171	0,077	-0,040
-297,978	-26,624	0,100	0,042
-296,964	89,417	0,122	-0,097
-295,949	800,000	0,036	0,098
-294,935	33,874	-0,116	0,072
-293,920	307,143	0,029	-0,039
-292,905	-134,570	0,052	0,004
-291,891	-60,128	-0,124	-0,037
-290,876	-44,508	0,158	-0,056
-289,862	-87,550	0,046	0,010
-288,847	-10,044	-0,186	-0,088
-287,832	544,504	0,019	-0,033
-286,818	-11,780	0,047	-0,022
-285,803	229,028	0,071	-0,082
-284,789	800,000	0,081	0,165
-283,774	-148,042	0,083	-0,005
-282,759	-11,309	-0,056	0,026
-281,745	-12,234	-0,052	-0,024
-280,730	42,231	-0,092	-0,060
-279,716	-8,805	-0,078	0,037
-278,701	-200,000	-0,006	0,019
-277,686	77,607	0,129	0,098
-276,672	-200,000	0,007	-0,070
-275,657	800,000	-0,049	-0,132
-274,643	180,847	-0,057	-0,060
-273,628	-200,000	-0,016	-0,079
-272,613	-139,722	-0,071	-0,005
-271,599	-29,048	-0,031	0,013
-270,584	800,000	-0,100	0,233
-269,570	800,000	0,058	-0,130
-268,555	-22,103	0,095	-0,041
-267,540	-91,470	-0,049	-0,010
-266,526	195,323	-0,053	-0,058
-265,511	-175,549	-0,097	0,002
-264,497	800,000	0,041	0,088
-263,482	-28,588	0,107	0,044
-262,467	800,000	-0,030	0,079
-261,453	-4,416	0,051	-0,025
-260,438	-96,949	-0,103	-0,019
-259,424	171,313	-0,079	0,081
-258,409	257,456	-0,030	0,037
-257,395	-200,000	-0,009	0,041
-256,380	-200,000	0,040	0,139
-255,365	246,798	0,069	-0,084
-254,351	28,196	-0,038	0,023
-253,336	-105,610	0,061	0,010
-252,322	-200,000	-0,011	-0,048
-251,307	-200,000	-0,024	-0,125
-250,292	192,547	0,049	-0,053
-249,278	439,148	0,047	0,074
-248,263	105,460	0,076	0,064
-247,249	523,580	0,072	0,121
-246,234	27,627	-0,017	0,010
-245,219	800,000	-0,024	0,053
-244,205	-73,565	0,065	-0,017
-243,190	800,000	0,018	0,057
-242,176	-197,890	0,077	-0,000
-241,161	800,000	0,027	0,059
-240,146	16,213	0,050	0,028
-239,132	14,451	-0,014	0,008
-238,117	800,000	-0,077	-0,231
-237,103	-200,000	-0,011	0,069
-236,088	47,554	-0,045	-0,030
-235,073	-200,000	0,033	0,159
-234,059	506,289	0,026	0,043
-233,044	-200,000	-0,013	0,072
-232,030	-93,469	0,052	-0,010
-231,015	599,795	0,072	0,128
-230,000	-200,000	0,055	0,000
-228,986	99,218	-0,058	0,048
-227,971	-200,000	0,004	-0,062
-226,957	800,000	0,009	0,025
-225,942	-200,000	0,010	0,047
-224,927	227,352	0,042	0,049
-223,913	800,000	0,050	-0,118
-222,898	-200,000	-0,023	-0,116
-221,884	89,824	0,067	-0,053
-220,869	375,152	-0,039	0,056
-219,855	-200,000	0,010	0,117
-218,840	-56,529	0,123	0,038
-217,825	284,474	-0,078	0,100
-216,811	665,656	0,014	-0,027
-215,796	800,000	-0,038	-0,105
-214,782	23,419	0,059	0,034
-213,767	306,745	0,017	-0,023
-212,752	665,216	0,030	0,055
-211,738	-200,000	-0,010	-0,041
-210,723	-121,663	0,084	0,010
-209,709	-200,000	0,007	-0,093
-208,694	-108,850	-0,156	0,024
-207,679	682,161	-0,040	-0,074
-206,665	-114,313	0,021	0,003
-205,650	106,325	0,067	0,057
-204,636	24,748	0,034	0,020
-203,621	396,462	0,062	0,092
-202,606	-200,000	0,015	0,122
-201,592	-200,000	0,072	-0,252
-200,577	733,007	-0,055	-0,105
-199,563	425,615	0,030	0,046
-198,548	800,000	-0,025	0,061
-197,533	671,369	-0,039	0,073
-196,519	685,261	0,047	0,087
-195,504	-200,000	-0,007	0,057
-194,490	-35,866	-0,049	-0,019
-193,475	167,856	0,090	-0,092
-192,460	761,761	-0,067	0,130
-191,446	-200,000	0,024	-0,113
-190,431	612,862	-0,038	-0,068
-189,417	-200,000	0,006	0,058
-188,402	268,495	0,028	-0,035
-187,387	-200,000	-0,024	-0,138
-186,373	387,045	-0,042	-0,061
-185,358	-200,000	-0,022	0,115
-184,344	800,000	0,018	-0,043
-183,329	1,042	0,087	-0,044
-182,315	-200,000	0,028	0,167
-181,300	1,436	-0,063	0,032
-180,285	800,000	-0,083	-0,174
-179,271	95,729	-0,082	0,066
-178,256	-135,046	0,079	-0,007
-177,242	484,069	0,099	-0,161
-176,227	-22,650	0,119	0,051
-175,212	286,226	0,074	0,095
-174,198	-200,000	-0,017	0,125
-173,183	163,624	0,057	-0,057
-172,169	335,132	-0,034	0,046
-171,154	-200,000	-0,017	-0,123
-170,139	-6,337	0,052	-0,025
-169,125	-103,249	0,112	0,019
-168,110	-4,568	0,025	0,012
-167,096	800,000	-0,017	-0,045
-166,081	151,338	-0,029	-0,028
-165,066	-59,025	-0,025	0,008
-164,052	7,594	0,119	0,063
-163,037	387,031	-0,022	0,033
-162,023	23,646	-0,066	0,038
-161,008	-104,574	0,119	-0,019
-159,993	32,895	0,055	0,034
-158,979	29,755	-0,093	-0,056
-157,964	-112,031	-0,157	-0,022
-156,950	464,995	-0,064	-0,103
-155,935	-33,814	-0,082	0,032
-154,920	-200,000	0,001	0,059
-153,906	-70,761	0,187	0,050
-152,891	-4,881	-0,113	0,055
-151,877	124,278	0,132	0,118
-150,862	657,023	-0,036	0,067
-149,847	81,256	0,072	-0,055
-148,833	567,043	-0,021	-0,036
-147,818	67,494	0,077	-0,056
-146,804	45,757	0,015	-0,010
-145,789	-110,601	0,116	-0,017
-144,775	-200,000	0,009	-0,078
-143,760	41,452	0,013	0,008
-142,745	800,000	-0,054	-0,161
-141,731	-200,000	-0,007	-0,082
-140,716	800,000	0,024	0,048
-139,702	453,924	-0,026	0,041
-138,687	-168,366	0,085	-0,002
-137,672	-200,000	0,007	0,054
-136,658	26,700	-0,050	-0,030
-135,643	416,397	-0,013	-0,020
-134,629	800,000	0,026	0,074
-133,614	-19,584	-0,025	0,011
-132,599	150,367	-0,098	0,095
-131,585	-62,315	0,064	-0,019
-130,570	745,070	-0,050	0,097
-129,556	800,000	-0,046	-0,110
-128,541	-200,000	0,015	-0,065
-127,526	800,000	0,026	0,058
-126,512	125,233	0,091	0,081
-125,497	133,083	-0,038	0,035
-124,483	3,419	-0,043	0,022
-123,468	800,000	-0,034	-0,088
-122,453	95,573	0,069	0,056
-121,439	-184,207	-0,076	0,001
-120,424	-200,000	0,023	-0,198
-119,410	-103,976	-0,080	-0,013
-118,395	60,056	0,039	0,027
-117,380	-200,000	0,002	-0,011
-116,366	-30,889	-0,109	-0,043
-115,351	800,000	-0,042	-0,109
-114,337	273,973	-0,112	-0,141
-113,322	-141,713	0,045	0,003
-112,307	-153,192	0,148	0,007
-111,293	-126,136	-0,026	-0,003
-110,278	322,929	0,099	-0,134
-109,264	-102,198	-0,074	0,013
-108,249	-200,000	-0,021	-0,074
-107,234	-200,000	-0,011	-0,081
-106,220	288,291	0,040	-0,052
-105,205	800,000	0,006	0,013
-104,191	429,514	0,124	-0,190
-103,176	107,912	-0,055	0,046
-102,162	-200,000	-0,007	0,065
-101,147	-59,785	-0,146	0,044
-100,132	800,000	-0,040	-0,110
-99,118	293,002	0,077	-0,100
-98,103	-200,000	0,014	-0,092
-97,089	-200,000	0,030	-0,142
-96,074	800,000	-0,020	-0,049
-95,059	-200,000	-0,011	-0,074
-94,045	-56,713	0,026	-0,008
-93,030	293,923	-0,025	-0,032
-92,016	800,000	-0,030	-0,065
-91,001	-107,992	-0,009	0,001
-89,986	213,212	-0,003	-0,004
-88,972	-39,127	0,100	0,037
-87,957	-124,613	0,135	-0,015
-86,943	-97,658	-0,123	0,022
-85,928	82,935	-0,061	-0,047
-84,913	-31,269	-0,083	-0,033
-83,899	-200,000	-0,003	0,034
-82,884	-200,000	0,037	0,118
-81,870	-86,394	0,032	0,007
-80,855	-82,909	0,098	0,022
-79,840	4,056	-0,066	-0,034
-78,826	-200,000	-0,011	-0,144
-77,811	-140,705	0,067	0,005
-76,797	-200,000	0,001	0,034
-75,782	-126,196	-0,064	-0,007
-74,767	293,865	0,129	0,167
-73,753	-38,032	-0,121	0,045
-72,738	718,737	0,034	0,065
-71,724	-200,000	0,009	-0,044
-70,709	-200,000	0,019	-0,103
-69,694	-200,000	-0,003	0,105
-68,680	125,395	-0,047	-0,042
-67,665	-200,000	-0,001	-0,149
-66,651	-59,414	0,120	-0,036
-65,636	451,228	0,062	0,097
-64,622	-40,690	-0,074	0,027
-63,607	-66,836	0,081	0,022
-62,592	335,571	0,066	-0,090
-61,578	-75,453	-0,025	0,006
-60,563	-200,000	0,020	0,173
-59,549	-200,000	-0,010	-0,048
-58,534	36,363	-1,651	-1,028
-57,519	468,305	-1,302	-2,073
-56,505	-200,000	-0,684	-4,710
-55,490	241,517	1,105	1,308
-54,476	800,000	4,937	11,224
-53,461	-200,000	20,245	324,178
-52,446	800,000	752,605	2313,372
-51,432	549,511	1663,393	2830,548
-50,417	75,077	1672,097	1244,744
-49,403	20,084	1544,940	878,934
-48,388	14,112	1467,235	805,666
-47,373	18,309	1457,511	820,577
-46,359	16,354	1447,081	805,301
-45,344	12,404	1442,349	783,717
-44,330	12,286	1440,690	782,220
-43,315	12,280	1438,905	781,192
-42,300	12,277	1437,126	780,180
-41,286	12,290	1435,927	779,561
-40,271	12,268	1434,391	778,591
-39,257	12,233	1433,482	777,900
-38,242	12,329	1432,097	777,573
-37,227	12,344	1430,763	776,893
-36,213	12,283	1429,733	776,013
-35,198	12,306	1428,490	775,416
-34,184	12,345	1427,426	774,992
-33,169	12,288	1426,004	773,918
-32,154	12,321	1424,950	773,472
-31,140	12,352	1423,647	772,882
-30,125	12,409	1422,467	772,478
-29,111	12,376	1421,251	771,632
-28,096	12,340	1420,210	770,866
-27,082	12,274	1419,324	770,043
-26,067	12,268	1418,050	769,293
-25,052	12,296	1417,098	768,881
-24,038	12,264	1416,033	768,120
-23,023	12,264	1414,912	767,481
-22,009	12,244	1414,178	766,957
-20,994	12,231	1413,185	766,329
-19,979	12,235	1412,301	765,836
-18,965	12,186	1411,336	765,057
-17,950	12,231	1410,464	764,760
-16,936	12,191	1409,684	764,123
-15,921	12,199	1408,383	763,423
-14,906	12,174	1407,647	762,876
-13,892	12,173	1406,556	762,253
-12,877	12,158	1405,687	761,679
-11,863	12,146	1404,764	761,095
-10,848	12,180	1403,895	760,751
-9,833	12,118	1403,040	759,967
-8,819	12,101	1402,236	759,425
-7,804	12,053	1401,323	758,674
-6,790	12,047	1400,520	758,184
-5,775	12,049	1399,325	757,514
-4,760	12,106	1398,223	757,151
-3,746	12,041	1397,339	756,344
-2,731	12,045	1396,725	755,997
-1,717	12,035	1395,710	755,373
-0,702	12,012	1394,119	754,373
0,313	16,008	1308,827	726,664
1,327	32,290	699,694	425,879
2,342	50,079	121,907	81,176
3,356	0,541	16,597	8,356
4,371	1,480	3,260	1,651
5,386	-71,543	0,702	0,184
6,400	800,000	-0,094	0,197
7,415	-165,609	-0,086	0,003
8,429	260,381	-0,245	-0,300
9,444	55,632	-0,391	-0,267
10,459	439,101	-0,148	-0,228
11,473	130,832	-0,333	-0,302
12,488	-15,404	-0,299	-0,134
13,502	-48,098	-0,395	-0,134
14,517	-59,601	-0,472	-0,142
15,531	244,259	-0,277	-0,328
16,546	74,859	-0,276	-0,205
17,561	106,526	-0,371	-0,310
18,575	-31,796	-0,222	-0,087
19,590	800,000	-0,180	-0,357
20,604	142,815	-0,215	-0,202
21,619	-60,276	-0,497	-0,148
22,634	48,472	-0,435	-0,287
23,648	81,489	-0,274	-0,209
24,663	92,745	-0,499	-0,397
25,677	215,392	-0,366	-0,410
26,692	-6,408	-0,389	-0,186
27,707	-58,004	-0,459	-0,140
28,721	83,789	-0,358	-0,275
29,736	-54,371	-0,430	-0,137
30,750	56,302	-0,475	-0,325
31,765	1,098	-0,455	-0,229
32,780	35,259	-0,462	-0,285
33,794	124,791	-0,359	-0,319
34,809	29,944	-0,494	-0,296
35,823	512,571	-0,259	-0,427
36,838	279,380	-0,312	-0,393
37,853	49,110	-0,514	-0,340
38,867	187,475	-0,338	-0,356
39,882	272,933	-0,295	-0,368
40,896	34,460	-0,327	-0,201
41,911	26,259	-0,363	-0,213
42,926	-23,268	-0,412	-0,174
43,940	61,161	-0,350	-0,244
44,955	101,369	-0,289	-0,237
45,969	28,584	-0,369	-0,219
46,984	-89,373	-0,274	-0,056
47,999	88,756	-0,305	-0,238
49,013	-22,518	-0,329	-0,139
50,028	-5,575	-0,282	-0,136
51,042	129,305	-0,371	-0,333
52,057	124,911	-0,276	-0,245
53,071	49,143	-0,358	-0,236
54,086	146,372	-0,245	-0,232
55,101	41,789	-0,334	-0,212
56,115	-14,071	-0,306	-0,139
57,130	153,730	-0,298	-0,288
58,144	32,045	-0,257	-0,155
59,159	-26,719	-0,339	-0,139
60,174	141,528	-0,449	-0,418
61,188	348,632	-0,240	-0,333
62,203	-6,674	-0,303	-0,145
63,217	73,589	-0,330	-0,243
64,232	51,313	-0,277	-0,184
65,247	228,019	-0,228	-0,261
66,261	57,529	-0,386	-0,264
67,276	150,712	-0,372	-0,355
68,290	108,100	-0,346	-0,290
69,305	-60,210	-0,336	-0,100
70,320	87,637	-0,278	-0,216
71,334	68,374	-0,345	-0,248
72,349	24,560	-0,388	-0,225
73,363	193,008	-0,360	-0,383
74,378	89,378	-0,313	-0,245
75,393	191,031	-0,269	-0,285
76,407	-5,417	-0,301	-0,144
77,422	800,000	-0,164	-0,364
78,436	-8,444	-0,254	-0,119
79,451	35,257	-0,289	-0,178
80,466	65,070	-0,357	-0,253
81,480	29,266	-0,409	-0,243
82,495	208,252	-0,210	-0,231
83,509	-26,004	-0,214	-0,088
84,524	-9,621	-0,312	-0,145
85,539	-90,403	-0,353	-0,071
86,553	68,921	-0,235	-0,169
87,568	57,405	-0,403	-0,275
88,582	-6,393	-0,306	-0,146
89,597	23,305	-0,261	-0,150
90,611	-29,244	-0,255	-0,102
91,626	81,191	-0,335	-0,253
92,641	72,970	-0,233	-0,171
93,655	109,829	-0,281	-0,236
94,670	26,714	-0,322	-0,189
95,684	64,584	-0,382	-0,270
96,699	139,131	-0,299	-0,276
97,714	68,184	-0,332	-0,238
98,728	100,385	-0,233	-0,190
99,743	186,482	-0,207	-0,216
100,757	12,016	-0,325	-0,174
101,772	-46,085	-0,228	-0,078
102,787	-71,787	-0,250	-0,065
103,801	-6,650	-0,232	-0,110
104,816	277,555	-0,139	-0,173
105,830	65,084	-0,300	-0,212
106,845	-61,522	-0,398	-0,116
107,860	236,156	-0,200	-0,231
108,874	279,232	-0,186	-0,233
109,889	260,843	-0,169	-0,205
110,903	88,585	-0,322	-0,250
111,918	39,436	-0,392	-0,245
112,933	8,165	-0,402	-0,211
113,947	-106,779	-0,318	-0,049
114,962	-14,218	-0,107	-0,048
115,976	8,181	-0,289	-0,151
116,991	324,061	-0,154	-0,206
118,006	70,308	-0,252	-0,182
119,020	37,524	-0,279	-0,173
120,035	30,156	-0,265	-0,158
121,049	-39,519	-0,152	-0,055
122,064	128,856	-0,216	-0,193
123,079	126,394	-0,279	-0,247
124,093	287,365	-0,183	-0,232
125,108	192,187	-0,262	-0,277
126,122	-63,993	-0,292	-0,083
127,137	-38,855	-0,200	-0,073
128,151	20,179	-0,214	-0,120
129,166	641,136	-0,176	-0,314
130,181	15,094	-0,249	-0,136
131,195	32,701	-0,295	-0,178
132,210	82,770	-0,303	-0,230
133,224	38,018	-0,345	-0,214
134,239	-15,974	-0,270	-0,120
135,254	45,644	-0,163	-0,105
136,268	21,388	-0,291	-0,165
137,283	16,478	-0,319	-0,176
138,297	278,711	-0,190	-0,237
139,312	395,400	-0,171	-0,249
140,327	-62,002	-0,334	-0,097
141,341	130,025	-0,205	-0,183
142,356	129,622	-0,236	-0,210
143,370	26,840	-0,198	-0,116
144,385	318,194	-0,190	-0,252
145,400	184,676	-0,230	-0,238
146,414	194,374	-0,283	-0,299
147,429	260,017	-0,252	-0,304
148,443	-133,335	-0,339	-0,029
149,458	116,379	-0,250	-0,214
150,473	-0,615	-0,258	-0,127
151,487	-44,994	-0,162	-0,056
152,502	740,153	-0,128	-0,241
153,516	98,501	-0,199	-0,160
154,531	20,742	-0,350	-0,197
155,546	800,000	-0,102	-0,214
156,560	-81,372	-0,252	-0,058
157,575	-10,445	-0,156	-0,072
158,589	-56,507	-0,270	-0,083
159,604	-126,227	-0,315	-0,032
160,619	31,856	-0,315	-0,188
161,633	41,680	-0,243	-0,153
162,648	261,335	-0,180	-0,218
163,662	266,645	-0,128	-0,156
164,677	-45,180	-0,303	-0,104
165,692	9,819	-0,272	-0,143
166,706	123,455	-0,236	-0,206
167,721	275,585	-0,258	-0,319
168,735	-18,382	-0,304	-0,132
169,750	78,160	-0,193	-0,143
170,764	45,144	-0,154	-0,098
171,779	86,294	-0,212	-0,162
172,794	88,012	-0,194	-0,150
173,808	54,592	-0,228	-0,153
174,823	800,000	-0,144	-0,295
175,837	77,350	-0,296	-0,219
176,852	800,000	-0,210	-0,451
177,867	352,746	-0,138	-0,191
178,881	366,755	-0,161	-0,227
179,896	-36,213	-0,176	-0,066
180,910	192,930	-0,189	-0,199
181,925	-69,688	-0,328	-0,087
182,940	191,789	-0,149	-0,156
183,954	147,225	-0,241	-0,226
184,969	-23,837	-0,191	-0,079
185,983	366,386	-0,067	-0,094
186,998	-66,652	-0,144	-0,039
188,013	78,431	-0,254	-0,188
189,027	135,730	-0,290	-0,262
190,042	43,739	-0,277	-0,176
191,056	-66,062	-0,218	-0,060
192,071	142,016	-0,217	-0,200
193,086	-58,379	-0,171	-0,051
194,100	148,735	-0,181	-0,170
195,115	290,676	-0,214	-0,270
196,129	260,218	-0,199	-0,239
197,144	345,275	-0,187	-0,256
198,159	-20,163	-0,275	-0,117
199,173	69,505	-0,138	-0,099
200,188	18,033	-0,187	-0,103
201,202	101,498	-0,225	-0,182
202,217	9,491	-0,170	-0,089
203,232	-102,763	-0,226	-0,037
204,246	197,679	-0,183	-0,195
205,261	8,715	-0,234	-0,122
206,275	1,112	-0,316	-0,157
207,290	-133,638	-0,238	-0,020
208,304	166,401	-0,167	-0,164
209,319	-35,493	-0,270	-0,101
210,334	436,211	-0,145	-0,220
211,348	307,260	-0,264	-0,342
212,363	36,808	-0,192	-0,118
213,377	11,961	-0,196	-0,104
214,392	-61,304	-0,141	0,041
215,407	-102,658	-0,232	-0,038
216,421	11,846	-0,069	-0,037
217,436	483,558	-0,096	-0,153
218,450	43,019	-0,187	-0,118
219,465	228,378	-0,110	-0,124
220,480	618,293	-0,165	-0,288
221,494	100,508	-0,156	-0,126
222,509	-118,543	-0,211	0,026
223,523	72,196	-0,215	-0,155
224,538	102,149	-0,206	-0,166
225,553	5,909	-0,307	-0,157
226,567	486,771	-0,140	-0,222
227,582	146,449	-0,101	-0,094
228,596	375,051	-0,110	-0,156
229,611	323,914	-0,116	-0,153
230,626	83,585	-0,132	-0,100
231,640	-3,315	-0,158	-0,076
232,655	71,536	-0,133	-0,096
233,669	45,344	-0,172	-0,110
234,684	18,714	-0,145	-0,080
235,699	3,668	-0,152	-0,077
236,713	94,387	-0,238	-0,187
237,728	89,932	-0,138	-0,107
238,742	-0,410	-0,210	-0,103
239,757	190,736	-0,181	-0,188
240,772	128,498	-0,218	-0,192
241,786	172,880	-0,253	-0,253
242,801	69,512	-0,161	-0,115
243,815	486,616	-0,136	-0,215
244,830	209,375	-0,152	-0,164
245,844	-35,535	-0,278	-0,104
246,859	-127,830	-0,182	-0,018
247,874	800,000	-0,129	-0,269
248,888	1,399	-0,212	-0,105
249,903	-15,023	-0,214	-0,095
250,917	180,497	-0,181	-0,184
251,932	66,889	-0,207	-0,145
252,947	-9,701	-0,232	-0,107
253,961	439,223	-0,112	-0,170
254,976	187,357	-0,211	-0,218
255,990	169,149	-0,213	-0,210
257,005	17,592	-0,167	-0,091
258,020	53,238	-0,083	-0,055
259,034	-59,178	-0,097	-0,029
260,049	-43,249	-0,126	-0,044
261,063	74,177	-0,165	-0,120
262,078	74,335	-0,246	-0,178
263,093	-19,617	-0,294	-0,125
264,107	-118,540	-0,138	-0,017
265,122	75,178	-0,136	-0,099
266,136	1,756	-0,130	-0,065
267,151	72,763	-0,118	-0,085
268,166	2,586	-0,064	-0,032
269,180	89,504	-0,246	-0,190
270,195	141,353	-0,136	-0,124
271,209	-76,730	-0,270	-0,065
272,224	-90,122	-0,082	-0,016
273,239	-143,738	-0,159	-0,010
274,253	137,222	-0,142	-0,128
275,268	186,299	-0,127	-0,130
276,282	-28,831	-0,198	-0,078
277,297	379,516	-0,152	-0,215
278,312	135,526	-0,160	-0,144
279,326	102,291	-0,134	0,108
280,341	151,749	-0,147	-0,139
281,355	18,641	-0,162	-0,089
282,370	-117,964	-0,121	-0,015
283,384	97,971	-0,109	0,087
284,399	122,279	-0,132	-0,114
285,414	136,659	-0,241	-0,217
286,428	116,757	-0,247	-0,209
287,443	571,659	-0,041	-0,069
288,457	47,756	-0,147	-0,094
289,472	800,000	-0,062	-0,145
290,487	-29,946	-0,175	-0,068
291,501	357,928	-0,071	-0,097
292,516	678,561	-0,151	-0,273
293,530	291,050	-0,130	-0,163
294,545	127,929	-0,198	-0,173
295,560	-52,797	-0,156	-0,049
296,574	113,784	-0,104	-0,087
297,589	295,159	-0,124	-0,157
298,603	800,000	-0,107	-0,219
299,618	800,000	-0,083	-0,188
300,633	-124,932	-0,233	-0,024
301,647	-111,099	-0,156	0,022
302,662	800,000	-0,057	-0,161
303,676	515,262	-0,078	-0,126
304,691	-32,903	-0,214	-0,081
305,706	800,000	-0,059	-0,129
306,720	800,000	-0,025	-0,076
307,735	-82,043	-0,151	-0,034
308,749	236,832	-0,158	-0,181
309,764	-8,324	-0,136	-0,063
310,779	-157,766	-0,207	0,008
311,793	42,600	-0,184	-0,115
312,808	35,236	-0,129	-0,078
313,822	109,265	-0,173	-0,142
314,837	800,000	-0,028	-0,055
315,852	-200,000	0,007	-0,107
316,866	190,628	-0,125	-0,129
317,881	-142,335	-0,113	0,008
318,895	16,262	-0,145	-0,078
319,910	372,481	-0,123	-0,172
320,925	235,505	-0,166	-0,189
321,939	-149,973	-0,084	-0,004
322,954	-99,227	-0,238	-0,041
323,968	-108,570	-0,168	-0,025
324,983	118,519	-0,079	-0,067
325,997	-96,853	-0,257	-0,046
327,012	136,287	-0,149	-0,134
328,027	462,898	-0,068	-0,105
329,041	131,541	-0,100	-0,088
330,056	-4,092	-0,139	-0,066
331,070	800,000	-0,025	-0,054
332,085	800,000	-0,037	-0,075
333,100	287,422	-0,117	-0,146
334,114	775,088	-0,040	-0,075
335,129	385,251	-0,166	-0,236
336,143	-107,387	-0,169	-0,025
337,158	-74,037	-0,090	-0,022
338,173	-200,000	-0,066	-0,201
339,187	-200,000	0,000	-0,082
340,202	-200,000	-0,009	-0,172
341,216	40,022	-0,184	-0,113
342,231	-145,649	-0,106	0,006
343,246	42,822	-0,151	-0,094
344,260	-184,943	-0,133	-0,001
345,275	800,000	-0,044	-0,121
346,289	-39,340	-0,151	0,054
347,304	212,157	-0,190	-0,205
348,319	716,577	-0,081	-0,149
349,333	20,852	-0,210	-0,116
350,348	150,643	-0,251	-0,234
351,362	286,783	-0,128	-0,158
352,377	113,352	-0,175	-0,146
353,392	-165,679	-0,159	-0,005
354,406	274,725	0,017	-0,021
355,421	210,154	1311,991	1412,520
356,435	161,776	1472,354	1412,998
