DTS Sentinel unit serial number:	SN410029Multiplexer serial number:	ORYXHardware model number:	OX2-SRSoftware version number:	ORYX F/W v4,00 Oryx Data Collector v3.7.2.0data status	okinstallation	B3 Nyhavnadifferential loss correction	single-endedforward channel	channel 1reverse channel	N/Adate	2023/12/05time	04:37:30forward acquisition time	300,00reverse acquisition time	0,00gamma	499,1914k internal	0,3201k external	0,3201temperature offset calibration	1,0000default loss term (dB/km)	0,3820temperature slope calibration	1,0000multiplexer offset coefficient	1,0000multiplexer slope coefficient	1,0000fibre end	0,00T internal ref (°C)	14,12T ext. ref 1 (°C)	-0,84T ext. ref 2 (°C)	-0,87length (m)	temperature (°C)	Stokes	anti-Stokes-744,400	144,044	-0,281	-0,273
-743,385	800,000	0,098	0,281
-742,371	174,410	-0,288	-0,303
-741,356	205,093	0,176	0,199
-740,342	1,224	-0,285	-0,149
-739,327	800,000	-0,085	0,211
-738,312	501,989	-0,209	-0,353
-737,298	-200,000	-0,005	0,264
-736,283	-200,000	-0,106	-0,394
-735,269	-200,000	0,065	0,227
-734,254	19,414	-0,304	-0,177
-733,239	-149,813	-0,213	-0,012
-732,225	169,174	-0,212	-0,220
-731,210	656,593	0,038	0,072
-730,196	-155,594	-0,018	0,001
-729,181	686,427	-0,036	0,069
-728,167	-153,937	-0,092	0,005
-727,152	800,000	0,042	-0,111
-726,137	-200,000	-0,031	-0,196
-725,123	-200,000	0,006	-0,078
-724,108	84,996	-0,050	-0,040
-723,094	-200,000	-0,016	-0,077
-722,079	800,000	-0,034	-0,090
-721,064	387,970	-0,025	-0,037
-720,050	-40,606	-0,099	-0,037
-719,035	69,439	0,019	-0,014
-718,021	154,547	-0,113	-0,112
-717,006	-75,008	-0,203	0,053
-715,991	-200,000	0,028	-0,136
-714,977	-200,000	0,018	-0,111
-713,962	761,015	0,006	-0,012
-712,948	-200,000	-0,001	0,107
-711,933	313,266	-0,013	-0,017
-710,918	-200,000	0,015	0,068
-709,904	800,000	-0,039	-0,091
-708,889	186,463	-0,108	-0,117
-707,875	-189,468	-0,096	-0,001
-706,860	167,679	0,117	-0,121
-705,845	452,320	0,017	0,027
-704,831	-30,940	0,099	-0,040
-703,816	22,772	0,090	0,053
-702,802	-1,664	-0,122	0,062
-701,787	-41,526	0,044	-0,016
-700,772	45,388	-0,114	0,076
-699,758	-130,716	0,113	0,011
-698,743	-152,352	0,217	0,011
-697,729	-101,081	0,150	-0,026
-696,714	183,596	-0,059	0,063
-695,699	-22,492	0,108	0,047
-694,685	184,544	-0,087	-0,093
-693,670	-200,000	-0,000	-0,157
-692,656	28,916	-0,080	0,049
-691,641	97,058	0,027	0,022
-690,627	585,722	0,062	0,111
-689,612	-200,000	0,002	0,046
-688,597	-23,972	-0,028	0,012
-687,583	162,324	-0,085	-0,087
-686,568	-96,026	0,065	-0,012
-685,554	800,000	0,029	-0,084
-684,539	-143,682	-0,141	-0,010
-683,524	37,755	0,067	-0,043
-682,510	175,430	-0,144	-0,152
-681,495	-113,908	0,130	-0,018
-680,481	179,359	-0,089	-0,094
-679,466	-200,000	-0,004	-0,071
-678,451	-200,000	0,006	-0,166
-677,437	-200,000	-0,010	-0,047
-676,422	-200,000	-0,019	0,140
-675,408	-56,179	-0,066	0,021
-674,393	-141,803	-0,155	-0,011
-673,378	62,850	-0,096	-0,070
-672,364	-192,310	-0,186	-0,001
-671,349	242,501	-0,110	-0,133
-670,335	800,000	-0,040	0,094
-669,320	272,393	0,103	0,132
-668,305	800,000	-0,018	-0,045
-667,291	504,899	0,053	-0,089
-666,276	-62,295	-0,036	0,011
-665,262	-1,761	-0,146	-0,074
-664,247	60,479	-0,051	0,036
-663,232	800,000	-0,041	-0,107
-662,218	31,440	-0,066	0,041
-661,203	-200,000	-0,017	-0,064
-660,189	103,863	-0,071	-0,060
-659,174	610,056	-0,106	-0,192
-658,159	-96,735	-0,056	-0,011
-657,145	-47,750	0,026	-0,009
-656,130	-200,000	-0,000	0,100
-655,116	-70,398	-0,062	-0,017
-654,101	-200,000	0,002	0,022
-653,086	502,248	-0,090	-0,152
-652,072	-30,719	-0,077	0,031
-651,057	-53,323	-0,166	-0,055
-650,043	-200,000	-0,028	-0,108
-649,028	800,000	-0,028	0,073
-648,014	-33,721	-0,046	0,018
-646,999	153,089	-0,073	-0,072
-645,984	-33,112	-0,094	0,038
-644,970	97,050	-0,045	0,037
-643,955	-200,000	-0,044	-0,187
-642,941	-200,000	-0,010	-0,065
-641,926	218,596	0,016	-0,019
-640,911	-200,000	0,029	-0,149
-639,897	301,013	0,050	-0,068
-638,882	-27,901	-0,045	-0,019
-637,868	-200,000	-0,021	-0,124
-636,853	322,415	-0,035	0,048
-635,838	116,346	-0,120	-0,106
-634,824	-166,405	0,104	0,003
-633,809	-144,943	0,170	0,011
-632,795	47,507	0,070	-0,047
-631,780	800,000	0,037	-0,079
-630,765	-28,283	0,037	0,016
-629,751	254,724	-0,096	-0,119
-628,736	-31,609	0,082	-0,033
-627,722	-200,000	0,019	-0,094
-626,707	161,892	-0,047	-0,048
-625,692	230,340	0,048	-0,057
-624,678	-200,000	-0,030	-0,114
-623,663	-200,000	-0,004	-0,027
-622,649	449,687	0,029	0,046
-621,634	136,484	-0,085	-0,080
-620,619	279,035	0,064	-0,083
-619,605	406,664	-0,032	0,049
-618,590	-200,000	0,007	-0,050
-617,576	471,204	0,096	0,157
-616,561	0,485	-0,051	-0,026
-615,546	290,943	-0,074	-0,097
-614,532	-200,000	-0,005	-0,230
-613,517	185,186	0,039	0,042
-612,503	800,000	-0,024	0,054
-611,488	-200,000	0,011	0,038
-610,474	-200,000	0,003	-0,080
-609,459	-200,000	0,002	0,059
-608,444	-136,974	-0,130	0,011
-607,430	800,000	-0,045	-0,130
-606,415	99,199	-0,041	-0,034
-605,401	207,219	-0,079	0,089
-604,386	-200,000	-0,039	0,134
-603,371	-132,975	0,117	-0,011
-602,357	-200,000	0,006	0,021
-601,342	-20,742	-0,091	-0,040
-600,328	800,000	0,041	0,100
-599,313	373,126	0,030	-0,044
-598,298	96,964	-0,113	-0,094
-597,284	-116,980	0,095	-0,012
-596,269	-200,000	0,000	0,126
-595,255	514,160	-0,163	0,276
-594,240	5,402	0,036	0,019
-593,225	800,000	0,035	0,077
-592,211	-200,000	0,051	0,168
-591,196	800,000	0,017	0,036
-590,182	800,000	0,015	-0,043
-589,167	138,302	0,061	0,057
-588,152	80,302	0,080	0,062
-587,138	-70,496	0,125	-0,034
-586,123	117,538	-0,067	0,059
-585,109	-139,683	0,069	-0,005
-584,094	39,720	-0,079	-0,051
-583,079	-135,932	0,048	0,004
-582,065	800,000	0,045	0,098
-581,050	-63,004	0,170	-0,050
-580,036	-61,243	0,077	0,023
-579,021	-39,844	-0,082	-0,031
-578,006	126,911	-0,114	-0,104
-576,992	91,999	-0,083	-0,067
-575,977	-187,530	0,072	-0,001
-574,963	-47,377	0,093	-0,033
-573,948	48,979	-0,075	-0,051
-572,934	282,193	-0,098	-0,127
-571,919	-200,000	0,017	-0,084
-570,904	-159,445	-0,080	-0,003
-569,890	3,951	0,019	-0,010
-568,875	721,404	0,078	-0,151
-567,861	229,298	-0,097	0,114
-566,846	800,000	-0,006	-0,015
-565,831	-200,000	-0,034	-0,125
-564,817	128,821	0,026	-0,024
-563,802	275,388	0,048	-0,062
-562,788	-120,997	-0,185	-0,022
-561,773	800,000	-0,041	-0,116
-560,758	66,160	0,109	0,080
-559,744	-15,632	0,080	-0,037
-558,729	259,987	-0,072	-0,089
-557,715	-81,665	-0,058	-0,014
-556,700	118,617	-0,081	0,072
-555,685	209,932	0,077	0,087
-554,671	694,157	-0,073	0,139
-553,656	46,757	-0,016	-0,011
-552,642	-1,302	0,066	0,033
-551,627	103,045	-0,050	0,043
-550,612	-41,855	0,118	0,043
-549,598	-132,454	-0,112	-0,010
-548,583	-200,000	0,019	-0,060
-547,569	-136,057	0,132	-0,011
-546,554	-200,000	0,020	0,072
-545,539	578,832	-0,013	0,023
-544,525	-135,674	0,061	-0,005
-543,510	783,174	-0,050	-0,099
-542,496	231,815	-0,013	0,016
-541,481	281,737	0,057	-0,073
-540,466	-27,907	-0,075	-0,031
-539,452	229,964	0,043	0,051
-538,437	169,719	-0,060	0,062
-537,423	-147,746	0,055	-0,003
-536,408	-114,273	0,088	-0,012
-535,393	800,000	-0,051	0,134
-534,379	-126,320	0,113	-0,012
-533,364	188,411	0,105	-0,114
-532,350	800,000	-0,041	0,086
-531,335	-197,101	0,031	-0,000
-530,321	403,154	0,071	-0,107
-529,306	800,000	0,013	0,038
-528,291	-200,000	-0,030	0,115
-527,277	-118,659	-0,098	0,012
-526,262	-78,842	-0,093	-0,023
-525,248	-200,000	0,006	0,025
-524,233	108,150	0,107	0,092
-523,218	-173,132	0,038	0,001
-522,204	800,000	0,022	0,060
-521,189	32,790	0,045	-0,028
-520,175	22,650	-0,214	0,126
-519,160	434,840	0,066	0,104
-518,145	800,000	0,023	0,058
-517,131	-30,680	-0,129	-0,052
-516,116	-200,000	0,014	-0,076
-515,102	800,000	0,049	-0,111
-514,087	-200,000	0,020	-0,138
-513,072	32,599	-0,140	0,087
-512,058	573,072	-0,016	-0,028
-511,043	303,241	-0,027	0,037
-510,029	-200,000	-0,007	0,080
-509,014	5,794	0,071	0,038
-507,999	474,908	0,061	0,099
-506,985	88,686	-0,037	0,030
-505,970	38,127	-0,120	-0,077
-504,956	467,648	0,055	-0,090
-503,941	-200,000	-0,009	-0,046
-502,926	103,913	0,131	0,111
-501,912	800,000	-0,064	0,163
-500,897	-200,000	0,007	-0,147
-499,883	655,230	0,033	0,061
-498,868	128,977	-0,042	0,038
-497,853	-39,026	-0,065	-0,024
-496,839	61,559	-0,072	-0,052
-495,824	52,197	0,104	0,072
-494,810	-147,671	0,115	-0,007
-493,795	29,357	0,070	-0,043
-492,781	-53,506	-0,120	-0,039
-491,766	183,255	-0,011	-0,012
-490,751	800,000	0,027	0,074
-489,737	147,791	-0,114	0,110
-488,722	213,928	-0,036	0,041
-487,708	-200,000	0,011	0,123
-486,693	-121,631	0,068	0,008
-485,678	-200,000	-0,012	-0,064
-484,664	289,596	-0,102	-0,134
-483,649	636,181	-0,044	-0,080
-482,635	-87,896	0,115	0,025
-481,620	119,974	-0,067	-0,060
-480,605	155,864	-0,038	-0,038
-479,591	-26,402	-0,043	-0,018
-478,576	195,794	-0,096	-0,105
-477,562	140,258	0,023	0,022
-476,547	-73,720	-0,140	-0,037
-475,532	-200,000	-0,011	-0,093
-474,518	8,286	0,056	-0,030
-473,503	181,011	0,142	0,151
-472,489	253,976	-0,090	0,111
-471,474	44,405	-0,099	-0,066
-470,459	-164,333	0,074	-0,002
-469,445	27,381	-0,124	-0,075
-468,430	-200,000	0,021	0,126
-467,416	95,866	-0,085	-0,070
-466,401	-109,192	0,058	0,009
-465,386	110,443	0,076	-0,066
-464,372	177,054	0,071	0,074
-463,357	800,000	-0,022	-0,046
-462,343	-98,139	-0,130	-0,024
-461,328	800,000	-0,029	-0,058
-460,313	-87,444	-0,029	0,006
-459,299	800,000	0,020	-0,050
-458,284	-200,000	0,019	-0,221
-457,270	-107,845	-0,017	-0,003
-456,255	25,650	0,084	-0,050
-455,241	-113,187	0,017	-0,002
-454,226	-33,238	-0,031	-0,012
-453,211	169,262	0,135	0,139
-452,197	-174,470	0,079	0,002
-451,182	-200,000	0,029	0,197
-450,168	-200,000	0,004	0,015
-449,153	800,000	-0,008	-0,024
-448,138	-200,000	0,023	0,079
-447,124	370,573	-0,058	-0,085
-446,109	-44,312	0,073	-0,026
-445,095	-200,000	-0,001	0,060
-444,080	-137,619	-0,072	-0,006
-443,065	800,000	-0,038	-0,104
-442,051	-56,996	0,026	-0,008
-441,036	-200,000	-0,015	-0,084
-440,022	800,000	0,007	-0,015
-439,007	800,000	-0,021	-0,066
-437,992	189,067	-0,036	0,039
-436,978	-200,000	-0,008	0,046
-435,963	-200,000	-0,004	-0,111
-434,949	800,000	-0,013	0,038
-433,934	358,706	0,031	-0,045
-432,919	800,000	-0,018	-0,046
-431,905	-62,705	-0,041	-0,012
-430,890	72,613	0,066	-0,050
-429,876	-200,000	0,002	-0,056
-428,861	-200,000	0,018	0,115
-427,846	-200,000	0,014	-0,077
-426,832	-90,495	-0,148	0,031
-425,817	-200,000	-0,004	-0,017
-424,803	49,743	-0,074	-0,050
-423,788	62,399	0,022	0,015
-422,773	-49,771	-0,116	-0,039
-421,759	296,521	0,035	0,046
-420,744	331,309	0,081	0,112
-419,730	49,992	-0,086	0,058
-418,715	-75,795	-0,020	-0,005
-417,701	-18,760	-0,119	-0,053
-416,686	-93,035	0,113	0,022
-415,671	546,575	-0,057	0,098
-414,657	642,738	0,055	-0,102
-413,642	-70,298	0,058	-0,016
-412,628	141,789	0,058	0,055
-411,613	201,459	-0,058	-0,064
-410,598	-106,021	-0,032	-0,005
-409,584	73,561	-0,034	0,025
-408,569	246,948	-0,028	-0,034
-407,555	800,000	0,069	0,149
-406,540	-200,000	-0,013	0,091
-405,525	173,389	-0,046	-0,048
-404,511	521,600	0,048	-0,080
-403,496	-85,566	-0,190	-0,042
-402,482	-200,000	-0,026	-0,083
-401,467	95,937	-0,134	0,110
-400,452	95,311	0,129	0,106
-399,438	122,572	0,129	-0,116
-398,423	-200,000	-0,006	0,031
-397,409	226,018	0,099	-0,116
-396,394	-200,000	0,013	0,086
-395,379	452,891	-0,027	0,043
-394,365	212,822	0,076	0,086
-393,350	-85,437	0,048	0,011
-392,336	800,000	0,064	0,146
-391,321	-92,044	0,058	-0,012
-390,306	241,905	-0,029	0,035
-389,292	80,049	-0,103	-0,079
-388,277	96,969	0,053	0,043
-387,263	67,446	0,085	0,062
-386,248	-99,951	0,118	-0,021
-385,233	-62,193	0,047	0,014
-384,219	2,932	0,056	0,029
-383,204	-86,012	-0,080	-0,018
-382,190	-200,000	0,003	-0,032
-381,175	-200,000	0,008	0,120
-380,160	567,727	-0,089	-0,155
-379,146	769,663	0,034	-0,067
-378,131	191,986	0,074	0,080
-377,117	-156,468	0,072	-0,003
-376,102	125,918	-0,015	0,014
-375,088	-26,696	-0,053	0,022
-374,073	-29,638	0,093	0,038
-373,058	231,398	-0,037	0,043
-372,044	-59,145	-0,044	0,014
-371,029	-200,000	0,006	-0,068
-370,015	800,000	-0,031	-0,082
-369,000	457,973	-0,073	-0,117
-367,985	377,426	-0,030	0,044
-366,971	-27,887	0,166	-0,069
-365,956	-100,430	0,148	-0,026
-364,942	-200,000	0,005	0,058
-363,927	-90,145	0,067	-0,014
-362,912	186,065	-0,048	-0,051
-361,898	800,000	0,036	0,074
-360,883	-24,037	0,087	0,037
-359,869	245,117	0,044	0,054
-358,854	-200,000	0,002	-0,065
-357,839	759,359	0,068	0,132
-356,825	135,850	-0,070	0,065
-355,810	-200,000	-0,031	0,114
-354,796	-59,711	0,063	-0,019
-353,781	574,257	-0,025	-0,044
-352,766	98,573	-0,135	-0,112
-351,752	800,000	-0,041	0,082
-350,737	-83,574	-0,051	-0,011
-349,723	168,230	0,033	0,034
-348,708	-37,079	-0,059	-0,022
-347,693	-200,000	-0,009	0,035
-346,679	70,460	0,069	-0,051
-345,664	-200,000	-0,007	0,036
-344,650	-41,576	0,149	0,055
-343,635	-200,000	-0,007	0,103
-342,620	-63,662	-0,091	0,026
-341,606	-123,088	-0,125	-0,014
-340,591	82,794	0,064	-0,050
-339,577	454,693	0,065	-0,103
-338,562	-102,723	-0,107	0,018
-337,548	228,236	-0,183	-0,214
-336,533	-200,000	0,013	0,099
-335,518	213,665	0,088	0,099
-334,504	-200,000	0,018	0,072
-333,489	-148,175	-0,057	0,003
-332,475	-200,000	0,017	0,118
-331,460	-200,000	0,016	-0,113
-330,445	800,000	-0,013	-0,028
-329,431	-200,000	0,002	-0,038
-328,416	32,138	0,076	0,047
-327,402	-50,199	0,058	0,020
-326,387	363,370	0,063	-0,090
-325,372	14,464	-0,054	-0,030
-324,358	65,891	-0,092	0,067
-323,343	-63,854	-0,089	-0,026
-322,329	9,114	-0,055	0,030
-321,314	-116,469	0,136	0,018
-320,299	-53,812	-0,040	-0,013
-319,285	39,817	-0,115	-0,073
-318,270	700,435	0,039	-0,074
-317,256	739,777	0,055	-0,106
-316,241	85,518	0,033	-0,026
-315,226	-200,000	-0,011	-0,075
-314,212	254,284	0,011	0,014
-313,197	718,774	0,012	0,023
-312,183	-200,000	0,008	0,045
-311,168	-155,221	-0,058	-0,003
-310,153	87,910	-0,179	-0,142
-309,139	-200,000	-0,007	-0,084
-308,124	-200,000	0,001	-0,084
-307,110	-200,000	-0,010	-0,037
-306,095	162,718	0,088	0,088
-305,080	-200,000	0,021	-0,143
-304,066	-197,362	0,018	0,000
-303,051	12,632	-0,100	0,055
-302,037	800,000	-0,020	-0,046
-301,022	-200,000	0,005	-0,080
-300,008	281,054	-0,010	0,013
-298,993	-200,000	0,020	-0,130
-297,978	237,223	-0,022	-0,026
-296,964	-200,000	-0,021	0,075
-295,949	83,983	0,051	0,040
-294,935	800,000	0,037	0,110
-293,920	-200,000	0,013	0,055
-292,905	746,502	0,018	0,035
-291,891	19,854	0,034	0,019
-290,876	800,000	0,088	0,195
-289,862	-200,000	-0,040	0,144
-288,847	-109,320	-0,118	-0,018
-287,832	-200,000	-0,002	-0,016
-286,818	628,255	0,042	0,076
-285,803	-200,000	-0,005	-0,049
-284,789	-200,000	0,033	-0,159
-283,774	40,676	0,086	0,055
-282,759	511,830	0,095	0,158
-281,745	-72,166	-0,103	0,027
-280,730	-16,482	-0,055	0,025
-279,716	19,224	0,042	-0,024
-278,701	792,934	0,068	-0,134
-277,686	-23,993	0,143	0,061
-276,672	397,502	-0,031	0,047
-275,657	113,276	0,085	-0,073
-274,643	387,403	-0,074	-0,110
-273,628	-200,000	-0,007	-0,079
-272,613	378,070	-0,052	0,077
-271,599	282,880	0,054	0,069
-270,584	-122,282	0,063	-0,007
-269,570	-23,753	0,157	0,067
-268,555	-71,914	0,099	-0,026
-267,540	-25,064	-0,046	-0,019
-266,526	800,000	-0,054	-0,114
-265,511	-24,050	-0,085	0,036
-264,497	59,682	0,022	0,015
-263,482	-60,118	0,148	0,045
-262,467	-14,602	-0,140	-0,064
-261,453	-143,250	-0,123	0,008
-260,438	-200,000	0,006	-0,020
-259,424	24,037	-0,098	-0,058
-258,409	-26,244	0,050	-0,021
-257,395	-188,671	-0,173	0,001
-256,380	216,174	0,036	0,041
-255,365	-74,486	0,116	-0,030
-254,351	-162,997	-0,068	-0,002
-253,336	-200,000	-0,004	0,109
-252,322	-52,175	-0,110	0,036
-251,307	-138,973	-0,062	0,005
-250,292	67,606	-0,163	-0,119
-249,278	545,609	0,118	0,203
-248,263	117,565	0,105	-0,092
-247,249	261,792	-0,032	0,039
-246,234	800,000	0,055	-0,111
-245,219	-178,839	0,018	0,000
-244,205	800,000	-0,023	0,054
-243,190	-200,000	0,018	0,099
-242,176	-30,308	0,064	0,026
-241,161	75,472	0,041	0,031
-240,146	-121,985	0,047	0,005
-239,132	203,999	-0,065	0,072
-238,117	-138,787	-0,060	-0,005
-237,103	-200,000	-0,002	-0,033
-236,088	-200,000	-0,017	0,058
-235,073	-200,000	-0,017	0,078
-234,059	-114,841	0,015	-0,002
-233,044	-200,000	-0,002	0,018
-232,030	-200,000	-0,020	0,104
-231,015	62,068	0,018	0,013
-230,000	-200,000	0,036	0,172
-228,986	-94,958	0,106	-0,020
-227,971	-135,856	-0,053	0,004
-226,957	-165,567	0,086	-0,003
-225,942	161,333	-0,183	0,183
-224,927	-8,358	-0,066	-0,031
-223,913	-137,637	-0,132	-0,010
-222,898	90,926	-0,044	0,035
-221,884	-200,000	0,016	-0,080
-220,869	-200,000	0,012	0,231
-219,855	30,097	0,086	0,052
-218,840	82,490	0,093	0,072
-217,825	800,000	-0,032	0,096
-216,811	202,410	0,051	-0,057
-215,796	18,744	-0,149	-0,085
-214,782	124,218	0,160	-0,144
-213,767	3,855	-0,073	0,038
-212,752	-126,112	-0,022	-0,002
-211,738	-71,456	0,074	-0,020
-210,723	-48,081	-0,086	0,029
-209,709	-65,588	0,053	-0,015
-208,694	462,710	-0,093	-0,149
-207,679	61,414	-0,162	-0,115
-206,665	-37,472	-0,027	0,010
-205,650	443,778	0,123	0,193
-204,636	165,758	0,085	0,085
-203,621	156,646	0,040	-0,039
-202,606	-200,000	-0,025	-0,091
-201,592	800,000	-0,032	0,086
-200,577	-200,000	0,002	0,054
-199,563	427,647	0,078	0,120
-198,548	-73,326	0,240	0,062
-197,533	13,592	-0,167	0,092
-196,519	-23,625	-0,029	0,012
-195,504	-135,408	0,148	0,012
-194,490	-114,663	-0,062	0,008
-193,475	-92,539	-0,105	0,021
-192,460	-200,000	0,030	-0,166
-191,446	-89,888	0,073	-0,015
-190,431	-200,000	0,004	0,024
-189,417	-164,697	0,221	0,007
-188,402	800,000	0,025	0,062
-187,387	345,959	-0,035	-0,050
-186,373	595,106	0,063	-0,112
-185,358	800,000	0,003	0,007
-184,344	-66,768	-0,099	-0,028
-183,329	-67,593	0,079	-0,022
-182,315	771,925	0,039	0,076
-181,300	-91,493	-0,070	0,014
-180,285	800,000	0,059	0,122
-179,271	-138,396	-0,087	-0,007
-178,256	-134,494	0,008	0,001
-177,242	21,385	0,107	-0,062
-176,227	-200,000	-0,016	-0,079
-175,212	389,285	0,027	-0,040
-174,198	286,954	-0,134	0,172
-173,183	800,000	-0,018	0,047
-172,169	74,181	0,038	-0,028
-171,154	-200,000	-0,002	-0,042
-170,139	198,074	0,080	0,087
-169,125	-200,000	0,010	0,095
-168,110	607,703	-0,050	0,089
-167,096	82,309	0,072	-0,056
-166,081	117,333	-0,087	-0,076
-165,066	195,093	0,031	-0,033
-164,052	800,000	-0,081	0,206
-163,037	-20,209	0,045	-0,020
-162,023	73,528	0,059	-0,044
-161,008	800,000	0,022	-0,049
-159,993	-120,379	-0,080	0,010
-158,979	45,748	0,105	-0,069
-157,964	234,138	-0,094	-0,110
-156,950	-200,000	-0,005	0,047
-155,935	343,632	0,044	-0,061
-154,920	-165,047	-0,029	-0,001
-153,906	72,636	-0,010	0,008
-152,891	-200,000	-0,016	-0,118
-151,877	105,808	0,082	-0,069
-150,862	800,000	-0,024	0,062
-149,847	-47,320	-0,041	-0,014
-148,833	-59,337	-0,063	-0,019
-147,818	36,901	0,053	-0,033
-146,804	800,000	-0,022	0,048
-145,789	80,184	0,099	0,075
-144,775	764,742	0,009	0,017
-143,760	-200,000	0,011	-0,126
-142,745	800,000	0,035	0,089
-141,731	-91,676	0,080	0,016
-140,716	-47,989	0,131	0,045
-139,702	-33,269	0,053	0,021
-138,687	38,965	-0,097	0,061
-137,672	-47,519	-0,102	-0,035
-136,658	-200,000	0,007	0,051
-135,643	-200,000	-0,014	-0,046
-134,629	800,000	0,034	-0,083
-133,614	-200,000	0,018	0,111
-132,599	800,000	0,031	-0,074
-131,585	-200,000	0,042	-0,206
-130,570	-33,858	0,046	0,018
-129,556	-130,861	-0,140	-0,013
-128,541	34,784	-0,162	-0,100
-127,526	32,237	0,034	0,021
-126,512	11,768	0,034	0,019
-125,497	-61,775	0,083	-0,025
-124,483	-200,000	0,014	0,071
-123,468	20,457	-0,026	0,015
-122,453	-18,325	0,081	-0,036
-121,439	-57,793	-0,053	0,016
-120,424	255,116	0,029	0,035
-119,410	111,363	0,052	0,044
-118,395	-200,000	0,023	-0,086
-117,380	-112,684	0,126	-0,018
-116,366	-200,000	-0,005	0,050
-115,351	-80,403	-0,041	-0,010
-114,337	800,000	0,043	-0,086
-113,322	153,480	-0,127	-0,123
-112,307	161,074	0,024	0,024
-111,293	-111,343	0,110	-0,016
-110,278	44,510	0,072	0,047
-109,264	-19,953	-0,094	0,041
-108,249	297,804	0,071	-0,093
-107,234	14,481	-0,045	-0,025
-106,220	-71,559	-0,035	-0,009
-105,205	800,000	0,033	-0,100
-104,191	-90,907	0,090	-0,018
-103,176	682,898	-0,065	-0,121
-102,162	-95,836	-0,124	-0,023
-101,147	-97,875	-0,107	-0,019
-100,132	-4,123	-0,113	0,055
-99,118	-153,099	0,068	0,003
-98,103	-56,245	0,089	-0,028
-97,089	-117,998	0,098	-0,012
-96,074	-128,151	0,113	-0,011
-95,059	-82,452	-0,044	0,010
-94,045	-200,000	0,022	-0,103
-93,030	-200,000	0,002	-0,098
-92,016	71,596	-0,071	-0,052
-91,001	251,218	-0,015	-0,018
-89,986	800,000	0,013	-0,031
-88,972	186,057	-0,047	0,049
-87,957	13,042	0,053	0,029
-86,943	542,318	0,063	-0,107
-85,928	32,100	0,061	0,037
-84,913	800,000	0,034	-0,104
-83,899	-121,570	-0,048	-0,006
-82,884	-71,297	0,050	0,013
-81,870	800,000	0,042	0,086
-80,855	17,676	-0,031	0,017
-79,840	-65,534	-0,123	0,035
-78,826	112,356	0,054	-0,047
-77,811	-143,029	-0,126	0,008
-76,797	-200,000	-0,007	-0,060
-75,782	-132,431	0,112	-0,010
-74,767	-144,231	0,143	-0,009
-73,753	24,425	0,069	-0,040
-72,738	339,735	-0,043	0,059
-71,724	-28,864	-0,137	-0,055
-70,709	176,894	-0,073	-0,076
-69,694	0,386	-0,027	-0,014
-68,680	467,213	-0,047	0,075
-67,665	-200,000	-0,012	-0,050
-66,651	187,225	0,084	0,088
-65,636	-200,000	0,006	0,124
-64,622	307,928	0,064	0,085
-63,607	-200,000	-0,029	-0,094
-62,592	-49,732	-0,033	0,011
-61,578	-200,000	-0,014	-0,070
-60,563	115,815	0,135	0,117
-59,549	140,361	-0,065	0,061
-58,534	-43,268	-1,615	-0,576
-57,519	371,206	-1,427	-2,056
-56,505	-200,000	-0,535	-4,683
-55,490	166,922	0,917	0,922
-54,476	800,000	4,989	11,469
-53,461	-200,000	18,843	305,518
-52,446	800,000	736,354	2292,520
-51,432	566,923	1652,725	2851,430
-50,417	78,975	1670,155	1264,709
-49,403	22,065	1543,301	889,157
-48,388	15,990	1465,906	815,057
-47,373	17,763	1455,902	818,024
-46,359	16,860	1446,202	808,213
-45,344	14,271	1441,427	793,119
-44,330	14,189	1439,597	791,688
-43,315	14,191	1437,886	790,728
-42,300	14,205	1436,313	789,896
-41,286	14,229	1435,116	789,319
-40,271	14,154	1433,991	788,315
-39,257	14,172	1432,607	787,608
-38,242	14,227	1431,113	787,015
-37,227	14,260	1430,006	786,533
-36,213	14,212	1428,748	785,582
-35,198	14,239	1427,577	785,035
-34,184	14,255	1426,719	784,610
-33,169	14,193	1425,359	783,533
-32,154	14,222	1424,193	783,000
-31,140	14,218	1423,080	782,340
-30,125	14,259	1421,763	781,778
-29,111	14,221	1420,853	781,066
-28,096	14,205	1419,693	780,322
-27,082	14,203	1418,608	779,683
-26,067	14,150	1417,463	778,776
-25,052	14,141	1416,617	778,238
-24,038	14,171	1415,379	777,667
-23,023	14,166	1414,281	777,009
-22,009	14,131	1413,543	776,411
-20,994	14,126	1412,586	775,830
-19,979	14,125	1411,701	775,306
-18,965	14,048	1410,912	774,481
-17,950	14,075	1409,812	773,973
-16,936	14,089	1408,918	773,517
-15,921	14,042	1407,787	772,648
-14,906	14,048	1407,082	772,257
-13,892	14,069	1405,853	771,650
-12,877	14,071	1405,064	771,197
-11,863	14,066	1404,180	770,659
-10,848	14,045	1403,225	770,005
-9,833	14,044	1402,350	769,489
-8,819	14,039	1401,248	768,830
-7,804	13,970	1400,469	768,050
-6,790	13,932	1399,621	767,380
-5,775	13,969	1398,427	766,868
-4,760	13,996	1397,447	766,422
-3,746	13,956	1396,567	765,726
-2,731	13,973	1395,929	765,425
-1,717	13,963	1394,887	764,778
-0,702	13,939	1393,398	763,817
0,313	17,736	1311,289	736,422
1,327	33,941	706,131	434,113
2,342	52,081	124,156	83,564
3,356	1,087	16,763	8,480
4,371	8,621	3,275	1,739
5,386	10,887	0,577	0,311
6,400	800,000	0,124	0,289
7,415	284,603	-0,191	-0,243
8,429	166,132	-0,324	-0,325
9,444	-67,917	-0,388	-0,106
10,459	113,985	-0,268	-0,230
11,473	9,058	-0,412	-0,219
12,488	-106,410	-0,226	-0,035
13,502	-1,117	-0,321	-0,160
14,517	50,034	-0,315	-0,210
15,531	272,248	-0,239	-0,299
16,546	19,843	-0,391	-0,222
17,561	800,000	-0,153	-0,323
18,575	49,215	-0,163	-0,108
19,590	102,066	-0,302	-0,249
20,604	-17,032	-0,247	-0,110
21,619	230,670	-0,393	-0,455
22,634	74,505	-0,384	-0,285
23,648	60,310	-0,470	-0,328
24,663	98,166	-0,365	-0,296
25,677	152,209	-0,275	-0,265
26,692	106,709	-0,261	-0,218
27,707	-23,293	-0,460	-0,194
28,721	12,266	-0,327	-0,177
29,736	134,602	-0,316	-0,290
30,750	142,677	-0,380	-0,356
31,765	-33,927	-0,433	-0,167
32,780	77,809	-0,392	-0,294
33,794	132,876	-0,256	-0,233
34,809	118,785	-0,254	-0,221
35,823	24,568	-0,428	-0,249
36,838	163,974	-0,370	-0,368
37,853	39,677	-0,360	-0,227
38,867	114,333	-0,394	-0,339
39,882	143,738	-0,298	-0,280
40,896	229,958	-0,287	-0,331
41,911	138,665	-0,297	-0,275
42,926	86,327	-0,401	-0,312
43,940	59,831	-0,367	-0,255
44,955	215,305	-0,366	-0,410
45,969	24,878	-0,314	-0,183
46,984	80,854	-0,400	-0,304
47,999	103,629	-0,289	-0,239
49,013	386,646	-0,270	-0,394
50,028	361,173	-0,212	-0,300
51,042	187,211	-0,289	-0,304
52,057	109,391	-0,313	-0,264
53,071	194,874	-0,242	-0,259
54,086	215,111	-0,340	-0,380
55,101	29,000	-0,406	-0,242
56,115	-36,664	-0,229	-0,086
57,130	19,346	-0,283	-0,160
58,144	154,583	-0,276	-0,267
59,159	105,322	-0,428	-0,356
60,174	20,366	-0,339	-0,192
61,188	-9,435	-0,339	-0,159
62,203	95,613	-0,332	-0,266
63,217	176,636	-0,267	-0,273
64,232	85,438	-0,327	-0,252
65,247	119,683	-0,337	-0,294
66,261	-12,836	-0,307	-0,140
67,276	-9,018	-0,320	-0,150
68,290	-59,579	-0,406	-0,122
69,305	782,982	-0,196	-0,380
70,320	145,736	-0,254	-0,239
71,334	173,195	-0,312	-0,317
72,349	89,960	-0,272	-0,213
73,363	105,057	-0,250	-0,207
74,378	8,890	-0,286	-0,151
75,393	-5,837	-0,269	-0,129
76,407	-13,440	-0,217	-0,099
77,422	108,590	-0,305	-0,256
78,436	90,868	-0,162	-0,128
79,451	243,496	-0,263	-0,310
80,466	73,694	-0,396	-0,291
81,480	57,710	-0,285	-0,196
82,495	49,812	-0,439	-0,290
83,509	8,744	-0,306	-0,161
84,524	65,028	-0,364	-0,258
85,539	181,748	-0,196	-0,203
86,553	-118,220	-0,201	0,025
87,568	178,388	-0,256	-0,263
88,582	143,089	-0,250	-0,234
89,597	764,409	-0,248	-0,475
90,611	-128,033	-0,319	-0,032
91,626	-12,315	-0,371	-0,169
92,641	800,000	-0,157	-0,306
93,655	252,804	-0,324	-0,388
94,670	7,293	-0,422	-0,220
95,684	99,633	-0,294	-0,239
96,699	39,946	-0,328	-0,206
97,714	94,429	-0,250	-0,199
98,728	30,728	-0,271	-0,162
99,743	-94,386	-0,308	-0,058
100,757	273,307	-0,221	-0,274
101,772	51,836	-0,130	-0,087
102,787	208,585	-0,229	-0,252
103,801	51,590	-0,327	-0,218
104,816	-35,755	-0,270	-0,102
105,830	413,823	-0,157	-0,236
106,845	257,621	-0,128	-0,154
107,860	28,679	-0,296	-0,175
108,874	135,155	-0,220	-0,201
109,889	174,882	-0,330	-0,335
110,903	-200,000	-0,069	-0,270
111,918	270,530	-0,230	-0,284
112,933	-6,997	-0,235	-0,112
113,947	136,475	-0,183	-0,167
114,962	-13,714	-0,392	-0,177
115,976	455,175	-0,204	-0,319
116,991	800,000	-0,113	-0,284
118,006	229,850	-0,279	-0,320
119,020	-52,055	-0,180	-0,058
120,035	168,293	-0,164	-0,164
121,049	32,028	-0,136	-0,082
122,064	709,835	-0,114	-0,211
123,079	4,435	-0,231	-0,118
124,093	92,750	-0,284	-0,225
125,108	709,634	-0,127	-0,236
126,122	102,719	-0,191	-0,156
127,137	-153,376	-0,222	-0,011
128,151	267,198	-0,147	-0,181
129,166	-67,346	-0,203	-0,056
130,181	90,367	-0,243	-0,190
131,195	-95,576	-0,239	-0,044
132,210	800,000	-0,146	-0,318
133,224	374,746	-0,213	-0,304
134,239	800,000	-0,135	-0,294
135,254	-95,779	-0,205	-0,038
136,268	-4,255	-0,281	-0,136
137,283	175,052	-0,228	-0,231
138,297	60,566	-0,247	-0,171
139,312	-27,057	-0,408	-0,166
140,327	19,626	-0,328	-0,184
141,341	1,922	-0,307	-0,154
142,356	83,727	-0,199	-0,152
143,370	74,131	-0,332	-0,244
144,385	83,903	-0,171	-0,130
145,400	218,531	-0,190	-0,212
146,414	87,054	-0,189	-0,145
147,429	106,650	-0,242	-0,201
148,443	144,292	-0,242	-0,226
149,458	124,141	-0,157	-0,138
150,473	-117,956	-0,256	-0,032
151,487	-64,730	-0,273	-0,077
152,502	215,363	-0,272	-0,301
153,516	328,997	-0,140	-0,189
154,531	11,557	-0,272	-0,145
155,546	-15,107	-0,278	-0,124
156,560	152,019	-0,131	-0,125
157,575	-37,508	-0,315	-0,117
158,589	-17,636	-0,310	-0,135
159,604	173,032	-0,199	-0,200
160,619	325,455	-0,206	-0,275
161,633	-91,143	-0,231	-0,046
162,648	38,409	-0,334	-0,207
163,662	-104,094	-0,162	-0,026
164,677	85,911	-0,280	-0,215
165,692	203,453	-0,228	-0,246
166,706	201,886	-0,202	-0,218
167,721	12,111	-0,303	-0,162
168,735	159,203	-0,266	-0,258
169,750	152,632	-0,314	-0,299
170,764	-23,005	-0,214	-0,089
171,779	284,601	-0,113	-0,142
172,794	45,313	-0,228	-0,147
173,808	88,472	-0,252	-0,195
174,823	76,799	-0,220	-0,163
175,837	112,290	-0,156	-0,131
176,852	183,097	-0,255	-0,263
177,867	63,476	-0,185	-0,129
178,881	27,468	-0,260	-0,152
179,896	16,577	-0,192	-0,105
180,910	174,910	-0,255	-0,258
181,925	-45,511	-0,378	-0,130
182,940	161,595	-0,215	-0,210
183,954	28,346	-0,244	-0,143
184,969	-73,959	-0,308	-0,077
185,983	-56,376	-0,339	-0,104
186,998	-139,449	-0,148	0,011
188,013	-110,661	-0,160	-0,023
189,027	136,475	-0,248	-0,225
190,042	800,000	-0,109	-0,218
191,056	125,260	-0,304	-0,267
192,071	14,993	-0,311	-0,169
193,086	93,447	-0,269	-0,212
194,100	75,482	-0,229	-0,168
195,115	-200,000	-0,082	-0,343
196,129	139,985	-0,297	-0,273
197,144	396,976	-0,225	-0,328
198,159	140,254	-0,251	-0,230
199,173	117,575	-0,161	-0,138
200,188	201,121	-0,114	-0,122
201,202	401,847	-0,108	-0,158
202,217	163,539	-0,175	-0,171
203,232	63,428	-0,284	-0,198
204,246	-200,000	-0,084	-0,270
205,261	381,681	-0,116	-0,166
206,275	294,358	-0,149	-0,189
207,290	800,000	-0,099	-0,237
208,304	25,573	-0,159	-0,092
209,319	719,624	-0,121	-0,224
210,334	126,233	-0,169	-0,148
211,348	256,177	-0,155	-0,185
212,363	13,526	-0,240	-0,129
213,377	91,491	-0,220	-0,172
214,392	-200,000	-0,069	-0,260
215,407	191,417	-0,203	-0,213
216,421	-17,348	-0,259	-0,113
217,436	-31,606	-0,155	-0,060
218,450	175,259	-0,191	-0,193
219,465	324,315	-0,113	-0,150
220,480	-175,660	-0,263	0,005
221,494	-200,000	-0,075	-0,268
222,509	-200,000	-0,025	-0,086
223,523	-126,220	-0,143	-0,015
224,538	-20,018	-0,188	-0,080
225,553	151,595	-0,237	-0,224
226,567	528,242	-0,161	-0,264
227,582	18,957	-0,121	-0,067
228,596	-94,536	-0,091	-0,017
229,611	43,951	-0,164	-0,104
230,626	-160,697	-0,175	-0,006
231,640	-9,140	-0,284	-0,131
232,655	95,297	-0,125	-0,099
233,669	392,837	-0,167	-0,242
234,684	115,212	-0,283	-0,240
235,699	271,468	-0,191	-0,234
236,713	122,897	-0,210	-0,182
237,728	-96,261	-0,146	-0,026
238,742	-127,742	-0,142	-0,014
239,757	800,000	-0,080	-0,183
240,772	-6,545	-0,249	-0,117
241,786	212,504	-0,208	-0,228
242,801	143,618	-0,105	-0,097
243,815	208,663	-0,152	-0,165
244,830	455,845	-0,148	-0,228
245,844	20,177	-0,053	-0,029
246,859	291,410	-0,125	-0,158
247,874	30,439	-0,247	-0,146
248,888	6,778	-0,209	-0,107
249,903	614,624	-0,117	-0,203
250,917	-90,775	-0,330	-0,065
251,932	159,707	-0,103	-0,100
252,947	158,217	-0,175	-0,168
253,961	800,000	-0,060	-0,176
254,976	184,746	-0,200	-0,205
255,990	219,205	-0,175	-0,194
257,005	418,785	-0,155	-0,230
258,020	-34,781	-0,189	-0,071
259,034	258,109	-0,177	-0,211
260,049	30,565	-0,176	-0,104
261,063	-108,452	-0,134	-0,020
262,078	212,042	-0,154	-0,168
263,093	-52,663	-0,307	-0,097
264,107	84,102	-0,272	-0,205
265,122	-93,188	-0,061	-0,012
266,136	319,960	-0,132	-0,174
267,151	-18,983	-0,239	-0,102
268,166	397,686	-0,159	-0,230
269,180	168,858	-0,141	-0,139
270,195	-92,474	-0,078	0,015
271,209	-160,640	-0,187	-0,007
272,224	177,600	-0,116	-0,116
273,239	-183,940	-0,128	-0,001
274,253	81,708	-0,149	-0,111
275,268	135,819	-0,076	-0,068
276,282	-200,000	0,014	-0,194
277,297	-104,736	-0,217	-0,034
278,312	316,769	-0,125	-0,164
279,326	122,214	-0,076	-0,066
280,341	230,184	-0,164	-0,185
281,355	230,265	-0,129	-0,145
282,370	326,935	-0,210	-0,278
283,384	229,030	-0,239	-0,269
284,399	-50,955	-0,256	-0,083
285,414	-114,832	-0,130	-0,017
286,428	565,638	-0,040	-0,066
287,443	68,540	-0,078	-0,055
288,457	800,000	-0,064	-0,146
289,472	221,162	-0,172	-0,191
290,487	691,496	-0,117	-0,212
291,501	613,549	-0,098	-0,169
292,516	67,970	-0,130	-0,092
293,530	55,049	-0,158	-0,105
294,545	-47,328	-0,174	-0,058
295,560	106,750	-0,083	-0,068
296,574	-17,715	-0,116	0,050
297,589	-113,821	-0,112	-0,015
298,603	6,044	-0,242	-0,123
299,618	800,000	-0,059	-0,128
300,633	149,700	-0,178	-0,166
301,647	800,000	0,045	-0,122
302,662	49,297	-0,204	-0,132
303,676	102,869	-0,089	-0,072
304,691	114,753	-0,118	-0,099
305,706	-52,174	-0,142	-0,045
306,720	157,556	-0,177	-0,169
307,735	91,581	-0,125	-0,097
308,749	-75,206	-0,154	-0,038
309,764	211,809	-0,143	-0,155
310,779	-200,000	-0,027	-0,208
311,793	-4,193	-0,129	-0,061
312,808	48,031	-0,275	-0,177
313,822	281,375	-0,221	-0,273
314,837	318,289	-0,118	-0,154
315,852	-200,000	0,053	-0,199
316,866	103,560	-0,132	-0,106
317,881	-60,831	-0,176	-0,051
318,895	164,973	-0,167	-0,162
319,910	-133,720	-0,090	-0,008
320,925	218,974	-0,070	-0,077
321,939	170,177	-0,121	-0,119
322,954	565,146	-0,097	-0,163
323,968	-200,000	0,006	-0,028
324,983	-103,645	-0,116	-0,019
325,997	94,795	-0,262	-0,205
327,012	312,207	-0,142	-0,183
328,027	186,939	-0,259	-0,266
329,041	-19,945	-0,223	-0,094
330,056	-200,000	-0,011	0,138
331,070	-200,000	-0,061	-0,218
332,085	319,700	0,049	-0,064
333,100	-200,000	0,022	-0,136
334,114	-39,543	-0,114	-0,041
335,129	312,374	-0,075	-0,097
336,143	754,570	-0,126	-0,235
337,158	-25,338	-0,165	-0,067
338,173	-21,529	-0,054	-0,023
339,187	119,890	-0,027	-0,023
340,202	75,641	-0,035	-0,025
341,216	73,287	-0,137	-0,098
342,231	-65,043	-0,246	-0,068
343,246	800,000	-0,061	-0,145
344,260	6,478	-0,207	-0,105
345,275	499,217	-0,066	-0,105
346,289	539,244	-0,139	-0,228
347,304	326,894	-0,119	-0,157
348,319	-56,066	-0,104	-0,032
349,333	137,773	-0,221	-0,198
350,348	-76,904	-0,164	-0,039
351,362	800,000	-0,062	-0,136
352,377	526,929	-0,078	0,126
353,392	800,000	-0,047	-0,119
354,406	-200,000	-0,009	-0,079
355,421	209,637	1315,645	1416,595
356,435	161,358	1476,469	1417,092
