DTS Sentinel unit serial number:	SN410029Multiplexer serial number:	ORYXHardware model number:	OX2-SRSoftware version number:	ORYX F/W v4,00 Oryx Data Collector v3.7.2.0data status	okinstallation	B3 Nyhavnadifferential loss correction	single-endedforward channel	channel 1reverse channel	N/Adate	2023/12/04time	01:37:30forward acquisition time	300,00reverse acquisition time	0,00gamma	499,1914k internal	0,3204k external	0,3204temperature offset calibration	1,0000default loss term (dB/km)	0,3820temperature slope calibration	1,0000multiplexer offset coefficient	1,0000multiplexer slope coefficient	1,0000fibre end	0,00T internal ref (°C)	12,43T ext. ref 1 (°C)	-2,79T ext. ref 2 (°C)	-2,81length (m)	temperature (°C)	Stokes	anti-Stokes-744,400	122,726	-0,275	-0,250
-743,385	-200,000	0,039	0,197
-742,371	648,750	-0,114	-0,212
-741,356	-200,000	-0,008	0,327
-740,342	-200,000	-0,053	-0,193
-739,327	-200,000	0,018	0,295
-738,312	85,853	-0,215	-0,172
-737,298	312,110	-0,088	0,120
-736,283	153,009	-0,167	-0,166
-735,269	-200,000	0,082	0,283
-734,254	41,366	-0,221	-0,145
-733,239	519,391	-0,076	0,129
-732,225	248,810	-0,144	-0,178
-731,210	-200,000	0,037	0,210
-730,196	-14,018	0,092	-0,043
-729,181	-200,000	0,004	-0,107
-728,167	800,000	0,044	0,092
-727,152	321,327	0,038	-0,053
-726,137	35,187	-0,042	-0,027
-725,123	542,876	0,037	-0,065
-724,108	-45,030	-0,121	0,043
-723,094	144,517	0,059	-0,057
-722,079	21,482	-0,115	-0,068
-721,064	-1,504	-0,081	-0,041
-720,050	155,034	0,072	0,072
-719,035	-3,102	0,044	-0,022
-718,021	142,757	-0,109	-0,105
-717,006	131,918	-0,023	-0,021
-715,991	-110,091	-0,188	-0,028
-714,977	800,000	-0,032	0,074
-713,962	800,000	-0,026	-0,059
-712,948	-200,000	0,026	0,224
-711,933	-131,530	-0,022	0,002
-710,918	266,181	-0,011	-0,014
-709,904	-200,000	0,036	-0,154
-708,889	-27,990	-0,072	0,030
-707,875	259,297	-0,074	0,093
-706,860	-200,000	-0,002	0,177
-705,845	-34,822	-0,059	0,023
-704,831	484,292	0,039	0,064
-703,816	3,799	-0,075	0,040
-702,802	194,835	-0,037	-0,041
-701,787	87,140	-0,079	-0,064
-700,772	577,458	0,027	0,049
-699,758	-200,000	0,006	0,037
-698,743	800,000	-0,024	0,060
-697,729	0,742	0,135	-0,070
-696,714	-200,000	0,023	0,076
-695,699	-200,000	-0,009	-0,237
-694,685	-88,011	-0,074	0,016
-693,670	-197,162	-0,188	-0,001
-692,656	800,000	0,048	-0,137
-691,641	-200,000	0,006	0,023
-690,627	-200,000	0,003	0,015
-689,612	-135,706	-0,090	-0,008
-688,597	-102,264	0,081	-0,014
-687,583	-18,037	-0,068	-0,031
-686,568	303,858	0,076	0,102
-685,554	319,350	-0,039	-0,054
-684,539	-200,000	0,000	0,027
-683,524	-200,000	0,007	-0,048
-682,510	-200,000	0,021	-0,130
-681,495	-174,410	0,133	0,003
-680,481	87,358	-0,117	-0,094
-679,466	34,448	-0,132	0,083
-678,451	800,000	-0,024	-0,074
-677,437	-12,315	0,103	-0,048
-676,422	-200,000	0,016	-0,075
-675,408	-137,979	-0,130	-0,010
-674,393	-37,050	-0,125	0,048
-673,378	-109,427	-0,114	0,017
-672,364	282,199	-0,032	-0,042
-671,349	-115,431	0,105	-0,014
-670,335	-48,064	0,072	0,025
-669,320	-200,000	0,026	0,123
-668,305	-86,033	-0,039	0,009
-667,291	292,712	0,034	-0,045
-666,276	78,713	-0,104	-0,081
-665,262	-58,013	-0,037	0,012
-664,247	-79,543	-0,140	-0,034
-663,232	96,471	-0,145	0,121
-662,218	-200,000	0,031	0,104
-661,203	98,992	0,093	0,078
-660,189	99,659	-0,024	-0,020
-659,174	31,515	-0,151	-0,094
-658,159	762,983	-0,097	-0,191
-657,145	-200,000	-0,031	-0,100
-656,130	-133,780	0,098	0,009
-655,116	800,000	0,016	0,046
-654,101	-108,587	0,132	0,020
-653,086	35,039	-0,037	-0,023
-652,072	109,402	0,011	-0,009
-651,057	-117,705	-0,149	0,019
-650,043	-200,000	0,013	0,131
-649,028	472,130	0,056	-0,092
-648,014	-200,000	-0,004	0,114
-646,999	757,753	-0,018	0,035
-645,984	-150,389	-0,063	0,003
-644,970	82,462	-0,093	0,073
-643,955	120,963	0,090	0,081
-642,941	-200,000	0,028	0,103
-641,926	-200,000	-0,011	-0,071
-640,911	799,279	0,072	-0,145
-639,897	800,000	0,020	0,065
-638,882	25,685	-0,067	0,040
-637,868	29,966	-0,107	-0,066
-636,853	-152,613	0,030	0,002
-635,838	-200,000	0,011	-0,049
-634,824	-53,149	0,053	-0,017
-633,809	-131,885	-0,063	0,006
-632,795	800,000	0,013	-0,043
-631,780	-200,000	0,020	0,081
-630,765	241,792	-0,050	0,060
-629,751	-37,037	0,056	0,022
-628,736	-45,637	-0,141	-0,050
-627,722	50,373	0,103	0,070
-626,707	68,371	0,028	0,021
-625,692	-84,382	-0,074	-0,017
-624,678	-200,000	0,008	-0,043
-623,663	-2,424	0,040	-0,020
-622,649	-11,849	-0,026	-0,013
-621,634	800,000	-0,021	0,045
-620,619	-132,193	0,031	0,003
-619,605	-102,682	-0,102	0,017
-618,590	-64,656	0,015	0,004
-617,576	-72,551	-0,056	0,015
-616,561	800,000	0,004	0,008
-615,546	17,473	0,086	-0,049
-614,532	151,408	-0,167	-0,164
-613,517	425,461	0,083	-0,130
-612,503	-15,336	0,075	-0,035
-611,488	-200,000	0,000	0,001
-610,474	-132,865	0,094	0,009
-609,459	800,000	0,031	0,086
-608,444	325,473	-0,049	0,068
-607,430	-38,856	0,068	0,026
-606,415	136,616	0,074	0,070
-605,401	-200,000	-0,011	0,125
-604,386	-28,507	-0,056	-0,023
-603,371	-200,000	0,025	0,112
-602,357	-200,000	0,011	0,152
-601,342	-200,000	0,003	-0,035
-600,328	690,042	-0,031	-0,058
-599,313	-200,000	0,003	0,035
-598,298	72,584	0,015	-0,012
-597,284	-200,000	-0,009	-0,067
-596,269	141,528	-0,073	0,070
-595,255	82,836	-0,075	0,059
-594,240	-14,688	-0,097	0,045
-593,225	-139,776	0,096	-0,007
-592,211	613,339	-0,021	-0,038
-591,196	-200,000	0,010	0,045
-590,182	800,000	-0,047	0,101
-589,167	-0,541	-0,021	0,011
-588,152	-133,835	-0,082	0,007
-587,138	-170,747	0,080	0,002
-586,123	-29,092	-0,159	-0,066
-585,109	800,000	-0,039	-0,085
-584,094	-200,000	-0,014	0,076
-583,079	582,540	-0,049	0,087
-582,065	-200,000	0,014	0,047
-581,050	800,000	0,061	-0,146
-580,036	-200,000	0,004	0,030
-579,021	-107,432	0,031	-0,005
-578,006	-200,000	0,034	0,111
-576,992	-112,922	-0,051	0,007
-575,977	-200,000	-0,005	-0,077
-574,963	69,150	0,018	0,013
-573,948	259,635	-0,062	-0,078
-572,934	-86,601	-0,096	0,021
-571,919	800,000	0,059	-0,131
-570,904	-151,721	-0,060	0,003
-569,890	800,000	-0,014	0,029
-568,875	-41,204	0,080	0,030
-567,861	2,859	-0,097	-0,050
-566,846	800,000	0,044	0,093
-565,831	-61,221	0,025	0,007
-564,817	186,569	0,033	0,035
-563,802	151,224	-0,088	-0,086
-562,788	-43,499	-0,049	0,018
-561,773	18,148	0,046	0,026
-560,758	-111,475	0,038	-0,006
-559,744	-94,685	0,090	0,018
-558,729	168,354	-0,013	-0,013
-557,715	-200,000	-0,010	0,129
-556,700	-200,000	-0,029	-0,162
-555,685	800,000	0,034	-0,082
-554,671	-33,281	-0,179	0,071
-553,656	42,365	-0,052	0,034
-552,642	-200,000	0,035	0,118
-551,627	706,060	-0,030	0,057
-550,612	800,000	-0,039	0,093
-549,598	103,675	-0,135	0,114
-548,583	85,582	0,083	-0,066
-547,569	219,553	0,022	-0,026
-546,554	800,000	-0,029	-0,061
-545,539	361,019	-0,114	0,165
-544,525	-13,519	0,046	0,021
-543,510	-200,000	0,018	0,076
-542,496	-67,717	-0,141	-0,040
-541,481	27,085	0,135	0,081
-540,466	-11,679	-0,185	0,087
-539,452	80,609	0,129	-0,100
-538,437	-156,045	0,036	-0,002
-537,423	7,488	0,089	-0,048
-536,408	157,825	-0,107	-0,107
-535,393	-98,138	0,049	0,009
-534,379	211,194	-0,036	-0,041
-533,364	-200,000	0,012	0,067
-532,350	-200,000	0,004	0,029
-531,335	-200,000	-0,027	0,088
-530,321	143,851	0,026	0,025
-529,306	145,848	-0,090	0,087
-528,291	800,000	0,033	-0,092
-527,277	544,961	0,086	-0,149
-526,262	29,890	-0,046	-0,028
-525,248	-200,000	0,002	-0,065
-524,233	-200,000	-0,018	0,106
-523,218	337,406	0,030	-0,043
-522,204	-62,218	0,099	-0,029
-521,189	-169,253	0,024	-0,001
-520,175	104,508	0,049	-0,042
-519,160	-72,032	-0,139	-0,037
-518,145	-149,789	0,212	-0,012
-517,131	-200,000	0,024	-0,082
-516,116	800,000	0,044	-0,088
-515,102	-200,000	0,005	-0,028
-514,087	-27,453	-0,048	0,020
-513,072	-200,000	0,008	-0,046
-512,058	-62,499	-0,098	-0,029
-511,043	13,794	0,074	-0,041
-510,029	800,000	0,019	-0,039
-509,014	148,501	-0,095	0,093
-507,999	517,846	0,031	-0,052
-506,985	-200,000	-0,006	-0,039
-505,970	800,000	0,060	-0,122
-504,956	-200,000	-0,010	-0,061
-503,941	107,857	-0,098	0,084
-502,926	34,847	-0,060	-0,038
-501,912	103,512	0,049	-0,041
-500,897	71,767	0,063	0,047
-499,883	-179,679	0,050	-0,001
-498,868	182,251	0,072	-0,076
-497,853	461,463	-0,033	-0,053
-496,839	121,006	0,056	-0,050
-495,824	-42,775	0,072	0,026
-494,810	-163,381	0,081	0,003
-493,795	-30,061	-0,033	0,013
-492,781	172,111	-0,033	-0,034
-491,766	-72,616	0,049	0,013
-490,751	-3,272	-0,103	0,051
-489,737	411,925	0,093	-0,143
-488,722	-64,805	-0,168	0,049
-487,708	800,000	-0,010	0,021
-486,693	-200,000	-0,019	0,091
-485,678	365,515	0,080	0,116
-484,664	713,157	-0,032	-0,061
-483,649	127,316	-0,101	0,093
-482,635	504,305	-0,017	0,029
-481,620	-200,000	-0,044	-0,170
-480,605	27,754	-0,029	-0,018
-479,591	-200,000	0,001	-0,117
-478,576	-92,367	-0,128	-0,026
-477,562	800,000	-0,069	-0,144
-476,547	159,624	0,058	-0,058
-475,532	235,167	-0,068	0,081
-474,518	-79,800	0,059	-0,014
-473,503	149,371	0,088	0,086
-472,489	-50,155	-0,053	0,018
-471,474	-200,000	-0,027	0,106
-470,459	-157,530	-0,117	-0,005
-469,445	38,240	0,147	0,094
-468,430	-200,000	0,012	-0,056
-467,416	204,006	0,137	-0,153
-466,401	358,646	0,047	0,068
-465,386	558,348	0,043	-0,075
-464,372	-0,482	-0,154	-0,078
-463,357	-200,000	-0,010	-0,128
-462,343	-52,694	0,151	-0,050
-461,328	491,334	-0,039	-0,065
-460,313	-2,542	-0,009	0,004
-459,299	-19,963	0,040	0,018
-458,284	-200,000	-0,020	0,108
-457,270	800,000	0,032	0,071
-456,255	26,073	-0,037	-0,022
-455,241	610,955	0,056	-0,101
-454,226	143,240	-0,053	-0,050
-453,211	-16,099	0,075	0,034
-452,197	-200,000	-0,008	0,113
-451,182	-200,000	0,019	0,102
-450,168	177,390	-0,050	0,053
-449,153	34,562	0,031	0,019
-448,138	28,129	-0,170	-0,103
-447,124	-88,981	-0,056	0,012
-446,109	-200,000	0,034	-0,130
-445,095	-200,000	0,001	0,019
-444,080	204,336	0,050	0,056
-443,065	38,575	-0,137	-0,088
-442,051	-52,551	0,077	0,025
-441,036	-200,000	-0,008	0,030
-440,022	-101,089	0,129	0,022
-439,007	37,275	-0,030	0,019
-437,992	800,000	-0,009	0,022
-436,978	433,230	-0,048	0,075
-435,963	800,000	0,062	-0,176
-434,949	-200,000	0,018	0,063
-433,934	800,000	0,008	-0,018
-432,919	-52,325	-0,098	-0,033
-431,905	249,444	-0,046	0,056
-430,890	-146,113	0,050	0,003
-429,876	-200,000	-0,006	-0,101
-428,861	164,036	0,026	0,026
-427,846	-136,737	0,174	-0,014
-426,832	-200,000	-0,028	0,107
-425,817	-38,842	0,098	0,037
-424,803	176,978	-0,068	-0,071
-423,788	800,000	0,029	-0,081
-422,773	13,363	0,105	-0,058
-421,759	-44,197	0,053	0,019
-420,744	235,614	-0,037	-0,044
-419,730	153,991	0,104	-0,103
-418,715	250,611	-0,085	-0,104
-417,701	-57,045	-0,052	-0,017
-416,686	83,051	0,029	0,023
-415,671	468,526	0,052	-0,084
-414,657	-58,019	0,099	0,031
-413,642	138,366	-0,075	0,071
-412,628	12,711	-0,030	0,017
-411,613	-119,688	-0,086	-0,011
-410,598	-73,664	-0,105	0,027
-409,584	35,802	-0,057	-0,036
-408,569	-47,925	0,207	0,071
-407,555	83,132	-0,056	0,044
-406,540	105,175	0,046	0,039
-405,525	284,716	-0,120	-0,155
-404,511	107,575	0,055	-0,047
-403,496	-200,000	-0,014	-0,115
-402,482	108,334	-0,038	-0,032
-401,467	800,000	0,048	0,097
-400,452	153,920	0,060	0,059
-399,438	800,000	0,017	0,036
-398,423	-200,000	0,016	-0,070
-397,409	-200,000	-0,027	-0,116
-396,394	100,520	-0,038	-0,031
-395,379	-200,000	0,020	0,070
-394,365	208,124	0,092	0,103
-393,350	73,230	0,055	-0,042
-392,336	31,197	-0,113	0,069
-391,321	-74,459	0,086	0,022
-390,306	656,715	0,043	-0,079
-389,292	-131,387	0,211	-0,020
-388,277	231,383	-0,104	0,123
-387,263	-132,044	0,126	0,012
-386,248	800,000	-0,016	0,049
-385,233	-200,000	0,013	0,166
-384,219	800,000	0,051	-0,128
-383,204	383,223	0,030	-0,045
-382,190	-58,870	-0,031	0,010
-381,175	-59,484	-0,077	-0,023
-380,160	35,048	-0,176	0,110
-379,146	-24,600	0,126	-0,053
-378,131	-143,481	-0,029	-0,002
-377,117	-107,211	-0,151	-0,024
-376,102	-35,314	-0,146	-0,057
-375,088	385,380	-0,073	-0,108
-374,073	207,468	0,043	-0,048
-373,058	151,152	0,042	0,041
-372,044	-152,861	0,026	-0,001
-371,029	-200,000	0,012	0,060
-370,015	656,830	0,044	0,081
-369,000	625,102	-0,069	0,125
-367,985	-58,062	-0,065	-0,020
-366,971	-43,630	0,062	-0,022
-365,956	355,814	0,053	0,075
-364,942	-0,026	0,214	0,109
-363,927	106,475	-0,010	-0,008
-362,912	72,487	-0,059	0,044
-361,898	-200,000	0,006	-0,047
-360,883	-200,000	-0,012	-0,147
-359,869	-200,000	-0,033	-0,115
-358,854	205,925	-0,105	-0,117
-357,839	-200,000	-0,011	-0,038
-356,825	-200,000	0,003	-0,098
-355,810	-56,683	-0,068	0,021
-354,796	126,190	0,161	-0,145
-353,781	515,288	-0,028	-0,046
-352,766	800,000	-0,019	0,052
-351,752	800,000	0,026	-0,057
-350,737	800,000	-0,013	-0,029
-349,723	800,000	-0,029	0,060
-348,708	161,039	0,059	0,059
-347,693	-200,000	0,019	-0,098
-346,679	667,992	0,051	-0,095
-345,664	800,000	0,073	-0,197
-344,650	-200,000	0,026	0,083
-343,635	377,039	-0,027	0,040
-342,620	38,265	0,067	0,042
-341,606	109,595	-0,043	-0,037
-340,591	-103,799	-0,127	0,021
-339,577	-59,690	0,072	-0,022
-338,562	66,314	0,138	0,100
-337,548	-99,616	-0,038	-0,007
-336,533	264,247	-0,017	0,021
-335,518	-78,786	0,017	-0,004
-334,504	-200,000	0,016	0,090
-333,489	-77,177	-0,054	-0,013
-332,475	73,057	0,042	-0,031
-331,460	-200,000	-0,003	-0,049
-330,445	614,608	0,064	0,116
-329,431	60,602	0,074	0,052
-328,416	20,701	0,045	-0,026
-327,402	159,426	-0,042	0,042
-326,387	-80,550	-0,052	0,012
-325,372	388,765	-0,074	-0,110
-324,358	332,276	-0,032	-0,045
-323,343	-200,000	-0,004	0,019
-322,329	121,341	0,029	-0,025
-321,314	48,671	0,119	-0,080
-320,299	-0,888	-0,077	0,039
-319,285	-200,000	-0,016	0,111
-318,270	218,759	0,039	0,045
-317,256	21,737	0,106	-0,061
-316,241	-31,644	0,060	0,024
-315,226	280,726	0,055	-0,070
-314,212	282,533	0,064	-0,082
-313,197	800,000	0,018	0,046
-312,183	-41,153	-0,113	0,042
-311,168	-122,371	0,114	-0,013
-310,153	6,762	-0,087	-0,046
-309,139	-55,511	-0,025	-0,008
-308,124	113,299	0,059	-0,051
-307,110	206,369	-0,015	0,017
-306,095	418,407	0,107	0,164
-305,080	-200,000	-0,041	0,170
-304,066	-53,393	-0,145	-0,047
-303,051	777,561	-0,037	-0,073
-302,037	143,711	0,041	-0,039
-301,022	32,427	-0,071	-0,044
-300,008	800,000	-0,014	-0,039
-298,993	55,174	0,012	0,008
-297,978	-166,553	0,136	-0,004
-296,964	-200,000	-0,004	0,104
-295,949	64,534	-0,138	-0,099
-294,935	-200,000	0,012	-0,179
-293,920	-8,943	-0,176	0,084
-292,905	-18,385	0,095	-0,042
-291,891	263,875	-0,054	0,067
-290,876	81,771	-0,040	0,031
-289,862	800,000	0,009	-0,022
-288,847	800,000	0,052	-0,111
-287,832	-200,000	0,006	-0,026
-286,818	-69,667	0,041	0,011
-285,803	-200,000	0,028	-0,110
-284,789	71,006	0,019	0,014
-283,774	-106,301	0,137	-0,022
-282,759	-122,794	-0,105	-0,012
-281,745	24,755	-0,072	0,043
-280,730	12,369	-0,029	-0,016
-279,716	-200,000	-0,006	0,057
-278,701	-195,751	0,066	-0,000
-277,686	-200,000	0,021	0,111
-276,672	-71,122	-0,117	-0,031
-275,657	14,856	0,058	-0,032
-274,643	-200,000	-0,019	-0,069
-273,628	-96,989	0,016	-0,003
-272,613	-140,050	-0,171	-0,013
-271,599	251,303	0,017	-0,021
-270,584	180,018	-0,054	0,056
-269,570	532,711	-0,089	0,151
-268,555	-200,000	-0,010	0,060
-267,540	-83,534	-0,108	-0,024
-266,526	-117,384	-0,158	0,020
-265,511	309,403	0,033	-0,044
-264,497	800,000	0,018	0,046
-263,482	35,363	0,021	0,013
-262,467	139,861	0,134	-0,126
-261,453	55,369	-0,067	-0,046
-260,438	-146,481	-0,078	-0,005
-259,424	36,690	-0,036	-0,022
-258,409	-39,379	-0,119	-0,044
-257,395	-200,000	-0,011	0,064
-256,380	528,060	-0,082	-0,138
-255,365	30,519	0,030	-0,018
-254,351	384,680	0,032	0,047
-253,336	26,193	0,065	-0,039
-252,322	-4,334	0,057	-0,028
-251,307	18,859	-0,058	-0,033
-250,292	288,206	0,056	0,072
-249,278	779,087	0,050	0,099
-248,263	-200,000	0,027	0,136
-247,249	-150,116	0,068	0,004
-246,234	566,700	-0,058	-0,101
-245,219	349,049	-0,041	-0,057
-244,205	-88,501	0,056	0,012
-243,190	-76,450	0,103	0,026
-242,176	800,000	-0,018	-0,036
-241,161	-200,000	0,030	0,096
-240,146	-8,653	-0,036	-0,017
-239,132	-200,000	0,016	0,051
-238,117	-200,000	0,016	0,053
-237,103	239,115	-0,083	-0,099
-236,088	289,473	0,023	-0,030
-235,073	19,019	0,138	0,079
-234,059	-200,000	0,009	-0,032
-233,044	-131,893	0,059	-0,005
-232,030	128,425	-0,097	-0,088
-231,015	198,359	-0,062	-0,067
-230,000	800,000	0,005	0,011
-228,986	-71,227	-0,071	-0,019
-227,971	641,539	0,081	0,147
-226,957	84,071	-0,003	0,003
-225,942	-200,000	0,030	0,240
-224,927	-200,000	-0,007	-0,073
-223,913	-200,000	0,005	-0,030
-222,898	788,523	-0,028	-0,055
-221,884	-200,000	-0,017	-0,139
-220,869	-178,517	-0,059	-0,001
-219,855	417,360	0,047	0,072
-218,840	-200,000	-0,046	0,145
-217,825	157,592	-0,124	-0,122
-216,811	34,091	0,121	0,075
-215,796	-47,773	-0,142	0,049
-214,782	-142,130	-0,136	-0,009
-213,767	230,923	0,053	-0,062
-212,752	-200,000	-0,002	-0,079
-211,738	378,586	-0,055	0,081
-210,723	-200,000	0,030	0,096
-209,709	800,000	0,074	0,168
-208,694	-76,371	-0,027	0,007
-207,679	556,530	-0,025	-0,042
-206,665	508,216	-0,055	-0,092
-205,650	191,882	0,027	0,029
-204,636	466,211	0,096	0,153
-203,621	248,002	0,081	0,098
-202,606	209,521	0,025	0,028
-201,592	537,026	-0,048	-0,082
-200,577	234,654	0,089	0,105
-199,563	167,321	-0,090	0,091
-198,548	79,904	0,061	0,047
-197,533	355,895	-0,081	0,115
-196,519	-200,000	0,001	0,095
-195,504	63,366	-0,045	-0,032
-194,490	7,158	0,148	-0,078
-193,475	21,009	-0,081	-0,046
-192,460	81,949	-0,097	-0,075
-191,446	-103,864	0,093	-0,015
-190,431	58,043	0,045	-0,031
-189,417	-196,577	0,117	-0,001
-188,402	4,513	0,051	-0,026
-187,387	241,525	-0,029	-0,035
-186,373	-200,000	0,009	-0,051
-185,358	50,493	0,098	0,066
-184,344	-121,854	0,157	0,018
-183,329	800,000	0,046	0,114
-182,315	191,534	-0,033	0,036
-181,300	800,000	0,037	0,100
-180,285	30,675	0,098	0,059
-179,271	-9,742	0,071	-0,033
-178,256	49,182	0,125	-0,084
-177,242	503,546	0,054	-0,089
-176,227	-200,000	-0,024	-0,115
-175,212	800,000	-0,046	0,116
-174,198	72,748	-0,050	0,037
-173,183	17,251	-0,012	0,007
-172,169	-101,583	-0,117	0,020
-171,154	194,491	0,056	-0,060
-170,139	-200,000	0,015	0,056
-169,125	57,926	0,091	0,063
-168,110	-126,675	-0,161	-0,017
-167,096	-12,345	0,209	-0,097
-166,081	-164,986	-0,098	0,003
-165,066	118,094	0,014	-0,012
-164,052	-160,124	-0,045	-0,002
-163,037	-66,146	-0,102	0,029
-162,023	692,349	-0,084	0,157
-161,008	800,000	-0,029	0,080
-159,993	-0,927	0,120	0,060
-158,979	562,446	-0,025	-0,044
-157,964	21,392	-0,103	0,059
-156,950	22,983	-0,020	-0,011
-155,935	-200,000	-0,025	-0,147
-154,920	214,070	0,131	0,147
-153,906	10,789	0,030	0,016
-152,891	-53,147	-0,097	-0,031
-151,877	-165,179	-0,154	-0,005
-150,862	340,871	0,022	0,030
-149,847	585,575	-0,091	-0,159
-148,833	-200,000	0,005	0,018
-147,818	-200,000	0,009	0,051
-146,804	-200,000	0,000	-0,070
-145,789	-39,369	-0,082	-0,030
-144,775	-57,217	-0,034	0,011
-143,760	41,744	-0,175	0,112
-142,745	190,973	0,042	-0,045
-141,731	-200,000	0,059	0,237
-140,716	-200,000	0,044	0,137
-139,702	165,802	0,051	0,051
-138,687	-200,000	0,030	-0,116
-137,672	748,400	-0,021	0,040
-136,658	-37,726	-0,060	-0,023
-135,643	140,749	0,093	0,087
-134,629	-28,822	-0,012	0,005
-133,614	-71,225	-0,072	-0,019
-132,599	-155,275	0,086	-0,004
-131,585	-200,000	0,001	-0,019
-130,570	61,724	-0,057	0,040
-129,556	153,714	0,166	-0,161
-128,541	800,000	0,049	-0,154
-127,526	800,000	0,009	-0,020
-126,512	-200,000	0,029	0,133
-125,497	495,047	-0,027	0,045
-124,483	800,000	0,036	0,109
-123,468	-2,663	-0,057	0,028
-122,453	384,053	-0,133	0,194
-121,439	365,971	-0,054	-0,078
-120,424	-200,000	0,015	-0,147
-119,410	-200,000	-0,014	0,203
-118,395	629,931	0,034	0,062
-117,380	214,881	0,029	0,033
-116,366	394,403	-0,028	0,041
-115,351	-88,614	-0,206	0,043
-114,337	-200,000	0,001	0,094
-113,322	-55,851	-0,032	0,010
-112,307	800,000	-0,062	-0,129
-111,293	-200,000	-0,011	0,112
-110,278	-200,000	-0,017	0,175
-109,264	-47,501	-0,072	-0,025
-108,249	147,483	-0,043	-0,041
-107,234	355,370	-0,027	-0,038
-106,220	141,457	-0,088	-0,082
-105,205	52,895	0,098	0,067
-104,191	-177,615	0,058	-0,001
-103,176	30,894	-0,137	0,083
-102,162	800,000	0,030	-0,078
-101,147	-117,936	0,078	-0,010
-100,132	23,511	0,064	-0,037
-99,118	-136,138	-0,169	0,014
-98,103	104,276	-0,004	0,004
-97,089	-200,000	0,007	-0,047
-96,074	800,000	0,022	0,057
-95,059	650,918	-0,032	-0,059
-94,045	397,917	0,050	-0,075
-93,030	439,982	0,071	0,110
-92,016	-70,574	0,073	0,020
-91,001	-200,000	0,026	-0,120
-89,986	570,332	-0,074	0,129
-88,972	-200,000	-0,024	0,270
-87,957	464,394	0,055	0,088
-86,943	114,376	-0,037	-0,032
-85,928	300,723	-0,073	-0,095
-84,913	-115,275	-0,156	0,021
-83,899	-200,000	0,004	0,050
-82,884	800,000	0,075	0,153
-81,870	736,508	0,076	0,144
-80,855	-200,000	-0,009	0,173
-79,840	-77,472	0,058	0,014
-78,826	-27,315	-0,082	-0,034
-77,811	-86,165	-0,076	-0,017
-76,797	-200,000	0,026	0,091
-75,782	800,000	0,053	0,163
-74,767	800,000	-0,013	0,030
-73,753	182,986	0,098	0,102
-72,738	-43,776	0,184	0,065
-71,724	-200,000	-0,003	-0,075
-70,709	113,621	0,050	0,043
-69,694	154,306	0,058	-0,057
-68,680	473,869	-0,084	0,135
-67,665	107,984	0,120	0,101
-66,651	74,679	-0,072	0,054
-65,636	82,822	0,021	0,016
-64,622	-200,000	-0,018	0,070
-63,607	164,470	0,078	-0,078
-62,592	800,000	0,062	-0,128
-61,578	0,015	-0,097	0,049
-60,563	190,343	-0,074	-0,079
-59,549	-200,000	-0,003	0,083
-58,534	-6,567	-1,840	-0,883
-57,519	301,320	-1,498	-1,962
-56,505	-200,000	-0,556	-4,704
-55,490	388,970	0,893	1,312
-54,476	800,000	4,962	11,192
-53,461	-200,000	20,074	324,514
-52,446	800,000	750,252	2318,552
-51,432	554,044	1661,972	2837,945
-50,417	75,768	1672,117	1248,466
-49,403	20,284	1545,068	880,147
-48,388	14,254	1467,377	806,548
-47,373	18,281	1457,288	820,430
-46,359	16,398	1446,955	805,556
-45,344	12,568	1442,241	784,555
-44,330	12,511	1440,312	783,202
-43,315	12,445	1438,717	781,990
-42,300	12,467	1437,189	781,234
-41,286	12,479	1435,947	780,582
-40,271	12,497	1434,202	779,689
-39,257	12,474	1433,251	779,030
-38,242	12,548	1431,926	778,634
-37,227	12,520	1430,893	777,906
-36,213	12,513	1429,295	776,975
-35,198	12,472	1428,535	776,335
-34,184	12,546	1427,351	776,012
-33,169	12,508	1425,759	774,934
-32,154	12,589	1424,866	774,804
-31,140	12,537	1423,418	773,738
-30,125	12,562	1422,544	773,352
-29,111	12,573	1421,346	772,721
-28,096	12,498	1420,306	771,771
-27,082	12,456	1419,186	770,935
-26,067	12,498	1418,000	770,457
-25,052	12,470	1417,055	769,781
-24,038	12,441	1416,122	769,110
-23,023	12,442	1415,122	768,539
-22,009	12,411	1413,871	767,682
-20,994	12,445	1413,097	767,393
-19,979	12,438	1412,093	766,784
-18,965	12,421	1411,207	766,195
-17,950	12,429	1410,331	765,722
-16,936	12,384	1409,608	765,089
-15,921	12,349	1408,403	764,244
-14,906	12,364	1407,500	763,790
-13,892	12,376	1406,477	763,263
-12,877	12,339	1405,768	762,675
-11,863	12,388	1404,763	762,326
-10,848	12,354	1403,727	761,578
-9,833	12,309	1403,122	761,010
-8,819	12,288	1402,237	760,402
-7,804	12,243	1401,476	759,749
-6,790	12,298	1400,255	759,313
-5,775	12,317	1399,379	758,896
-4,760	12,291	1398,105	758,053
-3,746	12,274	1397,190	757,449
-2,731	12,222	1396,531	756,819
-1,717	12,219	1395,656	756,302
-0,702	12,251	1393,690	755,354
0,313	16,167	1309,340	727,738
1,327	32,497	700,958	427,179
2,342	49,785	122,394	81,398
3,356	2,074	16,570	8,428
4,371	4,698	3,314	1,715
5,386	-3,579	0,619	0,303
6,400	-200,000	0,044	0,203
7,415	10,198	-0,294	-0,157
8,429	162,361	-0,239	-0,236
9,444	5,919	-0,346	-0,180
10,459	145,990	-0,308	-0,292
11,473	-41,772	-0,499	-0,180
12,488	205,042	-0,156	-0,172
13,502	-89,331	-0,281	-0,058
14,517	15,492	-0,316	-0,174
15,531	-14,381	-0,379	-0,171
16,546	-55,438	-0,350	-0,110
17,561	220,540	-0,362	-0,411
18,575	-134,915	-0,131	-0,011
19,590	49,519	-0,283	-0,188
20,604	24,988	-0,205	-0,120
21,619	-2,015	-0,375	-0,185
22,634	85,174	-0,458	-0,354
23,648	123,637	-0,398	-0,352
24,663	19,048	-0,360	-0,203
25,677	72,086	-0,240	-0,176
26,692	63,329	-0,325	-0,230
27,707	-21,257	-0,235	-0,101
28,721	116,703	-0,414	-0,358
29,736	90,092	-0,387	-0,304
30,750	74,833	-0,353	-0,262
31,765	170,607	-0,325	-0,328
32,780	40,478	-0,418	-0,265
33,794	-27,573	-0,260	-0,106
34,809	256,808	-0,266	-0,323
35,823	-41,137	-0,433	-0,157
36,838	-69,226	-0,428	-0,115
37,853	121,603	-0,360	-0,317
38,867	-33,671	-0,542	-0,210
39,882	22,492	-0,340	-0,195
40,896	63,469	-0,370	-0,261
41,911	93,135	-0,492	-0,392
42,926	163,072	-0,296	-0,293
43,940	-23,927	-0,270	-0,113
44,955	88,022	-0,312	-0,243
45,969	45,730	-0,377	-0,245
46,984	178,569	-0,327	-0,337
47,999	63,076	-0,342	-0,241
49,013	261,347	-0,263	-0,321
50,028	11,685	-0,268	-0,144
51,042	326,064	-0,249	-0,336
52,057	221,201	-0,365	-0,413
53,071	-45,675	-0,320	-0,111
54,086	150,511	-0,307	-0,294
55,101	-57,693	-0,379	-0,116
56,115	-52,734	-0,296	-0,096
57,130	-93,370	-0,357	-0,069
58,144	-135,456	-0,413	-0,034
59,159	61,042	-0,393	-0,274
60,174	-24,163	-0,472	-0,198
61,188	-61,341	-0,481	-0,142
62,203	-1,615	-0,390	-0,193
63,217	50,739	-0,294	-0,196
64,232	-33,901	-0,378	-0,145
65,247	61,231	-0,434	-0,303
66,261	-2,861	-0,356	-0,174
67,276	-16,354	-0,347	-0,154
68,290	110,268	-0,245	-0,207
69,305	-68,640	-0,387	-0,105
70,320	207,919	-0,180	-0,198
71,334	-29,689	-0,324	-0,129
72,349	-133,772	-0,266	0,023
73,363	206,988	-0,289	-0,317
74,378	87,382	-0,310	-0,241
75,393	-49,170	-0,344	-0,115
76,407	103,473	-0,254	-0,210
77,422	-33,159	-0,373	-0,145
78,436	120,519	-0,314	-0,274
79,451	24,295	-0,321	-0,186
80,466	58,829	-0,372	-0,256
81,480	309,119	-0,297	-0,390
82,495	121,135	-0,225	-0,197
83,509	39,681	-0,261	-0,164
84,524	261,999	-0,243	-0,296
85,539	-28,005	-0,307	-0,124
86,553	-83,103	-0,258	-0,058
87,568	103,386	-0,315	-0,259
88,582	199,280	-0,296	-0,319
89,597	-12,685	-0,364	-0,166
90,611	122,631	-0,172	-0,151
91,626	340,192	-0,198	-0,272
92,641	-153,674	-0,348	-0,017
93,655	-91,188	-0,302	-0,060
94,670	-58,624	-0,349	-0,105
95,684	-5,397	-0,343	-0,165
96,699	-74,762	-0,233	-0,058
97,714	55,081	-0,193	-0,131
98,728	113,217	-0,309	-0,263
99,743	-4,992	-0,270	-0,130
100,757	-114,008	-0,351	-0,047
101,772	73,568	-0,207	-0,152
102,787	65,553	-0,295	-0,209
103,801	118,513	-0,281	-0,243
104,816	399,934	-0,225	-0,331
105,830	-28,889	-0,303	-0,121
106,845	69,374	-0,214	-0,154
107,860	8,539	-0,240	-0,126
108,874	55,144	-0,275	-0,186
109,889	76,847	-0,278	-0,207
110,903	173,240	-0,287	-0,290
111,918	-65,511	-0,351	-0,098
112,933	154,084	-0,241	-0,231
113,947	27,572	-0,277	-0,163
114,962	0,584	-0,172	-0,086
115,976	-2,836	-0,288	-0,140
116,991	274,047	-0,210	-0,260
118,006	164,074	-0,265	-0,261
119,020	53,428	-0,295	-0,198
120,035	8,652	-0,192	-0,101
121,049	120,399	-0,230	-0,199
122,064	75,909	-0,209	-0,154
123,079	-63,886	-0,285	-0,081
124,093	-47,212	-0,353	-0,120
125,108	116,626	-0,304	-0,261
126,122	153,845	-0,186	-0,178
127,137	2,347	-0,227	-0,114
128,151	61,864	-0,191	-0,132
129,166	25,263	-0,223	-0,129
130,181	-53,458	-0,245	-0,078
131,195	-83,724	-0,260	-0,057
132,210	-69,846	-0,258	-0,068
133,224	452,597	-0,152	-0,236
134,239	0,830	-0,231	-0,115
135,254	-28,637	-0,185	-0,074
136,268	-74,912	-0,282	-0,070
137,283	75,360	-0,298	-0,219
138,297	29,654	-0,332	-0,197
139,312	-60,460	-0,278	-0,082
140,327	-5,899	-0,206	-0,098
141,341	113,791	-0,214	-0,182
142,356	245,276	-0,192	-0,226
143,370	31,834	-0,296	-0,178
144,385	499,698	-0,197	-0,319
145,400	141,682	-0,223	-0,206
146,414	72,444	-0,353	-0,257
147,429	-147,366	-0,288	-0,017
148,443	-14,905	-0,236	-0,105
149,458	126,834	-0,183	-0,162
150,473	-16,048	-0,199	-0,088
151,487	-63,625	-0,401	-0,114
152,502	23,336	-0,269	-0,154
153,516	572,187	-0,163	-0,277
154,531	402,658	-0,190	-0,280
155,546	-25,117	-0,274	-0,113
156,560	34,083	-0,230	-0,140
157,575	-149,806	-0,325	0,017
158,589	25,406	-0,165	-0,095
159,604	182,042	-0,184	-0,189
160,619	30,886	-0,327	-0,195
161,633	116,282	-0,204	-0,174
162,648	196,003	-0,219	-0,232
163,662	86,684	-0,226	-0,174
164,677	305,689	-0,186	-0,241
165,692	-54,680	-0,162	-0,051
166,706	-163,173	-0,257	0,008
167,721	32,925	-0,271	-0,163
168,735	33,682	-0,266	-0,161
169,750	144,235	-0,295	-0,274
170,764	-200,000	-0,072	-0,260
171,779	-18,248	-0,274	-0,119
172,794	72,810	-0,189	-0,138
173,808	-45,556	-0,114	-0,039
174,823	184,235	-0,197	-0,203
175,837	138,488	-0,244	-0,223
176,852	248,266	-0,240	-0,283
177,867	58,021	-0,260	-0,177
178,881	24,145	-0,097	-0,056
179,896	-101,706	-0,197	-0,033
180,910	110,662	-0,182	-0,152
181,925	-4,490	-0,271	-0,130
182,940	142,570	-0,212	-0,196
183,954	240,347	-0,217	-0,252
184,969	42,603	-0,245	-0,155
185,983	21,382	-0,176	-0,099
186,998	324,968	-0,092	-0,122
188,013	10,364	-0,310	-0,164
189,027	7,849	-0,389	-0,202
190,042	164,645	-0,221	-0,216
191,056	193,759	-0,301	-0,317
192,071	-18,399	-0,276	-0,119
193,086	751,580	-0,137	-0,258
194,100	18,970	-0,219	-0,122
195,115	133,804	-0,228	-0,205
196,129	-57,768	-0,341	-0,103
197,144	125,573	-0,230	-0,202
198,159	280,647	-0,198	-0,247
199,173	340,879	-0,162	-0,221
200,188	-97,454	-0,095	0,017
201,202	-166,743	-0,176	-0,005
202,217	110,312	-0,189	-0,158
203,232	118,387	-0,213	-0,183
204,246	250,745	-0,244	-0,289
205,261	-50,606	-0,339	-0,110
206,275	-10,045	-0,181	-0,083
207,290	88,342	-0,260	-0,201
208,304	-163,890	-0,173	-0,006
209,319	120,617	-0,149	-0,128
210,334	373,077	-0,106	-0,150
211,348	-10,758	-0,270	-0,124
212,363	-71,726	-0,054	0,014
213,377	-1,374	-0,287	-0,140
214,392	-119,606	-0,149	-0,018
215,407	800,000	-0,034	-0,071
216,421	10,057	-0,178	-0,093
217,436	193,686	-0,094	-0,099
218,450	312,116	-0,181	-0,236
219,465	477,869	-0,127	-0,201
220,480	523,128	-0,159	-0,259
221,494	227,025	-0,135	-0,153
222,509	81,516	-0,100	-0,075
223,523	16,542	-0,142	-0,077
224,538	169,059	-0,272	-0,269
225,553	425,296	-0,171	-0,256
226,567	70,150	-0,204	-0,146
227,582	-200,000	0,003	-0,215
228,596	291,827	-0,104	-0,132
229,611	45,508	-0,188	-0,120
230,626	178,252	-0,147	-0,149
231,640	-3,837	-0,197	-0,094
232,655	100,944	-0,238	-0,191
233,669	-82,830	-0,323	-0,072
234,684	-47,648	-0,205	-0,068
235,699	108,743	-0,110	-0,091
236,713	15,915	-0,150	-0,081
237,728	-107,456	-0,213	-0,032
238,742	-109,715	-0,239	0,034
239,757	-27,494	-0,244	-0,098
240,772	41,940	-0,227	-0,142
241,786	800,000	-0,160	-0,330
242,801	-71,250	-0,228	-0,059
243,815	150,833	-0,096	-0,090
244,830	255,380	-0,118	-0,140
245,844	119,083	-0,110	-0,094
246,859	344,579	-0,158	-0,215
247,874	100,154	-0,266	-0,213
248,888	787,045	-0,079	-0,150
249,903	213,407	-0,127	-0,139
250,917	61,085	-0,239	-0,164
251,932	285,389	-0,115	-0,143
252,947	210,454	-0,153	-0,166
253,961	280,430	-0,098	-0,121
254,976	-33,307	-0,203	-0,077
255,990	800,000	-0,121	-0,244
257,005	102,328	-0,142	-0,115
258,020	44,693	-0,211	-0,134
259,034	57,466	-0,135	-0,091
260,049	166,004	-0,109	-0,107
261,063	108,080	-0,158	-0,130
262,078	-23,336	-0,286	-0,118
263,093	-200,000	-0,099	-0,327
264,107	-87,226	-0,266	-0,055
265,122	297,813	-0,065	-0,082
266,136	-49,846	-0,174	-0,057
267,151	5,580	-0,111	-0,056
268,166	58,691	-0,174	-0,118
269,180	288,059	-0,058	-0,072
270,195	22,457	-0,137	-0,077
271,209	176,421	-0,195	-0,196
272,224	61,225	-0,215	-0,147
273,239	6,571	-0,126	-0,064
274,253	2,340	-0,196	-0,097
275,268	234,927	-0,120	-0,137
276,282	-45,940	-0,203	-0,069
277,297	-82,590	-0,343	-0,076
278,312	18,190	-0,212	-0,117
279,326	-60,566	-0,089	-0,026
280,341	-21,797	-0,096	-0,040
281,355	507,388	-0,049	0,079
282,370	800,000	-0,028	-0,073
283,384	54,890	-0,166	-0,110
284,399	-86,022	-0,082	-0,017
285,414	68,683	-0,061	-0,043
286,428	-40,429	-0,159	-0,057
287,443	-116,774	-0,177	-0,022
288,457	-33,883	-0,175	-0,066
289,472	-58,389	-0,053	-0,016
290,487	8,847	-0,204	0,106
291,501	-92,503	-0,141	-0,027
292,516	45,441	-0,066	-0,042
293,530	-100,403	-0,172	0,029
294,545	438,861	-0,057	-0,086
295,560	-11,338	-0,148	-0,067
296,574	94,496	-0,118	-0,092
297,589	-42,296	-0,078	-0,027
298,603	746,466	-0,076	-0,141
299,618	-49,144	-0,150	-0,049
300,633	-29,231	-0,204	-0,080
301,647	67,482	-0,052	0,037
302,662	20,219	-0,104	-0,058
303,676	-200,000	-0,030	-0,122
304,691	-26,022	-0,201	-0,081
305,706	231,915	-0,176	-0,199
306,720	84,338	-0,239	-0,179
307,735	-7,774	-0,144	-0,067
308,749	216,054	-0,108	-0,119
309,764	-200,000	-0,045	-0,136
310,779	228,647	-0,185	-0,208
311,793	20,821	-0,119	-0,066
312,808	203,261	-0,176	-0,187
313,822	133,240	-0,265	-0,235
314,837	57,848	-0,165	-0,111
315,852	137,136	-0,083	-0,074
316,866	-15,469	-0,051	-0,022
317,881	-36,946	-0,148	-0,054
318,895	108,465	-0,104	-0,085
319,910	230,830	-0,098	-0,111
320,925	800,000	-0,113	-0,226
321,939	592,540	-0,170	-0,289
322,954	25,613	-0,147	-0,084
323,968	-129,029	-0,301	0,029
324,983	-89,153	-0,172	-0,035
325,997	-87,623	-0,124	-0,025
327,012	106,744	-0,193	-0,157
328,027	-5,791	-0,124	-0,058
329,041	9,415	-0,228	-0,118
330,056	-154,076	-0,132	-0,006
331,070	195,384	-0,189	-0,197
332,085	366,650	0,045	-0,062
333,100	455,952	-0,146	-0,223
334,114	-200,000	0,022	-0,182
335,129	20,271	-0,270	-0,150
336,143	223,623	-0,040	-0,044
337,158	-115,448	-0,108	-0,014
338,173	-88,177	-0,110	0,022
339,187	483,295	-0,041	0,064
340,202	137,263	-0,090	-0,081
341,216	-39,602	-0,248	-0,089
342,231	516,092	-0,106	-0,170
343,246	-200,000	-0,010	-0,094
344,260	-22,839	-0,123	-0,051
345,275	-60,697	-0,232	-0,067
346,289	191,038	-0,160	-0,165
347,304	54,176	-0,106	-0,070
348,319	800,000	-0,065	-0,187
349,333	243,438	-0,177	-0,204
350,348	-86,477	-0,158	-0,033
351,362	-16,982	-0,113	-0,049
352,377	-137,558	-0,155	-0,012
353,392	63,592	-0,146	-0,100
354,406	117,183	-0,098	0,083
355,421	208,521	1316,019	1412,099
356,435	160,447	1476,894	1412,574
