DTS Sentinel unit serial number:	SN410029Multiplexer serial number:	ORYXHardware model number:	OX2-SRSoftware version number:	ORYX F/W v4,00 Oryx Data Collector v3.7.2.0data status	okinstallation	B3 Nyhavnadifferential loss correction	single-endedforward channel	channel 1reverse channel	N/Adate	2023/12/02time	00:42:30forward acquisition time	300,00reverse acquisition time	0,00gamma	499,1914k internal	0,3195k external	0,3195temperature offset calibration	1,0000default loss term (dB/km)	0,3820temperature slope calibration	1,0000multiplexer offset coefficient	1,0000multiplexer slope coefficient	1,0000fibre end	0,00T internal ref (°C)	16,27T ext. ref 1 (°C)	1,80T ext. ref 2 (°C)	1,79length (m)	temperature (°C)	Stokes	anti-Stokes-744,400	175,748	-0,224	-0,237
-743,385	-200,000	-0,009	0,393
-742,371	272,929	-0,189	-0,243
-741,356	-200,000	0,077	0,365
-740,342	105,569	-0,205	-0,177
-739,327	800,000	0,137	0,334
-738,312	116,141	-0,369	-0,329
-737,298	800,000	0,058	0,147
-736,283	270,516	-0,252	-0,323
-735,269	800,000	0,147	0,435
-734,254	71,422	-0,236	-0,178
-733,239	46,798	-0,330	0,223
-732,225	579,311	-0,111	-0,198
-731,210	-116,119	0,022	0,003
-730,196	718,922	0,015	-0,029
-729,181	-114,181	-0,100	-0,014
-728,167	-65,634	-0,078	0,022
-727,152	-152,239	-0,095	-0,005
-726,137	-162,996	-0,132	0,005
-725,123	-200,000	-0,001	0,015
-724,108	800,000	-0,068	-0,191
-723,094	-200,000	-0,050	-0,251
-722,079	58,285	0,029	-0,021
-721,064	800,000	0,049	0,126
-720,050	139,209	0,045	0,043
-719,035	-200,000	-0,024	0,231
-718,021	11,505	-0,109	0,060
-717,006	35,405	-0,053	-0,034
-715,991	476,612	-0,031	-0,051
-714,977	108,224	-0,095	-0,083
-713,962	118,752	-0,022	0,020
-712,948	800,000	0,018	-0,056
-711,933	49,855	0,074	-0,051
-710,918	800,000	0,019	0,041
-709,904	-102,929	-0,081	-0,014
-708,889	14,646	-0,073	0,041
-707,875	-73,724	0,012	0,003
-706,860	665,759	-0,027	-0,050
-705,845	233,191	0,081	0,097
-704,831	65,838	0,075	-0,055
-703,816	19,372	-0,046	0,027
-702,802	69,193	-0,057	-0,043
-701,787	800,000	-0,036	-0,080
-700,772	-200,000	0,009	0,060
-699,758	-200,000	-0,017	0,064
-698,743	-149,084	-0,081	0,005
-697,729	240,825	-0,053	-0,065
-696,714	-200,000	-0,008	-0,194
-695,699	-200,000	0,013	-0,160
-694,685	181,468	-0,124	-0,133
-693,670	-200,000	0,148	0,000
-692,656	-114,595	-0,062	0,009
-691,641	-200,000	0,041	0,140
-690,627	213,076	-0,032	0,037
-689,612	-200,000	-0,006	-0,211
-688,597	-171,308	-0,067	-0,002
-687,583	-85,767	0,089	0,020
-686,568	15,683	-0,023	0,013
-685,554	82,617	-0,089	0,070
-684,539	-200,000	-0,000	0,019
-683,524	146,042	-0,013	0,013
-682,510	66,239	-0,105	-0,078
-681,495	-59,192	-0,142	-0,044
-680,481	164,028	0,058	-0,059
-679,466	-200,000	-0,007	0,046
-678,451	90,436	0,063	0,051
-677,437	-111,263	0,097	0,014
-676,422	-54,096	0,132	-0,043
-675,408	536,988	0,067	0,117
-674,393	-18,005	-0,022	0,010
-673,378	-200,000	0,028	0,132
-672,364	253,258	-0,046	-0,057
-671,349	190,921	0,052	0,057
-670,335	-16,713	-0,025	0,012
-669,320	577,431	-0,099	0,177
-668,305	-90,962	-0,022	0,004
-667,291	648,818	0,035	0,065
-666,276	-113,763	-0,145	0,020
-665,262	704,918	0,038	0,072
-664,247	-49,632	0,063	0,022
-663,232	134,627	-0,053	0,050
-662,218	229,823	0,045	-0,053
-661,203	-200,000	-0,030	0,132
-660,189	-200,000	-0,019	-0,121
-659,174	61,625	-0,096	-0,069
-658,159	800,000	-0,015	-0,047
-657,145	800,000	-0,034	-0,086
-656,130	761,865	-0,030	-0,059
-655,116	232,927	0,056	0,067
-654,101	800,000	-0,016	0,043
-653,086	-200,000	0,023	-0,081
-652,072	52,492	-0,026	-0,018
-651,057	114,474	-0,019	0,016
-650,043	-200,000	-0,000	-0,033
-649,028	411,181	0,066	0,102
-648,014	159,791	0,079	0,080
-646,999	800,000	0,032	-0,086
-645,984	-200,000	0,021	0,068
-644,970	-83,335	-0,050	0,011
-643,955	-57,786	-0,159	0,050
-642,941	-200,000	-0,013	-0,043
-641,926	-38,529	-0,053	-0,020
-640,911	-41,219	0,130	-0,049
-639,897	800,000	0,008	-0,018
-638,882	-200,000	0,012	0,116
-637,868	101,295	-0,061	-0,051
-636,853	-200,000	-0,017	-0,094
-635,838	-200,000	0,026	-0,085
-634,824	-125,601	-0,072	0,008
-633,809	65,540	0,056	0,041
-632,795	-200,000	0,002	0,091
-631,780	119,942	-0,083	0,074
-630,765	153,323	-0,109	-0,108
-629,751	423,156	0,054	0,084
-628,736	584,591	-0,012	-0,022
-627,722	144,669	0,037	0,036
-626,707	800,000	0,021	-0,047
-625,692	151,068	0,075	-0,074
-624,678	424,084	0,072	0,113
-623,663	105,780	-0,096	-0,082
-622,649	56,345	0,086	-0,061
-621,634	51,489	-0,106	-0,073
-620,619	-8,363	-0,119	-0,058
-619,605	-200,000	0,016	-0,058
-618,590	3,040	-0,092	-0,048
-617,576	115,348	0,063	-0,056
-616,561	30,186	-0,090	-0,056
-615,546	-200,000	-0,018	-0,072
-614,532	-200,000	-0,018	-0,060
-613,517	-35,042	0,155	0,061
-612,503	-12,024	0,153	0,072
-611,488	-200,000	-0,001	0,124
-610,474	-200,000	0,010	0,145
-609,459	-83,376	0,062	0,014
-608,444	-200,000	0,001	0,011
-607,430	-200,000	0,013	-0,165
-606,415	800,000	-0,076	0,173
-605,401	52,949	-0,112	-0,078
-604,386	-128,884	0,070	0,007
-603,371	196,581	-0,026	0,028
-602,357	-102,168	-0,121	-0,021
-601,342	-200,000	-0,018	-0,092
-600,328	-93,450	-0,070	0,014
-599,313	200,713	-0,051	0,057
-598,298	82,909	-0,035	-0,027
-597,284	-15,997	0,114	0,052
-596,269	-200,000	-0,000	-0,020
-595,255	800,000	-0,028	-0,072
-594,240	-85,199	-0,069	-0,015
-593,225	-200,000	-0,004	-0,105
-592,211	-134,268	-0,057	-0,005
-591,196	692,956	-0,043	-0,082
-590,182	-169,125	0,015	-0,000
-589,167	-200,000	-0,052	-0,190
-588,152	630,911	-0,037	0,068
-587,138	-94,750	-0,094	-0,018
-586,123	-64,949	0,023	-0,007
-585,109	141,519	-0,058	0,056
-584,094	-200,000	-0,001	0,070
-583,079	-200,000	-0,005	0,112
-582,065	243,037	0,061	0,074
-581,050	-69,633	-0,043	0,012
-580,036	800,000	0,040	-0,085
-579,021	-38,257	0,026	-0,010
-578,006	-1,377	-0,083	-0,042
-576,992	800,000	-0,005	-0,013
-575,977	40,686	0,132	0,086
-574,963	205,544	0,128	0,144
-573,948	-200,000	-0,005	0,170
-572,934	-200,000	-0,024	0,109
-571,919	-6,287	-0,027	-0,013
-570,904	207,695	-0,066	-0,075
-569,890	-80,950	0,013	-0,003
-568,875	-200,000	0,011	0,112
-567,861	165,553	0,021	0,021
-566,846	365,278	-0,031	-0,046
-565,831	-200,000	-0,006	0,023
-564,817	-200,000	0,015	-0,146
-563,802	131,343	-0,038	-0,035
-562,788	148,693	0,074	-0,073
-561,773	-126,048	0,207	0,022
-560,758	416,615	-0,070	0,109
-559,744	-93,877	0,112	-0,022
-558,729	105,333	0,086	-0,073
-557,715	-156,053	-0,042	-0,002
-556,700	-200,000	-0,016	-0,168
-555,685	510,927	-0,031	-0,053
-554,671	-200,000	0,014	-0,130
-553,656	-161,223	-0,063	-0,002
-552,642	-29,362	0,090	-0,037
-551,627	-154,305	-0,116	0,006
-550,612	-200,000	-0,002	-0,228
-549,598	-45,884	-0,138	-0,049
-548,583	42,251	-0,090	-0,059
-547,569	227,487	0,039	0,045
-546,554	313,993	-0,068	0,092
-545,539	152,738	0,019	-0,019
-544,525	800,000	0,013	-0,038
-543,510	201,778	-0,127	-0,142
-542,496	-100,277	-0,204	-0,036
-541,481	468,942	-0,022	0,036
-540,466	-147,590	0,148	0,009
-539,452	-200,000	0,014	0,067
-538,437	20,494	0,118	0,069
-537,423	-18,321	0,109	-0,049
-536,408	19,075	-0,111	-0,064
-535,393	-200,000	-0,011	0,040
-534,379	149,620	-0,040	-0,039
-533,364	-200,000	0,016	-0,109
-532,350	392,385	-0,060	0,091
-531,335	56,449	0,033	-0,023
-530,321	-200,000	-0,034	-0,121
-529,306	-200,000	0,048	0,161
-528,291	-77,753	0,061	-0,015
-527,277	800,000	-0,034	-0,085
-526,262	111,999	-0,069	-0,060
-525,248	206,106	0,025	0,028
-524,233	-109,150	-0,169	0,026
-523,218	402,478	-0,045	-0,069
-522,204	-69,733	-0,030	0,008
-521,189	-46,168	-0,085	0,030
-520,175	-200,000	-0,002	-0,091
-519,160	-132,686	-0,067	0,006
-518,145	177,396	0,028	0,029
-517,131	800,000	0,034	0,104
-516,116	-200,000	-0,026	0,157
-515,102	-82,581	0,061	-0,014
-514,087	53,019	0,169	-0,117
-513,072	-24,132	-0,089	-0,038
-512,058	-97,965	0,131	-0,024
-511,043	120,778	-0,057	0,051
-510,029	92,519	0,057	0,046
-509,014	697,552	0,027	-0,052
-507,999	-200,000	-0,016	-0,065
-506,985	-200,000	0,008	0,087
-505,970	-200,000	-0,026	-0,127
-504,956	207,160	-0,099	-0,111
-503,941	560,073	0,045	-0,079
-502,926	274,012	-0,083	0,106
-501,912	800,000	0,077	-0,155
-500,897	51,847	0,012	0,008
-499,883	-7,007	-0,082	0,040
-498,868	67,488	-0,065	-0,048
-497,853	523,857	0,056	-0,095
-496,839	169,419	-0,015	-0,016
-495,824	-200,000	0,010	0,034
-494,810	-9,592	-0,102	-0,049
-493,795	-200,000	-0,003	-0,095
-492,781	78,845	0,120	-0,092
-491,766	-117,287	-0,059	-0,008
-490,751	88,530	0,050	0,040
-489,737	-200,000	-0,010	-0,039
-488,722	-98,896	0,102	0,018
-487,708	800,000	-0,048	0,101
-486,693	-200,000	-0,014	0,111
-485,678	-64,498	0,088	-0,026
-484,664	-200,000	0,000	-0,068
-483,649	218,347	0,006	0,007
-482,635	246,631	-0,033	-0,041
-481,620	128,603	0,023	0,021
-480,605	-69,882	0,054	-0,015
-479,591	-123,324	0,054	-0,006
-478,576	-200,000	0,005	-0,047
-477,562	-109,093	0,079	0,012
-476,547	-15,068	0,067	-0,031
-475,532	13,247	-0,025	0,014
-474,518	-159,075	-0,112	-0,005
-473,503	-165,536	0,160	-0,005
-472,489	80,776	-0,077	-0,060
-471,474	14,722	0,028	0,016
-470,459	-200,000	0,013	-0,046
-469,445	800,000	-0,029	-0,074
-468,430	24,407	-0,036	0,022
-467,416	158,843	-0,025	-0,025
-466,401	-200,000	0,004	0,016
-465,386	-32,410	-0,029	-0,012
-464,372	106,711	0,037	0,031
-463,357	800,000	-0,033	0,068
-462,343	71,044	0,024	-0,018
-461,328	-88,205	-0,095	-0,020
-460,313	251,062	0,038	0,046
-459,299	-200,000	0,009	0,081
-458,284	800,000	0,054	-0,129
-457,270	-200,000	0,008	0,073
-456,255	127,835	-0,078	0,072
-455,241	-200,000	-0,018	0,058
-454,226	742,850	-0,022	0,044
-453,211	-84,679	0,069	0,015
-452,197	-27,853	-0,101	-0,042
-451,182	-200,000	0,055	0,218
-450,168	59,551	0,077	-0,054
-449,153	-16,512	-0,077	-0,035
-448,138	131,817	0,086	-0,080
-447,124	-200,000	-0,025	-0,133
-446,109	172,528	0,075	-0,078
-445,095	238,206	0,089	0,106
-444,080	-4,374	-0,140	0,069
-443,065	39,261	0,127	0,082
-442,051	139,535	-0,053	-0,051
-441,036	-200,000	0,012	-0,113
-440,022	-200,000	-0,020	-0,087
-439,007	-200,000	-0,018	-0,063
-437,992	198,056	0,078	-0,086
-436,978	-200,000	0,016	0,113
-435,963	-29,740	0,029	-0,012
-434,949	-200,000	0,024	0,082
-433,934	-200,000	-0,004	-0,080
-432,919	-17,054	-0,068	-0,031
-431,905	42,917	0,069	-0,045
-430,890	800,000	0,038	0,105
-429,876	461,203	0,101	-0,163
-428,861	123,563	-0,059	0,053
-427,846	-115,428	-0,048	0,006
-426,832	-16,374	-0,158	-0,072
-425,817	800,000	-0,077	-0,157
-424,803	-182,741	-0,040	-0,001
-423,788	290,341	0,069	0,091
-422,773	800,000	0,031	0,069
-421,759	-200,000	-0,007	-0,029
-420,744	110,578	-0,051	-0,044
-419,730	283,999	0,066	-0,085
-418,715	-190,257	-0,074	0,001
-417,701	-58,672	0,036	0,011
-416,686	800,000	-0,043	-0,087
-415,671	457,886	0,059	0,094
-414,657	800,000	0,012	-0,027
-413,642	458,425	0,007	0,012
-412,628	-200,000	0,005	0,032
-411,613	-146,823	-0,150	-0,009
-410,598	514,952	0,055	-0,093
-409,584	231,706	0,064	0,076
-408,569	-200,000	-0,006	0,152
-407,555	7,859	0,014	0,008
-406,540	-200,000	-0,014	0,073
-405,525	55,604	-0,123	0,086
-404,511	-77,834	0,103	0,025
-403,496	-20,012	0,162	0,072
-402,482	-103,211	0,019	-0,003
-401,467	394,696	0,073	-0,109
-400,452	551,361	0,031	0,053
-399,438	-200,000	0,026	0,089
-398,423	43,628	-0,083	0,055
-397,409	-112,203	-0,132	0,019
-396,394	800,000	0,049	0,128
-395,379	750,482	0,037	-0,073
-394,365	-67,760	0,060	-0,017
-393,350	414,648	0,064	0,099
-392,336	-45,255	-0,060	-0,021
-391,321	346,067	0,017	0,024
-390,306	224,825	-0,057	-0,066
-389,292	11,424	0,036	0,020
-388,277	240,626	0,109	-0,131
-387,263	-43,341	-0,011	-0,004
-386,248	101,685	-0,074	-0,062
-385,233	42,394	-0,024	0,015
-384,219	-200,000	-0,022	-0,085
-383,204	-200,000	-0,022	0,141
-382,190	800,000	-0,021	0,062
-381,175	-160,480	-0,111	-0,004
-380,160	146,152	0,156	0,150
-379,146	-200,000	0,011	0,038
-378,131	67,102	0,112	0,082
-377,117	124,451	-0,030	0,027
-376,102	232,294	0,104	0,122
-375,088	-94,920	-0,120	0,023
-374,073	-200,000	0,024	0,118
-373,058	-56,079	0,215	-0,068
-372,044	369,519	-0,030	0,044
-371,029	192,811	0,130	0,141
-370,015	-55,201	0,087	0,028
-369,000	-25,709	0,125	-0,053
-367,985	30,346	-0,052	-0,032
-366,971	800,000	-0,026	-0,064
-365,956	175,477	0,136	0,142
-364,942	-200,000	0,000	-0,009
-363,927	-70,847	0,077	-0,021
-362,912	-200,000	-0,004	0,064
-361,898	22,434	0,018	0,010
-360,883	227,331	-0,069	-0,081
-359,869	-50,548	-0,113	-0,038
-358,854	263,296	0,112	-0,141
-357,839	-200,000	0,038	0,121
-356,825	-66,122	-0,138	0,039
-355,810	39,523	-0,050	-0,032
-354,796	800,000	-0,009	-0,021
-353,781	-200,000	-0,002	-0,112
-352,766	294,314	0,030	0,040
-351,752	-200,000	0,007	0,283
-350,737	-2,893	0,157	-0,078
-349,723	800,000	0,037	0,077
-348,708	-200,000	0,009	0,090
-347,693	416,874	0,073	0,112
-346,679	-200,000	0,055	-0,181
-345,664	800,000	0,036	-0,082
-344,650	-29,335	-0,049	-0,020
-343,635	1,283	0,031	-0,016
-342,620	72,526	0,101	-0,076
-341,606	230,591	-0,026	-0,030
-340,591	-200,000	0,040	-0,129
-339,577	-12,136	0,069	-0,032
-338,562	-52,214	-0,109	0,036
-337,548	148,822	-0,119	0,115
-336,533	-200,000	0,008	-0,080
-335,518	-200,000	-0,018	-0,077
-334,504	-34,894	0,043	0,017
-333,489	-136,823	-0,065	-0,005
-332,475	-200,000	0,008	0,059
-331,460	800,000	0,020	0,054
-330,445	744,466	-0,025	0,048
-329,431	-200,000	0,001	-0,019
-328,416	-164,881	0,022	0,001
-327,402	345,022	0,018	-0,026
-326,387	-200,000	0,015	0,098
-325,372	-64,317	-0,177	-0,051
-324,358	242,028	0,105	-0,127
-323,343	172,019	-0,026	-0,027
-322,329	311,465	0,047	0,063
-321,314	80,891	-0,035	0,027
-320,299	-164,122	-0,132	-0,004
-319,285	-29,219	-0,148	0,060
-318,270	-47,376	0,001	-0,000
-317,256	-106,718	-0,037	-0,006
-316,241	82,881	0,018	-0,014
-315,226	312,219	-0,060	0,080
-314,212	800,000	0,047	0,101
-313,197	-200,000	0,042	0,135
-312,183	242,941	-0,026	-0,032
-311,168	-200,000	-0,002	-0,072
-310,153	-200,000	-0,004	-0,146
-309,139	-4,567	0,010	-0,005
-308,124	393,317	0,052	0,078
-307,110	46,279	0,096	0,064
-306,095	-200,000	-0,035	0,119
-305,080	116,519	0,025	0,022
-304,066	800,000	-0,036	0,074
-303,051	-26,806	-0,044	-0,018
-302,037	-75,265	-0,098	-0,025
-301,022	-51,750	0,127	0,042
-300,008	-200,000	0,029	-0,098
-298,993	241,499	-0,055	-0,066
-297,978	-59,661	0,137	0,042
-296,964	-111,780	-0,180	0,026
-295,949	-200,000	0,009	-0,084
-294,935	204,249	-0,016	0,017
-293,920	236,689	0,088	0,104
-292,905	-200,000	-0,011	0,108
-291,891	745,691	-0,033	0,063
-290,876	-95,509	0,138	0,026
-289,862	-200,000	-0,007	-0,031
-288,847	416,391	0,022	-0,034
-287,832	-18,745	0,030	-0,013
-286,818	102,813	0,058	-0,049
-285,803	36,863	-0,122	0,077
-284,789	455,894	0,080	0,128
-283,774	65,180	-0,067	-0,048
-282,759	-44,670	-0,131	0,047
-281,745	150,424	0,012	-0,012
-280,730	-85,033	-0,067	0,015
-279,716	-51,362	-0,069	-0,023
-278,701	-66,040	0,106	-0,030
-277,686	800,000	0,041	0,107
-276,672	330,499	-0,078	0,107
-275,657	220,092	0,052	0,060
-274,643	33,179	-0,134	0,083
-273,628	463,020	-0,068	0,108
-272,613	-92,700	0,079	-0,016
-271,599	-200,000	0,015	0,050
-270,584	29,753	-0,083	0,051
-269,570	620,751	0,063	0,114
-268,555	23,243	-0,043	-0,025
-267,540	-11,996	0,100	0,046
-266,526	-45,467	0,025	0,009
-265,511	-19,755	0,046	-0,020
-264,497	-110,632	-0,163	0,024
-263,482	-108,423	0,148	-0,023
-262,467	-6,522	0,079	-0,038
-261,453	-96,291	-0,080	-0,015
-260,438	-200,000	0,000	0,090
-259,424	-71,396	-0,082	0,022
-258,409	-17,130	-0,080	-0,036
-257,395	-59,668	0,216	-0,066
-256,380	293,062	0,064	0,084
-255,365	-2,043	0,088	0,044
-254,351	475,607	0,063	0,101
-253,336	-46,305	-0,191	0,067
-252,322	-200,000	-0,020	-0,169
-251,307	66,009	-0,027	-0,020
-250,292	-200,000	0,016	-0,141
-249,278	-51,520	0,041	0,014
-248,263	800,000	0,023	0,047
-247,249	-200,000	0,023	-0,175
-246,234	397,140	-0,038	-0,056
-245,219	77,258	-0,110	-0,084
-244,205	-200,000	-0,011	0,056
-243,190	239,516	-0,105	-0,125
-242,176	31,204	0,063	0,038
-241,161	-200,000	0,015	0,157
-240,146	641,944	-0,077	0,141
-239,132	-28,152	-0,196	-0,081
-238,117	-200,000	0,002	-0,040
-237,103	-60,443	-0,085	0,026
-236,088	800,000	-0,024	-0,058
-235,073	235,945	-0,048	0,057
-234,059	-140,271	0,069	0,005
-233,044	657,517	-0,038	0,071
-232,030	-126,408	0,009	0,001
-231,015	-7,203	-0,153	0,074
-230,000	33,735	-0,019	-0,012
-228,986	-200,000	0,009	-0,070
-227,971	-151,005	0,040	-0,002
-226,957	-200,000	-0,015	0,141
-225,942	-118,141	-0,054	-0,007
-224,927	533,297	0,036	-0,060
-223,913	-200,000	-0,035	-0,211
-222,898	-84,127	0,070	-0,016
-221,884	-132,084	-0,192	-0,018
-220,869	688,846	0,045	0,085
-219,855	-200,000	-0,013	0,069
-218,840	368,550	-0,028	0,041
-217,825	-21,695	0,097	-0,042
-216,811	800,000	0,008	0,019
-215,796	268,498	0,025	0,031
-214,782	-101,266	0,157	0,027
-213,767	800,000	0,037	0,107
-212,752	-67,064	0,075	0,021
-211,738	402,480	0,047	-0,071
-210,723	260,771	0,082	-0,101
-209,709	55,005	-0,148	-0,102
-208,694	-113,805	-0,036	0,005
-207,679	65,889	0,066	-0,048
-206,665	-138,367	0,076	-0,006
-205,650	395,821	-0,027	0,041
-204,636	654,168	0,020	0,037
-203,621	-200,000	-0,043	0,159
-202,606	613,995	-0,055	-0,099
-201,592	-152,020	0,122	-0,006
-200,577	104,914	-0,049	0,041
-199,563	265,604	0,021	0,026
-198,548	-200,000	0,000	0,049
-197,533	-108,439	0,027	0,004
-196,519	-98,164	0,156	-0,028
-195,504	-200,000	-0,009	-0,118
-194,490	56,372	-0,108	-0,075
-193,475	72,706	-0,053	-0,039
-192,460	-200,000	-0,010	-0,129
-191,446	800,000	0,021	-0,053
-190,431	84,516	0,109	0,085
-189,417	107,604	0,020	-0,017
-188,402	228,816	-0,031	0,036
-187,387	23,586	-0,143	-0,083
-186,373	-46,960	-0,096	0,033
-185,358	800,000	0,059	-0,153
-184,344	-200,000	-0,004	-0,164
-183,329	137,925	0,118	-0,111
-182,315	-200,000	-0,053	0,000
-181,300	81,566	-0,036	-0,028
-180,285	-200,000	-0,014	0,052
-179,271	-56,081	-0,037	0,012
-178,256	800,000	0,022	0,060
-177,242	800,000	0,034	0,069
-176,227	711,590	0,082	0,156
-175,212	69,974	0,075	0,055
-174,198	164,361	-0,030	-0,030
-173,183	83,791	0,034	-0,026
-172,169	-7,435	-0,122	-0,059
-171,154	-102,146	0,073	-0,012
-170,139	-200,000	0,001	0,045
-169,125	404,015	-0,063	0,095
-168,110	-4,868	-0,053	0,026
-167,096	78,390	-0,181	0,138
-166,081	-200,000	0,011	-0,107
-165,066	326,933	0,097	-0,133
-164,052	800,000	0,003	-0,009
-163,037	-200,000	-0,011	0,092
-162,023	-181,580	-0,043	0,001
-161,008	-162,320	0,013	0,000
-159,993	96,898	-0,116	0,095
-158,979	34,201	0,017	-0,011
-157,964	-23,245	0,102	-0,043
-156,950	-200,000	0,007	-0,059
-155,935	-139,196	0,058	0,004
-154,920	-52,799	0,122	0,040
-153,906	-4,859	-0,014	-0,007
-152,891	-200,000	0,044	-0,148
-151,877	6,662	0,031	0,016
-150,862	-25,095	-0,098	-0,041
-149,847	-200,000	0,012	-0,077
-148,833	800,000	0,015	-0,036
-147,818	-200,000	-0,003	-0,082
-146,804	-200,000	0,001	0,033
-145,789	-200,000	0,017	0,085
-144,775	229,125	-0,033	-0,038
-143,760	-200,000	-0,008	0,169
-142,745	116,286	-0,059	-0,051
-141,731	-31,247	-0,068	-0,027
-140,716	177,127	-0,059	0,061
-139,702	35,935	0,078	0,049
-138,687	5,996	0,078	-0,041
-137,672	670,329	0,019	-0,035
-136,658	-13,484	-0,094	-0,043
-135,643	6,724	-0,074	-0,039
-134,629	203,909	0,108	-0,119
-133,614	800,000	-0,015	-0,040
-132,599	112,741	-0,065	0,056
-131,585	-200,000	0,007	0,050
-130,570	-67,238	-0,059	-0,016
-129,556	-115,448	-0,108	-0,014
-128,541	235,001	-0,046	-0,055
-127,526	-39,585	-0,075	-0,028
-126,512	-127,644	0,130	-0,013
-125,497	-200,000	0,020	0,122
-124,483	-200,000	-0,005	-0,060
-123,468	-11,460	-0,113	-0,053
-122,453	800,000	0,025	-0,052
-121,439	800,000	0,059	0,138
-120,424	800,000	-0,039	-0,101
-119,410	-35,583	0,174	0,067
-118,395	-91,413	0,097	-0,020
-117,380	-200,000	0,001	-0,103
-116,366	-200,000	0,015	-0,062
-115,351	-8,968	-0,097	-0,046
-114,337	-66,799	-0,061	-0,017
-113,322	-200,000	-0,051	-0,180
-112,307	-60,827	0,103	-0,031
-111,293	-200,000	-0,002	0,032
-110,278	-34,380	0,084	0,033
-109,264	-200,000	0,012	0,159
-108,249	-37,669	0,120	0,045
-107,234	-200,000	-0,007	0,071
-106,220	-116,438	-0,064	-0,008
-105,205	335,160	0,033	-0,045
-104,191	-200,000	0,013	0,148
-103,176	0,932	-0,080	0,041
-102,162	-103,795	-0,060	-0,010
-101,147	800,000	-0,044	0,114
-100,132	32,956	-0,160	-0,099
-99,118	159,552	0,077	0,076
-98,103	800,000	0,060	0,118
-97,089	-100,703	0,025	-0,004
-96,074	-200,000	0,000	-0,069
-95,059	-52,718	-0,087	0,028
-94,045	800,000	0,039	0,079
-93,030	-26,422	-0,122	0,051
-92,016	92,676	-0,097	0,078
-91,001	-200,000	0,010	0,046
-89,986	354,850	-0,085	0,121
-88,972	182,355	0,037	0,039
-87,957	800,000	0,047	0,144
-86,943	93,418	0,050	-0,040
-85,928	167,712	-0,083	0,084
-84,913	-200,000	-0,031	-0,112
-83,899	-200,000	-0,006	-0,101
-82,884	-200,000	-0,025	0,107
-81,870	-78,854	-0,104	0,025
-80,855	196,605	0,023	0,025
-79,840	-63,001	-0,096	0,028
-78,826	-29,320	-0,161	0,065
-77,811	573,869	-0,062	0,109
-76,797	-200,000	-0,001	0,022
-75,782	318,998	-0,021	-0,029
-74,767	-200,000	0,031	0,124
-73,753	-200,000	-0,011	-0,065
-72,738	63,054	-0,035	0,025
-71,724	-18,846	-0,083	0,037
-70,709	-200,000	0,022	-0,074
-69,694	800,000	-0,037	-0,087
-68,680	-200,000	-0,011	0,094
-67,665	-45,038	0,080	-0,028
-66,651	-200,000	-0,034	0,188
-65,636	58,577	-0,101	0,070
-64,622	177,245	-0,084	-0,087
-63,607	-200,000	-0,023	0,079
-62,592	-102,626	0,021	0,003
-61,578	-200,000	0,022	0,202
-60,563	178,944	-0,102	0,106
-59,549	-27,480	0,074	-0,031
-58,534	-91,620	-1,502	-0,301
-57,519	388,865	-1,529	-2,253
-56,505	-200,000	-0,457	-4,476
-55,490	42,765	0,921	0,594
-54,476	800,000	4,738	11,250
-53,461	-200,000	17,579	274,402
-52,446	800,000	718,090	2198,131
-51,432	554,764	1632,225	2796,260
-50,417	81,136	1656,460	1267,345
-49,403	24,090	1531,007	893,789
-48,388	18,093	1454,082	819,995
-47,373	18,363	1443,552	815,317
-46,359	18,042	1434,322	808,543
-45,344	16,413	1429,587	798,107
-44,330	16,324	1427,660	796,578
-43,315	16,299	1426,038	795,524
-42,300	16,324	1424,390	794,692
-41,286	16,397	1423,168	794,325
-40,271	16,385	1421,808	793,478
-39,257	16,370	1420,631	792,715
-38,242	16,344	1419,581	791,975
-37,227	16,417	1418,104	791,465
-36,213	16,396	1416,821	790,618
-35,198	16,365	1415,670	789,801
-34,184	16,423	1414,593	789,438
-33,169	16,297	1413,478	788,196
-32,154	16,389	1412,378	787,981
-31,140	16,401	1411,009	787,242
-30,125	16,421	1409,923	786,700
-29,111	16,375	1408,956	785,912
-28,096	16,300	1408,121	785,064
-27,082	16,307	1406,751	784,304
-26,067	16,321	1405,658	783,726
-25,052	16,291	1404,379	782,843
-24,038	16,294	1403,478	782,326
-23,023	16,324	1402,315	781,786
-22,009	16,264	1401,397	780,962
-20,994	16,218	1400,548	780,243
-19,979	16,179	1399,774	779,600
-18,965	16,227	1398,533	779,104
-17,950	16,233	1397,577	778,566
-16,936	16,221	1396,733	778,008
-15,921	16,236	1395,447	777,330
-14,906	16,181	1394,713	776,637
-13,892	16,214	1393,637	776,163
-12,877	16,218	1392,763	775,663
-11,863	16,216	1391,829	775,100
-10,848	16,170	1391,009	774,402
-9,833	16,150	1390,167	773,811
-8,819	16,162	1389,113	773,246
-7,804	16,115	1388,198	772,493
-6,790	16,110	1387,150	771,854
-5,775	16,138	1385,772	771,183
-4,760	16,120	1385,274	770,794
-3,746	16,061	1384,534	770,082
-2,731	16,144	1383,540	769,881
-1,717	16,066	1382,696	769,018
-0,702	16,070	1380,769	767,935
0,313	19,985	1302,421	742,376
1,327	36,475	707,763	441,683
2,342	56,300	125,689	86,420
3,356	2,245	16,674	8,515
4,371	17,814	3,013	1,695
5,386	-4,601	0,524	0,255
6,400	-200,000	0,033	0,115
7,415	81,610	-0,165	-0,126
8,429	101,157	-0,319	-0,263
9,444	421,183	-0,242	-0,369
10,459	349,976	-0,163	-0,229
11,473	46,515	-0,263	-0,173
12,488	74,693	-0,199	-0,148
13,502	134,893	-0,226	-0,208
14,517	131,202	-0,327	-0,298
15,531	61,386	-0,331	-0,233
16,546	50,144	-0,362	-0,242
17,561	408,738	-0,257	-0,386
18,575	9,311	-0,339	-0,181
19,590	-200,000	-0,095	-0,299
20,604	-43,849	-0,208	-0,074
21,619	97,839	-0,420	-0,342
22,634	140,678	-0,466	-0,436
23,648	-8,445	-0,505	-0,239
24,663	218,114	-0,248	-0,280
25,677	-50,192	-0,459	-0,153
26,692	137,325	-0,219	-0,203
27,707	-27,748	-0,448	-0,183
28,721	31,034	-0,372	-0,225
29,736	6,674	-0,497	-0,261
30,750	148,961	-0,380	-0,363
31,765	196,604	-0,330	-0,356
32,780	-18,131	-0,301	-0,133
33,794	119,325	-0,354	-0,310
34,809	115,254	-0,247	-0,213
35,823	-16,428	-0,480	-0,214
36,838	-46,443	-0,464	-0,160
37,853	81,772	-0,410	-0,313
38,867	40,651	-0,429	-0,272
39,882	96,104	-0,312	-0,251
40,896	120,275	-0,269	-0,236
41,911	155,596	-0,297	-0,289
42,926	6,223	-0,327	-0,171
43,940	241,029	-0,318	-0,375
44,955	140,603	-0,304	-0,283
45,969	-23,750	-0,393	-0,166
46,984	1,660	-0,405	-0,205
47,999	-21,043	-0,370	-0,159
49,013	800,000	-0,166	-0,422
50,028	4,363	-0,396	-0,204
51,042	67,372	-0,292	-0,210
52,057	184,365	-0,319	-0,333
53,071	140,281	-0,376	-0,350
54,086	63,151	-0,361	-0,255
55,101	-34,959	-0,277	-0,106
56,115	286,815	-0,206	-0,263
57,130	39,206	-0,307	-0,193
58,144	15,815	-0,284	-0,157
59,159	41,192	-0,450	-0,287
60,174	297,872	-0,252	-0,328
61,188	51,277	-0,400	-0,267
62,203	71,134	-0,323	-0,236
63,217	85,377	-0,350	-0,271
64,232	390,809	-0,217	-0,318
65,247	-69,624	-0,410	-0,110
66,261	193,312	-0,335	-0,358
67,276	80,259	-0,361	-0,273
68,290	6,843	-0,308	-0,161
69,305	275,267	-0,249	-0,312
70,320	-51,143	-0,367	-0,120
71,334	-166,188	-0,241	0,007
72,349	-0,843	-0,454	-0,226
73,363	274,258	-0,211	-0,264
74,378	29,987	-0,322	-0,193
75,393	-49,406	-0,388	-0,130
76,407	311,856	-0,191	-0,253
77,422	-30,237	-0,354	-0,141
78,436	60,239	-0,224	-0,156
79,451	-7,650	-0,410	-0,194
80,466	74,441	-0,419	-0,309
81,480	63,317	-0,251	-0,177
82,495	135,271	-0,302	-0,277
83,509	127,096	-0,245	-0,218
84,524	-20,956	-0,405	-0,174
85,539	-32,070	-0,248	-0,097
86,553	290,089	-0,173	-0,222
87,568	44,655	-0,364	-0,235
88,582	351,697	-0,264	-0,369
89,597	26,436	-0,172	-0,101
90,611	18,308	-0,317	-0,177
91,626	310,187	-0,227	-0,299
92,641	-94,609	-0,368	-0,070
93,655	126,464	-0,199	-0,177
94,670	38,382	-0,398	-0,249
95,684	41,293	-0,275	-0,175
96,699	86,011	-0,333	-0,258
97,714	68,595	-0,386	-0,278
98,728	5,517	-0,357	-0,185
99,743	280,232	-0,133	-0,167
100,757	-146,379	-0,296	-0,018
101,772	46,538	-0,290	-0,189
102,787	17,018	-0,426	-0,236
103,801	154,703	-0,247	-0,239
104,816	143,300	-0,178	-0,167
105,830	800,000	-0,132	-0,279
106,845	144,969	-0,163	-0,153
107,860	800,000	-0,201	-0,414
108,874	-4,135	-0,237	-0,115
109,889	154,035	-0,307	-0,295
110,903	252,734	-0,212	-0,254
111,918	297,680	-0,164	-0,212
112,933	717,940	-0,131	-0,245
113,947	24,851	-0,296	-0,172
114,962	61,795	-0,303	-0,212
115,976	438,611	-0,181	-0,279
116,991	-60,425	-0,412	-0,122
118,006	25,757	-0,342	-0,200
119,020	-50,711	-0,316	-0,104
120,035	130,200	-0,171	-0,153
121,049	32,725	-0,257	-0,156
122,064	172,802	-0,150	-0,152
123,079	40,309	-0,319	-0,201
124,093	-0,062	-0,192	-0,096
125,108	-90,106	-0,216	-0,044
126,122	88,354	-0,245	-0,191
127,137	10,010	-0,182	-0,097
128,151	5,571	-0,168	-0,087
129,166	454,636	-0,157	-0,245
130,181	52,536	-0,202	-0,135
131,195	76,957	-0,296	-0,220
132,210	104,943	-0,287	-0,237
133,224	48,923	-0,206	-0,135
134,239	455,688	-0,086	-0,133
135,254	37,028	-0,335	-0,207
136,268	300,172	-0,166	-0,215
137,283	-139,077	-0,297	-0,022
138,297	280,947	-0,280	-0,351
139,312	70,839	-0,202	-0,146
140,327	12,829	-0,290	-0,157
141,341	131,900	-0,259	-0,233
142,356	224,782	-0,217	-0,246
143,370	-107,271	-0,223	-0,034
144,385	13,474	-0,170	-0,092
145,400	26,774	-0,302	-0,177
146,414	227,677	-0,158	-0,180
147,429	-54,251	-0,349	-0,110
148,443	800,000	-0,089	-0,197
149,458	-50,853	-0,270	-0,088
150,473	-200,000	-0,044	-0,196
151,487	101,332	-0,240	-0,196
152,502	-31,022	-0,333	-0,131
153,516	202,727	-0,266	-0,288
154,531	50,382	-0,350	-0,231
155,546	66,571	-0,355	-0,252
156,560	-200,000	-0,087	-0,272
157,575	14,852	-0,280	-0,153
158,589	-66,068	-0,250	-0,069
159,604	36,693	-0,229	-0,141
160,619	219,273	-0,219	-0,245
161,633	7,536	-0,294	-0,153
162,648	-39,123	-0,265	-0,097
163,662	-5,964	-0,270	-0,129
164,677	134,565	-0,182	-0,165
165,692	48,301	-0,326	-0,212
166,706	99,980	-0,205	-0,166
167,721	-61,746	-0,192	-0,056
168,735	754,860	-0,184	-0,349
169,750	167,805	-0,190	-0,189
170,764	170,275	-0,294	-0,294
171,779	244,201	-0,108	-0,127
172,794	-99,254	-0,223	-0,039
173,808	-174,434	-0,252	-0,005
174,823	515,095	-0,168	-0,276
175,837	277,768	-0,161	-0,200
176,852	52,090	-0,226	-0,150
177,867	-57,478	-0,279	-0,085
178,881	212,573	-0,108	-0,119
179,896	354,507	-0,180	-0,251
180,910	51,850	-0,191	-0,126
181,925	285,550	-0,169	-0,213
182,940	-78,908	-0,332	-0,078
183,954	114,856	-0,283	-0,241
184,969	220,944	-0,221	-0,248
185,983	800,000	-0,108	-0,216
186,998	-63,531	-0,239	-0,068
188,013	45,955	-0,168	-0,108
189,027	104,946	-0,244	-0,201
190,042	132,776	-0,223	-0,201
191,056	55,681	-0,202	-0,136
192,071	800,000	-0,104	-0,231
193,086	-44,016	-0,223	-0,078
194,100	-119,644	-0,124	-0,015
195,115	-26,279	-0,168	-0,068
196,129	189,044	-0,148	-0,154
197,144	284,730	-0,150	-0,189
198,159	-27,392	-0,174	-0,070
199,173	100,568	-0,225	-0,182
200,188	163,710	-0,148	-0,146
201,202	-23,720	-0,264	-0,110
202,217	66,327	-0,223	-0,158
203,232	-13,644	-0,108	-0,048
204,246	81,976	-0,315	-0,237
205,261	-15,928	-0,214	-0,094
206,275	-200,000	-0,202	0,000
207,290	-27,809	-0,162	-0,065
208,304	82,853	-0,177	-0,134
209,319	120,036	-0,162	-0,140
210,334	-127,078	-0,244	0,025
211,348	194,651	-0,175	-0,184
212,363	172,013	-0,259	-0,259
213,377	361,050	-0,113	-0,158
214,392	89,299	-0,105	-0,081
215,407	-25,494	-0,187	-0,076
216,421	409,111	-0,170	-0,251
217,436	314,430	-0,231	-0,303
218,450	267,859	-0,146	-0,178
219,465	-200,000	-0,063	-0,326
220,480	479,341	-0,188	-0,298
221,494	-1,091	-0,161	-0,079
222,509	-66,933	-0,108	-0,029
223,523	-50,318	-0,168	0,055
224,538	-56,704	-0,180	0,055
225,553	-25,516	-0,163	-0,067
226,567	142,184	-0,151	-0,139
227,582	202,305	-0,295	-0,316
228,596	237,225	-0,150	-0,173
229,611	-94,673	-0,279	0,052
230,626	-60,650	-0,150	-0,044
231,640	-9,194	-0,219	-0,101
232,655	112,323	-0,171	-0,143
233,669	0,626	-0,208	-0,103
234,684	-200,000	-0,086	-0,323
235,699	800,000	-0,073	-0,147
236,713	476,338	-0,115	-0,181
237,728	489,926	-0,167	-0,266
238,742	770,686	-0,102	-0,193
239,757	67,365	-0,201	-0,142
240,772	338,947	-0,161	-0,219
241,786	775,795	-0,120	-0,228
242,801	37,561	-0,204	-0,125
243,815	800,000	-0,078	-0,155
244,830	40,640	-0,082	-0,051
245,844	21,153	-0,189	-0,106
246,859	-28,576	-0,276	-0,110
247,874	72,718	-0,197	-0,142
248,888	-200,000	-0,004	-0,275
249,903	-18,330	-0,161	-0,069
250,917	-33,476	-0,107	-0,041
251,932	57,456	-0,077	-0,052
252,947	-130,348	-0,228	0,021
253,961	183,555	-0,191	-0,196
254,976	185,424	-0,092	-0,094
255,990	426,070	-0,099	-0,148
257,005	800,000	-0,088	-0,239
258,020	-99,236	-0,199	0,034
259,034	800,000	-0,106	-0,208
260,049	58,981	-0,177	-0,120
261,063	41,387	-0,247	-0,155
262,078	-30,126	-0,151	-0,059
263,093	546,185	-0,140	-0,233
264,107	-88,979	-0,099	-0,020
265,122	-81,510	-0,210	-0,047
266,136	497,692	-0,115	-0,184
267,151	60,692	-0,174	-0,119
268,166	442,168	-0,133	-0,203
269,180	-34,667	-0,263	-0,099
270,195	239,530	-0,101	-0,116
271,209	271,959	-0,075	0,092
272,224	43,323	-0,196	-0,124
273,239	-183,863	-0,116	0,001
274,253	800,000	-0,085	-0,194
275,268	705,303	-0,056	-0,103
276,282	-120,741	-0,157	-0,018
277,297	135,054	-0,092	-0,082
278,312	800,000	-0,039	-0,106
279,326	103,219	-0,171	-0,139
280,341	221,572	-0,147	-0,163
281,355	81,612	-0,218	-0,163
282,370	-52,485	-0,231	-0,073
283,384	-63,617	-0,197	-0,056
284,399	59,984	-0,247	-0,168
285,414	215,392	-0,168	-0,185
286,428	31,432	-0,166	-0,098
287,443	584,670	-0,083	-0,141
288,457	-200,000	-0,063	-0,209
289,472	-38,902	-0,170	-0,061
290,487	358,734	-0,181	-0,251
291,501	800,000	-0,060	-0,168
292,516	183,163	-0,240	-0,245
293,530	265,656	-0,217	-0,262
294,545	140,614	-0,111	-0,101
295,560	-28,508	-0,235	-0,093
296,574	-75,519	-0,221	-0,054
297,589	-133,200	-0,231	0,020
298,603	14,123	-0,240	-0,128
299,618	117,261	-0,098	-0,083
300,633	-119,319	-0,152	-0,018
301,647	-161,486	-0,216	-0,008
302,662	800,000	-0,066	-0,126
303,676	-75,913	-0,133	-0,032
304,691	47,259	-0,203	-0,131
305,706	-71,128	-0,148	-0,038
306,720	577,865	-0,074	-0,126
307,735	3,482	-0,162	0,081
308,749	-105,961	-0,125	0,019
309,764	88,633	-0,156	-0,119
310,779	-0,263	-0,196	-0,096
311,793	752,898	-0,115	-0,215
312,808	217,378	-0,185	-0,204
313,822	78,775	-0,147	-0,108
314,837	22,602	-0,098	-0,055
315,852	800,000	-0,077	-0,151
316,866	114,834	-0,055	-0,046
317,881	268,408	-0,056	-0,068
318,895	800,000	-0,048	-0,103
319,910	272,356	-0,085	-0,103
320,925	221,964	-0,078	-0,087
321,939	-91,643	-0,128	-0,025
322,954	-37,729	-0,095	-0,035
323,968	155,553	-0,102	-0,097
324,983	127,330	-0,139	-0,121
325,997	171,236	-0,138	-0,136
327,012	368,238	-0,205	-0,287
328,027	364,511	-0,094	-0,130
329,041	586,760	-0,054	-0,093
330,056	38,415	-0,097	0,060
331,070	-200,000	-0,029	-0,199
332,085	95,167	-0,019	-0,015
333,100	372,674	-0,061	-0,086
334,114	131,772	-0,179	-0,159
335,129	-116,951	-0,229	-0,028
336,143	800,000	-0,104	-0,248
337,158	313,550	-0,144	-0,187
338,173	-2,335	-0,162	-0,078
339,187	703,372	-0,093	-0,170
340,202	-200,000	-0,009	-0,078
341,216	143,163	-0,168	-0,154
342,231	800,000	-0,120	-0,248
343,246	544,535	-0,069	-0,113
344,260	800,000	-0,038	-0,092
345,275	-200,000	-0,060	-0,206
346,289	50,549	-0,147	-0,096
347,304	349,403	-0,102	-0,139
348,319	-2,390	-0,214	-0,103
349,333	-144,290	-0,109	-0,007
350,348	800,000	-0,028	-0,067
351,362	-128,033	-0,148	-0,014
352,377	134,691	-0,097	-0,087
353,392	800,000	-0,023	-0,069
354,406	287,151	-0,096	-0,119
355,421	210,299	1312,386	1417,457
356,435	161,891	1472,859	1417,985
