DTS Sentinel unit serial number:	SN410029Multiplexer serial number:	ORYXHardware model number:	OX2-SRSoftware version number:	ORYX F/W v4,00 Oryx Data Collector v3.7.2.0data status	okinstallation	B3 Nyhavnadifferential loss correction	single-endedforward channel	channel 1reverse channel	N/Adate	2023/12/03time	20:02:30forward acquisition time	300,00reverse acquisition time	0,00gamma	499,1914k internal	0,3198k external	0,3198temperature offset calibration	1,0000default loss term (dB/km)	0,3820temperature slope calibration	1,0000multiplexer offset coefficient	1,0000multiplexer slope coefficient	1,0000fibre end	0,00T internal ref (°C)	14,10T ext. ref 1 (°C)	-1,22T ext. ref 2 (°C)	-1,24length (m)	temperature (°C)	Stokes	anti-Stokes-744,400	462,850	-0,185	-0,302
-743,385	-200,000	0,066	0,318
-742,371	465,570	-0,157	-0,257
-741,356	-200,000	0,061	0,267
-740,342	-167,889	-0,283	-0,008
-739,327	-200,000	0,011	0,376
-738,312	800,000	-0,138	-0,278
-737,298	-200,000	0,027	0,133
-736,283	1,180	-0,375	-0,195
-735,269	-200,000	0,032	0,237
-734,254	460,679	-0,178	-0,289
-733,239	95,064	-0,099	0,082
-732,225	78,855	-0,116	-0,090
-731,210	-148,460	0,112	0,007
-730,196	800,000	0,039	0,083
-729,181	800,000	-0,074	-0,184
-728,167	-198,896	-0,068	-0,000
-727,152	-157,197	-0,083	-0,004
-726,137	2,331	-0,100	0,053
-725,123	-200,000	-0,030	0,152
-724,108	31,825	-0,122	-0,076
-723,094	298,081	-0,120	-0,161
-722,079	-200,000	0,012	-0,088
-721,064	48,362	0,099	-0,068
-720,050	-48,434	0,058	0,020
-719,035	800,000	-0,025	0,077
-718,021	61,018	-0,073	0,052
-717,006	800,000	-0,019	-0,047
-715,991	-41,218	-0,009	0,003
-714,977	98,078	0,066	0,055
-713,962	-200,000	-0,014	-0,137
-712,948	-14,560	-0,129	0,060
-711,933	-8,045	-0,035	0,017
-710,918	-135,037	-0,117	0,010
-709,904	546,392	-0,057	-0,099
-708,889	-69,125	-0,206	-0,057
-707,875	122,791	-0,086	0,078
-706,860	-127,042	0,161	0,017
-705,845	282,919	-0,040	0,053
-704,831	1,293	0,146	0,076
-703,816	800,000	0,020	0,043
-702,802	316,483	-0,067	-0,092
-701,787	-200,000	0,011	-0,061
-700,772	287,613	0,028	-0,037
-699,758	150,857	0,038	-0,037
-698,743	-65,973	0,073	-0,021
-697,729	306,484	0,062	0,084
-696,714	588,193	0,014	-0,025
-695,699	800,000	-0,045	-0,110
-694,685	-200,000	0,003	0,181
-693,670	425,164	-0,064	-0,100
-692,656	-200,000	-0,006	0,030
-691,641	-65,139	-0,104	0,030
-690,627	-0,099	0,086	0,044
-689,612	800,000	0,008	-0,024
-688,597	-200,000	-0,008	-0,050
-687,583	422,006	-0,090	-0,140
-686,568	-200,000	-0,015	-0,190
-685,554	-200,000	0,014	0,074
-684,539	105,118	0,058	-0,049
-683,524	-200,000	-0,002	0,037
-682,510	9,789	-0,110	-0,060
-681,495	-127,318	-0,071	-0,007
-680,481	-200,000	-0,011	0,077
-679,466	-200,000	-0,020	-0,073
-678,451	347,145	-0,064	-0,091
-677,437	166,661	-0,010	-0,011
-676,422	800,000	-0,021	0,061
-675,408	-200,000	0,011	0,147
-674,393	314,585	-0,007	-0,009
-673,378	393,761	-0,140	-0,212
-672,364	800,000	0,097	-0,217
-671,349	-106,206	-0,063	0,010
-670,335	-34,739	-0,096	0,038
-669,320	800,000	0,042	-0,094
-668,305	-35,099	-0,121	0,047
-667,291	27,328	-0,074	0,045
-666,276	-76,701	-0,131	-0,033
-665,262	2,891	0,010	-0,005
-664,247	800,000	-0,073	-0,209
-663,232	800,000	-0,053	-0,124
-662,218	-200,000	0,003	0,184
-661,203	115,969	-0,010	-0,009
-660,189	69,201	-0,097	-0,072
-659,174	70,873	0,061	-0,046
-658,159	-200,000	-0,011	-0,162
-657,145	-200,000	0,026	-0,153
-656,130	419,634	-0,034	-0,053
-655,116	-174,157	-0,086	0,002
-654,101	261,886	0,079	0,099
-653,086	-200,000	0,022	0,076
-652,072	611,316	0,018	-0,033
-651,057	800,000	0,025	-0,074
-650,043	-200,000	-0,027	-0,125
-649,028	-200,000	0,015	-0,092
-648,014	-200,000	0,005	-0,131
-646,999	5,121	0,071	0,038
-645,984	-200,000	-0,001	0,186
-644,970	260,003	-0,078	0,098
-643,955	-200,000	0,001	-0,192
-642,941	-81,614	-0,059	-0,014
-641,926	800,000	0,009	-0,019
-640,911	84,589	-0,013	-0,010
-639,897	800,000	0,013	0,028
-638,882	-70,982	0,080	-0,022
-637,868	-200,000	0,018	0,069
-636,853	-86,529	-0,125	-0,027
-635,838	301,286	0,002	-0,003
-634,824	-200,000	0,011	0,122
-633,809	47,959	0,044	0,030
-632,795	-200,000	-0,014	0,058
-631,780	-33,087	0,125	0,050
-630,765	104,505	-0,057	-0,048
-629,751	-200,000	0,003	-0,075
-628,736	-77,271	-0,151	-0,038
-627,722	-200,000	-0,040	0,220
-626,707	138,835	-0,064	-0,061
-625,692	-200,000	0,013	-0,050
-624,678	800,000	0,031	-0,086
-623,663	333,592	-0,073	0,103
-622,649	-50,479	-0,082	0,028
-621,634	-51,264	0,037	-0,012
-620,619	578,009	0,071	-0,126
-619,605	800,000	0,025	-0,078
-618,590	16,401	0,059	0,034
-617,576	340,313	0,028	-0,040
-616,561	387,831	-0,042	-0,063
-615,546	94,599	-0,033	-0,028
-614,532	-200,000	-0,026	-0,084
-613,517	-200,000	0,022	0,089
-612,503	113,482	0,040	-0,035
-611,488	-3,139	0,107	0,054
-610,474	-77,668	0,155	0,039
-609,459	146,191	0,033	-0,032
-608,444	-132,917	0,182	0,017
-607,430	29,534	0,009	-0,005
-606,415	7,320	-0,065	-0,035
-605,401	673,868	0,072	0,135
-604,386	51,767	0,081	-0,056
-603,371	123,730	-0,026	-0,024
-602,357	364,658	-0,100	0,146
-601,342	-38,701	-0,051	0,019
-600,328	800,000	-0,054	-0,149
-599,313	800,000	0,036	0,086
-598,298	-200,000	0,043	-0,166
-597,284	-4,928	-0,101	0,050
-596,269	-37,979	0,026	-0,010
-595,255	-26,418	0,075	0,032
-594,240	8,806	-0,118	0,064
-593,225	228,354	-0,089	0,105
-592,211	-70,115	0,154	-0,042
-591,196	533,550	0,027	0,047
-590,182	21,728	-0,093	-0,055
-589,167	-73,095	0,177	0,047
-588,152	-200,000	0,008	0,139
-587,138	579,989	-0,060	-0,107
-586,123	87,669	-0,104	-0,083
-585,109	-55,420	-0,105	-0,034
-584,094	461,889	-0,042	0,068
-583,079	-38,886	0,047	-0,018
-582,065	-53,223	0,066	-0,022
-581,050	800,000	0,030	-0,081
-580,036	114,227	0,098	0,086
-579,021	-179,750	-0,094	-0,001
-578,006	-200,000	-0,007	0,046
-576,992	-177,229	-0,069	-0,001
-575,977	280,145	0,037	0,048
-574,963	-200,000	0,006	-0,037
-573,948	300,377	0,066	0,089
-572,934	800,000	0,036	0,092
-571,919	69,856	-0,079	-0,059
-570,904	79,550	-0,132	0,102
-569,890	51,262	0,011	-0,007
-568,875	-200,000	0,038	0,135
-567,861	-82,078	-0,080	-0,019
-566,846	-200,000	-0,017	0,080
-565,831	-19,551	0,125	-0,056
-564,817	-81,975	0,034	-0,008
-563,802	333,158	0,049	-0,069
-562,788	-76,715	0,025	-0,006
-561,773	-200,000	-0,005	-0,113
-560,758	455,009	0,029	0,046
-559,744	-112,178	0,140	-0,020
-558,729	-93,477	0,107	-0,021
-557,715	-200,000	0,019	-0,104
-556,700	-56,891	-0,195	0,062
-555,685	9,292	0,090	0,049
-554,671	27,039	-0,058	0,035
-553,656	-200,000	0,004	0,078
-552,642	261,649	0,036	0,046
-551,627	499,680	-0,036	-0,060
-550,612	281,953	0,124	-0,161
-549,598	-147,386	-0,071	0,004
-548,583	-11,680	0,042	-0,020
-547,569	30,390	-0,054	-0,033
-546,554	-200,000	-0,031	0,217
-545,539	396,865	-0,048	0,073
-544,525	505,930	-0,068	-0,114
-543,510	64,397	-0,009	0,006
-542,496	-166,392	0,055	-0,002
-541,481	203,374	-0,052	0,058
-540,466	-20,903	-0,046	-0,020
-539,452	50,021	-0,087	-0,059
-538,437	-122,445	0,107	0,012
-537,423	-200,000	0,006	0,132
-536,408	89,636	0,062	-0,050
-535,393	179,390	0,043	-0,045
-534,379	206,917	-0,051	-0,058
-533,364	-200,000	-0,020	-0,155
-532,350	800,000	0,057	0,123
-531,335	-200,000	-0,011	0,055
-530,321	-137,357	0,127	0,010
-529,306	800,000	0,013	-0,040
-528,291	-68,117	-0,053	0,015
-527,277	230,777	0,131	-0,155
-526,262	128,398	-0,156	0,143
-525,248	91,960	-0,018	-0,015
-524,233	72,247	0,040	0,030
-523,218	169,061	0,075	0,077
-522,204	800,000	0,005	0,012
-521,189	-200,000	0,004	-0,113
-520,175	173,232	0,044	0,046
-519,160	-15,753	0,021	-0,010
-518,145	800,000	-0,045	-0,093
-517,131	-200,000	-0,031	-0,174
-516,116	-44,173	-0,101	0,036
-515,102	-121,476	0,098	0,012
-514,087	-32,664	-0,102	0,041
-513,072	-68,254	0,061	0,017
-512,058	7,543	-0,064	0,035
-511,043	233,145	0,074	-0,088
-510,029	-105,515	0,119	-0,019
-509,014	-23,485	0,028	-0,012
-507,999	2,785	0,131	0,069
-506,985	123,984	-0,060	-0,054
-505,970	-126,088	-0,069	0,007
-504,956	15,573	-0,044	-0,025
-503,941	-92,427	-0,062	-0,013
-502,926	253,572	0,048	0,059
-501,912	-117,666	0,136	-0,017
-500,897	-128,096	-0,088	-0,009
-499,883	80,626	-0,116	-0,090
-498,868	255,068	-0,047	-0,058
-497,853	-147,086	-0,106	0,006
-496,839	337,707	-0,028	0,040
-495,824	-88,238	0,111	0,024
-494,810	-109,495	0,082	-0,012
-493,795	207,634	0,049	-0,055
-492,781	16,024	-0,082	-0,047
-491,766	800,000	0,041	-0,098
-490,751	-109,560	-0,122	-0,018
-489,737	743,026	-0,051	-0,100
-488,722	800,000	0,026	0,079
-487,708	-125,709	-0,073	0,008
-486,693	493,058	-0,041	0,068
-485,678	-22,831	-0,070	0,030
-484,664	30,625	-0,117	0,072
-483,649	800,000	-0,063	0,134
-482,635	99,493	0,093	0,077
-481,620	-89,621	-0,052	-0,011
-480,605	800,000	0,034	-0,073
-479,591	520,803	0,026	-0,045
-478,576	247,887	0,023	-0,028
-477,562	124,248	-0,058	-0,053
-476,547	-200,000	-0,006	-0,038
-475,532	-200,000	0,023	-0,079
-474,518	-200,000	-0,032	-0,120
-473,503	800,000	0,016	-0,042
-472,489	-121,544	0,021	-0,003
-471,474	25,054	-0,074	0,044
-470,459	-21,441	-0,092	0,040
-469,445	-200,000	-0,015	-0,050
-468,430	-200,000	0,009	-0,049
-467,416	-200,000	0,021	0,089
-466,401	-200,000	0,004	0,055
-465,386	-200,000	0,014	0,091
-464,372	-38,050	0,056	0,021
-463,357	-118,129	-0,207	0,026
-462,343	-3,031	-0,087	-0,044
-461,328	-199,558	-0,068	-0,000
-460,313	-200,000	-0,012	-0,071
-459,299	-161,618	0,147	-0,005
-458,284	104,613	-0,092	-0,078
-457,270	-200,000	-0,026	-0,160
-456,255	-200,000	-0,021	-0,090
-455,241	-200,000	0,034	-0,269
-454,226	-200,000	0,027	-0,108
-453,211	139,492	0,105	-0,099
-452,197	-63,847	0,159	-0,047
-451,182	-200,000	-0,010	0,045
-450,168	-136,638	0,090	-0,007
-449,153	-200,000	0,003	-0,045
-448,138	163,626	0,082	-0,083
-447,124	-200,000	-0,003	-0,011
-446,109	800,000	0,039	0,098
-445,095	58,916	0,071	0,050
-444,080	120,345	0,056	0,050
-443,065	-177,983	0,076	0,001
-442,051	445,731	-0,062	-0,098
-441,036	-133,261	-0,082	-0,007
-440,022	-66,353	-0,081	0,023
-439,007	-176,228	-0,183	-0,003
-437,992	27,906	-0,100	0,061
-436,978	-200,000	0,010	0,109
-435,963	513,506	0,037	0,063
-434,949	-200,000	-0,005	-0,135
-433,934	-200,000	-0,004	0,041
-432,919	664,537	-0,012	0,022
-431,905	197,796	-0,033	-0,037
-430,890	146,560	0,049	0,047
-429,876	800,000	0,044	0,138
-428,861	11,420	-0,030	0,016
-427,846	-200,000	-0,019	0,069
-426,832	454,155	-0,058	-0,092
-425,817	-200,000	0,077	-0,252
-424,803	190,023	0,068	0,074
-423,788	712,257	-0,032	0,060
-422,773	-14,509	0,117	0,054
-421,759	-48,638	-0,059	-0,020
-420,744	800,000	0,056	-0,155
-419,730	-200,000	-0,019	-0,110
-418,715	-130,219	-0,059	0,006
-417,701	-193,068	-0,042	-0,000
-416,686	-200,000	0,007	0,049
-415,671	223,889	0,030	-0,035
-414,657	-96,205	0,153	-0,029
-413,642	120,957	-0,017	0,016
-412,628	155,520	-0,076	-0,075
-411,613	-200,000	-0,014	0,077
-410,598	-200,000	0,037	-0,122
-409,584	-200,000	-0,003	-0,068
-408,569	800,000	-0,061	0,159
-407,555	800,000	-0,047	0,141
-406,540	421,429	-0,034	0,052
-405,525	-200,000	-0,005	-0,061
-404,511	-66,417	0,039	0,011
-403,496	800,000	-0,014	-0,042
-402,482	280,066	0,021	0,027
-401,467	445,824	-0,053	0,084
-400,452	100,998	-0,063	0,052
-399,438	-200,000	-0,008	-0,030
-398,423	-74,937	0,054	0,014
-397,409	-200,000	-0,006	-0,074
-396,394	-144,828	0,019	-0,001
-395,379	-200,000	0,001	-0,105
-394,365	77,429	0,056	-0,043
-393,350	-16,977	0,134	-0,060
-392,336	338,018	-0,009	0,012
-391,321	74,498	0,039	0,029
-390,306	542,002	0,033	0,057
-389,292	-200,000	0,017	-0,083
-388,277	82,894	-0,007	0,005
-387,263	-10,774	-0,079	-0,037
-386,248	132,386	0,149	-0,138
-385,233	800,000	0,028	0,076
-384,219	62,775	0,065	-0,047
-383,204	-163,064	-0,068	-0,002
-382,190	-91,323	-0,050	-0,010
-381,175	-200,000	-0,010	0,058
-380,160	-200,000	0,002	-0,055
-379,146	800,000	0,010	0,023
-378,131	-43,969	0,084	0,030
-377,117	-200,000	-0,029	0,168
-376,102	-117,131	-0,051	-0,007
-375,088	-72,918	0,055	-0,015
-374,073	-160,664	0,032	-0,001
-373,058	-200,000	-0,003	-0,113
-372,044	221,913	0,062	-0,072
-371,029	-83,255	0,168	0,038
-370,015	-200,000	-0,016	-0,094
-369,000	-90,957	0,078	0,016
-367,985	147,234	-0,141	0,136
-366,971	556,149	-0,087	-0,151
-365,956	169,322	0,028	-0,029
-364,942	255,875	0,055	-0,068
-363,927	-97,230	-0,218	0,040
-362,912	-151,922	-0,053	-0,003
-361,898	-124,115	-0,061	-0,007
-360,883	173,160	0,044	-0,045
-359,869	107,265	-0,050	-0,042
-358,854	349,705	0,033	-0,047
-357,839	-82,663	0,115	0,027
-356,825	-39,129	0,084	-0,032
-355,810	-200,000	-0,012	-0,044
-354,796	-93,649	-0,019	-0,004
-353,781	-94,885	-0,170	0,033
-352,766	73,139	-0,065	-0,049
-351,752	310,649	0,097	0,130
-350,737	22,601	0,078	0,046
-349,723	-59,585	-0,103	-0,032
-348,708	800,000	0,042	0,095
-347,693	800,000	-0,016	0,047
-346,679	109,830	-0,056	0,048
-345,664	-184,390	-0,106	-0,001
-344,650	250,793	-0,054	-0,066
-343,635	377,095	0,113	0,166
-342,620	291,067	0,024	-0,032
-341,606	219,123	0,044	0,050
-340,591	-200,000	-0,014	0,124
-339,577	-142,519	-0,052	-0,004
-338,562	82,196	-0,051	-0,040
-337,548	-36,480	0,099	0,038
-336,533	-72,938	-0,137	0,036
-335,518	-29,212	0,120	0,049
-334,504	36,069	0,067	-0,042
-333,489	145,260	-0,126	0,121
-332,475	800,000	-0,045	0,109
-331,460	-85,241	-0,139	0,031
-330,445	-29,167	0,140	0,057
-329,431	401,141	0,091	0,137
-328,416	-200,000	0,048	0,175
-327,402	-15,589	-0,222	-0,101
-326,387	206,813	-0,028	0,032
-325,372	-114,169	-0,140	-0,019
-324,358	-200,000	0,009	-0,041
-323,343	26,428	0,014	0,009
-322,329	30,733	0,052	-0,032
-321,314	-200,000	0,021	-0,188
-320,299	-200,000	-0,016	0,074
-319,285	739,007	-0,034	0,065
-318,270	120,807	-0,047	-0,042
-317,256	800,000	-0,038	0,112
-316,241	-27,808	-0,029	0,012
-315,226	-200,000	0,029	-0,142
-314,212	-200,000	-0,032	-0,150
-313,197	181,565	0,034	0,035
-312,183	224,238	0,095	0,110
-311,168	-50,639	0,063	0,021
-310,153	190,307	-0,069	0,075
-309,139	460,610	0,059	-0,094
-308,124	49,943	-0,027	0,018
-307,110	-200,000	-0,010	-0,076
-306,095	66,180	0,081	-0,059
-305,080	611,024	0,101	-0,182
-304,066	-59,835	-0,113	-0,034
-303,051	-200,000	-0,016	-0,066
-302,037	130,375	-0,162	-0,149
-301,022	78,468	0,081	0,062
-300,008	-200,000	-0,014	0,129
-298,993	-108,341	-0,155	-0,024
-297,978	264,350	-0,081	0,101
-296,964	187,993	-0,013	0,014
-295,949	391,928	0,061	0,091
-294,935	211,711	0,059	-0,066
-293,920	-66,944	0,126	0,035
-292,905	-200,000	-0,007	-0,092
-291,891	-183,257	0,067	0,001
-290,876	181,998	0,031	-0,032
-289,862	437,965	-0,068	-0,107
-288,847	800,000	-0,009	-0,022
-287,832	-58,132	-0,104	0,032
-286,818	-200,000	-0,003	-0,049
-285,803	-117,261	-0,226	0,029
-284,789	-88,325	0,062	-0,013
-283,774	-200,000	-0,017	-0,066
-282,759	-200,000	-0,036	-0,115
-281,745	509,035	0,060	-0,100
-280,730	10,053	-0,183	-0,099
-279,716	30,254	-0,072	0,044
-278,701	328,640	-0,014	-0,019
-277,686	55,646	0,075	0,052
-276,672	397,203	0,080	0,120
-275,657	190,841	-0,069	0,075
-274,643	-109,462	-0,160	0,024
-273,628	-157,378	-0,152	0,006
-272,613	-164,792	0,023	0,001
-271,599	-102,479	0,089	-0,015
-270,584	391,155	-0,014	0,021
-269,570	-200,000	0,006	-0,065
-268,555	292,568	-0,095	0,124
-267,540	219,962	-0,063	0,073
-266,526	-200,000	0,030	-0,166
-265,511	-200,000	0,052	-0,188
-264,497	176,455	0,070	-0,073
-263,482	800,000	0,026	0,059
-262,467	-74,743	-0,060	0,015
-261,453	25,071	0,180	0,106
-260,438	58,297	-0,078	0,054
-259,424	349,847	0,082	-0,117
-258,409	-200,000	-0,011	0,054
-257,395	-200,000	0,101	0,000
-256,380	8,456	0,090	0,048
-255,365	-200,000	0,024	-0,092
-254,351	117,716	0,085	-0,075
-253,336	476,026	0,070	0,113
-252,322	800,000	-0,042	-0,109
-251,307	399,414	0,038	-0,056
-250,292	-187,183	0,179	0,002
-249,278	-200,000	0,012	0,150
-248,263	-125,901	0,095	-0,010
-247,249	124,694	-0,007	-0,006
-246,234	201,827	0,141	0,155
-245,219	47,056	-0,057	-0,038
-244,205	800,000	-0,026	-0,075
-243,190	344,196	0,031	0,044
-242,176	-200,000	-0,035	0,112
-241,161	-101,986	0,156	0,027
-240,146	-200,000	-0,009	0,081
-239,132	140,112	-0,074	0,070
-238,117	238,936	0,047	-0,056
-237,103	800,000	-0,059	-0,123
-236,088	-98,949	-0,038	0,007
-235,073	-200,000	-0,021	0,154
-234,059	192,266	0,104	0,112
-233,044	-200,000	0,048	0,185
-232,030	294,285	-0,051	-0,066
-231,015	260,349	-0,081	0,101
-230,000	-200,000	0,014	-0,061
-228,986	-200,000	0,021	0,118
-227,971	-200,000	-0,050	0,170
-226,957	800,000	0,064	0,179
-225,942	-65,001	0,037	-0,011
-224,927	-116,577	-0,104	0,014
-223,913	111,347	-0,181	-0,156
-222,898	-200,000	0,018	-0,071
-221,884	26,742	-0,032	0,019
-220,869	313,316	-0,031	0,041
-219,855	-56,307	0,151	0,047
-218,840	76,142	-0,049	0,037
-217,825	135,589	-0,101	-0,094
-216,811	-44,600	-0,043	0,015
-215,796	-200,000	-0,035	-0,127
-214,782	-61,909	-0,062	0,018
-213,767	41,389	0,039	0,025
-212,752	101,897	0,054	0,045
-211,738	-8,239	-0,009	-0,004
-210,723	162,565	0,014	0,014
-209,709	63,357	-0,071	-0,051
-208,694	-146,712	-0,063	0,004
-207,679	327,312	0,091	0,125
-206,665	-90,637	0,048	0,010
-205,650	-49,377	0,055	0,019
-204,636	800,000	-0,037	-0,091
-203,621	-59,130	0,098	-0,030
-202,606	-200,000	0,011	0,048
-201,592	-126,962	0,113	0,012
-200,577	496,065	-0,022	-0,036
-199,563	-47,056	0,079	0,027
-198,548	-78,991	0,058	0,014
-197,533	800,000	-0,043	0,085
-196,519	800,000	0,022	0,051
-195,504	-67,983	0,150	-0,041
-194,490	75,565	0,057	-0,043
-193,475	85,838	-0,100	-0,078
-192,460	55,298	-0,019	0,013
-191,446	800,000	-0,020	-0,044
-190,431	87,739	-0,054	-0,042
-189,417	282,717	0,114	-0,146
-188,402	800,000	0,017	-0,037
-187,387	-65,863	-0,035	0,010
-186,373	-129,756	-0,123	0,012
-185,358	-38,151	0,185	-0,069
-184,344	800,000	-0,006	0,017
-183,329	52,674	0,103	0,070
-182,315	-200,000	0,034	0,138
-181,300	120,804	0,088	0,078
-180,285	-200,000	0,025	-0,083
-179,271	227,220	-0,060	-0,070
-178,256	-120,071	-0,119	-0,014
-177,242	-69,476	-0,106	0,029
-176,227	-200,000	-0,004	0,142
-175,212	-148,891	-0,144	-0,008
-174,198	-200,000	0,024	-0,139
-173,183	800,000	-0,017	-0,048
-172,169	-200,000	-0,001	-0,149
-171,154	-193,823	0,098	-0,001
-170,139	-200,000	0,005	0,085
-169,125	167,810	-0,128	0,130
-168,110	-200,000	-0,015	0,258
-167,096	-200,000	0,010	0,104
-166,081	-200,000	0,030	0,118
-165,066	800,000	-0,020	-0,049
-164,052	800,000	0,039	-0,079
-163,037	-88,526	0,037	-0,008
-162,023	216,662	0,167	0,189
-161,008	800,000	-0,056	0,150
-159,993	-63,810	-0,108	-0,031
-158,979	279,234	0,048	-0,061
-157,964	800,000	-0,036	0,094
-156,950	800,000	0,039	-0,080
-155,935	-88,203	0,141	-0,030
-154,920	-53,905	-0,141	-0,045
-153,906	-200,000	-0,016	0,058
-152,891	172,365	-0,098	-0,101
-151,877	-200,000	-0,003	-0,028
-150,862	-200,000	-0,009	-0,068
-149,847	-40,341	-0,084	-0,031
-148,833	-200,000	0,013	0,068
-147,818	-154,170	0,033	-0,002
-146,804	800,000	0,013	0,041
-145,789	305,040	0,024	0,031
-144,775	-101,078	-0,187	-0,032
-143,760	-42,699	-0,135	-0,049
-142,745	800,000	-0,025	0,063
-141,731	-200,000	0,005	-0,078
-140,716	159,940	-0,049	-0,049
-139,702	-200,000	-0,013	0,080
-138,687	-200,000	0,037	0,121
-137,672	88,041	-0,155	-0,122
-136,658	-200,000	0,015	-0,048
-135,643	599,636	0,019	-0,033
-134,629	-200,000	-0,020	-0,123
-133,614	59,544	-0,059	0,041
-132,599	800,000	-0,025	0,064
-131,585	800,000	0,041	0,097
-130,570	307,679	-0,068	-0,090
-129,556	353,748	-0,066	-0,093
-128,541	-200,000	0,003	0,015
-127,526	-59,767	-0,089	-0,027
-126,512	97,549	-0,097	-0,080
-125,497	-200,000	0,023	0,126
-124,483	800,000	-0,070	0,161
-123,468	316,943	-0,079	0,107
-122,453	65,259	0,071	0,051
-121,439	125,521	-0,069	-0,062
-120,424	-200,000	0,015	-0,113
-119,410	-123,077	-0,019	-0,002
-118,395	216,088	0,072	0,081
-117,380	419,481	-0,047	0,072
-116,366	800,000	0,005	-0,012
-115,351	-200,000	0,009	0,088
-114,337	-58,999	0,045	0,014
-113,322	378,953	-0,035	-0,051
-112,307	-144,296	0,093	-0,006
-111,293	800,000	0,039	0,078
-110,278	137,565	-0,041	-0,039
-109,264	395,849	0,050	-0,075
-108,249	-16,284	-0,062	-0,028
-107,234	-47,794	-0,338	-0,116
-106,220	800,000	0,062	-0,125
-105,205	5,459	-0,073	-0,038
-104,191	-200,000	0,022	0,100
-103,176	112,137	-0,008	0,007
-102,162	-200,000	-0,019	0,198
-101,147	130,952	0,102	-0,093
-100,132	-200,000	0,021	-0,122
-99,118	31,868	0,064	0,039
-98,103	800,000	0,058	-0,136
-97,089	-200,000	0,001	0,030
-96,074	114,654	0,010	0,009
-95,059	250,188	-0,079	0,096
-94,045	202,333	-0,073	0,080
-93,030	-69,280	-0,099	-0,027
-92,016	-200,000	0,007	-0,025
-91,001	-200,000	0,023	-0,076
-89,986	243,240	0,092	0,110
-88,972	1,203	-0,149	0,075
-87,957	586,958	-0,087	0,152
-86,943	800,000	-0,056	0,125
-85,928	-200,000	-0,012	-0,220
-84,913	286,024	-0,084	-0,108
-83,899	268,043	0,046	0,057
-82,884	470,794	-0,106	0,170
-81,870	153,258	0,076	0,074
-80,855	10,185	-0,138	0,074
-79,840	103,845	-0,032	-0,027
-78,826	718,580	-0,033	-0,062
-77,811	800,000	-0,036	-0,091
-76,797	-69,395	-0,124	0,033
-75,782	-200,000	-0,030	0,097
-74,767	175,018	0,059	0,060
-73,753	-79,960	0,071	0,017
-72,738	800,000	-0,013	-0,029
-71,724	248,830	0,094	-0,114
-70,709	120,886	-0,030	0,027
-69,694	274,929	0,060	-0,075
-68,680	-200,000	0,003	-0,076
-67,665	-200,000	-0,011	-0,092
-66,651	-41,383	-0,031	-0,011
-65,636	-200,000	0,013	0,164
-64,622	-200,000	0,007	0,030
-63,607	153,582	0,029	-0,028
-62,592	675,278	-0,078	-0,145
-61,578	-35,014	-0,100	-0,038
-60,563	-11,662	0,068	0,031
-59,549	800,000	0,017	0,049
-58,534	-34,427	-1,595	-0,617
-57,519	426,292	-1,362	-2,087
-56,505	-200,000	-0,555	-4,564
-55,490	226,976	0,929	1,071
-54,476	800,000	4,721	10,971
-53,461	-200,000	18,842	306,571
-52,446	800,000	737,754	2299,285
-51,432	568,449	1653,639	2858,431
-50,417	78,890	1669,938	1265,153
-49,403	22,076	1542,686	889,594
-48,388	15,947	1465,747	815,430
-47,373	17,822	1455,700	818,869
-46,359	16,891	1445,740	808,768
-45,344	14,202	1441,298	793,373
-44,330	14,121	1439,312	791,860
-43,315	14,159	1437,540	791,032
-42,300	14,150	1435,794	789,996
-41,286	14,233	1434,518	789,659
-40,271	14,182	1433,400	788,769
-39,257	14,173	1432,015	787,933
-38,242	14,195	1430,945	787,420
-37,227	14,230	1429,687	786,863
-36,213	14,235	1428,213	786,043
-35,198	14,219	1427,211	785,384
-34,184	14,243	1426,180	784,902
-33,169	14,176	1424,946	783,871
-32,154	14,180	1423,776	783,217
-31,140	14,229	1422,406	782,664
-30,125	14,243	1421,596	782,252
-29,111	14,164	1420,532	781,265
-28,096	14,178	1419,254	780,596
-27,082	14,114	1418,213	779,690
-26,067	14,163	1416,912	779,174
-25,052	14,154	1416,017	778,609
-24,038	14,129	1414,872	777,833
-23,023	14,068	1414,082	777,081
-22,009	14,113	1412,872	776,596
-20,994	14,055	1412,114	775,875
-19,979	14,089	1411,117	775,455
-18,965	14,072	1410,166	774,823
-17,950	14,036	1409,475	774,244
-16,936	14,088	1408,315	773,819
-15,921	14,010	1407,165	772,793
-14,906	14,032	1406,421	772,457
-13,892	14,047	1405,425	771,947
-12,877	14,066	1404,328	771,401
-11,863	14,026	1403,622	770,797
-10,848	14,018	1402,816	770,290
-9,833	13,971	1401,824	769,493
-8,819	13,955	1401,033	768,954
-7,804	13,927	1400,136	768,300
-6,790	13,931	1399,008	767,671
-5,775	13,908	1398,062	767,016
-4,760	13,957	1397,114	766,693
-3,746	13,928	1396,243	766,050
-2,731	13,895	1395,536	765,477
-1,717	13,912	1394,553	764,984
-0,702	13,944	1392,691	764,081
0,313	17,685	1310,558	736,396
1,327	33,980	705,289	434,042
2,342	52,285	123,967	83,587
3,356	1,961	16,698	8,503
4,371	-0,783	3,282	1,641
5,386	-39,912	0,555	0,204
6,400	800,000	0,107	0,254
7,415	800,000	-0,137	-0,320
8,429	-34,940	-0,362	-0,139
9,444	-82,066	-0,332	-0,076
10,459	57,691	-0,354	-0,245
11,473	44,812	-0,279	-0,181
12,488	-21,009	-0,322	-0,139
13,502	46,510	-0,361	-0,236
14,517	-7,318	-0,393	-0,188
15,531	284,990	-0,248	-0,317
16,546	-27,290	-0,369	-0,151
17,561	34,801	-0,447	-0,276
18,575	22,382	-0,248	-0,143
19,590	1,944	-0,284	-0,144
20,604	-55,274	-0,296	-0,093
21,619	58,774	-0,357	-0,247
22,634	95,273	-0,467	-0,376
23,648	-11,890	-0,592	-0,274
24,663	142,230	-0,450	-0,422
25,677	8,763	-0,374	-0,199
26,692	52,850	-0,323	-0,218
27,707	65,521	-0,324	-0,232
28,721	36,465	-0,422	-0,262
29,736	47,534	-0,343	-0,226
30,750	146,969	-0,294	-0,279
31,765	8,948	-0,406	-0,215
32,780	71,610	-0,387	-0,284
33,794	31,903	-0,461	-0,280
34,809	663,377	-0,214	-0,391
35,823	177,429	-0,383	-0,395
36,838	211,711	-0,279	-0,311
37,853	60,800	-0,341	-0,238
38,867	156,576	-0,326	-0,318
39,882	99,466	-0,303	-0,247
40,896	-10,671	-0,308	-0,143
41,911	126,553	-0,320	-0,286
42,926	109,798	-0,332	-0,281
43,940	125,894	-0,298	-0,266
44,955	61,692	-0,387	-0,272
45,969	74,976	-0,397	-0,295
46,984	21,617	-0,408	-0,234
47,999	81,421	-0,255	-0,194
49,013	-12,730	-0,314	-0,144
50,028	47,125	-0,217	-0,142
51,042	96,105	-0,428	-0,345
52,057	65,889	-0,334	-0,238
53,071	83,346	-0,428	-0,329
54,086	87,028	-0,202	-0,157
55,101	-91,632	-0,375	-0,075
56,115	205,542	-0,250	-0,275
57,130	125,857	-0,287	-0,256
58,144	130,644	-0,223	-0,202
59,159	115,221	-0,414	-0,356
60,174	-4,980	-0,454	-0,219
61,188	0,250	-0,413	-0,207
62,203	33,925	-0,394	-0,241
63,217	-3,088	-0,329	-0,161
64,232	26,930	-0,278	-0,164
65,247	-67,697	-0,476	-0,130
66,261	113,897	-0,423	-0,362
67,276	118,384	-0,353	-0,306
68,290	7,470	-0,343	-0,180
69,305	-21,067	-0,437	-0,188
70,320	-46,464	-0,402	-0,138
71,334	-3,360	-0,234	-0,115
72,349	25,799	-0,344	-0,201
73,363	-60,083	-0,410	-0,122
74,378	83,386	-0,274	-0,210
75,393	180,021	-0,252	-0,261
76,407	5,280	-0,410	-0,212
77,422	-137,120	-0,228	-0,018
78,436	-23,689	-0,196	-0,082
79,451	522,892	-0,202	-0,335
80,466	76,972	-0,294	-0,219
81,480	112,466	-0,340	-0,289
82,495	20,427	-0,405	-0,229
83,509	-37,362	-0,320	-0,120
84,524	229,640	-0,175	-0,202
85,539	-21,540	-0,288	-0,123
86,553	103,189	-0,153	-0,126
87,568	-32,597	-0,419	-0,163
88,582	42,151	-0,385	-0,245
89,597	42,649	-0,346	-0,221
90,611	17,968	-0,312	-0,174
91,626	24,630	-0,150	-0,087
92,641	800,000	-0,097	-0,224
93,655	-21,335	-0,286	-0,122
94,670	-56,451	-0,332	-0,103
95,684	9,686	-0,301	-0,160
96,699	17,264	-0,352	-0,195
97,714	140,087	-0,216	-0,200
98,728	52,168	-0,295	-0,197
99,743	123,173	-0,236	-0,207
100,757	202,867	-0,240	-0,260
101,772	-5,604	-0,343	-0,165
102,787	198,325	-0,290	-0,312
103,801	-18,401	-0,271	-0,118
104,816	549,792	-0,132	-0,223
105,830	-36,491	-0,258	-0,097
106,845	-199,256	-0,218	-0,001
107,860	204,808	-0,250	-0,273
108,874	-27,379	-0,206	-0,084
109,889	-94,234	-0,342	-0,065
110,903	281,369	-0,166	-0,209
111,918	-34,304	-0,284	-0,109
112,933	-98,123	-0,234	-0,042
113,947	-37,681	-0,301	-0,112
114,962	33,473	-0,271	-0,165
115,976	162,513	-0,276	-0,271
116,991	93,692	-0,365	-0,290
118,006	-4,830	-0,279	-0,134
119,020	16,454	-0,307	-0,169
120,035	-55,230	-0,292	-0,092
121,049	57,159	-0,183	-0,125
122,064	-139,495	-0,258	-0,019
123,079	90,342	-0,280	-0,219
124,093	50,840	-0,364	-0,241
125,108	-68,456	-0,187	-0,050
126,122	34,066	-0,303	-0,184
127,137	458,220	-0,176	-0,275
128,151	-74,898	-0,186	-0,046
129,166	-17,112	-0,261	-0,115
130,181	209,859	-0,228	-0,250
131,195	453,105	-0,076	-0,118
132,210	-100,226	-0,329	-0,057
133,224	165,390	-0,273	-0,270
134,239	-11,706	-0,239	-0,109
135,254	18,489	-0,204	-0,114
136,268	198,485	-0,149	-0,160
137,283	-97,018	-0,352	-0,064
138,297	800,000	-0,161	-0,348
139,312	103,024	-0,293	-0,240
140,327	-42,383	-0,254	-0,090
141,341	-149,811	-0,319	-0,017
142,356	274,711	-0,182	-0,226
143,370	70,348	-0,233	-0,168
144,385	-86,613	-0,217	-0,046
145,400	-72,366	-0,253	-0,065
146,414	136,316	-0,313	-0,286
147,429	100,398	-0,202	-0,164
148,443	336,151	-0,139	-0,189
149,458	800,000	-0,081	-0,220
150,473	84,700	-0,136	-0,104
151,487	-9,799	-0,310	-0,144
152,502	0,644	-0,257	-0,128
153,516	61,248	-0,319	-0,221
154,531	-61,734	-0,349	-0,101
155,546	149,733	-0,231	-0,219
156,560	-55,451	-0,248	-0,077
157,575	-39,038	-0,146	-0,053
158,589	131,669	-0,231	-0,207
159,604	282,993	-0,198	-0,249
160,619	16,575	-0,304	-0,168
161,633	115,127	-0,256	-0,218
162,648	64,587	-0,242	-0,170
163,662	69,716	-0,238	-0,171
164,677	64,774	-0,130	-0,092
165,692	-17,686	-0,200	-0,087
166,706	522,523	-0,174	-0,287
167,721	206,736	-0,235	-0,256
168,735	557,523	-0,132	-0,223
169,750	-58,664	-0,158	-0,048
170,764	245,687	-0,217	-0,255
171,779	-18,034	-0,214	-0,093
172,794	28,936	-0,287	-0,169
173,808	-67,036	-0,206	-0,056
174,823	367,169	-0,089	-0,126
175,837	141,004	-0,136	-0,126
176,852	800,000	-0,131	-0,267
177,867	280,917	-0,155	-0,194
178,881	-15,468	-0,203	-0,090
179,896	13,607	-0,157	-0,085
180,910	-71,167	-0,320	-0,083
181,925	-178,360	-0,321	-0,005
182,940	175,712	-0,216	-0,218
183,954	191,903	-0,200	-0,210
184,969	52,608	-0,187	-0,124
185,983	373,577	-0,174	-0,248
186,998	-42,791	-0,233	-0,082
188,013	800,000	-0,148	-0,315
189,027	138,509	-0,194	-0,178
190,042	-9,640	-0,273	-0,126
191,056	-133,207	-0,243	-0,021
192,071	382,315	-0,193	-0,277
193,086	-107,935	-0,234	-0,035
194,100	288,525	-0,171	-0,216
195,115	85,255	-0,186	-0,142
196,129	152,105	-0,189	-0,179
197,144	43,669	-0,212	-0,135
198,159	148,033	-0,213	-0,200
199,173	-67,593	-0,284	-0,077
200,188	99,605	-0,177	-0,143
201,202	-87,106	-0,146	-0,031
202,217	800,000	-0,078	-0,187
203,232	800,000	-0,066	-0,162
204,246	-200,000	-0,100	-0,337
205,261	180,903	-0,265	-0,271
206,275	8,328	-0,291	-0,152
207,290	194,670	-0,133	-0,141
208,304	487,336	-0,088	-0,140
209,319	-58,434	-0,163	-0,049
210,334	6,404	-0,154	-0,079
211,348	124,425	-0,243	-0,213
212,363	23,401	-0,337	-0,192
213,377	111,250	-0,221	-0,185
214,392	-14,262	-0,241	-0,108
215,407	178,434	-0,107	-0,109
216,421	412,607	-0,124	-0,184
217,436	761,222	-0,079	-0,150
218,450	28,215	-0,245	-0,144
219,465	-3,850	-0,277	-0,133
220,480	139,096	-0,110	-0,101
221,494	113,806	-0,209	-0,176
222,509	-31,645	-0,192	-0,074
223,523	111,140	-0,148	-0,124
224,538	168,028	-0,112	-0,110
225,553	129,731	-0,215	-0,191
226,567	272,799	-0,198	-0,243
227,582	-10,566	-0,274	-0,125
228,596	562,647	-0,144	-0,242
229,611	78,123	-0,214	-0,158
230,626	-42,539	-0,179	-0,063
231,640	6,913	-0,214	-0,110
232,655	114,748	-0,149	-0,126
233,669	102,992	-0,158	-0,129
234,684	90,427	-0,270	-0,210
235,699	111,730	-0,173	-0,145
236,713	-43,217	-0,171	-0,060
237,728	-78,517	-0,213	-0,050
238,742	-150,743	-0,190	-0,010
239,757	104,452	-0,213	-0,173
240,772	82,834	-0,200	-0,150
241,786	-89,697	-0,254	-0,051
242,801	132,767	-0,201	-0,180
243,815	730,600	-0,096	-0,178
244,830	622,478	-0,075	-0,131
245,844	195,218	-0,237	-0,250
246,859	170,817	-0,223	-0,221
247,874	182,132	-0,200	-0,205
248,888	58,560	-0,259	-0,176
249,903	-99,610	-0,206	-0,035
250,917	800,000	-0,071	-0,142
251,932	48,261	-0,141	-0,091
252,947	24,488	-0,225	-0,129
253,961	45,909	-0,274	-0,175
254,976	16,068	-0,194	-0,106
255,990	44,283	-0,151	-0,096
257,005	37,753	-0,071	-0,043
258,020	-185,146	-0,148	-0,002
259,034	170,657	-0,130	-0,129
260,049	515,628	-0,061	-0,100
261,063	380,458	-0,099	-0,142
262,078	149,916	-0,211	-0,199
263,093	254,722	-0,200	-0,237
264,107	305,911	-0,144	-0,186
265,122	-200,000	-0,024	-0,143
266,136	-116,161	-0,076	0,010
267,151	-130,989	-0,226	0,021
268,166	102,843	-0,178	-0,144
269,180	92,628	-0,159	-0,124
270,195	98,430	-0,207	-0,165
271,209	26,190	-0,269	-0,155
272,224	-135,552	-0,220	-0,018
273,239	24,102	-0,159	-0,090
274,253	-150,611	-0,253	0,013
275,268	503,151	-0,140	-0,225
276,282	86,895	-0,229	-0,174
277,297	800,000	-0,072	-0,139
278,312	4,114	-0,167	-0,084
279,326	31,913	-0,153	-0,091
280,341	65,600	-0,151	-0,106
281,355	97,181	-0,139	-0,110
282,370	-35,858	-0,171	-0,064
283,384	800,000	-0,072	-0,188
284,399	373,938	-0,174	-0,246
285,414	-47,345	-0,198	-0,066
286,428	-60,260	-0,133	-0,039
287,443	153,313	-0,151	-0,142
288,457	20,159	-0,079	-0,044
289,472	375,800	-0,066	-0,093
290,487	-55,641	-0,176	-0,054
291,501	13,139	-0,184	-0,098
292,516	36,944	-0,251	-0,153
293,530	242,329	-0,143	-0,165
294,545	142,311	-0,091	-0,084
295,560	-25,037	-0,230	-0,094
296,574	396,730	-0,091	-0,132
297,589	-159,840	-0,134	-0,005
298,603	0,907	-0,153	-0,075
299,618	-48,574	-0,149	-0,049
300,633	-72,075	-0,157	-0,040
301,647	30,449	-0,144	-0,085
302,662	143,272	-0,098	-0,090
303,676	22,694	-0,164	-0,092
304,691	557,000	-0,027	-0,046
305,706	-61,422	-0,076	-0,022
306,720	290,810	-0,137	-0,172
307,735	-35,081	-0,240	-0,090
308,749	-99,037	-0,186	-0,032
309,764	535,352	-0,067	0,110
310,779	-94,750	-0,211	-0,039
311,793	7,956	-0,227	-0,117
312,808	-55,107	-0,178	-0,055
313,822	32,657	-0,307	-0,182
314,837	-19,414	-0,194	-0,082
315,852	-126,025	-0,066	-0,007
316,866	-116,762	-0,230	0,029
317,881	8,135	-0,074	-0,038
318,895	314,857	-0,062	-0,081
319,910	51,062	-0,078	-0,051
320,925	-78,754	-0,194	-0,045
321,939	-82,668	-0,183	-0,040
322,954	-169,157	-0,153	-0,004
323,968	-37,046	-0,109	0,040
324,983	100,760	-0,187	-0,149
325,997	-78,305	-0,109	0,026
327,012	-46,226	-0,217	-0,073
328,027	-93,529	-0,143	-0,027
329,041	12,855	-0,186	-0,099
330,056	-200,000	-0,008	0,049
331,070	-98,312	-0,188	-0,033
332,085	-54,696	-0,136	-0,042
333,100	418,867	-0,110	-0,163
334,114	183,285	-0,169	-0,172
335,129	5,698	-0,152	-0,077
336,143	-1,734	-0,077	-0,037
337,158	414,272	-0,077	-0,113
338,173	-200,000	-0,023	-0,113
339,187	-41,039	-0,145	-0,051
340,202	-89,148	-0,183	-0,037
341,216	-48,084	-0,266	-0,088
342,231	170,910	-0,078	-0,077
343,246	-76,053	-0,185	-0,045
344,260	-53,729	-0,133	-0,041
345,275	90,743	-0,114	-0,088
346,289	244,467	-0,024	-0,028
347,304	-200,000	0,008	-0,042
348,319	69,121	-0,125	-0,088
349,333	354,741	-0,125	-0,172
350,348	-114,395	-0,099	-0,013
351,362	156,036	-0,174	-0,165
352,377	331,584	-0,091	-0,121
353,392	-140,688	-0,164	-0,011
354,406	286,066	-0,169	-0,210
355,421	209,055	1314,636	1414,908
356,435	160,877	1475,372	1415,402
