DTS Sentinel unit serial number:	SN410029Multiplexer serial number:	ORYXHardware model number:	OX2-SRSoftware version number:	ORYX F/W v4,00 Oryx Data Collector v3.7.2.0data status	okinstallation	B3 Nyhavnadifferential loss correction	single-endedforward channel	channel 1reverse channel	N/Adate	2023/12/04time	14:12:30forward acquisition time	300,00reverse acquisition time	0,00gamma	499,1914k internal	0,3201k external	0,3201temperature offset calibration	1,0000default loss term (dB/km)	0,3820temperature slope calibration	1,0000multiplexer offset coefficient	1,0000multiplexer slope coefficient	1,0000fibre end	0,00T internal ref (°C)	14,99T ext. ref 1 (°C)	0,18T ext. ref 2 (°C)	0,16length (m)	temperature (°C)	Stokes	anti-Stokes-744,400	-200,000	-0,066	-0,349
-743,385	-200,000	0,014	0,241
-742,371	336,950	-0,175	-0,248
-741,356	800,000	0,096	0,298
-740,342	177,436	-0,177	-0,187
-739,327	618,946	0,187	0,343
-738,312	275,577	-0,201	-0,259
-737,298	-200,000	0,073	0,309
-736,283	344,262	-0,167	-0,239
-735,269	-200,000	0,009	0,291
-734,254	572,298	-0,202	-0,360
-733,239	50,791	-0,165	0,114
-732,225	-200,000	-0,021	-0,166
-731,210	14,924	0,192	0,109
-730,196	800,000	0,021	-0,062
-729,181	-200,000	-0,014	0,085
-728,167	123,123	-0,062	0,056
-727,152	-106,285	-0,149	-0,024
-726,137	173,680	0,050	-0,052
-725,123	800,000	-0,013	0,038
-724,108	-200,000	0,035	-0,177
-723,094	-87,960	-0,180	-0,039
-722,079	800,000	-0,060	-0,149
-721,064	178,121	0,032	-0,034
-720,050	-200,000	-0,030	-0,120
-719,035	-200,000	0,027	0,107
-718,021	505,782	-0,071	-0,120
-717,006	-162,814	0,058	-0,002
-715,991	800,000	-0,025	-0,057
-714,977	-4,855	-0,113	-0,057
-713,962	476,072	-0,044	0,073
-712,948	-55,352	0,078	0,025
-711,933	800,000	-0,029	0,077
-710,918	305,226	-0,118	0,160
-709,904	-86,403	-0,058	-0,013
-708,889	187,487	-0,059	0,064
-707,875	68,300	-0,084	-0,063
-706,860	159,821	0,019	-0,020
-705,845	77,296	0,073	0,057
-704,831	344,971	0,003	0,005
-703,816	-112,845	-0,109	0,016
-702,802	-200,000	0,056	-0,229
-701,787	530,259	-0,059	-0,102
-700,772	414,942	-0,088	-0,137
-699,758	64,912	-0,192	-0,140
-698,743	1,554	0,176	-0,092
-697,729	-55,847	0,104	-0,034
-696,714	-12,178	-0,065	0,031
-695,699	800,000	-0,065	-0,147
-694,685	13,444	-0,059	-0,033
-693,670	333,598	-0,100	-0,141
-692,656	-200,000	0,004	0,056
-691,641	-33,124	0,076	0,031
-690,627	-88,456	0,150	0,032
-689,612	-131,443	-0,115	0,011
-688,597	148,250	0,111	0,108
-687,583	800,000	-0,042	0,099
-686,568	-34,809	-0,075	0,030
-685,554	-200,000	0,055	-0,205
-684,539	800,000	-0,036	-0,093
-683,524	-25,876	0,049	0,021
-682,510	19,297	0,116	0,067
-681,495	-88,802	-0,185	-0,040
-680,481	272,157	-0,056	0,072
-679,466	-200,000	-0,010	-0,084
-678,451	-200,000	-0,027	-0,118
-677,437	-200,000	0,001	0,112
-676,422	800,000	0,043	0,138
-675,408	127,835	-0,036	0,033
-674,393	-141,518	0,087	0,006
-673,378	236,672	0,029	0,035
-672,364	430,089	0,058	-0,091
-671,349	391,886	-0,074	-0,112
-670,335	-200,000	0,025	-0,211
-669,320	-125,829	0,164	-0,018
-668,305	405,555	-0,027	-0,041
-667,291	371,825	-0,064	0,095
-666,276	-200,000	-0,007	-0,031
-665,262	-200,000	-0,001	-0,089
-664,247	800,000	0,030	0,072
-663,232	-10,081	-0,118	-0,057
-662,218	-200,000	0,043	0,143
-661,203	-98,295	0,100	0,018
-660,189	-200,000	-0,006	-0,031
-659,174	800,000	-0,026	-0,057
-658,159	325,575	-0,035	-0,049
-657,145	294,920	0,055	-0,073
-656,130	-164,485	0,039	-0,001
-655,116	-106,652	-0,050	0,008
-654,101	-200,000	0,036	-0,131
-653,086	-200,000	0,020	-0,084
-652,072	-39,208	-0,181	0,069
-651,057	-110,765	-0,134	0,020
-650,043	534,481	-0,096	0,165
-649,028	-53,849	-0,038	-0,013
-648,014	-38,163	0,133	-0,051
-646,999	-200,000	0,007	0,027
-645,984	641,845	-0,038	-0,070
-644,970	-169,716	0,086	-0,002
-643,955	-200,000	0,019	0,000
-642,941	-117,951	-0,080	-0,010
-641,926	26,511	0,029	-0,017
-640,911	-9,910	0,099	-0,048
-639,897	419,975	0,089	-0,138
-638,882	356,104	0,048	0,069
-637,868	-200,000	0,004	0,036
-636,853	800,000	0,019	-0,040
-635,838	15,013	-0,129	-0,073
-634,824	800,000	-0,037	0,083
-633,809	-58,855	-0,039	-0,012
-632,795	-124,360	0,147	0,016
-631,780	120,494	0,093	-0,084
-630,765	-200,000	0,016	0,075
-629,751	-165,091	-0,078	-0,002
-628,736	163,152	-0,082	-0,084
-627,722	800,000	-0,021	-0,055
-626,707	73,012	0,059	0,045
-625,692	5,473	0,117	0,062
-624,678	-87,617	0,027	0,006
-623,663	337,102	-0,040	0,057
-622,649	-42,656	-0,084	0,031
-621,634	262,541	-0,061	-0,077
-620,619	786,219	-0,103	0,206
-619,605	-98,707	-0,027	-0,005
-618,590	-18,876	-0,105	0,047
-617,576	396,197	0,064	0,097
-616,561	-200,000	-0,016	-0,101
-615,546	210,520	0,016	0,018
-614,532	-200,000	-0,002	-0,007
-613,517	-35,508	-0,137	0,053
-612,503	-77,035	0,021	-0,005
-611,488	-18,675	0,034	-0,015
-610,474	303,558	0,055	-0,073
-609,459	-170,255	0,023	0,001
-608,444	699,748	0,060	0,114
-607,430	800,000	-0,035	-0,101
-606,415	-200,000	0,008	-0,137
-605,401	-90,464	0,095	-0,020
-604,386	-200,000	-0,006	0,181
-603,371	5,923	0,027	-0,014
-602,357	378,899	0,060	0,089
-601,342	73,027	-0,055	0,042
-600,328	-114,783	-0,143	-0,019
-599,313	218,809	-0,066	0,076
-598,298	280,876	0,091	-0,118
-597,284	-200,000	0,015	-0,101
-596,269	-200,000	-0,017	0,097
-595,255	-200,000	-0,020	0,072
-594,240	122,991	0,034	0,031
-593,225	-200,000	0,033	-0,105
-592,211	-123,531	0,105	0,012
-591,196	132,273	-0,041	-0,038
-590,182	57,161	-0,032	-0,022
-589,167	-101,133	0,100	-0,018
-588,152	-200,000	0,016	0,124
-587,138	-92,010	-0,025	-0,005
-586,123	202,097	-0,088	-0,098
-585,109	-200,000	-0,001	-0,060
-584,094	800,000	-0,038	-0,121
-583,079	227,190	0,121	0,142
-582,065	800,000	0,029	0,063
-581,050	311,947	0,011	-0,015
-580,036	-200,000	-0,004	0,052
-579,021	-200,000	0,005	-0,068
-578,006	-200,000	-0,035	-0,201
-576,992	800,000	0,029	-0,073
-575,977	-200,000	0,023	-0,077
-574,963	-200,000	0,038	-0,143
-573,948	-70,123	0,085	0,023
-572,934	108,311	0,091	-0,078
-571,919	4,680	-0,168	0,089
-570,904	355,320	-0,062	-0,089
-569,890	-40,101	-0,115	-0,043
-568,875	-200,000	-0,010	0,103
-567,861	-26,724	0,051	-0,021
-566,846	-3,272	-0,101	-0,051
-565,831	23,846	0,016	0,010
-564,817	27,564	0,087	0,053
-563,802	336,785	-0,049	-0,069
-562,788	-200,000	0,005	-0,071
-561,773	621,335	-0,076	0,138
-560,758	-131,066	0,067	-0,006
-559,744	3,490	0,113	-0,059
-558,729	-114,757	0,029	-0,004
-557,715	183,178	-0,132	0,141
-556,700	-200,000	-0,000	-0,070
-555,685	-75,241	0,107	-0,027
-554,671	800,000	0,047	-0,121
-553,656	-152,852	0,023	-0,001
-552,642	800,000	-0,057	0,117
-551,627	800,000	-0,055	0,111
-550,612	800,000	0,046	-0,106
-549,598	172,101	0,064	-0,067
-548,583	120,805	-0,075	-0,067
-547,569	-200,000	-0,001	-0,056
-546,554	-200,000	-0,017	0,157
-545,539	-48,806	-0,059	0,020
-544,525	198,716	-0,046	0,051
-543,510	800,000	-0,031	0,080
-542,496	-157,168	0,036	0,002
-541,481	122,927	0,115	-0,104
-540,466	55,585	-0,054	-0,037
-539,452	16,110	0,119	-0,067
-538,437	236,132	0,090	0,108
-537,423	-200,000	0,003	-0,066
-536,408	676,968	0,023	-0,044
-535,393	-200,000	0,008	0,094
-534,379	198,189	-0,100	-0,111
-533,364	5,960	-0,044	-0,023
-532,350	162,539	0,027	-0,028
-531,335	-200,000	0,009	-0,081
-530,321	-200,000	-0,001	0,009
-529,306	-200,000	-0,009	0,046
-528,291	18,107	-0,119	0,068
-527,277	-200,000	0,034	-0,135
-526,262	-171,301	0,026	-0,001
-525,248	465,167	0,051	0,083
-524,233	-99,579	0,061	-0,011
-523,218	-200,000	-0,018	0,143
-522,204	110,717	0,095	0,082
-521,189	-123,681	0,041	-0,005
-520,175	-200,000	-0,020	0,093
-519,160	800,000	-0,047	-0,098
-518,145	16,173	0,157	0,089
-517,131	287,915	0,051	-0,066
-516,116	-125,024	0,105	0,011
-515,102	-162,293	-0,041	0,001
-514,087	-120,478	0,028	-0,003
-513,072	23,880	-0,067	-0,040
-512,058	-200,000	-0,105	-0,000
-511,043	-19,618	0,068	0,030
-510,029	-53,854	0,137	-0,045
-509,014	-6,495	0,084	-0,041
-507,999	-31,723	-0,037	0,015
-506,985	69,183	0,065	-0,048
-505,970	800,000	-0,012	-0,025
-504,956	230,709	-0,071	-0,084
-503,941	16,733	-0,087	0,049
-502,926	-200,000	0,002	0,070
-501,912	-200,000	-0,016	-0,058
-500,897	-200,000	-0,103	0,000
-499,883	268,295	-0,076	-0,096
-498,868	-200,000	0,027	-0,109
-497,853	130,784	-0,097	-0,089
-496,839	-125,242	0,067	0,007
-495,824	-84,427	0,033	-0,007
-494,810	-200,000	-0,011	0,036
-493,795	-148,638	0,043	0,003
-492,781	-200,000	-0,031	-0,137
-491,766	224,175	-0,025	-0,029
-490,751	312,957	-0,009	-0,013
-489,737	-120,462	-0,025	0,003
-488,722	44,137	0,075	0,049
-487,708	800,000	0,068	0,213
-486,693	800,000	0,043	0,098
-485,678	-59,712	-0,169	-0,052
-484,664	232,520	0,078	0,093
-483,649	138,979	-0,067	0,064
-482,635	529,859	-0,014	0,024
-481,620	120,845	-0,058	0,052
-480,605	23,111	0,041	-0,024
-479,591	54,811	-0,058	0,040
-478,576	-80,255	0,121	-0,029
-477,562	800,000	0,061	-0,162
-476,547	229,331	0,048	-0,056
-475,532	-200,000	0,010	-0,199
-474,518	-192,074	-0,056	-0,000
-473,503	-15,114	0,167	0,076
-472,489	-71,932	0,090	0,024
-471,474	-29,668	0,027	0,011
-470,459	385,659	-0,029	0,043
-469,445	223,832	-0,052	-0,060
-468,430	346,120	-0,044	-0,062
-467,416	-200,000	0,007	0,030
-466,401	-200,000	-0,016	0,098
-465,386	-200,000	0,001	0,038
-464,372	93,445	-0,089	0,072
-463,357	-69,933	-0,181	-0,049
-462,343	212,113	-0,113	-0,128
-461,328	772,950	-0,038	-0,074
-460,313	-200,000	0,024	-0,107
-459,299	240,048	-0,073	0,088
-458,284	20,944	0,086	0,050
-457,270	692,516	-0,076	0,144
-456,255	384,400	-0,038	0,057
-455,241	-200,000	-0,019	-0,100
-454,226	-152,756	-0,044	-0,002
-453,211	-176,074	0,054	0,001
-452,197	-200,000	0,024	-0,110
-451,182	-93,124	0,129	-0,026
-450,168	-155,213	0,072	0,003
-449,153	-200,000	-0,001	0,005
-448,138	-166,360	-0,064	0,002
-447,124	378,691	-0,078	-0,116
-446,109	-167,187	-0,176	-0,005
-445,095	-200,000	-0,031	0,183
-444,080	800,000	0,020	0,041
-443,065	-31,065	0,034	-0,014
-442,051	-98,886	-0,116	0,021
-441,036	22,387	-0,114	0,067
-440,022	710,672	-0,037	-0,071
-439,007	-200,000	0,009	-0,049
-437,992	800,000	-0,014	-0,028
-436,978	800,000	-0,047	0,101
-435,963	800,000	-0,041	-0,088
-434,949	-64,038	0,163	0,047
-433,934	236,252	-0,076	-0,090
-432,919	22,359	-0,071	-0,042
-431,905	-168,751	-0,087	-0,002
-430,890	1,023	0,075	0,038
-429,876	-172,707	0,135	0,003
-428,861	27,886	0,075	0,045
-427,846	466,195	-0,070	-0,113
-426,832	800,000	-0,004	-0,012
-425,817	800,000	-0,055	-0,130
-424,803	-200,000	-0,046	-0,156
-423,788	-55,156	-0,027	0,009
-422,773	600,133	-0,024	-0,043
-421,759	223,933	0,088	-0,102
-420,744	77,968	0,077	0,059
-419,730	252,277	0,079	-0,097
-418,715	800,000	-0,040	-0,088
-417,701	690,317	0,070	0,132
-416,686	377,367	-0,040	-0,059
-415,671	800,000	0,058	0,148
-414,657	800,000	-0,034	-0,078
-413,642	12,892	-0,026	0,014
-412,628	93,437	-0,021	-0,017
-411,613	56,442	-0,109	-0,076
-410,598	234,283	0,082	0,097
-409,584	-200,000	0,001	-0,127
-408,569	-95,283	0,135	0,026
-407,555	288,518	-0,100	0,130
-406,540	800,000	0,092	0,233
-405,525	-181,100	-0,166	0,002
-404,511	322,728	0,086	-0,117
-403,496	-200,000	0,013	-0,131
-402,482	285,706	-0,130	0,169
-401,467	-200,000	-0,004	0,158
-400,452	-200,000	0,005	0,116
-399,438	93,577	-0,109	-0,089
-398,423	-200,000	-0,015	-0,127
-397,409	726,459	-0,049	-0,093
-396,394	-49,987	-0,139	0,047
-395,379	-107,047	-0,128	-0,020
-394,365	413,965	0,079	-0,121
-393,350	189,658	0,049	0,053
-392,336	98,285	0,030	-0,025
-391,321	410,514	-0,042	-0,064
-390,306	-48,918	0,026	0,009
-389,292	227,665	0,041	0,048
-388,277	-200,000	-0,004	-0,096
-387,263	145,539	0,047	0,045
-386,248	-200,000	0,004	-0,059
-385,233	-53,807	-0,099	-0,032
-384,219	-125,955	-0,177	0,019
-383,204	-169,443	-0,032	0,001
-382,190	-113,720	-0,063	0,009
-381,175	800,000	-0,052	-0,119
-380,160	-161,658	0,088	0,003
-379,146	-162,461	0,051	0,002
-378,131	800,000	-0,012	0,035
-377,117	123,209	0,114	-0,102
-376,102	-200,000	-0,029	-0,131
-375,088	-74,308	-0,130	-0,033
-374,073	-200,000	0,013	0,133
-373,058	800,000	0,016	0,040
-372,044	800,000	-0,009	-0,027
-371,029	-123,786	0,146	-0,016
-370,015	308,940	0,026	0,035
-369,000	31,675	0,034	-0,021
-367,985	380,359	-0,052	-0,077
-366,971	800,000	-0,022	-0,064
-365,956	-189,922	-0,058	0,000
-364,942	-200,000	-0,013	-0,080
-363,927	-29,343	0,098	0,040
-362,912	155,308	-0,025	0,025
-361,898	-200,000	-0,015	-0,047
-360,883	-78,070	0,024	-0,006
-359,869	15,921	-0,125	-0,070
-358,854	280,148	0,046	0,059
-357,839	800,000	-0,093	0,212
-356,825	800,000	-0,044	0,091
-355,810	-200,000	0,020	0,066
-354,796	8,859	-0,061	0,033
-353,781	800,000	0,030	-0,060
-352,766	-200,000	-0,001	0,178
-351,752	-85,364	0,022	-0,005
-350,737	-200,000	-0,020	0,188
-349,723	513,023	-0,031	-0,052
-348,708	-200,000	-0,012	0,040
-347,693	-1,345	0,095	0,048
-346,679	63,866	0,034	-0,025
-345,664	-152,747	-0,143	0,007
-344,650	238,386	-0,064	-0,077
-343,635	800,000	0,016	0,038
-342,620	800,000	-0,003	0,007
-341,606	-200,000	-0,039	0,147
-340,591	-9,240	-0,158	-0,075
-339,577	-200,000	-0,017	-0,083
-338,562	111,164	-0,050	0,043
-337,548	577,369	0,091	-0,159
-336,533	-49,977	-0,143	-0,048
-335,518	-200,000	-0,002	-0,063
-334,504	-79,592	0,146	-0,035
-333,489	167,221	0,073	0,074
-332,475	-57,648	-0,068	-0,021
-331,460	87,839	-0,113	-0,090
-330,445	800,000	0,027	0,083
-329,431	74,849	-0,016	-0,012
-328,416	-200,000	-0,031	0,247
-327,402	800,000	0,035	0,077
-326,387	-179,976	0,061	-0,001
-325,372	-66,793	-0,110	0,031
-324,358	-26,842	0,020	0,008
-323,343	65,916	0,061	0,044
-322,329	-91,630	-0,043	-0,009
-321,314	569,262	0,030	0,052
-320,299	800,000	-0,014	-0,037
-319,285	602,630	-0,063	0,113
-318,270	790,396	0,019	-0,038
-317,256	800,000	-0,022	0,068
-316,241	106,905	0,064	-0,055
-315,226	-200,000	-0,010	0,046
-314,212	-72,526	0,126	-0,033
-313,197	201,497	-0,087	-0,096
-312,183	775,521	0,004	-0,008
-311,168	-0,910	-0,116	-0,059
-310,153	-200,000	-0,018	0,082
-309,139	-200,000	-0,026	-0,123
-308,124	9,847	0,115	0,062
-307,110	341,937	-0,073	-0,102
-306,095	438,525	0,019	-0,029
-305,080	-45,677	-0,035	-0,012
-304,066	99,727	-0,031	0,025
-303,051	139,585	-0,047	0,044
-302,037	800,000	0,018	-0,054
-301,022	227,287	0,064	0,075
-300,008	-200,000	-0,009	-0,076
-298,993	278,108	-0,097	0,124
-297,978	-200,000	-0,006	0,098
-296,964	415,556	-0,066	0,101
-295,949	800,000	-0,053	-0,115
-294,935	-86,113	-0,073	-0,016
-293,920	497,147	-0,054	0,090
-292,905	-59,501	0,035	-0,011
-291,891	767,206	0,085	0,166
-290,876	800,000	-0,039	0,099
-289,862	248,416	0,054	-0,066
-288,847	486,904	-0,036	-0,059
-287,832	-74,418	0,058	0,015
-286,818	120,844	-0,061	0,054
-285,803	163,509	0,116	-0,117
-284,789	-1,768	0,084	0,042
-283,774	-2,208	0,074	0,037
-282,759	28,113	0,050	0,030
-281,745	360,067	0,074	-0,107
-280,730	-55,491	-0,045	0,014
-279,716	800,000	-0,026	-0,068
-278,701	150,860	-0,029	-0,028
-277,686	-200,000	0,040	0,138
-276,672	156,112	-0,024	0,024
-275,657	-200,000	0,058	0,219
-274,643	800,000	0,011	0,025
-273,628	7,453	-0,103	-0,055
-272,613	-200,000	0,021	0,088
-271,599	95,111	-0,069	-0,056
-270,584	-200,000	-0,008	0,085
-269,570	333,924	-0,098	-0,135
-268,555	-15,427	0,140	0,064
-267,540	94,316	-0,095	-0,077
-266,526	-200,000	0,023	-0,169
-265,511	-9,068	-0,062	0,030
-264,497	386,742	0,055	0,081
-263,482	-200,000	0,004	0,110
-262,467	222,556	0,042	-0,049
-261,453	-200,000	0,009	0,052
-260,438	-155,592	-0,052	-0,002
-259,424	-41,363	0,135	-0,049
-258,409	262,855	-0,065	-0,081
-257,395	800,000	-0,044	-0,104
-256,380	42,913	0,194	0,126
-255,365	-200,000	0,007	0,088
-254,351	-200,000	-0,011	0,201
-253,336	-51,862	0,123	-0,041
-252,322	116,812	-0,026	0,023
-251,307	773,884	-0,048	0,093
-250,292	800,000	0,010	0,022
-249,278	800,000	0,028	0,062
-248,263	800,000	0,073	0,146
-247,249	301,745	0,041	-0,055
-246,234	-63,257	-0,156	-0,046
-245,219	-200,000	0,028	-0,139
-244,205	312,465	-0,081	-0,109
-243,190	-21,972	0,068	0,029
-242,176	255,814	0,044	0,054
-241,161	-76,241	-0,030	0,008
-240,146	75,759	0,103	-0,078
-239,132	-200,000	-0,040	-0,128
-238,117	800,000	0,056	-0,171
-237,103	-50,247	0,090	-0,030
-236,088	86,165	0,080	-0,063
-235,073	-25,277	0,061	-0,025
-234,059	88,677	0,047	0,038
-233,044	640,863	-0,045	0,082
-232,030	-200,000	0,009	0,063
-231,015	-61,244	0,086	0,026
-230,000	18,435	-0,039	0,022
-228,986	146,051	-0,045	-0,043
-227,971	302,541	0,039	-0,051
-226,957	-39,084	-0,067	-0,025
-225,942	-200,000	-0,003	0,124
-224,927	-200,000	0,010	0,053
-223,913	87,341	-0,089	-0,071
-222,898	489,122	0,077	0,126
-221,884	419,687	-0,044	0,067
-220,869	377,860	0,121	0,177
-219,855	552,280	-0,018	0,031
-218,840	800,000	-0,027	0,078
-217,825	-79,832	0,084	0,020
-216,811	240,378	-0,035	-0,042
-215,796	24,616	-0,101	-0,060
-214,782	800,000	-0,048	0,104
-213,767	800,000	0,015	-0,035
-212,752	474,076	0,032	-0,052
-211,738	-55,591	0,116	-0,037
-210,723	171,093	0,135	-0,138
-209,709	-200,000	0,005	-0,114
-208,694	542,500	-0,048	-0,082
-207,679	-71,690	-0,114	-0,030
-206,665	-12,957	0,063	0,029
-205,650	-200,000	-0,009	0,115
-204,636	-200,000	0,003	0,110
-203,621	-98,683	0,162	0,029
-202,606	-0,107	-0,127	-0,064
-201,592	8,144	0,077	0,041
-200,577	112,211	-0,084	-0,072
-199,563	235,674	0,039	0,045
-198,548	278,465	0,054	0,069
-197,533	367,651	0,037	-0,053
-196,519	-62,280	0,141	0,042
-195,504	-200,000	-0,035	-0,275
-194,490	172,712	-0,087	-0,089
-193,475	775,325	0,069	-0,134
-192,460	-98,685	-0,095	-0,017
-191,446	-200,000	0,015	0,058
-190,431	-152,990	0,023	-0,001
-189,417	118,232	0,173	0,152
-188,402	-47,326	0,071	-0,024
-187,387	-75,150	-0,134	-0,034
-186,373	-86,733	0,054	-0,012
-185,358	145,224	0,068	-0,065
-184,344	-36,589	-0,084	0,032
-183,329	40,278	0,033	0,021
-182,315	-3,223	0,137	-0,068
-181,300	-22,603	0,094	0,040
-180,285	-103,615	-0,209	0,035
-179,271	-200,000	-0,010	0,043
-178,256	-200,000	-0,012	0,066
-177,242	45,885	-0,045	0,030
-176,227	9,639	0,020	0,011
-175,212	68,118	-0,059	0,043
-174,198	-65,979	-0,004	-0,001
-173,183	-123,876	-0,068	-0,008
-172,169	-134,111	0,103	0,009
-171,154	23,669	-0,050	-0,029
-170,139	-59,262	-0,056	0,017
-169,125	-200,000	0,000	0,137
-168,110	355,378	0,106	0,151
-167,096	357,504	-0,094	0,133
-166,081	54,954	-0,101	-0,069
-165,066	-152,512	-0,067	0,003
-164,052	-200,000	0,005	0,021
-163,037	-67,912	0,142	-0,039
-162,023	505,809	-0,043	0,072
-161,008	-25,303	0,151	0,063
-159,993	130,619	0,066	0,060
-158,979	-200,000	0,001	-0,136
-157,964	312,027	-0,071	-0,095
-156,950	-200,000	-0,001	0,050
-155,935	800,000	0,024	-0,072
-154,920	162,427	-0,032	-0,032
-153,906	-200,000	0,051	0,183
-152,891	16,240	0,078	0,044
-151,877	318,080	0,069	0,094
-150,862	-200,000	-0,027	-0,111
-149,847	333,785	-0,036	-0,050
-148,833	-118,711	0,074	-0,009
-147,818	-53,877	-0,093	-0,030
-146,804	-200,000	0,002	-0,060
-145,789	-200,000	-0,053	0,201
-144,775	-200,000	0,018	0,120
-143,760	800,000	0,054	-0,126
-142,745	172,083	-0,098	-0,101
-141,731	53,885	0,052	-0,035
-140,716	800,000	-0,045	-0,090
-139,702	-91,795	0,101	-0,020
-138,687	83,333	-0,092	0,071
-137,672	-16,164	0,054	0,024
-136,658	-152,994	-0,070	-0,003
-135,643	-200,000	0,015	-0,068
-134,629	-107,826	-0,045	-0,007
-133,614	-200,000	0,002	-0,137
-132,599	747,988	0,071	0,137
-131,585	311,002	-0,061	0,081
-130,570	167,509	-0,068	-0,069
-129,556	-43,691	0,037	-0,013
-128,541	-200,000	-0,022	-0,116
-127,526	-97,508	0,111	0,020
-126,512	800,000	0,031	0,062
-125,497	800,000	-0,020	-0,044
-124,483	-200,000	0,025	0,142
-123,468	184,012	-0,048	0,050
-122,453	-200,000	0,007	-0,133
-121,439	-200,000	0,078	-0,247
-120,424	60,049	-0,172	-0,121
-119,410	48,550	0,129	-0,085
-118,395	-200,000	-0,034	-0,122
-117,380	-55,980	0,163	0,051
-116,366	-185,398	0,125	0,001
-115,351	-64,307	-0,250	0,072
-114,337	145,983	-0,108	-0,103
-113,322	15,229	0,044	0,024
-112,307	800,000	0,020	-0,053
-111,293	84,327	0,117	-0,091
-110,278	-78,442	-0,100	-0,024
-109,264	-114,196	0,004	-0,001
-108,249	-200,000	-0,001	-0,016
-107,234	-81,422	-0,194	-0,045
-106,220	270,425	0,101	-0,126
-105,205	370,075	0,029	-0,042
-104,191	-200,000	0,010	0,091
-103,176	-200,000	0,002	0,177
-102,162	135,023	0,065	-0,060
-101,147	-86,781	0,096	-0,021
-100,132	800,000	-0,033	0,080
-99,118	-200,000	-0,037	-0,124
-98,103	-75,505	0,080	-0,020
-97,089	31,105	0,125	0,076
-96,074	-80,486	0,041	-0,010
-95,059	-200,000	0,023	-0,114
-94,045	-51,852	0,102	0,034
-93,030	-151,275	-0,198	0,010
-92,016	20,882	-0,108	-0,062
-91,001	153,618	-0,131	-0,127
-89,986	337,106	-0,035	-0,049
-88,972	-200,000	-0,026	0,112
-87,957	364,456	0,066	-0,094
-86,943	213,120	-0,063	-0,071
-85,928	-23,819	-0,107	0,045
-84,913	84,034	-0,071	0,055
-83,899	611,514	0,040	0,071
-82,884	-43,802	0,030	-0,011
-81,870	119,159	-0,103	-0,090
-80,855	-200,000	0,003	-0,093
-79,840	800,000	-0,034	-0,076
-78,826	800,000	-0,025	-0,077
-77,811	726,648	0,030	-0,058
-76,797	-200,000	-0,089	0,000
-75,782	391,568	0,080	-0,119
-74,767	191,451	0,082	0,088
-73,753	-168,869	-0,040	-0,001
-72,738	40,746	0,156	0,099
-71,724	-200,000	-0,009	0,043
-70,709	-70,691	-0,081	0,022
-69,694	158,262	-0,050	-0,049
-68,680	-200,000	-0,004	-0,016
-67,665	655,544	-0,034	0,062
-66,651	356,500	0,057	0,081
-65,636	60,273	-0,049	0,034
-64,622	-78,930	-0,155	0,037
-63,607	677,267	-0,078	-0,144
-62,592	264,650	0,122	-0,151
-61,578	-120,452	0,073	0,009
-60,563	-130,793	0,242	0,023
-59,549	-200,000	-0,005	0,175
-58,534	-51,555	-1,420	-0,467
-57,519	427,311	-1,393	-2,135
-56,505	-200,000	-0,557	-4,601
-55,490	128,149	1,041	0,938
-54,476	800,000	4,902	11,160
-53,461	-200,000	18,132	287,158
-52,446	800,000	726,697	2227,759
-51,432	555,235	1643,163	2811,342
-50,417	79,329	1665,443	1262,971
-49,403	22,854	1539,210	890,835
-48,388	16,850	1462,344	817,272
-47,373	17,863	1452,109	816,399
-46,359	17,244	1442,685	808,109
-45,344	15,109	1438,130	795,333
-44,330	15,037	1436,086	793,826
-43,315	15,041	1434,607	792,998
-42,300	15,090	1432,823	792,212
-41,286	15,134	1431,618	791,727
-40,271	15,099	1430,312	790,804
-39,257	15,032	1429,235	789,858
-38,242	15,070	1427,801	789,216
-37,227	15,116	1426,338	788,596
-36,213	15,123	1425,204	787,972
-35,198	15,116	1424,078	787,281
-34,184	15,109	1423,307	786,793
-33,169	15,082	1422,041	785,931
-32,154	15,121	1421,049	785,537
-31,140	15,127	1419,572	784,718
-30,125	15,133	1418,604	784,179
-29,111	15,151	1417,228	783,474
-28,096	15,090	1416,244	782,611
-27,082	15,026	1415,110	781,652
-26,067	15,009	1414,115	780,992
-25,052	15,021	1413,164	780,495
-24,038	15,022	1411,924	779,784
-23,023	14,951	1411,156	778,995
-22,009	14,987	1410,027	778,510
-20,994	14,946	1409,238	777,850
-19,979	14,988	1408,348	777,524
-18,965	14,982	1407,268	776,867
-17,950	14,931	1406,472	776,161
-16,936	14,971	1405,400	775,727
-15,921	14,929	1404,370	774,931
-14,906	14,903	1403,530	774,314
-13,892	14,916	1402,616	773,841
-12,877	14,956	1401,580	773,423
-11,863	14,923	1400,664	772,733
-10,848	14,939	1399,746	772,270
-9,833	14,911	1398,701	771,535
-8,819	14,842	1398,043	770,819
-7,804	14,838	1397,116	770,260
-6,790	14,848	1395,869	769,587
-5,775	14,831	1394,924	768,960
-4,760	14,817	1394,156	768,440
-3,746	14,814	1393,357	767,956
-2,731	14,830	1392,498	767,526
-1,717	14,829	1391,524	766,952
-0,702	14,806	1389,688	765,807
0,313	18,524	1308,982	738,561
1,327	34,782	707,127	436,674
2,342	53,068	124,893	84,454
3,356	2,029	16,695	8,499
4,371	6,572	3,108	1,630
5,386	-24,247	0,497	0,209
6,400	-200,000	0,035	0,147
7,415	124,794	-0,141	-0,126
8,429	-169,628	-0,380	-0,010
9,444	-16,973	-0,343	-0,153
10,459	-105,623	-0,286	-0,045
11,473	-53,371	-0,307	-0,099
12,488	-109,209	-0,344	0,051
13,502	35,682	-0,253	-0,157
14,517	-33,723	-0,383	-0,148
15,531	207,382	-0,223	-0,246
16,546	-35,523	-0,396	-0,151
17,561	81,452	-0,374	-0,285
18,575	800,000	-0,069	-0,199
19,590	400,742	-0,224	-0,333
20,604	63,189	-0,251	-0,178
21,619	83,827	-0,401	-0,309
22,634	90,024	-0,417	-0,329
23,648	154,886	-0,388	-0,377
24,663	127,395	-0,340	-0,305
25,677	30,246	-0,482	-0,290
26,692	684,286	-0,204	-0,377
27,707	128,693	-0,262	-0,236
28,721	129,790	-0,382	-0,345
29,736	182,639	-0,319	-0,332
30,750	80,069	-0,463	-0,351
31,765	145,717	-0,357	-0,338
32,780	795,333	-0,212	-0,414
33,794	13,911	-0,408	-0,223
34,809	-7,969	-0,422	-0,200
35,823	-7,124	-0,437	-0,208
36,838	87,673	-0,402	-0,313
37,853	70,467	-0,448	-0,327
38,867	55,220	-0,344	-0,234
39,882	91,335	-0,441	-0,349
40,896	145,331	-0,269	-0,254
41,911	42,622	-0,281	-0,180
42,926	44,185	-0,404	-0,261
43,940	267,593	-0,260	-0,322
44,955	165,981	-0,300	-0,300
45,969	248,227	-0,348	-0,416
46,984	196,936	-0,255	-0,274
47,999	4,960	-0,484	-0,250
49,013	47,717	-0,358	-0,235
50,028	154,515	-0,361	-0,350
51,042	67,619	-0,362	-0,261
52,057	-52,659	-0,440	-0,142
53,071	233,004	-0,367	-0,425
54,086	27,416	-0,422	-0,250
55,101	2,508	-0,385	-0,196
56,115	4,449	-0,418	-0,215
57,130	50,424	-0,396	-0,263
58,144	95,131	-0,530	-0,424
59,159	119,811	-0,343	-0,299
60,174	3,452	-0,418	-0,214
61,188	-26,227	-0,327	-0,135
62,203	-14,404	-0,234	-0,105
63,217	109,227	-0,308	-0,259
64,232	-67,001	-0,304	-0,084
65,247	-2,420	-0,303	-0,149
66,261	-42,573	-0,491	-0,175
67,276	141,528	-0,420	-0,391
68,290	43,422	-0,432	-0,277
69,305	142,019	-0,255	-0,238
70,320	24,986	-0,212	-0,123
71,334	32,928	-0,274	-0,167
72,349	22,900	-0,373	-0,214
73,363	28,756	-0,479	-0,285
74,378	100,949	-0,248	-0,203
75,393	-66,635	-0,413	-0,114
76,407	52,655	-0,378	-0,253
77,422	4,936	-0,342	-0,176
78,436	133,339	-0,164	-0,149
79,451	-64,362	-0,318	-0,090
80,466	-56,371	-0,501	-0,156
81,480	0,022	-0,443	-0,221
82,495	-54,245	-0,402	-0,128
83,509	-34,583	-0,312	-0,120
84,524	-153,648	-0,335	-0,016
85,539	-129,453	-0,248	-0,024
86,553	-1,449	-0,168	-0,083
87,568	91,590	-0,391	-0,309
88,582	64,928	-0,180	-0,127
89,597	135,555	-0,231	-0,211
90,611	-79,230	-0,288	-0,068
91,626	76,192	-0,209	-0,155
92,641	5,179	-0,209	-0,108
93,655	-170,593	-0,183	-0,004
94,670	36,052	-0,306	-0,189
95,684	488,874	-0,185	-0,298
96,699	157,839	-0,228	-0,222
97,714	264,791	-0,259	-0,317
98,728	-35,540	-0,401	-0,152
99,743	2,395	-0,121	-0,061
100,757	14,204	-0,307	-0,167
101,772	-57,339	-0,438	-0,134
102,787	73,448	-0,315	-0,231
103,801	166,526	-0,336	-0,334
104,816	800,000	-0,099	-0,207
105,830	-9,405	-0,298	-0,139
106,845	87,468	-0,308	-0,238
107,860	-29,970	-0,303	-0,120
108,874	-29,167	-0,243	-0,097
109,889	-26,574	-0,331	-0,135
110,903	241,629	-0,192	-0,225
111,918	25,314	-0,284	-0,165
112,933	15,841	-0,207	-0,114
113,947	42,170	-0,256	-0,163
114,962	15,419	-0,305	-0,167
115,976	673,975	-0,147	-0,268
116,991	124,997	-0,212	-0,187
118,006	-42,269	-0,287	-0,102
119,020	42,511	-0,224	-0,142
120,035	-2,806	-0,298	-0,145
121,049	4,566	-0,181	-0,093
122,064	35,652	-0,243	-0,149
123,079	183,599	-0,157	-0,163
124,093	734,557	-0,120	-0,226
125,108	59,599	-0,282	-0,194
126,122	299,825	-0,251	-0,325
127,137	386,222	-0,180	-0,261
128,151	112,118	-0,202	-0,171
129,166	-57,608	-0,326	-0,099
130,181	125,856	-0,329	-0,291
131,195	127,986	-0,242	-0,215
132,210	38,503	-0,299	-0,186
133,224	436,397	-0,251	-0,384
134,239	86,880	-0,227	-0,175
135,254	556,545	-0,141	-0,239
136,268	216,770	-0,193	-0,215
137,283	-63,119	-0,337	-0,097
138,297	28,114	-0,211	-0,124
139,312	172,153	-0,140	-0,141
140,327	34,582	-0,186	-0,113
141,341	352,793	-0,201	-0,280
142,356	297,085	-0,133	-0,170
143,370	-20,902	-0,191	-0,081
144,385	52,595	-0,200	-0,133
145,400	498,754	-0,201	-0,324
146,414	125,496	-0,284	-0,251
147,429	90,114	-0,259	-0,202
148,443	-37,191	-0,255	-0,095
149,458	566,401	-0,110	-0,187
150,473	250,148	-0,188	-0,223
151,487	89,808	-0,247	-0,193
152,502	269,925	-0,163	-0,201
153,516	198,496	-0,217	-0,232
154,531	189,808	-0,318	-0,334
155,546	159,124	-0,265	-0,257
156,560	302,405	-0,236	-0,306
157,575	42,929	-0,192	-0,122
158,589	-35,344	-0,250	-0,094
159,604	141,904	-0,254	-0,235
160,619	358,553	-0,212	-0,296
161,633	248,298	-0,183	-0,217
162,648	-8,159	-0,229	-0,107
163,662	800,000	-0,116	-0,240
164,677	800,000	-0,107	-0,214
165,692	199,925	-0,281	-0,302
166,706	33,584	-0,323	-0,195
167,721	329,609	-0,188	-0,253
168,735	800,000	-0,129	-0,302
169,750	-74,179	-0,222	-0,056
170,764	-94,322	-0,224	-0,042
171,779	-52,197	-0,161	-0,052
172,794	-3,310	-0,191	-0,093
173,808	397,422	-0,145	-0,212
174,823	-34,669	-0,246	-0,093
175,837	101,603	-0,229	-0,186
176,852	65,113	-0,192	-0,135
177,867	49,630	-0,265	-0,174
178,881	485,946	-0,131	-0,208
179,896	-26,142	-0,237	-0,097
180,910	233,736	-0,201	-0,231
181,925	247,199	-0,216	-0,255
182,940	29,564	-0,261	-0,154
183,954	62,176	-0,235	-0,163
184,969	236,587	-0,183	-0,211
185,983	233,328	-0,141	-0,162
186,998	800,000	-0,086	-0,217
188,013	-77,119	-0,343	-0,083
189,027	-60,265	-0,282	-0,083
190,042	125,904	-0,295	-0,259
191,056	112,863	-0,178	-0,150
192,071	67,724	-0,215	-0,153
193,086	2,966	-0,247	-0,124
194,100	-33,063	-0,247	-0,095
195,115	-51,185	-0,201	-0,065
196,129	-39,463	-0,220	-0,080
197,144	-30,878	-0,254	-0,100
198,159	291,462	-0,172	-0,218
199,173	187,587	-0,149	-0,155
200,188	244,498	-0,114	-0,133
201,202	131,688	-0,145	-0,130
202,217	580,609	-0,113	-0,193
203,232	19,282	-0,260	-0,145
204,246	279,911	-0,172	-0,215
205,261	74,620	-0,191	-0,139
206,275	66,913	-0,242	-0,171
207,290	-153,930	-0,191	-0,009
208,304	450,073	-0,114	-0,176
209,319	-55,674	-0,215	-0,066
210,334	60,131	-0,273	-0,187
211,348	432,357	-0,135	-0,203
212,363	86,513	-0,247	-0,189
213,377	-16,671	-0,210	-0,092
214,392	110,891	-0,201	-0,168
215,407	1,092	-0,155	-0,077
216,421	800,000	-0,072	-0,155
217,436	-28,728	-0,260	-0,103
218,450	24,372	-0,198	-0,113
219,465	123,799	-0,321	-0,280
220,480	220,229	-0,172	-0,191
221,494	138,782	-0,099	-0,090
222,509	-61,838	-0,190	-0,055
223,523	800,000	-0,073	-0,164
224,538	141,883	-0,169	-0,156
225,553	514,204	-0,112	-0,182
226,567	121,493	-0,045	0,039
227,582	-43,149	-0,215	-0,075
228,596	23,737	-0,255	-0,145
229,611	89,752	-0,154	-0,119
230,626	21,844	-0,101	-0,057
231,640	-14,164	-0,231	-0,103
232,655	6,694	-0,320	-0,165
233,669	136,847	-0,125	-0,113
234,684	337,839	-0,151	-0,204
235,699	107,361	-0,220	-0,182
236,713	-48,263	-0,130	-0,043
237,728	-28,255	-0,150	-0,060
238,742	55,932	-0,201	-0,135
239,757	119,412	-0,282	-0,242
240,772	9,816	-0,229	-0,120
241,786	-147,501	-0,192	0,011
242,801	-60,720	-0,116	-0,034
243,815	60,139	-0,190	-0,130
244,830	38,115	-0,131	-0,081
245,844	-78,328	-0,260	-0,061
246,859	62,206	-0,148	-0,102
247,874	-200,000	-0,061	-0,420
248,888	-200,000	-0,059	-0,189
249,903	118,730	-0,187	-0,160
250,917	-103,230	-0,151	-0,024
251,932	-148,161	-0,147	0,008
252,947	-200,000	-0,050	-0,185
253,961	-2,574	-0,291	-0,140
254,976	39,653	-0,254	-0,157
255,990	355,825	-0,120	-0,165
257,005	151,038	-0,163	-0,153
258,020	11,017	-0,228	-0,120
259,034	123,027	-0,099	-0,086
260,049	-200,000	-0,044	-0,143
261,063	-58,548	-0,255	-0,076
262,078	-50,738	-0,295	-0,095
263,093	800,000	-0,070	-0,200
264,107	76,092	-0,148	-0,108
265,122	177,471	-0,088	-0,089
266,136	7,056	-0,153	-0,079
267,151	-135,459	-0,164	0,013
268,166	-154,172	-0,123	-0,006
269,180	229,871	-0,155	-0,176
270,195	205,775	-0,173	-0,186
271,209	409,803	-0,206	-0,303
272,224	-75,338	-0,136	-0,033
273,239	-85,840	-0,108	0,023
274,253	171,108	-0,106	-0,105
275,268	-71,110	-0,140	0,036
276,282	136,694	-0,115	-0,104
277,297	47,761	-0,158	-0,102
278,312	-121,074	-0,268	0,031
279,326	43,736	-0,288	-0,182
280,341	51,897	-0,150	-0,098
281,355	217,081	-0,032	-0,036
282,370	10,106	-0,195	-0,102
283,384	105,877	-0,254	-0,207
284,399	-45,198	-0,215	-0,073
285,414	60,045	-0,174	-0,118
286,428	-56,333	-0,169	-0,051
287,443	800,000	-0,067	-0,140
288,457	198,396	-0,123	-0,130
289,472	42,895	-0,139	-0,087
290,487	-59,549	-0,231	-0,068
291,501	596,923	-0,172	-0,294
292,516	183,313	-0,175	-0,178
293,530	-7,923	-0,085	-0,039
294,545	-200,000	-0,059	-0,199
295,560	800,000	-0,087	-0,196
296,574	174,488	-0,200	-0,199
297,589	88,329	-0,211	-0,162
298,603	660,774	-0,093	-0,166
299,618	-46,293	-0,114	-0,038
300,633	48,096	-0,139	-0,089
301,647	-200,000	-0,020	-0,080
302,662	-67,154	-0,113	-0,031
303,676	800,000	-0,040	-0,114
304,691	-131,505	-0,142	-0,013
305,706	800,000	-0,031	-0,077
306,720	443,258	-0,154	-0,234
307,735	-38,190	-0,192	-0,070
308,749	49,218	0,038	-0,024
309,764	471,036	-0,035	-0,055
310,779	20,589	-0,212	-0,118
311,793	800,000	-0,046	-0,113
312,808	800,000	-0,084	-0,172
313,822	141,379	-0,126	-0,115
314,837	-38,614	-0,106	0,038
315,852	800,000	-0,076	-0,161
316,866	250,785	-0,048	-0,056
317,881	160,666	-0,141	-0,135
318,895	42,406	-0,102	-0,064
319,910	653,851	-0,118	-0,209
320,925	-90,112	-0,282	-0,056
321,939	-166,933	-0,109	-0,003
322,954	346,670	-0,089	-0,120
323,968	2,394	-0,069	-0,034
324,983	-200,000	0,007	-0,042
325,997	-200,000	-0,019	-0,249
327,012	47,246	-0,113	-0,072
328,027	464,768	-0,069	-0,107
329,041	497,062	-0,095	-0,151
330,056	187,890	-0,089	-0,092
331,070	96,900	-0,141	-0,111
332,085	20,407	-0,141	-0,078
333,100	-83,194	-0,161	-0,035
334,114	-42,211	-0,259	-0,090
335,129	-45,506	-0,095	0,032
336,143	-14,082	-0,280	-0,124
337,158	-1,274	-0,103	-0,050
338,173	176,229	-0,078	-0,078
339,187	800,000	-0,075	-0,201
340,202	173,327	-0,081	-0,081
341,216	120,036	-0,151	-0,128
342,231	34,425	-0,193	-0,115
343,246	224,619	-0,089	-0,099
344,260	22,026	-0,075	0,042
345,275	260,866	-0,102	-0,121
346,289	273,660	-0,079	-0,096
347,304	677,431	-0,062	-0,112
348,319	-150,701	-0,139	0,007
349,333	109,484	-0,243	-0,200
350,348	135,641	-0,220	-0,196
351,362	74,813	-0,090	-0,065
352,377	54,402	-0,146	-0,096
353,392	110,123	-0,091	-0,075
354,406	-200,000	-0,015	-0,174
355,421	209,505	1315,694	1416,288
356,435	161,248	1476,539	1416,788
