DTS Sentinel unit serial number:	SN410029Multiplexer serial number:	ORYXHardware model number:	OX2-SRSoftware version number:	ORYX F/W v4,00 Oryx Data Collector v3.7.2.0data status	okinstallation	B3 Nyhavnadifferential loss correction	single-endedforward channel	channel 1reverse channel	N/Adate	2023/12/01time	12:22:30forward acquisition time	300,00reverse acquisition time	0,00gamma	499,1914k internal	0,3213k external	0,3213temperature offset calibration	1,0000default loss term (dB/km)	0,3820temperature slope calibration	1,0000multiplexer offset coefficient	1,0000multiplexer slope coefficient	1,0000fibre end	0,00T internal ref (°C)	8,86T ext. ref 1 (°C)	-5,10T ext. ref 2 (°C)	-5,25length (m)	temperature (°C)	Stokes	anti-Stokes-744,400	-77,453	-0,346	-0,086
-743,385	-200,000	-0,042	0,317
-742,371	0,726	-0,231	-0,120
-741,356	-200,000	-0,082	0,267
-740,342	334,829	-0,127	-0,179
-739,327	-200,000	0,056	0,318
-738,312	599,881	-0,174	-0,314
-737,298	800,000	-0,102	0,222
-736,283	-200,000	-0,010	-0,275
-735,269	508,067	0,059	0,100
-734,254	143,023	-0,124	-0,120
-733,239	-33,195	-0,104	0,041
-732,225	438,252	-0,172	-0,272
-731,210	243,199	0,048	0,058
-730,196	21,128	-0,083	-0,049
-729,181	12,746	0,070	-0,039
-728,167	-200,000	-0,009	-0,052
-727,152	-200,000	-0,015	-0,188
-726,137	-153,222	-0,198	-0,010
-725,123	-200,000	0,002	-0,106
-724,108	348,431	-0,080	-0,115
-723,094	311,141	0,111	-0,151
-722,079	800,000	-0,045	-0,140
-721,064	-67,201	0,016	0,005
-720,050	-200,000	-0,002	-0,026
-719,035	-200,000	0,001	-0,017
-718,021	626,941	-0,074	0,136
-717,006	-53,763	-0,091	-0,030
-715,991	-200,000	-0,009	-0,083
-714,977	63,742	-0,075	-0,055
-713,962	-182,551	0,059	-0,001
-712,948	383,977	-0,076	-0,113
-711,933	639,087	-0,028	-0,052
-710,918	-174,373	-0,068	-0,001
-709,904	-55,505	-0,118	0,038
-708,889	160,242	-0,087	-0,088
-707,875	332,537	-0,109	-0,153
-706,860	-200,000	0,021	0,073
-705,845	-103,692	0,066	0,011
-704,831	-104,388	0,108	0,018
-703,816	118,947	-0,134	-0,120
-702,802	116,813	-0,070	-0,062
-701,787	-72,845	-0,136	0,036
-700,772	128,879	-0,123	0,113
-699,758	-9,738	0,056	-0,027
-698,743	800,000	-0,020	0,052
-697,729	800,000	0,043	0,104
-696,714	61,440	0,100	0,072
-695,699	-150,754	-0,150	0,008
-694,685	348,237	0,043	-0,062
-693,670	442,400	-0,095	-0,151
-692,656	-200,000	0,010	-0,071
-691,641	740,118	0,025	0,048
-690,627	263,045	0,015	-0,019
-689,612	156,332	0,012	0,012
-688,597	22,664	-0,126	-0,075
-687,583	-45,431	-0,039	0,014
-686,568	-0,768	0,055	-0,028
-685,554	800,000	-0,037	-0,092
-684,539	800,000	0,042	-0,116
-683,524	0,755	-0,059	-0,030
-682,510	-67,998	0,118	0,033
-681,495	7,429	-0,055	0,029
-680,481	130,909	-0,051	0,047
-679,466	101,208	-0,054	-0,046
-678,451	617,852	0,020	0,036
-677,437	800,000	0,022	-0,047
-676,422	-200,000	0,005	0,086
-675,408	696,033	0,036	0,069
-674,393	800,000	-0,065	0,134
-673,378	300,466	-0,034	-0,046
-672,364	559,456	0,108	-0,189
-671,349	-107,478	-0,090	-0,014
-670,335	-90,168	0,064	0,013
-669,320	14,725	-0,101	0,057
-668,305	-0,623	0,029	-0,015
-667,291	-200,000	-0,022	0,093
-666,276	800,000	-0,069	-0,140
-665,262	-200,000	0,008	-0,043
-664,247	-200,000	-0,016	-0,129
-663,232	-200,000	0,006	-0,025
-662,218	-77,035	0,163	0,041
-661,203	-146,544	-0,122	0,008
-660,189	-16,145	-0,053	-0,024
-659,174	-200,000	-0,013	0,101
-658,159	-200,000	-0,008	-0,154
-657,145	-200,000	0,008	-0,068
-656,130	98,383	0,031	-0,026
-655,116	-200,000	-0,021	-0,131
-654,101	-200,000	-0,010	0,229
-653,086	-13,627	-0,110	-0,051
-652,072	-128,742	0,030	-0,003
-651,057	474,121	-0,094	-0,154
-650,043	-200,000	-0,000	-0,205
-649,028	126,125	0,041	-0,037
-648,014	74,144	0,117	-0,089
-646,999	-100,097	-0,132	0,024
-645,984	-12,328	0,107	-0,050
-644,970	800,000	-0,016	-0,037
-643,955	-97,086	-0,071	-0,013
-642,941	36,804	0,023	0,015
-641,926	-200,000	-0,002	-0,072
-640,911	800,000	0,048	0,113
-639,897	-145,516	0,041	0,003
-638,882	-70,973	0,046	0,012
-637,868	-122,341	-0,114	-0,013
-636,853	-58,732	0,113	-0,035
-635,838	-200,000	-0,015	-0,126
-634,824	225,377	-0,103	0,121
-633,809	-200,000	0,018	-0,060
-632,795	-10,523	0,126	-0,060
-631,780	485,605	0,068	0,112
-630,765	217,527	-0,080	0,092
-629,751	800,000	-0,064	-0,157
-628,736	225,708	-0,068	0,080
-627,722	-110,573	-0,067	0,010
-626,707	-65,968	0,046	-0,013
-625,692	5,883	0,073	0,039
-624,678	-200,000	0,037	0,169
-623,663	800,000	-0,027	-0,055
-622,649	-129,656	0,023	0,002
-621,634	-200,000	0,009	-0,052
-620,619	-124,278	-0,078	0,009
-619,605	-46,141	0,070	-0,025
-618,590	341,368	-0,060	0,085
-617,576	408,077	0,052	0,079
-616,561	246,966	-0,064	-0,078
-615,546	578,957	0,011	0,020
-614,532	800,000	0,016	-0,035
-613,517	800,000	-0,066	-0,176
-612,503	12,166	0,082	-0,045
-611,488	-58,814	-0,041	0,013
-610,474	264,752	0,056	-0,071
-609,459	-38,984	-0,181	0,068
-608,444	567,891	0,020	-0,035
-607,430	150,757	-0,109	-0,107
-606,415	-200,000	-0,033	-0,107
-605,401	-200,000	-0,033	-0,282
-604,386	-39,991	0,073	-0,027
-603,371	191,321	0,059	-0,064
-602,357	-178,882	-0,082	-0,001
-601,342	15,740	-0,096	-0,054
-600,328	-42,120	0,016	0,006
-599,313	-178,818	-0,120	-0,002
-598,298	339,175	-0,066	-0,093
-597,284	800,000	-0,021	-0,064
-596,269	-43,724	-0,103	0,037
-595,255	600,986	-0,042	0,075
-594,240	-90,909	-0,049	-0,010
-593,225	63,795	0,049	-0,036
-592,211	-200,000	0,006	-0,028
-591,196	42,858	-0,021	0,014
-590,182	-200,000	-0,011	0,059
-589,167	745,329	0,131	0,256
-588,152	121,408	-0,148	0,133
-587,138	-14,244	0,032	-0,015
-586,123	221,322	0,075	-0,087
-585,109	329,014	-0,061	-0,085
-584,094	-200,000	0,006	-0,055
-583,079	661,533	-0,015	-0,028
-582,065	-200,000	-0,010	0,067
-581,050	800,000	-0,022	0,064
-580,036	32,047	0,110	0,068
-579,021	-200,000	0,012	0,044
-578,006	-88,376	-0,086	-0,018
-576,992	800,000	0,048	0,127
-575,977	-25,864	0,040	-0,017
-574,963	-200,000	0,012	-0,114
-573,948	-131,545	0,036	-0,003
-572,934	408,628	-0,030	-0,046
-571,919	-100,723	-0,113	0,020
-570,904	173,041	-0,091	-0,094
-569,890	-149,422	0,106	0,006
-568,875	245,029	0,086	-0,105
-567,861	-200,000	0,006	-0,069
-566,846	96,365	0,161	0,133
-565,831	205,122	-0,073	0,082
-564,817	94,476	-0,072	0,059
-563,802	787,351	0,028	-0,055
-562,788	800,000	-0,018	-0,045
-561,773	-200,000	-0,014	0,075
-560,758	-200,000	0,006	-0,055
-559,744	-83,043	-0,080	-0,018
-558,729	-200,000	0,006	0,035
-557,715	-200,000	-0,019	-0,077
-556,700	800,000	-0,055	-0,140
-555,685	-200,000	0,008	-0,102
-554,671	-200,000	-0,057	-0,238
-553,656	35,617	-0,015	0,009
-552,642	75,534	0,107	0,081
-551,627	325,822	-0,013	0,018
-550,612	-200,000	0,041	-0,152
-549,598	800,000	-0,066	-0,178
-548,583	278,791	-0,025	0,032
-547,569	-200,000	-0,014	-0,101
-546,554	-125,106	0,069	-0,008
-545,539	-200,000	0,006	0,055
-544,525	-186,379	-0,055	0,001
-543,510	123,361	-0,087	-0,079
-542,496	-200,000	-0,007	-0,063
-541,481	-80,234	-0,065	0,015
-540,466	228,416	-0,107	-0,126
-539,452	409,407	0,047	-0,072
-538,437	-200,000	0,002	-0,024
-537,423	66,896	0,082	0,060
-536,408	-200,000	0,013	0,049
-535,393	-22,687	-0,133	-0,058
-534,379	-125,842	-0,028	0,003
-533,364	-156,053	-0,215	0,010
-532,350	-200,000	0,009	0,175
-531,335	-42,909	-0,123	0,045
-530,321	169,122	-0,017	0,018
-529,306	58,935	0,123	-0,087
-528,291	-60,831	-0,128	0,039
-527,277	-200,000	0,008	-0,113
-526,262	210,443	-0,031	0,035
-525,248	-200,000	0,008	0,074
-524,233	-200,000	-0,015	0,204
-523,218	-200,000	-0,030	0,126
-522,204	148,400	-0,063	-0,061
-521,189	-200,000	0,006	-0,073
-520,175	214,325	0,083	-0,095
-519,160	36,833	0,049	-0,031
-518,145	248,066	0,097	0,118
-517,131	-200,000	0,021	0,120
-516,116	213,245	-0,071	0,080
-515,102	384,975	0,008	-0,012
-514,087	36,679	-0,070	0,044
-513,072	88,759	-0,091	-0,072
-512,058	-101,108	0,067	-0,012
-511,043	71,759	-0,103	0,077
-510,029	-55,304	0,133	0,043
-509,014	-200,000	0,012	0,123
-507,999	-108,046	0,066	0,010
-506,985	238,083	-0,120	-0,143
-505,970	205,475	-0,061	-0,068
-504,956	-92,937	-0,114	-0,023
-503,941	90,528	0,104	0,083
-502,926	-20,585	-0,098	0,043
-501,912	88,011	-0,030	0,024
-500,897	-88,310	0,022	-0,005
-499,883	800,000	-0,030	-0,068
-498,868	-200,000	0,042	-0,226
-497,853	158,643	0,029	0,029
-496,839	96,491	0,054	-0,044
-495,824	-82,820	-0,118	0,027
-494,810	-55,486	0,145	-0,046
-493,795	-58,174	-0,079	0,024
-492,781	-152,507	-0,045	-0,002
-491,766	-200,000	-0,028	0,139
-490,751	309,809	0,045	-0,060
-489,737	688,159	0,088	-0,165
-488,722	-200,000	-0,011	0,041
-487,708	145,579	-0,067	0,064
-486,693	-147,135	-0,106	-0,006
-485,678	195,482	-0,025	0,027
-484,664	-60,651	0,040	-0,012
-483,649	800,000	-0,022	0,061
-482,635	-200,000	0,045	-0,145
-481,620	49,889	0,041	-0,027
-480,605	572,927	0,086	0,151
-479,591	-200,000	0,009	0,157
-478,576	701,887	0,055	0,104
-477,562	32,682	-0,057	0,035
-476,547	800,000	-0,019	0,048
-475,532	-200,000	0,013	-0,210
-474,518	-60,908	0,127	0,038
-473,503	800,000	0,080	0,211
-472,489	800,000	-0,024	0,060
-471,474	525,507	-0,039	-0,065
-470,459	475,162	-0,048	-0,077
-469,445	-84,688	-0,120	0,027
-468,430	-200,000	0,003	0,094
-467,416	-20,145	-0,063	-0,028
-466,401	-45,953	0,178	-0,062
-465,386	451,222	-0,051	0,082
-464,372	-160,405	0,143	-0,005
-463,357	800,000	-0,027	-0,080
-462,343	120,510	-0,125	-0,111
-461,328	-200,000	-0,007	-0,101
-460,313	-147,453	-0,031	0,002
-459,299	-166,120	0,044	0,001
-458,284	-29,869	-0,036	0,015
-457,270	213,293	0,078	-0,088
-456,255	181,910	-0,041	-0,043
-455,241	-138,737	0,120	-0,009
-454,226	12,317	-0,110	-0,060
-453,211	-110,715	0,063	0,009
-452,197	-200,000	0,012	0,056
-451,182	340,388	-0,132	0,185
-450,168	800,000	-0,052	0,156
-449,153	289,591	0,050	-0,066
-448,138	15,669	-0,071	-0,040
-447,124	65,746	-0,077	-0,056
-446,109	-66,806	-0,097	-0,027
-445,095	-130,371	0,222	-0,021
-444,080	-200,000	0,002	0,073
-443,065	189,785	0,106	-0,114
-442,051	800,000	0,017	-0,049
-441,036	19,329	-0,090	-0,052
-440,022	288,899	-0,016	0,021
-439,007	-19,107	0,078	0,035
-437,992	-99,807	0,166	-0,029
-436,978	221,023	-0,051	0,059
-435,963	-19,001	0,152	0,067
-434,949	-200,000	0,001	0,023
-433,934	-6,113	-0,103	0,050
-432,919	316,988	0,058	0,078
-431,905	-200,000	-0,004	-0,044
-430,890	-26,866	0,066	0,028
-429,876	-200,000	0,051	0,212
-428,861	-133,662	-0,030	0,003
-427,846	209,313	-0,074	0,083
-426,832	51,837	-0,023	-0,015
-425,817	800,000	-0,056	-0,122
-424,803	146,190	-0,033	0,031
-423,788	-39,256	0,065	-0,024
-422,773	227,393	-0,042	-0,049
-421,759	-200,000	-0,042	0,171
-420,744	139,537	-0,079	-0,074
-419,730	-102,327	-0,069	0,012
-418,715	227,655	-0,024	0,027
-417,701	-55,972	-0,117	-0,037
-416,686	450,702	0,070	0,111
-415,671	-200,000	0,002	-0,080
-414,657	0,340	-0,136	-0,069
-413,642	30,850	-0,034	0,021
-412,628	3,448	-0,146	-0,076
-411,613	800,000	0,037	-0,114
-410,598	-97,007	0,099	0,018
-409,584	100,067	-0,082	0,068
-408,569	126,913	-0,086	-0,078
-407,555	197,473	0,064	-0,070
-406,540	-200,000	-0,015	0,091
-405,525	215,430	0,034	-0,039
-404,511	233,832	0,078	0,092
-403,496	7,858	0,058	0,031
-402,482	326,412	-0,031	0,043
-401,467	-74,209	0,085	-0,022
-400,452	-163,821	0,063	0,002
-399,438	-200,000	0,001	0,090
-398,423	295,821	0,097	-0,127
-397,409	193,470	-0,036	-0,038
-396,394	364,856	0,102	-0,147
-395,379	179,394	0,032	0,033
-394,365	-113,761	0,119	0,016
-393,350	40,081	0,082	-0,052
-392,336	36,186	-0,094	0,059
-391,321	800,000	0,045	0,127
-390,306	-109,756	-0,043	0,006
-389,292	197,280	-0,061	-0,067
-388,277	-98,456	0,167	0,030
-387,263	-9,461	-0,154	0,073
-386,248	-200,000	0,024	-0,122
-385,233	-200,000	0,004	0,017
-384,219	-27,021	-0,093	0,039
-383,204	221,988	-0,053	0,061
-382,190	148,901	0,068	-0,066
-381,175	-72,475	-0,066	-0,017
-380,160	-128,781	0,109	-0,011
-379,146	435,088	0,087	0,136
-378,131	476,480	0,059	0,096
-377,117	-200,000	-0,001	0,032
-376,102	-152,267	0,108	-0,005
-375,088	417,672	0,007	-0,010
-374,073	-0,181	-0,112	0,057
-373,058	-141,445	0,042	0,003
-372,044	-84,596	0,073	-0,016
-371,029	-200,000	0,019	0,129
-370,015	250,203	0,048	0,058
-369,000	143,313	-0,088	0,083
-367,985	530,765	-0,037	-0,063
-366,971	40,352	-0,084	0,054
-365,956	-29,630	0,079	-0,032
-364,942	3,256	0,064	-0,033
-363,927	-200,000	-0,004	0,107
-362,912	63,160	-0,077	-0,055
-361,898	345,933	-0,091	0,127
-360,883	68,726	-0,136	-0,100
-359,869	67,108	0,042	0,030
-358,854	679,852	0,079	0,147
-357,839	640,457	0,114	0,208
-356,825	-53,718	0,103	-0,033
-355,810	-148,120	0,121	0,007
-354,796	664,016	-0,024	-0,045
-353,781	-200,000	-0,008	0,108
-352,766	-96,287	-0,052	-0,010
-351,752	237,545	0,062	-0,074
-350,737	374,156	-0,031	0,045
-349,723	-200,000	0,047	0,164
-348,708	760,888	-0,057	-0,111
-347,693	-200,000	-0,003	-0,155
-346,679	800,000	-0,021	-0,054
-345,664	575,556	0,085	-0,149
-344,650	-200,000	0,023	-0,189
-343,635	133,101	-0,036	0,033
-342,620	757,485	0,056	0,109
-341,606	-32,932	-0,126	0,050
-340,591	-200,000	-0,001	-0,078
-339,577	-200,000	0,030	-0,143
-338,562	-84,292	-0,055	-0,012
-337,548	155,892	-0,021	-0,021
-336,533	-91,969	0,127	-0,025
-335,518	-8,789	-0,050	0,024
-334,504	-200,000	0,009	0,033
-333,489	190,595	-0,031	0,034
-332,475	-200,000	0,009	0,075
-331,460	-200,000	0,010	-0,137
-330,445	151,599	-0,061	0,059
-329,431	-16,414	0,048	0,022
-328,416	30,098	0,049	0,030
-327,402	-200,000	-0,035	-0,141
-326,387	-133,749	-0,038	0,003
-325,372	-200,000	0,011	0,053
-324,358	240,825	0,038	0,045
-323,343	29,567	-0,021	0,013
-322,329	221,665	-0,081	0,093
-321,314	87,734	0,129	0,102
-320,299	-58,583	0,072	0,022
-319,285	118,035	0,103	-0,090
-318,270	-200,000	-0,011	-0,097
-317,256	800,000	0,027	-0,085
-316,241	3,192	0,100	0,052
-315,226	800,000	0,033	0,069
-314,212	8,100	0,122	0,065
-313,197	-200,000	-0,005	-0,049
-312,183	1,970	0,083	-0,042
-311,168	800,000	-0,024	0,069
-310,153	-80,412	-0,076	-0,018
-309,139	444,716	-0,072	-0,113
-308,124	320,653	0,071	-0,096
-307,110	170,375	0,028	0,028
-306,095	171,367	0,141	-0,145
-305,080	96,839	0,122	0,099
-304,066	-200,000	0,023	-0,108
-303,051	187,905	-0,036	-0,039
-302,037	-200,000	-0,005	-0,030
-301,022	-91,413	0,118	0,024
-300,008	-200,000	-0,022	0,098
-298,993	33,142	-0,035	0,021
-297,978	-150,580	0,127	-0,007
-296,964	25,680	0,068	0,040
-295,949	800,000	-0,077	-0,214
-294,935	313,977	-0,045	0,061
-293,920	-200,000	-0,000	-0,028
-292,905	800,000	0,024	0,060
-291,891	-88,681	0,234	0,049
-290,876	800,000	-0,055	-0,123
-289,862	-151,759	-0,069	-0,004
-288,847	-200,000	-0,009	-0,034
-287,832	80,926	-0,106	-0,081
-286,818	-200,000	0,009	0,091
-285,803	-200,000	0,012	-0,066
-284,789	-200,000	0,001	0,106
-283,774	-200,000	-0,011	0,047
-282,759	-114,541	0,051	0,007
-281,745	-200,000	-0,005	0,074
-280,730	-21,454	0,029	-0,013
-279,716	-82,926	0,074	0,017
-278,701	176,885	0,061	0,063
-277,686	236,265	-0,028	0,033
-276,672	93,249	0,012	-0,010
-275,657	-65,647	0,120	0,034
-274,643	-200,000	-0,004	0,049
-273,628	-200,000	-0,057	-0,185
-272,613	-200,000	0,012	-0,135
-271,599	26,150	0,079	0,047
-270,584	-78,088	0,067	-0,016
-269,570	15,780	0,085	0,047
-268,555	800,000	-0,022	-0,050
-267,540	8,133	-0,104	-0,055
-266,526	32,002	-0,049	-0,030
-265,511	159,184	0,062	-0,061
-264,497	65,693	0,093	0,067
-263,482	-200,000	0,015	0,155
-262,467	233,049	0,108	0,126
-261,453	728,078	-0,033	0,064
-260,438	-29,581	-0,091	-0,037
-259,424	-200,000	0,012	0,083
-258,409	-42,483	-0,022	-0,008
-257,395	-69,873	-0,051	-0,014
-256,380	-200,000	0,006	-0,026
-255,365	800,000	0,012	-0,028
-254,351	-200,000	-0,046	0,182
-253,336	-170,325	0,039	0,001
-252,322	-43,267	0,051	-0,018
-251,307	-149,879	-0,032	-0,002
-250,292	240,048	0,056	-0,066
-249,278	800,000	0,101	0,231
-248,263	-144,747	-0,123	0,008
-247,249	73,049	-0,040	0,029
-246,234	-71,825	-0,212	0,056
-245,219	-200,000	-0,025	-0,148
-244,205	800,000	-0,052	-0,122
-243,190	244,722	-0,082	-0,098
-242,176	-46,215	-0,059	-0,021
-241,161	266,947	0,110	0,137
-240,146	157,383	-0,019	0,019
-239,132	-200,000	-0,001	-0,108
-238,117	-144,674	-0,171	-0,011
-237,103	-200,000	-0,003	-0,025
-236,088	-58,292	0,115	0,035
-235,073	507,381	0,077	0,128
-234,059	-200,000	0,014	-0,165
-233,044	800,000	0,029	-0,070
-232,030	-200,000	0,009	-0,045
-231,015	37,904	-0,102	-0,064
-230,000	-111,700	0,025	0,004
-228,986	-161,982	0,126	-0,004
-227,971	90,485	0,056	-0,045
-226,957	248,155	0,027	0,032
-225,942	-169,324	-0,147	-0,004
-224,927	-78,844	-0,130	-0,031
-223,913	-200,000	0,012	0,041
-222,898	58,145	-0,025	-0,017
-221,884	-109,435	0,017	0,003
-220,869	-71,009	0,216	0,057
-219,855	-200,000	0,011	0,070
-218,840	474,419	0,014	-0,022
-217,825	-37,434	-0,031	-0,012
-216,811	800,000	0,032	-0,072
-215,796	46,618	-0,175	-0,115
-214,782	-122,626	0,077	-0,009
-213,767	-200,000	-0,028	-0,113
-212,752	-54,253	0,133	0,043
-211,738	-45,683	0,155	-0,054
-210,723	-200,000	-0,011	0,054
-209,709	123,952	0,167	0,149
-208,694	223,419	-0,073	0,084
-207,679	800,000	-0,049	-0,116
-206,665	177,698	0,080	-0,083
-205,650	-53,424	0,064	-0,021
-204,636	-200,000	0,003	-0,017
-203,621	-56,720	0,056	-0,018
-202,606	-200,000	-0,001	-0,047
-201,592	84,722	-0,152	-0,118
-200,577	63,785	-0,042	-0,030
-199,563	-200,000	0,000	0,069
-198,548	72,249	0,085	0,062
-197,533	704,319	0,014	0,026
-196,519	228,835	0,031	-0,036
-195,504	553,770	-0,056	0,096
-194,490	419,472	0,030	-0,046
-193,475	77,886	-0,069	-0,052
-192,460	157,471	-0,071	-0,070
-191,446	-46,108	0,053	0,018
-190,431	-74,280	-0,067	0,017
-189,417	-200,000	-0,000	0,097
-188,402	119,755	-0,031	0,027
-187,387	800,000	-0,034	-0,085
-186,373	50,741	-0,046	-0,031
-185,358	766,818	-0,056	0,109
-184,344	-200,000	0,037	0,132
-183,329	244,110	0,033	0,039
-182,315	-200,000	-0,024	0,107
-181,300	137,130	0,059	0,054
-180,285	-10,222	-0,067	0,032
-179,271	-200,000	-0,003	0,110
-178,256	-75,846	-0,090	-0,022
-177,242	-44,402	-0,117	0,041
-176,227	38,283	0,109	0,069
-175,212	153,200	-0,030	-0,029
-174,198	-104,099	-0,145	-0,024
-173,183	-67,440	-0,062	0,017
-172,169	-14,149	-0,107	-0,049
-171,154	-63,198	-0,037	-0,011
-170,139	-98,815	0,110	0,020
-169,125	-200,000	-0,006	0,067
-168,110	161,100	-0,035	0,034
-167,096	-200,000	-0,009	0,101
-166,081	-200,000	-0,002	-0,021
-165,066	800,000	-0,046	0,108
-164,052	-35,976	0,084	0,032
-163,037	280,287	0,063	-0,079
-162,023	-179,823	-0,021	0,000
-161,008	219,127	-0,098	0,111
-159,993	-82,666	0,099	-0,023
-158,979	-200,000	0,030	-0,110
-157,964	-200,000	-0,016	-0,079
-156,950	418,853	-0,058	0,089
-155,935	491,941	0,018	0,030
-154,920	460,154	-0,030	0,048
-153,906	110,815	0,038	-0,032
-152,891	-200,000	-0,001	0,178
-151,877	-145,818	-0,155	-0,010
-150,862	800,000	0,035	-0,071
-149,847	344,678	0,038	0,053
-148,833	-200,000	0,004	0,090
-147,818	179,078	0,116	0,120
-146,804	-200,000	-0,003	-0,051
-145,789	83,764	-0,039	0,030
-144,775	-22,259	-0,098	-0,042
-143,760	-200,000	0,014	-0,163
-142,745	-136,225	-0,183	-0,015
-141,731	-200,000	0,016	-0,083
-140,716	-200,000	-0,014	-0,103
-139,702	-74,551	0,101	-0,026
-138,687	582,864	0,017	0,029
-137,672	-4,875	-0,119	0,058
-136,658	230,960	0,088	-0,102
-135,643	439,689	-0,089	0,137
-134,629	-73,347	0,021	-0,005
-133,614	-200,000	-0,025	-0,172
-132,599	518,008	0,017	-0,028
-131,585	88,674	0,084	0,066
-130,570	800,000	-0,073	0,158
-129,556	-102,975	-0,012	0,002
-128,541	800,000	-0,019	-0,059
-127,526	25,624	-0,069	-0,040
-126,512	475,407	0,051	-0,082
-125,497	507,950	-0,038	0,062
-124,483	-64,145	0,117	0,034
-123,468	-86,688	-0,190	0,041
-122,453	32,038	-0,086	0,052
-121,439	110,456	-0,010	0,009
-120,424	96,865	0,070	-0,057
-119,410	800,000	-0,037	-0,105
-118,395	258,671	-0,068	-0,083
-117,380	-200,000	0,012	0,136
-116,366	-39,931	0,041	-0,015
-115,351	761,074	-0,016	0,031
-114,337	-18,298	-0,142	-0,063
-113,322	-200,000	-0,018	-0,134
-112,307	202,236	0,097	0,105
-111,293	596,995	-0,013	-0,023
-110,278	10,176	0,198	0,106
-109,264	800,000	0,047	0,145
-108,249	-52,905	-0,108	0,035
-107,234	-52,432	0,119	0,039
-106,220	-13,550	-0,132	0,060
-105,205	150,269	0,070	0,067
-104,191	-200,000	0,027	-0,120
-103,176	339,344	0,070	-0,097
-102,162	-56,308	-0,043	0,014
-101,147	-91,961	0,118	-0,023
-100,132	-83,480	0,091	-0,021
-99,118	-15,654	0,063	0,028
-98,103	78,043	-0,091	0,068
-97,089	519,190	-0,014	-0,024
-96,074	16,696	0,108	0,060
-95,059	-200,000	0,018	0,098
-94,045	13,294	0,098	0,054
-93,030	-128,314	-0,059	0,006
-92,016	-78,474	-0,101	0,024
-91,001	185,517	-0,054	0,057
-89,986	800,000	0,027	0,082
-88,972	800,000	0,073	0,226
-87,957	-122,794	-0,071	0,008
-86,943	-200,000	-0,008	-0,083
-85,928	-200,000	-0,040	-0,195
-84,913	3,241	-0,050	-0,026
-83,899	135,416	-0,158	0,145
-82,884	158,146	0,155	0,152
-81,870	-114,369	0,018	0,002
-80,855	-200,000	0,007	-0,033
-79,840	-43,182	0,098	0,035
-78,826	800,000	-0,008	-0,016
-77,811	545,192	-0,038	-0,065
-76,797	373,543	-0,103	-0,149
-75,782	68,608	0,081	-0,059
-74,767	67,471	-0,066	0,047
-73,753	-50,422	0,150	0,050
-72,738	-200,000	0,018	0,059
-71,724	69,187	-0,059	-0,043
-70,709	490,177	-0,098	-0,159
-69,694	-200,000	-0,007	-0,095
-68,680	-70,172	-0,081	0,021
-67,665	-66,376	0,100	-0,028
-66,651	800,000	-0,029	0,066
-65,636	13,635	-0,082	-0,045
-64,622	-53,949	-0,098	-0,031
-63,607	-200,000	0,022	-0,086
-62,592	-200,000	-0,008	-0,064
-61,578	-84,575	0,088	-0,019
-60,563	-74,163	-0,090	-0,023
-59,549	45,832	0,064	0,041
-58,534	59,019	-2,063	-1,430
-57,519	626,628	-1,077	-1,925
-56,505	-200,000	-0,333	-4,482
-55,490	475,702	1,054	1,685
-54,476	800,000	5,164	11,326
-53,461	-200,000	22,100	338,777
-52,446	800,000	760,434	2291,103
-51,432	529,412	1655,764	2767,488
-50,417	68,931	1653,223	1196,120
-49,403	16,538	1527,964	849,018
-48,388	10,685	1452,687	778,982
-47,373	19,096	1444,538	814,798
-46,359	14,060	1433,565	784,719
-45,344	8,980	1429,538	758,374
-44,330	8,928	1427,649	757,095
-43,315	8,920	1425,789	756,039
-42,300	8,979	1423,741	755,203
-41,286	8,994	1422,640	754,661
-40,271	8,942	1421,505	753,782
-39,257	8,954	1420,181	753,107
-38,242	8,962	1419,247	752,621
-37,227	8,945	1418,147	751,927
-36,213	8,965	1416,647	751,197
-35,198	8,983	1415,431	750,606
-34,184	8,955	1414,613	750,009
-33,169	8,908	1413,074	748,945
-32,154	8,937	1412,252	748,615
-31,140	8,984	1410,750	748,009
-30,125	9,003	1409,717	747,523
-29,111	8,917	1408,707	746,553
-28,096	8,942	1407,381	745,937
-27,082	8,875	1406,261	745,001
-26,067	8,880	1405,260	744,463
-25,052	8,893	1404,306	743,993
-24,038	8,870	1403,272	743,304
-23,023	8,924	1402,162	742,940
-22,009	8,906	1401,235	742,335
-20,994	8,825	1400,357	741,464
-19,979	8,856	1399,569	741,163
-18,965	8,863	1398,253	740,470
-17,950	8,832	1397,403	739,845
-16,936	8,833	1396,629	739,408
-15,921	8,782	1395,503	738,550
-14,906	8,808	1394,746	738,239
-13,892	8,924	1393,492	738,082
-12,877	8,825	1392,761	737,210
-11,863	8,787	1392,180	736,697
-10,848	8,785	1391,259	736,170
-9,833	8,749	1390,413	735,527
-8,819	8,709	1389,449	734,803
-7,804	8,705	1388,416	734,210
-6,790	8,709	1387,459	733,694
-5,775	8,671	1386,254	732,849
-4,760	8,729	1385,497	732,690
-3,746	8,757	1384,428	732,224
-2,731	8,725	1383,501	731,558
-1,717	8,712	1382,723	731,054
-0,702	8,703	1380,975	730,060
0,313	12,863	1292,174	702,004
1,327	28,962	683,349	407,393
2,342	45,314	117,693	76,371
3,356	3,071	16,558	8,453
4,371	8,960	3,677	1,949
5,386	41,408	1,193	0,759
6,400	-200,000	0,189	0,624
7,415	193,497	-0,111	-0,118
8,429	-30,092	-0,367	-0,146
9,444	39,650	-0,217	-0,137
10,459	-67,685	-0,123	-0,034
11,473	183,532	-0,163	-0,170
12,488	-134,226	-0,373	-0,032
13,502	256,855	-0,222	-0,269
14,517	162,814	-0,265	-0,262
15,531	118,115	-0,302	-0,262
16,546	-9,483	-0,420	-0,196
17,561	76,836	-0,281	-0,209
18,575	-32,028	-0,128	0,050
19,590	97,232	-0,156	-0,126
20,604	-44,354	-0,367	-0,129
21,619	58,731	-0,485	-0,335
22,634	81,882	-0,462	-0,351
23,648	249,653	-0,237	-0,283
24,663	63,542	-0,366	-0,258
25,677	54,267	-0,351	-0,237
26,692	34,487	-0,364	-0,223
27,707	-22,402	-0,408	-0,173
28,721	38,017	-0,277	-0,173
29,736	-0,488	-0,466	-0,232
30,750	-0,706	-0,555	-0,276
31,765	82,850	-0,281	-0,214
32,780	-2,024	-0,278	-0,137
33,794	49,051	-0,203	-0,134
34,809	55,065	-0,319	-0,216
35,823	24,793	-0,289	-0,168
36,838	123,702	-0,450	-0,397
37,853	96,047	-0,333	-0,267
38,867	42,501	-0,473	-0,302
39,882	79,087	-0,378	-0,284
40,896	22,212	-0,304	-0,174
41,911	-144,296	-0,327	-0,021
42,926	124,688	-0,302	-0,267
43,940	85,320	-0,366	-0,282
44,955	49,950	-0,384	-0,254
45,969	126,442	-0,437	-0,388
46,984	110,512	-0,404	-0,341
47,999	230,896	-0,226	-0,261
49,013	-37,971	-0,505	-0,187
50,028	216,330	-0,271	-0,303
51,042	53,547	-0,388	-0,261
52,057	54,077	-0,334	-0,225
53,071	103,542	-0,315	-0,259
54,086	147,574	-0,200	-0,189
55,101	95,184	-0,272	-0,218
56,115	7,538	-0,339	-0,177
57,130	-26,728	-0,468	-0,191
58,144	-39,318	-0,317	-0,116
59,159	18,195	-0,284	-0,159
60,174	75,897	-0,339	-0,251
61,188	248,523	-0,280	-0,333
62,203	117,399	-0,262	-0,226
63,217	20,412	-0,268	-0,152
64,232	-13,905	-0,288	-0,130
65,247	116,641	-0,279	-0,240
66,261	49,728	-0,370	-0,244
67,276	33,885	-0,337	-0,205
68,290	198,299	-0,232	-0,249
69,305	45,488	-0,418	-0,270
70,320	412,751	-0,274	-0,409
71,334	17,097	-0,290	-0,161
72,349	138,115	-0,240	-0,221
73,363	-57,607	-0,334	-0,102
74,378	35,871	-0,349	-0,215
75,393	143,014	-0,291	-0,271
76,407	214,230	-0,154	-0,171
77,422	181,637	-0,263	-0,271
78,436	-16,971	-0,301	-0,133
79,451	76,408	-0,365	-0,271
80,466	59,521	-0,222	-0,153
81,480	152,133	-0,266	-0,254
82,495	72,872	-0,238	-0,174
83,509	62,137	-0,297	-0,207
84,524	170,075	-0,259	-0,259
85,539	103,250	-0,303	-0,248
86,553	88,490	-0,128	-0,100
87,568	38,152	-0,308	-0,192
88,582	-9,792	-0,259	-0,120
89,597	153,247	-0,308	-0,295
90,611	29,917	-0,280	-0,167
91,626	-17,689	-0,204	-0,089
92,641	-109,080	-0,244	-0,036
93,655	-1,106	-0,233	-0,115
94,670	167,538	-0,227	-0,225
95,684	189,927	-0,193	-0,203
96,699	194,385	-0,247	-0,262
97,714	77,962	-0,222	-0,165
98,728	52,236	-0,208	-0,139
99,743	150,161	-0,286	-0,271
100,757	-64,422	-0,269	-0,076
101,772	51,792	-0,243	-0,161
102,787	132,040	-0,244	-0,220
103,801	-72,266	-0,303	-0,078
104,816	41,680	-0,230	-0,145
105,830	-133,671	-0,200	-0,017
106,845	258,333	-0,172	-0,207
107,860	21,638	-0,218	-0,123
108,874	-91,098	-0,253	-0,050
109,889	178,790	-0,137	-0,139
110,903	67,443	-0,184	-0,131
111,918	-70,063	-0,317	-0,083
112,933	66,388	-0,168	-0,119
113,947	-126,126	-0,294	-0,030
114,962	191,239	-0,228	-0,239
115,976	-17,989	-0,333	-0,145
116,991	691,561	-0,143	-0,262
118,006	58,063	-0,159	-0,109
119,020	-24,703	-0,392	-0,162
120,035	378,317	-0,128	-0,183
121,049	40,390	-0,242	-0,152
122,064	-20,687	-0,203	-0,087
123,079	-100,623	-0,287	-0,049
124,093	41,800	-0,307	-0,194
125,108	731,737	-0,126	-0,235
126,122	132,271	-0,242	-0,217
127,137	501,376	-0,104	-0,167
128,151	46,046	-0,210	-0,135
129,166	162,306	-0,239	-0,234
130,181	58,175	-0,254	-0,173
131,195	-79,795	-0,167	-0,039
132,210	292,259	-0,210	-0,267
133,224	306,375	-0,187	-0,243
134,239	88,562	-0,309	-0,239
135,254	194,422	-0,183	-0,194
136,268	800,000	-0,061	-0,145
137,283	175,552	-0,212	-0,214
138,297	59,438	-0,312	-0,214
139,312	15,287	-0,280	-0,153
140,327	59,202	-0,243	-0,166
141,341	43,285	-0,201	-0,128
142,356	220,226	-0,213	-0,238
143,370	107,277	-0,179	-0,148
144,385	-0,486	-0,125	-0,062
145,400	21,451	-0,240	-0,136
146,414	78,985	-0,278	-0,207
147,429	96,480	-0,347	-0,276
148,443	-41,700	-0,337	-0,120
149,458	132,058	-0,240	-0,215
150,473	55,983	-0,122	-0,082
151,487	43,341	-0,291	-0,185
152,502	187,848	-0,234	-0,243
153,516	338,294	-0,190	-0,258
154,531	-150,196	-0,329	-0,017
155,546	82,877	-0,212	-0,160
156,560	116,965	-0,221	-0,189
157,575	182,748	-0,144	-0,148
158,589	-133,219	-0,250	0,022
159,604	147,478	-0,136	-0,127
160,619	20,452	-0,205	-0,115
161,633	334,923	-0,230	-0,310
162,648	-107,654	-0,185	-0,028
163,662	288,826	-0,141	-0,178
164,677	70,656	-0,156	-0,112
165,692	126,488	-0,198	-0,174
166,706	123,533	-0,255	-0,222
167,721	80,031	-0,174	-0,130
168,735	-81,103	-0,300	-0,068
169,750	-152,659	-0,190	-0,009
170,764	-134,377	-0,237	-0,020
171,779	-200,000	-0,038	-0,174
172,794	72,376	-0,236	-0,171
173,808	-87,926	-0,296	-0,061
174,823	-1,331	-0,231	-0,113
175,837	13,817	-0,226	-0,122
176,852	570,546	-0,199	-0,338
177,867	80,040	-0,207	-0,154
178,881	-83,078	-0,311	-0,069
179,896	38,841	-0,214	-0,132
180,910	6,760	-0,190	-0,098
181,925	-9,885	-0,261	-0,120
182,940	-54,155	-0,227	-0,071
183,954	-62,511	-0,163	-0,047
184,969	-17,973	-0,264	-0,114
185,983	-94,260	-0,240	-0,045
186,998	-44,206	-0,165	-0,057
188,013	-51,969	-0,312	-0,100
189,027	128,396	-0,248	-0,219
190,042	800,000	-0,073	-0,180
191,056	410,439	-0,119	-0,176
192,071	93,988	-0,161	-0,127
193,086	800,000	-0,070	-0,156
194,100	-163,874	-0,327	0,010
195,115	123,621	-0,187	-0,163
196,129	-64,551	-0,194	-0,054
197,144	113,701	-0,195	-0,164
198,159	372,875	-0,201	-0,284
199,173	43,268	-0,275	-0,173
200,188	152,152	-0,142	-0,134
201,202	93,811	-0,228	-0,179
202,217	-200,000	-0,022	-0,113
203,232	800,000	-0,110	-0,247
204,246	345,492	-0,173	-0,237
205,261	34,927	-0,218	-0,132
206,275	800,000	-0,117	-0,307
207,290	-20,546	-0,187	-0,079
208,304	-200,000	-0,072	-0,273
209,319	-80,176	-0,235	-0,054
210,334	-110,351	-0,241	-0,034
211,348	16,052	-0,397	-0,216
212,363	56,563	-0,274	-0,184
213,377	205,679	-0,145	-0,156
214,392	54,523	-0,089	-0,059
215,407	215,948	-0,085	-0,093
216,421	54,064	-0,188	-0,125
217,436	26,998	-0,239	-0,138
218,450	116,758	-0,145	-0,123
219,465	23,811	-0,223	-0,126
220,480	428,588	-0,128	-0,192
221,494	-25,366	-0,128	-0,052
222,509	-124,746	-0,117	-0,012
223,523	-44,684	-0,094	-0,032
224,538	587,626	-0,091	-0,155
225,553	246,332	-0,178	-0,207
226,567	190,791	-0,123	-0,128
227,582	673,549	-0,117	-0,211
228,596	-64,533	-0,181	-0,050
229,611	800,000	-0,053	-0,120
230,626	-89,210	-0,220	-0,044
231,640	18,017	-0,102	-0,056
232,655	44,206	-0,213	-0,135
233,669	128,746	-0,252	-0,222
234,684	-13,177	-0,195	-0,087
235,699	-8,622	-0,095	-0,044
236,713	-55,338	-0,155	-0,048
237,728	-66,839	-0,223	-0,060
238,742	204,830	-0,236	-0,254
239,757	407,187	-0,156	-0,229
240,772	201,137	-0,130	-0,138
241,786	-63,677	-0,228	-0,064
242,801	-195,159	-0,153	0,001
243,815	-200,000	-0,016	-0,181
244,830	540,636	-0,110	-0,182
245,844	184,478	-0,118	-0,121
246,859	-13,536	-0,082	-0,037
247,874	188,867	-0,171	-0,177
248,888	-200,000	-0,031	-0,108
249,903	-43,011	-0,126	-0,044
250,917	292,539	-0,085	-0,107
251,932	44,047	-0,127	-0,080
252,947	66,498	-0,193	-0,135
253,961	122,347	-0,129	-0,111
254,976	800,000	-0,089	-0,230
255,990	-102,488	-0,142	-0,023
257,005	74,228	-0,224	-0,162
258,020	-57,397	-0,359	-0,108
259,034	-35,219	-0,216	-0,081
260,049	-33,387	-0,206	-0,078
261,063	388,413	-0,122	-0,175
262,078	-11,795	-0,187	-0,084
263,093	-11,748	-0,197	-0,089
264,107	75,009	-0,150	-0,109
265,122	129,949	-0,129	-0,114
266,136	7,771	-0,213	-0,110
267,151	-150,382	-0,153	-0,008
268,166	-113,717	-0,138	-0,018
269,180	141,940	-0,174	-0,159
270,195	250,890	-0,122	-0,143
271,209	191,157	-0,220	-0,228
272,224	83,071	-0,124	-0,093
273,239	408,896	-0,140	-0,204
274,253	-133,348	-0,211	-0,018
275,268	-8,038	-0,221	-0,102
276,282	-18,814	-0,391	-0,167
277,297	800,000	-0,147	-0,325
278,312	117,313	-0,196	-0,166
279,326	-56,160	-0,231	-0,070
280,341	597,120	-0,060	-0,103
281,355	-43,655	-0,129	-0,045
282,370	626,728	-0,107	-0,186
283,384	-21,397	-0,173	-0,072
284,399	203,901	-0,206	-0,219
285,414	780,678	-0,044	-0,083
286,428	44,155	-0,106	-0,067
287,443	-78,130	-0,134	-0,032
288,457	403,165	-0,122	-0,177
289,472	-200,000	-0,038	0,132
290,487	-200,000	-0,010	-0,198
291,501	114,161	-0,178	-0,149
292,516	800,000	-0,039	-0,092
293,530	800,000	-0,107	-0,215
294,545	-170,831	-0,192	-0,004
295,560	26,803	-0,115	-0,066
296,574	800,000	-0,022	-0,062
297,589	358,754	-0,141	-0,194
298,603	-164,253	-0,224	-0,007
299,618	-200,000	-0,126	0,000
300,633	62,169	-0,107	-0,073
301,647	26,663	-0,103	-0,059
302,662	-99,602	-0,170	0,029
303,676	198,283	-0,153	-0,160
304,691	63,095	-0,115	-0,079
305,706	405,786	-0,079	-0,115
306,720	196,393	-0,191	-0,200
307,735	-77,718	-0,066	-0,016
308,749	-126,661	-0,124	0,012
309,764	-10,468	-0,149	-0,067
310,779	67,156	-0,132	-0,092
311,793	-118,691	-0,136	-0,016
312,808	203,080	-0,097	-0,102
313,822	172,616	-0,193	-0,191
314,837	106,878	-0,127	-0,103
315,852	470,579	-0,030	-0,047
316,866	514,600	-0,092	-0,148
317,881	800,000	-0,047	-0,114
318,895	-54,939	-0,146	-0,045
319,910	-29,685	-0,174	-0,068
320,925	93,181	-0,133	-0,103
321,939	207,802	-0,114	-0,123
322,954	164,689	-0,096	-0,093
323,968	356,458	-0,074	-0,101
324,983	417,356	-0,136	-0,199
325,997	53,116	-0,174	-0,114
327,012	31,167	-0,080	-0,047
328,027	79,587	-0,105	-0,077
329,041	115,523	-0,141	-0,118
330,056	-104,047	-0,170	-0,027
331,070	-108,381	-0,122	0,018
332,085	-200,000	0,005	-0,023
333,100	630,970	-0,123	-0,214
334,114	166,365	-0,141	-0,137
335,129	40,887	-0,311	-0,191
336,143	-189,689	-0,153	-0,001
337,158	-42,580	-0,213	-0,074
338,173	165,877	0,012	-0,011
339,187	94,411	-0,070	0,054
340,202	207,714	-0,056	-0,060
341,216	-174,467	-0,304	-0,006
342,231	329,202	-0,084	-0,111
343,246	71,087	-0,229	-0,162
344,260	179,870	-0,043	0,043
345,275	27,802	-0,099	-0,057
346,289	357,298	-0,028	-0,038
347,304	-18,282	-0,198	-0,084
348,319	-24,295	-0,179	-0,073
349,333	254,954	-0,075	-0,088
350,348	576,464	-0,147	-0,246
351,362	213,619	-0,081	-0,087
352,377	170,541	-0,053	0,051
353,392	76,444	-0,132	0,096
354,406	-30,992	-0,105	0,040
355,421	207,036	1311,330	1398,540
356,435	159,248	1471,592	1398,986
