DTS Sentinel unit serial number:	SN410029Multiplexer serial number:	ORYXHardware model number:	OX2-SRSoftware version number:	ORYX F/W v4,00 Oryx Data Collector v3.7.2.0data status	okinstallation	B3 Nyhavnadifferential loss correction	single-endedforward channel	channel 1reverse channel	N/Adate	2023/12/03time	11:32:30forward acquisition time	300,00reverse acquisition time	0,00gamma	499,1914k internal	0,3201k external	0,3201temperature offset calibration	1,0000default loss term (dB/km)	0,3820temperature slope calibration	1,0000multiplexer offset coefficient	1,0000multiplexer slope coefficient	1,0000fibre end	0,00T internal ref (°C)	13,56T ext. ref 1 (°C)	-1,20T ext. ref 2 (°C)	-1,21length (m)	temperature (°C)	Stokes	anti-Stokes-744,400	263,504	-0,250	-0,317
-743,385	-200,000	-0,084	0,325
-742,371	31,785	-0,191	-0,120
-741,356	308,923	-0,047	0,064
-740,342	136,399	-0,161	-0,153
-739,327	-200,000	-0,002	0,257
-738,312	102,045	-0,271	-0,230
-737,298	286,233	-0,187	0,245
-736,283	304,466	-0,159	-0,215
-735,269	-200,000	-0,040	0,309
-734,254	276,733	-0,148	-0,192
-733,239	577,032	-0,168	0,300
-732,225	117,865	-0,163	-0,146
-731,210	-200,000	0,004	0,129
-730,196	137,642	-0,036	0,035
-729,181	-200,000	-0,010	0,104
-728,167	-200,000	0,023	0,100
-727,152	449,132	0,062	0,099
-726,137	-101,812	-0,080	-0,014
-725,123	-200,000	-0,020	-0,071
-724,108	378,053	-0,064	-0,096
-723,094	240,108	-0,058	-0,070
-722,079	310,490	-0,046	0,063
-721,064	800,000	0,030	-0,085
-720,050	66,846	-0,124	-0,092
-719,035	-114,657	0,227	-0,031
-718,021	-200,000	0,017	-0,190
-717,006	-23,728	-0,200	-0,087
-715,991	-30,280	-0,186	-0,076
-714,977	-200,000	-0,000	-0,110
-713,962	-200,000	-0,013	-0,096
-712,948	-200,000	0,007	-0,135
-711,933	-91,643	-0,089	-0,018
-710,918	9,860	-0,134	0,073
-709,904	800,000	0,028	-0,076
-708,889	-200,000	-0,010	-0,168
-707,875	38,506	-0,138	-0,089
-706,860	79,366	0,049	-0,038
-705,845	132,875	0,040	0,038
-704,831	147,554	0,042	0,041
-703,816	-200,000	0,001	-0,056
-702,802	800,000	-0,038	-0,080
-701,787	-72,062	-0,071	0,019
-700,772	800,000	-0,058	-0,148
-699,758	49,530	0,038	0,026
-698,743	58,631	-0,007	0,005
-697,729	800,000	-0,035	-0,071
-696,714	-200,000	0,025	-0,128
-695,699	-200,000	0,023	-0,079
-694,685	800,000	0,071	-0,160
-693,670	382,424	0,079	-0,118
-692,656	-114,269	0,073	0,010
-691,641	-59,807	0,080	-0,025
-690,627	142,742	0,025	0,024
-689,612	6,423	-0,076	0,041
-688,597	400,577	0,040	-0,060
-687,583	556,852	-0,072	-0,127
-686,568	-200,000	-0,010	-0,101
-685,554	27,083	-0,101	0,061
-684,539	-15,822	-0,042	-0,020
-683,524	-49,724	0,162	0,056
-682,510	-30,646	-0,119	0,049
-681,495	605,517	0,021	-0,038
-680,481	6,160	-0,180	-0,096
-679,466	446,074	-0,035	-0,055
-678,451	-71,020	-0,040	0,011
-677,437	-123,735	0,095	0,011
-676,422	-59,506	0,096	-0,030
-675,408	800,000	-0,087	0,182
-674,393	-0,386	0,114	-0,059
-673,378	137,430	-0,115	-0,109
-672,364	171,482	-0,039	-0,041
-671,349	-67,488	0,019	0,005
-670,335	-200,000	-0,012	0,046
-669,320	-200,000	0,001	-0,011
-668,305	-83,773	-0,110	-0,025
-667,291	115,338	0,062	0,055
-666,276	24,913	-0,112	-0,067
-665,262	90,157	-0,121	-0,098
-664,247	39,315	-0,117	-0,076
-663,232	400,927	-0,104	-0,159
-662,218	-200,000	-0,005	0,056
-661,203	17,841	-0,121	0,070
-660,189	-83,469	0,139	-0,032
-659,174	-26,960	0,093	-0,039
-658,159	-52,929	-0,051	-0,017
-657,145	-32,101	-0,009	0,004
-656,130	-68,646	0,115	-0,032
-655,116	800,000	0,022	0,066
-654,101	-200,000	-0,037	0,180
-653,086	96,237	-0,142	0,117
-652,072	371,827	-0,054	0,079
-651,057	-200,000	-0,023	-0,118
-650,043	-27,130	0,084	-0,035
-649,028	282,127	-0,089	0,116
-648,014	152,701	-0,009	-0,009
-646,999	-114,519	0,071	0,010
-645,984	286,766	0,074	-0,097
-644,970	156,020	0,027	0,027
-643,955	102,477	-0,074	-0,063
-642,941	-200,000	0,013	-0,113
-641,926	-200,000	-0,017	0,123
-640,911	-40,239	-0,022	0,008
-639,897	-200,000	0,011	0,161
-638,882	-134,430	0,086	-0,008
-637,868	290,622	0,040	-0,053
-636,853	228,949	-0,071	-0,084
-635,838	570,350	0,044	-0,078
-634,824	800,000	0,031	-0,063
-633,809	-75,103	-0,134	0,034
-632,795	86,542	0,040	-0,032
-631,780	-42,040	-0,079	-0,029
-630,765	103,036	-0,139	0,118
-629,751	-100,077	-0,072	-0,013
-628,736	125,679	-0,033	-0,030
-627,722	800,000	-0,056	-0,178
-626,707	800,000	-0,016	0,042
-625,692	231,236	0,034	0,040
-624,678	-161,741	-0,041	0,002
-623,663	347,984	-0,041	0,058
-622,649	62,414	-0,094	-0,068
-621,634	479,843	0,059	-0,097
-620,619	271,115	-0,088	-0,113
-619,605	800,000	-0,041	-0,103
-618,590	71,156	-0,047	0,035
-617,576	219,596	0,022	-0,025
-616,561	-52,619	-0,091	-0,030
-615,546	800,000	0,053	0,148
-614,532	271,115	-0,041	-0,053
-613,517	337,954	-0,043	0,061
-612,503	26,615	0,058	-0,035
-611,488	240,081	0,176	0,213
-610,474	800,000	-0,024	-0,067
-609,459	-200,000	0,001	-0,078
-608,444	346,053	-0,056	-0,081
-607,430	800,000	0,023	-0,067
-606,415	325,012	-0,108	-0,150
-605,401	101,497	0,075	-0,063
-604,386	-115,013	0,117	-0,016
-603,371	17,304	0,073	0,042
-602,357	-123,396	-0,158	0,018
-601,342	-200,000	-0,059	-0,211
-600,328	545,912	-0,112	-0,195
-599,313	77,290	-0,162	-0,124
-598,298	-42,305	0,059	-0,021
-597,284	800,000	0,020	0,064
-596,269	790,465	0,037	0,074
-595,255	-129,404	0,011	-0,001
-594,240	53,818	0,103	0,071
-593,225	-15,517	-0,061	0,028
-592,211	663,185	0,011	0,021
-591,196	-200,000	0,000	0,058
-590,182	-200,000	0,006	-0,030
-589,167	229,178	-0,079	0,093
-588,152	340,841	0,031	-0,044
-587,138	-2,703	0,163	0,082
-586,123	57,973	-0,122	-0,086
-585,109	-151,095	-0,136	0,007
-584,094	-200,000	-0,008	0,085
-583,079	240,866	0,086	0,104
-582,065	571,894	-0,025	0,044
-581,050	-18,368	-0,077	-0,035
-580,036	-4,924	0,074	0,036
-579,021	-133,152	-0,027	0,002
-578,006	285,734	-0,031	-0,041
-576,992	652,935	-0,017	-0,031
-575,977	-200,000	-0,035	0,160
-574,963	501,789	0,040	0,067
-573,948	683,376	-0,063	0,119
-572,934	-144,169	-0,060	-0,004
-571,919	-127,225	0,068	-0,007
-570,904	226,628	-0,085	-0,100
-569,890	52,407	-0,009	0,006
-568,875	800,000	-0,054	0,136
-567,861	48,330	0,080	0,054
-566,846	-200,000	0,019	-0,113
-565,831	120,418	-0,067	-0,060
-564,817	800,000	-0,003	-0,008
-563,802	-27,463	-0,078	-0,033
-562,788	-75,618	0,072	-0,018
-561,773	-200,000	-0,019	-0,066
-560,758	-168,032	0,161	0,004
-559,744	3,359	0,026	0,014
-558,729	800,000	-0,056	0,138
-557,715	-15,435	-0,098	-0,045
-556,700	800,000	0,041	0,085
-555,685	-200,000	0,003	0,142
-554,671	224,861	0,062	-0,073
-553,656	-42,841	0,152	-0,056
-552,642	-200,000	-0,014	0,064
-551,627	-200,000	-0,025	0,097
-550,612	158,444	-0,030	0,030
-549,598	45,502	-0,047	-0,032
-548,583	-37,234	-0,076	-0,029
-547,569	518,096	-0,016	-0,028
-546,554	-89,981	-0,095	0,020
-545,539	800,000	0,029	0,075
-544,525	-152,970	0,073	-0,004
-543,510	-200,000	-0,018	-0,161
-542,496	800,000	-0,008	0,018
-541,481	656,008	-0,061	-0,113
-540,466	800,000	-0,021	0,059
-539,452	105,946	0,117	0,100
-538,437	-31,161	0,059	0,024
-537,423	25,585	0,033	0,020
-536,408	-42,167	-0,058	0,021
-535,393	-200,000	-0,007	-0,193
-534,379	800,000	0,064	-0,132
-533,364	-200,000	-0,002	-0,163
-532,350	-32,929	0,060	0,024
-531,335	268,257	0,037	0,047
-530,321	-91,755	0,083	-0,017
-529,306	149,437	-0,120	0,117
-528,291	132,273	0,110	-0,102
-527,277	248,680	0,075	0,092
-526,262	79,183	-0,129	0,099
-525,248	800,000	0,022	0,053
-524,233	681,586	0,031	0,059
-523,218	-82,791	0,076	-0,018
-522,204	-18,002	-0,163	0,073
-521,189	-21,377	-0,026	0,011
-520,175	142,160	-0,082	-0,079
-519,160	-156,473	0,034	0,002
-518,145	170,743	-0,039	-0,040
-517,131	-200,000	-0,003	-0,065
-516,116	381,516	-0,061	0,091
-515,102	-133,762	0,115	-0,010
-514,087	-200,000	-0,014	0,092
-513,072	800,000	-0,009	0,024
-512,058	-67,985	-0,098	-0,027
-511,043	112,010	0,110	-0,096
-510,029	-95,798	0,056	0,011
-509,014	-5,372	0,017	0,009
-507,999	50,922	-0,095	-0,065
-506,985	80,344	0,053	0,041
-505,970	-13,469	-0,095	0,044
-504,956	-31,345	0,067	-0,027
-503,941	14,644	-0,117	0,066
-502,926	-200,000	0,014	0,075
-501,912	130,372	-0,072	0,067
-500,897	800,000	0,014	-0,033
-499,883	-103,983	0,055	0,009
-498,868	-148,334	-0,052	-0,003
-497,853	227,355	0,100	0,118
-496,839	-75,402	-0,060	0,015
-495,824	-67,009	0,104	-0,029
-494,810	52,551	0,082	0,056
-493,795	800,000	-0,053	0,135
-492,781	742,610	0,046	0,089
-491,766	85,203	-0,038	-0,030
-490,751	66,721	-0,021	-0,015
-489,737	-122,944	-0,091	-0,010
-488,722	-115,425	0,052	-0,007
-487,708	61,557	0,050	-0,035
-486,693	-200,000	0,027	0,097
-485,678	800,000	0,033	0,092
-484,664	-200,000	-0,004	-0,020
-483,649	-84,288	-0,070	-0,016
-482,635	193,237	0,102	-0,111
-481,620	-200,000	-0,039	0,163
-480,605	11,035	0,075	0,041
-479,591	545,422	0,051	0,089
-478,576	-200,000	-0,024	-0,108
-477,562	483,118	0,021	-0,034
-476,547	28,731	-0,179	-0,109
-475,532	-100,274	0,064	0,011
-474,518	159,284	-0,005	-0,005
-473,503	-4,866	0,076	-0,037
-472,489	-200,000	0,015	0,089
-471,474	7,672	-0,065	0,035
-470,459	-200,000	-0,006	0,128
-469,445	142,025	-0,083	-0,079
-468,430	800,000	0,032	-0,092
-467,416	-36,304	0,057	0,022
-466,401	-200,000	-0,001	0,126
-465,386	-104,889	0,164	-0,027
-464,372	800,000	-0,036	0,102
-463,357	-30,886	0,048	0,019
-462,343	64,699	-0,064	-0,046
-461,328	260,984	-0,050	0,062
-460,313	800,000	0,006	-0,020
-459,299	-37,130	0,079	-0,030
-458,284	-200,000	0,019	-0,103
-457,270	-73,283	-0,035	-0,009
-456,255	-89,252	0,093	-0,020
-455,241	-71,479	-0,087	-0,023
-454,226	-200,000	-0,032	-0,125
-453,211	180,673	-0,053	0,056
-452,197	-200,000	-0,011	-0,057
-451,182	-83,737	0,051	-0,012
-450,168	483,402	-0,096	-0,157
-449,153	800,000	-0,059	-0,140
-448,138	800,000	0,065	-0,135
-447,124	-138,862	-0,128	-0,010
-446,109	18,925	0,108	0,062
-445,095	153,348	0,054	-0,054
-444,080	-200,000	0,012	0,060
-443,065	284,493	0,065	-0,085
-442,051	800,000	-0,040	0,104
-441,036	237,574	0,059	-0,071
-440,022	-200,000	0,034	-0,202
-439,007	-200,000	-0,012	0,102
-437,992	-200,000	0,007	0,024
-436,978	146,531	0,070	0,068
-435,963	-200,000	-0,011	-0,061
-434,949	-200,000	-0,002	0,126
-433,934	33,440	0,037	-0,023
-432,919	1,200	-0,072	0,037
-431,905	-200,000	0,040	0,147
-430,890	10,916	0,161	-0,088
-429,876	21,775	-0,013	0,007
-428,861	285,052	0,024	0,031
-427,846	44,027	0,026	-0,017
-426,832	11,769	0,106	-0,058
-425,817	151,858	0,027	0,027
-424,803	-53,550	-0,103	-0,034
-423,788	-200,000	0,039	-0,143
-422,773	278,913	0,076	-0,098
-421,759	800,000	0,037	0,113
-420,744	-200,000	0,024	0,139
-419,730	427,936	-0,026	-0,041
-418,715	-9,568	-0,102	-0,049
-417,701	-105,829	0,100	-0,016
-416,686	35,627	-0,087	-0,055
-415,671	-200,000	0,056	0,188
-414,657	800,000	0,037	0,110
-413,642	-8,211	-0,116	0,056
-412,628	800,000	0,034	-0,101
-411,613	-200,000	-0,011	-0,121
-410,598	274,412	-0,115	-0,146
-409,584	-84,937	0,207	-0,046
-408,569	-50,408	0,119	0,040
-407,555	800,000	-0,021	-0,064
-406,540	-41,122	0,103	-0,038
-405,525	226,567	0,023	0,026
-404,511	800,000	-0,026	-0,077
-403,496	76,224	-0,040	0,030
-402,482	109,794	0,023	0,019
-401,467	258,255	-0,063	-0,078
-400,452	-200,000	-0,008	0,123
-399,438	124,476	0,137	0,124
-398,423	436,814	-0,032	0,051
-397,409	-187,579	-0,092	0,001
-396,394	-182,508	0,027	0,000
-395,379	685,803	0,060	0,112
-394,365	-106,292	0,097	0,015
-393,350	125,164	0,022	0,020
-392,336	310,404	-0,074	-0,100
-391,321	-200,000	-0,010	-0,173
-390,306	-200,000	-0,018	-0,158
-389,292	800,000	0,027	-0,079
-388,277	-44,975	-0,074	0,026
-387,263	-19,301	0,133	0,059
-386,248	-176,541	0,061	0,001
-385,233	-79,259	-0,125	-0,030
-384,219	263,643	0,156	-0,195
-383,204	-138,716	-0,068	0,005
-382,190	-200,000	0,010	-0,138
-381,175	800,000	-0,031	0,081
-380,160	79,951	-0,046	0,036
-379,146	-200,000	0,002	0,045
-378,131	800,000	0,021	0,056
-377,117	-2,542	0,110	0,055
-376,102	-58,995	-0,083	0,025
-375,088	-80,594	-0,090	-0,021
-374,073	-29,670	0,083	0,034
-373,058	362,074	-0,043	0,063
-372,044	197,295	0,085	0,093
-371,029	63,329	0,053	0,038
-370,015	-34,572	-0,069	-0,027
-369,000	-5,501	0,065	-0,032
-367,985	-200,000	-0,009	0,067
-366,971	-71,194	-0,117	0,031
-365,956	157,512	-0,102	-0,101
-364,942	-38,363	0,111	0,042
-363,927	800,000	-0,017	0,046
-362,912	43,374	0,109	-0,071
-361,898	-200,000	0,000	-0,172
-360,883	176,422	-0,087	-0,091
-359,869	-66,070	0,063	0,018
-358,854	286,737	-0,033	-0,043
-357,839	-200,000	-0,014	0,054
-356,825	-200,000	0,000	0,119
-355,810	-125,457	-0,052	-0,006
-354,796	-89,831	-0,091	0,019
-353,781	-200,000	-0,006	-0,091
-352,766	-58,232	0,107	-0,033
-351,752	155,713	0,019	0,019
-350,737	-63,928	0,095	0,028
-349,723	-76,076	0,037	-0,009
-348,708	800,000	-0,014	0,032
-347,693	-118,226	-0,132	0,017
-346,679	55,802	-0,048	0,033
-345,664	0,020	0,235	0,119
-344,650	-99,851	-0,169	0,030
-343,635	-51,051	0,067	0,022
-342,620	800,000	0,047	0,099
-341,606	800,000	-0,003	-0,007
-340,591	776,366	0,045	-0,089
-339,577	9,899	0,048	-0,026
-338,562	-200,000	0,003	-0,011
-337,548	208,027	0,025	0,028
-336,533	-169,829	0,065	-0,002
-335,518	-109,083	0,101	-0,015
-334,504	-72,109	-0,168	-0,044
-333,489	800,000	-0,022	0,063
-332,475	800,000	0,004	-0,009
-331,460	800,000	-0,036	-0,085
-330,445	-200,000	0,003	0,090
-329,431	-132,551	-0,044	0,004
-328,416	72,849	0,129	-0,097
-327,402	-115,432	-0,131	0,018
-326,387	-27,008	0,036	-0,015
-325,372	-118,508	-0,088	0,011
-324,358	137,704	0,054	0,050
-323,343	-69,395	0,059	0,016
-322,329	-200,000	-0,002	0,064
-321,314	-148,510	0,129	-0,007
-320,299	118,754	0,014	-0,012
-319,285	-200,000	0,004	-0,039
-318,270	-175,869	0,047	-0,001
-317,256	121,806	-0,095	-0,085
-316,241	800,000	0,038	0,115
-315,226	-200,000	-0,039	-0,146
-314,212	-139,760	-0,019	-0,001
-313,197	-108,763	0,138	-0,021
-312,183	27,511	-0,046	-0,028
-311,168	-11,507	-0,103	0,048
-310,153	-155,712	0,122	0,005
-309,139	420,292	-0,063	-0,096
-308,124	-200,000	-0,025	0,121
-307,110	300,210	0,119	0,157
-306,095	98,993	-0,178	0,147
-305,080	-60,285	0,056	0,017
-304,066	-200,000	0,004	0,014
-303,051	800,000	0,050	-0,151
-302,037	-200,000	-0,044	-0,153
-301,022	-200,000	0,006	-0,076
-300,008	-200,000	0,021	0,088
-298,993	-200,000	0,023	-0,106
-297,978	-34,227	-0,123	0,048
-296,964	-200,000	-0,037	-0,170
-295,949	-60,922	0,038	0,012
-294,935	750,568	-0,086	0,167
-293,920	-144,067	-0,157	-0,010
-292,905	-14,824	0,044	0,020
-291,891	-59,354	0,051	-0,016
-290,876	54,206	-0,183	0,126
-289,862	800,000	-0,059	0,134
-288,847	-137,528	0,027	-0,002
-287,832	55,227	-0,079	0,054
-286,818	-2,406	0,118	0,059
-285,803	-146,693	0,073	-0,004
-284,789	290,209	0,072	0,094
-283,774	-49,480	0,192	0,065
-282,759	800,000	-0,017	-0,039
-281,745	654,148	-0,050	-0,092
-280,730	800,000	0,053	-0,140
-279,716	158,557	0,057	0,056
-278,701	106,644	0,108	0,092
-277,686	-115,414	0,099	-0,013
-276,672	-40,781	-0,049	0,018
-275,657	334,246	-0,048	-0,066
-274,643	800,000	-0,019	-0,053
-273,628	25,648	-0,190	-0,113
-272,613	100,394	-0,031	-0,025
-271,599	-103,508	0,023	0,004
-270,584	800,000	0,094	0,244
-269,570	697,544	-0,019	0,036
-268,555	504,628	0,043	-0,072
-267,540	-13,438	-0,083	-0,038
-266,526	-74,587	-0,097	-0,025
-265,511	-50,427	0,149	-0,050
-264,497	90,390	-0,005	-0,004
-263,482	339,563	-0,093	0,129
-262,467	293,775	-0,007	0,010
-261,453	126,074	-0,042	-0,038
-260,438	-2,306	-0,153	-0,076
-259,424	491,719	0,078	-0,129
-258,409	-200,000	0,001	0,019
-257,395	128,073	0,035	0,032
-256,380	-200,000	-0,008	0,120
-255,365	800,000	-0,061	0,174
-254,351	-120,896	0,072	-0,009
-253,336	-200,000	-0,016	-0,087
-252,322	-7,626	0,042	0,020
-251,307	-200,000	0,008	0,030
-250,292	800,000	0,033	0,068
-249,278	-200,000	-0,003	-0,039
-248,263	-39,508	-0,076	0,028
-247,249	201,070	0,011	0,012
-246,234	158,513	0,061	0,061
-245,219	33,921	-0,138	0,086
-244,205	-92,204	-0,115	0,023
-243,190	-109,657	-0,020	-0,003
-242,176	13,298	0,039	0,022
-241,161	800,000	0,111	0,252
-240,146	421,493	-0,026	0,040
-239,132	800,000	-0,039	-0,092
-238,117	591,616	0,061	0,107
-237,103	-40,582	-0,198	0,073
-236,088	142,972	0,094	-0,089
-235,073	7,511	0,077	-0,041
-234,059	532,250	-0,045	-0,075
-233,044	31,522	0,085	0,052
-232,030	800,000	0,036	-0,092
-231,015	-188,405	-0,125	-0,001
-230,000	-14,519	0,157	-0,072
-228,986	-83,188	-0,049	0,011
-227,971	-200,000	0,008	0,047
-226,957	41,276	0,113	-0,073
-225,942	-200,000	-0,021	0,098
-224,927	800,000	-0,026	0,074
-223,913	400,517	-0,041	-0,062
-222,898	800,000	-0,015	-0,031
-221,884	-66,359	-0,167	-0,047
-220,869	-20,395	0,025	-0,011
-219,855	-11,107	0,037	-0,017
-218,840	-200,000	-0,004	-0,119
-217,825	-200,000	0,042	0,133
-216,811	391,659	-0,038	-0,057
-215,796	266,350	0,030	0,037
-214,782	-180,218	-0,191	0,003
-213,767	800,000	-0,052	0,150
-212,752	-200,000	0,029	0,102
-211,738	524,362	-0,047	0,079
-210,723	-200,000	-0,003	0,136
-209,709	800,000	0,022	0,051
-208,694	158,780	-0,078	0,077
-207,679	-200,000	-0,013	-0,164
-206,665	46,716	-0,119	-0,079
-205,650	-26,007	0,064	-0,027
-204,636	-200,000	-0,002	-0,020
-203,621	64,693	0,031	0,022
-202,606	290,680	-0,092	-0,120
-201,592	602,488	-0,018	-0,031
-200,577	7,494	0,082	0,044
-199,563	3,723	0,131	-0,068
-198,548	-71,832	0,092	0,024
-197,533	-64,666	-0,032	-0,009
-196,519	358,205	0,071	0,102
-195,504	-200,000	0,028	-0,117
-194,490	800,000	-0,055	0,122
-193,475	169,307	-0,061	0,062
-192,460	197,072	0,110	-0,120
-191,446	606,624	-0,067	-0,119
-190,431	98,140	0,049	0,040
-189,417	14,107	0,100	0,055
-188,402	711,390	-0,005	-0,009
-187,387	-72,553	0,108	0,028
-186,373	310,998	0,095	-0,127
-185,358	-44,161	-0,146	-0,052
-184,344	800,000	0,024	0,074
-183,329	-29,427	0,145	-0,059
-182,315	-86,194	-0,098	-0,021
-181,300	-53,017	-0,120	0,039
-180,285	514,051	0,044	-0,073
-179,271	90,895	-0,062	0,049
-178,256	-200,000	-0,016	0,119
-177,242	-200,000	-0,008	0,078
-176,227	-200,000	-0,025	0,170
-175,212	225,576	-0,095	-0,110
-174,198	-200,000	0,001	0,039
-173,183	800,000	0,018	-0,037
-172,169	458,300	0,052	-0,083
-171,154	800,000	-0,060	-0,135
-170,139	800,000	-0,033	-0,097
-169,125	800,000	-0,024	0,050
-168,110	43,329	0,063	-0,041
-167,096	-92,966	-0,015	0,003
-166,081	800,000	-0,008	-0,022
-165,066	352,060	0,028	-0,039
-164,052	-200,000	0,006	-0,040
-163,037	68,190	-0,072	-0,052
-162,023	-44,294	0,136	0,048
-161,008	-122,604	-0,035	-0,004
-159,993	144,488	-0,017	0,017
-158,979	800,000	-0,043	0,127
-157,964	20,583	-0,073	-0,042
-156,950	-200,000	-0,022	-0,143
-155,935	153,754	0,021	-0,020
-154,920	-14,364	-0,061	0,028
-153,906	-200,000	0,001	-0,157
-152,891	-143,636	0,206	-0,014
-151,877	104,162	-0,025	0,021
-150,862	-9,860	-0,039	0,019
-149,847	-70,551	0,055	0,015
-148,833	-200,000	0,034	0,139
-147,818	372,276	0,050	0,072
-146,804	-133,408	0,149	-0,013
-145,789	-181,998	-0,025	-0,000
-144,775	-200,000	0,020	0,128
-143,760	-78,813	-0,058	-0,014
-142,745	54,861	-0,106	-0,072
-141,731	30,023	-0,171	-0,103
-140,716	-124,894	-0,032	-0,003
-139,702	-14,330	0,054	0,025
-138,687	191,270	-0,041	0,044
-137,672	800,000	-0,046	-0,110
-136,658	112,111	-0,071	0,061
-135,643	111,490	-0,130	-0,111
-134,629	34,757	-0,090	0,056
-133,614	189,954	-0,040	0,043
-132,599	477,193	0,071	0,114
-131,585	-48,095	0,121	-0,041
-130,570	86,732	-0,047	0,037
-129,556	-200,000	-0,003	0,055
-128,541	-11,422	-0,144	-0,067
-127,526	140,283	0,027	-0,026
-126,512	800,000	-0,027	0,069
-125,497	-17,604	-0,059	0,026
-124,483	614,052	-0,020	-0,035
-123,468	800,000	-0,018	-0,054
-122,453	-89,807	0,060	-0,012
-121,439	-54,284	0,090	-0,029
-120,424	155,365	-0,067	-0,065
-119,410	390,101	0,012	0,017
-118,395	-200,000	0,015	0,120
-117,380	53,615	-0,007	0,005
-116,366	-200,000	0,005	0,021
-115,351	225,579	0,051	-0,058
-114,337	25,196	0,060	-0,035
-113,322	-4,826	0,099	-0,048
-112,307	-8,635	-0,147	0,070
-111,293	-200,000	-0,008	0,036
-110,278	287,721	-0,038	0,049
-109,264	-200,000	0,001	0,068
-108,249	-200,000	0,004	-0,023
-107,234	59,327	0,046	-0,032
-106,220	61,899	-0,073	-0,052
-105,205	293,202	-0,037	0,048
-104,191	-23,363	-0,074	-0,031
-103,176	-65,166	0,191	-0,054
-102,162	754,004	-0,035	0,067
-101,147	-200,000	0,010	0,052
-100,132	-95,359	0,104	0,020
-99,118	-200,000	0,046	-0,193
-98,103	-69,003	-0,082	-0,022
-97,089	-163,613	0,119	-0,004
-96,074	-200,000	0,003	0,041
-95,059	269,220	0,013	0,016
-94,045	253,499	-0,093	0,113
-93,030	-104,994	0,091	0,015
-92,016	800,000	-0,029	-0,058
-91,001	744,081	-0,039	-0,074
-89,986	-83,268	0,075	-0,017
-88,972	21,028	-0,018	-0,011
-87,957	-200,000	-0,008	0,113
-86,943	-87,247	-0,042	0,009
-85,928	155,796	-0,037	-0,036
-84,913	800,000	-0,027	0,059
-83,899	-122,549	-0,165	-0,019
-82,884	-200,000	0,004	0,145
-81,870	252,728	0,008	-0,009
-80,855	-87,476	0,021	0,005
-79,840	-92,699	-0,063	0,012
-78,826	84,939	-0,055	-0,043
-77,811	-1,455	-0,094	0,047
-76,797	-159,132	0,050	-0,002
-75,782	-200,000	-0,016	0,124
-74,767	800,000	0,042	0,087
-73,753	24,956	0,028	-0,016
-72,738	417,549	-0,072	0,110
-71,724	430,469	0,055	-0,084
-70,709	-200,000	0,020	-0,081
-69,694	800,000	0,029	-0,086
-68,680	-6,853	-0,083	-0,040
-67,665	800,000	-0,025	0,077
-66,651	800,000	-0,018	0,053
-65,636	-50,278	-0,085	0,028
-64,622	-70,913	-0,162	0,043
-63,607	-200,000	0,046	-0,158
-62,592	-69,965	0,025	0,007
-61,578	-200,000	0,003	-0,044
-60,563	-126,942	0,057	0,006
-59,549	311,147	0,053	0,070
-58,534	-21,029	-1,636	-0,706
-57,519	409,989	-1,383	-2,083
-56,505	-200,000	-0,548	-4,506
-55,490	313,179	0,985	1,314
-54,476	800,000	4,688	11,088
-53,461	-200,000	19,089	316,802
-52,446	-200,000	739,326	2333,322
-51,432	576,385	1655,005	2874,318
-50,417	78,725	1670,920	1264,009
-49,403	21,552	1543,694	886,770
-48,388	15,425	1466,189	812,465
-47,373	17,934	1456,366	819,109
-46,359	16,738	1446,186	807,616
-45,344	13,669	1441,649	790,356
-44,330	13,614	1439,743	789,015
-43,315	13,620	1438,054	788,087
-42,300	13,648	1436,454	787,314
-41,286	13,611	1435,083	786,354
-40,271	13,564	1433,828	785,411
-39,257	13,581	1432,573	784,770
-38,242	13,689	1431,065	784,429
-37,227	13,656	1429,992	783,654
-36,213	13,688	1428,657	783,043
-35,198	13,616	1427,484	782,028
-34,184	13,718	1426,541	781,965
-33,169	13,581	1425,390	780,652
-32,154	13,716	1423,884	780,436
-31,140	13,656	1422,986	779,626
-30,125	13,666	1421,804	778,994
-29,111	13,682	1420,610	778,385
-28,096	13,633	1419,523	777,527
-27,082	13,588	1418,540	776,745
-26,067	13,549	1417,427	775,925
-25,052	13,590	1416,246	775,440
-24,038	13,563	1415,034	774,619
-23,023	13,602	1414,159	774,289
-22,009	13,536	1413,443	773,557
-20,994	13,556	1412,436	773,071
-19,979	13,539	1411,668	772,541
-18,965	13,472	1410,699	771,666
-17,950	13,495	1409,729	771,213
-16,936	13,556	1408,749	770,929
-15,921	13,506	1407,478	769,968
-14,906	13,511	1406,780	769,582
-13,892	13,515	1405,675	768,965
-12,877	13,456	1405,012	768,294
-11,863	13,502	1403,842	767,841
-10,848	13,496	1403,180	767,422
-9,833	13,436	1402,280	766,617
-8,819	13,424	1401,279	765,982
-7,804	13,436	1400,450	765,558
-6,790	13,391	1399,421	764,755
-5,775	13,447	1398,252	764,345
-4,760	13,373	1397,612	763,619
-3,746	13,380	1396,706	763,127
-2,731	13,345	1395,692	762,384
-1,717	13,333	1395,063	761,951
-0,702	13,380	1392,907	760,960
0,313	17,267	1310,291	733,825
1,327	33,429	704,358	431,849
2,342	51,322	123,381	82,746
3,356	4,720	16,512	8,555
4,371	-6,011	3,289	1,585
5,386	-34,769	0,525	0,202
6,400	-200,000	0,080	0,330
7,415	-122,967	-0,318	-0,036
8,429	209,397	-0,232	-0,257
9,444	73,891	-0,345	-0,255
10,459	-102,007	-0,235	-0,040
11,473	62,059	-0,269	-0,189
12,488	11,891	-0,417	-0,226
13,502	164,025	-0,255	-0,254
14,517	9,817	-0,376	-0,201
15,531	14,384	-0,309	-0,170
16,546	83,345	-0,284	-0,218
17,561	134,684	-0,381	-0,349
18,575	67,067	-0,228	-0,164
19,590	-51,079	-0,376	-0,124
20,604	140,899	-0,250	-0,233
21,619	36,929	-0,480	-0,299
22,634	-19,245	-0,483	-0,211
23,648	-56,530	-0,489	-0,152
24,663	0,975	-0,392	-0,198
25,677	77,658	-0,260	-0,195
26,692	122,416	-0,378	-0,334
27,707	178,663	-0,330	-0,341
28,721	97,886	-0,442	-0,359
29,736	35,915	-0,409	-0,253
30,750	-18,302	-0,478	-0,210
31,765	119,342	-0,371	-0,324
32,780	47,146	-0,398	-0,261
33,794	73,745	-0,351	-0,260
34,809	-58,329	-0,385	-0,117
35,823	228,960	-0,321	-0,370
36,838	81,308	-0,416	-0,317
37,853	1,028	-0,355	-0,179
38,867	70,140	-0,392	-0,285
39,882	101,562	-0,321	-0,263
40,896	-118,082	-0,279	-0,035
41,911	23,370	-0,296	-0,171
42,926	3,878	-0,446	-0,229
43,940	74,333	-0,343	-0,254
44,955	103,244	-0,390	-0,322
45,969	276,555	-0,351	-0,440
46,984	94,707	-0,331	-0,265
47,999	-103,000	-0,216	-0,036
49,013	-76,649	-0,360	-0,088
50,028	-27,748	-0,395	-0,161
51,042	401,366	-0,191	-0,283
52,057	125,309	-0,260	-0,231
53,071	107,898	-0,309	-0,259
54,086	105,964	-0,311	-0,259
55,101	47,655	-0,312	-0,205
56,115	24,599	-0,308	-0,179
57,130	73,720	-0,353	-0,260
58,144	62,888	-0,397	-0,280
59,159	33,635	-0,453	-0,277
60,174	35,186	-0,345	-0,212
61,188	-27,006	-0,464	-0,190
62,203	105,053	-0,196	-0,163
63,217	-131,375	-0,376	-0,035
64,232	205,862	-0,264	-0,289
65,247	-46,951	-0,372	-0,127
66,261	-12,250	-0,388	-0,178
67,276	-0,503	-0,356	-0,177
68,290	-0,364	-0,337	-0,168
69,305	-18,171	-0,257	-0,113
70,320	99,408	-0,248	-0,201
71,334	14,137	-0,424	-0,232
72,349	-67,563	-0,283	-0,077
73,363	107,370	-0,218	-0,182
74,378	-81,422	-0,434	-0,100
75,393	35,802	-0,246	-0,152
76,407	52,875	-0,288	-0,193
77,422	46,486	-0,306	-0,199
78,436	308,953	-0,238	-0,313
79,451	-3,704	-0,239	-0,116
80,466	194,722	-0,278	-0,297
81,480	-9,172	-0,346	-0,162
82,495	9,793	-0,365	-0,194
83,509	119,947	-0,212	-0,185
84,524	393,439	-0,253	-0,371
85,539	50,565	-0,238	-0,158
86,553	18,426	-0,338	-0,189
87,568	-37,182	-0,335	-0,125
88,582	51,388	-0,307	-0,204
89,597	20,582	-0,272	-0,154
90,611	31,730	-0,347	-0,209
91,626	-52,439	-0,332	-0,107
92,641	43,743	-0,287	-0,184
93,655	-95,839	-0,311	-0,058
94,670	64,621	-0,286	-0,202
95,684	48,047	-0,316	-0,207
96,699	80,873	-0,253	-0,191
97,714	98,461	-0,159	-0,129
98,728	11,840	-0,296	-0,159
99,743	38,050	-0,265	-0,165
100,757	-13,009	-0,267	-0,121
101,772	31,516	-0,184	-0,111
102,787	14,705	-0,397	-0,217
103,801	93,261	-0,324	-0,256
104,816	94,958	-0,278	-0,222
105,830	218,138	-0,154	-0,173
106,845	37,586	-0,277	-0,172
107,860	85,410	-0,233	-0,179
108,874	-90,865	-0,335	-0,067
109,889	90,321	-0,273	-0,214
110,903	-78,408	-0,275	-0,066
111,918	62,918	-0,277	-0,194
112,933	-12,454	-0,304	-0,139
113,947	60,693	-0,242	-0,168
114,962	85,095	-0,194	-0,149
115,976	55,840	-0,203	-0,138
116,991	89,491	-0,181	-0,141
118,006	-14,121	-0,352	-0,159
119,020	89,473	-0,213	-0,167
120,035	18,431	-0,097	-0,054
121,049	3,182	-0,141	-0,071
122,064	-47,049	-0,383	-0,130
123,079	34,390	-0,317	-0,193
124,093	-42,319	-0,355	-0,126
125,108	6,209	-0,267	-0,138
126,122	142,076	-0,191	-0,178
127,137	46,386	-0,274	-0,177
128,151	70,402	-0,249	-0,180
129,166	69,742	-0,130	-0,094
130,181	113,294	-0,297	-0,252
131,195	232,522	-0,207	-0,238
132,210	264,724	-0,150	-0,183
133,224	39,937	-0,374	-0,234
134,239	120,006	-0,212	-0,184
135,254	49,391	-0,254	-0,167
136,268	55,161	-0,235	-0,159
137,283	30,004	-0,264	-0,157
138,297	38,030	-0,337	-0,209
139,312	265,604	-0,216	-0,263
140,327	152,800	-0,324	-0,309
141,341	174,390	-0,204	-0,206
142,356	369,348	-0,152	-0,216
143,370	-55,427	-0,249	-0,077
144,385	3,222	-0,297	-0,150
145,400	40,969	-0,353	-0,223
146,414	123,948	-0,289	-0,254
147,429	12,494	-0,304	-0,164
148,443	106,012	-0,199	-0,165
149,458	-89,224	-0,320	-0,065
150,473	46,565	-0,227	-0,147
151,487	-123,648	-0,295	-0,032
152,502	94,955	-0,386	-0,306
153,516	201,327	-0,165	-0,178
154,531	-21,844	-0,209	-0,088
155,546	-35,083	-0,277	-0,105
156,560	-67,807	-0,303	-0,082
157,575	71,180	-0,245	-0,177
158,589	231,736	-0,123	-0,141
159,604	800,000	-0,118	-0,237
160,619	-134,095	-0,281	-0,024
161,633	-103,217	-0,242	-0,039
162,648	190,362	-0,152	-0,160
163,662	117,211	-0,209	-0,179
164,677	54,205	-0,182	-0,122
165,692	42,555	-0,179	-0,114
166,706	39,215	-0,235	-0,147
167,721	-0,412	-0,202	-0,100
168,735	306,073	-0,189	-0,246
169,750	647,055	-0,093	-0,167
170,764	311,134	-0,126	-0,165
171,779	-0,374	-0,148	-0,073
172,794	105,251	-0,286	-0,235
173,808	-59,998	-0,301	-0,089
174,823	87,504	-0,254	-0,196
175,837	440,301	-0,173	-0,264
176,852	56,308	-0,174	-0,118
177,867	-83,159	-0,039	0,009
178,881	10,569	-0,146	-0,077
179,896	101,707	-0,168	-0,136
180,910	199,232	-0,197	-0,211
181,925	34,712	-0,321	-0,195
182,940	271,307	-0,176	-0,216
183,954	332,516	-0,132	-0,178
184,969	-101,600	-0,259	-0,043
185,983	19,164	-0,264	-0,147
186,998	243,517	-0,147	-0,171
188,013	-87,229	-0,201	-0,042
189,027	-88,734	-0,279	-0,057
190,042	207,269	-0,134	-0,146
191,056	-46,938	-0,187	-0,063
192,071	-106,227	-0,217	-0,033
193,086	-159,984	-0,209	-0,008
194,100	-70,408	-0,244	-0,064
195,115	800,000	-0,089	-0,188
196,129	81,189	-0,175	-0,131
197,144	213,144	-0,177	-0,195
198,159	81,856	-0,245	-0,184
199,173	211,442	-0,197	-0,216
200,188	93,827	-0,184	-0,145
201,202	-54,414	-0,137	-0,043
202,217	-50,159	-0,260	-0,085
203,232	-54,890	-0,148	-0,046
204,246	471,953	-0,121	-0,190
205,261	11,264	-0,138	-0,073
206,275	800,000	-0,113	-0,252
207,290	-39,888	-0,239	-0,086
208,304	213,978	-0,076	-0,083
209,319	1,270	-0,188	-0,093
210,334	385,560	-0,085	-0,122
211,348	130,866	-0,126	-0,113
212,363	-68,848	-0,267	-0,071
213,377	35,129	-0,171	-0,104
214,392	111,754	-0,151	-0,126
215,407	301,148	-0,174	-0,224
216,421	223,048	-0,092	-0,103
217,436	59,708	-0,253	-0,173
218,450	258,827	-0,180	-0,215
219,465	79,734	-0,188	-0,140
220,480	216,590	-0,223	-0,247
221,494	283,904	-0,068	-0,085
222,509	266,217	-0,063	-0,076
223,523	466,549	-0,061	-0,095
224,538	195,555	-0,103	-0,108
225,553	-67,885	-0,361	-0,097
226,567	-29,741	-0,183	-0,072
227,582	-35,828	-0,191	-0,071
228,596	-166,934	-0,208	-0,006
229,611	-117,479	-0,230	0,028
230,626	800,000	-0,030	0,059
231,640	64,906	-0,228	-0,159
232,655	247,488	-0,259	-0,304
233,669	398,891	-0,172	-0,250
234,684	-200,000	-0,006	-0,323
235,699	8,718	-0,146	-0,076
236,713	198,871	-0,117	-0,124
237,728	347,726	-0,124	-0,170
238,742	-32,840	-0,257	-0,099
239,757	800,000	-0,065	-0,139
240,772	13,153	-0,287	-0,154
241,786	94,614	-0,173	-0,136
242,801	-150,988	-0,103	0,005
243,815	218,658	-0,178	-0,197
244,830	-120,264	-0,180	0,021
245,844	-6,650	-0,177	-0,083
246,859	61,470	-0,139	-0,096
247,874	24,358	-0,303	-0,173
248,888	95,704	-0,170	-0,134
249,903	-23,228	-0,160	-0,066
250,917	163,434	-0,116	-0,113
251,932	95,457	-0,114	-0,090
252,947	-94,453	-0,152	-0,028
253,961	-80,566	-0,204	-0,047
254,976	-112,920	-0,161	-0,022
255,990	82,189	-0,120	-0,090
257,005	-168,529	-0,164	0,004
258,020	557,993	-0,067	-0,113
259,034	-76,529	-0,087	-0,021
260,049	800,000	-0,046	-0,092
261,063	-93,142	-0,116	0,022
262,078	800,000	-0,063	-0,160
263,093	83,666	-0,120	-0,090
264,107	-36,191	-0,096	-0,036
265,122	21,125	-0,163	-0,091
266,136	-33,706	-0,095	0,036
267,151	-88,911	-0,148	0,030
268,166	-38,867	-0,212	-0,077
269,180	128,464	-0,243	-0,214
270,195	481,170	-0,115	-0,181
271,209	26,228	-0,188	-0,108
272,224	93,124	-0,131	-0,102
273,239	176,585	-0,112	-0,113
274,253	348,478	-0,167	-0,228
275,268	-30,478	-0,192	-0,075
276,282	-23,662	-0,252	-0,104
277,297	68,303	-0,187	-0,132
278,312	-124,665	-0,249	-0,026
279,326	-23,132	-0,108	-0,045
280,341	-56,880	-0,119	0,036
281,355	-96,345	-0,122	-0,022
282,370	65,308	-0,110	-0,077
283,384	68,493	-0,126	-0,089
284,399	-69,470	-0,266	-0,070
285,414	163,596	-0,028	-0,027
286,428	-130,394	-0,156	-0,014
287,443	800,000	-0,036	-0,099
288,457	108,657	-0,113	-0,093
289,472	40,626	-0,231	-0,143
290,487	347,699	-0,183	-0,249
291,501	101,109	-0,251	-0,202
292,516	210,382	-0,204	-0,221
293,530	-129,558	-0,081	0,008
294,545	-67,943	-0,074	-0,020
295,560	-200,000	0,046	-0,175
296,574	-89,082	-0,185	-0,037
297,589	146,799	-0,153	-0,142
298,603	29,060	-0,151	-0,088
299,618	203,626	-0,165	-0,176
300,633	-21,953	-0,209	-0,087
301,647	59,603	-0,173	-0,118
302,662	-110,206	-0,140	-0,020
303,676	800,000	-0,043	-0,086
304,691	-135,075	-0,140	0,011
305,706	3,543	-0,158	-0,079
306,720	800,000	-0,117	-0,257
307,735	442,556	-0,108	-0,163
308,749	58,774	-0,048	0,032
309,764	-81,322	-0,210	-0,047
310,779	67,655	-0,116	-0,081
311,793	158,505	-0,107	-0,103
312,808	518,273	-0,167	-0,271
313,822	800,000	-0,117	-0,325
314,837	-109,920	-0,239	-0,034
315,852	-75,095	-0,192	-0,047
316,866	69,310	-0,153	-0,108
317,881	-200,000	0,020	0,122
318,895	-137,227	-0,224	-0,017
319,910	80,701	-0,118	-0,087
320,925	754,295	-0,127	-0,238
321,939	567,927	-0,145	-0,242
322,954	169,737	-0,096	-0,095
323,968	-180,215	-0,208	0,003
324,983	-40,675	-0,158	-0,056
325,997	-200,000	-0,030	-0,135
327,012	-39,305	-0,224	-0,081
328,027	-53,193	-0,172	-0,054
329,041	109,238	-0,208	-0,171
330,056	314,137	-0,097	-0,126
331,070	267,521	-0,033	-0,039
332,085	-136,928	-0,076	-0,006
333,100	111,626	-0,155	-0,128
334,114	139,416	-0,258	-0,233
335,129	261,617	-0,154	-0,184
336,143	316,742	-0,054	-0,071
337,158	64,511	-0,103	-0,071
338,173	-200,000	-0,015	-0,106
339,187	84,962	-0,101	-0,076
340,202	258,467	-0,039	-0,046
341,216	580,208	-0,124	-0,210
342,231	155,294	-0,109	-0,103
343,246	-29,277	-0,100	-0,039
344,260	85,475	-0,106	-0,080
345,275	800,000	-0,106	-0,209
346,289	-44,446	-0,113	-0,039
347,304	-200,000	-0,026	-0,177
348,319	800,000	-0,071	-0,155
349,333	369,258	-0,163	-0,227
350,348	-34,431	-0,200	-0,075
351,362	-60,089	-0,124	0,036
352,377	-73,071	-0,149	-0,037
353,392	389,106	0,056	-0,079
354,406	-200,000	-0,033	-0,121
355,421	208,886	1315,460	1414,115
356,435	160,744	1476,274	1414,602
