DTS Sentinel unit serial number:	SN410029Multiplexer serial number:	ORYXHardware model number:	OX2-SRSoftware version number:	ORYX F/W v4,00 Oryx Data Collector v3.7.2.0data status	okinstallation	B3 Nyhavnadifferential loss correction	single-endedforward channel	channel 1reverse channel	N/Adate	2023/11/30time	04:17:30forward acquisition time	300,00reverse acquisition time	0,00gamma	499,1914k internal	0,3210k external	0,3210temperature offset calibration	1,0000default loss term (dB/km)	0,3820temperature slope calibration	1,0000multiplexer offset coefficient	1,0000multiplexer slope coefficient	1,0000fibre end	0,00T internal ref (°C)	10,12T ext. ref 1 (°C)	-5,36T ext. ref 2 (°C)	-5,45length (m)	temperature (°C)	Stokes	anti-Stokes-744,400	465,661	-0,183	-0,298
-743,385	800,000	0,098	0,237
-742,371	51,550	-0,293	-0,202
-741,356	-200,000	0,020	0,300
-740,342	254,218	-0,122	-0,152
-739,327	-200,000	-0,023	0,418
-738,312	247,665	-0,261	-0,320
-737,298	270,228	-0,086	0,110
-736,283	800,000	-0,127	-0,267
-735,269	-200,000	-0,040	0,332
-734,254	180,406	-0,138	-0,147
-733,239	42,479	-0,200	0,131
-732,225	608,375	-0,094	-0,171
-731,210	703,504	0,112	0,215
-730,196	-81,767	-0,076	-0,018
-729,181	-27,339	-0,046	-0,019
-728,167	105,478	0,025	0,022
-727,152	125,074	-0,037	0,034
-726,137	-46,133	-0,133	-0,047
-725,123	-200,000	0,001	0,017
-724,108	89,555	-0,093	-0,075
-723,094	-101,724	-0,187	-0,033
-722,079	630,539	0,017	-0,032
-721,064	351,363	-0,020	-0,029
-720,050	15,672	0,023	0,013
-719,035	328,577	0,060	0,084
-718,021	68,190	-0,105	-0,078
-717,006	91,202	-0,068	0,055
-715,991	-156,993	-0,161	-0,007
-714,977	16,271	-0,091	0,052
-713,962	35,027	-0,043	-0,027
-712,948	558,883	0,050	-0,087
-711,933	423,432	-0,067	-0,105
-710,918	-65,571	-0,059	-0,017
-709,904	-127,218	-0,112	-0,012
-708,889	18,229	-0,101	-0,058
-707,875	453,360	-0,018	-0,029
-706,860	-200,000	0,053	-0,180
-705,845	-200,000	-0,029	0,178
-704,831	482,151	0,070	0,115
-703,816	105,469	0,030	-0,025
-702,802	-200,000	-0,007	-0,111
-701,787	353,213	-0,036	-0,052
-700,772	94,445	-0,074	-0,061
-699,758	-200,000	-0,006	-0,125
-698,743	-200,000	-0,002	-0,039
-697,729	-33,909	0,094	-0,037
-696,714	-115,377	0,096	0,013
-695,699	-113,432	-0,143	-0,020
-694,685	98,043	-0,066	-0,055
-693,670	15,154	-0,081	0,046
-692,656	-133,334	0,090	0,008
-691,641	-20,145	0,133	-0,059
-690,627	-87,546	-0,071	0,015
-689,612	46,530	-0,053	0,035
-688,597	637,933	-0,005	0,009
-687,583	616,014	-0,016	0,029
-686,568	-105,352	-0,157	-0,026
-685,554	33,462	-0,030	-0,019
-684,539	51,417	0,110	0,076
-683,524	-41,561	-0,067	-0,025
-682,510	57,999	0,025	-0,018
-681,495	570,478	0,063	0,110
-680,481	-93,448	-0,016	-0,003
-679,466	429,843	-0,103	-0,162
-678,451	-200,000	-0,033	-0,116
-677,437	-200,000	0,008	0,047
-676,422	18,546	-0,058	0,034
-675,408	-200,000	0,009	-0,055
-674,393	264,537	0,038	0,048
-673,378	800,000	-0,041	-0,093
-672,364	160,314	-0,111	-0,112
-671,349	-155,475	0,125	-0,006
-670,335	43,697	0,013	-0,008
-669,320	-6,613	0,068	-0,033
-668,305	206,958	0,114	-0,129
-667,291	-200,000	-0,002	0,027
-666,276	627,988	-0,030	0,054
-665,262	-200,000	-0,026	-0,158
-664,247	413,696	-0,098	-0,151
-663,232	-25,231	-0,062	-0,027
-662,218	-123,407	0,016	-0,002
-661,203	-77,445	-0,036	0,009
-660,189	-200,000	0,002	-0,067
-659,174	723,844	-0,057	-0,110
-658,159	315,620	0,036	-0,049
-657,145	-127,432	-0,119	0,012
-656,130	-69,790	0,026	0,007
-655,116	117,541	-0,112	-0,100
-654,101	86,207	0,087	0,069
-653,086	665,514	0,007	-0,014
-652,072	800,000	-0,028	-0,079
-651,057	-79,578	-0,089	-0,021
-650,043	447,651	0,035	-0,056
-649,028	183,757	0,084	-0,090
-648,014	671,904	0,023	0,043
-646,999	-200,000	0,010	-0,113
-645,984	-126,910	-0,065	-0,007
-644,970	-200,000	-0,014	-0,062
-643,955	-45,346	-0,028	-0,010
-642,941	79,575	-0,116	-0,090
-641,926	-200,000	-0,011	-0,049
-640,911	58,098	0,050	0,035
-639,897	-200,000	0,009	0,092
-638,882	800,000	-0,061	0,147
-637,868	-27,719	-0,152	0,063
-636,853	-200,000	-0,016	-0,102
-635,838	759,072	-0,103	-0,203
-634,824	-87,130	0,064	0,014
-633,809	195,011	-0,055	-0,060
-632,795	-200,000	0,016	0,078
-631,780	-184,631	-0,030	0,000
-630,765	651,450	0,026	-0,049
-629,751	-116,845	0,051	-0,007
-628,736	12,378	-0,075	0,041
-627,722	-33,690	0,123	0,049
-626,707	-133,709	0,113	-0,010
-625,692	65,922	-0,029	0,021
-624,678	-73,282	0,049	0,013
-623,663	-200,000	-0,020	0,099
-622,649	120,808	-0,023	0,021
-621,634	-17,517	-0,053	-0,024
-620,619	800,000	0,042	-0,098
-619,605	-128,187	-0,024	-0,002
-618,590	687,203	0,074	0,141
-617,576	800,000	-0,022	0,065
-616,561	-200,000	0,005	0,065
-615,546	66,619	-0,024	-0,018
-614,532	-200,000	-0,020	-0,069
-613,517	-157,935	-0,080	0,003
-612,503	137,453	0,060	-0,056
-611,488	-200,000	-0,023	0,098
-610,474	-162,381	-0,147	0,005
-609,459	-162,115	-0,088	-0,003
-608,444	85,531	0,080	-0,064
-607,430	-162,593	-0,050	0,002
-606,415	-200,000	-0,005	0,022
-605,401	800,000	0,036	-0,103
-604,386	65,578	-0,067	-0,049
-603,371	-109,901	0,101	0,015
-602,357	102,867	0,053	0,045
-601,342	-158,398	-0,105	-0,004
-600,328	-200,000	0,029	-0,191
-599,313	-122,638	-0,220	0,025
-598,298	-200,000	-0,001	0,008
-597,284	-108,211	-0,071	-0,011
-596,269	-54,443	-0,039	0,013
-595,255	-162,651	-0,052	-0,002
-594,240	704,609	-0,040	-0,077
-593,225	-200,000	0,003	-0,162
-592,211	-113,827	-0,135	-0,019
-591,196	39,208	-0,102	0,066
-590,182	-200,000	0,033	-0,189
-589,167	-143,321	-0,146	0,010
-588,152	-73,774	-0,028	0,007
-587,138	476,313	0,017	-0,027
-586,123	-109,370	-0,096	0,014
-585,109	-200,000	0,000	0,076
-584,094	-107,531	-0,121	0,019
-583,079	-200,000	0,017	0,104
-582,065	18,354	0,217	0,124
-581,050	60,604	0,063	-0,045
-580,036	12,855	0,073	0,041
-579,021	-200,000	0,005	-0,138
-578,006	-200,000	-0,002	-0,090
-576,992	-79,038	-0,037	0,009
-575,977	16,876	0,075	0,042
-574,963	-138,327	0,145	0,011
-573,948	26,316	-0,079	0,047
-572,934	800,000	-0,045	0,114
-571,919	-157,015	-0,082	0,004
-570,904	-146,632	-0,125	0,008
-569,890	-200,000	-0,016	-0,137
-568,875	-7,318	0,065	0,032
-567,861	800,000	-0,064	0,142
-566,846	-18,333	0,019	-0,009
-565,831	231,123	-0,056	-0,066
-564,817	800,000	-0,041	-0,097
-563,802	-114,028	-0,182	0,025
-562,788	-200,000	0,007	-0,053
-561,773	800,000	0,044	-0,093
-560,758	654,670	0,104	-0,194
-559,744	-200,000	0,003	0,040
-558,729	549,260	-0,022	-0,037
-557,715	132,620	-0,043	-0,040
-556,700	800,000	-0,013	0,036
-555,685	800,000	-0,023	-0,051
-554,671	141,292	-0,055	0,053
-553,656	-110,808	0,180	0,026
-552,642	-56,290	0,081	-0,026
-551,627	-187,620	0,186	0,002
-550,612	800,000	-0,018	0,036
-549,598	-47,034	-0,109	0,038
-548,583	679,102	0,016	0,030
-547,569	-11,729	0,046	-0,021
-546,554	-200,000	-0,021	0,107
-545,539	5,102	0,082	0,044
-544,525	13,466	-0,048	0,027
-543,510	51,965	-0,106	-0,072
-542,496	43,528	-0,098	0,064
-541,481	-139,500	-0,178	0,013
-540,466	-200,000	0,014	0,152
-539,452	-93,251	0,054	0,011
-538,437	-200,000	0,040	0,176
-537,423	-43,922	0,117	-0,042
-536,408	-200,000	-0,009	-0,095
-535,393	82,305	-0,001	0,001
-534,379	561,126	-0,097	-0,170
-533,364	116,485	-0,043	0,038
-532,350	-200,000	-0,003	0,117
-531,335	800,000	0,029	0,062
-530,321	181,076	0,086	0,091
-529,306	-96,824	-0,166	0,031
-528,291	-200,000	-0,002	0,060
-527,277	426,389	0,025	-0,039
-526,262	42,012	-0,047	-0,031
-525,248	207,430	-0,068	0,076
-524,233	158,420	0,045	0,045
-523,218	-200,000	-0,017	0,066
-522,204	-200,000	0,029	-0,151
-521,189	-23,793	-0,097	0,042
-520,175	-200,000	0,018	-0,083
-519,160	143,942	-0,101	0,097
-518,145	-200,000	0,062	-0,210
-517,131	468,960	-0,067	0,108
-516,116	-102,455	-0,052	-0,009
-515,102	84,236	0,075	-0,059
-514,087	800,000	-0,038	0,077
-513,072	800,000	-0,060	-0,135
-512,058	-200,000	-0,006	-0,157
-511,043	800,000	0,058	0,142
-510,029	800,000	0,012	-0,026
-509,014	283,764	-0,033	-0,042
-507,999	-200,000	0,003	0,035
-506,985	800,000	-0,038	-0,086
-505,970	689,328	-0,024	0,046
-504,956	220,105	0,062	-0,072
-503,941	69,909	-0,048	-0,036
-502,926	132,113	-0,013	0,012
-501,912	2,605	0,057	-0,029
-500,897	12,136	0,134	0,074
-499,883	-169,874	-0,110	-0,003
-498,868	800,000	0,013	-0,026
-497,853	-200,000	-0,009	0,096
-496,839	-124,626	0,041	-0,005
-495,824	800,000	-0,012	-0,028
-494,810	-50,593	0,125	-0,042
-493,795	-200,000	0,001	-0,074
-492,781	-200,000	-0,028	-0,125
-491,766	-81,357	-0,067	0,016
-490,751	800,000	-0,022	0,056
-489,737	656,461	-0,050	0,093
-488,722	800,000	0,018	0,043
-487,708	800,000	0,043	-0,127
-486,693	-36,887	-0,066	-0,025
-485,678	143,353	0,009	0,009
-484,664	384,140	0,078	-0,115
-483,649	335,972	0,055	-0,076
-482,635	-169,013	0,107	-0,003
-481,620	800,000	-0,074	0,197
-480,605	-200,000	0,018	-0,161
-479,591	-19,112	-0,095	-0,042
-478,576	-81,374	0,112	0,026
-477,562	-59,955	-0,049	-0,015
-476,547	-112,947	-0,138	-0,019
-475,532	-200,000	0,005	-0,044
-474,518	-200,000	-0,014	0,177
-473,503	392,949	0,080	-0,120
-472,489	800,000	0,038	0,095
-471,474	-200,000	0,018	0,089
-470,459	-88,301	-0,101	-0,021
-469,445	16,838	-0,071	-0,040
-468,430	-200,000	0,007	-0,114
-467,416	-200,000	0,010	-0,039
-466,401	125,034	0,097	0,087
-465,386	156,599	-0,062	0,062
-464,372	-3,691	0,045	-0,022
-463,357	-189,386	0,090	-0,001
-462,343	-79,540	-0,102	-0,024
-461,328	760,983	-0,018	-0,035
-460,313	108,446	0,075	0,064
-459,299	487,106	0,046	-0,076
-458,284	-85,976	0,024	0,005
-457,270	-107,978	-0,100	0,015
-456,255	-36,545	-0,102	0,039
-455,241	-72,023	-0,091	0,024
-454,226	-12,868	0,085	-0,039
-453,211	-200,000	0,020	0,071
-452,197	135,348	0,051	-0,048
-451,182	-140,546	-0,029	-0,002
-450,168	-64,272	0,066	-0,019
-449,153	263,835	0,014	0,018
-448,138	800,000	0,023	-0,065
-447,124	-118,378	-0,213	-0,027
-446,109	163,082	0,072	0,073
-445,095	-200,000	-0,014	-0,098
-444,080	92,743	0,039	0,032
-443,065	800,000	0,074	0,175
-442,051	-200,000	-0,017	0,127
-441,036	79,390	-0,027	-0,020
-440,022	34,675	-0,083	-0,052
-439,007	271,737	0,041	-0,052
-437,992	-36,010	0,115	0,044
-436,978	113,808	0,043	0,038
-435,963	-142,131	0,111	-0,008
-434,949	-200,000	-0,002	-0,014
-433,934	757,100	-0,037	-0,072
-432,919	16,972	-0,079	0,045
-431,905	34,392	0,133	0,083
-430,890	-20,056	0,229	0,101
-429,876	-157,345	-0,028	-0,001
-428,861	-22,787	-0,075	-0,032
-427,846	800,000	-0,007	0,016
-426,832	-200,000	0,015	-0,066
-425,817	157,978	-0,120	0,119
-424,803	28,202	0,036	-0,022
-423,788	800,000	0,034	0,072
-422,773	-200,000	0,021	-0,142
-421,759	14,858	0,103	-0,058
-420,744	266,613	0,052	0,066
-419,730	734,901	0,001	-0,001
-418,715	638,581	-0,030	0,056
-417,701	-140,910	-0,119	-0,009
-416,686	-200,000	0,017	0,120
-415,671	-200,000	0,009	-0,047
-414,657	25,125	0,047	0,028
-413,642	-36,045	0,132	0,051
-412,628	-200,000	-0,020	-0,116
-411,613	-5,825	0,199	-0,097
-410,598	-4,076	0,011	-0,005
-409,584	-60,963	-0,145	-0,044
-408,569	-49,813	0,111	-0,038
-407,555	-19,162	0,139	-0,062
-406,540	800,000	0,003	-0,011
-405,525	335,085	-0,092	-0,128
-404,511	-200,000	-0,037	-0,139
-403,496	208,179	-0,074	-0,082
-402,482	-200,000	0,024	0,131
-401,467	278,920	0,030	0,038
-400,452	-200,000	0,018	0,103
-399,438	18,592	-0,094	0,054
-398,423	86,995	0,054	0,043
-397,409	144,127	-0,116	0,110
-396,394	-200,000	-0,011	-0,123
-395,379	-137,173	0,106	0,009
-394,365	-130,828	0,210	-0,020
-393,350	800,000	-0,027	0,058
-392,336	547,468	0,058	0,100
-391,321	-70,186	-0,052	0,014
-390,306	-200,000	-0,019	-0,103
-389,292	290,301	-0,052	-0,067
-388,277	64,671	-0,054	-0,039
-387,263	-200,000	-0,037	0,136
-386,248	370,832	0,084	0,122
-385,233	-55,610	0,088	-0,028
-384,219	172,371	0,009	0,009
-383,204	800,000	0,055	-0,164
-382,190	800,000	0,043	-0,134
-381,175	-112,988	0,209	-0,029
-380,160	109,630	0,109	0,093
-379,146	99,050	0,120	0,099
-378,131	-200,000	0,029	0,149
-377,117	-200,000	-0,019	0,091
-376,102	-200,000	-0,008	0,049
-375,088	132,981	0,040	-0,037
-374,073	800,000	0,033	-0,066
-373,058	-65,311	0,119	0,034
-372,044	383,520	0,108	0,160
-371,029	727,482	0,073	0,139
-370,015	-200,000	-0,039	0,153
-369,000	487,541	-0,053	0,086
-367,985	46,567	-0,110	-0,073
-366,971	-200,000	-0,006	0,043
-365,956	30,696	-0,047	0,029
-364,942	-128,425	0,102	0,010
-363,927	-200,000	-0,013	0,121
-362,912	-200,000	-0,007	0,052
-361,898	-73,982	-0,072	0,019
-360,883	32,690	-0,065	-0,040
-359,869	800,000	-0,022	-0,050
-358,854	-28,161	0,110	0,045
-357,839	4,394	0,031	-0,016
-356,825	-6,699	-0,067	0,032
-355,810	668,949	0,058	0,108
-354,796	-114,920	-0,085	-0,011
-353,781	127,890	0,024	-0,021
-352,766	-85,306	-0,061	0,013
-351,752	-200,000	0,011	-0,087
-350,737	-200,000	-0,003	0,090
-349,723	-200,000	-0,016	0,160
-348,708	-200,000	0,020	-0,095
-347,693	507,946	0,034	-0,056
-346,679	95,205	-0,023	-0,019
-345,664	-72,585	0,097	0,025
-344,650	77,086	0,108	0,082
-343,635	-200,000	-0,002	0,053
-342,620	129,853	-0,070	-0,064
-341,606	-164,353	-0,080	-0,003
-340,591	-140,499	0,086	0,006
-339,577	-58,525	0,093	-0,028
-338,562	17,856	-0,155	-0,088
-337,548	239,561	0,096	0,114
-336,533	-200,000	-0,004	-0,052
-335,518	231,892	-0,096	-0,113
-334,504	30,750	-0,065	0,040
-333,489	-200,000	-0,022	0,074
-332,475	540,854	-0,077	-0,131
-331,460	369,886	0,094	-0,136
-330,445	-41,767	-0,093	-0,034
-329,431	82,715	0,069	-0,053
-328,416	-200,000	0,023	-0,097
-327,402	790,046	-0,029	0,058
-326,387	-200,000	0,003	0,038
-325,372	156,442	0,089	-0,088
-324,358	-87,663	0,056	0,012
-323,343	-200,000	0,050	-0,171
-322,329	-200,000	0,012	-0,041
-321,314	-120,284	0,077	-0,009
-320,299	800,000	-0,053	-0,127
-319,285	-116,009	0,135	-0,018
-318,270	-10,984	-0,093	0,044
-317,256	-200,000	0,020	-0,082
-316,241	-200,000	0,011	-0,074
-315,226	58,180	0,070	-0,049
-314,212	26,596	-0,075	0,045
-313,197	-50,159	0,073	-0,024
-312,183	228,733	0,067	0,078
-311,168	-129,108	0,148	0,015
-310,153	152,912	-0,102	-0,100
-309,139	800,000	0,022	-0,061
-308,124	-33,104	0,107	-0,042
-307,110	223,467	0,051	-0,059
-306,095	-102,636	-0,116	0,020
-305,080	800,000	-0,078	-0,166
-304,066	-56,082	-0,210	-0,066
-303,051	800,000	0,019	-0,046
-302,037	203,791	0,079	0,088
-301,022	-132,905	0,028	0,003
-300,008	-64,112	0,065	-0,019
-298,993	-17,787	-0,084	-0,037
-297,978	316,876	-0,098	0,132
-296,964	-200,000	-0,020	0,068
-295,949	-200,000	0,018	-0,188
-294,935	-9,167	-0,123	-0,059
-293,920	-200,000	0,006	-0,099
-292,905	800,000	0,027	-0,057
-291,891	-67,413	0,069	0,019
-290,876	-200,000	0,012	0,146
-289,862	257,407	-0,091	-0,112
-288,847	-200,000	0,017	-0,076
-287,832	13,104	-0,133	-0,073
-286,818	55,529	-0,064	0,044
-285,803	39,611	0,043	-0,027
-284,789	270,275	0,014	0,018
-283,774	-32,802	0,155	0,061
-282,759	-200,000	-0,009	-0,050
-281,745	-200,000	-0,000	-0,014
-280,730	-200,000	-0,001	0,009
-279,716	-200,000	-0,006	-0,026
-278,701	307,985	0,115	0,153
-277,686	-69,198	0,043	0,012
-276,672	409,502	0,036	0,055
-275,657	-200,000	0,014	0,151
-274,643	108,413	-0,103	0,088
-273,628	-200,000	0,005	-0,073
-272,613	234,068	0,040	-0,047
-271,599	-200,000	-0,054	0,183
-270,584	-200,000	-0,018	0,140
-269,570	276,285	0,077	0,097
-268,555	299,598	-0,033	0,044
-267,540	635,708	-0,063	-0,115
-266,526	-27,060	0,096	-0,040
-265,511	162,116	-0,074	-0,074
-264,497	800,000	-0,006	-0,018
-263,482	441,803	0,049	-0,077
-262,467	-200,000	-0,001	0,041
-261,453	64,681	0,076	0,055
-260,438	-200,000	-0,015	-0,064
-259,424	-106,063	-0,207	-0,033
-258,409	274,349	0,094	-0,119
-257,395	253,677	0,114	-0,138
-256,380	-73,554	-0,007	-0,002
-255,365	-200,000	-0,007	0,067
-254,351	-53,138	-0,182	0,059
-253,336	800,000	-0,016	0,039
-252,322	-165,741	-0,050	-0,001
-251,307	-59,759	0,093	0,028
-250,292	-121,820	-0,136	-0,016
-249,278	800,000	0,024	0,062
-248,263	-200,000	-0,030	0,118
-247,249	800,000	0,026	0,053
-246,234	-90,971	0,032	0,006
-245,219	-11,481	-0,115	0,054
-244,205	800,000	-0,027	-0,062
-243,190	12,126	-0,101	-0,055
-242,176	34,449	0,012	0,007
-241,161	-200,000	-0,001	0,152
-240,146	86,625	0,045	0,035
-239,132	-14,662	0,039	-0,018
-238,117	-200,000	0,034	-0,158
-237,103	-26,867	0,028	-0,012
-236,088	-172,059	-0,049	0,001
-235,073	31,322	0,054	0,033
-234,059	-20,012	0,100	0,044
-233,044	7,031	0,048	-0,025
-232,030	-200,000	-0,007	0,128
-231,015	-200,000	-0,018	-0,074
-230,000	19,788	-0,152	0,087
-228,986	-200,000	-0,004	0,035
-227,971	283,457	0,040	0,051
-226,957	-20,235	-0,065	0,028
-225,942	800,000	0,048	0,099
-224,927	461,000	-0,079	-0,126
-223,913	-200,000	-0,002	-0,087
-222,898	-46,124	-0,085	0,030
-221,884	-200,000	-0,007	-0,028
-220,869	203,318	-0,071	0,078
-219,855	109,447	0,103	0,087
-218,840	52,068	-0,033	0,022
-217,825	-12,392	-0,100	0,046
-216,811	223,637	0,056	0,065
-215,796	176,144	-0,039	-0,040
-214,782	-85,521	-0,071	0,016
-213,767	800,000	0,045	0,097
-212,752	800,000	0,061	0,131
-211,738	96,732	0,154	0,125
-210,723	800,000	0,015	0,033
-209,709	237,868	-0,068	0,080
-208,694	-200,000	0,007	0,075
-207,679	506,014	0,036	-0,060
-206,665	-200,000	-0,004	0,059
-205,650	253,224	0,057	0,069
-204,636	-200,000	0,020	0,080
-203,621	-73,911	0,082	0,021
-202,606	421,772	0,068	-0,104
-201,592	800,000	-0,008	-0,016
-200,577	26,125	0,047	-0,028
-199,563	800,000	0,049	-0,124
-198,548	353,305	0,042	0,059
-197,533	-28,146	0,013	0,005
-196,519	800,000	0,017	-0,052
-195,504	10,238	-0,103	0,055
-194,490	317,904	0,048	-0,065
-193,475	-200,000	-0,014	0,051
-192,460	-7,565	-0,053	0,025
-191,446	800,000	0,028	0,075
-190,431	227,549	0,102	0,118
-189,417	800,000	-0,022	-0,049
-188,402	43,354	-0,143	0,093
-187,387	-200,000	-0,011	-0,106
-186,373	-25,010	-0,034	-0,014
-185,358	246,776	-0,103	-0,124
-184,344	-0,023	-0,069	0,035
-183,329	57,767	0,057	0,040
-182,315	-137,375	0,044	-0,003
-181,300	-33,031	0,086	0,033
-180,285	-129,479	0,042	-0,004
-179,271	62,888	-0,080	-0,057
-178,256	255,686	0,083	-0,101
-177,242	-23,695	0,052	-0,022
-176,227	203,787	-0,043	0,047
-175,212	-200,000	-0,006	-0,026
-174,198	35,668	-0,144	-0,090
-173,183	-64,455	-0,033	-0,010
-172,169	171,787	0,117	-0,119
-171,154	5,480	0,108	-0,056
-170,139	-93,896	-0,053	0,010
-169,125	-150,191	0,078	-0,004
-168,110	-200,000	-0,023	0,081
-167,096	-200,000	-0,016	0,055
-166,081	753,338	-0,064	0,123
-165,066	398,752	0,118	-0,175
-164,052	-70,603	-0,045	-0,012
-163,037	-88,001	-0,035	-0,007
-162,023	26,260	-0,056	-0,033
-161,008	800,000	-0,021	0,050
-159,993	749,335	0,046	0,088
-158,979	264,565	-0,106	-0,131
-157,964	-200,000	0,031	-0,120
-156,950	17,627	-0,032	-0,018
-155,935	42,910	0,057	0,037
-154,920	-30,863	0,061	0,024
-153,906	411,473	0,010	0,015
-152,891	-200,000	-0,023	-0,085
-151,877	191,125	-0,070	0,075
-150,862	37,710	-0,103	-0,065
-149,847	485,121	-0,051	-0,082
-148,833	800,000	-0,010	0,026
-147,818	-21,688	0,039	-0,017
-146,804	14,649	0,067	-0,037
-145,789	800,000	0,033	0,085
-144,775	3,829	-0,106	0,055
-143,760	-200,000	0,019	-0,091
-142,745	-200,000	0,008	-0,096
-141,731	214,399	0,056	0,063
-140,716	314,144	0,079	0,105
-139,702	-200,000	-0,018	0,104
-138,687	99,927	0,109	0,089
-137,672	81,011	0,062	0,047
-136,658	-200,000	-0,002	0,050
-135,643	-200,000	0,006	0,042
-134,629	-10,735	-0,048	0,022
-133,614	14,347	-0,114	0,063
-132,599	-200,000	0,033	0,188
-131,585	-103,750	-0,144	-0,024
-130,570	61,105	0,036	0,026
-129,556	-14,974	-0,074	-0,033
-128,541	279,952	0,074	-0,094
-127,526	-118,148	-0,097	0,012
-126,512	-28,204	0,075	0,031
-125,497	-200,000	-0,007	0,043
-124,483	800,000	0,065	0,157
-123,468	345,649	-0,057	-0,080
-122,453	800,000	0,069	0,136
-121,439	-200,000	-0,013	-0,112
-120,424	519,947	-0,061	-0,102
-119,410	157,847	0,074	0,072
-118,395	402,395	0,050	0,074
-117,380	265,575	0,074	0,091
-116,366	590,499	-0,023	0,040
-115,351	134,585	0,051	-0,047
-114,337	-200,000	-0,003	0,035
-113,322	17,335	-0,076	0,043
-112,307	-127,115	0,142	0,014
-111,293	-70,077	0,072	0,019
-110,278	97,572	0,034	0,027
-109,264	-99,641	-0,068	-0,012
-108,249	326,328	-0,020	0,027
-107,234	0,847	-0,167	-0,085
-106,220	-200,000	-0,021	-0,068
-105,205	-107,097	-0,116	0,018
-104,191	314,807	0,044	0,059
-103,176	-45,901	0,219	0,076
-102,162	-149,252	-0,101	0,006
-101,147	800,000	0,003	0,008
-100,132	-74,766	-0,039	-0,010
-99,118	-116,793	-0,109	-0,014
-98,103	800,000	-0,026	0,055
-97,089	-200,000	0,017	0,130
-96,074	83,911	-0,096	0,074
-95,059	120,543	0,108	0,095
-94,045	-137,135	-0,079	-0,006
-93,030	124,539	-0,080	-0,072
-92,016	-200,000	-0,001	0,042
-91,001	800,000	-0,034	-0,069
-89,986	-200,000	0,007	-0,022
-88,972	-200,000	0,038	0,210
-87,957	79,312	-0,053	0,040
-86,943	5,738	0,113	0,059
-85,928	-95,576	0,122	-0,023
-84,913	-200,000	0,001	0,077
-83,899	272,245	-0,074	-0,092
-82,884	255,040	0,061	0,073
-81,870	62,514	0,069	0,049
-80,855	800,000	0,020	0,045
-79,840	-200,000	0,013	0,058
-78,826	-200,000	-0,009	0,103
-77,811	-200,000	-0,004	0,024
-76,797	189,493	-0,017	0,018
-75,782	80,859	-0,066	0,050
-74,767	122,288	0,114	-0,101
-73,753	800,000	0,054	0,151
-72,738	-70,596	-0,145	-0,038
-71,724	379,038	-0,128	0,186
-70,709	800,000	-0,019	-0,049
-69,694	137,292	0,049	0,046
-68,680	68,869	0,058	-0,042
-67,665	-20,713	0,093	-0,040
-66,651	800,000	-0,032	-0,066
-65,636	-11,750	0,095	-0,044
-64,622	-200,000	-0,023	0,127
-63,607	-200,000	0,015	0,107
-62,592	800,000	0,018	-0,045
-61,578	227,934	-0,135	-0,155
-60,563	129,069	0,142	-0,128
-59,549	800,000	-0,032	0,091
-58,534	23,745	-2,018	-1,171
-57,519	299,385	-1,434	-1,869
-56,505	-200,000	-0,238	-4,361
-55,490	606,692	0,902	1,595
-54,476	800,000	4,962	11,245
-53,461	-200,000	21,308	340,858
-52,446	800,000	760,093	2361,061
-51,432	560,222	1662,574	2846,348
-50,417	73,517	1661,618	1226,852
-49,403	18,016	1534,944	861,249
-48,388	11,984	1458,452	789,151
-47,373	19,401	1449,644	819,954
-46,359	15,358	1439,197	794,776
-45,344	10,226	1434,566	767,749
-44,330	10,163	1433,042	766,604
-43,315	10,156	1431,036	765,469
-42,300	10,199	1429,075	764,594
-41,286	10,227	1428,123	764,185
-40,271	10,174	1426,589	763,085
-39,257	10,152	1425,593	762,414
-38,242	10,217	1424,533	762,128
-37,227	10,206	1423,389	761,433
-36,213	10,220	1422,206	760,837
-35,198	10,210	1420,958	760,090
-34,184	10,208	1420,126	759,606
-33,169	10,190	1418,501	758,622
-32,154	10,185	1417,746	758,165
-31,140	10,170	1416,539	757,416
-30,125	10,235	1415,241	757,000
-29,111	10,187	1414,441	756,314
-28,096	10,210	1412,971	755,609
-27,082	10,137	1411,764	754,591
-26,067	10,193	1410,689	754,248
-25,052	10,164	1409,770	753,588
-24,038	10,205	1408,682	753,169
-23,023	10,206	1407,657	752,595
-22,009	10,150	1406,768	751,830
-20,994	10,153	1405,763	751,278
-19,979	10,141	1404,851	750,703
-18,965	10,114	1403,918	750,047
-17,950	10,123	1402,937	749,539
-16,936	10,066	1402,328	748,919
-15,921	10,067	1401,201	748,289
-14,906	10,021	1400,543	747,694
-13,892	10,127	1399,141	747,409
-12,877	10,143	1398,337	747,024
-11,863	10,087	1397,460	746,268
-10,848	10,006	1396,881	745,550
-9,833	10,002	1395,935	745,000
-8,819	9,965	1395,176	744,394
-7,804	9,961	1394,191	743,818
-6,790	10,007	1393,093	743,414
-5,775	9,970	1392,107	742,691
-4,760	9,999	1390,993	742,198
-3,746	9,967	1390,024	741,505
-2,731	9,970	1389,280	741,092
-1,717	9,947	1388,564	740,573
-0,702	9,966	1386,598	739,584
0,313	14,053	1299,439	711,780
1,327	30,450	689,943	415,081
2,342	47,312	119,451	78,351
3,356	0,189	16,492	8,269
4,371	22,220	3,467	1,992
5,386	-21,411	1,149	0,492
6,400	-200,000	0,117	0,513
7,415	-153,498	-0,195	-0,009
8,429	-10,843	-0,330	-0,153
9,444	13,623	-0,348	-0,190
10,459	57,296	-0,298	-0,204
11,473	178,094	-0,305	-0,314
12,488	-90,869	-0,186	-0,037
13,502	24,235	-0,433	-0,251
14,517	3,249	-0,345	-0,176
15,531	-104,800	-0,353	-0,057
16,546	50,829	-0,268	-0,179
17,561	-7,324	-0,408	-0,194
18,575	-175,501	-0,225	0,004
19,590	95,609	-0,211	-0,169
20,604	131,975	-0,163	-0,148
21,619	-1,141	-0,360	-0,179
22,634	182,770	-0,455	-0,473
23,648	68,456	-0,495	-0,357
24,663	99,665	-0,317	-0,258
25,677	272,308	-0,202	-0,252
26,692	29,129	-0,287	-0,171
27,707	83,669	-0,347	-0,266
28,721	37,793	-0,390	-0,243
29,736	10,631	-0,513	-0,275
30,750	126,771	-0,380	-0,338
31,765	88,407	-0,406	-0,317
32,780	406,460	-0,184	-0,274
33,794	206,805	-0,367	-0,403
34,809	62,051	-0,376	-0,263
35,823	75,840	-0,277	-0,206
36,838	123,000	-0,411	-0,362
37,853	39,345	-0,350	-0,220
38,867	231,694	-0,349	-0,403
39,882	402,304	-0,232	-0,344
40,896	-29,290	-0,394	-0,158
41,911	29,260	-0,310	-0,184
42,926	81,254	-0,276	-0,209
43,940	274,055	-0,337	-0,420
44,955	306,489	-0,259	-0,340
45,969	42,079	-0,308	-0,196
46,984	153,418	-0,292	-0,282
47,999	124,507	-0,334	-0,295
49,013	130,408	-0,250	-0,225
50,028	44,574	-0,397	-0,256
51,042	92,206	-0,360	-0,285
52,057	176,714	-0,313	-0,320
53,071	158,673	-0,368	-0,359
54,086	26,062	-0,307	-0,179
55,101	143,878	-0,138	-0,129
56,115	170,541	-0,366	-0,368
57,130	14,820	-0,412	-0,225
58,144	60,188	-0,194	-0,134
59,159	38,936	-0,362	-0,226
60,174	144,968	-0,282	-0,265
61,188	76,165	-0,287	-0,213
62,203	-126,032	-0,458	-0,048
63,217	15,345	-0,320	-0,176
64,232	-29,265	-0,392	-0,157
65,247	272,101	-0,217	-0,269
66,261	284,659	-0,273	-0,345
67,276	65,660	-0,325	-0,230
68,290	2,926	-0,385	-0,196
69,305	37,473	-0,369	-0,229
70,320	-73,853	-0,338	-0,085
71,334	144,850	-0,282	-0,264
72,349	75,740	-0,278	-0,205
73,363	-48,736	-0,272	-0,091
74,378	29,816	-0,287	-0,171
75,393	9,446	-0,334	-0,177
76,407	4,056	-0,169	-0,086
77,422	77,596	-0,272	-0,203
78,436	-83,970	-0,445	-0,098
79,451	40,764	-0,249	-0,157
80,466	328,747	-0,241	-0,325
81,480	61,705	-0,361	-0,252
82,495	93,910	-0,277	-0,220
83,509	50,481	-0,295	-0,195
84,524	130,616	-0,179	-0,160
85,539	612,890	-0,144	-0,254
86,553	10,704	-0,257	-0,137
87,568	248,686	-0,250	-0,297
88,582	29,735	-0,298	-0,177
89,597	91,241	-0,120	-0,094
90,611	-1,683	-0,250	-0,123
91,626	-24,885	-0,198	-0,082
92,641	-27,191	-0,384	-0,156
93,655	215,637	-0,275	-0,306
94,670	12,009	-0,292	-0,157
95,684	191,496	-0,252	-0,265
96,699	59,493	-0,262	-0,180
97,714	302,027	-0,254	-0,329
98,728	125,941	-0,295	-0,260
99,743	35,347	-0,259	-0,159
100,757	251,345	-0,179	-0,213
101,772	69,046	-0,205	-0,147
102,787	190,702	-0,193	-0,203
103,801	121,809	-0,202	-0,176
104,816	428,207	-0,152	-0,230
105,830	5,541	-0,272	-0,140
106,845	56,072	-0,308	-0,209
107,860	69,625	-0,271	-0,195
108,874	514,326	-0,195	-0,320
109,889	134,784	-0,167	-0,152
110,903	295,545	-0,229	-0,293
111,918	174,185	-0,234	-0,236
112,933	350,625	-0,154	-0,214
113,947	-21,872	-0,240	-0,102
114,962	112,701	-0,181	-0,153
115,976	-184,538	-0,265	-0,003
116,991	-31,840	-0,195	-0,076
118,006	61,595	-0,277	-0,192
119,020	-75,896	-0,161	-0,039
120,035	11,606	-0,283	-0,151
121,049	108,902	-0,228	-0,190
122,064	10,383	-0,228	-0,121
123,079	195,551	-0,215	-0,228
124,093	65,145	-0,344	-0,243
125,108	180,484	-0,259	-0,265
126,122	-23,404	-0,356	-0,148
127,137	51,807	-0,176	-0,117
128,151	204,046	-0,167	-0,181
129,166	10,638	-0,192	-0,102
130,181	181,803	-0,272	-0,280
131,195	250,690	-0,275	-0,326
132,210	55,384	-0,331	-0,223
133,224	-76,984	-0,110	-0,027
134,239	73,730	-0,162	-0,119
135,254	800,000	-0,147	-0,288
136,268	-19,149	-0,271	-0,117
137,283	-15,387	-0,331	-0,147
138,297	-35,941	-0,315	-0,118
139,312	21,638	-0,256	-0,145
140,327	489,451	-0,163	-0,261
141,341	277,011	-0,132	-0,164
142,356	-91,918	-0,290	-0,057
143,370	24,029	-0,152	-0,087
144,385	800,000	-0,129	-0,300
145,400	800,000	-0,114	-0,243
146,414	222,703	-0,202	-0,226
147,429	53,871	-0,287	-0,192
148,443	-29,466	-0,256	-0,101
149,458	611,918	-0,142	-0,249
150,473	177,584	-0,206	-0,209
151,487	204,203	-0,233	-0,251
152,502	77,421	-0,336	-0,248
153,516	-30,580	-0,369	-0,145
154,531	129,434	-0,159	-0,141
155,546	148,367	-0,222	-0,209
156,560	181,013	-0,235	-0,240
157,575	57,442	-0,152	-0,103
158,589	380,397	-0,159	-0,227
159,604	252,426	-0,226	-0,268
160,619	378,183	-0,211	-0,301
161,633	145,515	-0,289	-0,270
162,648	108,019	-0,196	-0,162
163,662	34,441	-0,196	-0,119
164,677	140,263	-0,252	-0,231
165,692	72,086	-0,329	-0,238
166,706	210,576	-0,204	-0,224
167,721	-42,401	-0,246	-0,087
168,735	121,115	-0,156	-0,135
169,750	60,088	-0,280	-0,192
170,764	32,335	-0,202	-0,121
171,779	-32,108	-0,254	-0,098
172,794	15,347	-0,198	-0,108
173,808	24,937	-0,240	-0,138
174,823	193,995	-0,203	-0,214
175,837	99,624	-0,240	-0,193
176,852	277,784	-0,184	-0,228
177,867	258,325	-0,194	-0,232
178,881	-23,452	-0,158	-0,066
179,896	26,457	-0,224	-0,130
180,910	14,217	-0,280	-0,151
181,925	112,401	-0,102	-0,086
182,940	129,292	-0,197	-0,175
183,954	-88,706	-0,258	-0,053
184,969	-84,587	-0,306	-0,066
185,983	293,268	-0,271	-0,344
186,998	46,549	-0,211	-0,136
188,013	15,227	-0,233	-0,127
189,027	18,736	-0,262	-0,145
190,042	26,986	-0,193	-0,112
191,056	190,506	-0,248	-0,259
192,071	800,000	-0,085	-0,169
193,086	84,763	-0,187	-0,142
194,100	96,041	-0,203	-0,161
195,115	800,000	-0,130	-0,250
196,129	261,151	-0,213	-0,256
197,144	21,257	-0,267	-0,150
198,159	288,725	-0,190	-0,239
199,173	800,000	-0,064	-0,151
200,188	-5,094	-0,217	-0,103
201,202	108,328	-0,140	-0,116
202,217	-22,600	-0,295	-0,123
203,232	149,479	-0,167	-0,157
204,246	-14,457	-0,059	0,026
205,261	540,353	-0,132	-0,218
206,275	211,805	-0,193	-0,210
207,290	47,816	-0,145	-0,094
208,304	4,337	-0,163	-0,082
209,319	-129,848	-0,280	-0,026
210,334	202,206	-0,228	-0,244
211,348	-58,428	-0,242	-0,072
212,363	-74,487	-0,360	-0,089
213,377	-200,000	-0,015	-0,149
214,392	183,420	-0,143	-0,147
215,407	-9,765	-0,150	-0,069
216,421	187,176	-0,244	-0,252
217,436	75,738	-0,211	-0,154
218,450	113,640	-0,200	-0,168
219,465	-14,229	-0,229	-0,102
220,480	101,628	-0,135	0,109
221,494	-5,509	-0,215	-0,102
222,509	203,849	0,032	-0,035
223,523	-66,161	-0,300	-0,082
224,538	-101,085	-0,207	0,035
225,553	327,169	-0,143	-0,191
226,567	-13,006	-0,293	-0,131
227,582	-0,839	-0,224	-0,109
228,596	800,000	-0,040	-0,093
229,611	-23,323	-0,221	-0,091
230,626	-200,000	-0,044	-0,146
231,640	131,138	-0,187	-0,166
232,655	86,865	-0,230	-0,176
233,669	800,000	-0,149	-0,347
234,684	800,000	-0,118	-0,283
235,699	46,186	-0,197	-0,126
236,713	527,786	-0,139	-0,227
237,728	-74,310	-0,262	-0,065
238,742	800,000	-0,109	-0,261
239,757	668,381	-0,145	-0,260
240,772	800,000	-0,087	-0,175
241,786	-31,835	-0,260	-0,100
242,801	19,380	-0,167	-0,092
243,815	10,528	-0,072	-0,038
244,830	-147,664	-0,200	-0,011
245,844	102,286	-0,148	-0,119
246,859	139,099	-0,169	-0,154
247,874	32,337	-0,160	-0,095
248,888	67,977	-0,167	-0,118
249,903	5,493	-0,140	-0,071
250,917	39,520	-0,057	-0,035
251,932	-100,260	-0,109	-0,018
252,947	-159,819	-0,200	-0,007
253,961	346,544	-0,121	-0,165
254,976	45,679	-0,115	-0,073
255,990	37,329	-0,273	-0,167
257,005	135,808	-0,178	-0,160
258,020	-54,629	-0,150	0,046
259,034	87,269	-0,060	-0,046
260,049	800,000	-0,037	-0,088
261,063	-132,303	-0,172	0,015
262,078	45,804	-0,190	-0,121
263,093	-22,536	-0,181	-0,075
264,107	-70,998	-0,183	-0,047
265,122	18,488	-0,188	-0,104
266,136	111,601	-0,202	-0,168
267,151	307,371	-0,116	-0,149
268,166	198,653	-0,125	-0,132
269,180	-7,693	-0,222	-0,103
270,195	364,573	-0,107	-0,149
271,209	-7,504	-0,220	-0,102
272,224	333,103	-0,073	-0,098
273,239	146,109	-0,182	-0,168
274,253	16,499	-0,156	-0,084
275,268	216,245	-0,158	-0,173
276,282	375,189	-0,147	-0,207
277,297	264,081	-0,237	-0,284
278,312	-8,424	-0,216	-0,100
279,326	-64,930	-0,241	-0,067
280,341	800,000	-0,025	-0,073
281,355	-9,223	-0,130	0,060
282,370	800,000	-0,057	-0,112
283,384	-0,339	-0,206	-0,100
284,399	800,000	-0,024	-0,065
285,414	-135,541	-0,141	0,011
286,428	-40,549	-0,205	-0,073
287,443	-76,929	-0,122	-0,029
288,457	-2,698	-0,149	-0,071
289,472	25,671	-0,194	-0,111
290,487	111,141	-0,195	-0,161
291,501	61,127	-0,157	-0,107
292,516	57,111	-0,151	-0,101
293,530	-16,758	-0,091	-0,039
294,545	-69,328	-0,085	0,022
295,560	146,224	-0,158	-0,146
296,574	115,851	-0,153	-0,129
297,589	303,896	-0,153	-0,196
298,603	85,105	-0,186	-0,140
299,618	-54,693	-0,131	-0,040
300,633	262,452	-0,055	0,065
301,647	-154,765	-0,144	-0,006
302,662	208,730	-0,107	-0,116
303,676	32,691	-0,127	-0,075
304,691	-8,168	-0,163	-0,075
305,706	-116,344	-0,188	0,024
306,720	-200,000	-0,054	-0,213
307,735	800,000	-0,049	-0,119
308,749	107,759	-0,073	-0,060
309,764	-200,000	-0,029	-0,139
310,779	-200,000	-0,179	-0,001
311,793	603,739	-0,063	-0,108
312,808	6,541	-0,109	-0,056
313,822	276,162	-0,046	-0,056
314,837	198,772	-0,129	-0,135
315,852	233,092	-0,178	-0,201
316,866	-32,825	-0,145	-0,055
317,881	451,311	-0,110	-0,167
318,895	195,894	-0,127	-0,132
319,910	-200,000	-0,055	-0,245
320,925	125,114	-0,176	-0,152
321,939	-12,159	-0,110	-0,049
322,954	-80,595	-0,062	0,014
323,968	-14,770	-0,274	-0,120
324,983	162,040	-0,135	-0,129
325,997	617,853	-0,090	-0,155
327,012	146,279	-0,107	-0,098
328,027	-200,000	-0,080	-0,262
329,041	119,376	-0,273	-0,232
330,056	-200,000	0,008	-0,155
331,070	-24,894	-0,152	-0,062
332,085	-72,587	-0,120	0,030
333,100	-125,140	-0,082	0,009
334,114	800,000	-0,057	-0,143
335,129	55,345	-0,255	-0,169
336,143	-96,422	-0,205	-0,037
337,158	-66,676	-0,113	0,030
338,173	800,000	0,032	-0,089
339,187	89,911	-0,094	-0,072
340,202	-200,000	-0,007	-0,028
341,216	515,307	-0,162	-0,261
342,231	-73,712	-0,249	-0,062
343,246	-118,911	-0,092	-0,011
344,260	18,067	-0,141	-0,077
345,275	-160,703	-0,085	-0,003
346,289	-109,250	-0,125	-0,018
347,304	-98,749	-0,275	-0,048
348,319	4,368	-0,187	-0,093
349,333	286,894	-0,073	-0,091
350,348	-200,000	-0,000	-0,104
351,362	208,580	-0,121	0,130
352,377	112,246	-0,137	-0,113
353,392	-120,466	-0,171	-0,020
354,406	-200,000	-0,053	-0,160
355,421	208,540	1309,962	1403,019
356,435	160,473	1470,068	1403,500
