DTS Sentinel unit serial number:	SN410029Multiplexer serial number:	ORYXHardware model number:	OX2-SRSoftware version number:	ORYX F/W v4,00 Oryx Data Collector v3.7.2.0data status	okinstallation	B3 Nyhavnadifferential loss correction	single-endedforward channel	channel 1reverse channel	N/Adate	2023/12/02time	07:07:30forward acquisition time	300,00reverse acquisition time	0,00gamma	499,1914k internal	0,3194k external	0,3194temperature offset calibration	1,0000default loss term (dB/km)	0,3820temperature slope calibration	1,0000multiplexer offset coefficient	1,0000multiplexer slope coefficient	1,0000fibre end	0,00T internal ref (°C)	15,75T ext. ref 1 (°C)	0,51T ext. ref 2 (°C)	0,48length (m)	temperature (°C)	Stokes	anti-Stokes-744,400	191,011	-0,243	-0,267
-743,385	-200,000	0,011	0,238
-742,371	128,562	-0,125	-0,116
-741,356	-200,000	0,112	0,401
-740,342	376,857	-0,184	-0,275
-739,327	800,000	0,069	0,198
-738,312	800,000	-0,090	-0,218
-737,298	800,000	0,079	0,177
-736,283	-63,420	-0,196	-0,058
-735,269	-200,000	0,036	0,269
-734,254	366,260	-0,134	-0,197
-733,239	31,899	-0,230	0,144
-732,225	800,000	-0,077	-0,178
-731,210	-36,859	0,195	0,076
-730,196	143,555	0,057	0,055
-729,181	-139,899	-0,039	0,003
-728,167	9,069	-0,114	-0,063
-727,152	-30,961	0,067	0,027
-726,137	-62,296	-0,159	-0,048
-725,123	735,622	-0,027	-0,053
-724,108	-76,271	-0,098	0,025
-723,094	-100,272	0,112	0,020
-722,079	800,000	-0,031	0,076
-721,064	188,340	-0,084	-0,091
-720,050	-39,171	-0,084	-0,032
-719,035	-200,000	-0,003	-0,071
-718,021	-200,000	-0,016	-0,082
-717,006	-200,000	0,000	-0,102
-715,991	367,114	0,023	-0,034
-714,977	800,000	-0,049	-0,132
-713,962	-86,721	-0,077	0,017
-712,948	411,581	0,063	0,098
-711,933	-200,000	0,009	-0,165
-710,918	-120,995	-0,084	-0,010
-709,904	61,854	-0,045	-0,032
-708,889	800,000	-0,077	-0,164
-707,875	800,000	-0,064	0,136
-706,860	-200,000	-0,022	-0,115
-705,845	88,287	0,124	-0,100
-704,831	3,196	0,153	0,081
-703,816	-200,000	-0,014	0,071
-702,802	800,000	0,046	0,131
-701,787	-200,000	0,001	0,114
-700,772	299,341	-0,089	0,120
-699,758	310,699	-0,126	-0,172
-698,743	202,401	0,070	-0,079
-697,729	-200,000	0,030	0,100
-696,714	190,795	0,051	0,056
-695,699	135,587	-0,062	0,058
-694,685	-200,000	0,003	-0,034
-693,670	69,058	-0,169	-0,126
-692,656	48,931	-0,040	-0,028
-691,641	562,606	-0,040	0,071
-690,627	668,461	0,080	0,152
-689,612	535,659	-0,021	-0,036
-688,597	-200,000	0,010	-0,105
-687,583	-41,519	-0,086	-0,032
-686,568	800,000	0,064	-0,188
-685,554	-30,184	-0,066	0,027
-684,539	-62,499	-0,119	0,036
-683,524	30,255	0,062	-0,038
-682,510	-200,000	0,005	-0,049
-681,495	-7,596	-0,057	-0,028
-680,481	7,099	0,030	0,016
-679,466	-54,365	0,079	0,026
-678,451	800,000	0,032	0,081
-677,437	195,461	-0,065	-0,071
-676,422	511,646	0,080	-0,136
-675,408	453,698	0,029	0,047
-674,393	-114,419	-0,068	-0,009
-673,378	228,271	-0,058	-0,069
-672,364	800,000	-0,050	-0,145
-671,349	125,300	0,055	-0,051
-670,335	116,621	0,064	-0,057
-669,320	480,688	0,047	0,078
-668,305	-124,240	0,019	-0,002
-667,291	213,079	-0,047	-0,054
-666,276	800,000	-0,025	0,062
-665,262	371,357	0,056	-0,083
-664,247	-53,482	0,078	-0,026
-663,232	605,154	0,081	-0,146
-662,218	-76,409	0,129	-0,033
-661,203	-163,641	0,155	0,005
-660,189	-60,016	-0,176	0,054
-659,174	-55,917	-0,087	-0,028
-658,159	-93,735	-0,093	-0,019
-657,145	77,411	-0,086	-0,066
-656,130	41,789	0,072	0,048
-655,116	64,910	0,094	0,069
-654,101	437,163	0,131	0,208
-653,086	1,556	-0,141	0,073
-652,072	-90,757	0,122	0,025
-651,057	800,000	-0,038	0,084
-650,043	-200,000	0,022	0,107
-649,028	-200,000	0,009	-0,056
-648,014	-15,743	-0,088	-0,041
-646,999	-200,000	0,013	-0,170
-645,984	-86,962	0,039	0,009
-644,970	-147,810	0,076	0,005
-643,955	364,466	-0,067	-0,098
-642,941	800,000	-0,038	0,090
-641,926	130,259	-0,017	-0,016
-640,911	418,124	-0,038	-0,060
-639,897	-59,674	0,086	0,027
-638,882	-36,472	-0,086	0,033
-637,868	-10,156	0,113	0,054
-636,853	-82,316	-0,101	-0,024
-635,838	-155,037	-0,038	-0,002
-634,824	-200,000	0,013	-0,046
-633,809	-132,278	0,083	0,008
-632,795	363,339	0,050	0,073
-631,780	-72,691	0,153	-0,041
-630,765	513,288	-0,115	-0,194
-629,751	-200,000	-0,011	-0,153
-628,736	-0,382	-0,136	0,070
-627,722	-66,572	-0,034	0,010
-626,707	800,000	0,059	0,183
-625,692	-200,000	0,025	0,121
-624,678	132,976	-0,054	0,050
-623,663	75,648	-0,110	-0,084
-622,649	-67,893	-0,103	-0,029
-621,634	-19,112	0,049	-0,022
-620,619	17,328	0,046	0,027
-619,605	38,057	0,084	-0,054
-618,590	450,679	0,091	-0,146
-617,576	-200,000	0,002	0,007
-616,561	800,000	-0,020	0,064
-615,546	-13,483	0,120	-0,056
-614,532	106,783	0,043	0,037
-613,517	-99,867	-0,055	0,010
-612,503	-149,025	-0,123	0,007
-611,488	369,713	0,134	0,197
-610,474	513,521	0,061	0,103
-609,459	-200,000	-0,033	0,126
-608,444	-109,031	-0,109	-0,017
-607,430	800,000	0,040	-0,102
-606,415	-39,921	-0,089	-0,033
-605,401	15,109	0,061	-0,035
-604,386	-200,000	0,020	0,129
-603,371	10,336	-0,103	-0,056
-602,357	310,986	-0,028	-0,038
-601,342	192,529	0,069	0,076
-600,328	-54,616	-0,111	-0,036
-599,313	11,448	-0,103	0,057
-598,298	-167,321	-0,065	0,002
-597,284	54,652	0,141	0,098
-596,269	-133,516	-0,008	-0,001
-595,255	800,000	-0,007	0,015
-594,240	150,958	0,073	0,072
-593,225	-200,000	0,022	-0,091
-592,211	-200,000	-0,021	-0,226
-591,196	-81,953	-0,181	0,043
-590,182	-200,000	-0,027	-0,107
-589,167	-89,704	0,116	-0,024
-588,152	428,802	-0,056	-0,088
-587,138	-33,169	0,084	0,034
-586,123	-76,160	0,136	-0,035
-585,109	-200,000	-0,008	0,107
-584,094	800,000	-0,036	0,100
-583,079	436,552	0,064	0,102
-582,065	-156,504	-0,076	0,003
-581,050	-200,000	-0,012	0,048
-580,036	-200,000	-0,000	0,019
-579,021	95,114	0,026	0,022
-578,006	800,000	0,052	-0,150
-576,992	201,262	-0,069	0,077
-575,977	-200,000	-0,014	0,117
-574,963	-200,000	-0,023	0,196
-573,948	800,000	0,069	0,142
-572,934	800,000	0,043	0,114
-571,919	-91,927	-0,084	0,017
-570,904	-70,426	0,061	0,017
-569,890	221,800	0,084	-0,097
-568,875	3,899	-0,016	0,009
-567,861	-111,816	-0,067	-0,010
-566,846	14,458	0,061	-0,034
-565,831	433,639	-0,062	-0,098
-564,817	-200,000	0,025	-0,141
-563,802	74,559	0,028	0,021
-562,788	33,598	-0,043	0,027
-561,773	-200,000	-0,025	0,111
-560,758	784,524	0,016	0,031
-559,744	-200,000	0,050	0,160
-558,729	-200,000	-0,007	-0,057
-557,715	-200,000	-0,013	-0,060
-556,700	-62,191	-0,065	-0,019
-555,685	210,760	0,105	-0,120
-554,671	-188,824	0,107	0,001
-553,656	-200,000	-0,006	0,083
-552,642	363,963	0,041	-0,059
-551,627	-28,222	0,080	0,033
-550,612	-170,230	-0,170	-0,004
-549,598	-64,068	-0,138	0,040
-548,583	-170,694	-0,139	-0,003
-547,569	-110,621	0,016	-0,002
-546,554	-64,169	-0,047	0,014
-545,539	7,314	0,071	0,038
-544,525	-200,000	0,010	-0,065
-543,510	-128,238	0,079	-0,008
-542,496	-84,468	-0,071	-0,016
-541,481	-39,089	-0,122	-0,046
-540,466	-200,000	-0,002	0,055
-539,452	-7,191	-0,019	0,010
-538,437	-200,000	0,022	0,178
-537,423	295,130	0,035	0,046
-536,408	14,297	-0,061	-0,034
-535,393	174,837	-0,078	-0,082
-534,379	136,400	-0,056	-0,053
-533,364	-132,385	0,095	-0,009
-532,350	370,683	-0,059	0,087
-531,335	371,443	-0,061	-0,089
-530,321	-170,469	-0,081	0,002
-529,306	-24,030	-0,045	0,019
-528,291	-67,329	-0,076	-0,022
-527,277	269,698	-0,077	-0,098
-526,262	-82,844	0,084	0,019
-525,248	217,866	0,016	0,019
-524,233	208,300	-0,077	0,087
-523,218	358,089	0,065	0,095
-522,204	543,215	-0,061	-0,106
-521,189	-200,000	0,007	-0,066
-520,175	-61,166	0,054	-0,016
-519,160	-200,000	0,022	-0,086
-518,145	-9,234	0,052	0,025
-517,131	-39,782	-0,173	0,065
-516,116	-200,000	0,063	0,245
-515,102	-51,410	0,059	-0,020
-514,087	38,749	0,075	0,048
-513,072	217,475	-0,081	0,093
-512,058	172,840	-0,075	-0,078
-511,043	-200,000	0,027	-0,097
-510,029	206,985	0,040	-0,045
-509,014	132,044	0,007	0,006
-507,999	63,646	-0,051	0,037
-506,985	411,021	-0,108	-0,167
-505,970	-200,000	-0,023	0,092
-504,956	-200,000	-0,001	0,088
-503,941	-192,369	0,024	-0,000
-502,926	347,632	-0,052	0,074
-501,912	-25,769	0,018	-0,008
-500,897	13,263	-0,122	-0,068
-499,883	-139,778	-0,109	-0,008
-498,868	-79,235	-0,114	-0,028
-497,853	84,090	0,160	-0,126
-496,839	-78,719	0,030	0,007
-495,824	144,869	0,030	0,029
-494,810	44,872	-0,046	0,030
-493,795	-81,227	0,088	0,021
-492,781	425,400	0,112	-0,174
-491,766	-102,274	0,051	0,009
-490,751	-32,935	-0,047	-0,019
-489,737	597,036	-0,022	0,040
-488,722	54,816	0,069	-0,048
-487,708	800,000	-0,017	0,039
-486,693	-200,000	0,004	0,152
-485,678	-88,340	-0,030	0,006
-484,664	73,359	-0,108	-0,082
-483,649	-44,756	-0,058	-0,021
-482,635	-112,751	0,037	-0,005
-481,620	14,435	0,099	0,056
-480,605	604,281	0,071	0,128
-479,591	513,457	0,091	0,154
-478,576	-200,000	0,009	0,075
-477,562	-42,571	-0,033	-0,012
-476,547	-127,300	-0,125	0,013
-475,532	378,167	-0,048	0,071
-474,518	307,698	0,118	0,160
-473,503	800,000	-0,052	0,154
-472,489	298,804	-0,061	0,081
-471,474	-111,015	0,074	0,011
-470,459	159,481	-0,146	0,147
-469,445	177,117	0,090	-0,095
-468,430	34,375	0,095	-0,059
-467,416	-20,250	-0,134	-0,059
-466,401	-200,000	0,003	0,073
-465,386	-200,000	-0,009	-0,101
-464,372	107,162	-0,042	0,036
-463,357	279,032	-0,089	0,115
-462,343	-8,816	0,064	-0,031
-461,328	-73,140	0,102	-0,027
-460,313	45,427	-0,075	-0,050
-459,299	-8,322	0,158	0,076
-458,284	27,133	0,027	-0,016
-457,270	-36,424	-0,086	0,033
-456,255	800,000	-0,020	0,052
-455,241	-104,920	-0,136	0,022
-454,226	-200,000	-0,004	0,102
-453,211	-200,000	-0,000	0,113
-452,197	242,438	-0,073	-0,088
-451,182	64,590	0,062	0,045
-450,168	800,000	0,043	0,088
-449,153	-200,000	-0,006	0,093
-448,138	-91,934	-0,084	0,017
-447,124	800,000	0,024	-0,070
-446,109	-200,000	0,017	-0,088
-445,095	-5,668	0,064	-0,031
-444,080	-24,032	0,162	0,069
-443,065	800,000	0,053	0,130
-442,051	800,000	-0,062	0,153
-441,036	331,127	-0,053	0,074
-440,022	-200,000	0,024	-0,125
-439,007	72,362	-0,045	-0,034
-437,992	-200,000	0,001	0,081
-436,978	800,000	0,081	0,244
-435,963	-40,344	-0,067	-0,025
-434,949	-93,749	-0,122	-0,024
-433,934	134,141	-0,040	-0,037
-432,919	296,607	0,063	-0,083
-431,905	16,133	-0,056	0,032
-430,890	-200,000	0,004	-0,045
-429,876	-145,045	-0,047	-0,003
-428,861	-35,642	0,128	0,050
-427,846	-200,000	-0,020	0,151
-426,832	-200,000	0,007	-0,077
-425,817	169,731	-0,133	-0,137
-424,803	-200,000	0,010	0,034
-423,788	357,840	0,052	0,075
-422,773	-200,000	0,019	-0,118
-421,759	-200,000	0,007	0,134
-420,744	-103,788	0,127	-0,021
-419,730	436,500	-0,037	0,059
-418,715	-29,789	0,126	-0,051
-417,701	-33,150	-0,032	-0,013
-416,686	192,078	0,048	0,052
-415,671	-166,640	0,155	0,005
-414,657	102,301	0,082	0,069
-413,642	-200,000	0,001	0,016
-412,628	74,674	-0,043	0,033
-411,613	-131,506	0,042	-0,004
-410,598	162,818	0,042	-0,042
-409,584	800,000	-0,007	-0,020
-408,569	-46,226	-0,077	-0,027
-407,555	-109,834	0,203	0,030
-406,540	279,516	0,079	-0,102
-405,525	-70,376	-0,029	0,008
-404,511	92,793	-0,040	0,033
-403,496	289,481	-0,114	-0,148
-402,482	-200,000	-0,015	-0,096
-401,467	-200,000	-0,007	-0,040
-400,452	-200,000	-0,022	-0,179
-399,438	231,824	0,064	-0,076
-398,423	-200,000	0,022	-0,094
-397,409	31,363	-0,092	0,057
-396,394	-106,615	-0,165	0,026
-395,379	392,641	0,029	-0,043
-394,365	-200,000	-0,009	0,063
-393,350	143,890	0,102	-0,098
-392,336	-200,000	0,007	0,030
-391,321	-12,739	0,010	0,005
-390,306	-200,000	-0,000	-0,049
-389,292	-101,192	0,052	-0,009
-388,277	-200,000	-0,001	0,168
-387,263	120,242	0,055	-0,049
-386,248	-81,136	0,070	0,017
-385,233	-200,000	0,018	0,129
-384,219	800,000	0,021	0,047
-383,204	571,289	-0,034	-0,059
-382,190	800,000	-0,031	-0,085
-381,175	-200,000	-0,007	-0,068
-380,160	800,000	0,040	0,115
-379,146	-200,000	-0,007	0,030
-378,131	-47,655	-0,034	-0,012
-377,117	60,622	-0,110	0,078
-376,102	-200,000	-0,040	-0,169
-375,088	800,000	-0,068	-0,142
-374,073	-28,803	-0,071	-0,029
-373,058	-200,000	-0,011	-0,056
-372,044	-31,417	0,080	0,032
-371,029	-200,000	-0,026	-0,089
-370,015	-200,000	0,002	0,024
-369,000	800,000	0,032	0,079
-367,985	46,187	-0,089	-0,059
-366,971	-80,005	-0,065	-0,016
-365,956	110,654	-0,067	-0,058
-364,942	-85,515	0,079	-0,018
-363,927	-70,842	-0,089	0,024
-362,912	-200,000	-0,058	0,194
-361,898	298,874	-0,093	-0,124
-360,883	-162,562	-0,124	-0,004
-359,869	42,966	-0,104	-0,068
-358,854	223,935	-0,019	-0,022
-357,839	31,730	-0,090	0,055
-356,825	-8,502	0,051	0,025
-355,810	-200,000	-0,007	-0,025
-354,796	-17,224	0,060	-0,027
-353,781	61,961	0,112	-0,080
-352,766	724,121	-0,052	-0,100
-351,752	621,153	0,093	-0,168
-350,737	800,000	-0,041	-0,108
-349,723	-200,000	0,020	0,116
-348,708	-14,877	0,002	0,001
-347,693	-200,000	0,003	-0,025
-346,679	-157,611	0,028	-0,001
-345,664	80,611	0,049	-0,038
-344,650	107,520	0,051	0,044
-343,635	-200,000	0,023	-0,103
-342,620	-139,440	-0,017	0,001
-341,606	330,020	-0,052	0,073
-340,591	217,958	0,118	-0,135
-339,577	-200,000	0,007	0,030
-338,562	80,771	0,036	-0,028
-337,548	573,907	-0,042	-0,074
-336,533	-5,105	0,146	-0,072
-335,518	-80,463	0,078	0,018
-334,504	305,061	0,094	0,126
-333,489	-200,000	0,006	-0,038
-332,475	800,000	-0,036	-0,090
-331,460	800,000	-0,063	-0,147
-330,445	-97,579	0,092	-0,017
-329,431	-91,411	0,165	0,033
-328,416	-18,082	0,042	0,019
-327,402	-58,094	0,100	0,031
-326,387	-200,000	0,013	-0,113
-325,372	-27,202	-0,122	0,051
-324,358	-24,293	-0,030	-0,013
-323,343	-105,680	-0,082	0,013
-322,329	31,266	0,038	0,023
-321,314	-116,444	0,088	-0,011
-320,299	-200,000	0,012	-0,118
-319,285	-94,113	0,095	-0,018
-318,270	-79,285	-0,102	0,025
-317,256	165,728	-0,042	-0,043
-316,241	541,691	-0,044	-0,075
-315,226	552,662	0,045	0,077
-314,212	-97,361	0,046	0,008
-313,197	-200,000	0,026	-0,140
-312,183	33,707	0,089	-0,055
-311,168	-200,000	-0,033	0,115
-310,153	-89,743	-0,103	0,021
-309,139	157,555	-0,049	-0,048
-308,124	-5,663	0,078	0,038
-307,110	-136,290	0,197	-0,016
-306,095	-105,408	0,032	-0,005
-305,080	-118,870	-0,176	0,022
-304,066	-88,949	0,020	-0,004
-303,051	23,732	-0,085	-0,050
-302,037	800,000	-0,026	-0,062
-301,022	-9,927	-0,072	-0,034
-300,008	27,985	0,107	-0,064
-298,993	-24,106	0,063	0,027
-297,978	-73,561	0,090	0,023
-296,964	-200,000	-0,004	0,063
-295,949	-200,000	-0,016	-0,063
-294,935	-200,000	-0,001	-0,025
-293,920	158,636	-0,078	-0,078
-292,905	-107,486	-0,025	-0,004
-291,891	-55,857	0,119	-0,038
-290,876	11,152	-0,048	0,026
-289,862	-132,430	0,126	-0,011
-288,847	19,765	0,072	-0,042
-287,832	288,783	-0,045	-0,058
-286,818	800,000	0,030	-0,079
-285,803	36,121	0,093	0,059
-284,789	800,000	0,053	0,161
-283,774	-200,000	0,050	0,165
-282,759	-55,911	0,054	0,017
-281,745	150,346	-0,028	0,028
-280,730	46,090	-0,115	-0,076
-279,716	-146,335	-0,065	-0,004
-278,701	-200,000	-0,023	-0,195
-277,686	88,671	-0,018	0,014
-276,672	22,117	-0,141	-0,082
-275,657	60,268	-0,169	-0,120
-274,643	52,197	-0,052	-0,035
-273,628	399,384	-0,047	-0,071
-272,613	366,020	-0,030	-0,043
-271,599	-200,000	-0,005	-0,048
-270,584	666,447	0,048	-0,088
-269,570	800,000	0,054	0,138
-268,555	800,000	-0,053	-0,114
-267,540	-98,733	0,034	0,006
-266,526	114,775	-0,110	0,096
-265,511	-81,450	-0,170	-0,040
-264,497	288,294	0,098	0,127
-263,482	800,000	0,025	0,057
-262,467	-200,000	0,011	-0,105
-261,453	787,141	0,032	-0,064
-260,438	800,000	-0,043	-0,103
-259,424	-178,895	0,069	0,001
-258,409	800,000	0,070	-0,171
-257,395	-200,000	-0,042	-0,143
-256,380	592,608	0,062	0,109
-255,365	-150,474	0,018	0,001
-254,351	-200,000	0,038	0,124
-253,336	198,867	-0,071	0,078
-252,322	-200,000	0,049	-0,161
-251,307	57,814	0,056	-0,039
-250,292	326,635	0,049	-0,067
-249,278	89,876	0,168	0,134
-248,263	-200,000	-0,001	0,010
-247,249	-200,000	0,009	-0,045
-246,234	800,000	-0,033	-0,081
-245,219	800,000	0,032	-0,075
-244,205	-200,000	0,006	-0,070
-243,190	-140,937	0,148	-0,011
-242,176	177,394	-0,025	-0,026
-241,161	800,000	-0,031	0,072
-240,146	741,004	0,070	0,134
-239,132	116,632	0,034	0,029
-238,117	367,075	-0,117	-0,169
-237,103	123,469	-0,070	-0,063
-236,088	800,000	-0,043	-0,127
-235,073	-200,000	0,012	-0,058
-234,059	-107,334	0,045	0,007
-233,044	-113,766	0,143	-0,020
-232,030	-200,000	0,005	-0,120
-231,015	800,000	0,039	-0,088
-230,000	800,000	-0,062	-0,138
-228,986	-77,377	0,051	0,013
-227,971	-200,000	-0,020	0,108
-226,957	2,142	0,220	0,113
-225,942	-200,000	-0,017	0,165
-224,927	159,974	-0,068	-0,068
-223,913	172,577	-0,040	-0,041
-222,898	10,084	0,111	0,060
-221,884	-200,000	-0,016	-0,054
-220,869	17,076	-0,085	-0,048
-219,855	-116,792	0,230	0,030
-218,840	-200,000	-0,051	0,178
-217,825	-200,000	0,008	-0,052
-216,811	-6,669	-0,188	-0,091
-215,796	800,000	-0,039	-0,096
-214,782	-77,587	0,013	-0,003
-213,767	-22,994	-0,074	0,032
-212,752	-11,071	0,101	-0,048
-211,738	-48,733	-0,037	-0,013
-210,723	59,289	0,028	0,019
-209,709	303,494	-0,076	-0,101
-208,694	23,089	0,045	-0,026
-207,679	-53,015	0,041	-0,013
-206,665	-175,726	-0,081	0,002
-205,650	800,000	-0,037	0,103
-204,636	800,000	0,022	0,067
-203,621	526,356	0,044	0,073
-202,606	-200,000	0,012	0,133
-201,592	-30,754	-0,027	0,011
-200,577	40,717	0,070	-0,045
-199,563	-51,030	-0,110	-0,037
-198,548	246,203	0,083	0,100
-197,533	245,335	0,071	0,085
-196,519	53,719	-0,035	0,024
-195,504	-108,161	-0,087	-0,013
-194,490	-200,000	0,036	-0,141
-193,475	-200,000	0,019	0,069
-192,460	-200,000	0,007	-0,145
-191,446	800,000	0,059	0,118
-190,431	-140,377	0,159	0,012
-189,417	-74,816	-0,072	-0,018
-188,402	120,288	-0,026	-0,023
-187,387	800,000	-0,061	0,168
-186,373	406,631	-0,056	0,084
-185,358	407,772	0,026	-0,040
-184,344	800,000	0,037	0,115
-183,329	-131,648	0,080	0,007
-182,315	-71,340	-0,007	0,002
-181,300	107,990	0,091	-0,077
-180,285	535,835	-0,069	0,117
-179,271	-124,776	-0,083	-0,009
-178,256	390,558	-0,053	0,078
-177,242	-146,893	0,047	-0,003
-176,227	-200,000	-0,023	0,090
-175,212	40,969	0,072	0,046
-174,198	-102,866	0,117	0,020
-173,183	-31,794	0,096	0,038
-172,169	800,000	-0,007	0,019
-171,154	21,737	-0,149	0,086
-170,139	-200,000	-0,002	0,182
-169,125	382,961	0,016	0,023
-168,110	-40,277	0,131	0,048
-167,096	800,000	-0,031	-0,067
-166,081	-8,305	-0,073	0,035
-165,066	-23,142	-0,087	-0,037
-164,052	-101,240	-0,089	-0,015
-163,037	-200,000	-0,026	0,131
-162,023	120,469	0,075	0,066
-161,008	351,843	0,020	0,028
-159,993	610,667	-0,020	0,035
-158,979	-80,226	-0,134	0,032
-157,964	-151,910	-0,082	-0,004
-156,950	-200,000	0,002	-0,019
-155,935	85,614	-0,032	-0,025
-154,920	98,090	-0,086	0,070
-153,906	65,961	0,091	-0,066
-152,891	-200,000	-0,026	-0,133
-151,877	-194,602	-0,037	-0,000
-150,862	-200,000	0,042	0,139
-149,847	800,000	0,019	0,042
-148,833	126,040	0,067	0,060
-147,818	69,094	0,085	-0,062
-146,804	-109,186	0,073	0,011
-145,789	-107,801	0,006	0,001
-144,775	0,119	0,053	0,027
-143,760	109,769	-0,058	-0,049
-142,745	-200,000	-0,012	-0,104
-141,731	-200,000	-0,006	0,047
-140,716	-130,308	0,063	-0,006
-139,702	774,246	-0,099	0,194
-138,687	-37,689	-0,040	-0,015
-137,672	-200,000	0,001	0,079
-136,658	-200,000	0,005	-0,093
-135,643	89,016	0,027	-0,021
-134,629	123,652	-0,036	-0,032
-133,614	-112,709	-0,055	0,008
-132,599	-200,000	0,014	0,070
-131,585	800,000	0,064	0,177
-130,570	227,564	-0,034	0,039
-129,556	-18,973	0,085	0,037
-128,541	321,857	0,052	-0,071
-127,526	93,735	0,063	-0,051
-126,512	289,706	0,013	-0,016
-125,497	-133,078	0,081	0,007
-124,483	-45,836	-0,035	-0,012
-123,468	117,575	0,075	0,066
-122,453	519,499	-0,010	-0,017
-121,439	299,031	0,017	-0,022
-120,424	203,058	0,031	-0,034
-119,410	-44,711	0,093	-0,033
-118,395	-200,000	-0,041	-0,152
-117,380	12,838	0,065	-0,036
-116,366	-146,229	0,038	0,002
-115,351	800,000	-0,024	0,059
-114,337	524,577	0,038	0,063
-113,322	160,042	0,036	-0,036
-112,307	648,647	0,043	0,079
-111,293	-200,000	-0,041	0,149
-110,278	-83,020	-0,098	0,022
-109,264	-200,000	-0,002	0,105
-108,249	-95,478	0,106	-0,020
-107,234	200,539	-0,112	-0,122
-106,220	51,717	-0,076	-0,051
-105,205	90,904	0,067	0,053
-104,191	-200,000	-0,019	0,191
-103,176	268,933	-0,030	0,037
-102,162	235,186	-0,045	0,053
-101,147	35,646	0,053	-0,033
-100,132	-38,446	-0,114	0,043
-99,118	-70,684	-0,038	0,010
-98,103	118,605	0,070	-0,062
-97,089	-99,357	0,155	0,028
-96,074	393,089	0,066	0,099
-95,059	45,140	-0,062	-0,041
-94,045	1,636	-0,136	-0,069
-93,030	404,061	-0,054	0,082
-92,016	154,194	0,052	-0,051
-91,001	31,344	-0,023	0,014
-89,986	229,953	-0,048	0,055
-88,972	52,639	0,119	0,080
-87,957	800,000	0,047	0,119
-86,943	-120,886	-0,065	-0,008
-85,928	-200,000	0,010	-0,125
-84,913	-79,445	0,005	0,001
-83,899	-200,000	-0,013	0,074
-82,884	46,341	0,165	0,108
-81,870	36,474	-0,038	-0,023
-80,855	-200,000	0,015	0,130
-79,840	494,271	-0,039	0,064
-78,826	-187,123	-0,112	-0,001
-77,811	-41,573	0,063	-0,023
-76,797	-131,727	-0,132	0,012
-75,782	800,000	0,036	0,091
-74,767	-23,201	0,123	0,052
-73,753	-200,000	-0,017	0,058
-72,738	-200,000	-0,006	-0,036
-71,724	15,612	-0,050	-0,028
-70,709	203,577	-0,060	-0,066
-69,694	510,247	-0,028	-0,046
-68,680	405,449	0,100	0,150
-67,665	-200,000	0,040	0,151
-66,651	2,271	0,073	0,037
-65,636	-200,000	0,005	-0,095
-64,622	-75,895	-0,099	-0,025
-63,607	-200,000	0,002	-0,101
-62,592	800,000	-0,059	-0,183
-61,578	298,863	0,081	0,106
-60,563	-96,302	0,034	0,006
-59,549	-200,000	0,010	0,124
-58,534	-55,821	-1,394	-0,439
-57,519	336,749	-1,582	-2,187
-56,505	-200,000	-0,537	-4,648
-55,490	95,913	0,967	0,783
-54,476	800,000	4,764	11,217
-53,461	-200,000	17,791	284,848
-52,446	800,000	722,142	2232,589
-51,432	564,199	1637,450	2825,428
-50,417	80,740	1660,841	1269,190
-49,403	23,651	1534,479	893,938
-48,388	17,594	1457,738	819,958
-47,373	18,206	1447,519	817,121
-46,359	17,734	1438,380	809,674
-45,344	15,833	1433,494	797,834
-44,330	15,802	1431,455	796,519
-43,315	15,783	1429,678	795,409
-42,300	15,833	1428,113	794,744
-41,286	15,844	1426,969	794,127
-40,271	15,857	1425,586	793,389
-39,257	15,841	1424,517	792,689
-38,242	15,857	1423,028	791,904
-37,227	15,890	1421,672	791,275
-36,213	15,902	1420,573	790,686
-35,198	15,841	1419,421	789,727
-34,184	15,853	1418,452	789,212
-33,169	15,762	1417,209	788,059
-32,154	15,883	1415,966	787,908
-31,140	15,914	1414,604	787,265
-30,125	15,892	1413,716	786,633
-29,111	15,872	1412,608	785,892
-28,096	15,858	1411,550	785,209
-27,082	15,780	1410,479	784,216
-26,067	15,787	1409,212	783,514
-25,052	15,797	1408,107	782,914
-24,038	15,793	1407,220	782,373
-23,023	15,766	1406,256	781,679
-22,009	15,738	1405,234	780,947
-20,994	15,775	1404,264	780,549
-19,979	15,710	1403,472	779,775
-18,965	15,708	1402,269	779,069
-17,950	15,717	1401,355	778,572
-16,936	15,675	1400,570	777,910
-15,921	15,639	1399,319	777,013
-14,906	15,698	1398,344	776,715
-13,892	15,695	1397,383	776,138
-12,877	15,659	1396,478	775,436
-11,863	15,679	1395,506	774,962
-10,848	15,703	1394,580	774,525
-9,833	15,639	1393,827	773,783
-8,819	15,611	1392,703	772,999
-7,804	15,594	1391,769	772,368
-6,790	15,590	1390,863	771,816
-5,775	15,641	1389,696	771,373
-4,760	15,590	1388,888	770,662
-3,746	15,543	1388,110	769,979
-2,731	15,565	1387,356	769,633
-1,717	15,542	1386,428	768,983
-0,702	15,512	1384,703	767,859
0,313	19,316	1304,986	741,231
1,327	35,746	707,051	439,732
2,342	54,969	125,211	85,597
3,356	6,267	16,572	8,689
4,371	2,506	3,196	1,635
5,386	-23,900	0,541	0,228
6,400	800,000	0,052	0,116
7,415	39,271	-0,377	-0,239
8,429	95,089	-0,338	-0,273
9,444	75,105	-0,304	-0,227
10,459	168,409	-0,232	-0,235
11,473	70,349	-0,271	-0,199
12,488	-85,000	-0,376	-0,083
13,502	-28,664	-0,291	-0,118
14,517	48,392	-0,260	-0,172
15,531	192,271	-0,340	-0,364
16,546	454,156	-0,184	-0,290
17,561	61,169	-0,392	-0,275
18,575	51,511	-0,104	-0,070
19,590	436,174	-0,200	-0,309
20,604	137,113	-0,182	-0,168
21,619	49,307	-0,416	-0,277
22,634	516,796	-0,257	-0,427
23,648	205,852	-0,423	-0,466
24,663	269,902	-0,337	-0,420
25,677	323,001	-0,279	-0,377
26,692	29,593	-0,403	-0,242
27,707	98,001	-0,324	-0,264
28,721	4,159	-0,440	-0,227
29,736	166,568	-0,358	-0,359
30,750	53,968	-0,484	-0,328
31,765	88,044	-0,484	-0,380
32,780	289,103	-0,220	-0,283
33,794	-14,940	-0,411	-0,186
34,809	99,488	-0,249	-0,203
35,823	72,100	-0,419	-0,308
36,838	222,893	-0,309	-0,353
37,853	273,841	-0,334	-0,419
38,867	43,939	-0,463	-0,299
39,882	124,205	-0,308	-0,273
40,896	248,228	-0,235	-0,281
41,911	66,552	-0,241	-0,173
42,926	100,999	-0,298	-0,245
43,940	621,956	-0,205	-0,367
44,955	62,214	-0,361	-0,254
45,969	-5,381	-0,374	-0,181
46,984	85,631	-0,260	-0,201
47,999	51,281	-0,371	-0,248
49,013	70,672	-0,314	-0,229
50,028	40,955	-0,341	-0,217
51,042	1,555	-0,349	-0,177
52,057	153,850	-0,289	-0,280
53,071	79,341	-0,381	-0,288
54,086	211,545	-0,258	-0,287
55,101	105,616	-0,299	-0,250
56,115	-23,206	-0,372	-0,157
57,130	-24,846	-0,481	-0,201
58,144	69,220	-0,461	-0,334
59,159	35,252	-0,440	-0,272
60,174	52,795	-0,286	-0,192
61,188	-63,826	-0,387	-0,111
62,203	91,145	-0,271	-0,214
63,217	105,714	-0,306	-0,255
64,232	-20,920	-0,417	-0,179
65,247	42,789	-0,367	-0,235
66,261	139,419	-0,333	-0,310
67,276	200,481	-0,273	-0,296
68,290	4,690	-0,332	-0,171
69,305	59,556	-0,246	-0,171
70,320	54,696	-0,240	-0,163
71,334	39,916	-0,252	-0,159
72,349	88,613	-0,339	-0,265
73,363	90,886	-0,263	-0,208
74,378	-68,283	-0,313	-0,085
75,393	4,955	-0,260	-0,134
76,407	136,373	-0,195	-0,179
77,422	32,267	-0,307	-0,186
78,436	-76,683	-0,414	-0,101
79,451	47,515	-0,206	-0,135
80,466	65,945	-0,299	-0,213
81,480	257,004	-0,188	-0,228
82,495	11,669	-0,277	-0,149
83,509	255,578	-0,247	-0,299
84,524	132,618	-0,197	-0,179
85,539	32,583	-0,252	-0,153
86,553	28,228	-0,334	-0,198
87,568	101,964	-0,216	-0,178
88,582	-111,986	-0,366	-0,051
89,597	-37,299	-0,344	-0,129
90,611	103,312	-0,254	-0,210
91,626	17,997	-0,293	-0,164
92,641	27,139	-0,323	-0,190
93,655	-48,184	-0,340	-0,115
94,670	52,873	-0,339	-0,227
95,684	431,900	-0,220	-0,337
96,699	129,893	-0,278	-0,250
97,714	451,205	-0,201	-0,313
98,728	77,494	-0,228	-0,170
99,743	145,078	-0,240	-0,225
100,757	34,558	-0,318	-0,195
101,772	274,836	-0,217	-0,271
102,787	35,622	-0,366	-0,225
103,801	561,667	-0,155	-0,265
104,816	356,755	-0,241	-0,338
105,830	90,209	-0,186	-0,146
106,845	34,917	-0,335	-0,206
107,860	134,177	-0,200	-0,182
108,874	173,549	-0,252	-0,256
109,889	-20,134	-0,382	-0,165
110,903	152,285	-0,216	-0,207
111,918	109,615	-0,288	-0,242
112,933	-69,034	-0,259	-0,070
113,947	129,668	-0,188	-0,169
114,962	11,207	-0,292	-0,157
115,976	143,614	-0,225	-0,210
116,991	68,746	-0,309	-0,222
118,006	103,299	-0,301	-0,247
119,020	300,399	-0,087	-0,113
120,035	788,283	-0,113	-0,219
121,049	-19,059	-0,213	-0,092
122,064	71,116	-0,248	-0,180
123,079	81,390	-0,179	-0,136
124,093	118,817	-0,237	-0,206
125,108	37,243	-0,347	-0,215
126,122	730,224	-0,105	-0,198
127,137	8,997	-0,192	-0,101
128,151	-35,241	-0,215	-0,082
129,166	115,188	-0,202	-0,173
130,181	-21,372	-0,224	-0,096
131,195	18,774	-0,351	-0,196
132,210	279,105	-0,267	-0,335
133,224	120,531	-0,210	-0,183
134,239	98,054	-0,279	-0,225
135,254	32,639	-0,301	-0,182
136,268	61,481	-0,237	-0,165
137,283	-90,872	-0,214	-0,043
138,297	-90,627	-0,320	0,064
139,312	-85,030	-0,393	-0,085
140,327	484,098	-0,261	-0,418
141,341	297,620	-0,199	-0,256
142,356	260,827	-0,171	-0,208
143,370	34,535	-0,225	-0,138
144,385	-115,269	-0,210	-0,028
145,400	141,020	-0,159	-0,147
146,414	58,791	-0,159	-0,109
147,429	-15,975	-0,294	-0,131
148,443	88,406	-0,235	-0,183
149,458	92,837	-0,211	-0,167
150,473	46,976	-0,250	-0,163
151,487	-105,167	-0,272	-0,043
152,502	228,350	-0,191	-0,218
153,516	104,004	-0,266	-0,218
154,531	-10,267	-0,242	-0,112
155,546	135,120	-0,262	-0,238
156,560	-13,040	-0,294	-0,133
157,575	-151,568	-0,063	0,003
158,589	-6,358	-0,257	-0,122
159,604	111,443	-0,236	-0,199
160,619	-2,703	-0,368	-0,179
161,633	248,139	-0,181	-0,214
162,648	-6,135	-0,266	-0,127
163,662	421,818	-0,124	-0,187
164,677	68,051	-0,152	-0,108
165,692	-13,940	-0,265	-0,119
166,706	159,947	-0,146	-0,143
167,721	162,882	-0,234	-0,229
168,735	19,539	-0,250	-0,140
169,750	0,712	-0,176	-0,088
170,764	800,000	-0,107	-0,249
171,779	124,512	-0,234	-0,206
172,794	553,700	-0,120	-0,202
173,808	-36,096	-0,154	-0,058
174,823	55,307	-0,303	-0,205
175,837	-40,106	-0,390	-0,141
176,852	-5,369	-0,254	-0,121
177,867	256,909	-0,184	-0,221
178,881	-28,230	-0,245	-0,098
179,896	50,580	-0,269	-0,177
180,910	3,750	-0,256	-0,130
181,925	34,056	-0,267	-0,162
182,940	55,857	-0,247	-0,167
183,954	91,366	-0,229	-0,179
184,969	-176,894	-0,112	-0,002
185,983	-88,506	-0,309	-0,064
186,998	64,691	-0,198	-0,139
188,013	-78,670	-0,193	-0,046
189,027	84,005	-0,269	-0,205
190,042	218,144	-0,235	-0,262
191,056	599,373	-0,123	-0,213
192,071	-18,826	-0,189	-0,082
193,086	71,380	-0,208	-0,150
194,100	67,525	-0,276	-0,196
195,115	-27,941	-0,224	-0,090
196,129	-15,290	-0,231	-0,103
197,144	227,158	-0,180	-0,205
198,159	-77,666	-0,220	-0,053
199,173	-45,050	-0,117	-0,040
200,188	143,127	-0,095	-0,088
201,202	65,287	-0,220	-0,155
202,217	12,214	-0,147	-0,079
203,232	65,497	-0,217	-0,153
204,246	-6,640	-0,267	-0,126
205,261	98,582	-0,220	-0,176
206,275	53,809	-0,193	-0,129
207,290	343,956	-0,064	-0,088
208,304	-106,429	-0,168	0,026
209,319	-129,652	-0,093	-0,009
210,334	24,829	-0,112	-0,065
211,348	273,773	-0,174	-0,215
212,363	32,118	-0,263	-0,157
213,377	59,107	-0,229	-0,157
214,392	313,494	-0,190	-0,250
215,407	22,825	-0,069	-0,039
216,421	29,280	-0,244	-0,144
217,436	-200,000	-0,040	-0,239
218,450	-200,000	0,005	-0,098
219,465	495,494	-0,123	-0,198
220,480	-53,010	-0,193	-0,061
221,494	800,000	-0,073	-0,180
222,509	-200,000	-0,055	-0,176
223,523	-39,084	-0,121	-0,044
224,538	17,745	-0,202	-0,112
225,553	-5,901	-0,225	-0,107
226,567	561,965	-0,128	-0,216
227,582	14,599	-0,230	-0,124
228,596	-157,674	-0,182	0,007
229,611	800,000	-0,049	-0,120
230,626	24,700	-0,167	-0,096
231,640	-30,819	-0,183	-0,071
232,655	159,769	-0,192	-0,186
233,669	242,224	-0,206	-0,240
234,684	43,532	-0,182	-0,115
235,699	-26,933	-0,210	-0,085
236,713	-47,979	-0,306	-0,102
237,728	256,741	-0,157	-0,187
238,742	-9,650	-0,114	-0,052
239,757	239,319	-0,185	-0,214
240,772	14,224	-0,203	-0,110
241,786	107,628	-0,193	-0,159
242,801	717,384	-0,122	-0,225
243,815	212,836	-0,168	-0,185
244,830	-12,220	-0,167	-0,076
245,844	646,304	-0,141	-0,251
246,859	278,760	-0,121	-0,150
247,874	96,686	-0,174	-0,138
248,888	800,000	-0,089	-0,178
249,903	-200,000	-0,008	-0,085
250,917	15,909	-0,212	-0,115
251,932	-4,932	-0,226	-0,108
252,947	-71,328	-0,196	-0,051
253,961	40,754	-0,211	-0,132
254,976	158,006	-0,159	-0,153
255,990	-46,665	-0,136	-0,046
257,005	-199,332	-0,199	0,001
258,020	122,411	-0,214	-0,186
259,034	-200,000	-0,029	-0,131
260,049	494,226	-0,034	-0,055
261,063	0,250	-0,139	-0,069
262,078	-111,217	-0,158	-0,022
263,093	197,225	-0,120	-0,127
264,107	113,700	-0,253	-0,213
265,122	188,612	-0,125	-0,129
266,136	70,786	-0,113	-0,081
267,151	-85,573	-0,246	-0,053
268,166	-6,926	-0,236	-0,110
269,180	226,799	-0,096	-0,108
270,195	800,000	-0,071	-0,186
271,209	96,548	-0,161	-0,128
272,224	-71,044	-0,143	-0,037
273,239	10,010	-0,163	-0,085
274,253	181,033	-0,113	-0,115
275,268	-122,539	-0,180	0,020
276,282	-75,335	-0,184	-0,045
277,297	156,638	-0,230	-0,220
278,312	152,024	-0,218	-0,206
279,326	74,524	-0,102	-0,074
280,341	333,301	-0,088	-0,118
281,355	-139,677	-0,214	0,015
282,370	389,017	-0,096	-0,137
283,384	152,265	-0,185	-0,175
284,399	56,141	-0,147	-0,099
285,414	-86,610	-0,098	0,021
286,428	-82,185	-0,195	-0,043
287,443	128,248	-0,168	-0,148
288,457	104,363	-0,076	-0,062
289,472	209,272	-0,145	-0,157
290,487	261,140	-0,208	-0,250
291,501	-126,333	-0,245	-0,025
292,516	800,000	-0,087	-0,190
293,530	800,000	-0,062	-0,163
294,545	179,703	-0,120	-0,121
295,560	132,381	-0,048	0,042
296,574	627,268	-0,134	-0,234
297,589	-200,000	-0,012	-0,228
298,603	-7,104	-0,192	-0,090
299,618	604,225	-0,114	-0,197
300,633	132,916	-0,128	-0,115
301,647	99,808	-0,106	-0,085
302,662	800,000	-0,067	-0,168
303,676	-162,216	-0,120	0,004
304,691	-21,641	-0,090	-0,038
305,706	260,390	-0,121	-0,145
306,720	329,436	-0,176	-0,235
307,735	755,240	-0,111	-0,208
308,749	463,079	-0,136	-0,211
309,764	32,474	-0,138	-0,082
310,779	-74,806	-0,241	-0,059
311,793	192,165	-0,140	-0,145
312,808	-22,495	-0,148	-0,062
313,822	101,703	-0,235	-0,189
314,837	-69,577	-0,147	-0,039
315,852	56,659	-0,146	-0,098
316,866	-198,141	-0,161	-0,001
317,881	191,774	-0,104	-0,108
318,895	6,991	-0,249	-0,128
319,910	800,000	-0,064	-0,135
320,925	-32,859	-0,225	-0,086
321,939	138,208	-0,113	-0,102
322,954	699,267	-0,116	-0,211
323,968	800,000	-0,040	-0,091
324,983	-33,833	-0,131	-0,049
325,997	-142,062	-0,106	0,007
327,012	24,727	-0,027	-0,015
328,027	-174,815	-0,105	0,002
329,041	-200,000	-0,024	-0,183
330,056	800,000	-0,086	-0,203
331,070	800,000	-0,076	-0,219
332,085	195,252	-0,033	-0,034
333,100	-172,813	-0,128	-0,003
334,114	-43,534	-0,250	0,086
335,129	128,601	-0,070	-0,061
336,143	391,666	-0,095	-0,136
337,158	70,751	-0,072	-0,051
338,173	-167,637	-0,184	0,005
339,187	9,985	-0,201	-0,105
340,202	800,000	-0,069	-0,145
341,216	-32,234	-0,190	-0,073
342,231	8,558	-0,148	-0,076
343,246	800,000	-0,090	-0,185
344,260	-77,469	-0,142	-0,034
345,275	405,723	-0,029	-0,043
346,289	49,474	-0,084	-0,054
347,304	-13,919	-0,101	0,045
348,319	-200,000	-0,071	-0,255
349,333	123,025	-0,236	-0,204
350,348	-200,000	-0,045	-0,187
351,362	800,000	-0,073	-0,145
352,377	14,739	-0,217	-0,116
353,392	800,000	-0,052	0,122
354,406	24,050	-0,220	-0,124
355,421	208,898	1312,391	1413,763
356,435	160,752	1472,878	1414,286
