DTS Sentinel unit serial number:	SN410029Multiplexer serial number:	ORYXHardware model number:	OX2-SRSoftware version number:	ORYX F/W v4,00 Oryx Data Collector v3.7.2.0data status	okinstallation	B3 Nyhavnadifferential loss correction	single-endedforward channel	channel 1reverse channel	N/Adate	2023/12/03time	17:37:30forward acquisition time	300,00reverse acquisition time	0,00gamma	499,1914k internal	0,3198k external	0,3198temperature offset calibration	1,0000default loss term (dB/km)	0,3820temperature slope calibration	1,0000multiplexer offset coefficient	1,0000multiplexer slope coefficient	1,0000fibre end	0,00T internal ref (°C)	14,87T ext. ref 1 (°C)	-0,56T ext. ref 2 (°C)	-0,58length (m)	temperature (°C)	Stokes	anti-Stokes-744,400	341,328	-0,167	-0,238
-743,385	800,000	-0,130	0,290
-742,371	231,282	-0,100	-0,120
-741,356	-200,000	0,037	0,311
-740,342	373,034	-0,200	-0,297
-739,327	-200,000	-0,038	0,332
-738,312	302,580	-0,160	-0,216
-737,298	-200,000	0,062	0,423
-736,283	293,805	-0,146	-0,195
-735,269	634,391	0,119	0,221
-734,254	800,000	-0,102	-0,282
-733,239	-189,916	-0,287	0,002
-732,225	-200,000	-0,048	-0,297
-731,210	415,774	0,081	0,126
-730,196	-188,985	-0,011	0,000
-729,181	-200,000	0,027	-0,098
-728,167	423,416	-0,040	-0,062
-727,152	110,130	-0,057	0,049
-726,137	-200,000	0,003	-0,080
-725,123	660,006	-0,101	-0,189
-724,108	800,000	-0,074	-0,168
-723,094	800,000	-0,053	-0,136
-722,079	-200,000	0,015	-0,103
-721,064	-200,000	0,021	-0,080
-720,050	-75,810	0,109	0,028
-719,035	-67,204	-0,073	-0,021
-718,021	165,960	0,052	-0,054
-717,006	160,712	-0,121	-0,123
-715,991	356,892	-0,063	-0,092
-714,977	-200,000	0,035	-0,158
-713,962	655,203	-0,028	-0,053
-712,948	86,625	0,067	0,054
-711,933	-96,152	-0,178	-0,034
-710,918	463,915	-0,067	0,109
-709,904	201,898	0,068	-0,076
-708,889	-29,649	-0,141	-0,058
-707,875	-81,793	0,119	0,028
-706,860	137,610	-0,083	-0,079
-705,845	-138,204	0,038	-0,003
-704,831	-10,919	0,072	0,034
-703,816	263,428	0,012	0,015
-702,802	800,000	0,010	-0,021
-701,787	-177,537	-0,045	-0,001
-700,772	-125,200	0,051	0,006
-699,758	40,871	-0,112	-0,073
-698,743	-63,615	0,159	-0,047
-697,729	278,756	-0,136	0,177
-696,714	800,000	0,014	0,040
-695,699	357,454	0,093	-0,136
-694,685	-200,000	0,011	0,052
-693,670	-200,000	-0,009	0,035
-692,656	281,669	0,042	0,055
-691,641	-158,179	-0,054	0,002
-690,627	128,505	-0,028	-0,025
-689,612	47,455	-0,083	0,056
-688,597	-80,372	0,030	0,007
-687,583	53,969	-0,239	-0,167
-686,568	114,527	-0,011	0,010
-685,554	323,579	-0,021	0,029
-684,539	88,122	0,129	0,104
-683,524	-200,000	-0,003	0,065
-682,510	-200,000	0,002	-0,095
-681,495	-200,000	-0,030	-0,123
-680,481	-46,397	-0,122	-0,043
-679,466	155,708	-0,063	-0,063
-678,451	-200,000	0,017	-0,069
-677,437	-50,578	0,124	0,042
-676,422	146,780	0,120	0,117
-675,408	146,483	-0,046	-0,045
-674,393	800,000	-0,029	-0,060
-673,378	187,706	0,069	-0,075
-672,364	-183,342	-0,147	-0,002
-671,349	25,475	0,066	-0,040
-670,335	83,566	-0,071	-0,056
-669,320	800,000	-0,060	0,127
-668,305	105,318	-0,062	0,053
-667,291	543,687	-0,079	0,137
-666,276	800,000	-0,084	-0,184
-665,262	39,787	-0,079	0,051
-664,247	-145,782	-0,003	-0,000
-663,232	78,914	-0,108	0,084
-662,218	800,000	-0,030	-0,089
-661,203	-96,531	0,108	0,021
-660,189	19,601	-0,077	0,045
-659,174	800,000	0,027	0,065
-658,159	-200,000	0,002	-0,084
-657,145	215,984	0,023	-0,026
-656,130	17,946	0,035	0,020
-655,116	175,852	0,079	0,083
-654,101	-200,000	-0,024	0,224
-653,086	-200,000	-0,002	0,024
-652,072	-52,419	-0,057	-0,019
-651,057	800,000	-0,050	-0,138
-650,043	100,403	0,123	0,104
-649,028	112,793	0,023	-0,020
-648,014	-29,182	0,037	0,015
-646,999	45,862	-0,078	0,052
-645,984	36,342	-0,123	0,079
-644,970	526,852	-0,057	0,097
-643,955	-200,000	0,055	-0,205
-642,941	237,370	-0,141	-0,170
-641,926	18,575	0,045	-0,026
-640,911	17,676	0,112	-0,065
-639,897	384,710	-0,033	0,049
-638,882	-106,372	0,054	-0,009
-637,868	532,278	0,054	-0,092
-636,853	-3,114	0,052	-0,026
-635,838	-43,057	-0,086	-0,032
-634,824	432,777	0,100	-0,157
-633,809	-200,000	-0,009	-0,113
-632,795	-82,350	0,077	-0,018
-631,780	-156,345	0,163	0,007
-630,765	-200,000	-0,008	-0,040
-629,751	-200,000	0,025	-0,106
-628,736	184,807	-0,053	0,057
-627,722	-37,119	-0,068	0,026
-626,707	547,171	0,045	-0,078
-625,692	-62,110	0,035	0,010
-624,678	-200,000	-0,025	-0,093
-623,663	-17,055	-0,102	0,047
-622,649	366,624	0,011	0,016
-621,634	-200,000	0,016	0,064
-620,619	22,919	-0,068	0,040
-619,605	145,610	0,041	0,040
-618,590	103,843	-0,077	0,066
-617,576	18,743	0,137	0,079
-616,561	-41,069	-0,185	-0,069
-615,546	-121,743	-0,006	0,001
-614,532	429,319	-0,096	-0,151
-613,517	-118,704	-0,068	0,009
-612,503	800,000	0,041	-0,101
-611,488	22,071	0,111	-0,066
-610,474	324,562	-0,063	0,087
-609,459	124,468	-0,081	0,074
-608,444	-200,000	0,001	-0,028
-607,430	-182,367	0,043	0,001
-606,415	-182,764	-0,103	-0,001
-605,401	-113,550	0,053	0,007
-604,386	-200,000	0,023	0,089
-603,371	-1,464	0,079	0,040
-602,357	-200,000	0,021	-0,091
-601,342	111,565	-0,153	-0,134
-600,328	362,393	0,029	-0,043
-599,313	800,000	0,036	0,080
-598,298	-200,000	-0,009	0,067
-597,284	319,619	-0,077	0,106
-596,269	222,770	-0,007	0,008
-595,255	130,536	-0,031	-0,029
-594,240	-179,191	-0,122	0,002
-593,225	-132,607	0,043	-0,004
-592,211	800,000	-0,038	-0,105
-591,196	-200,000	-0,001	0,095
-590,182	372,898	-0,114	0,168
-589,167	800,000	0,040	0,091
-588,152	413,244	0,058	0,090
-587,138	-200,000	0,014	0,171
-586,123	437,637	-0,098	-0,155
-585,109	-8,290	-0,146	0,071
-584,094	-41,564	0,045	0,017
-583,079	205,959	0,063	-0,071
-582,065	-200,000	-0,027	0,136
-581,050	-200,000	0,025	0,188
-580,036	255,782	-0,050	0,062
-579,021	296,884	-0,043	-0,057
-578,006	-166,103	0,219	-0,007
-576,992	-166,399	-0,184	-0,005
-575,977	514,828	-0,029	-0,050
-574,963	-200,000	0,021	0,086
-573,948	-200,000	0,005	-0,141
-572,934	219,517	0,052	0,060
-571,919	239,142	-0,070	0,085
-570,904	-40,517	0,084	-0,032
-569,890	13,251	-0,080	-0,045
-568,875	800,000	-0,021	-0,043
-567,861	-72,551	-0,046	0,012
-566,846	-159,891	-0,030	-0,001
-565,831	-51,430	-0,166	0,056
-564,817	53,513	-0,107	-0,074
-563,802	800,000	0,053	0,106
-562,788	-90,321	-0,056	-0,012
-561,773	-23,313	0,054	-0,023
-560,758	301,652	0,066	0,089
-559,744	340,410	0,030	0,042
-558,729	-17,472	0,095	0,043
-557,715	-31,970	-0,033	0,013
-556,700	-200,000	-0,010	-0,048
-555,685	30,229	-0,124	-0,076
-554,671	15,777	0,116	-0,066
-553,656	-72,022	0,110	0,029
-552,642	-200,000	-0,011	0,127
-551,627	26,830	0,065	-0,039
-550,612	299,877	0,048	-0,064
-549,598	330,305	0,076	0,106
-548,583	800,000	-0,022	0,061
-547,569	273,232	-0,050	0,063
-546,554	-87,765	0,079	-0,017
-545,539	-99,873	0,048	-0,009
-544,525	152,515	0,122	-0,120
-543,510	-189,685	-0,109	-0,001
-542,496	340,311	0,117	-0,166
-541,481	-200,000	-0,005	-0,045
-540,466	-88,245	-0,147	-0,032
-539,452	800,000	-0,029	0,078
-538,437	800,000	0,086	0,190
-537,423	174,640	0,054	-0,056
-536,408	493,125	-0,095	-0,158
-535,393	-6,433	-0,076	-0,037
-534,379	54,713	-0,077	-0,054
-533,364	148,988	0,044	-0,043
-532,350	-31,189	0,087	-0,035
-531,335	800,000	0,020	-0,052
-530,321	-200,000	0,024	0,117
-529,306	-200,000	0,031	0,182
-528,291	800,000	-0,013	0,038
-527,277	800,000	-0,033	0,067
-526,262	-84,039	-0,026	-0,006
-525,248	-200,000	-0,004	-0,118
-524,233	800,000	0,042	0,104
-523,218	-200,000	0,023	-0,083
-522,204	239,588	-0,082	0,099
-521,189	8,235	-0,010	0,005
-520,175	4,787	0,055	-0,029
-519,160	263,202	-0,074	-0,093
-518,145	-200,000	0,009	0,035
-517,131	45,656	-0,053	-0,035
-516,116	-14,049	-0,105	0,049
-515,102	-200,000	0,018	0,156
-514,087	-200,000	0,010	0,093
-513,072	-7,679	-0,060	0,029
-512,058	800,000	0,041	-0,123
-511,043	-53,009	-0,082	0,027
-510,029	259,416	-0,059	-0,074
-509,014	299,906	-0,110	0,147
-507,999	-16,605	-0,103	-0,047
-506,985	-126,358	0,073	0,008
-505,970	-200,000	-0,011	-0,190
-504,956	74,620	0,045	-0,034
-503,941	-200,000	0,008	0,071
-502,926	-69,797	0,161	0,044
-501,912	-200,000	0,009	-0,036
-500,897	-33,529	0,041	0,016
-499,883	59,676	-0,021	-0,015
-498,868	800,000	0,027	-0,070
-497,853	247,918	0,073	-0,089
-496,839	-103,047	-0,068	0,012
-495,824	356,190	-0,066	0,096
-494,810	800,000	0,046	0,092
-493,795	221,182	-0,024	0,028
-492,781	-26,265	-0,132	0,056
-491,766	-200,000	-0,021	-0,074
-490,751	-200,000	-0,009	-0,093
-489,737	-200,000	0,001	-0,078
-488,722	29,051	0,076	-0,046
-487,708	97,269	-0,062	0,051
-486,693	800,000	0,055	0,171
-485,678	424,846	0,018	0,028
-484,664	-152,110	0,061	0,003
-483,649	800,000	-0,050	-0,100
-482,635	-11,996	0,098	0,046
-481,620	800,000	0,018	0,053
-480,605	-58,633	-0,063	-0,020
-479,591	197,770	0,037	0,041
-478,576	800,000	0,016	0,040
-477,562	202,234	-0,085	-0,095
-476,547	800,000	0,054	-0,142
-475,532	-85,881	-0,128	-0,028
-474,518	-116,167	-0,064	0,008
-473,503	498,205	0,038	0,064
-472,489	800,000	0,055	0,140
-471,474	117,579	-0,069	0,061
-470,459	-32,474	0,100	0,040
-469,445	-200,000	0,036	-0,139
-468,430	78,842	0,077	-0,059
-467,416	800,000	0,025	0,077
-466,401	281,383	0,027	-0,035
-465,386	-49,143	0,022	0,007
-464,372	800,000	-0,033	-0,094
-463,357	-40,285	0,045	-0,017
-462,343	-86,823	0,043	-0,009
-461,328	-200,000	-0,003	-0,080
-460,313	800,000	0,021	-0,046
-459,299	59,122	0,092	0,065
-458,284	683,115	-0,018	-0,034
-457,270	-88,498	-0,118	-0,025
-456,255	-10,842	-0,109	0,052
-455,241	800,000	0,025	0,056
-454,226	-69,559	0,148	0,040
-453,211	-81,503	-0,116	0,027
-452,197	-85,757	0,189	-0,042
-451,182	-99,246	0,197	0,036
-450,168	31,104	-0,043	0,026
-449,153	-22,029	0,093	-0,041
-448,138	-67,297	-0,148	0,042
-447,124	84,627	-0,041	-0,032
-446,109	800,000	0,031	-0,077
-445,095	-200,000	0,020	0,064
-444,080	800,000	0,028	-0,073
-443,065	123,948	0,050	-0,045
-442,051	667,205	0,053	-0,099
-441,036	-139,344	0,013	0,001
-440,022	-27,540	-0,081	-0,034
-439,007	12,810	-0,102	0,057
-437,992	361,634	-0,082	0,118
-436,978	-101,938	0,112	-0,019
-435,963	-15,711	-0,104	0,047
-434,949	-12,728	-0,050	0,023
-433,934	471,188	-0,024	0,038
-432,919	-200,000	0,055	-0,204
-431,905	-200,000	-0,003	-0,027
-430,890	-57,976	-0,117	0,036
-429,876	-96,130	-0,042	-0,008
-428,861	800,000	0,068	0,147
-427,846	28,473	0,084	0,051
-426,832	-85,222	-0,013	0,003
-425,817	-78,445	-0,122	-0,030
-424,803	171,314	-0,040	-0,041
-423,788	-200,000	-0,013	0,087
-422,773	-200,000	0,003	-0,042
-421,759	87,861	0,048	-0,038
-420,744	-200,000	0,031	0,102
-419,730	-200,000	0,039	0,175
-418,715	344,621	0,077	0,109
-417,701	-200,000	0,014	0,063
-416,686	-200,000	0,010	0,057
-415,671	-17,879	0,139	0,063
-414,657	-75,209	0,072	-0,018
-413,642	158,409	-0,073	-0,072
-412,628	63,371	-0,116	-0,084
-411,613	306,209	0,028	-0,038
-410,598	-72,627	0,014	-0,004
-409,584	-10,758	0,073	-0,035
-408,569	245,825	0,145	0,176
-407,555	344,276	-0,046	-0,064
-406,540	46,600	0,011	-0,008
-405,525	800,000	0,020	-0,053
-404,511	-200,000	-0,027	0,112
-403,496	-200,000	-0,039	-0,131
-402,482	261,030	-0,105	-0,131
-401,467	-13,242	0,200	0,093
-400,452	800,000	-0,022	0,050
-399,438	494,772	-0,051	0,085
-398,423	793,354	-0,096	-0,191
-397,409	91,373	0,128	-0,103
-396,394	64,240	-0,092	-0,066
-395,379	800,000	-0,035	0,090
-394,365	800,000	0,036	0,105
-393,350	441,520	0,054	0,085
-392,336	494,617	0,072	0,119
-391,321	-200,000	0,025	-0,097
-390,306	800,000	0,032	0,094
-389,292	577,688	-0,019	-0,033
-388,277	-4,749	0,032	0,016
-387,263	800,000	0,056	0,131
-386,248	-47,084	-0,071	-0,025
-385,233	-42,160	0,058	-0,021
-384,219	-49,260	-0,123	0,042
-383,204	529,466	0,080	-0,135
-382,190	-200,000	-0,013	-0,073
-381,175	335,699	-0,070	0,098
-380,160	-140,018	0,184	-0,014
-379,146	675,548	0,034	-0,065
-378,131	17,424	-0,076	0,043
-377,117	-200,000	0,014	0,122
-376,102	-22,197	0,128	-0,055
-375,088	800,000	-0,045	-0,141
-374,073	-60,693	0,142	-0,043
-373,058	29,954	-0,075	0,046
-372,044	182,909	0,086	0,091
-371,029	0,832	-0,129	0,066
-370,015	283,786	-0,049	-0,063
-369,000	362,809	0,003	-0,004
-367,985	-141,097	0,074	0,005
-366,971	208,679	-0,098	0,110
-365,956	-134,801	0,092	0,008
-364,942	-200,000	0,004	0,084
-363,927	-79,401	0,189	-0,045
-362,912	-200,000	-0,022	0,177
-361,898	-200,000	-0,017	0,214
-360,883	528,218	0,011	0,020
-359,869	800,000	-0,049	-0,153
-358,854	800,000	0,012	-0,032
-357,839	-13,819	0,052	-0,024
-356,825	-200,000	-0,008	0,049
-355,810	445,146	-0,078	0,124
-354,796	99,763	-0,080	0,066
-353,781	45,608	0,041	-0,027
-352,766	-37,741	0,093	-0,035
-351,752	152,822	-0,130	0,128
-350,737	25,675	0,168	-0,100
-349,723	800,000	-0,024	-0,049
-348,708	437,673	0,057	0,090
-347,693	20,774	0,049	0,029
-346,679	157,802	0,057	-0,057
-345,664	-200,000	0,008	0,039
-344,650	65,295	0,088	0,064
-343,635	800,000	0,034	0,071
-342,620	-27,159	-0,060	0,025
-341,606	800,000	-0,028	0,064
-340,591	-22,767	-0,043	-0,019
-339,577	-115,687	-0,151	0,020
-338,562	-62,612	-0,062	0,018
-337,548	410,175	0,013	0,019
-336,533	-43,128	0,036	-0,013
-335,518	-200,000	-0,011	-0,042
-334,504	-97,467	0,172	-0,032
-333,489	512,090	0,060	-0,100
-332,475	-200,000	-0,046	-0,173
-331,460	-38,487	-0,086	-0,032
-330,445	57,825	-0,015	0,010
-329,431	-200,000	0,014	-0,079
-328,416	-110,341	-0,063	0,009
-327,402	-73,468	0,005	0,001
-326,387	800,000	0,011	-0,033
-325,372	-52,522	-0,080	-0,026
-324,358	88,825	-0,056	0,045
-323,343	-160,690	-0,128	0,005
-322,329	59,457	0,071	0,050
-321,314	62,213	0,084	0,060
-320,299	397,229	-0,029	-0,044
-319,285	800,000	0,002	-0,005
-318,270	-164,645	0,098	0,003
-317,256	800,000	0,029	0,080
-316,241	-90,745	-0,064	-0,013
-315,226	-143,701	0,048	-0,003
-314,212	-200,000	0,026	0,119
-313,197	800,000	0,028	0,070
-312,183	560,105	-0,031	-0,054
-311,168	129,514	0,074	0,067
-310,153	-78,051	-0,015	-0,004
-309,139	-140,876	-0,245	-0,018
-308,124	-200,000	-0,008	0,061
-307,110	-128,420	0,009	-0,001
-306,095	105,609	-0,082	0,069
-305,080	304,412	0,032	-0,043
-304,066	23,968	-0,028	-0,017
-303,051	-61,249	-0,062	-0,019
-302,037	-200,000	-0,006	-0,142
-301,022	116,322	0,030	-0,027
-300,008	-200,000	0,027	-0,126
-298,993	52,292	0,052	0,035
-297,978	-74,839	0,088	0,023
-296,964	274,436	-0,024	0,031
-295,949	-130,626	0,040	-0,004
-294,935	127,530	0,051	-0,047
-293,920	800,000	-0,020	0,045
-292,905	800,000	-0,020	0,052
-291,891	3,642	0,070	0,036
-290,876	-58,104	-0,090	-0,028
-289,862	800,000	0,044	-0,105
-288,847	-200,000	-0,037	-0,139
-287,832	-200,000	-0,005	-0,131
-286,818	-48,275	-0,176	0,060
-285,803	124,093	-0,076	-0,068
-284,789	-19,443	0,096	0,043
-283,774	65,931	-0,100	-0,072
-282,759	800,000	-0,050	-0,101
-281,745	-200,000	0,008	0,071
-280,730	55,782	0,014	0,010
-279,716	455,517	-0,084	0,133
-278,701	9,349	-0,044	-0,024
-277,686	-71,692	0,209	0,055
-276,672	83,642	0,029	-0,023
-275,657	-200,000	0,020	-0,196
-274,643	800,000	0,087	-0,190
-273,628	-200,000	-0,008	-0,063
-272,613	-200,000	-0,030	-0,144
-271,599	-200,000	0,009	0,078
-270,584	622,578	-0,020	0,037
-269,570	28,351	-0,135	0,081
-268,555	302,345	0,039	-0,052
-267,540	187,037	0,089	-0,095
-266,526	-200,000	0,003	-0,079
-265,511	-152,395	0,055	0,003
-264,497	-66,750	-0,128	0,036
-263,482	-137,569	0,172	-0,014
-262,467	650,414	0,039	-0,072
-261,453	-51,162	-0,160	-0,053
-260,438	23,262	0,022	-0,013
-259,424	83,710	0,027	-0,021
-258,409	-22,104	-0,059	-0,025
-257,395	396,962	0,015	0,022
-256,380	-5,077	-0,076	0,037
-255,365	-32,665	0,102	0,040
-254,351	800,000	-0,022	0,059
-253,336	-200,000	-0,003	0,059
-252,322	181,932	-0,082	-0,086
-251,307	-31,577	0,066	-0,026
-250,292	-200,000	-0,018	0,090
-249,278	-64,072	0,096	-0,028
-248,263	-82,158	0,134	0,031
-247,249	62,531	0,029	-0,021
-246,234	-136,665	-0,044	0,004
-245,219	-29,886	-0,192	0,078
-244,205	-200,000	0,004	-0,072
-243,190	800,000	0,040	-0,121
-242,176	-45,789	0,058	-0,020
-241,161	26,409	0,109	0,065
-240,146	-95,466	0,050	-0,009
-239,132	150,618	-0,081	-0,079
-238,117	11,158	-0,057	-0,031
-237,103	800,000	0,015	0,030
-236,088	-200,000	-0,014	0,053
-235,073	-19,896	-0,042	0,019
-234,059	167,500	0,025	-0,026
-233,044	65,017	-0,012	0,009
-232,030	729,077	-0,099	-0,190
-231,015	105,550	-0,098	-0,083
-230,000	-42,215	-0,112	-0,041
-228,986	-20,849	-0,109	-0,048
-227,971	12,856	0,101	0,055
-226,957	-200,000	-0,018	0,070
-225,942	12,116	0,111	0,061
-224,927	94,302	-0,079	0,064
-223,913	-45,168	-0,046	-0,016
-222,898	85,837	-0,034	-0,027
-221,884	-8,730	-0,112	0,053
-220,869	-200,000	0,028	0,150
-219,855	-200,000	0,016	0,124
-218,840	222,357	0,069	0,079
-217,825	800,000	-0,020	-0,059
-216,811	800,000	0,023	-0,055
-215,796	648,476	0,053	-0,097
-214,782	397,910	0,040	0,060
-213,767	288,725	0,115	0,148
-212,752	186,706	0,033	0,035
-211,738	-84,675	-0,112	0,025
-210,723	-54,599	-0,063	-0,020
-209,709	-200,000	0,028	0,103
-208,694	-73,564	-0,036	0,009
-207,679	-154,450	-0,104	0,005
-206,665	233,850	-0,079	0,093
-205,650	-200,000	-0,016	0,062
-204,636	94,645	0,122	0,099
-203,621	-8,177	0,032	-0,015
-202,606	194,818	-0,095	-0,102
-201,592	305,029	0,043	0,057
-200,577	328,257	0,046	-0,063
-199,563	-200,000	-0,002	0,161
-198,548	-89,991	0,080	0,017
-197,533	800,000	-0,021	0,052
-196,519	-200,000	-0,005	-0,049
-195,504	51,315	-0,143	-0,096
-194,490	217,589	0,034	-0,039
-193,475	800,000	-0,051	-0,107
-192,460	131,477	-0,027	-0,025
-191,446	10,066	0,044	-0,024
-190,431	-200,000	-0,001	0,015
-189,417	-200,000	-0,013	-0,105
-188,402	-200,000	-0,005	0,026
-187,387	-118,027	-0,047	0,006
-186,373	484,752	-0,084	-0,137
-185,358	-200,000	0,013	-0,071
-184,344	2,181	-0,086	-0,044
-183,329	-9,364	0,101	-0,048
-182,315	800,000	0,052	-0,115
-181,300	0,021	0,163	0,082
-180,285	-76,358	-0,066	-0,016
-179,271	561,270	-0,023	-0,039
-178,256	-16,057	0,145	-0,065
-177,242	-200,000	0,007	0,088
-176,227	-200,000	-0,002	0,089
-175,212	-125,147	0,116	0,013
-174,198	-200,000	-0,006	0,054
-173,183	-109,275	-0,042	0,006
-172,169	208,781	-0,120	-0,134
-171,154	800,000	0,063	-0,192
-170,139	-200,000	-0,006	0,090
-169,125	800,000	-0,024	-0,064
-168,110	-111,625	0,101	0,014
-167,096	175,745	0,072	-0,075
-166,081	-200,000	0,009	-0,099
-165,066	-200,000	-0,024	-0,186
-164,052	800,000	-0,034	-0,102
-163,037	-22,005	0,091	-0,039
-162,023	-200,000	-0,002	-0,031
-161,008	800,000	-0,047	0,120
-159,993	-70,061	0,063	0,017
-158,979	15,659	-0,099	0,055
-157,964	334,995	-0,027	0,038
-156,950	-200,000	0,012	0,134
-155,935	800,000	-0,022	0,061
-154,920	-200,000	-0,004	-0,105
-153,906	-200,000	0,001	0,165
-152,891	-128,235	0,096	0,010
-151,877	138,774	0,039	0,037
-150,862	419,296	0,043	-0,066
-149,847	-200,000	0,023	-0,122
-148,833	800,000	-0,062	-0,123
-147,818	356,412	0,081	0,115
-146,804	-200,000	-0,023	0,131
-145,789	49,038	0,113	0,075
-144,775	628,926	0,037	-0,067
-143,760	800,000	-0,030	-0,068
-142,745	800,000	0,004	0,012
-141,731	-200,000	-0,032	-0,243
-140,716	132,768	0,070	0,064
-139,702	-29,738	0,050	-0,020
-138,687	-200,000	0,006	0,103
-137,672	-200,000	-0,013	0,198
-136,658	26,016	0,085	0,050
-135,643	193,053	-0,030	0,033
-134,629	89,699	-0,031	-0,024
-133,614	119,690	0,132	-0,116
-132,599	510,236	-0,034	0,056
-131,585	-200,000	-0,036	0,138
-130,570	-200,000	-0,031	-0,170
-129,556	74,759	0,011	0,008
-128,541	-159,115	0,132	0,005
-127,526	800,000	-0,036	-0,113
-126,512	-59,854	0,043	0,013
-125,497	-200,000	0,008	0,042
-124,483	152,576	0,058	-0,057
-123,468	-200,000	-0,032	-0,104
-122,453	800,000	-0,017	-0,034
-121,439	71,749	0,134	-0,099
-120,424	-200,000	-0,002	0,025
-119,410	346,176	-0,049	-0,069
-118,395	-153,098	0,111	0,005
-117,380	-79,897	-0,072	-0,017
-116,366	93,106	0,076	0,061
-115,351	535,342	-0,070	-0,118
-114,337	-200,000	0,010	0,135
-113,322	354,144	-0,022	-0,031
-112,307	58,764	-0,093	0,065
-111,293	-23,282	0,007	0,003
-110,278	-37,604	0,118	-0,044
-109,264	689,774	-0,024	0,044
-108,249	-49,582	0,056	0,019
-107,234	-200,000	-0,000	-0,039
-106,220	-146,062	-0,119	0,007
-105,205	53,654	0,025	0,017
-104,191	84,117	0,027	0,021
-103,176	121,773	-0,047	-0,041
-102,162	-143,008	-0,078	-0,005
-101,147	800,000	-0,020	-0,051
-100,132	800,000	-0,064	-0,149
-99,118	-200,000	0,030	-0,108
-98,103	11,330	-0,086	-0,047
-97,089	-200,000	-0,004	-0,088
-96,074	74,282	-0,064	0,048
-95,059	11,095	0,081	-0,044
-94,045	-200,000	0,013	-0,106
-93,030	102,783	0,054	-0,045
-92,016	201,611	0,104	-0,114
-91,001	76,122	0,084	-0,063
-89,986	800,000	-0,052	0,127
-88,972	439,390	0,037	0,057
-87,957	386,733	0,082	0,121
-86,943	-102,069	-0,077	-0,013
-85,928	-200,000	-0,006	0,099
-84,913	-44,339	0,064	-0,023
-83,899	22,981	-0,134	-0,078
-82,884	-117,673	0,085	0,011
-81,870	-200,000	-0,004	-0,039
-80,855	96,413	-0,040	0,033
-79,840	195,314	0,020	0,022
-78,826	-200,000	-0,002	0,073
-77,811	800,000	-0,032	-0,087
-76,797	-7,899	0,113	-0,054
-75,782	-200,000	0,004	-0,027
-74,767	-60,270	0,087	-0,026
-73,753	-92,472	0,127	0,025
-72,738	1,155	0,009	0,005
-71,724	800,000	-0,043	-0,085
-70,709	328,962	-0,053	-0,072
-69,694	800,000	0,024	-0,062
-68,680	800,000	0,031	-0,082
-67,665	-200,000	0,028	0,106
-66,651	21,397	0,050	0,029
-65,636	279,417	-0,049	0,063
-64,622	239,269	-0,040	-0,048
-63,607	-111,148	0,080	-0,011
-62,592	-74,623	0,068	-0,017
-61,578	-116,370	0,078	0,010
-60,563	180,524	0,024	0,025
-59,549	-200,000	-0,038	0,200
-58,534	-47,244	-1,589	-0,546
-57,519	363,952	-1,532	-2,189
-56,505	-200,000	-0,576	-4,668
-55,490	218,396	0,931	1,055
-54,476	800,000	4,589	10,858
-53,461	-200,000	18,380	292,052
-52,446	800,000	729,216	2242,745
-51,432	557,306	1645,496	2821,978
-50,417	79,143	1666,349	1263,793
-49,403	22,772	1539,860	891,556
-48,388	16,763	1463,188	818,022
-47,373	17,911	1453,169	817,922
-46,359	17,270	1443,456	809,353
-45,344	15,017	1438,863	795,979
-44,330	14,943	1436,793	794,451
-43,315	14,930	1435,249	793,503
-42,300	14,966	1433,491	792,669
-41,286	15,016	1432,302	792,218
-40,271	14,972	1431,200	791,370
-39,257	14,951	1430,052	790,600
-38,242	15,001	1428,438	789,914
-37,227	15,030	1427,389	789,441
-36,213	14,965	1426,149	788,418
-35,198	14,968	1425,016	787,773
-34,184	14,998	1424,064	787,358
-33,169	14,944	1422,853	786,401
-32,154	14,954	1421,743	785,802
-31,140	14,986	1420,294	785,121
-30,125	15,003	1419,144	784,538
-29,111	15,019	1418,072	783,989
-28,096	15,001	1416,884	783,216
-27,082	14,913	1415,930	782,242
-26,067	14,931	1414,765	781,651
-25,052	14,928	1413,854	781,103
-24,038	14,888	1412,943	780,383
-23,023	14,934	1411,674	779,865
-22,009	14,861	1410,838	779,032
-20,994	14,862	1409,925	778,499
-19,979	14,830	1409,134	777,882
-18,965	14,839	1407,883	777,203
-17,950	14,842	1407,039	776,722
-16,936	14,805	1406,083	775,992
-15,921	14,776	1404,932	775,188
-14,906	14,788	1404,015	774,710
-13,892	14,839	1403,019	774,363
-12,877	14,799	1402,393	773,804
-11,863	14,788	1401,367	773,154
-10,848	14,775	1400,578	772,629
-9,833	14,776	1399,613	772,071
-8,819	14,776	1398,511	771,433
-7,804	14,710	1397,845	770,725
-6,790	14,710	1396,831	770,139
-5,775	14,713	1395,715	769,505
-4,760	14,721	1394,801	769,006
-3,746	14,695	1394,033	768,431
-2,731	14,727	1393,199	768,092
-1,717	14,741	1392,101	767,521
-0,702	14,732	1390,426	766,527
0,313	18,444	1309,007	738,861
1,327	34,721	706,110	436,277
2,342	53,650	124,361	84,396
3,356	2,256	16,691	8,517
4,371	-2,451	3,112	1,538
5,386	-13,174	0,512	0,235
6,400	-200,000	0,005	0,149
7,415	2,191	-0,288	-0,147
8,429	8,351	-0,289	-0,153
9,444	137,914	-0,311	-0,289
10,459	-30,281	-0,395	-0,158
11,473	588,762	-0,209	-0,365
12,488	0,328	-0,276	-0,139
13,502	149,165	-0,235	-0,225
14,517	42,104	-0,265	-0,170
15,531	290,787	-0,185	-0,238
16,546	-20,725	-0,298	-0,129
17,561	-6,270	-0,471	-0,227
18,575	-59,068	-0,269	-0,081
19,590	120,823	-0,073	-0,064
20,604	11,537	-0,276	-0,149
21,619	64,605	-0,453	-0,323
22,634	83,773	-0,415	-0,320
23,648	69,750	-0,530	-0,386
24,663	100,290	-0,349	-0,286
25,677	-24,072	-0,423	-0,178
26,692	-11,286	-0,358	-0,166
27,707	77,040	-0,417	-0,313
28,721	105,786	-0,377	-0,315
29,736	41,050	-0,371	-0,236
30,750	103,631	-0,322	-0,267
31,765	3,058	-0,393	-0,201
32,780	33,566	-0,453	-0,278
33,794	106,577	-0,383	-0,321
34,809	11,220	-0,288	-0,155
35,823	248,756	-0,315	-0,377
36,838	180,297	-0,358	-0,371
37,853	56,345	-0,339	-0,232
38,867	190,635	-0,332	-0,353
39,882	19,813	-0,391	-0,222
40,896	18,949	-0,444	-0,250
41,911	199,246	-0,192	-0,208
42,926	41,730	-0,467	-0,298
43,940	325,417	-0,342	-0,463
44,955	96,907	-0,441	-0,356
45,969	169,945	-0,338	-0,341
46,984	8,776	-0,388	-0,206
47,999	-11,586	-0,528	-0,244
49,013	151,775	-0,292	-0,280
50,028	-95,243	-0,446	-0,084
51,042	-92,987	-0,259	-0,051
52,057	178,311	-0,328	-0,338
53,071	162,079	-0,229	-0,227
54,086	-50,921	-0,283	-0,093
55,101	189,995	-0,274	-0,290
56,115	133,833	-0,272	-0,248
57,130	50,603	-0,331	-0,221
58,144	127,223	-0,345	-0,309
59,159	123,161	-0,458	-0,404
60,174	2,743	-0,445	-0,227
61,188	74,585	-0,354	-0,262
62,203	12,316	-0,305	-0,165
63,217	-100,682	-0,378	-0,065
64,232	26,100	-0,347	-0,204
65,247	324,307	-0,266	-0,359
66,261	2,780	-0,340	-0,173
67,276	336,012	-0,256	-0,351
68,290	-29,828	-0,419	-0,167
69,305	57,590	-0,263	-0,181
70,320	154,545	-0,207	-0,200
71,334	-140,725	-0,434	-0,031
72,349	-15,091	-0,215	-0,097
73,363	75,623	-0,388	-0,288
74,378	112,664	-0,276	-0,235
75,393	101,149	-0,294	-0,241
76,407	71,976	-0,234	-0,171
77,422	-13,075	-0,342	-0,156
78,436	191,711	-0,204	-0,216
79,451	24,963	-0,178	-0,103
80,466	-30,258	-0,481	-0,191
81,480	218,919	-0,221	-0,249
82,495	107,903	-0,265	-0,222
83,509	-48,666	-0,306	-0,103
84,524	385,485	-0,215	-0,313
85,539	-19,689	-0,246	-0,106
86,553	-160,961	-0,285	-0,010
87,568	-30,051	-0,340	-0,135
88,582	41,493	-0,393	-0,250
89,597	-141,863	-0,364	-0,025
90,611	-19,783	-0,421	-0,182
91,626	26,612	-0,335	-0,197
92,641	74,823	-0,177	-0,130
93,655	-9,184	-0,212	-0,099
94,670	275,829	-0,256	-0,320
95,684	336,205	-0,292	-0,399
96,699	-23,708	-0,260	-0,109
97,714	73,676	-0,188	-0,138
98,728	800,000	-0,087	-0,227
99,743	379,130	-0,157	-0,226
100,757	55,333	-0,304	-0,206
101,772	-16,386	-0,366	-0,162
102,787	9,213	-0,246	-0,130
103,801	15,298	-0,291	-0,160
104,816	70,243	-0,222	-0,161
105,830	119,098	-0,228	-0,198
106,845	167,717	-0,199	-0,198
107,860	-115,152	-0,273	-0,036
108,874	150,497	-0,291	-0,277
109,889	-22,272	-0,314	-0,133
110,903	221,281	-0,204	-0,230
111,918	113,765	-0,300	-0,256
112,933	301,889	-0,174	-0,226
113,947	171,884	-0,268	-0,270
114,962	0,971	-0,148	-0,074
115,976	125,235	-0,237	-0,209
116,991	223,070	-0,279	-0,316
118,006	144,245	-0,237	-0,222
119,020	-3,690	-0,298	-0,145
120,035	113,556	-0,279	-0,237
121,049	239,211	-0,186	-0,217
122,064	800,000	-0,177	-0,355
123,079	101,460	-0,313	-0,256
124,093	71,316	-0,312	-0,226
125,108	80,139	-0,273	-0,206
126,122	-1,042	-0,254	-0,126
127,137	-89,353	-0,269	-0,055
128,151	312,930	-0,134	-0,177
129,166	150,536	-0,195	-0,185
130,181	248,852	-0,204	-0,242
131,195	65,592	-0,283	-0,201
132,210	73,368	-0,266	-0,195
133,224	13,250	-0,175	-0,094
134,239	68,736	-0,217	-0,156
135,254	34,676	-0,237	-0,145
136,268	283,144	-0,119	-0,150
137,283	-23,182	-0,252	-0,105
138,297	97,937	-0,247	-0,199
139,312	57,596	-0,318	-0,217
140,327	678,108	-0,156	-0,285
141,341	320,689	-0,171	-0,228
142,356	53,086	-0,243	-0,162
143,370	20,797	-0,208	-0,118
144,385	-45,231	-0,244	-0,084
145,400	-9,793	-0,213	-0,099
146,414	-48,834	-0,304	-0,102
147,429	25,733	-0,204	-0,118
148,443	290,014	-0,202	-0,258
149,458	-26,859	-0,282	-0,115
150,473	-77,394	-0,315	-0,076
151,487	-27,785	-0,332	-0,134
152,502	540,742	-0,175	-0,293
153,516	-7,351	-0,260	-0,123
154,531	-130,960	-0,243	-0,022
155,546	33,860	-0,245	-0,149
156,560	248,024	-0,169	-0,200
157,575	800,000	-0,114	-0,234
158,589	747,000	-0,152	-0,288
159,604	641,793	-0,144	-0,257
160,619	82,943	-0,272	-0,207
161,633	144,253	-0,214	-0,199
162,648	309,823	-0,201	-0,264
163,662	109,504	-0,143	-0,120
164,677	62,362	-0,265	-0,185
165,692	384,047	-0,223	-0,321
166,706	302,456	-0,225	-0,292
167,721	-9,907	-0,315	-0,146
168,735	-27,161	-0,270	-0,110
169,750	63,561	-0,219	-0,154
170,764	166,946	-0,212	-0,210
171,779	22,173	-0,241	-0,137
172,794	120,748	-0,276	-0,240
173,808	213,903	-0,173	-0,192
174,823	23,679	-0,229	-0,131
175,837	149,110	-0,195	-0,184
176,852	187,010	-0,211	-0,220
177,867	-23,086	-0,125	-0,052
178,881	82,925	-0,127	-0,096
179,896	59,698	-0,246	-0,169
180,910	392,502	-0,128	-0,187
181,925	76,757	-0,225	-0,166
182,940	-52,105	-0,305	-0,098
183,954	242,597	-0,185	-0,217
184,969	-153,993	-0,206	-0,010
185,983	22,230	-0,227	-0,129
186,998	93,937	-0,154	-0,122
188,013	340,655	-0,279	-0,381
189,027	-74,949	-0,251	-0,062
190,042	-64,751	-0,192	-0,054
191,056	26,485	-0,279	-0,162
192,071	471,603	-0,105	-0,166
193,086	100,180	-0,128	-0,104
194,100	199,686	-0,167	-0,179
195,115	-109,946	-0,199	0,029
196,129	0,595	-0,327	-0,162
197,144	63,161	-0,304	-0,212
198,159	128,887	-0,261	-0,232
199,173	58,731	-0,147	-0,100
200,188	84,325	-0,214	-0,162
201,202	245,058	-0,235	-0,276
202,217	274,251	-0,159	-0,196
203,232	-24,355	-0,180	-0,074
204,246	800,000	-0,103	-0,205
205,261	-54,882	-0,217	-0,068
206,275	78,127	-0,207	-0,153
207,290	337,048	-0,144	-0,195
208,304	-71,754	-0,199	-0,051
209,319	-52,712	-0,255	-0,081
210,334	258,896	-0,114	-0,137
211,348	5,973	-0,248	-0,127
212,363	49,214	-0,175	-0,114
213,377	354,771	-0,167	-0,231
214,392	455,331	-0,116	-0,179
215,407	-80,109	-0,079	0,018
216,421	159,415	-0,121	-0,117
217,436	-67,899	-0,132	0,036
218,450	65,894	-0,235	-0,165
219,465	73,198	-0,264	-0,191
220,480	-200,000	-0,084	-0,269
221,494	-200,000	-0,031	0,122
222,509	-80,264	-0,147	0,034
223,523	275,209	-0,188	-0,232
224,538	327,051	-0,170	-0,228
225,553	113,795	-0,312	-0,263
226,567	-84,172	-0,235	-0,051
227,582	-136,309	-0,194	-0,015
228,596	-120,683	-0,207	-0,024
229,611	148,536	-0,107	-0,100
230,626	24,398	-0,233	-0,134
231,640	800,000	-0,099	-0,255
232,655	-131,776	-0,218	-0,020
233,669	305,255	-0,186	-0,241
234,684	316,504	-0,194	-0,254
235,699	800,000	-0,087	-0,182
236,713	-137,408	-0,115	-0,009
237,728	-103,095	-0,171	-0,028
238,742	-125,676	-0,208	-0,022
239,757	-33,898	-0,319	-0,121
240,772	-110,435	-0,408	-0,058
241,786	161,659	-0,143	-0,139
242,801	43,094	-0,166	-0,105
243,815	388,082	-0,031	0,044
244,830	-88,311	-0,150	0,031
245,844	-21,811	-0,190	-0,080
246,859	147,781	-0,165	-0,154
247,874	-57,894	-0,137	0,041
248,888	136,715	-0,168	-0,152
249,903	-200,000	-0,045	-0,202
250,917	275,746	-0,170	-0,210
251,932	391,650	-0,091	-0,131
252,947	176,488	-0,188	-0,189
253,961	93,216	-0,153	-0,120
254,976	187,005	-0,181	-0,187
255,990	150,592	-0,147	-0,139
257,005	-74,779	-0,187	-0,046
258,020	109,635	-0,165	-0,137
259,034	800,000	-0,036	-0,108
260,049	106,117	-0,187	-0,153
261,063	-11,563	-0,285	-0,129
262,078	-32,002	-0,161	-0,062
263,093	-200,000	-0,052	-0,261
264,107	-200,000	-0,044	-0,200
265,122	87,642	-0,174	-0,133
266,136	-115,586	-0,269	-0,035
267,151	-104,244	-0,185	-0,029
268,166	21,645	-0,186	-0,105
269,180	59,196	-0,224	-0,152
270,195	252,043	-0,165	-0,195
271,209	4,601	-0,176	-0,089
272,224	486,129	-0,162	-0,257
273,239	-13,522	0,020	-0,009
274,253	275,544	-0,089	-0,109
275,268	-51,619	-0,201	-0,064
276,282	343,792	-0,111	-0,151
277,297	800,000	-0,103	-0,266
278,312	-32,833	-0,241	-0,092
279,326	-80,349	-0,152	-0,035
280,341	-84,193	-0,189	-0,041
281,355	-120,270	-0,174	0,020
282,370	-60,087	-0,098	-0,029
283,384	114,287	-0,170	-0,143
284,399	589,183	-0,131	-0,223
285,414	-166,690	-0,169	-0,005
286,428	-99,227	-0,190	-0,033
287,443	208,244	-0,058	-0,062
288,457	800,000	-0,047	-0,094
289,472	-74,624	-0,129	0,032
290,487	-78,629	-0,175	-0,041
291,501	-94,956	-0,214	-0,040
292,516	464,080	-0,119	-0,184
293,530	153,432	-0,159	-0,151
294,545	-137,650	-0,198	-0,015
295,560	139,939	-0,108	-0,098
296,574	-200,000	-0,027	-0,138
297,589	59,913	-0,156	-0,106
298,603	26,091	-0,171	-0,098
299,618	800,000	-0,081	-0,166
300,633	307,743	-0,158	-0,204
301,647	296,889	-0,091	-0,115
302,662	-20,192	-0,073	-0,031
303,676	-200,000	-0,004	0,022
304,691	-50,347	-0,134	-0,043
305,706	400,176	-0,094	-0,136
306,720	413,127	-0,152	-0,224
307,735	-200,000	-0,055	-0,206
308,749	350,841	-0,102	-0,140
309,764	386,839	-0,052	-0,074
310,779	-200,000	-0,032	-0,182
311,793	50,502	-0,184	-0,120
312,808	11,094	-0,192	-0,101
313,822	96,983	-0,146	-0,115
314,837	328,736	-0,108	-0,143
315,852	535,745	-0,082	-0,135
316,866	138,633	-0,092	-0,083
317,881	151,258	-0,068	-0,063
318,895	-33,525	-0,087	-0,033
319,910	201,698	-0,107	-0,114
320,925	-33,539	-0,210	-0,079
321,939	800,000	-0,076	-0,170
322,954	248,642	-0,079	-0,093
323,968	-193,371	-0,171	0,001
324,983	18,039	-0,184	0,101
325,997	-132,060	-0,275	-0,024
327,012	122,325	-0,109	-0,094
328,027	96,534	-0,067	-0,053
329,041	51,350	-0,158	-0,103
330,056	273,891	-0,126	-0,153
331,070	-41,740	-0,192	-0,068
332,085	-84,548	-0,162	0,035
333,100	168,447	-0,146	-0,143
334,114	-117,593	-0,132	0,016
335,129	132,119	-0,184	-0,163
336,143	-82,336	-0,201	0,045
337,158	800,000	-0,059	-0,128
338,173	17,386	-0,175	-0,095
339,187	244,042	-0,089	-0,102
340,202	15,552	-0,079	-0,043
341,216	484,574	-0,133	-0,209
342,231	449,676	-0,031	-0,047
343,246	-76,462	-0,121	-0,029
344,260	-11,635	-0,190	-0,085
345,275	-16,776	-0,025	0,011
346,289	-23,612	-0,045	-0,018
347,304	800,000	-0,075	-0,195
348,319	691,229	-0,054	-0,098
349,333	183,702	-0,111	-0,113
350,348	-122,537	-0,192	-0,021
351,362	154,746	-0,090	0,085
352,377	-41,121	-0,111	-0,039
353,392	-3,557	-0,144	-0,068
354,406	175,899	-0,117	-0,117
355,421	209,192	1315,257	1416,076
356,435	160,993	1476,070	1416,590
