DTS Sentinel unit serial number:	SN410029Multiplexer serial number:	ORYXHardware model number:	OX2-SRSoftware version number:	ORYX F/W v4,00 Oryx Data Collector v3.7.2.0data status	okinstallation	B3 Nyhavnadifferential loss correction	single-endedforward channel	channel 1reverse channel	N/Adate	2023/12/01time	05:42:30forward acquisition time	300,00reverse acquisition time	0,00gamma	499,1914k internal	0,3212k external	0,3212temperature offset calibration	1,0000default loss term (dB/km)	0,3820temperature slope calibration	1,0000multiplexer offset coefficient	1,0000multiplexer slope coefficient	1,0000fibre end	0,00T internal ref (°C)	7,82T ext. ref 1 (°C)	-7,11T ext. ref 2 (°C)	-7,24length (m)	temperature (°C)	Stokes	anti-Stokes-744,400	167,516	-0,303	-0,312
-743,385	-200,000	0,035	0,201
-742,371	113,804	-0,292	-0,257
-741,356	-200,000	-0,022	0,312
-740,342	45,736	-0,166	-0,111
-739,327	-200,000	0,029	0,214
-738,312	800,000	-0,053	-0,142
-737,298	-200,000	0,042	0,170
-736,283	109,035	-0,221	-0,192
-735,269	-200,000	-0,021	0,253
-734,254	64,128	-0,221	-0,161
-733,239	37,149	-0,256	0,164
-732,225	160,956	-0,188	-0,191
-731,210	293,236	0,211	0,280
-730,196	-43,337	-0,065	0,024
-729,181	1,216	0,110	-0,057
-728,167	800,000	-0,065	-0,170
-727,152	800,000	0,018	-0,046
-726,137	-8,785	-0,085	0,041
-725,123	-79,045	-0,066	0,016
-724,108	77,567	-0,025	-0,019
-723,094	800,000	-0,030	0,082
-722,079	-79,433	-0,112	-0,027
-721,064	207,533	0,068	-0,077
-720,050	-83,084	-0,098	-0,023
-719,035	149,038	0,089	0,087
-718,021	260,488	-0,059	0,074
-717,006	-101,812	0,059	-0,010
-715,991	-46,319	-0,196	0,069
-714,977	143,276	-0,057	0,055
-713,962	800,000	0,042	-0,104
-712,948	126,796	-0,078	-0,071
-711,933	207,879	0,028	0,031
-710,918	-200,000	0,024	0,081
-709,904	-85,934	-0,156	0,035
-708,889	-200,000	0,013	0,054
-707,875	-200,000	-0,018	-0,114
-706,860	-11,530	-0,039	0,018
-705,845	800,000	-0,089	-0,193
-704,831	-200,000	-0,012	-0,063
-703,816	326,258	-0,068	-0,094
-702,802	-93,065	-0,072	-0,014
-701,787	-76,642	-0,080	0,020
-700,772	-64,831	-0,077	0,022
-699,758	-87,547	0,110	-0,024
-698,743	-105,315	0,041	0,007
-697,729	267,654	0,033	-0,042
-696,714	-76,876	-0,178	0,045
-695,699	-200,000	-0,006	-0,060
-694,685	800,000	-0,047	0,095
-693,670	-37,593	-0,157	0,060
-692,656	332,217	0,037	0,052
-691,641	-86,301	0,064	0,014
-690,627	-200,000	-0,001	0,159
-689,612	68,540	0,036	-0,026
-688,597	96,098	-0,067	-0,056
-687,583	480,007	0,049	0,080
-686,568	-118,501	-0,090	-0,011
-685,554	210,613	-0,094	-0,107
-684,539	7,408	0,107	-0,058
-683,524	118,520	-0,111	0,099
-682,510	-200,000	-0,022	0,115
-681,495	-15,890	-0,021	0,010
-680,481	-97,125	-0,093	-0,017
-679,466	-200,000	0,013	0,189
-678,451	130,542	-0,044	-0,040
-677,437	800,000	0,021	0,061
-676,422	-200,000	0,033	0,129
-675,408	266,094	-0,074	0,093
-674,393	-44,708	0,180	-0,064
-673,378	-200,000	-0,115	-0,000
-672,364	89,700	0,029	0,024
-671,349	-9,654	-0,054	-0,026
-670,335	-135,682	0,052	-0,004
-669,320	-36,881	-0,069	-0,027
-668,305	-86,338	-0,083	-0,018
-667,291	-29,417	-0,087	-0,036
-666,276	-70,130	-0,075	-0,020
-665,262	-200,000	0,015	-0,106
-664,247	-51,989	-0,215	-0,072
-663,232	800,000	0,034	-0,079
-662,218	800,000	0,016	-0,037
-661,203	-79,580	-0,032	0,008
-660,189	-20,203	-0,111	0,049
-659,174	-200,000	-0,009	-0,090
-658,159	800,000	-0,059	-0,131
-657,145	42,636	-0,093	-0,061
-656,130	-200,000	-0,047	-0,173
-655,116	800,000	-0,019	-0,042
-654,101	95,092	-0,055	0,045
-653,086	350,727	-0,058	0,083
-652,072	-200,000	0,009	-0,136
-651,057	166,145	0,082	-0,084
-650,043	389,224	0,009	-0,014
-649,028	-142,683	0,117	0,008
-648,014	-200,000	0,000	0,021
-646,999	-91,812	-0,053	0,011
-645,984	118,982	0,037	-0,033
-644,970	632,346	0,016	-0,029
-643,955	379,262	-0,086	-0,128
-642,941	122,843	-0,085	-0,077
-641,926	-11,352	-0,016	-0,008
-640,911	-11,624	-0,038	0,018
-639,897	800,000	0,010	0,029
-638,882	-127,255	0,054	0,006
-637,868	-200,000	0,001	0,019
-636,853	62,732	-0,070	-0,050
-635,838	-200,000	0,020	-0,079
-634,824	-136,522	-0,033	0,003
-633,809	-200,000	-0,005	0,129
-632,795	-99,601	-0,138	0,025
-631,780	-200,000	-0,000	-0,034
-630,765	141,281	-0,074	0,071
-629,751	-26,737	-0,100	0,042
-628,736	-200,000	0,011	-0,065
-627,722	-45,387	-0,038	-0,014
-626,707	-127,171	0,076	-0,008
-625,692	-200,000	0,031	0,109
-624,678	-118,196	0,130	-0,016
-623,663	800,000	-0,025	-0,054
-622,649	118,850	-0,065	0,058
-621,634	-200,000	-0,004	-0,173
-620,619	339,708	-0,123	-0,174
-619,605	-108,146	0,186	0,029
-618,590	406,502	-0,044	-0,067
-617,576	665,045	0,029	0,055
-616,561	800,000	-0,039	-0,095
-615,546	-200,000	-0,029	0,116
-614,532	-200,000	-0,002	-0,048
-613,517	292,489	-0,091	-0,120
-612,503	234,902	-0,038	-0,045
-611,488	483,549	0,074	0,122
-610,474	90,566	0,028	-0,022
-609,459	-200,000	0,016	0,088
-608,444	363,059	-0,055	-0,080
-607,430	216,002	-0,019	-0,021
-606,415	800,000	-0,017	-0,038
-605,401	226,187	0,005	0,006
-604,386	432,929	0,070	0,109
-603,371	800,000	-0,040	-0,100
-602,357	-200,000	-0,006	-0,041
-601,342	-143,267	-0,194	-0,013
-600,328	432,574	-0,051	-0,080
-599,313	288,256	0,058	-0,075
-598,298	157,591	-0,057	0,057
-597,284	495,568	-0,015	-0,025
-596,269	-200,000	0,001	0,136
-595,255	-139,035	0,044	0,003
-594,240	-31,512	0,053	0,022
-593,225	228,371	-0,093	-0,109
-592,211	-200,000	-0,002	-0,109
-591,196	95,283	-0,024	-0,020
-590,182	-200,000	0,009	0,041
-589,167	-200,000	-0,004	-0,095
-588,152	41,928	0,090	0,059
-587,138	-31,817	-0,125	-0,050
-586,123	95,310	-0,097	0,080
-585,109	64,921	0,076	0,055
-584,094	-28,692	-0,158	0,065
-583,079	-200,000	0,005	0,046
-582,065	530,016	-0,047	0,081
-581,050	574,241	-0,039	-0,068
-580,036	-65,648	0,079	0,023
-579,021	-200,000	-0,032	-0,116
-578,006	-9,956	-0,142	0,068
-576,992	-200,000	-0,026	0,113
-575,977	67,372	-0,040	0,029
-574,963	-43,888	0,038	0,014
-573,948	452,246	0,089	-0,143
-572,934	272,727	-0,031	0,039
-571,919	33,877	-0,062	-0,039
-570,904	244,177	0,106	-0,129
-569,890	269,839	0,089	-0,113
-568,875	-200,000	0,012	0,088
-567,861	-61,106	0,108	0,033
-566,846	170,621	0,051	-0,052
-565,831	45,584	-0,132	0,088
-564,817	-200,000	-0,033	-0,129
-563,802	-200,000	-0,016	-0,085
-562,788	-200,000	0,018	-0,112
-561,773	-97,076	0,078	-0,015
-560,758	-107,364	-0,078	0,012
-559,744	180,450	-0,025	-0,027
-558,729	-131,700	0,134	-0,012
-557,715	800,000	-0,001	0,004
-556,700	-200,000	0,006	0,035
-555,685	151,816	0,031	0,030
-554,671	-66,291	0,051	0,015
-553,656	-200,000	-0,001	-0,146
-552,642	365,580	-0,070	0,102
-551,627	275,894	0,090	0,115
-550,612	244,534	0,086	0,104
-549,598	-200,000	0,021	-0,179
-548,583	183,324	0,038	0,041
-547,569	-200,000	-0,020	0,087
-546,554	-30,315	0,094	-0,038
-545,539	-200,000	0,019	0,073
-544,525	800,000	-0,009	0,025
-543,510	10,821	0,037	0,020
-542,496	232,818	0,089	-0,105
-541,481	800,000	0,015	-0,033
-540,466	580,103	-0,014	0,025
-539,452	800,000	0,011	-0,025
-538,437	-104,264	-0,169	-0,028
-537,423	-88,790	-0,088	-0,019
-536,408	791,790	-0,053	-0,105
-535,393	42,101	-0,043	0,028
-534,379	-200,000	-0,037	-0,130
-533,364	800,000	-0,042	-0,101
-532,350	498,444	0,086	-0,143
-531,335	153,743	-0,042	-0,042
-530,321	-12,100	-0,079	0,037
-529,306	42,016	-0,117	-0,076
-528,291	22,684	0,035	-0,020
-527,277	-200,000	0,019	-0,192
-526,262	-200,000	0,011	-0,146
-525,248	800,000	-0,018	0,044
-524,233	-200,000	-0,021	-0,102
-523,218	-200,000	0,008	0,069
-522,204	120,516	-0,149	0,133
-521,189	-112,738	0,110	0,015
-520,175	-97,891	-0,181	-0,033
-519,160	-110,810	-0,155	-0,023
-518,145	797,772	0,057	0,113
-517,131	91,505	-0,138	0,111
-516,116	207,034	0,054	-0,061
-515,102	800,000	0,029	0,080
-514,087	-200,000	-0,027	0,161
-513,072	-156,308	-0,079	0,004
-512,058	-18,941	0,141	0,063
-511,043	424,823	0,055	-0,085
-510,029	171,310	0,090	-0,092
-509,014	251,397	0,040	0,049
-507,999	779,878	-0,045	0,090
-506,985	-200,000	-0,007	-0,047
-505,970	-83,268	-0,118	0,027
-504,956	-200,000	-0,025	-0,116
-503,941	-124,929	-0,087	0,010
-502,926	-61,582	0,111	-0,033
-501,912	709,731	-0,006	-0,011
-500,897	-134,949	0,093	-0,008
-499,883	286,418	-0,027	0,035
-498,868	-200,000	0,011	-0,072
-497,853	30,203	0,099	0,061
-496,839	30,434	0,039	0,024
-495,824	-200,000	0,029	0,110
-494,810	29,513	0,137	0,083
-493,795	116,095	-0,046	-0,040
-492,781	127,980	0,075	-0,068
-491,766	-12,025	-0,063	-0,029
-490,751	800,000	0,048	-0,112
-489,737	285,448	0,041	-0,053
-488,722	-55,127	-0,080	-0,026
-487,708	64,217	-0,083	0,060
-486,693	-200,000	0,033	-0,155
-485,678	-200,000	-0,010	0,041
-484,664	-101,815	-0,029	0,005
-483,649	-134,071	-0,070	-0,006
-482,635	800,000	-0,027	-0,061
-481,620	465,656	-0,028	0,044
-480,605	-200,000	0,009	0,046
-479,591	230,839	0,101	0,119
-478,576	54,705	-0,054	-0,037
-477,562	-96,105	-0,071	0,013
-476,547	357,201	-0,050	0,072
-475,532	705,296	-0,049	-0,093
-474,518	800,000	-0,044	0,100
-473,503	-200,000	0,001	0,092
-472,489	-41,331	0,099	0,037
-471,474	-200,000	0,012	-0,089
-470,459	800,000	-0,040	0,100
-469,445	-39,603	-0,122	0,045
-468,430	-200,000	0,010	0,076
-467,416	-83,303	0,081	-0,018
-466,401	529,196	0,078	0,133
-465,386	113,575	0,018	-0,015
-464,372	-62,062	0,073	-0,022
-463,357	-9,493	-0,099	-0,047
-462,343	-200,000	0,009	-0,131
-461,328	-200,000	-0,053	-0,198
-460,313	-132,433	0,044	0,004
-459,299	10,988	-0,079	-0,043
-458,284	-200,000	-0,003	-0,028
-457,270	253,990	0,094	-0,116
-456,255	800,000	-0,015	0,038
-455,241	-200,000	-0,028	-0,096
-454,226	-200,000	-0,013	-0,076
-453,211	720,994	-0,060	0,114
-452,197	-200,000	-0,022	0,166
-451,182	-18,112	0,141	0,063
-450,168	743,136	-0,022	0,042
-449,153	-200,000	-0,007	0,079
-448,138	-200,000	-0,009	0,041
-447,124	-35,134	-0,124	-0,048
-446,109	145,223	0,088	0,085
-445,095	-87,616	0,050	0,011
-444,080	-200,000	-0,021	-0,079
-443,065	528,447	-0,024	-0,041
-442,051	-200,000	-0,039	0,173
-441,036	-200,000	0,036	-0,186
-440,022	71,282	0,059	-0,044
-439,007	-200,000	-0,011	0,037
-437,992	-83,565	0,088	-0,020
-436,978	99,690	-0,041	0,034
-435,963	-49,549	-0,184	-0,062
-434,949	-200,000	-0,020	0,157
-433,934	-200,000	-0,005	-0,045
-432,919	-12,328	-0,128	-0,060
-431,905	800,000	-0,018	0,039
-430,890	-127,124	0,040	-0,004
-429,876	455,228	0,110	0,176
-428,861	395,263	-0,006	-0,009
-427,846	800,000	0,030	0,080
-426,832	-165,526	-0,054	0,002
-425,817	760,899	-0,017	-0,033
-424,803	1,498	0,031	-0,016
-423,788	-54,285	-0,040	-0,013
-422,773	-145,473	-0,049	-0,003
-421,759	-200,000	0,004	0,106
-420,744	-200,000	0,007	0,098
-419,730	-93,250	-0,126	-0,025
-418,715	68,609	0,089	0,065
-417,701	58,204	-0,160	-0,112
-416,686	194,857	0,113	0,123
-415,671	800,000	0,033	-0,083
-414,657	-7,084	0,091	0,044
-413,642	119,723	-0,061	0,054
-412,628	37,581	-0,013	-0,009
-411,613	-192,753	-0,211	0,001
-410,598	-133,293	-0,056	0,005
-409,584	-200,000	-0,001	-0,074
-408,569	-96,166	0,084	-0,016
-407,555	195,303	0,072	0,078
-406,540	800,000	0,067	0,134
-405,525	143,822	0,024	-0,023
-404,511	158,900	0,040	-0,040
-403,496	2,624	-0,038	0,019
-402,482	-43,252	-0,118	0,043
-401,467	-13,241	0,118	-0,054
-400,452	-78,082	0,104	-0,025
-399,438	92,591	0,081	-0,065
-398,423	241,427	-0,120	0,143
-397,409	131,607	-0,025	-0,023
-396,394	-200,000	0,032	-0,124
-395,379	121,644	0,096	-0,085
-394,365	-200,000	0,016	0,113
-393,350	58,811	0,067	0,047
-392,336	273,578	-0,039	-0,049
-391,321	-200,000	0,002	-0,136
-390,306	505,678	-0,103	-0,172
-389,292	-200,000	-0,006	-0,097
-388,277	-47,713	0,105	0,036
-387,263	-50,445	0,147	0,049
-386,248	-200,000	0,007	0,041
-385,233	103,894	-0,085	0,072
-384,219	-36,753	0,088	0,034
-383,204	-94,929	0,150	-0,029
-382,190	-200,000	-0,017	0,076
-381,175	-160,519	0,050	0,002
-380,160	-200,000	0,005	0,097
-379,146	-2,725	-0,119	0,059
-378,131	48,441	0,063	0,042
-377,117	-34,768	-0,112	-0,044
-376,102	105,292	0,141	-0,119
-375,088	-151,236	-0,032	-0,002
-374,073	-11,698	-0,074	-0,035
-373,058	800,000	-0,064	-0,169
-372,044	-75,261	0,091	0,023
-371,029	199,932	0,058	-0,064
-370,015	800,000	-0,029	0,067
-369,000	800,000	-0,030	-0,086
-367,985	800,000	0,058	-0,128
-366,971	312,004	-0,116	-0,156
-365,956	-99,604	0,015	0,003
-364,942	50,368	0,156	-0,105
-363,927	-200,000	0,012	0,042
-362,912	71,142	-0,023	0,017
-361,898	747,849	0,017	0,032
-360,883	800,000	-0,041	0,115
-359,869	52,410	0,054	-0,037
-358,854	-200,000	-0,035	-0,143
-357,839	-200,000	0,003	0,022
-356,825	-125,044	0,128	-0,014
-355,810	-200,000	0,023	-0,080
-354,796	45,137	0,028	-0,019
-353,781	289,351	-0,008	-0,010
-352,766	-200,000	-0,015	-0,076
-351,752	-200,000	0,014	0,046
-350,737	-97,359	-0,060	0,011
-349,723	800,000	0,029	0,059
-348,708	-200,000	0,014	0,047
-347,693	502,617	0,036	0,059
-346,679	-200,000	-0,009	0,047
-345,664	-104,089	-0,125	0,021
-344,650	-200,000	0,007	0,047
-343,635	-200,000	-0,002	-0,078
-342,620	-200,000	0,000	0,058
-341,606	-154,648	0,090	-0,004
-340,591	-85,346	-0,158	-0,035
-339,577	800,000	-0,047	-0,097
-338,562	-33,550	-0,139	-0,054
-337,548	536,458	0,056	-0,096
-336,533	-200,000	0,023	0,084
-335,518	144,246	0,126	0,120
-334,504	-46,742	0,105	0,036
-333,489	-200,000	-0,015	0,102
-332,475	-7,020	0,113	-0,055
-331,460	72,030	-0,039	0,029
-330,445	-39,907	0,092	-0,034
-329,431	21,289	0,094	0,054
-328,416	-200,000	0,020	0,101
-327,402	800,000	-0,032	0,069
-326,387	-15,392	-0,036	0,016
-325,372	615,188	-0,094	-0,169
-324,358	-17,399	0,145	-0,065
-323,343	321,787	0,044	-0,060
-322,329	179,828	0,101	0,106
-321,314	-38,597	0,069	-0,026
-320,299	43,086	0,104	0,067
-319,285	334,455	0,013	0,018
-318,270	80,914	-0,089	-0,068
-317,256	800,000	0,056	-0,153
-316,241	158,767	0,014	-0,014
-315,226	260,034	-0,007	-0,009
-314,212	800,000	-0,036	0,105
-313,197	36,030	0,083	0,052
-312,183	-52,666	0,204	-0,067
-311,168	-40,726	-0,142	-0,052
-310,153	3,364	0,097	0,050
-309,139	281,711	-0,035	-0,044
-308,124	-200,000	-0,053	0,202
-307,110	298,159	0,074	0,098
-306,095	-21,298	-0,062	0,027
-305,080	53,379	-0,107	0,073
-304,066	-200,000	-0,019	0,106
-303,051	79,439	-0,114	0,087
-302,037	326,232	-0,043	-0,059
-301,022	800,000	-0,037	0,074
-300,008	-124,041	0,059	-0,007
-298,993	-57,132	0,129	0,040
-297,978	669,508	0,006	-0,011
-296,964	106,385	-0,076	-0,065
-295,949	691,313	-0,057	0,108
-294,935	-200,000	-0,019	-0,068
-293,920	589,268	-0,029	0,050
-292,905	-6,622	0,141	0,068
-291,891	46,298	0,075	0,049
-290,876	800,000	-0,084	0,205
-289,862	-74,925	-0,016	-0,004
-288,847	-46,827	-0,152	-0,053
-287,832	-200,000	0,006	0,146
-286,818	89,916	0,130	-0,103
-285,803	-145,605	0,032	0,002
-284,789	53,527	-0,020	0,014
-283,774	-31,282	0,094	0,038
-282,759	800,000	-0,004	-0,010
-281,745	-108,853	-0,091	-0,014
-280,730	-123,333	-0,068	0,008
-279,716	66,877	0,102	0,074
-278,701	-92,310	0,113	0,022
-277,686	-36,586	0,127	-0,048
-276,672	67,631	0,094	0,068
-275,657	-200,000	-0,002	-0,010
-274,643	271,497	-0,050	-0,063
-273,628	-33,837	-0,036	-0,014
-272,613	-107,392	0,062	-0,010
-271,599	-46,152	-0,071	-0,025
-270,584	-4,156	0,038	-0,019
-269,570	-200,000	0,010	0,139
-268,555	563,604	-0,043	-0,075
-267,540	37,384	-0,175	0,110
-266,526	250,816	0,091	-0,111
-265,511	53,909	0,127	-0,087
-264,497	81,463	-0,048	0,037
-263,482	162,913	0,047	-0,047
-262,467	800,000	0,012	0,028
-261,453	-69,797	0,143	0,038
-260,438	-200,000	0,002	-0,124
-259,424	663,767	-0,049	-0,090
-258,409	176,326	0,068	0,071
-257,395	69,647	-0,103	0,075
-256,380	800,000	-0,036	0,081
-255,365	-200,000	-0,010	0,094
-254,351	-54,437	0,058	0,018
-253,336	121,430	-0,051	0,045
-252,322	-200,000	0,011	-0,122
-251,307	698,775	0,009	-0,017
-250,292	-200,000	-0,027	0,090
-249,278	74,022	0,073	-0,054
-248,263	-200,000	-0,009	-0,112
-247,249	-122,236	-0,089	0,010
-246,234	173,241	-0,055	0,056
-245,219	-120,461	0,139	-0,017
-244,205	-200,000	-0,013	-0,132
-243,190	119,727	0,082	-0,072
-242,176	151,022	-0,010	0,009
-241,161	-154,240	0,104	0,005
-240,146	739,021	0,016	0,030
-239,132	-81,766	-0,158	0,036
-238,117	143,519	-0,050	-0,047
-237,103	198,354	-0,042	-0,046
-236,088	102,063	0,109	-0,091
-235,073	630,517	0,049	0,088
-234,059	137,317	-0,030	-0,028
-233,044	-200,000	-0,017	0,177
-232,030	-18,400	-0,045	0,020
-231,015	12,353	-0,087	0,047
-230,000	-200,000	-0,016	-0,067
-228,986	50,565	0,083	0,056
-227,971	-86,222	0,072	0,016
-226,957	154,314	-0,091	-0,088
-225,942	-135,529	-0,072	0,006
-224,927	-93,122	0,116	-0,023
-223,913	-200,000	-0,008	-0,025
-222,898	60,299	-0,071	0,050
-221,884	-173,999	0,115	-0,002
-220,869	195,280	-0,030	-0,033
-219,855	285,664	0,041	0,053
-218,840	230,719	0,032	0,037
-217,825	77,102	-0,083	0,063
-216,811	-30,893	-0,078	-0,031
-215,796	27,306	-0,195	-0,116
-214,782	800,000	-0,087	0,183
-213,767	-101,176	0,098	0,017
-212,752	401,713	0,028	-0,041
-211,738	-112,244	-0,063	-0,009
-210,723	32,716	-0,077	-0,047
-209,709	-80,244	-0,100	-0,024
-208,694	-200,000	0,006	-0,089
-207,679	800,000	-0,072	0,142
-206,665	-200,000	-0,004	-0,018
-205,650	800,000	0,038	0,114
-204,636	22,650	-0,060	0,034
-203,621	-92,366	-0,074	0,015
-202,606	442,527	0,019	-0,029
-201,592	-39,066	0,121	0,045
-200,577	-200,000	-0,028	-0,092
-199,563	-200,000	-0,005	-0,046
-198,548	800,000	0,061	0,164
-197,533	195,115	0,098	0,106
-196,519	208,301	-0,110	0,122
-195,504	-88,750	0,069	-0,014
-194,490	-200,000	-0,002	-0,061
-193,475	47,378	-0,076	0,050
-192,460	384,796	0,039	-0,057
-191,446	-33,217	-0,012	-0,005
-190,431	38,691	0,096	0,061
-189,417	800,000	0,029	-0,085
-188,402	316,390	-0,044	0,059
-187,387	-144,693	0,078	-0,005
-186,373	-200,000	-0,004	-0,114
-185,358	221,485	0,046	0,053
-184,344	-200,000	-0,010	-0,048
-183,329	330,145	0,094	0,129
-182,315	-141,308	0,068	-0,005
-181,300	-89,114	0,116	0,024
-180,285	-200,000	-0,008	-0,118
-179,271	-46,669	0,127	-0,044
-178,256	-7,957	0,024	-0,012
-177,242	103,687	-0,103	-0,086
-176,227	53,537	0,107	0,073
-175,212	800,000	0,078	0,171
-174,198	800,000	-0,049	0,103
-173,183	98,027	0,015	-0,012
-172,169	-200,000	-0,045	-0,155
-171,154	47,737	-0,042	-0,028
-170,139	20,186	-0,070	-0,040
-169,125	454,158	0,037	0,058
-168,110	-200,000	-0,028	0,109
-167,096	314,851	0,042	-0,056
-166,081	800,000	0,027	0,070
-165,066	-149,522	-0,054	-0,003
-164,052	204,509	-0,087	-0,095
-163,037	-35,043	-0,115	0,044
-162,023	-26,004	0,122	0,051
-161,008	-85,197	0,018	0,004
-159,993	-177,416	-0,041	0,001
-158,979	-29,351	-0,102	0,041
-157,964	547,669	-0,036	-0,061
-156,950	-200,000	-0,007	-0,074
-155,935	-172,917	0,158	0,003
-154,920	62,822	-0,033	0,023
-153,906	-200,000	0,011	0,054
-152,891	29,131	-0,070	0,042
-151,877	131,115	-0,075	-0,068
-150,862	-49,672	-0,037	0,013
-149,847	-200,000	-0,030	0,102
-148,833	139,061	-0,038	0,035
-147,818	547,955	0,102	0,174
-146,804	800,000	-0,080	0,179
-145,789	666,588	-0,025	-0,045
-144,775	-125,978	-0,058	-0,006
-143,760	-197,475	-0,138	0,001
-142,745	122,898	-0,106	0,094
-141,731	-88,998	0,062	0,013
-140,716	-200,000	-0,003	-0,035
-139,702	650,488	-0,052	0,095
-138,687	464,564	0,104	0,165
-137,672	-200,000	-0,006	-0,043
-136,658	-200,000	-0,026	-0,194
-135,643	7,642	-0,042	0,022
-134,629	109,230	-0,087	0,074
-133,614	-62,310	0,054	0,016
-132,599	-39,669	0,140	-0,052
-131,585	800,000	-0,034	0,094
-130,570	391,000	-0,022	0,033
-129,556	-200,000	-0,017	-0,055
-128,541	-103,137	-0,060	-0,010
-127,526	115,122	-0,112	-0,097
-126,512	-97,295	0,067	-0,012
-125,497	800,000	-0,088	0,184
-124,483	113,501	0,152	0,130
-123,468	285,124	-0,054	0,069
-122,453	-200,000	0,004	-0,026
-121,439	-200,000	0,059	-0,211
-120,424	-132,238	-0,099	-0,009
-119,410	-134,863	-0,238	-0,020
-118,395	196,068	0,061	0,065
-117,380	-32,192	0,079	0,031
-116,366	196,142	-0,065	-0,070
-115,351	92,306	0,083	-0,066
-114,337	-11,751	-0,044	-0,020
-113,322	800,000	-0,008	0,018
-112,307	314,721	-0,074	-0,098
-111,293	-66,688	0,239	0,066
-110,278	800,000	-0,023	0,066
-109,264	91,996	0,052	0,041
-108,249	800,000	-0,047	-0,100
-107,234	184,613	-0,067	-0,070
-106,220	-23,606	0,061	0,026
-105,205	-200,000	-0,002	0,047
-104,191	489,415	0,039	0,064
-103,176	182,648	-0,042	0,044
-102,162	-200,000	-0,005	-0,140
-101,147	-200,000	0,016	0,066
-100,132	-48,469	-0,130	-0,044
-99,118	-49,296	-0,117	0,039
-98,103	69,415	-0,072	-0,053
-97,089	135,974	0,065	0,060
-96,074	398,730	0,111	0,164
-95,059	66,634	-0,158	-0,113
-94,045	5,288	-0,109	-0,057
-93,030	236,675	-0,045	-0,053
-92,016	-200,000	-0,013	-0,111
-91,001	-45,828	0,202	0,070
-89,986	-68,104	-0,073	0,020
-88,972	188,605	0,091	0,096
-87,957	-22,835	-0,044	0,019
-86,943	134,481	-0,124	-0,113
-85,928	800,000	0,019	-0,052
-84,913	503,701	0,049	-0,080
-83,899	800,000	-0,035	-0,080
-82,884	-12,637	0,067	-0,031
-81,870	-200,000	0,017	0,067
-80,855	-90,866	0,014	-0,003
-79,840	-171,477	-0,072	0,002
-78,826	31,565	-0,026	-0,016
-77,811	684,326	-0,059	-0,110
-76,797	-200,000	0,014	-0,123
-75,782	37,272	-0,090	0,056
-74,767	331,226	0,060	-0,082
-73,753	-200,000	-0,005	0,020
-72,738	60,421	0,102	-0,071
-71,724	-34,745	-0,040	-0,016
-70,709	56,058	-0,103	-0,071
-69,694	-67,409	0,076	-0,021
-68,680	-43,790	-0,054	0,019
-67,665	-71,073	-0,053	-0,014
-66,651	-200,000	0,028	0,143
-65,636	-200,000	0,020	-0,116
-64,622	-100,829	-0,136	-0,023
-63,607	-81,201	-0,151	0,035
-62,592	-200,000	0,004	-0,035
-61,578	246,900	-0,083	0,099
-60,563	411,097	0,015	0,022
-59,549	-200,000	-0,026	0,108
-58,534	59,868	-2,106	-1,465
-57,519	604,104	-0,975	-1,720
-56,505	-200,000	-0,522	-4,465
-55,490	800,000	0,873	1,717
-54,476	800,000	5,215	11,694
-53,461	-200,000	22,541	346,901
-52,446	800,000	757,087	2285,504
-51,432	530,763	1641,611	2747,591
-50,417	67,418	1640,310	1179,490
-49,403	15,457	1518,043	838,353
-48,388	9,685	1444,550	770,069
-47,373	19,300	1437,418	812,011
-46,359	13,188	1425,957	776,687
-45,344	8,049	1421,733	750,072
-44,330	7,958	1419,675	748,525
-43,315	7,916	1418,035	747,434
-42,300	7,905	1416,438	746,511
-41,286	7,932	1415,164	745,937
-40,271	7,894	1413,897	745,060
-39,257	7,936	1412,856	744,680
-38,242	7,975	1411,513	744,124
-37,227	7,912	1410,453	743,241
-36,213	7,935	1408,942	742,520
-35,198	7,952	1407,757	741,947
-34,184	7,922	1407,187	741,478
-33,169	7,877	1405,706	740,455
-32,154	7,927	1404,979	740,278
-31,140	7,881	1403,628	739,323
-30,125	7,942	1402,253	738,855
-29,111	7,951	1401,061	738,239
-28,096	7,868	1400,325	737,433
-27,082	7,855	1398,865	736,575
-26,067	7,822	1397,859	735,861
-25,052	7,852	1396,664	735,346
-24,038	7,853	1395,852	734,890
-23,023	7,817	1394,942	734,215
-22,009	7,822	1394,140	733,790
-20,994	7,823	1392,924	733,126
-19,979	7,810	1391,994	732,545
-18,965	7,761	1391,000	731,765
-17,950	7,793	1390,039	731,381
-16,936	7,805	1389,209	730,969
-15,921	7,798	1388,032	730,290
-14,906	7,787	1387,227	729,785
-13,892	7,795	1386,127	729,214
-12,877	7,777	1385,358	728,697
-11,863	7,764	1384,556	728,189
-10,848	7,751	1383,805	727,703
-9,833	7,692	1382,897	726,926
-8,819	7,692	1382,004	726,426
-7,804	7,650	1381,128	725,747
-6,790	7,694	1379,827	725,234
-5,775	7,691	1379,033	724,776
-4,760	7,682	1377,945	724,135
-3,746	7,684	1377,434	723,847
-2,731	7,698	1376,238	723,250
-1,717	7,675	1375,507	722,733
-0,702	7,658	1373,826	721,742
0,313	11,649	1283,735	692,473
1,327	27,364	675,879	399,543
2,342	42,594	116,136	74,374
3,356	-0,979	16,630	8,268
4,371	0,027	3,954	1,979
5,386	32,071	1,466	0,889
6,400	800,000	0,349	0,747
7,415	-50,581	-0,141	-0,047
8,429	81,845	-0,250	-0,190
9,444	-58,342	-0,263	-0,080
10,459	-58,617	-0,280	-0,085
11,473	119,210	-0,130	-0,113
12,488	-27,943	-0,319	-0,129
13,502	-22,747	-0,357	-0,151
14,517	75,172	-0,221	-0,164
15,531	132,834	-0,318	-0,289
16,546	28,729	-0,267	-0,159
17,561	74,678	-0,450	-0,333
18,575	118,647	-0,165	-0,144
19,590	63,972	-0,187	-0,132
20,604	-75,345	-0,303	0,076
21,619	46,476	-0,514	-0,335
22,634	48,841	-0,496	-0,327
23,648	73,579	-0,409	-0,301
24,663	135,970	-0,323	-0,297
25,677	107,425	-0,376	-0,315
26,692	-28,291	-0,294	-0,119
27,707	-61,723	-0,499	-0,146
28,721	115,770	-0,327	-0,282
29,736	39,714	-0,441	-0,278
30,750	57,594	-0,407	-0,279
31,765	60,078	-0,377	-0,262
32,780	91,537	-0,377	-0,298
33,794	140,238	-0,283	-0,262
34,809	18,129	-0,377	-0,211
35,823	69,938	-0,338	-0,245
36,838	142,932	-0,329	-0,307
37,853	95,323	-0,280	-0,224
38,867	80,154	-0,351	-0,265
39,882	52,578	-0,256	-0,172
40,896	91,653	-0,368	-0,291
41,911	2,486	-0,344	-0,175
42,926	230,152	-0,293	-0,337
43,940	27,600	-0,407	-0,240
44,955	43,070	-0,449	-0,287
45,969	-22,599	-0,554	-0,234
46,984	128,058	-0,358	-0,320
47,999	-90,121	-0,251	-0,051
49,013	248,729	-0,202	-0,241
50,028	298,910	-0,148	-0,191
51,042	112,553	-0,407	-0,346
52,057	89,725	-0,348	-0,273
53,071	108,450	-0,307	-0,257
54,086	62,703	-0,370	-0,259
55,101	43,021	-0,350	-0,223
56,115	177,032	-0,330	-0,337
57,130	203,896	-0,382	-0,415
58,144	2,684	-0,411	-0,208
59,159	94,883	-0,437	-0,349
60,174	203,794	-0,341	-0,371
61,188	97,126	-0,351	-0,282
62,203	-1,770	-0,341	-0,168
63,217	148,068	-0,349	-0,330
64,232	30,125	-0,334	-0,199
65,247	81,585	-0,276	-0,209
66,261	70,721	-0,399	-0,289
67,276	176,376	-0,195	-0,199
68,290	95,052	-0,222	-0,177
69,305	155,264	-0,285	-0,275
70,320	76,576	-0,243	-0,180
71,334	24,604	-0,268	-0,155
72,349	-24,154	-0,328	-0,136
73,363	78,665	-0,376	-0,281
74,378	-11,705	-0,475	-0,218
75,393	-102,149	-0,332	-0,055
76,407	-2,630	-0,266	-0,130
77,422	-32,549	-0,344	-0,134
78,436	-116,302	-0,247	-0,032
79,451	-3,719	-0,264	-0,128
80,466	67,879	-0,230	-0,165
81,480	-37,276	-0,382	-0,142
82,495	93,647	-0,413	-0,328
83,509	-33,737	-0,286	-0,110
84,524	72,046	-0,145	-0,106
85,539	-81,223	-0,325	-0,074
86,553	-9,770	-0,244	-0,113
87,568	62,201	-0,308	-0,215
88,582	149,435	-0,297	-0,282
89,597	77,006	-0,358	-0,266
90,611	72,488	-0,280	-0,204
91,626	-21,940	-0,326	-0,138
92,641	88,497	-0,215	-0,167
93,655	45,963	-0,381	-0,246
94,670	-104,246	-0,263	-0,042
95,684	-12,661	-0,263	-0,120
96,699	14,728	-0,303	-0,165
97,714	-83,218	-0,411	-0,092
98,728	6,963	-0,273	-0,142
99,743	800,000	-0,132	-0,322
100,757	15,670	-0,344	-0,189
101,772	-89,083	-0,290	-0,059
102,787	36,225	-0,366	-0,225
103,801	28,991	-0,340	-0,201
104,816	5,740	-0,182	-0,094
105,830	33,072	-0,304	-0,184
106,845	-92,881	-0,299	-0,058
107,860	100,368	-0,380	-0,308
108,874	800,000	-0,106	-0,237
109,889	-107,864	-0,369	-0,055
110,903	95,251	-0,307	-0,244
111,918	148,834	-0,274	-0,259
112,933	-118,144	-0,324	-0,040
113,947	-135,317	-0,166	-0,014
114,962	-37,849	-0,223	-0,082
115,976	430,361	-0,205	-0,310
116,991	136,517	-0,234	-0,213
118,006	52,785	-0,295	-0,197
119,020	680,312	-0,145	-0,265
120,035	234,605	-0,193	-0,222
121,049	71,700	-0,238	-0,172
122,064	-118,099	-0,297	-0,037
123,079	-26,796	-0,265	-0,108
124,093	87,856	-0,194	-0,150
125,108	68,111	-0,236	-0,168
126,122	79,101	-0,358	-0,267
127,137	264,581	-0,130	-0,158
128,151	-52,612	-0,345	-0,110
129,166	-5,433	-0,187	-0,089
130,181	-115,576	-0,224	-0,029
131,195	11,857	-0,372	-0,199
132,210	180,534	-0,119	-0,122
133,224	18,581	-0,298	-0,166
134,239	334,942	-0,171	-0,231
135,254	-44,701	-0,079	-0,027
136,268	181,833	-0,185	-0,190
137,283	63,910	-0,319	-0,223
138,297	-56,347	-0,244	-0,075
139,312	36,509	-0,383	-0,235
140,327	-13,788	-0,172	-0,077
141,341	96,779	-0,288	-0,230
142,356	78,699	-0,318	-0,236
143,370	219,147	-0,219	-0,244
144,385	800,000	-0,144	-0,297
145,400	105,501	-0,294	-0,242
146,414	-6,529	-0,240	-0,113
147,429	-5,061	-0,266	-0,127
148,443	-53,864	-0,248	-0,078
149,458	283,556	-0,133	-0,167
150,473	355,381	-0,105	-0,145
151,487	-42,529	-0,226	-0,080
152,502	32,743	-0,227	-0,137
153,516	17,501	-0,218	-0,120
154,531	120,740	-0,217	-0,188
155,546	99,671	-0,195	-0,157
156,560	91,781	-0,285	-0,223
157,575	-40,624	-0,322	-0,115
158,589	11,480	-0,176	-0,093
159,604	134,577	-0,221	-0,199
160,619	134,935	-0,280	-0,253
161,633	-66,837	-0,307	-0,084
162,648	-142,299	-0,213	-0,014
163,662	167,498	-0,147	-0,145
164,677	46,138	-0,229	-0,147
165,692	17,127	-0,128	-0,070
166,706	65,898	-0,229	-0,161
167,721	43,501	-0,205	-0,130
168,735	97,087	-0,349	-0,278
169,750	149,012	-0,272	-0,255
170,764	800,000	-0,105	-0,225
171,779	-35,957	-0,181	-0,068
172,794	-70,930	-0,209	-0,054
173,808	151,197	-0,229	-0,216
174,823	82,352	-0,314	-0,236
175,837	800,000	-0,097	-0,263
176,852	39,082	-0,223	-0,138
177,867	-15,974	-0,200	-0,088
178,881	81,956	-0,255	-0,191
179,896	71,943	-0,201	-0,145
180,910	-79,363	-0,152	-0,035
181,925	77,860	-0,256	-0,189
182,940	800,000	-0,138	-0,265
183,954	-60,389	-0,173	-0,051
184,969	75,341	-0,169	-0,123
185,983	32,188	-0,183	-0,109
186,998	-200,000	-0,025	-0,195
188,013	800,000	-0,094	-0,200
189,027	-19,507	-0,252	-0,108
190,042	85,931	-0,195	-0,149
191,056	177,361	-0,161	-0,162
192,071	315,840	-0,100	-0,131
193,086	72,914	-0,237	-0,171
194,100	270,657	-0,125	-0,153
195,115	-140,481	-0,201	0,014
196,129	170,989	-0,198	-0,197
197,144	-31,564	-0,249	-0,096
198,159	-59,081	-0,233	-0,069
199,173	-70,451	-0,165	-0,043
200,188	771,811	-0,061	-0,115
201,202	168,285	-0,119	-0,118
202,217	204,672	-0,174	-0,187
203,232	19,779	-0,193	-0,108
204,246	-49,110	-0,282	-0,093
205,261	115,892	-0,204	-0,173
206,275	60,942	-0,242	-0,166
207,290	-111,916	-0,197	-0,027
208,304	69,838	-0,192	-0,137
209,319	-94,803	-0,262	-0,049
210,334	-139,561	-0,204	0,015
211,348	11,230	-0,286	-0,151
212,363	-48,442	-0,137	0,045
213,377	-102,717	-0,128	0,021
214,392	-105,783	-0,274	-0,042
215,407	39,168	-0,154	-0,095
216,421	114,762	-0,132	-0,111
217,436	307,652	-0,066	-0,085
218,450	256,169	-0,103	-0,122
219,465	-92,476	-0,180	-0,035
220,480	800,000	-0,079	-0,186
221,494	232,230	-0,170	-0,193
222,509	185,344	-0,186	-0,191
223,523	175,022	-0,140	-0,140
224,538	24,299	-0,119	-0,068
225,553	75,016	-0,238	-0,173
226,567	66,612	-0,334	-0,235
227,582	-32,981	-0,204	-0,078
228,596	33,315	-0,147	-0,088
229,611	-112,760	-0,213	0,029
230,626	-78,763	-0,166	0,039
231,640	328,172	-0,111	-0,148
232,655	286,979	-0,021	-0,026
233,669	143,996	-0,099	-0,091
234,684	233,965	-0,211	-0,241
235,699	425,514	-0,167	-0,249
236,713	-89,798	-0,088	-0,018
237,728	95,335	-0,135	-0,107
238,742	120,817	-0,186	-0,159
239,757	99,719	-0,247	-0,197
240,772	232,679	-0,190	-0,216
241,786	-200,000	-0,044	-0,380
242,801	44,109	-0,281	-0,178
243,815	180,343	-0,142	-0,143
244,830	358,683	-0,074	-0,102
245,844	25,935	-0,120	-0,069
246,859	-34,192	-0,239	-0,090
247,874	-22,342	-0,168	-0,070
248,888	203,412	-0,148	-0,158
249,903	21,026	-0,124	-0,069
250,917	47,959	-0,150	-0,096
251,932	-37,861	-0,129	0,047
252,947	-123,403	-0,198	-0,021
253,961	800,000	-0,044	-0,100
254,976	-169,735	-0,238	-0,006
255,990	160,046	-0,188	-0,180
257,005	110,103	-0,156	-0,129
258,020	732,609	-0,081	-0,150
259,034	54,921	-0,139	-0,092
260,049	191,562	-0,153	-0,159
261,063	341,278	-0,093	-0,125
262,078	-131,949	-0,112	-0,010
263,093	140,036	-0,130	-0,119
264,107	-108,759	-0,199	-0,029
265,122	-39,611	-0,107	-0,039
266,136	-59,697	-0,082	0,024
267,151	119,261	-0,147	-0,125
268,166	145,830	-0,153	-0,141
269,180	204,990	-0,247	-0,265
270,195	-28,125	-0,233	-0,092
271,209	-23,180	-0,114	-0,047
272,224	272,207	-0,199	-0,242
273,239	32,975	-0,134	-0,080
274,253	-188,919	-0,207	-0,002
275,268	-55,953	-0,175	-0,053
276,282	93,304	-0,175	-0,136
277,297	487,171	-0,173	-0,273
278,312	-34,252	-0,142	-0,053
279,326	-74,176	-0,173	0,043
280,341	259,255	-0,140	-0,167
281,355	137,050	-0,039	-0,035
282,370	464,990	-0,089	-0,137
283,384	44,966	-0,246	-0,156
284,399	197,138	-0,253	-0,265
285,414	73,212	-0,116	-0,084
286,428	6,957	-0,128	-0,065
287,443	115,432	-0,155	-0,130
288,457	-51,677	-0,171	0,054
289,472	45,495	-0,207	-0,131
290,487	202,969	-0,114	-0,121
291,501	-64,212	-0,138	0,038
292,516	306,997	-0,162	-0,208
293,530	90,148	-0,144	-0,110
294,545	-97,308	-0,162	0,029
295,560	-46,567	-0,149	-0,050
296,574	-200,000	-0,193	-0,001
297,589	106,564	-0,119	-0,097
298,603	361,015	-0,119	-0,164
299,618	-17,434	-0,226	-0,097
300,633	22,231	-0,164	0,092
301,647	-23,272	-0,207	-0,085
302,662	135,387	-0,140	-0,125
303,676	149,286	-0,155	-0,144
304,691	731,497	-0,100	-0,184
305,706	-200,000	-0,056	-0,219
306,720	192,963	-0,209	-0,217
307,735	585,326	-0,095	-0,162
308,749	-200,000	-0,021	-0,199
309,764	433,517	-0,108	-0,161
310,779	-93,123	0,122	-0,023
311,793	393,547	-0,154	-0,221
312,808	-30,871	-0,172	-0,066
313,822	24,889	-0,125	-0,071
314,837	114,738	-0,230	-0,192
315,852	800,000	-0,043	-0,100
316,866	153,809	-0,050	-0,047
317,881	80,744	-0,110	-0,081
318,895	6,196	-0,065	-0,033
319,910	159,097	-0,133	-0,126
320,925	213,703	-0,196	-0,213
321,939	22,962	-0,244	-0,137
322,954	800,000	0,050	-0,147
323,968	-27,450	-0,093	-0,037
324,983	-76,652	-0,192	0,046
325,997	107,602	-0,269	-0,219
327,012	800,000	-0,054	-0,156
328,027	279,648	-0,178	-0,218
329,041	52,884	-0,215	-0,141
330,056	-85,206	-0,092	0,020
331,070	-83,837	-0,113	0,025
332,085	5,600	-0,097	-0,049
333,100	80,500	-0,172	-0,127
334,114	394,383	-0,147	-0,211
335,129	-179,149	-0,127	-0,002
336,143	437,671	-0,102	-0,153
337,158	-85,348	-0,065	-0,014
338,173	800,000	-0,034	-0,098
339,187	-57,932	-0,138	-0,041
340,202	68,434	-0,081	-0,057
341,216	-200,000	-0,052	-0,179
342,231	-78,899	-0,087	-0,020
343,246	-12,597	-0,240	-0,107
344,260	59,083	-0,090	-0,061
345,275	93,226	-0,165	-0,127
346,289	-200,000	0,005	0,060
347,304	88,165	-0,192	-0,146
348,319	743,714	-0,142	-0,263
349,333	187,412	-0,218	-0,223
350,348	139,642	-0,162	-0,146
351,362	0,899	-0,210	-0,103
352,377	23,011	-0,149	0,083
353,392	-93,824	-0,090	-0,017
354,406	-119,681	-0,135	-0,016
355,421	207,169	1309,300	1397,229
356,435	159,360	1469,294	1397,672
