DTS Sentinel unit serial number:	SN410029Multiplexer serial number:	ORYXHardware model number:	OX2-SRSoftware version number:	ORYX F/W v4,00 Oryx Data Collector v3.7.2.0data status	okinstallation	B3 Nyhavnadifferential loss correction	single-endedforward channel	channel 1reverse channel	N/Adate	2023/12/01time	02:32:30forward acquisition time	300,00reverse acquisition time	0,00gamma	499,1914k internal	0,3211k external	0,3211temperature offset calibration	1,0000default loss term (dB/km)	0,3820temperature slope calibration	1,0000multiplexer offset coefficient	1,0000multiplexer slope coefficient	1,0000fibre end	0,00T internal ref (°C)	8,59T ext. ref 1 (°C)	-6,52T ext. ref 2 (°C)	-6,65length (m)	temperature (°C)	Stokes	anti-Stokes-744,400	-200,000	-0,076	-0,254
-743,385	-200,000	0,026	0,190
-742,371	-113,882	-0,205	-0,029
-741,356	-200,000	0,065	0,290
-740,342	266,869	-0,232	-0,295
-739,327	193,533	-0,165	0,181
-738,312	800,000	-0,151	-0,346
-737,298	-200,000	-0,023	0,191
-736,283	96,423	-0,114	-0,094
-735,269	401,175	-0,160	0,244
-734,254	-200,000	-0,084	-0,276
-733,239	414,903	-0,104	0,160
-732,225	-200,000	-0,099	-0,342
-731,210	-111,985	-0,041	-0,006
-730,196	-35,198	0,074	-0,029
-729,181	-34,388	-0,038	0,015
-728,167	287,188	-0,139	-0,182
-727,152	800,000	0,027	-0,060
-726,137	579,554	-0,060	-0,108
-725,123	-62,624	-0,196	-0,059
-724,108	-27,818	-0,151	-0,063
-723,094	-200,000	-0,047	-0,166
-722,079	195,526	-0,080	-0,088
-721,064	-172,346	0,031	-0,001
-720,050	154,841	0,028	0,028
-719,035	800,000	-0,019	-0,042
-718,021	-86,644	-0,105	-0,023
-717,006	18,310	0,091	0,052
-715,991	-200,000	-0,004	-0,035
-714,977	800,000	-0,041	-0,091
-713,962	800,000	-0,073	-0,199
-712,948	800,000	-0,029	-0,081
-711,933	-178,795	0,116	-0,002
-710,918	-200,000	-0,011	-0,098
-709,904	-200,000	-0,005	-0,126
-708,889	-28,222	-0,093	0,039
-707,875	-95,263	-0,037	-0,007
-706,860	37,562	-0,071	0,045
-705,845	623,320	0,027	-0,050
-704,831	432,796	-0,065	0,102
-703,816	-26,517	-0,087	0,037
-702,802	-200,000	-0,016	-0,186
-701,787	448,193	-0,058	-0,093
-700,772	-200,000	-0,040	-0,202
-699,758	-200,000	-0,041	-0,154
-698,743	54,872	-0,074	0,052
-697,729	-32,392	0,174	-0,070
-696,714	674,643	0,034	0,064
-695,699	-200,000	-0,007	-0,122
-694,685	-119,692	-0,048	-0,006
-693,670	-25,784	-0,174	0,074
-692,656	-137,391	-0,049	-0,004
-691,641	78,991	0,059	0,046
-690,627	159,154	0,116	0,116
-689,612	-106,832	-0,019	0,003
-688,597	221,269	0,048	-0,056
-687,583	-93,646	-0,175	-0,035
-686,568	186,199	-0,031	0,033
-685,554	288,609	0,098	-0,128
-684,539	35,281	0,017	-0,011
-683,524	32,209	-0,046	-0,029
-682,510	1,654	0,044	0,023
-681,495	206,200	-0,090	-0,102
-680,481	-145,414	-0,117	-0,007
-679,466	1,918	-0,062	0,032
-678,451	132,561	0,064	-0,060
-677,437	211,758	0,035	-0,040
-676,422	25,306	0,127	-0,076
-675,408	-200,000	0,002	-0,159
-674,393	136,397	-0,051	0,049
-673,378	800,000	-0,077	-0,168
-672,364	-89,766	-0,104	0,022
-671,349	606,471	0,025	-0,045
-670,335	-41,111	-0,077	-0,029
-669,320	-137,375	0,082	-0,007
-668,305	-67,261	0,092	-0,026
-667,291	85,011	-0,150	0,119
-666,276	360,294	-0,048	-0,070
-665,262	577,036	-0,048	-0,086
-664,247	-122,292	-0,070	-0,008
-663,232	132,116	0,126	-0,117
-662,218	-136,047	-0,145	0,012
-661,203	-200,000	-0,020	0,106
-660,189	489,841	-0,056	0,094
-659,174	800,000	-0,020	0,055
-658,159	50,646	-0,079	-0,054
-657,145	114,143	-0,051	-0,045
-656,130	494,873	0,044	0,073
-655,116	84,641	-0,022	-0,017
-654,101	36,523	-0,025	0,016
-653,086	-200,000	-0,034	-0,199
-652,072	188,254	-0,110	-0,119
-651,057	-91,875	0,070	-0,014
-650,043	-200,000	0,009	-0,081
-649,028	436,244	0,066	-0,105
-648,014	-200,000	0,018	-0,201
-646,999	380,561	-0,105	-0,156
-645,984	320,143	0,061	0,084
-644,970	621,942	0,014	-0,025
-643,955	0,429	0,081	-0,042
-642,941	-200,000	-0,053	-0,189
-641,926	576,782	0,065	0,115
-640,911	-51,455	0,127	-0,043
-639,897	-33,539	-0,050	0,020
-638,882	21,515	0,050	-0,030
-637,868	-200,000	0,028	-0,109
-636,853	-200,000	-0,006	0,065
-635,838	800,000	-0,041	-0,095
-634,824	-200,000	-0,010	-0,052
-633,809	209,780	-0,027	-0,031
-632,795	-172,997	-0,130	-0,003
-631,780	203,796	0,048	0,054
-630,765	-146,618	0,099	0,006
-629,751	-175,695	-0,048	-0,001
-628,736	800,000	0,087	-0,176
-627,722	-200,000	-0,003	-0,087
-626,707	-127,701	-0,084	0,009
-625,692	31,063	-0,056	-0,035
-624,678	738,742	-0,105	-0,205
-623,663	5,687	-0,200	0,106
-622,649	-200,000	0,012	0,063
-621,634	-147,798	-0,141	0,008
-620,619	800,000	-0,053	0,120
-619,605	-64,394	0,059	0,017
-618,590	-95,057	0,175	-0,034
-617,576	800,000	0,046	0,093
-616,561	-200,000	-0,020	-0,134
-615,546	195,146	-0,047	-0,051
-614,532	738,748	-0,083	-0,161
-613,517	-37,990	0,118	0,045
-612,503	-89,935	-0,147	0,031
-611,488	800,000	-0,045	0,116
-610,474	279,736	-0,096	0,124
-609,459	-21,888	-0,132	0,058
-608,444	-94,411	0,056	-0,011
-607,430	41,182	-0,069	-0,045
-606,415	741,086	-0,031	-0,060
-605,401	-200,000	0,032	-0,105
-604,386	92,506	-0,032	0,026
-603,371	25,942	0,053	-0,032
-602,357	433,911	-0,042	-0,066
-601,342	-200,000	-0,012	-0,073
-600,328	-119,349	-0,042	0,005
-599,313	-145,424	-0,116	0,007
-598,298	184,581	-0,041	0,044
-597,284	435,511	-0,064	0,100
-596,269	-66,801	-0,045	0,013
-595,255	800,000	0,008	0,017
-594,240	-167,324	-0,020	-0,001
-593,225	-143,988	-0,053	0,004
-592,211	800,000	-0,040	-0,081
-591,196	800,000	0,033	-0,105
-590,182	348,303	-0,078	0,111
-589,167	800,000	0,045	0,125
-588,152	-42,875	-0,181	0,066
-587,138	-200,000	0,014	-0,051
-586,123	8,108	-0,073	0,039
-585,109	109,851	-0,114	-0,098
-584,094	800,000	-0,059	-0,119
-583,079	63,747	0,032	-0,023
-582,065	-200,000	0,025	0,107
-581,050	501,782	-0,017	-0,028
-580,036	-6,429	0,073	0,036
-579,021	800,000	-0,050	0,111
-578,006	129,587	-0,135	-0,124
-576,992	800,000	0,038	-0,095
-575,977	1,392	0,057	-0,030
-574,963	-200,000	0,010	0,039
-573,948	-116,653	-0,015	0,002
-572,934	382,543	0,042	-0,062
-571,919	229,827	-0,164	-0,193
-570,904	-200,000	-0,018	-0,061
-569,890	-200,000	-0,032	-0,111
-568,875	367,866	-0,028	0,041
-567,861	71,036	0,132	-0,099
-566,846	3,321	0,135	-0,071
-565,831	694,207	0,027	0,051
-564,817	-119,141	-0,105	-0,013
-563,802	-96,558	0,034	0,006
-562,788	578,460	-0,046	-0,082
-561,773	-200,000	-0,034	-0,138
-560,758	24,591	0,123	-0,073
-559,744	335,280	0,015	-0,021
-558,729	143,791	-0,108	-0,103
-557,715	-200,000	0,001	0,103
-556,700	-200,000	0,042	-0,169
-555,685	-200,000	0,019	-0,152
-554,671	731,553	-0,014	0,026
-553,656	-17,085	-0,020	0,009
-552,642	-200,000	0,026	-0,102
-551,627	213,295	-0,097	-0,110
-550,612	-200,000	0,000	0,006
-549,598	1,165	-0,041	-0,021
-548,583	800,000	0,067	-0,144
-547,569	795,942	0,033	0,066
-546,554	-200,000	0,020	0,119
-545,539	-92,311	0,118	-0,024
-544,525	111,983	-0,008	-0,007
-543,510	280,263	-0,017	0,022
-542,496	20,489	-0,132	-0,077
-541,481	800,000	-0,025	0,077
-540,466	34,138	-0,081	-0,051
-539,452	53,384	0,102	0,070
-538,437	61,515	0,066	0,047
-537,423	-142,390	0,069	0,005
-536,408	-186,624	0,070	-0,001
-535,393	54,903	-0,083	0,058
-534,379	76,407	-0,051	-0,039
-533,364	-52,073	0,092	-0,030
-532,350	59,655	0,173	0,122
-531,335	-200,000	0,000	0,009
-530,321	-200,000	-0,023	0,133
-529,306	-200,000	-0,001	0,036
-528,291	800,000	0,022	0,059
-527,277	-200,000	0,018	0,110
-526,262	1,284	0,071	-0,036
-525,248	54,060	-0,048	0,033
-524,233	58,268	-0,109	0,076
-523,218	702,751	-0,007	-0,013
-522,204	-61,029	-0,202	0,061
-521,189	-200,000	-0,016	-0,067
-520,175	-200,000	-0,047	-0,157
-519,160	-82,885	-0,099	-0,023
-518,145	82,442	0,054	-0,042
-517,131	800,000	0,060	0,148
-516,116	-126,012	0,054	0,006
-515,102	304,991	-0,060	0,081
-514,087	390,021	0,015	-0,023
-513,072	-200,000	0,010	-0,036
-512,058	-76,528	0,053	0,013
-511,043	86,908	0,050	0,039
-510,029	73,920	0,127	0,096
-509,014	-84,722	0,095	-0,021
-507,999	-77,847	-0,043	0,011
-506,985	428,949	0,036	-0,057
-505,970	245,007	0,039	0,047
-504,956	120,827	-0,063	-0,056
-503,941	-200,000	-0,009	-0,104
-502,926	128,406	0,057	0,052
-501,912	620,173	0,030	-0,055
-500,897	800,000	-0,044	-0,116
-499,883	-26,273	0,076	0,032
-498,868	-179,164	-0,205	0,003
-497,853	3,457	-0,026	-0,013
-496,839	-0,140	0,068	0,034
-495,824	-200,000	0,004	0,075
-494,810	29,719	0,070	-0,043
-493,795	-200,000	-0,001	0,045
-492,781	-53,616	0,109	-0,035
-491,766	-200,000	-0,009	-0,193
-490,751	72,728	-0,046	-0,035
-489,737	800,000	0,004	0,008
-488,722	-200,000	0,001	0,060
-487,708	625,416	-0,009	-0,016
-486,693	87,825	-0,073	0,058
-485,678	308,041	-0,059	0,079
-484,664	-6,516	0,048	0,024
-483,649	800,000	-0,005	0,015
-482,635	-200,000	-0,064	0,000
-481,620	-97,325	0,081	0,015
-480,605	800,000	0,037	0,075
-479,591	-200,000	-0,059	0,261
-478,576	800,000	0,049	0,116
-477,562	-200,000	0,004	-0,162
-476,547	-52,121	-0,114	-0,038
-475,532	-179,899	0,127	0,002
-474,518	166,938	0,108	-0,110
-473,503	-200,000	-0,012	0,048
-472,489	800,000	-0,026	0,066
-471,474	-10,497	0,072	-0,034
-470,459	184,608	0,075	-0,080
-469,445	800,000	0,061	-0,129
-468,430	132,937	-0,131	0,122
-467,416	-200,000	0,026	-0,084
-466,401	-126,775	0,101	0,011
-465,386	539,649	0,051	0,088
-464,372	800,000	-0,039	-0,110
-463,357	-200,000	-0,005	-0,028
-462,343	-167,995	-0,245	-0,007
-461,328	-200,000	-0,010	0,043
-460,313	358,222	0,054	-0,077
-459,299	417,879	0,036	0,055
-458,284	800,000	0,011	-0,033
-457,270	208,532	-0,103	-0,115
-456,255	800,000	-0,022	-0,056
-455,241	800,000	-0,029	-0,059
-454,226	145,971	0,122	0,117
-453,211	169,116	0,032	-0,032
-452,197	-200,000	0,021	-0,094
-451,182	80,076	0,087	0,067
-450,168	334,004	0,026	0,036
-449,153	315,639	0,055	0,075
-448,138	69,227	-0,161	-0,118
-447,124	-138,337	-0,075	-0,006
-446,109	46,275	-0,193	0,128
-445,095	158,116	0,114	-0,113
-444,080	440,113	-0,027	-0,042
-443,065	800,000	0,052	0,115
-442,051	248,066	0,066	0,080
-441,036	-172,308	-0,109	0,002
-440,022	-7,280	-0,037	0,018
-439,007	-174,869	-0,008	-0,000
-437,992	800,000	0,038	-0,113
-436,978	-200,000	0,000	0,078
-435,963	65,857	-0,060	0,043
-434,949	-42,397	0,171	0,062
-433,934	-82,837	-0,072	0,017
-432,919	-200,000	-0,012	-0,134
-431,905	-63,730	0,101	0,029
-430,890	-200,000	0,016	-0,187
-429,876	-103,968	0,109	0,018
-428,861	357,192	0,062	0,089
-427,846	-64,082	0,034	-0,010
-426,832	-53,280	-0,117	-0,038
-425,817	176,756	0,089	-0,092
-424,803	37,914	0,024	-0,015
-423,788	-138,872	0,121	-0,009
-422,773	-200,000	-0,012	0,046
-421,759	456,410	0,118	0,189
-420,744	209,927	-0,066	0,074
-419,730	37,067	-0,040	0,025
-418,715	177,363	0,055	0,057
-417,701	-200,000	-0,025	-0,149
-416,686	-85,002	-0,058	-0,013
-415,671	93,016	0,106	-0,086
-414,657	-1,806	0,181	0,091
-413,642	212,268	0,039	-0,044
-412,628	800,000	-0,021	-0,046
-411,613	24,651	-0,039	-0,023
-410,598	639,445	-0,086	0,158
-409,584	-77,880	0,061	0,015
-408,569	800,000	-0,035	-0,071
-407,555	49,892	-0,150	0,101
-406,540	150,274	-0,046	0,044
-405,525	28,707	0,049	-0,029
-404,511	-54,991	-0,114	0,036
-403,496	196,305	-0,013	-0,014
-402,482	-200,000	-0,001	-0,080
-401,467	-84,349	0,074	-0,017
-400,452	-71,340	0,085	-0,023
-399,438	-200,000	0,005	-0,049
-398,423	800,000	-0,077	-0,154
-397,409	-14,358	-0,039	0,018
-396,394	-200,000	-0,006	0,080
-395,379	-200,000	-0,008	0,057
-394,365	-200,000	-0,004	0,034
-393,350	-200,000	0,021	0,139
-392,336	-22,400	-0,120	0,052
-391,321	-95,876	-0,111	-0,021
-390,306	26,987	0,173	-0,103
-389,292	-200,000	0,016	0,081
-388,277	532,795	0,013	-0,022
-387,263	-200,000	0,004	0,106
-386,248	197,489	0,153	0,167
-385,233	-200,000	0,004	-0,042
-384,219	128,523	-0,116	0,106
-383,204	52,399	-0,055	0,038
-382,190	673,358	-0,018	-0,033
-381,175	292,852	0,021	-0,027
-380,160	328,440	-0,108	-0,149
-379,146	-200,000	0,013	0,086
-378,131	-200,000	0,004	0,096
-377,117	64,661	-0,018	0,013
-376,102	-55,184	-0,138	-0,044
-375,088	800,000	0,064	0,138
-374,073	-65,389	0,060	-0,017
-373,058	141,056	-0,067	0,063
-372,044	79,026	0,058	0,044
-371,029	-48,521	0,078	-0,027
-370,015	-21,315	-0,056	0,024
-369,000	83,405	-0,127	0,099
-367,985	446,688	-0,088	-0,138
-366,971	771,503	0,088	-0,172
-365,956	-59,595	-0,105	-0,032
-364,942	-17,070	0,090	0,041
-363,927	8,807	0,052	0,028
-362,912	-77,687	-0,154	-0,038
-361,898	-124,047	0,055	0,006
-360,883	22,019	-0,024	0,014
-359,869	217,301	-0,111	-0,127
-358,854	-42,772	0,160	0,058
-357,839	-200,000	-0,005	0,034
-356,825	-170,432	0,087	0,002
-355,810	-96,513	-0,056	-0,011
-354,796	-200,000	-0,042	0,168
-353,781	153,492	-0,045	0,044
-352,766	-200,000	-0,006	0,137
-351,752	9,378	-0,065	0,035
-350,737	-200,000	0,028	0,095
-349,723	335,252	0,075	0,104
-348,708	-200,000	0,017	0,101
-347,693	228,745	-0,094	0,109
-346,679	138,663	0,019	0,018
-345,664	133,132	-0,034	-0,031
-344,650	-200,000	-0,006	-0,034
-343,635	-61,133	0,031	-0,009
-342,620	-200,000	0,012	0,166
-341,606	800,000	0,050	0,142
-340,591	800,000	0,039	0,077
-339,577	-50,458	-0,063	-0,021
-338,562	-36,308	0,074	0,028
-337,548	-128,121	0,139	0,014
-336,533	-200,000	0,006	-0,041
-335,518	-200,000	-0,024	-0,123
-334,504	131,047	0,088	0,080
-333,489	-54,691	0,088	-0,028
-332,475	97,911	0,099	-0,081
-331,460	-7,992	0,092	0,044
-330,445	800,000	0,039	-0,079
-329,431	-70,381	0,068	0,018
-328,416	-200,000	-0,009	0,066
-327,402	578,626	0,064	0,112
-326,387	134,312	-0,037	-0,035
-325,372	167,400	-0,053	-0,054
-324,358	-94,073	-0,076	-0,015
-323,343	13,337	-0,071	0,039
-322,329	307,622	0,061	0,082
-321,314	-200,000	0,038	0,179
-320,299	65,686	-0,036	-0,026
-319,285	-200,000	-0,002	0,105
-318,270	368,255	0,016	0,022
-317,256	-7,831	0,080	0,039
-316,241	443,512	-0,056	-0,087
-315,226	244,178	-0,094	0,112
-314,212	-103,337	0,126	-0,021
-313,197	-93,609	0,038	-0,007
-312,183	-151,332	-0,166	-0,009
-311,168	-16,155	-0,093	0,042
-310,153	-200,000	-0,007	-0,056
-309,139	469,152	-0,085	0,137
-308,124	-200,000	0,010	0,066
-307,110	129,920	0,060	-0,055
-306,095	162,976	-0,064	-0,064
-305,080	-8,652	-0,115	-0,055
-304,066	-110,273	-0,051	0,008
-303,051	-200,000	-0,012	0,109
-302,037	256,549	-0,011	-0,013
-301,022	109,930	0,025	-0,022
-300,008	178,256	0,074	0,077
-298,993	147,552	-0,027	-0,026
-297,978	-14,329	0,089	-0,041
-296,964	462,972	-0,050	-0,080
-295,949	435,749	0,051	-0,079
-294,935	210,951	-0,023	0,026
-293,920	-82,179	0,032	0,007
-292,905	-200,000	-0,035	0,168
-291,891	-200,000	0,022	0,123
-290,876	-109,317	-0,120	0,018
-289,862	20,471	0,005	0,003
-288,847	-32,589	-0,107	0,042
-287,832	342,913	0,069	0,096
-286,818	-200,000	0,001	-0,055
-285,803	-13,337	0,153	0,070
-284,789	-30,636	0,048	0,019
-283,774	-200,000	0,029	-0,102
-282,759	-200,000	-0,003	-0,066
-281,745	-112,516	-0,099	-0,014
-280,730	-137,464	0,076	0,006
-279,716	800,000	0,035	-0,073
-278,701	-90,215	0,077	-0,016
-277,686	-200,000	0,034	0,194
-276,672	211,662	0,019	0,021
-275,657	-68,314	0,171	0,047
-274,643	-200,000	-0,021	-0,092
-273,628	-200,000	0,005	-0,134
-272,613	91,919	-0,108	-0,086
-271,599	-11,958	0,063	0,029
-270,584	79,443	0,106	0,081
-269,570	800,000	0,011	-0,023
-268,555	49,135	0,032	0,021
-267,540	-63,306	-0,128	0,037
-266,526	-195,318	0,030	-0,000
-265,511	-200,000	0,016	0,103
-264,497	-200,000	0,011	0,057
-263,482	-200,000	-0,023	0,098
-262,467	482,991	0,026	0,043
-261,453	800,000	-0,020	0,051
-260,438	19,512	0,065	0,037
-259,424	-24,402	0,107	0,045
-258,409	-200,000	-0,007	0,036
-257,395	208,226	-0,065	0,072
-256,380	300,596	0,051	0,067
-255,365	-70,825	-0,019	0,005
-254,351	-30,330	0,058	-0,023
-253,336	-200,000	0,022	-0,129
-252,322	-200,000	-0,013	-0,086
-251,307	104,907	0,028	-0,024
-250,292	-200,000	-0,001	-0,070
-249,278	-200,000	-0,010	-0,041
-248,263	800,000	0,046	0,117
-247,249	-101,964	0,148	0,025
-246,234	800,000	-0,023	0,069
-245,219	323,959	-0,037	-0,050
-244,205	-87,012	0,077	-0,016
-243,190	377,665	-0,052	0,076
-242,176	618,711	0,066	-0,118
-241,161	-200,000	-0,014	0,078
-240,146	793,747	0,026	0,052
-239,132	-87,173	-0,110	0,024
-238,117	93,405	0,038	0,031
-237,103	771,914	-0,045	-0,088
-236,088	443,570	0,037	-0,057
-235,073	109,818	0,144	0,123
-234,059	-5,598	0,070	-0,034
-233,044	16,654	-0,052	0,029
-232,030	116,447	0,122	0,107
-231,015	123,941	-0,088	-0,079
-230,000	800,000	-0,015	-0,044
-228,986	52,848	-0,118	-0,080
-227,971	-7,436	0,046	-0,022
-226,957	-89,319	0,092	-0,019
-225,942	260,755	0,051	0,063
-224,927	-200,000	0,002	0,103
-223,913	-200,000	0,004	-0,079
-222,898	137,738	0,065	0,061
-221,884	-110,136	-0,078	0,012
-220,869	681,451	0,027	-0,050
-219,855	800,000	-0,046	-0,091
-218,840	-162,498	0,190	0,007
-217,825	-200,000	-0,019	-0,070
-216,811	302,186	-0,096	-0,127
-215,796	11,433	-0,054	0,029
-214,782	800,000	0,052	-0,118
-213,767	-96,883	-0,078	-0,014
-212,752	-191,821	-0,101	-0,001
-211,738	-89,455	-0,029	0,006
-210,723	-200,000	0,007	-0,135
-209,709	-200,000	0,012	0,119
-208,694	-100,199	-0,110	-0,019
-207,679	136,635	0,035	0,033
-206,665	-170,575	0,177	0,004
-205,650	49,807	0,057	-0,038
-204,636	148,286	-0,112	0,107
-203,621	-151,663	0,102	-0,005
-202,606	-132,830	-0,078	-0,007
-201,592	325,652	0,116	-0,157
-200,577	527,447	0,049	0,082
-199,563	-200,000	0,026	-0,130
-198,548	361,477	0,082	0,117
-197,533	69,528	-0,051	-0,037
-196,519	-134,788	0,077	-0,007
-195,504	-131,524	0,064	0,006
-194,490	-152,047	-0,088	-0,004
-193,475	-96,507	0,071	0,013
-192,460	70,559	0,012	0,009
-191,446	577,652	-0,028	0,049
-190,431	-200,000	-0,018	0,058
-189,417	800,000	0,053	0,105
-188,402	800,000	-0,018	-0,041
-187,387	-83,884	-0,115	-0,026
-186,373	-15,186	0,086	0,039
-185,358	254,740	0,068	0,083
-184,344	800,000	-0,058	-0,117
-183,329	45,630	0,078	0,051
-182,315	179,656	0,033	0,034
-181,300	416,260	-0,022	-0,033
-180,285	86,565	-0,145	-0,114
-179,271	-200,000	0,006	-0,060
-178,256	-200,000	0,008	-0,139
-177,242	-18,871	-0,164	-0,072
-176,227	110,882	0,130	0,111
-175,212	-111,575	0,072	-0,010
-174,198	800,000	0,034	0,073
-173,183	139,711	-0,069	-0,065
-172,169	296,152	0,091	-0,119
-171,154	-200,000	-0,001	-0,071
-170,139	-31,995	-0,028	0,011
-169,125	-172,493	0,008	0,000
-168,110	137,941	-0,123	0,114
-167,096	-200,000	0,010	0,037
-166,081	-152,268	-0,044	-0,002
-165,066	800,000	-0,078	-0,180
-164,052	-22,828	-0,056	0,024
-163,037	-15,340	-0,082	0,037
-162,023	363,731	-0,057	-0,082
-161,008	594,998	0,023	0,041
-159,993	-200,000	0,003	0,030
-158,979	-200,000	-0,012	0,045
-157,964	162,251	-0,072	-0,072
-156,950	-98,910	-0,112	0,020
-155,935	28,995	0,123	-0,074
-154,920	-200,000	-0,025	0,092
-153,906	-104,638	-0,034	0,006
-152,891	84,713	-0,028	-0,022
-151,877	294,585	-0,007	-0,008
-150,862	800,000	-0,020	-0,047
-149,847	426,994	-0,035	-0,054
-148,833	800,000	0,067	0,177
-147,818	120,205	0,083	0,073
-146,804	192,277	-0,076	0,081
-145,789	150,192	-0,100	0,097
-144,775	-136,809	0,134	0,011
-143,760	800,000	-0,011	0,024
-142,745	186,336	-0,065	-0,068
-141,731	288,748	0,062	-0,080
-140,716	800,000	-0,027	0,061
-139,702	-120,689	0,092	0,011
-138,687	11,191	-0,044	0,024
-137,672	313,117	-0,081	-0,108
-136,658	800,000	-0,006	0,014
-135,643	-95,836	-0,123	0,023
-134,629	641,939	-0,033	-0,060
-133,614	800,000	-0,060	-0,129
-132,599	-200,000	-0,004	0,152
-131,585	-200,000	-0,021	0,134
-130,570	-42,497	-0,102	0,037
-129,556	-17,601	0,038	-0,017
-128,541	-200,000	-0,005	0,112
-127,526	800,000	0,015	-0,036
-126,512	800,000	-0,072	0,181
-125,497	-9,525	-0,095	0,045
-124,483	24,404	-0,100	0,058
-123,468	800,000	0,016	-0,033
-122,453	800,000	-0,029	0,072
-121,439	237,644	0,007	0,008
-120,424	800,000	0,046	-0,103
-119,410	800,000	0,018	-0,036
-118,395	-43,505	-0,121	-0,043
-117,380	-166,853	-0,100	-0,003
-116,366	612,659	0,056	0,099
-115,351	319,577	-0,110	0,147
-114,337	-83,596	-0,084	-0,019
-113,322	9,597	0,024	-0,013
-112,307	-200,000	-0,007	0,046
-111,293	114,815	0,069	-0,060
-110,278	408,303	0,101	0,151
-109,264	800,000	-0,073	-0,187
-108,249	-130,707	-0,136	-0,013
-107,234	-121,481	-0,068	0,008
-106,220	800,000	0,022	-0,044
-105,205	-79,877	0,027	-0,006
-104,191	91,047	-0,042	-0,033
-103,176	800,000	0,029	0,081
-102,162	-200,000	-0,007	-0,077
-101,147	-81,360	-0,072	-0,017
-100,132	800,000	0,036	-0,077
-99,118	201,694	-0,025	0,028
-98,103	536,758	-0,054	-0,091
-97,089	-200,000	-0,000	0,044
-96,074	800,000	-0,017	-0,052
-95,059	-103,624	-0,048	0,008
-94,045	-13,565	0,057	-0,026
-93,030	-200,000	-0,008	0,079
-92,016	58,029	-0,079	0,055
-91,001	26,536	0,026	-0,015
-89,986	498,084	0,029	0,047
-88,972	221,305	0,091	0,103
-87,957	-64,220	-0,134	0,038
-86,943	-37,233	0,031	0,012
-85,928	523,364	-0,027	0,045
-84,913	-125,551	-0,127	-0,013
-83,899	-200,000	0,030	0,146
-82,884	800,000	0,029	0,073
-81,870	-200,000	-0,007	0,033
-80,855	-200,000	0,011	-0,102
-79,840	-16,630	-0,094	0,042
-78,826	-113,709	0,028	0,004
-77,811	-76,458	0,121	-0,030
-76,797	800,000	-0,040	0,095
-75,782	434,073	-0,019	0,029
-74,767	5,021	0,062	-0,032
-73,753	11,285	0,038	-0,020
-72,738	323,501	-0,035	-0,047
-71,724	-200,000	0,027	0,101
-70,709	-200,000	-0,000	-0,036
-69,694	20,009	-0,050	-0,028
-68,680	800,000	0,048	-0,130
-67,665	800,000	-0,026	0,072
-66,651	-104,093	-0,028	-0,005
-65,636	800,000	-0,038	-0,091
-64,622	-87,640	0,101	-0,021
-63,607	199,787	-0,041	-0,044
-62,592	-200,000	0,004	-0,064
-61,578	-200,000	0,028	0,100
-60,563	6,727	0,118	0,062
-59,549	-200,000	0,014	0,133
-58,534	41,026	-2,124	-1,351
-57,519	696,020	-1,014	-1,888
-56,505	-200,000	-0,471	-4,472
-55,490	345,324	0,966	1,343
-54,476	800,000	5,513	12,291
-53,461	-200,000	22,107	344,176
-52,446	800,000	758,752	2302,685
-51,432	534,875	1650,538	2772,186
-50,417	68,894	1649,063	1193,699
-49,403	16,286	1524,845	846,567
-48,388	10,457	1449,780	776,830
-47,373	19,260	1441,909	814,626
-46,359	13,917	1430,462	782,852
-45,344	8,735	1426,744	756,224
-44,330	8,707	1424,608	754,929
-43,315	8,694	1422,831	753,894
-42,300	8,723	1421,012	753,039
-41,286	8,705	1419,871	752,315
-40,271	8,651	1418,774	751,451
-39,257	8,637	1417,577	750,720
-38,242	8,682	1416,455	750,311
-37,227	8,662	1415,529	749,695
-36,213	8,693	1414,098	749,053
-35,198	8,719	1412,653	748,381
-34,184	8,724	1411,914	747,983
-33,169	8,649	1410,465	746,832
-32,154	8,663	1409,381	746,295
-31,140	8,666	1408,199	745,655
-30,125	8,683	1407,072	745,106
-29,111	8,676	1405,853	744,399
-28,096	8,669	1404,708	743,729
-27,082	8,644	1403,460	742,926
-26,067	8,606	1402,576	742,251
-25,052	8,641	1401,363	741,740
-24,038	8,640	1400,348	741,169
-23,023	8,593	1399,614	740,533
-22,009	8,617	1398,436	739,989
-20,994	8,635	1397,442	739,519
-19,979	8,586	1396,692	738,868
-18,965	8,593	1395,432	738,202
-17,950	8,529	1394,629	737,451
-16,936	8,560	1393,826	737,141
-15,921	8,534	1392,727	736,409
-14,906	8,504	1392,046	735,883
-13,892	8,581	1390,942	735,624
-12,877	8,529	1390,307	735,020
-11,863	8,547	1389,406	734,597
-10,848	8,550	1388,410	734,058
-9,833	8,495	1387,602	733,348
-8,819	8,465	1386,453	732,570
-7,804	8,468	1385,567	732,087
-6,790	8,462	1384,734	731,589
-5,775	8,426	1383,668	730,831
-4,760	8,466	1382,900	730,581
-3,746	8,463	1381,862	729,989
-2,731	8,485	1380,850	729,527
-1,717	8,479	1380,051	729,048
-0,702	8,462	1378,353	728,047
0,313	12,436	1289,543	699,203
1,327	28,201	680,963	404,543
2,342	44,199	117,134	75,640
3,356	-1,581	16,571	8,208
4,371	-0,463	3,761	1,877
5,386	-11,122	1,219	0,564
6,400	800,000	0,222	0,564
7,415	46,658	-0,266	-0,174
8,429	-18,051	-0,393	-0,173
9,444	-52,710	-0,471	-0,152
10,459	7,605	-0,390	-0,205
11,473	-36,295	-0,413	-0,156
12,488	5,227	-0,232	-0,120
13,502	19,608	-0,330	-0,187
14,517	-14,735	-0,301	-0,135
15,531	60,304	-0,375	-0,261
16,546	-100,708	-0,383	-0,066
17,561	117,083	-0,291	-0,252
18,575	338,079	-0,134	-0,185
19,590	99,956	-0,297	-0,242
20,604	-135,688	-0,255	-0,021
21,619	-9,211	-0,558	-0,261
22,634	80,236	-0,447	-0,338
23,648	36,081	-0,346	-0,214
24,663	44,868	-0,356	-0,230
25,677	19,078	-0,309	-0,174
26,692	635,999	-0,152	-0,273
27,707	32,764	-0,390	-0,237
28,721	99,535	-0,426	-0,347
29,736	92,941	-0,454	-0,361
30,750	23,566	-0,354	-0,204
31,765	36,644	-0,346	-0,215
32,780	38,262	-0,358	-0,224
33,794	71,580	-0,350	-0,255
34,809	38,877	-0,268	-0,168
35,823	92,832	-0,250	-0,198
36,838	175,548	-0,406	-0,414
37,853	77,485	-0,431	-0,322
38,867	70,863	-0,423	-0,307
39,882	290,173	-0,215	-0,275
40,896	100,300	-0,337	-0,275
41,911	-0,088	-0,310	-0,154
42,926	-17,446	-0,431	-0,190
43,940	97,826	-0,419	-0,338
44,955	342,531	-0,199	-0,275
45,969	51,803	-0,379	-0,253
46,984	416,444	-0,252	-0,379
47,999	169,762	-0,228	-0,229
49,013	-10,918	-0,405	-0,187
50,028	45,926	-0,286	-0,185
51,042	76,760	-0,474	-0,353
52,057	28,863	-0,367	-0,218
53,071	14,506	-0,321	-0,176
54,086	-12,299	-0,288	-0,132
55,101	44,863	-0,305	-0,197
56,115	106,834	-0,249	-0,208
57,130	0,223	-0,271	-0,135
58,144	254,903	-0,252	-0,303
59,159	48,373	-0,452	-0,296
60,174	67,851	-0,317	-0,227
61,188	-12,819	-0,336	-0,153
62,203	20,963	-0,371	-0,210
63,217	31,649	-0,308	-0,185
64,232	102,157	-0,273	-0,224
65,247	206,084	-0,270	-0,295
66,261	163,480	-0,315	-0,311
67,276	38,164	-0,371	-0,231
68,290	-2,498	-0,392	-0,192
69,305	49,920	-0,251	-0,165
70,320	21,286	-0,304	-0,173
71,334	24,408	-0,232	-0,134
72,349	-130,738	-0,350	-0,033
73,363	148,538	-0,313	-0,296
74,378	136,734	-0,256	-0,234
75,393	-6,325	-0,242	-0,115
76,407	69,373	-0,322	-0,232
77,422	92,144	-0,325	-0,256
78,436	99,447	-0,334	-0,270
79,451	23,064	-0,369	-0,212
80,466	-2,323	-0,286	-0,140
81,480	62,931	-0,276	-0,193
82,495	-95,494	-0,328	-0,061
83,509	86,884	-0,210	-0,162
84,524	-101,120	-0,264	-0,045
85,539	22,932	-0,321	-0,184
86,553	35,843	-0,230	-0,141
87,568	179,593	-0,195	-0,200
88,582	70,044	-0,381	-0,275
89,597	322,274	-0,247	-0,330
90,611	-69,068	-0,330	-0,088
91,626	173,035	-0,212	-0,213
92,641	-156,813	-0,275	0,012
93,655	28,531	-0,292	-0,173
94,670	-21,607	-0,340	-0,144
95,684	346,312	-0,174	-0,240
96,699	331,187	-0,244	-0,330
97,714	23,249	-0,254	-0,145
98,728	-6,651	-0,232	-0,110
99,743	40,819	-0,297	-0,187
100,757	-42,699	-0,239	-0,085
101,772	112,907	-0,169	-0,143
102,787	445,457	-0,231	-0,355
103,801	144,059	-0,318	-0,296
104,816	320,010	-0,164	-0,218
105,830	84,803	-0,402	-0,307
106,845	108,499	-0,159	-0,133
107,860	214,727	-0,140	-0,155
108,874	9,246	-0,229	-0,120
109,889	20,737	-0,442	-0,249
110,903	-1,560	-0,327	-0,160
111,918	102,437	-0,261	-0,213
112,933	62,072	-0,278	-0,193
113,947	61,674	-0,220	-0,153
114,962	-5,105	-0,180	-0,086
115,976	-3,854	-0,261	-0,126
116,991	23,985	-0,363	-0,209
118,006	673,806	-0,149	-0,270
119,020	154,206	-0,216	-0,207
120,035	96,243	-0,247	-0,197
121,049	-9,798	-0,187	-0,087
122,064	219,541	-0,151	-0,169
123,079	18,668	-0,196	-0,109
124,093	216,665	-0,219	-0,243
125,108	32,066	-0,406	-0,243
126,122	3,446	-0,217	-0,110
127,137	114,644	-0,257	-0,219
128,151	-2,968	-0,248	-0,120
129,166	164,168	-0,251	-0,247
130,181	131,865	-0,141	-0,126
131,195	155,087	-0,201	-0,193
132,210	175,193	-0,135	-0,137
133,224	-159,373	-0,295	0,011
134,239	-120,138	-0,269	-0,032
135,254	-0,584	-0,129	-0,064
136,268	40,168	-0,262	-0,164
137,283	103,579	-0,189	-0,155
138,297	319,637	-0,161	-0,213
139,312	135,544	-0,287	-0,260
140,327	6,412	-0,301	-0,155
141,341	57,048	-0,192	-0,130
142,356	51,277	-0,221	-0,146
143,370	32,059	-0,339	-0,203
144,385	386,802	-0,121	-0,174
145,400	58,889	-0,294	-0,201
146,414	-0,482	-0,351	-0,173
147,429	317,887	-0,123	-0,162
148,443	111,586	-0,277	-0,233
149,458	-57,498	-0,246	-0,075
150,473	9,338	-0,214	-0,112
151,487	-48,695	-0,295	-0,098
152,502	145,901	-0,183	-0,171
153,516	137,207	-0,264	-0,241
154,531	188,028	-0,302	-0,315
155,546	43,797	-0,245	-0,156
156,560	51,829	-0,286	-0,189
157,575	273,871	-0,134	-0,165
158,589	36,960	-0,235	-0,144
159,604	189,736	-0,263	-0,275
160,619	-15,872	-0,409	-0,180
161,633	6,556	-0,313	-0,161
162,648	10,466	-0,234	-0,124
163,662	-200,000	-0,029	-0,205
164,677	800,000	-0,161	-0,317
165,692	62,058	-0,169	-0,117
166,706	13,219	-0,250	-0,134
167,721	724,723	-0,163	-0,304
168,735	-16,232	-0,365	-0,161
169,750	108,327	-0,214	-0,178
170,764	59,593	-0,237	-0,162
171,779	-55,196	-0,198	-0,061
172,794	-27,506	-0,223	-0,090
173,808	769,234	-0,115	-0,218
174,823	78,380	-0,184	-0,136
175,837	-2,337	-0,240	-0,116
176,852	119,334	-0,235	-0,202
177,867	209,118	-0,193	-0,210
178,881	242,334	-0,187	-0,218
179,896	-1,110	-0,263	-0,129
180,910	-80,060	-0,291	-0,067
181,925	-107,494	-0,236	-0,036
182,940	225,436	-0,289	-0,326
183,954	121,451	-0,225	-0,195
184,969	162,626	-0,188	-0,183
185,983	76,433	-0,214	-0,157
186,998	90,628	-0,185	-0,144
188,013	23,382	-0,229	-0,130
189,027	27,555	-0,343	-0,200
190,042	31,587	-0,377	-0,224
191,056	-10,538	-0,267	-0,122
192,071	211,012	-0,176	-0,192
193,086	69,780	-0,208	-0,148
194,100	46,997	-0,212	-0,136
195,115	-80,577	-0,210	-0,048
196,129	51,494	-0,303	-0,200
197,144	714,340	-0,116	-0,214
198,159	-10,019	-0,203	-0,093
199,173	20,637	-0,159	-0,089
200,188	-13,592	-0,185	-0,083
201,202	68,804	-0,240	-0,171
202,217	33,860	-0,151	-0,091
203,232	800,000	-0,059	-0,154
204,246	292,897	-0,184	-0,233
205,261	437,413	-0,159	-0,241
206,275	-64,809	-0,218	-0,061
207,290	232,856	-0,124	-0,142
208,304	-21,451	-0,242	-0,102
209,319	696,029	-0,129	-0,235
210,334	140,410	-0,181	-0,165
211,348	67,971	-0,213	-0,150
212,363	171,421	-0,218	-0,217
213,377	-158,872	-0,160	-0,006
214,392	131,259	-0,167	-0,149
215,407	800,000	-0,115	-0,222
216,421	116,608	-0,155	-0,132
217,436	-69,744	-0,192	-0,050
218,450	93,519	-0,258	-0,202
219,465	79,972	-0,159	-0,119
220,480	364,501	-0,177	-0,247
221,494	800,000	-0,050	-0,099
222,509	44,950	-0,173	-0,110
223,523	-112,657	-0,244	-0,033
224,538	-89,270	-0,282	-0,057
225,553	58,734	-0,255	-0,173
226,567	123,473	-0,260	-0,226
227,582	484,406	-0,162	-0,255
228,596	366,734	-0,146	-0,205
229,611	-127,607	-0,177	-0,018
230,626	-136,090	-0,091	0,007
231,640	538,592	-0,073	-0,121
232,655	704,731	-0,137	-0,251
233,669	680,727	-0,111	-0,201
234,684	148,890	-0,186	-0,174
235,699	53,869	-0,259	-0,172
236,713	409,223	-0,075	-0,110
237,728	-85,914	-0,237	-0,050
238,742	94,358	-0,154	-0,121
239,757	-38,998	-0,241	-0,087
240,772	800,000	-0,106	-0,211
241,786	110,720	-0,224	-0,186
242,801	195,860	-0,230	-0,242
243,815	-68,242	-0,170	-0,045
244,830	555,510	-0,088	-0,147
245,844	-54,647	-0,228	-0,071
246,859	52,093	-0,242	-0,159
247,874	756,011	-0,127	-0,237
248,888	783,552	-0,153	-0,291
249,903	3,600	-0,236	-0,119
250,917	-74,486	-0,153	-0,038
251,932	-70,670	-0,141	-0,037
252,947	434,881	-0,166	-0,249
253,961	88,694	-0,230	-0,177
254,976	472,190	-0,171	-0,267
255,990	36,937	-0,192	-0,117
257,005	248,080	-0,110	-0,129
258,020	-200,000	-0,051	-0,168
259,034	1,112	-0,178	-0,088
260,049	-56,393	-0,147	-0,045
261,063	316,285	-0,078	-0,101
262,078	-19,854	-0,254	-0,108
263,093	-14,279	-0,203	-0,090
264,107	17,643	-0,145	-0,079
265,122	113,871	-0,078	-0,065
266,136	-30,215	-0,167	-0,065
267,151	137,993	-0,114	-0,103
268,166	-49,186	-0,206	-0,067
269,180	691,772	-0,086	-0,156
270,195	-103,988	-0,258	-0,041
271,209	-66,777	-0,252	-0,068
272,224	800,000	-0,102	-0,230
273,239	-62,460	-0,020	-0,006
274,253	-200,000	-0,039	-0,274
275,268	178,907	-0,191	-0,193
276,282	4,431	-0,309	-0,155
277,297	42,205	-0,172	-0,107
278,312	179,874	-0,127	-0,128
279,326	63,411	-0,194	-0,134
280,341	-200,000	-0,014	-0,111
281,355	800,000	-0,011	-0,029
282,370	-56,797	-0,117	-0,035
283,384	-13,152	-0,083	-0,037
284,399	94,986	-0,121	-0,095
285,414	482,856	-0,161	-0,253
286,428	342,862	-0,139	-0,188
287,443	-200,000	-0,118	0,000
288,457	13,201	-0,068	-0,036
289,472	134,084	-0,112	-0,099
290,487	70,704	-0,188	-0,134
291,501	30,263	-0,065	-0,038
292,516	-29,746	-0,100	-0,039
293,530	40,114	-0,041	-0,025
294,545	-200,000	0,024	-0,130
295,560	233,179	-0,079	-0,090
296,574	-133,029	-0,131	-0,011
297,589	-47,663	-0,139	0,046
298,603	134,850	-0,178	-0,159
299,618	92,407	-0,183	-0,142
300,633	-120,413	-0,125	0,014
301,647	-64,521	-0,192	-0,053
302,662	-123,590	-0,248	-0,027
303,676	-176,299	-0,218	-0,004
304,691	-138,423	-0,139	0,010
305,706	752,808	-0,117	-0,218
306,720	30,534	-0,201	-0,118
307,735	-89,356	-0,184	-0,037
308,749	-75,595	-0,102	0,025
309,764	485,334	-0,131	-0,206
310,779	800,000	-0,106	-0,213
311,793	59,603	-0,152	-0,102
312,808	113,922	-0,203	-0,170
313,822	-1,850	-0,139	-0,067
314,837	-89,606	-0,139	0,028
315,852	299,800	-0,111	-0,140
316,866	214,173	-0,098	-0,106
317,881	377,528	-0,086	-0,121
318,895	185,537	-0,069	-0,070
319,910	241,713	-0,201	-0,231
320,925	29,717	-0,243	-0,142
321,939	800,000	-0,054	-0,163
322,954	-13,041	-0,163	-0,072
323,968	-33,051	-0,109	0,041
324,983	-18,074	-0,091	0,039
325,997	800,000	-0,007	-0,014
327,012	-200,000	0,023	-0,078
328,027	800,000	-0,082	-0,227
329,041	-106,663	-0,030	-0,004
330,056	-85,357	-0,104	-0,022
331,070	148,042	-0,055	-0,050
332,085	508,393	-0,086	-0,137
333,100	142,130	-0,136	-0,124
334,114	220,906	-0,152	-0,168
335,129	154,035	-0,200	-0,188
336,143	-71,400	-0,130	-0,033
337,158	66,238	-0,211	-0,146
338,173	173,739	-0,118	-0,117
339,187	65,208	-0,191	-0,132
340,202	-12,170	-0,190	-0,085
341,216	-12,266	-0,209	-0,093
342,231	-148,814	-0,300	-0,016
343,246	206,855	-0,184	-0,196
344,260	-75,295	-0,140	-0,034
345,275	77,418	0,019	0,014
346,289	10,418	-0,122	-0,063
347,304	138,546	-0,078	-0,070
348,319	800,000	-0,072	-0,185
349,333	451,489	-0,073	-0,110
350,348	161,845	-0,164	-0,157
351,362	136,097	-0,108	-0,096
352,377	-105,872	-0,174	-0,027
353,392	-55,962	-0,107	-0,032
354,406	27,059	-0,168	-0,096
355,421	206,784	1310,739	1398,058
356,435	159,043	1470,926	1398,501
