DTS Sentinel unit serial number:	SN410029Multiplexer serial number:	ORYXHardware model number:	OX2-SRSoftware version number:	ORYX F/W v4,00 Oryx Data Collector v3.7.2.0data status	okinstallation	B3 Nyhavnadifferential loss correction	single-endedforward channel	channel 1reverse channel	N/Adate	2023/12/04time	21:12:30forward acquisition time	300,00reverse acquisition time	0,00gamma	499,1914k internal	0,3201k external	0,3201temperature offset calibration	1,0000default loss term (dB/km)	0,3820temperature slope calibration	1,0000multiplexer offset coefficient	1,0000multiplexer slope coefficient	1,0000fibre end	0,00T internal ref (°C)	14,50T ext. ref 1 (°C)	-0,31T ext. ref 2 (°C)	-0,33length (m)	temperature (°C)	Stokes	anti-Stokes-744,400	443,200	-0,182	-0,292
-743,385	-200,000	0,097	0,363
-742,371	453,818	-0,163	-0,264
-741,356	-200,000	0,013	0,290
-740,342	74,135	-0,292	-0,222
-739,327	590,842	0,147	0,264
-738,312	279,874	-0,181	-0,235
-737,298	800,000	0,099	0,284
-736,283	93,778	-0,198	-0,163
-735,269	-200,000	0,051	0,212
-734,254	90,913	-0,197	-0,160
-733,239	40,459	-0,143	0,093
-732,225	442,880	-0,173	-0,276
-731,210	542,795	0,076	0,133
-730,196	800,000	-0,020	-0,053
-729,181	-100,837	-0,018	0,003
-728,167	44,884	-0,072	-0,048
-727,152	-36,476	0,150	-0,058
-726,137	-71,988	-0,244	-0,066
-725,123	-70,575	-0,085	-0,023
-724,108	-200,000	0,004	-0,070
-723,094	58,846	-0,037	-0,026
-722,079	43,376	-0,098	-0,065
-721,064	-125,769	0,077	0,008
-720,050	800,000	-0,025	-0,050
-719,035	800,000	-0,047	-0,129
-718,021	631,091	-0,066	-0,121
-717,006	363,357	-0,029	-0,042
-715,991	237,223	-0,064	-0,078
-714,977	28,236	0,105	-0,064
-713,962	79,564	-0,173	0,135
-712,948	497,785	-0,067	-0,112
-711,933	111,759	-0,059	0,052
-710,918	-175,557	-0,068	-0,001
-709,904	83,603	-0,099	-0,078
-708,889	462,388	0,066	0,108
-707,875	28,796	-0,019	0,012
-706,860	52,225	-0,139	-0,096
-705,845	-117,080	-0,169	-0,022
-704,831	272,476	0,034	-0,044
-703,816	-200,000	-0,014	0,057
-702,802	-3,883	-0,080	0,040
-701,787	-200,000	-0,006	0,104
-700,772	-5,929	-0,056	-0,028
-699,758	-4,000	-0,011	0,005
-698,743	14,800	0,091	0,052
-697,729	-192,830	0,080	0,001
-696,714	-176,305	-0,040	0,001
-695,699	800,000	0,022	0,057
-694,685	637,122	0,092	-0,171
-693,670	-30,953	0,052	-0,021
-692,656	98,592	0,022	0,018
-691,641	-200,000	-0,001	-0,149
-690,627	-200,000	-0,010	0,036
-689,612	386,727	-0,071	-0,107
-688,597	3,567	-0,060	-0,032
-687,583	106,083	-0,185	-0,159
-686,568	-153,052	0,211	0,011
-685,554	223,289	-0,068	-0,080
-684,539	176,549	0,026	-0,028
-683,524	800,000	0,028	0,085
-682,510	-200,000	-0,020	0,080
-681,495	-15,940	-0,153	0,071
-680,481	-200,000	-0,021	-0,165
-679,466	-200,000	-0,034	-0,197
-678,451	95,907	-0,125	-0,103
-677,437	-0,457	0,122	-0,063
-676,422	669,136	0,034	0,065
-675,408	-3,719	0,086	0,043
-674,393	-151,432	0,068	-0,004
-673,378	-117,943	-0,052	-0,007
-672,364	157,437	-0,087	-0,087
-671,349	27,719	-0,046	-0,028
-670,335	350,134	-0,028	0,041
-669,320	-57,308	-0,044	0,014
-668,305	-200,000	-0,019	0,083
-667,291	-121,547	-0,051	-0,006
-666,276	-93,123	0,105	-0,021
-665,262	-69,810	-0,093	-0,026
-664,247	-200,000	-0,011	0,053
-663,232	631,043	0,081	0,150
-662,218	-41,586	0,081	-0,030
-661,203	-43,316	0,080	0,029
-660,189	-200,000	-0,022	-0,084
-659,174	9,797	-0,103	-0,057
-658,159	224,000	-0,066	0,077
-657,145	-42,549	0,059	-0,022
-656,130	-200,000	-0,009	-0,039
-655,116	-200,000	-0,006	-0,055
-654,101	-200,000	0,017	0,085
-653,086	220,606	-0,187	-0,218
-652,072	800,000	0,033	-0,093
-651,057	-81,227	-0,067	-0,016
-650,043	71,906	-0,074	-0,056
-649,028	800,000	-0,021	-0,064
-648,014	34,370	0,126	0,080
-646,999	800,000	-0,043	-0,127
-645,984	-200,000	0,008	0,034
-644,970	350,937	-0,065	-0,093
-643,955	800,000	-0,009	0,025
-642,941	800,000	-0,016	0,039
-641,926	-200,000	-0,008	-0,032
-640,911	-200,000	-0,017	-0,094
-639,897	-200,000	0,018	0,229
-638,882	399,532	-0,022	-0,033
-637,868	800,000	0,036	0,093
-636,853	-200,000	0,021	-0,083
-635,838	9,466	-0,074	0,041
-634,824	170,888	-0,063	0,065
-633,809	-200,000	0,014	-0,119
-632,795	4,549	0,119	-0,063
-631,780	83,152	0,117	0,092
-630,765	35,908	-0,080	0,051
-629,751	23,915	0,121	0,072
-628,736	-52,058	-0,147	0,049
-627,722	54,480	0,034	0,024
-626,707	-90,411	-0,049	0,010
-625,692	34,275	0,121	0,076
-624,678	137,195	-0,087	-0,083
-623,663	1,698	-0,076	-0,039
-622,649	-92,001	-0,106	0,021
-621,634	-81,167	-0,046	-0,011
-620,619	89,545	0,012	0,010
-619,605	293,455	-0,025	0,033
-618,590	-200,000	0,012	-0,129
-617,576	90,369	0,056	-0,046
-616,561	-38,902	-0,073	0,028
-615,546	-200,000	0,014	-0,062
-614,532	8,660	-0,049	0,027
-613,517	-200,000	-0,022	-0,099
-612,503	158,288	0,056	-0,057
-611,488	-200,000	-0,017	0,104
-610,474	800,000	-0,012	-0,037
-609,459	-8,816	0,069	-0,033
-608,444	733,328	-0,061	-0,119
-607,430	-82,782	-0,089	0,021
-606,415	-182,139	-0,087	0,001
-605,401	-17,184	0,123	0,056
-604,386	-200,000	-0,025	-0,153
-603,371	-200,000	0,000	0,003
-602,357	737,462	0,012	-0,023
-601,342	-37,451	-0,087	-0,033
-600,328	86,247	-0,115	-0,091
-599,313	442,772	0,104	-0,165
-598,298	-200,000	-0,046	0,169
-597,284	81,195	0,046	-0,036
-596,269	773,282	-0,062	0,122
-595,255	-200,000	0,028	0,193
-594,240	-200,000	0,035	-0,130
-593,225	-141,344	-0,053	0,004
-592,211	-164,538	-0,041	-0,001
-591,196	-20,356	-0,048	-0,021
-590,182	23,227	-0,022	0,013
-589,167	-200,000	0,035	0,128
-588,152	-30,931	-0,057	-0,023
-587,138	-64,352	0,095	-0,028
-586,123	-5,864	0,206	-0,101
-585,109	-200,000	-0,003	-0,073
-584,094	-9,359	-0,064	0,031
-583,079	61,815	-0,013	-0,009
-582,065	1,591	0,100	-0,052
-581,050	33,142	-0,132	0,082
-580,036	-200,000	-0,003	0,091
-579,021	-200,000	-0,041	-0,161
-578,006	-200,000	-0,003	-0,053
-576,992	-164,106	-0,122	-0,004
-575,977	711,998	-0,026	-0,050
-574,963	800,000	-0,035	0,094
-573,948	-156,921	0,116	0,005
-572,934	291,497	-0,056	0,074
-571,919	175,004	-0,151	-0,159
-570,904	-200,000	0,028	-0,093
-569,890	800,000	-0,018	0,054
-568,875	800,000	-0,052	-0,131
-567,861	-73,084	0,161	-0,042
-566,846	-36,218	-0,013	-0,005
-565,831	700,192	0,079	-0,152
-564,817	115,307	-0,115	-0,101
-563,802	679,632	0,101	-0,191
-562,788	-123,771	-0,050	-0,006
-561,773	-150,084	0,101	0,006
-560,758	-29,615	0,171	-0,070
-559,744	492,698	-0,030	0,050
-558,729	-200,000	0,022	0,101
-557,715	403,294	-0,083	-0,127
-556,700	401,913	-0,094	-0,143
-555,685	158,822	0,011	-0,011
-554,671	710,027	0,024	-0,046
-553,656	-127,466	0,210	-0,022
-552,642	-200,000	-0,023	0,125
-551,627	-200,000	-0,028	0,138
-550,612	35,786	-0,049	0,031
-549,598	-200,000	0,002	0,025
-548,583	218,971	-0,051	-0,059
-547,569	203,816	0,045	-0,050
-546,554	-30,500	0,083	0,034
-545,539	-200,000	-0,006	0,171
-544,525	39,355	-0,102	0,066
-543,510	-200,000	0,010	-0,038
-542,496	800,000	-0,012	-0,031
-541,481	-200,000	-0,034	-0,160
-540,466	-53,277	0,126	0,041
-539,452	-200,000	0,002	0,038
-538,437	-200,000	0,009	0,030
-537,423	-200,000	0,004	-0,057
-536,408	-192,590	-0,064	0,000
-535,393	133,463	0,027	-0,025
-534,379	-200,000	0,013	0,049
-533,364	522,316	0,050	-0,086
-532,350	-200,000	-0,003	0,113
-531,335	-112,557	-0,031	-0,004
-530,321	92,080	0,039	-0,032
-529,306	445,755	-0,068	0,108
-528,291	293,622	0,077	-0,101
-527,277	165,941	-0,028	0,029
-526,262	-98,301	0,088	0,016
-525,248	-82,346	0,103	0,024
-524,233	-111,123	0,075	0,011
-523,218	-200,000	0,012	0,098
-522,204	-200,000	0,040	-0,141
-521,189	-177,337	-0,023	0,000
-520,175	105,848	0,026	-0,022
-519,160	216,691	-0,117	-0,134
-518,145	262,268	0,059	0,073
-517,131	14,348	0,106	0,060
-516,116	-200,000	0,007	0,080
-515,102	-123,892	-0,055	-0,006
-514,087	63,354	-0,045	0,033
-513,072	800,000	0,029	-0,060
-512,058	-105,110	-0,161	0,026
-511,043	800,000	0,027	-0,079
-510,029	24,256	0,125	-0,074
-509,014	237,617	-0,025	0,031
-507,999	-20,454	-0,082	-0,036
-506,985	111,770	-0,067	-0,058
-505,970	-200,000	-0,012	-0,143
-504,956	24,138	-0,082	0,048
-503,941	800,000	0,054	-0,162
-502,926	14,599	-0,036	0,020
-501,912	41,726	0,122	0,080
-500,897	-12,774	-0,143	0,067
-499,883	12,503	0,045	-0,025
-498,868	377,512	-0,037	0,055
-497,853	-200,000	-0,004	-0,085
-496,839	-200,000	-0,002	0,101
-495,824	218,757	-0,055	0,063
-494,810	800,000	0,022	0,060
-493,795	-200,000	-0,013	-0,136
-492,781	-200,000	0,013	0,059
-491,766	-17,258	-0,053	-0,024
-490,751	138,368	0,053	-0,050
-489,737	224,636	0,072	0,084
-488,722	-200,000	0,022	0,092
-487,708	218,701	-0,113	0,130
-486,693	420,675	-0,041	0,064
-485,678	-122,501	-0,013	-0,002
-484,664	800,000	0,030	-0,080
-483,649	-22,216	-0,123	-0,053
-482,635	-25,432	0,088	0,037
-481,620	4,564	-0,167	-0,088
-480,605	-105,554	0,114	0,018
-479,591	571,843	-0,052	0,091
-478,576	-200,000	-0,013	0,050
-477,562	43,778	0,068	0,045
-476,547	800,000	-0,081	-0,161
-475,532	-200,000	0,002	-0,104
-474,518	800,000	-0,033	0,089
-473,503	-200,000	-0,017	0,062
-472,489	800,000	-0,049	-0,110
-471,474	112,758	-0,120	-0,105
-470,459	-9,219	0,090	0,043
-469,445	28,510	-0,035	0,021
-468,430	-64,983	-0,175	0,051
-467,416	57,461	0,090	-0,063
-466,401	-122,340	0,048	0,006
-465,386	165,480	0,040	-0,041
-464,372	14,627	-0,077	0,043
-463,357	-155,570	0,091	-0,004
-462,343	560,612	-0,046	0,080
-461,328	-1,532	-0,077	-0,039
-460,313	513,439	0,051	-0,087
-459,299	-200,000	0,005	-0,050
-458,284	800,000	-0,090	0,240
-457,270	84,014	0,105	0,082
-456,255	800,000	0,024	-0,050
-455,241	175,466	-0,071	-0,074
-454,226	-200,000	-0,027	0,099
-453,211	800,000	0,035	-0,097
-452,197	-200,000	0,003	0,072
-451,182	800,000	-0,025	-0,078
-450,168	-48,796	0,115	0,040
-449,153	-99,930	-0,043	-0,008
-448,138	-114,459	0,042	0,006
-447,124	-72,741	0,106	-0,028
-446,109	-200,000	0,002	-0,075
-445,095	-83,850	0,076	0,017
-444,080	459,737	0,039	-0,063
-443,065	-200,000	0,041	-0,130
-442,051	-200,000	0,000	-0,011
-441,036	-200,000	0,013	0,151
-440,022	-200,000	0,010	-0,108
-439,007	800,000	0,020	0,044
-437,992	-56,160	0,058	0,018
-436,978	-200,000	0,009	-0,030
-435,963	-48,240	0,082	-0,028
-434,949	-200,000	0,010	0,042
-433,934	-21,652	-0,039	0,017
-432,919	-38,854	-0,085	0,032
-431,905	-200,000	0,000	-0,084
-430,890	46,604	-0,016	0,011
-429,876	721,969	0,042	0,081
-428,861	-7,767	0,119	-0,057
-427,846	-200,000	-0,005	-0,019
-426,832	217,201	-0,085	0,097
-425,817	254,295	-0,129	-0,158
-424,803	212,475	-0,073	0,082
-423,788	627,280	0,027	0,050
-422,773	-118,638	0,081	0,010
-421,759	800,000	0,013	0,034
-420,744	-200,000	0,015	-0,070
-419,730	-118,472	0,068	0,009
-418,715	-200,000	-0,004	-0,022
-417,701	777,259	-0,120	-0,237
-416,686	199,012	-0,049	-0,054
-415,671	760,191	0,083	0,163
-414,657	-106,464	0,105	0,017
-413,642	-45,870	0,092	-0,032
-412,628	-200,000	0,048	0,171
-411,613	84,740	-0,144	0,113
-410,598	-200,000	0,004	0,184
-409,584	-57,245	-0,183	-0,057
-408,569	214,880	0,143	0,163
-407,555	800,000	0,005	-0,012
-406,540	75,815	-0,017	0,013
-405,525	88,664	-0,071	-0,057
-404,511	190,504	0,075	-0,081
-403,496	75,547	-0,097	-0,074
-402,482	93,247	0,122	0,099
-401,467	800,000	0,043	-0,099
-400,452	-131,800	0,105	-0,010
-399,438	639,522	-0,013	0,024
-398,423	-133,706	-0,237	0,021
-397,409	-57,028	-0,036	0,011
-396,394	-86,497	-0,030	-0,006
-395,379	-200,000	-0,013	-0,063
-394,365	-200,000	-0,005	0,087
-393,350	161,769	0,038	0,038
-392,336	800,000	0,040	0,085
-391,321	124,731	-0,066	0,060
-390,306	-168,169	-0,031	0,001
-389,292	-200,000	0,019	0,111
-388,277	-151,716	-0,011	-0,001
-387,263	-46,764	0,062	0,022
-386,248	-65,320	0,056	0,016
-385,233	-103,731	0,118	-0,020
-384,219	-52,798	0,093	-0,030
-383,204	-200,000	-0,003	0,023
-382,190	-200,000	-0,011	-0,148
-381,175	-0,960	-0,067	0,034
-380,160	-200,000	-0,032	-0,131
-379,146	800,000	0,073	0,145
-378,131	517,605	0,081	0,136
-377,117	-42,323	0,069	-0,025
-376,102	-101,994	-0,052	-0,009
-375,088	-52,684	-0,100	-0,033
-374,073	-53,541	-0,123	-0,040
-373,058	-48,086	-0,071	0,025
-372,044	25,126	0,091	0,054
-371,029	-65,635	0,059	0,017
-370,015	37,320	-0,026	-0,016
-369,000	123,743	-0,025	0,023
-367,985	800,000	0,042	-0,112
-366,971	-200,000	-0,010	-0,102
-365,956	-176,403	0,118	0,002
-364,942	-161,426	0,029	0,001
-363,927	-200,000	-0,007	0,058
-362,912	-12,524	-0,176	0,082
-361,898	250,761	-0,111	0,135
-360,883	57,381	-0,095	0,067
-359,869	-73,150	-0,118	0,031
-358,854	391,509	0,031	-0,046
-357,839	196,205	0,065	0,071
-356,825	460,978	-0,030	-0,048
-355,810	-40,283	-0,127	0,047
-354,796	444,715	0,026	-0,041
-353,781	-200,000	-0,020	0,107
-352,766	800,000	0,028	0,087
-351,752	95,694	0,016	0,013
-350,737	260,105	0,007	0,009
-349,723	800,000	0,027	0,083
-348,708	357,502	0,061	0,087
-347,693	-200,000	-0,048	-0,202
-346,679	-158,077	-0,046	0,002
-345,664	144,756	-0,036	-0,035
-344,650	248,745	0,139	0,168
-343,635	-200,000	-0,022	0,140
-342,620	800,000	0,036	0,088
-341,606	800,000	0,044	0,112
-340,591	-41,778	-0,062	-0,023
-339,577	-200,000	0,017	-0,089
-338,562	800,000	0,028	-0,070
-337,548	-41,256	0,182	0,067
-336,533	9,577	0,053	-0,028
-335,518	-200,000	-0,019	0,116
-334,504	126,027	0,098	0,089
-333,489	800,000	-0,035	0,103
-332,475	-200,000	-0,016	-0,126
-331,460	-27,932	0,119	-0,049
-330,445	-200,000	-0,004	-0,070
-329,431	-200,000	-0,011	-0,142
-328,416	-200,000	-0,014	0,053
-327,402	-200,000	-0,006	0,108
-326,387	46,508	0,128	0,085
-325,372	149,480	0,027	0,027
-324,358	-200,000	0,026	-0,109
-323,343	-24,431	-0,051	0,022
-322,329	385,765	-0,030	-0,045
-321,314	-51,922	-0,084	-0,028
-320,299	-81,345	-0,059	0,014
-319,285	800,000	-0,010	0,026
-318,270	193,450	-0,062	0,067
-317,256	-71,357	-0,030	0,008
-316,241	-69,974	-0,115	0,031
-315,226	259,615	0,048	0,059
-314,212	-200,000	0,014	-0,067
-313,197	-69,962	0,149	0,040
-312,183	-200,000	-0,002	0,011
-311,168	613,110	-0,021	-0,037
-310,153	-200,000	-0,020	0,065
-309,139	54,292	-0,110	-0,076
-308,124	800,000	0,033	0,090
-307,110	-134,497	0,045	0,004
-306,095	-200,000	-0,003	0,038
-305,080	-47,848	0,085	-0,029
-304,066	51,679	-0,067	-0,045
-303,051	800,000	-0,054	-0,121
-302,037	56,342	-0,043	-0,030
-301,022	-17,686	0,147	0,066
-300,008	-34,868	0,152	-0,059
-298,993	800,000	-0,044	0,097
-297,978	124,522	0,146	0,131
-296,964	602,856	-0,038	-0,067
-295,949	-200,000	0,015	-0,107
-294,935	272,218	-0,053	-0,067
-293,920	680,279	0,050	-0,093
-292,905	221,892	-0,038	0,044
-291,891	800,000	-0,047	0,098
-290,876	2,706	0,085	0,044
-289,862	37,019	-0,058	-0,037
-288,847	-200,000	-0,002	0,056
-287,832	-125,984	-0,066	-0,007
-286,818	13,557	0,161	-0,089
-285,803	108,688	-0,110	-0,094
-284,789	202,036	-0,049	0,054
-283,774	214,479	-0,024	-0,027
-282,759	189,513	-0,069	0,074
-281,745	-200,000	-0,024	-0,127
-280,730	-65,046	-0,088	-0,025
-279,716	24,913	0,102	-0,060
-278,701	-42,013	-0,069	-0,025
-277,686	40,215	0,045	0,029
-276,672	800,000	0,022	-0,057
-275,657	602,331	0,055	0,098
-274,643	72,334	-0,060	-0,045
-273,628	24,080	0,056	0,033
-272,613	-200,000	-0,008	0,036
-271,599	346,331	0,040	0,056
-270,584	-200,000	0,027	0,125
-269,570	-200,000	0,008	0,197
-268,555	122,146	-0,039	-0,035
-267,540	212,787	0,023	0,025
-266,526	-200,000	0,003	-0,014
-265,511	-200,000	-0,052	0,209
-264,497	371,943	0,106	0,154
-263,482	-157,710	-0,015	0,001
-262,467	568,985	0,080	-0,139
-261,453	800,000	-0,040	0,084
-260,438	185,218	-0,033	-0,035
-259,424	66,772	0,088	-0,064
-258,409	800,000	0,033	0,069
-257,395	566,913	0,026	0,045
-256,380	-200,000	-0,026	0,190
-255,365	-55,635	0,070	-0,022
-254,351	-200,000	0,026	0,236
-253,336	-7,805	0,099	0,047
-252,322	-120,638	-0,089	-0,011
-251,307	638,172	-0,053	-0,096
-250,292	-15,737	-0,047	-0,021
-249,278	-74,656	-0,091	-0,023
-248,263	31,832	-0,104	-0,064
-247,249	-151,185	0,108	0,006
-246,234	128,151	-0,144	0,130
-245,219	355,782	-0,065	0,092
-244,205	800,000	-0,027	-0,056
-243,190	-15,912	0,063	-0,028
-242,176	-200,000	-0,067	0,000
-241,161	278,160	0,045	-0,057
-240,146	52,865	0,207	0,141
-239,132	-46,796	-0,019	0,006
-238,117	800,000	-0,046	-0,102
-237,103	-200,000	0,003	-0,056
-236,088	-2,430	0,034	-0,017
-235,073	518,796	-0,128	0,215
-234,059	352,614	-0,064	-0,091
-233,044	24,715	-0,049	-0,029
-232,030	-200,000	0,020	-0,070
-231,015	178,757	-0,076	-0,079
-230,000	261,207	-0,076	-0,094
-228,986	-200,000	-0,003	-0,170
-227,971	16,228	0,066	-0,037
-226,957	31,741	0,053	-0,032
-225,942	-117,127	-0,197	-0,025
-224,927	800,000	-0,081	0,213
-223,913	360,341	-0,138	-0,197
-222,898	-200,000	0,014	-0,121
-221,884	692,388	-0,039	-0,073
-220,869	443,619	0,063	0,098
-219,855	127,867	0,084	0,076
-218,840	-200,000	0,031	0,105
-217,825	46,204	0,078	-0,052
-216,811	-104,300	-0,122	0,020
-215,796	-200,000	-0,006	-0,183
-214,782	150,838	-0,024	-0,023
-213,767	-54,448	-0,096	-0,031
-212,752	-144,042	0,128	-0,008
-211,738	-130,912	-0,051	-0,005
-210,723	59,558	0,028	0,020
-209,709	53,948	-0,037	-0,026
-208,694	204,204	0,062	-0,068
-207,679	63,583	0,059	-0,042
-206,665	5,111	0,114	-0,060
-205,650	-62,881	0,087	0,025
-204,636	-182,535	0,091	0,001
-203,621	800,000	-0,037	-0,082
-202,606	183,899	-0,023	0,024
-201,592	800,000	-0,050	-0,144
-200,577	672,118	0,078	0,144
-199,563	293,184	0,094	-0,123
-198,548	138,283	0,026	-0,024
-197,533	80,965	0,042	0,032
-196,519	33,865	0,012	0,007
-195,504	-200,000	0,005	-0,060
-194,490	-148,129	-0,067	0,004
-193,475	183,878	-0,037	-0,039
-192,460	800,000	-0,055	-0,113
-191,446	-121,564	-0,004	0,001
-190,431	-73,417	0,093	0,024
-189,417	-80,054	-0,054	0,013
-188,402	112,741	-0,057	0,049
-187,387	-84,589	-0,182	-0,041
-186,373	-3,476	0,020	-0,010
-185,358	46,823	-0,019	-0,012
-184,344	-12,013	0,062	0,029
-183,329	481,005	0,063	-0,102
-182,315	-200,000	0,016	0,093
-181,300	41,681	0,021	0,014
-180,285	139,208	0,074	-0,069
-179,271	622,587	-0,030	-0,055
-178,256	-75,615	0,028	0,007
-177,242	589,600	0,098	0,173
-176,227	61,909	0,087	0,061
-175,212	-130,801	-0,052	-0,005
-174,198	472,832	-0,056	0,090
-173,183	-117,009	-0,124	0,016
-172,169	-200,000	0,080	-0,260
-171,154	-65,231	-0,081	-0,023
-170,139	247,063	0,061	-0,073
-169,125	-200,000	0,007	-0,046
-168,110	70,983	-0,117	-0,086
-167,096	-161,803	0,176	0,006
-166,081	-136,572	-0,187	0,015
-165,066	138,434	0,099	0,092
-164,052	201,145	0,119	0,131
-163,037	159,577	0,072	-0,072
-162,023	23,909	0,162	0,095
-161,008	44,192	-0,128	-0,083
-159,993	78,035	-0,045	-0,034
-158,979	800,000	-0,030	-0,073
-157,964	256,574	-0,069	0,084
-156,950	-17,218	0,066	-0,029
-155,935	800,000	0,057	0,177
-154,920	-45,776	-0,097	0,034
-153,906	66,710	0,045	-0,032
-152,891	427,558	0,036	0,055
-151,877	800,000	0,044	0,109
-150,862	-100,042	-0,195	0,034
-149,847	800,000	-0,029	0,081
-148,833	-104,221	0,113	0,018
-147,818	-65,474	-0,038	-0,011
-146,804	-14,073	0,090	-0,041
-145,789	14,025	0,091	0,050
-144,775	307,700	0,026	0,035
-143,760	-53,638	-0,032	-0,010
-142,745	-200,000	0,000	-0,094
-141,731	-89,926	-0,108	0,022
-140,716	-200,000	-0,018	-0,100
-139,702	-167,430	0,206	-0,006
-138,687	800,000	-0,025	0,068
-137,672	-200,000	-0,028	-0,106
-136,658	-84,177	0,103	-0,023
-135,643	529,775	0,055	-0,092
-134,629	135,325	0,069	-0,063
-133,614	-200,000	-0,003	-0,072
-132,599	-200,000	0,010	-0,050
-131,585	800,000	-0,016	-0,040
-130,570	-22,571	-0,143	0,061
-129,556	-200,000	0,018	-0,106
-128,541	191,172	-0,061	-0,066
-127,526	474,137	-0,079	0,126
-126,512	246,540	-0,084	0,101
-125,497	-200,000	-0,048	0,205
-124,483	502,787	-0,072	0,119
-123,468	800,000	-0,029	0,061
-122,453	-179,039	-0,036	-0,001
-121,439	-93,036	-0,021	-0,004
-120,424	800,000	-0,028	-0,062
-119,410	-200,000	-0,020	0,123
-118,395	-200,000	-0,018	0,083
-117,380	260,554	0,115	0,141
-116,366	175,738	0,080	-0,082
-115,351	-40,207	-0,106	0,039
-114,337	-54,809	-0,058	-0,018
-113,322	383,090	0,038	-0,056
-112,307	429,491	0,062	-0,096
-111,293	800,000	0,077	0,162
-110,278	287,749	-0,079	-0,102
-109,264	483,721	-0,067	0,109
-108,249	563,857	-0,042	0,073
-107,234	-71,257	0,065	-0,017
-106,220	800,000	-0,114	-0,227
-105,205	151,095	0,068	-0,066
-104,191	-146,537	-0,034	-0,002
-103,176	-139,471	0,089	0,007
-102,162	-200,000	-0,019	0,173
-101,147	-200,000	0,004	-0,142
-100,132	223,235	0,038	-0,044
-99,118	-9,213	-0,166	0,078
-98,103	243,323	0,020	0,024
-97,089	92,802	0,059	0,047
-96,074	193,149	0,075	0,081
-95,059	-149,009	0,042	0,002
-94,045	123,325	-0,026	0,023
-93,030	-73,529	-0,142	0,036
-92,016	-200,000	0,008	-0,192
-91,001	-200,000	-0,023	0,097
-89,986	-200,000	0,015	0,090
-88,972	-55,089	0,063	-0,020
-87,957	-200,000	0,010	-0,068
-86,943	-200,000	0,003	-0,113
-85,928	441,759	-0,064	-0,099
-84,913	85,932	-0,088	-0,069
-83,899	336,367	-0,022	0,031
-82,884	-200,000	0,003	0,026
-81,870	46,446	0,061	0,040
-80,855	-50,628	-0,144	-0,048
-79,840	-123,018	0,115	-0,013
-78,826	450,467	-0,027	-0,043
-77,811	-60,263	0,049	0,015
-76,797	37,777	-0,091	-0,057
-75,782	322,297	0,105	-0,143
-74,767	800,000	0,028	0,077
-73,753	-200,000	0,031	0,113
-72,738	-50,072	-0,140	-0,047
-71,724	-200,000	-0,002	-0,076
-70,709	-200,000	-0,013	-0,059
-69,694	278,882	-0,085	-0,108
-68,680	126,686	-0,071	0,064
-67,665	17,727	-0,080	0,045
-66,651	219,910	0,031	-0,035
-65,636	-200,000	-0,012	-0,048
-64,622	800,000	-0,040	-0,095
-63,607	513,088	-0,041	-0,068
-62,592	800,000	-0,036	-0,096
-61,578	800,000	0,029	-0,063
-60,563	78,902	0,111	0,084
-59,549	93,905	-0,070	-0,056
-58,534	-10,533	-1,456	-0,680
-57,519	363,778	-1,474	-2,105
-56,505	-200,000	-0,503	-4,617
-55,490	220,453	0,907	1,031
-54,476	800,000	4,815	11,310
-53,461	-200,000	18,548	297,035
-52,446	800,000	731,172	2256,996
-51,432	558,903	1647,923	2826,929
-50,417	78,946	1668,331	1263,192
-49,403	22,427	1541,577	890,013
-48,388	16,387	1464,531	816,229
-47,373	17,778	1454,368	817,242
-46,359	17,036	1444,604	808,169
-45,344	14,651	1440,037	794,179
-44,330	14,576	1438,103	792,725
-43,315	14,565	1436,317	791,655
-42,300	14,619	1434,712	790,998
-41,286	14,618	1433,516	790,302
-40,271	14,573	1432,071	789,258
-39,257	14,541	1431,054	788,513
-38,242	14,620	1429,741	788,133
-37,227	14,638	1428,518	787,518
-36,213	14,631	1427,148	786,696
-35,198	14,607	1426,020	785,929
-34,184	14,604	1425,163	785,413
-33,169	14,579	1423,941	784,590
-32,154	14,613	1422,894	784,143
-31,140	14,617	1421,465	783,339
-30,125	14,637	1420,348	782,787
-29,111	14,596	1419,312	781,995
-28,096	14,589	1418,085	781,253
-27,082	14,564	1417,144	780,588
-26,067	14,528	1416,110	779,815
-25,052	14,519	1415,171	779,226
-24,038	14,520	1413,996	778,554
-23,023	14,483	1413,015	777,808
-22,009	14,490	1412,032	777,268
-20,994	14,499	1411,147	776,793
-19,979	14,460	1410,161	776,038
-18,965	14,464	1409,103	775,442
-17,950	14,469	1408,186	774,932
-16,936	14,435	1407,412	774,315
-15,921	14,422	1406,218	773,565
-14,906	14,450	1405,222	773,119
-13,892	14,483	1404,185	772,672
-12,877	14,425	1403,578	772,035
-11,863	14,415	1402,542	771,389
-10,848	14,428	1401,628	770,915
-9,833	14,429	1400,832	770,451
-8,819	14,382	1400,040	769,768
-7,804	14,320	1398,982	768,870
-6,790	14,360	1398,028	768,500
-5,775	14,335	1396,880	767,723
-4,760	14,345	1395,970	767,238
-3,746	14,327	1395,273	766,743
-2,731	14,326	1394,382	766,214
-1,717	14,302	1393,568	765,627
-0,702	14,335	1391,738	764,745
0,313	18,176	1310,174	737,711
1,327	34,613	706,201	435,703
2,342	52,974	124,510	84,157
3,356	3,275	16,611	8,525
4,371	7,217	3,270	1,721
5,386	2,036	0,509	0,259
6,400	661,404	0,096	0,176
7,415	734,067	-0,111	-0,210
8,429	-55,779	-0,292	-0,092
9,444	132,211	-0,233	-0,212
10,459	56,893	-0,325	-0,224
11,473	-149,972	-0,255	0,014
12,488	-11,191	-0,336	-0,156
13,502	144,826	-0,180	-0,170
14,517	-90,242	-0,345	-0,070
15,531	102,428	-0,317	-0,262
16,546	191,586	-0,268	-0,285
17,561	146,346	-0,375	-0,356
18,575	-56,246	-0,199	-0,062
19,590	37,674	-0,315	-0,197
20,604	-141,495	-0,303	0,021
21,619	216,358	-0,359	-0,403
22,634	117,928	-0,315	-0,274
23,648	211,731	-0,288	-0,320
24,663	22,940	-0,484	-0,279
25,677	50,281	-0,219	-0,146
26,692	148,017	-0,267	-0,255
27,707	147,602	-0,257	-0,245
28,721	148,999	-0,306	-0,292
29,736	6,684	-0,424	-0,222
30,750	67,121	-0,389	-0,280
31,765	53,416	-0,351	-0,237
32,780	136,183	-0,336	-0,309
33,794	99,552	-0,392	-0,320
34,809	-19,795	-0,364	-0,158
35,823	52,580	-0,380	-0,256
36,838	-19,936	-0,427	-0,185
37,853	43,081	-0,496	-0,318
38,867	150,616	-0,317	-0,304
39,882	18,021	-0,426	-0,239
40,896	53,559	-0,290	-0,196
41,911	74,055	-0,298	-0,220
42,926	72,197	-0,335	-0,245
43,940	40,990	-0,356	-0,226
44,955	113,715	-0,319	-0,273
45,969	47,877	-0,421	-0,276
46,984	-12,915	-0,327	-0,149
47,999	32,772	-0,407	-0,248
49,013	30,258	-0,226	-0,136
50,028	-12,492	-0,333	-0,152
51,042	294,901	-0,309	-0,399
52,057	345,550	-0,251	-0,348
53,071	41,431	-0,392	-0,249
54,086	56,037	-0,421	-0,287
55,101	35,442	-0,421	-0,260
56,115	177,270	-0,293	-0,300
57,130	-43,175	-0,515	-0,183
58,144	29,277	-0,362	-0,216
59,159	61,490	-0,387	-0,271
60,174	91,343	-0,390	-0,308
61,188	-75,061	-0,436	-0,109
62,203	63,992	-0,399	-0,282
63,217	30,631	-0,262	-0,158
64,232	172,961	-0,272	-0,276
65,247	101,626	-0,420	-0,344
66,261	258,189	-0,174	-0,211
67,276	39,874	-0,379	-0,239
68,290	155,750	-0,342	-0,332
69,305	-2,474	-0,265	-0,130
70,320	-48,779	-0,340	-0,114
71,334	110,873	-0,177	-0,150
72,349	6,406	-0,310	-0,161
73,363	-116,540	-0,323	-0,041
74,378	78,325	-0,332	-0,249
75,393	267,939	-0,194	-0,240
76,407	77,829	-0,233	-0,174
77,422	-141,300	-0,234	-0,016
78,436	-186,374	-0,207	0,002
79,451	-110,789	-0,307	-0,044
80,466	-40,259	-0,423	-0,154
81,480	89,878	-0,347	-0,272
82,495	-61,855	-0,331	-0,097
83,509	81,064	-0,230	-0,175
84,524	48,537	-0,207	-0,136
85,539	37,512	-0,266	-0,166
86,553	-73,937	-0,268	-0,068
87,568	-46,576	-0,464	-0,159
88,582	344,143	-0,217	-0,300
89,597	38,230	-0,262	-0,164
90,611	116,263	-0,249	-0,214
91,626	-4,431	-0,317	-0,153
92,641	54,710	-0,267	-0,180
93,655	102,305	-0,189	-0,155
94,670	-82,978	-0,276	-0,062
95,684	21,212	-0,299	-0,170
96,699	59,743	-0,312	-0,216
97,714	49,015	-0,282	-0,186
98,728	800,000	-0,120	-0,285
99,743	226,981	-0,162	-0,185
100,757	-3,367	-0,242	-0,118
101,772	31,612	-0,345	-0,207
102,787	309,438	-0,238	-0,313
103,801	41,388	-0,354	-0,224
104,816	88,847	-0,186	-0,145
105,830	-6,356	-0,199	-0,095
106,845	-135,252	-0,229	0,019
107,860	91,806	-0,199	-0,157
108,874	750,947	-0,133	-0,254
109,889	90,728	-0,312	-0,245
110,903	200,757	-0,185	-0,200
111,918	83,243	-0,243	-0,185
112,933	-135,553	-0,171	0,014
113,947	79,067	-0,281	-0,210
114,962	281,236	-0,141	-0,178
115,976	-57,551	-0,277	-0,084
116,991	111,525	-0,274	-0,231
118,006	93,637	-0,253	-0,201
119,020	-52,373	-0,166	-0,054
120,035	131,408	-0,214	-0,193
121,049	15,608	-0,237	-0,130
122,064	-35,864	-0,147	-0,055
123,079	65,737	-0,224	-0,159
124,093	57,424	-0,369	-0,252
125,108	800,000	-0,095	-0,259
126,122	384,773	-0,168	-0,243
127,137	144,808	-0,242	-0,226
128,151	159,736	-0,176	-0,171
129,166	-74,976	-0,203	-0,051
130,181	277,621	-0,205	-0,256
131,195	254,650	-0,232	-0,278
132,210	-31,799	-0,398	-0,155
133,224	-114,996	-0,302	0,040
134,239	105,259	-0,206	-0,170
135,254	-162,575	-0,237	-0,008
136,268	64,667	-0,204	-0,144
137,283	86,366	-0,290	-0,223
138,297	68,110	-0,286	-0,205
139,312	123,534	-0,215	-0,189
140,327	111,628	-0,232	-0,195
141,341	305,870	-0,239	-0,311
142,356	7,268	-0,217	-0,113
143,370	158,154	-0,272	-0,264
144,385	40,477	-0,332	-0,208
145,400	75,496	-0,208	-0,153
146,414	28,612	-0,384	-0,226
147,429	98,831	-0,259	-0,208
148,443	25,792	-0,306	-0,177
149,458	800,000	-0,101	-0,237
150,473	-36,875	-0,229	-0,085
151,487	-56,095	-0,219	-0,068
152,502	-67,401	-0,184	-0,050
153,516	117,349	-0,298	-0,255
154,531	301,747	-0,276	-0,358
155,546	127,139	-0,257	-0,228
156,560	48,664	-0,234	-0,153
157,575	-200,000	-0,205	-0,000
158,589	-184,770	-0,251	-0,003
159,604	67,280	-0,212	-0,151
160,619	118,439	-0,223	-0,192
161,633	639,840	-0,121	-0,216
162,648	117,403	-0,196	-0,168
163,662	13,852	-0,241	-0,131
164,677	352,267	-0,139	-0,193
165,692	156,103	-0,243	-0,234
166,706	68,330	-0,319	-0,228
167,721	-29,115	-0,221	-0,088
168,735	-35,707	-0,317	-0,119
169,750	28,144	-0,179	-0,105
170,764	116,220	-0,249	-0,213
171,779	800,000	-0,092	-0,182
172,794	6,211	-0,318	-0,164
173,808	105,695	-0,150	-0,123
174,823	44,538	-0,212	-0,136
175,837	264,790	-0,188	-0,229
176,852	-61,195	-0,328	-0,096
177,867	282,573	-0,222	-0,278
178,881	-2,986	-0,256	-0,124
179,896	-10,283	-0,208	-0,096
180,910	76,574	-0,294	-0,217
181,925	617,810	-0,153	-0,269
182,940	200,052	-0,223	-0,239
183,954	221,101	-0,240	-0,269
184,969	-200,000	-0,070	-0,264
185,983	497,378	-0,124	-0,200
186,998	152,672	-0,182	-0,174
188,013	-92,462	-0,292	-0,057
189,027	193,830	-0,192	-0,202
190,042	109,758	-0,266	-0,222
191,056	384,340	-0,174	-0,251
192,071	407,928	-0,166	-0,245
193,086	164,529	-0,190	-0,187
194,100	-163,072	-0,273	-0,009
195,115	50,048	-0,144	-0,094
196,129	240,772	-0,191	-0,223
197,144	-69,638	-0,410	-0,108
198,159	423,968	-0,187	-0,280
199,173	800,000	-0,082	-0,223
200,188	-84,113	-0,188	0,041
201,202	575,447	-0,177	-0,302
202,217	91,390	-0,176	-0,137
203,232	-40,321	-0,147	-0,053
204,246	-200,000	-0,199	0,000
205,261	-2,057	-0,280	-0,136
206,275	18,003	-0,217	-0,120
207,290	83,303	-0,180	-0,136
208,304	77,598	-0,169	-0,125
209,319	-50,480	-0,166	0,054
210,334	-19,723	-0,238	-0,102
211,348	90,651	-0,289	-0,225
212,363	289,071	-0,177	-0,224
213,377	-200,000	-0,027	-0,180
214,392	-114,483	-0,152	0,020
215,407	101,430	-0,250	-0,202
216,421	366,549	-0,126	-0,176
217,436	369,309	-0,227	-0,319
218,450	345,617	-0,162	-0,222
219,465	188,060	-0,227	-0,236
220,480	-35,864	-0,209	-0,078
221,494	186,625	-0,126	-0,131
222,509	-108,985	-0,186	0,027
223,523	15,463	-0,294	-0,160
224,538	-2,867	-0,251	-0,121
225,553	635,501	-0,101	-0,179
226,567	393,950	-0,142	-0,205
227,582	255,917	-0,114	-0,135
228,596	800,000	-0,051	-0,103
229,611	-74,843	-0,071	0,017
230,626	138,593	-0,208	-0,189
231,640	287,276	-0,136	-0,170
232,655	123,911	-0,253	-0,220
233,669	38,773	-0,221	-0,137
234,684	30,631	-0,161	-0,095
235,699	34,126	-0,095	-0,057
236,713	-76,936	-0,127	-0,031
237,728	-109,145	-0,180	0,026
238,742	-185,953	-0,193	0,002
239,757	-8,221	-0,330	-0,154
240,772	272,755	-0,199	-0,244
241,786	497,604	-0,167	-0,267
242,801	94,344	-0,105	-0,082
243,815	-200,000	-0,044	-0,154
244,830	26,409	-0,161	-0,093
245,844	-51,865	-0,213	-0,068
246,859	-120,170	-0,202	-0,024
247,874	97,458	-0,220	-0,175
248,888	654,555	-0,116	-0,207
249,903	566,699	-0,136	-0,229
250,917	175,765	-0,055	-0,055
251,932	-32,431	-0,130	0,050
252,947	429,527	-0,062	-0,093
253,961	94,427	-0,271	-0,213
254,976	-200,000	-0,018	-0,185
255,990	-8,879	-0,206	-0,095
257,005	110,009	-0,169	-0,140
258,020	90,285	-0,037	-0,029
259,034	-54,813	-0,147	0,046
260,049	-40,944	-0,227	-0,081
261,063	5,252	-0,100	-0,051
262,078	800,000	-0,079	-0,211
263,093	800,000	-0,092	-0,198
264,107	-15,246	-0,248	-0,109
265,122	206,859	-0,137	-0,148
266,136	33,822	-0,220	-0,132
267,151	67,850	-0,222	-0,156
268,166	-128,235	-0,182	0,018
269,180	409,912	-0,153	-0,225
270,195	161,805	-0,248	-0,240
271,209	279,795	-0,117	-0,145
272,224	311,397	-0,100	-0,130
273,239	781,489	-0,081	-0,153
274,253	327,965	-0,157	-0,209
275,268	66,046	-0,179	-0,125
276,282	-41,361	-0,264	-0,094
277,297	177,942	-0,165	-0,166
278,312	-200,000	0,003	-0,091
279,326	-23,643	-0,219	-0,090
280,341	-123,827	-0,180	0,019
281,355	-191,332	-0,161	-0,001
282,370	-31,178	-0,183	-0,071
283,384	45,853	-0,161	-0,102
284,399	315,343	-0,093	-0,121
285,414	121,162	-0,186	-0,160
286,428	60,105	-0,219	-0,149
287,443	192,939	-0,069	-0,072
288,457	-90,512	-0,185	0,037
289,472	-36,641	-0,165	-0,061
290,487	540,294	-0,078	-0,128
291,501	-161,417	-0,080	0,003
292,516	92,567	-0,135	-0,105
293,530	470,828	-0,071	0,110
294,545	154,501	-0,130	-0,123
295,560	-200,000	0,002	-0,083
296,574	-3,185	-0,234	-0,112
297,589	13,709	-0,244	-0,131
298,603	158,173	-0,183	-0,175
299,618	654,882	-0,109	-0,194
300,633	800,000	-0,119	-0,239
301,647	251,853	-0,134	-0,157
302,662	800,000	-0,070	-0,177
303,676	-114,702	-0,130	0,017
304,691	275,076	-0,092	-0,112
305,706	147,179	-0,193	-0,179
306,720	757,243	-0,095	-0,178
307,735	-43,208	-0,079	-0,028
308,749	-138,254	-0,160	-0,012
309,764	-13,246	-0,147	-0,066
310,779	-200,000	-0,070	-0,255
311,793	800,000	-0,070	-0,192
312,808	-95,242	-0,179	-0,033
313,822	-200,000	-0,036	-0,219
314,837	377,237	-0,086	-0,121
315,852	-200,000	-0,022	-0,076
316,866	-6,907	-0,024	0,011
317,881	-87,475	-0,044	0,009
318,895	371,950	-0,091	-0,128
319,910	102,075	-0,089	-0,071
320,925	202,211	-0,179	-0,190
321,939	50,089	-0,173	-0,112
322,954	108,034	-0,129	-0,105
323,968	-80,777	-0,083	0,019
324,983	114,432	-0,096	-0,081
325,997	-66,443	-0,132	-0,036
327,012	193,028	-0,189	-0,197
328,027	125,111	-0,113	-0,098
329,041	369,768	-0,165	-0,231
330,056	703,440	-0,092	-0,168
331,070	-132,872	-0,215	-0,019
332,085	209,735	-0,068	-0,073
333,100	-47,303	-0,157	-0,052
334,114	16,652	-0,214	-0,116
335,129	-64,147	-0,225	-0,063
336,143	113,130	-0,125	-0,104
337,158	42,012	-0,186	-0,116
338,173	236,061	-0,138	-0,157
339,187	78,757	-0,182	0,134
340,202	-200,000	-0,011	-0,198
341,216	121,089	-0,120	-0,103
342,231	7,811	-0,130	-0,067
343,246	173,918	-0,114	-0,113
344,260	-200,000	0,005	0,018
345,275	77,260	-0,165	-0,120
346,289	6,712	-0,204	-0,104
347,304	-90,621	-0,171	0,034
348,319	121,182	-0,213	-0,182
349,333	89,830	-0,194	-0,149
350,348	800,000	-0,070	-0,179
351,362	84,334	-0,106	-0,080
352,377	-15,517	-0,113	-0,049
353,392	-13,186	-0,135	-0,060
354,406	78,515	-0,100	-0,073
355,421	208,029	1317,828	1414,063
356,435	160,045	1478,950	1414,551
