DTS Sentinel unit serial number:	SN410029Multiplexer serial number:	ORYXHardware model number:	OX2-SRSoftware version number:	ORYX F/W v4,00 Oryx Data Collector v3.7.2.0data status	okinstallation	B3 Nyhavnadifferential loss correction	single-endedforward channel	channel 1reverse channel	N/Adate	2023/12/03time	17:57:30forward acquisition time	300,00reverse acquisition time	0,00gamma	499,1914k internal	0,3198k external	0,3198temperature offset calibration	1,0000default loss term (dB/km)	0,3820temperature slope calibration	1,0000multiplexer offset coefficient	1,0000multiplexer slope coefficient	1,0000fibre end	0,00T internal ref (°C)	14,75T ext. ref 1 (°C)	-0,62T ext. ref 2 (°C)	-0,63length (m)	temperature (°C)	Stokes	anti-Stokes-744,400	179,685	-0,205	-0,219
-743,385	-200,000	0,011	0,136
-742,371	221,629	-0,215	-0,252
-741,356	-200,000	0,075	0,307
-740,342	52,317	-0,182	-0,126
-739,327	-200,000	-0,024	0,352
-738,312	66,102	-0,125	-0,092
-737,298	-200,000	0,049	0,287
-736,283	648,270	-0,071	-0,132
-735,269	-200,000	0,063	0,379
-734,254	117,761	-0,280	-0,251
-733,239	-9,710	-0,169	0,082
-732,225	427,057	-0,168	-0,264
-731,210	-103,809	0,185	0,031
-730,196	195,435	0,087	0,096
-729,181	133,759	-0,073	-0,069
-728,167	-200,000	-0,029	-0,104
-727,152	267,963	0,026	-0,033
-726,137	-79,850	-0,085	0,021
-725,123	800,000	0,026	0,062
-724,108	-7,868	-0,063	0,031
-723,094	168,220	-0,074	-0,076
-722,079	-46,835	-0,150	-0,053
-721,064	-126,106	-0,141	0,015
-720,050	19,363	-0,096	0,056
-719,035	100,399	-0,021	0,018
-718,021	-78,739	-0,057	0,014
-717,006	-200,000	0,008	-0,028
-715,991	-128,411	-0,135	0,014
-714,977	-84,404	-0,104	-0,024
-713,962	19,263	-0,046	-0,027
-712,948	-22,660	0,016	-0,007
-711,933	377,602	0,037	-0,056
-710,918	53,854	0,077	-0,054
-709,904	37,876	0,100	0,064
-708,889	-53,934	-0,044	-0,014
-707,875	-200,000	-0,021	-0,145
-706,860	-130,043	0,042	0,004
-705,845	800,000	0,002	-0,004
-704,831	413,131	0,095	0,147
-703,816	-200,000	-0,002	0,168
-702,802	-125,295	0,116	-0,013
-701,787	294,547	-0,053	-0,070
-700,772	-200,000	0,018	-0,167
-699,758	-182,804	-0,024	0,000
-698,743	-176,124	-0,127	0,002
-697,729	-121,404	-0,080	-0,010
-696,714	-121,248	-0,072	0,009
-695,699	-137,417	-0,088	0,007
-694,685	560,679	-0,058	-0,102
-693,670	213,849	0,089	-0,103
-692,656	55,657	-0,035	-0,024
-691,641	-62,536	0,028	-0,008
-690,627	800,000	0,031	0,067
-689,612	-76,379	-0,081	0,021
-688,597	10,349	0,140	-0,077
-687,583	-49,064	-0,077	0,027
-686,568	480,851	0,013	-0,021
-685,554	-200,000	-0,001	-0,052
-684,539	152,706	0,041	-0,041
-683,524	-179,821	0,093	-0,001
-682,510	-125,731	-0,123	0,013
-681,495	15,522	0,095	0,054
-680,481	-80,471	-0,072	-0,017
-679,466	-160,550	0,037	-0,001
-678,451	-200,000	-0,023	-0,079
-677,437	169,754	-0,072	-0,075
-676,422	643,338	0,044	-0,082
-675,408	-44,637	-0,033	0,012
-674,393	-93,735	-0,052	-0,010
-673,378	249,110	-0,059	-0,073
-672,364	298,761	-0,066	-0,088
-671,349	372,848	-0,088	-0,130
-670,335	216,393	-0,076	-0,088
-669,320	188,925	-0,076	0,082
-668,305	-55,563	0,102	0,033
-667,291	-200,000	0,002	0,071
-666,276	-111,900	-0,053	0,008
-665,262	223,579	0,060	-0,070
-664,247	-200,000	-0,016	-0,162
-663,232	-200,000	-0,019	0,088
-662,218	-74,168	-0,099	-0,026
-661,203	-61,619	-0,063	0,019
-660,189	34,067	-0,021	-0,014
-659,174	384,013	-0,018	0,027
-658,159	-138,123	-0,065	-0,005
-657,145	800,000	-0,015	-0,040
-656,130	708,706	0,062	-0,120
-655,116	87,032	-0,088	-0,071
-654,101	-119,555	-0,092	-0,011
-653,086	800,000	-0,046	-0,138
-652,072	-200,000	-0,010	-0,082
-651,057	-200,000	0,005	-0,045
-650,043	-16,014	-0,127	-0,058
-649,028	65,402	0,154	-0,113
-648,014	49,666	0,125	0,085
-646,999	93,989	-0,168	-0,138
-645,984	-1,558	0,046	0,024
-644,970	-142,016	0,052	-0,004
-643,955	22,202	-0,088	0,052
-642,941	800,000	-0,025	0,066
-641,926	-200,000	-0,012	-0,087
-640,911	-13,052	-0,055	-0,026
-639,897	196,121	0,084	0,092
-638,882	-134,989	-0,019	0,002
-637,868	68,808	0,006	0,005
-636,853	85,036	-0,050	0,039
-635,838	-200,000	0,002	-0,063
-634,824	800,000	0,057	-0,160
-633,809	191,540	-0,022	-0,024
-632,795	-200,000	-0,016	0,083
-631,780	800,000	0,023	-0,063
-630,765	-200,000	0,015	-0,096
-629,751	79,213	-0,082	0,064
-628,736	5,951	0,132	0,070
-627,722	205,562	-0,035	0,040
-626,707	164,950	0,115	0,118
-625,692	-200,000	0,014	0,053
-624,678	-152,426	-0,068	-0,003
-623,663	-169,053	-0,126	0,003
-622,649	374,672	-0,019	-0,028
-621,634	37,843	0,127	-0,081
-620,619	637,357	-0,044	-0,081
-619,605	-91,409	0,050	0,010
-618,590	170,130	-0,109	0,113
-617,576	35,280	-0,089	0,056
-616,561	-200,000	0,011	0,093
-615,546	-200,000	-0,001	-0,047
-614,532	-4,014	-0,049	0,024
-613,517	20,648	0,033	0,019
-612,503	9,366	0,021	-0,011
-611,488	-200,000	-0,009	0,042
-610,474	-200,000	0,023	0,132
-609,459	800,000	0,010	0,021
-608,444	800,000	0,023	-0,064
-607,430	800,000	-0,016	0,044
-606,415	-142,633	-0,184	-0,013
-605,401	-200,000	-0,002	-0,039
-604,386	-200,000	0,017	-0,057
-603,371	418,616	0,103	-0,160
-602,357	-200,000	-0,026	-0,110
-601,342	367,458	0,020	0,029
-600,328	-200,000	0,035	-0,115
-599,313	-130,660	-0,048	0,005
-598,298	449,021	-0,028	0,045
-597,284	-200,000	-0,019	-0,123
-596,269	275,218	0,083	-0,106
-595,255	166,327	0,072	-0,074
-594,240	560,141	-0,061	0,107
-593,225	372,106	-0,062	0,092
-592,211	800,000	-0,046	-0,139
-591,196	-65,683	0,020	-0,006
-590,182	-11,998	0,015	0,007
-589,167	261,735	0,047	0,059
-588,152	800,000	-0,029	-0,067
-587,138	-53,990	-0,080	-0,026
-586,123	800,000	-0,056	-0,123
-585,109	-200,000	0,031	-0,215
-584,094	-85,956	0,121	-0,027
-583,079	333,588	-0,035	-0,050
-582,065	-200,000	-0,000	0,056
-581,050	-200,000	-0,009	0,146
-580,036	76,173	0,088	-0,067
-579,021	-98,669	0,008	0,001
-578,006	-133,345	0,132	-0,012
-576,992	800,000	0,027	0,082
-575,977	-69,453	0,081	-0,022
-574,963	-13,263	0,005	0,002
-573,948	-200,000	0,006	-0,036
-572,934	-108,029	0,129	-0,020
-571,919	34,086	0,015	0,009
-570,904	800,000	0,047	-0,104
-569,890	-14,150	-0,149	-0,069
-568,875	-72,732	0,061	-0,016
-567,861	104,047	-0,074	-0,063
-566,846	-51,226	-0,148	0,050
-565,831	-46,533	-0,140	-0,049
-564,817	224,930	-0,096	-0,113
-563,802	-200,000	-0,006	-0,080
-562,788	-119,809	-0,160	0,020
-561,773	204,394	-0,038	0,042
-560,758	232,533	0,069	0,082
-559,744	-200,000	0,012	-0,081
-558,729	34,323	0,025	0,016
-557,715	-23,631	-0,159	-0,069
-556,700	-200,000	-0,018	-0,090
-555,685	-172,962	-0,035	-0,001
-554,671	-45,369	-0,050	-0,018
-553,656	88,684	0,129	0,103
-552,642	11,188	-0,074	-0,041
-551,627	147,594	0,090	0,087
-550,612	-200,000	-0,035	0,151
-549,598	110,271	-0,043	-0,038
-548,583	200,050	-0,023	-0,026
-547,569	49,339	0,119	0,081
-546,554	110,064	0,061	-0,052
-545,539	-200,000	-0,013	0,073
-544,525	57,915	0,086	-0,061
-543,510	-200,000	-0,022	-0,135
-542,496	82,833	-0,179	-0,141
-541,481	-76,814	-0,099	-0,025
-540,466	-200,000	-0,004	0,024
-539,452	800,000	-0,088	-0,192
-538,437	652,348	-0,024	0,045
-537,423	-58,348	-0,045	0,014
-536,408	505,865	-0,105	-0,177
-535,393	800,000	0,087	-0,214
-534,379	-118,330	-0,032	-0,004
-533,364	46,408	0,031	0,020
-532,350	-69,470	-0,030	0,008
-531,335	800,000	0,068	0,139
-530,321	-5,069	0,087	0,043
-529,306	50,463	0,034	-0,023
-528,291	3,445	0,036	0,019
-527,277	302,775	0,067	0,089
-526,262	-200,000	-0,017	-0,071
-525,248	-200,000	0,018	0,144
-524,233	312,682	0,041	-0,056
-523,218	-8,223	0,074	0,036
-522,204	408,826	-0,025	0,038
-521,189	185,383	0,025	-0,026
-520,175	800,000	-0,040	0,091
-519,160	-200,000	-0,027	0,141
-518,145	-30,858	0,040	-0,016
-517,131	-66,472	-0,027	-0,008
-516,116	-200,000	-0,067	0,214
-515,102	-200,000	-0,012	0,100
-514,087	-200,000	0,010	-0,117
-513,072	-200,000	-0,023	-0,095
-512,058	461,246	0,026	-0,041
-511,043	-81,815	-0,048	-0,011
-510,029	116,959	-0,096	0,085
-509,014	30,919	0,152	0,094
-507,999	800,000	-0,030	0,063
-506,985	608,604	0,020	-0,037
-505,970	68,054	0,076	-0,056
-504,956	-200,000	-0,027	0,087
-503,941	778,340	-0,103	0,204
-502,926	-117,556	0,075	0,010
-501,912	-200,000	0,003	-0,101
-500,897	29,821	-0,019	0,012
-499,883	-200,000	-0,010	0,078
-498,868	96,652	-0,037	-0,030
-497,853	83,949	-0,072	-0,057
-496,839	206,057	-0,120	0,134
-495,824	181,292	0,018	0,019
-494,810	-200,000	-0,012	-0,057
-493,795	-13,837	0,113	-0,052
-492,781	-200,000	0,007	-0,069
-491,766	-160,508	-0,097	-0,004
-490,751	-200,000	-0,031	-0,216
-489,737	207,706	0,059	-0,067
-488,722	-170,653	0,079	0,002
-487,708	-200,000	0,012	-0,129
-486,693	-182,581	0,119	-0,002
-485,678	175,111	0,025	0,026
-484,664	-200,000	-0,017	-0,066
-483,649	-200,000	0,003	-0,018
-482,635	31,065	-0,140	-0,086
-481,620	-75,982	-0,059	0,015
-480,605	800,000	0,018	-0,036
-479,591	-42,865	-0,080	0,029
-478,576	800,000	0,039	0,112
-477,562	9,210	-0,198	-0,107
-476,547	800,000	0,007	0,016
-475,532	-129,825	0,058	0,006
-474,518	-43,576	0,077	0,028
-473,503	-126,556	0,185	0,020
-472,489	-82,017	-0,023	0,005
-471,474	64,553	-0,074	0,054
-470,459	-61,091	-0,069	-0,021
-469,445	-74,900	-0,027	0,007
-468,430	561,446	0,024	0,042
-467,416	181,718	0,062	0,066
-466,401	79,893	-0,074	-0,057
-465,386	-41,065	0,045	0,017
-464,372	88,441	-0,096	-0,077
-463,357	800,000	-0,044	0,094
-462,343	800,000	-0,022	-0,046
-461,328	800,000	-0,026	-0,061
-460,313	-200,000	-0,001	0,085
-459,299	-32,179	0,109	0,044
-458,284	-33,138	0,101	-0,040
-457,270	119,119	-0,097	-0,086
-456,255	800,000	-0,023	-0,063
-455,241	-200,000	0,034	-0,153
-454,226	180,033	0,080	-0,084
-453,211	7,191	0,034	-0,018
-452,197	-200,000	0,020	-0,106
-451,182	244,502	0,063	0,077
-450,168	800,000	-0,077	0,163
-449,153	-200,000	0,019	0,111
-448,138	64,083	-0,076	-0,055
-447,124	26,144	0,055	-0,033
-446,109	46,934	0,108	0,072
-445,095	70,145	0,071	-0,053
-444,080	800,000	-0,006	-0,015
-443,065	306,709	-0,063	0,084
-442,051	-200,000	-0,018	0,124
-441,036	-25,479	-0,035	0,015
-440,022	800,000	-0,076	0,157
-439,007	71,684	-0,042	0,031
-437,992	-103,447	-0,025	-0,004
-436,978	-200,000	-0,001	0,034
-435,963	-123,180	0,126	-0,014
-434,949	-173,496	-0,056	0,001
-433,934	-179,381	0,048	0,001
-432,919	-200,000	-0,010	0,039
-431,905	-200,000	0,021	0,071
-430,890	112,558	0,073	0,064
-429,876	-164,084	0,053	-0,002
-428,861	-200,000	0,015	0,091
-427,846	-200,000	-0,015	0,175
-426,832	21,065	-0,065	-0,038
-425,817	-120,729	0,029	-0,003
-424,803	439,607	0,013	-0,020
-423,788	25,389	0,064	-0,038
-422,773	-200,000	-0,007	-0,193
-421,759	17,199	-0,123	-0,070
-420,744	-5,924	-0,109	-0,054
-419,730	-200,000	-0,003	-0,059
-418,715	79,718	0,056	0,043
-417,701	-200,000	0,021	-0,083
-416,686	131,862	0,075	0,069
-415,671	-200,000	0,007	0,082
-414,657	61,865	-0,024	0,017
-413,642	165,803	-0,133	0,135
-412,628	222,339	0,025	-0,029
-411,613	48,782	0,047	-0,032
-410,598	214,455	0,087	-0,099
-409,584	89,066	-0,098	0,078
-408,569	800,000	0,025	0,059
-407,555	-14,035	0,054	-0,025
-406,540	-128,831	-0,078	-0,008
-405,525	-153,658	-0,147	-0,007
-404,511	-200,000	0,001	-0,115
-403,496	800,000	0,020	-0,044
-402,482	219,410	-0,065	-0,075
-401,467	-200,000	-0,005	0,068
-400,452	238,216	-0,085	0,101
-399,438	-102,572	0,126	0,021
-398,423	462,142	-0,033	-0,052
-397,409	148,360	0,067	-0,065
-396,394	177,885	0,061	-0,064
-395,379	253,376	-0,047	0,058
-394,365	-73,203	0,134	0,035
-393,350	82,234	0,029	0,022
-392,336	-29,867	-0,086	0,035
-391,321	238,708	-0,037	0,045
-390,306	-149,542	-0,139	-0,008
-389,292	-153,979	-0,024	0,001
-388,277	48,152	-0,022	0,015
-387,263	800,000	0,050	0,106
-386,248	98,037	0,051	0,042
-385,233	-171,113	-0,041	-0,001
-384,219	125,070	-0,059	0,054
-383,204	-200,000	0,006	0,118
-382,190	71,121	-0,034	-0,025
-381,175	224,273	0,059	0,069
-380,160	-77,869	0,048	-0,012
-379,146	744,971	0,055	0,107
-378,131	-58,343	0,143	0,044
-377,117	800,000	-0,021	0,055
-376,102	166,843	0,008	-0,008
-375,088	-200,000	-0,020	-0,082
-374,073	197,556	0,041	0,045
-373,058	27,186	0,013	0,008
-372,044	6,908	-0,078	0,042
-371,029	-28,557	0,177	0,073
-370,015	656,186	0,058	0,107
-369,000	-200,000	-0,013	0,041
-367,985	-16,377	-0,047	0,021
-366,971	800,000	-0,034	0,082
-365,956	-126,654	0,014	0,002
-364,942	-173,166	0,105	0,002
-363,927	32,621	-0,046	0,028
-362,912	79,438	0,107	0,082
-361,898	5,225	0,048	0,025
-360,883	42,392	-0,040	-0,026
-359,869	711,991	0,055	-0,105
-358,854	800,000	-0,006	0,018
-357,839	-200,000	-0,031	0,117
-356,825	800,000	0,032	-0,072
-355,810	-56,195	0,097	0,031
-354,796	293,146	-0,068	0,089
-353,781	800,000	-0,047	-0,115
-352,766	-125,723	0,158	0,017
-351,752	41,732	0,038	-0,025
-350,737	-196,826	0,068	0,000
-349,723	-153,760	-0,036	0,002
-348,708	129,110	-0,092	-0,084
-347,693	-27,220	-0,049	-0,021
-346,679	95,925	-0,116	-0,095
-345,664	800,000	0,039	-0,121
-344,650	-200,000	-0,003	-0,059
-343,635	73,601	0,151	0,114
-342,620	177,377	-0,020	0,021
-341,606	-100,015	-0,068	0,012
-340,591	-2,496	-0,083	0,042
-339,577	800,000	-0,004	-0,009
-338,562	-20,319	0,177	-0,078
-337,548	-200,000	0,005	0,075
-336,533	-26,577	0,092	0,038
-335,518	-78,335	0,086	-0,021
-334,504	10,708	-0,086	0,047
-333,489	-82,960	0,053	0,012
-332,475	224,017	-0,043	-0,050
-331,460	15,441	0,080	-0,045
-330,445	800,000	-0,014	0,045
-329,431	-56,281	-0,083	-0,026
-328,416	-44,966	-0,117	0,041
-327,402	-200,000	-0,023	0,104
-326,387	64,797	-0,032	-0,023
-325,372	279,821	-0,028	0,036
-324,358	458,121	-0,100	-0,160
-323,343	800,000	-0,014	0,035
-322,329	800,000	0,050	0,145
-321,314	107,887	0,047	0,040
-320,299	253,246	-0,064	-0,079
-319,285	10,135	0,071	0,039
-318,270	800,000	0,006	-0,017
-317,256	127,939	-0,061	0,055
-316,241	800,000	-0,027	-0,074
-315,226	800,000	0,019	-0,050
-314,212	800,000	-0,025	0,073
-313,197	601,913	0,032	0,056
-312,183	183,290	-0,009	-0,009
-311,168	-6,949	0,089	-0,043
-310,153	13,652	-0,057	-0,032
-309,139	-200,000	-0,006	-0,025
-308,124	458,252	0,020	-0,033
-307,110	74,952	0,135	-0,101
-306,095	800,000	-0,024	0,057
-305,080	118,160	-0,076	0,067
-304,066	-200,000	0,020	-0,070
-303,051	332,533	-0,050	-0,069
-302,037	265,414	0,071	-0,089
-301,022	-36,459	0,062	0,024
-300,008	344,924	-0,079	-0,111
-298,993	39,350	-0,008	0,005
-297,978	72,821	0,135	0,101
-296,964	457,586	0,019	-0,031
-295,949	233,257	-0,038	-0,045
-294,935	100,675	-0,061	-0,051
-293,920	-9,307	-0,148	0,071
-292,905	226,422	0,042	-0,049
-291,891	-152,009	0,082	0,004
-290,876	-79,435	0,097	0,023
-289,862	137,278	-0,068	0,064
-288,847	-200,000	0,003	0,054
-287,832	-200,000	-0,058	-0,202
-286,818	-80,846	-0,025	0,006
-285,803	-40,926	0,039	-0,014
-284,789	-91,090	-0,051	-0,010
-283,774	-49,959	0,091	-0,031
-282,759	36,631	-0,127	-0,080
-281,745	-61,235	0,063	0,019
-280,730	86,011	0,046	-0,036
-279,716	-156,224	-0,071	-0,003
-278,701	247,729	0,080	0,096
-277,686	43,970	0,055	0,036
-276,672	547,427	-0,016	-0,028
-275,657	267,779	-0,078	0,098
-274,643	71,143	-0,073	-0,054
-273,628	66,281	-0,052	-0,037
-272,613	129,797	-0,182	-0,167
-271,599	-93,720	0,106	-0,021
-270,584	-200,000	0,024	0,079
-269,570	-116,241	-0,058	0,008
-268,555	-20,358	-0,071	0,031
-267,540	-76,704	-0,143	0,036
-266,526	291,553	-0,086	-0,112
-265,511	-61,407	-0,026	0,008
-264,497	-100,178	0,094	-0,017
-263,482	-200,000	0,007	0,023
-262,467	106,324	0,041	0,035
-261,453	153,890	-0,014	0,013
-260,438	-92,703	-0,037	-0,007
-259,424	246,949	0,036	0,043
-258,409	167,699	0,034	0,035
-257,395	531,635	0,046	-0,078
-256,380	-200,000	-0,004	-0,043
-255,365	-48,969	0,175	0,059
-254,351	-79,393	0,009	-0,002
-253,336	58,195	0,090	0,063
-252,322	-10,485	-0,093	0,044
-251,307	-200,000	0,001	0,148
-250,292	170,402	0,071	0,073
-249,278	-42,601	0,136	0,049
-248,263	-167,097	0,091	-0,003
-247,249	176,002	0,160	0,166
-246,234	-200,000	0,027	0,132
-245,219	126,123	-0,006	-0,005
-244,205	-103,006	-0,116	-0,019
-243,190	-200,000	0,012	-0,055
-242,176	-200,000	0,056	0,197
-241,161	133,020	-0,073	0,067
-240,146	483,797	0,009	-0,015
-239,132	800,000	-0,062	0,146
-238,117	-200,000	0,013	-0,160
-237,103	-200,000	0,039	-0,199
-236,088	11,579	0,126	0,069
-235,073	672,537	-0,019	-0,035
-234,059	800,000	0,023	0,048
-233,044	159,227	0,084	-0,084
-232,030	-108,421	0,129	0,020
-231,015	255,478	-0,095	-0,117
-230,000	-200,000	0,016	-0,054
-228,986	209,541	-0,075	-0,083
-227,971	-91,297	0,100	0,020
-226,957	-87,742	0,149	0,032
-225,942	800,000	-0,042	0,088
-224,927	-200,000	-0,011	0,147
-223,913	8,602	-0,130	0,070
-222,898	-200,000	0,029	-0,111
-221,884	541,293	0,028	0,049
-220,869	-191,828	0,109	0,001
-219,855	-31,193	0,060	0,024
-218,840	285,794	-0,097	0,125
-217,825	490,645	-0,094	0,154
-216,811	-93,460	-0,104	-0,020
-215,796	614,918	-0,065	0,117
-214,782	-61,362	0,095	-0,028
-213,767	-21,763	-0,103	-0,044
-212,752	128,761	0,063	0,057
-211,738	218,746	0,114	0,130
-210,723	-53,381	0,042	0,013
-209,709	-124,013	0,046	0,005
-208,694	734,820	-0,087	-0,166
-207,679	-32,292	-0,122	0,048
-206,665	336,598	0,017	0,024
-205,650	142,586	0,065	-0,061
-204,636	195,483	-0,060	-0,065
-203,621	-200,000	0,023	-0,093
-202,606	-200,000	-0,011	0,107
-201,592	745,727	0,050	-0,096
-200,577	-34,363	-0,227	-0,088
-199,563	-0,295	-0,083	0,042
-198,548	-62,771	0,044	-0,013
-197,533	-2,636	0,117	-0,058
-196,519	-73,084	-0,072	0,019
-195,504	356,269	0,023	0,032
-194,490	-200,000	-0,005	-0,033
-193,475	-200,000	-0,003	-0,069
-192,460	164,856	-0,030	-0,030
-191,446	124,609	0,052	0,047
-190,431	800,000	-0,035	0,100
-189,417	290,922	0,084	-0,109
-188,402	153,609	0,061	-0,060
-187,387	-200,000	0,003	-0,139
-186,373	189,068	0,016	0,017
-185,358	672,977	-0,023	-0,044
-184,344	43,374	-0,053	0,034
-183,329	386,823	0,132	0,195
-182,315	800,000	0,038	0,105
-181,300	713,433	-0,051	-0,097
-180,285	139,649	0,066	0,062
-179,271	-51,270	-0,112	-0,037
-178,256	-200,000	-0,001	-0,137
-177,242	12,492	-0,049	0,027
-176,227	-200,000	0,001	-0,025
-175,212	-82,630	-0,016	0,004
-174,198	70,063	-0,037	-0,027
-173,183	242,047	-0,116	-0,138
-172,169	508,919	0,012	0,021
-171,154	317,131	-0,026	-0,035
-170,139	101,709	0,028	0,024
-169,125	-200,000	-0,007	0,045
-168,110	-111,429	0,041	0,006
-167,096	37,748	-0,005	-0,003
-166,081	211,386	0,016	0,018
-165,066	-200,000	-0,021	-0,140
-164,052	-6,463	-0,018	0,009
-163,037	-67,624	0,084	-0,023
-162,023	-50,867	0,042	0,014
-161,008	-200,000	0,014	-0,062
-159,993	-157,089	-0,063	0,003
-158,979	-200,000	0,012	0,092
-157,964	-148,322	-0,100	-0,006
-156,950	-59,336	-0,104	-0,032
-155,935	257,787	-0,056	-0,069
-154,920	-15,697	-0,093	0,042
-153,906	800,000	0,025	0,072
-152,891	-91,686	0,145	0,029
-151,877	323,242	0,069	0,093
-150,862	-200,000	-0,010	-0,156
-149,847	-200,000	0,019	-0,129
-148,833	-200,000	-0,016	0,086
-147,818	88,581	0,038	0,030
-146,804	-165,486	0,128	-0,004
-145,789	183,565	0,124	0,131
-144,775	-108,146	-0,072	-0,011
-143,760	195,970	-0,050	-0,054
-142,745	-200,000	0,010	-0,069
-141,731	-200,000	0,009	-0,120
-140,716	310,766	-0,024	-0,033
-139,702	44,355	0,156	0,102
-138,687	-200,000	0,027	0,096
-137,672	-29,328	0,052	0,021
-136,658	-176,450	-0,054	0,001
-135,643	800,000	-0,030	-0,083
-134,629	-22,849	0,071	0,030
-133,614	0,210	-0,034	0,017
-132,599	-106,659	-0,114	0,018
-131,585	117,661	0,120	0,105
-130,570	-39,508	0,103	0,038
-129,556	-200,000	-0,008	-0,061
-128,541	475,013	-0,096	-0,155
-127,526	68,851	0,018	0,013
-126,512	-200,000	-0,003	-0,045
-125,497	-31,614	0,057	-0,023
-124,483	181,922	-0,091	-0,095
-123,468	22,250	-0,017	-0,010
-122,453	-64,022	-0,066	0,019
-121,439	-0,912	0,007	0,004
-120,424	-200,000	-0,015	-0,105
-119,410	-76,449	-0,038	-0,009
-118,395	278,669	0,115	-0,146
-117,380	-40,229	-0,028	0,010
-116,366	-124,842	-0,165	0,018
-115,351	-85,061	0,070	-0,015
-114,337	800,000	0,021	-0,057
-113,322	800,000	-0,009	-0,022
-112,307	90,709	0,114	0,090
-111,293	-200,000	-0,028	0,124
-110,278	-29,433	0,051	0,021
-109,264	-200,000	-0,023	0,115
-108,249	123,623	0,068	0,061
-107,234	-200,000	-0,000	0,067
-106,220	800,000	-0,053	-0,109
-105,205	-66,543	-0,041	0,011
-104,191	-50,141	-0,163	-0,054
-103,176	-200,000	-0,007	0,068
-102,162	-84,529	-0,138	0,031
-101,147	246,387	0,068	0,082
-100,132	-10,961	-0,072	-0,034
-99,118	374,599	-0,066	-0,096
-98,103	-35,804	0,085	-0,033
-97,089	58,657	-0,085	0,059
-96,074	289,023	0,063	-0,081
-95,059	800,000	-0,028	0,070
-94,045	33,211	-0,066	-0,041
-93,030	-182,690	-0,059	0,001
-92,016	272,302	0,093	-0,116
-91,001	-200,000	-0,009	-0,027
-89,986	36,361	0,030	0,018
-88,972	-200,000	0,004	-0,032
-87,957	-77,903	-0,065	-0,016
-86,943	-52,182	-0,204	-0,067
-85,928	111,742	-0,119	0,102
-84,913	408,067	0,021	0,031
-83,899	335,477	-0,074	-0,102
-82,884	161,957	0,128	0,127
-81,870	800,000	0,060	-0,145
-80,855	106,969	0,089	-0,075
-79,840	-200,000	-0,003	0,058
-78,826	779,633	-0,054	-0,106
-77,811	119,381	-0,051	-0,045
-76,797	-185,788	0,103	0,001
-75,782	-200,000	0,004	0,066
-74,767	800,000	0,058	0,151
-73,753	313,126	-0,002	-0,003
-72,738	-10,970	-0,026	-0,012
-71,724	52,221	-0,102	-0,069
-70,709	52,307	-0,058	0,039
-69,694	-68,652	0,071	-0,019
-68,680	348,755	-0,093	0,131
-67,665	795,046	-0,035	0,069
-66,651	-47,970	-0,056	-0,019
-65,636	-9,257	-0,027	-0,013
-64,622	207,593	-0,069	-0,076
-63,607	55,649	-0,102	-0,070
-62,592	-44,023	-0,018	0,006
-61,578	-200,000	-0,007	0,090
-60,563	800,000	0,086	0,267
-59,549	-200,000	-0,017	0,153
-58,534	-51,614	-1,564	-0,514
-57,519	368,802	-1,492	-2,145
-56,505	-200,000	-0,421	-4,472
-55,490	171,608	1,127	1,148
-54,476	800,000	4,895	10,952
-53,461	-200,000	18,371	292,408
-52,446	800,000	729,554	2245,805
-51,432	558,434	1645,796	2824,460
-50,417	79,075	1666,333	1263,288
-49,403	22,634	1539,930	890,790
-48,388	16,603	1463,079	817,087
-47,373	17,925	1452,734	817,651
-46,359	17,163	1443,503	808,773
-45,344	14,850	1438,848	795,076
-44,330	14,811	1436,612	793,624
-43,315	14,811	1435,099	792,757
-42,300	14,818	1433,519	791,887
-41,286	14,849	1432,331	791,346
-40,271	14,793	1431,107	790,373
-39,257	14,781	1429,986	789,663
-38,242	14,839	1428,437	789,052
-37,227	14,847	1427,295	788,430
-36,213	14,888	1425,839	787,788
-35,198	14,833	1424,769	786,907
-34,184	14,885	1423,884	786,630
-33,169	14,801	1422,623	785,507
-32,154	14,859	1421,585	785,177
-31,140	14,885	1420,103	784,448
-30,125	14,887	1419,066	783,856
-29,111	14,866	1417,958	783,110
-28,096	14,852	1416,755	782,352
-27,082	14,786	1415,718	781,434
-26,067	14,742	1414,739	780,655
-25,052	14,814	1413,457	780,259
-24,038	14,752	1412,663	779,497
-23,023	14,757	1411,598	778,904
-22,009	14,746	1410,637	778,289
-20,994	14,724	1409,948	777,775
-19,979	14,756	1408,732	777,223
-18,965	14,724	1407,919	776,593
-17,950	14,664	1406,909	775,727
-16,936	14,699	1405,962	775,335
-15,921	14,688	1404,738	774,580
-14,906	14,662	1403,990	774,015
-13,892	14,697	1403,158	773,690
-12,877	14,681	1402,224	773,069
-11,863	14,678	1401,256	772,489
-10,848	14,675	1400,298	771,919
-9,833	14,656	1399,566	771,396
-8,819	14,635	1398,489	770,673
-7,804	14,570	1397,772	769,943
-6,790	14,614	1396,498	769,415
-5,775	14,600	1395,608	768,833
-4,760	14,585	1394,656	768,209
-3,746	14,593	1393,928	767,813
-2,731	14,580	1393,028	767,226
-1,717	14,534	1392,197	766,523
-0,702	14,550	1390,518	765,643
0,313	18,311	1308,983	738,185
1,327	34,618	705,924	435,874
2,342	52,793	124,433	84,097
3,356	3,175	16,511	8,475
4,371	19,532	3,117	1,770
5,386	-4,375	0,557	0,272
6,400	625,035	-0,053	0,095
7,415	-34,782	-0,276	-0,106
8,429	-53,394	-0,334	-0,108
9,444	138,620	-0,313	-0,291
10,459	57,585	-0,288	-0,199
11,473	-92,305	-0,373	-0,074
12,488	34,474	-0,249	-0,153
13,502	-57,347	-0,427	-0,132
14,517	90,781	-0,234	-0,186
15,531	33,486	-0,396	-0,243
16,546	3,657	-0,301	-0,155
17,561	87,095	-0,398	-0,311
18,575	340,419	-0,150	-0,208
19,590	188,279	-0,204	-0,215
20,604	63,956	-0,225	-0,160
21,619	94,381	-0,394	-0,316
22,634	76,972	-0,513	-0,385
23,648	22,488	-0,495	-0,285
24,663	206,418	-0,316	-0,349
25,677	232,442	-0,307	-0,357
26,692	800,000	-0,095	-0,292
27,707	-19,063	-0,411	-0,180
28,721	145,922	-0,409	-0,387
29,736	13,629	-0,358	-0,196
30,750	83,548	-0,367	-0,283
31,765	35,070	-0,377	-0,233
32,780	-27,579	-0,391	-0,160
33,794	88,852	-0,237	-0,186
34,809	139,218	-0,330	-0,306
35,823	51,584	-0,500	-0,335
36,838	37,139	-0,413	-0,257
37,853	-39,036	-0,503	-0,186
38,867	88,344	-0,310	-0,242
39,882	54,993	-0,389	-0,265
40,896	-4,197	-0,404	-0,197
41,911	114,403	-0,328	-0,282
42,926	247,282	-0,278	-0,332
43,940	165,569	-0,203	-0,203
44,955	67,788	-0,379	-0,273
45,969	48,051	-0,479	-0,315
46,984	459,164	-0,244	-0,384
47,999	-24,500	-0,221	-0,092
49,013	375,712	-0,194	-0,280
50,028	-17,099	-0,352	-0,156
51,042	-9,174	-0,366	-0,172
52,057	15,278	-0,406	-0,224
53,071	95,618	-0,262	-0,211
54,086	660,177	-0,177	-0,323
55,101	72,103	-0,304	-0,223
56,115	181,610	-0,301	-0,312
57,130	62,414	-0,307	-0,216
58,144	47,619	-0,333	-0,219
59,159	114,154	-0,283	-0,243
60,174	119,139	-0,366	-0,319
61,188	39,891	-0,441	-0,278
62,203	2,055	-0,314	-0,159
63,217	-49,657	-0,365	-0,121
64,232	161,638	-0,215	-0,212
65,247	-76,601	-0,476	-0,117
66,261	-25,778	-0,554	-0,229
67,276	29,354	-0,296	-0,177
68,290	-63,637	-0,354	-0,102
69,305	223,306	-0,168	-0,191
70,320	-137,650	-0,271	-0,021
71,334	0,842	-0,355	-0,178
72,349	17,220	-0,372	-0,207
73,363	-158,174	-0,433	-0,018
74,378	54,400	-0,397	-0,269
75,393	15,222	-0,289	-0,159
76,407	12,039	-0,326	-0,176
77,422	-81,886	-0,296	-0,068
78,436	-97,486	-0,343	-0,062
79,451	-66,241	-0,339	-0,094
80,466	-61,842	-0,270	-0,079
81,480	437,881	-0,287	-0,442
82,495	-7,424	-0,211	-0,100
83,509	800,000	-0,086	-0,239
84,524	-62,411	-0,376	-0,109
85,539	800,000	-0,099	-0,203
86,553	-50,356	-0,320	-0,106
87,568	-162,882	-0,363	0,012
88,582	-58,442	-0,429	-0,130
89,597	323,053	-0,167	-0,224
90,611	-21,349	-0,290	-0,124
91,626	57,834	-0,197	-0,136
92,641	36,797	-0,219	-0,136
93,655	-56,665	-0,339	-0,105
94,670	-18,207	-0,403	-0,176
95,684	72,078	-0,344	-0,251
96,699	55,644	-0,303	-0,206
97,714	96,293	-0,227	-0,182
98,728	73,261	-0,206	-0,151
99,743	-29,824	-0,249	-0,099
100,757	20,399	-0,216	-0,122
101,772	45,550	-0,360	-0,233
102,787	75,044	-0,278	-0,205
103,801	-36,100	-0,328	-0,124
104,816	35,572	-0,302	-0,186
105,830	41,612	-0,203	-0,129
106,845	800,000	-0,041	-0,085
107,860	-180,981	-0,252	-0,003
108,874	-8,104	-0,293	-0,138
109,889	75,224	-0,395	-0,292
110,903	-43,978	-0,244	-0,086
111,918	-33,471	-0,248	-0,096
112,933	107,715	-0,265	-0,221
113,947	-190,506	-0,280	-0,002
114,962	-66,408	-0,258	0,071
115,976	-42,015	-0,306	-0,109
116,991	108,883	-0,371	-0,311
118,006	18,135	-0,320	-0,178
119,020	95,564	-0,222	-0,177
120,035	94,830	-0,195	-0,155
121,049	183,677	-0,135	-0,140
122,064	427,244	-0,149	-0,225
123,079	426,503	-0,172	-0,260
124,093	14,272	-0,307	-0,167
125,108	-44,816	-0,291	-0,101
126,122	129,948	-0,266	-0,239
127,137	50,118	-0,263	-0,174
128,151	102,691	-0,253	-0,207
129,166	-93,248	-0,217	-0,042
130,181	356,174	-0,166	-0,232
131,195	214,019	-0,232	-0,257
132,210	10,879	-0,342	-0,182
133,224	800,000	-0,107	-0,225
134,239	-26,238	-0,236	-0,097
135,254	-86,761	-0,352	-0,075
136,268	-112,414	-0,305	-0,042
137,283	39,687	-0,346	-0,217
138,297	176,901	-0,184	-0,188
139,312	208,573	-0,246	-0,270
140,327	149,370	-0,285	-0,270
141,341	148,767	-0,198	-0,187
142,356	1,821	-0,208	0,105
143,370	228,897	-0,195	-0,223
144,385	-22,026	-0,307	-0,130
145,400	-78,117	-0,308	-0,074
146,414	-27,110	-0,243	-0,099
147,429	-108,440	-0,291	-0,043
148,443	22,527	-0,215	-0,123
149,458	591,420	-0,165	-0,286
150,473	54,498	-0,230	-0,155
151,487	178,166	-0,281	-0,287
152,502	70,006	-0,243	-0,175
153,516	52,286	-0,305	-0,203
154,531	151,658	-0,234	-0,223
155,546	61,261	-0,229	-0,159
156,560	358,502	-0,110	-0,153
157,575	120,402	-0,247	-0,214
158,589	144,211	-0,272	-0,253
159,604	215,271	-0,199	-0,221
160,619	524,747	-0,156	-0,258
161,633	42,017	-0,334	-0,211
162,648	28,455	-0,248	-0,146
163,662	-99,000	-0,275	-0,048
164,677	-102,183	-0,314	-0,052
165,692	-22,190	-0,281	-0,118
166,706	88,717	-0,229	-0,178
167,721	30,269	-0,235	-0,140
168,735	67,562	-0,324	-0,231
169,750	462,230	-0,157	-0,245
170,764	59,185	-0,152	-0,105
171,779	103,685	-0,223	-0,182
172,794	9,027	-0,239	-0,125
173,808	166,087	-0,159	-0,157
174,823	175,255	-0,211	-0,214
175,837	91,617	-0,348	-0,272
176,852	50,383	-0,324	-0,213
177,867	44,372	-0,167	-0,107
178,881	-59,860	-0,280	-0,083
179,896	86,082	-0,242	-0,186
180,910	86,476	-0,248	-0,191
181,925	194,163	-0,264	-0,279
182,940	296,056	-0,173	-0,222
183,954	-68,581	-0,149	-0,040
184,969	109,216	-0,220	-0,183
185,983	83,363	-0,095	-0,072
186,998	586,267	-0,088	-0,151
188,013	800,000	-0,081	-0,235
189,027	-152,249	-0,196	0,010
190,042	599,116	-0,143	-0,247
191,056	180,365	-0,220	-0,225
192,071	406,947	-0,209	-0,309
193,086	-37,078	-0,249	-0,092
194,100	103,421	-0,233	-0,190
195,115	43,932	-0,198	-0,126
196,129	80,343	-0,234	-0,175
197,144	-26,800	-0,303	-0,123
198,159	-66,673	-0,235	-0,064
199,173	-25,887	-0,334	-0,136
200,188	-68,192	-0,205	0,055
201,202	26,592	-0,215	-0,125
202,217	-80,408	-0,222	-0,051
203,232	183,539	-0,203	-0,209
204,246	81,724	-0,236	-0,178
205,261	117,697	-0,247	-0,212
206,275	302,791	-0,134	-0,172
207,290	18,740	-0,145	0,080
208,304	46,382	-0,112	-0,072
209,319	-30,065	-0,213	-0,084
210,334	191,565	-0,218	-0,229
211,348	800,000	-0,170	-0,361
212,363	53,890	-0,257	-0,171
213,377	-63,677	-0,214	-0,061
214,392	298,778	-0,121	-0,155
215,407	529,625	-0,082	-0,135
216,421	-11,822	-0,151	-0,069
217,436	256,429	-0,219	-0,261
218,450	800,000	-0,130	-0,288
219,465	192,153	-0,249	-0,261
220,480	515,716	-0,222	-0,361
221,494	-7,345	-0,073	-0,034
222,509	-59,067	-0,192	-0,057
223,523	-50,929	-0,148	0,048
224,538	62,975	-0,173	-0,120
225,553	36,521	-0,313	-0,191
226,567	456,600	-0,084	-0,131
227,582	-38,177	-0,230	-0,084
228,596	79,482	-0,125	-0,093
229,611	124,448	-0,175	-0,153
230,626	-172,206	-0,159	-0,003
231,640	338,668	-0,115	-0,156
232,655	-121,006	-0,309	-0,036
233,669	800,000	-0,123	-0,369
234,684	7,672	-0,225	-0,116
235,699	306,424	-0,116	-0,150
236,713	240,575	-0,150	-0,174
237,728	108,274	-0,157	-0,130
238,742	276,373	-0,133	-0,164
239,757	603,501	-0,095	-0,164
240,772	800,000	-0,110	-0,247
241,786	-177,103	-0,167	-0,003
242,801	405,038	-0,100	-0,146
243,815	38,312	-0,233	-0,144
244,830	46,157	-0,130	-0,084
245,844	225,823	-0,196	-0,221
246,859	-70,457	-0,056	-0,015
247,874	471,478	-0,117	-0,183
248,888	264,700	-0,202	-0,245
249,903	-134,225	-0,163	-0,014
250,917	96,265	-0,053	-0,042
251,932	-112,917	-0,081	-0,011
252,947	95,043	-0,041	-0,032
253,961	128,762	-0,228	-0,201
254,976	-93,078	-0,260	-0,050
255,990	800,000	-0,076	-0,189
257,005	-44,347	-0,217	-0,075
258,020	136,507	-0,155	-0,140
259,034	-18,760	-0,184	-0,079
260,049	581,523	-0,110	-0,188
261,063	693,658	-0,103	-0,188
262,078	138,410	-0,165	-0,150
263,093	-41,887	-0,288	-0,102
264,107	322,292	-0,160	-0,211
265,122	-152,559	-0,151	0,007
266,136	800,000	-0,028	0,061
267,151	-3,762	-0,142	-0,068
268,166	-3,913	-0,160	-0,077
269,180	-15,684	-0,291	-0,128
270,195	-17,841	-0,287	-0,124
271,209	402,854	-0,075	-0,110
272,224	94,389	-0,172	-0,135
273,239	-90,272	-0,206	-0,041
274,253	20,091	-0,172	-0,096
275,268	63,210	-0,080	-0,055
276,282	-34,985	-0,295	-0,111
277,297	-182,382	-0,208	-0,003
278,312	214,390	-0,087	-0,096
279,326	106,010	-0,116	-0,095
280,341	34,003	-0,088	-0,053
281,355	800,000	-0,127	-0,309
282,370	57,503	-0,203	-0,136
283,384	173,449	-0,131	-0,131
284,399	538,004	-0,146	-0,241
285,414	0,437	-0,254	-0,125
286,428	-31,971	-0,226	-0,087
287,443	-29,848	-0,239	-0,094
288,457	268,069	-0,046	0,056
289,472	800,000	-0,070	-0,200
290,487	785,680	-0,053	-0,102
291,501	55,202	-0,207	-0,138
292,516	-101,085	-0,153	-0,026
293,530	800,000	-0,052	-0,102
294,545	79,620	-0,144	-0,107
295,560	91,394	-0,084	-0,065
296,574	-83,315	-0,201	-0,044
297,589	74,761	-0,258	-0,187
298,603	800,000	-0,160	-0,327
299,618	179,347	-0,123	-0,124
300,633	-200,000	0,022	-0,069
301,647	800,000	-0,032	-0,081
302,662	-90,432	-0,079	-0,016
303,676	331,690	-0,186	-0,248
304,691	-122,689	-0,273	-0,030
305,706	467,365	-0,114	-0,177
306,720	442,070	-0,115	-0,174
307,735	-0,413	-0,250	-0,122
308,749	800,000	-0,109	-0,216
309,764	-36,708	-0,142	-0,052
310,779	157,343	-0,135	-0,129
311,793	52,505	-0,190	-0,124
312,808	292,588	-0,110	-0,138
313,822	771,221	-0,111	-0,209
314,837	521,200	-0,132	-0,214
315,852	-50,736	-0,138	-0,044
316,866	-18,306	-0,117	-0,050
317,881	59,921	-0,117	-0,079
318,895	147,472	-0,249	-0,231
319,910	436,609	-0,169	-0,254
320,925	145,657	-0,092	-0,085
321,939	-51,196	-0,160	-0,051
322,954	800,000	-0,126	-0,276
323,968	800,000	-0,052	-0,154
324,983	14,030	-0,173	-0,093
325,997	-28,460	-0,160	-0,063
327,012	-155,918	-0,176	0,008
328,027	290,567	-0,121	-0,152
329,041	104,493	-0,199	-0,162
330,056	174,403	-0,136	-0,136
331,070	-173,330	-0,154	-0,003
332,085	-91,217	-0,192	0,037
333,100	27,790	-0,098	0,056
334,114	-16,495	-0,109	-0,048
335,129	0,534	-0,213	-0,104
336,143	-200,000	-0,042	-0,213
337,158	-61,379	-0,135	-0,039
338,173	-61,291	-0,088	-0,025
339,187	800,000	-0,038	-0,112
340,202	-26,648	-0,199	0,080
341,216	592,188	-0,033	-0,056
342,231	-94,644	-0,212	-0,039
343,246	-104,290	-0,263	-0,041
344,260	-107,482	-0,075	-0,011
345,275	-104,370	-0,147	-0,023
346,289	84,538	-0,200	-0,150
347,304	474,202	-0,016	0,025
348,319	-101,124	0,069	-0,011
349,333	-200,000	-0,037	-0,191
350,348	8,996	-0,211	-0,109
351,362	-145,084	-0,088	-0,005
352,377	261,793	-0,104	-0,124
353,392	-198,610	-0,141	0,001
354,406	-54,582	-0,080	-0,025
355,421	209,245	1315,286	1416,103
356,435	161,036	1476,087	1416,601
