DTS Sentinel unit serial number:	SN410029Multiplexer serial number:	ORYXHardware model number:	OX2-SRSoftware version number:	ORYX F/W v4,00 Oryx Data Collector v3.7.2.0data status	okinstallation	B3 Nyhavnadifferential loss correction	single-endedforward channel	channel 1reverse channel	N/Adate	2023/11/28time	21:22:30forward acquisition time	300,00reverse acquisition time	0,00gamma	499,1914k internal	0,3212k external	0,3212temperature offset calibration	1,0000default loss term (dB/km)	0,3820temperature slope calibration	1,0000multiplexer offset coefficient	1,0000multiplexer slope coefficient	1,0000fibre end	0,00T internal ref (°C)	8,29T ext. ref 1 (°C)	-6,26T ext. ref 2 (°C)	-6,39length (m)	temperature (°C)	Stokes	anti-Stokes-744,400	41,515	-0,218	-0,143
-743,385	-200,000	0,071	0,259
-742,371	-200,000	-0,016	-0,320
-741,356	-200,000	-0,009	0,199
-740,342	-94,775	-0,203	-0,039
-739,327	800,000	-0,124	0,277
-738,312	-200,000	-0,003	-0,291
-737,298	713,174	-0,170	0,327
-736,283	225,355	-0,176	-0,206
-735,269	-200,000	-0,008	0,345
-734,254	19,210	-0,148	-0,086
-733,239	-28,127	-0,207	0,086
-732,225	723,704	-0,097	-0,189
-731,210	701,199	0,127	0,243
-730,196	-129,250	-0,145	0,014
-729,181	443,573	-0,048	-0,077
-728,167	-18,503	0,048	-0,022
-727,152	-195,568	-0,150	-0,001
-726,137	3,263	0,074	0,039
-725,123	-15,290	-0,151	-0,070
-724,108	-39,148	-0,076	0,029
-723,094	-120,486	-0,162	0,020
-722,079	61,597	-0,049	-0,035
-721,064	488,912	0,020	0,033
-720,050	432,131	0,033	0,052
-719,035	-16,581	0,087	0,040
-718,021	0,981	-0,077	-0,040
-717,006	33,548	-0,071	-0,045
-715,991	180,960	-0,132	-0,140
-714,977	40,501	-0,110	0,072
-713,962	800,000	-0,028	-0,085
-712,948	739,182	-0,045	0,088
-711,933	-200,000	0,010	-0,056
-710,918	-141,453	-0,076	-0,006
-709,904	-133,993	-0,066	0,006
-708,889	-64,790	-0,117	-0,034
-707,875	-50,372	-0,062	-0,021
-706,860	6,150	-0,054	0,029
-705,845	-13,321	0,072	0,034
-704,831	-79,807	-0,065	0,016
-703,816	-200,000	-0,008	0,027
-702,802	-200,000	-0,005	0,122
-701,787	307,027	0,028	0,037
-700,772	5,009	-0,146	-0,078
-699,758	736,098	-0,053	0,104
-698,743	189,229	-0,059	0,064
-697,729	16,317	-0,097	0,055
-696,714	401,075	0,021	0,032
-695,699	44,616	-0,077	0,051
-694,685	768,042	-0,052	-0,102
-693,670	-200,000	0,035	-0,150
-692,656	-42,083	-0,040	0,015
-691,641	-200,000	0,017	-0,059
-690,627	-200,000	-0,016	0,058
-689,612	-49,034	0,031	-0,011
-688,597	-200,000	-0,010	-0,089
-687,583	-200,000	0,005	0,082
-686,568	159,431	-0,037	0,038
-685,554	-157,292	-0,031	0,001
-684,539	-200,000	0,008	0,037
-683,524	202,309	0,066	-0,074
-682,510	-84,969	0,091	0,020
-681,495	125,864	-0,010	-0,009
-680,481	138,033	0,040	-0,038
-679,466	-200,000	-0,019	-0,069
-678,451	-83,444	0,024	-0,006
-677,437	-27,017	0,107	0,045
-676,422	395,572	-0,035	0,053
-675,408	-200,000	0,014	0,091
-674,393	-200,000	0,013	0,128
-673,378	-33,290	0,071	-0,028
-672,364	-45,336	-0,132	-0,047
-671,349	88,047	-0,170	-0,137
-670,335	345,485	0,029	0,041
-669,320	-110,859	0,115	0,017
-668,305	440,924	-0,073	-0,117
-667,291	344,277	0,070	-0,099
-666,276	41,254	-0,114	0,075
-665,262	34,831	-0,055	-0,035
-664,247	-57,446	0,076	0,024
-663,232	3,385	-0,027	0,014
-662,218	-169,231	-0,103	0,003
-661,203	105,030	0,157	0,134
-660,189	-200,000	-0,014	0,091
-659,174	189,174	-0,134	0,146
-658,159	27,422	-0,139	-0,084
-657,145	-200,000	0,010	0,123
-656,130	800,000	0,014	-0,043
-655,116	-57,233	-0,024	-0,008
-654,101	75,566	0,081	-0,061
-653,086	800,000	-0,037	-0,114
-652,072	-200,000	-0,051	-0,167
-651,057	800,000	-0,057	-0,127
-650,043	-11,512	-0,046	0,022
-649,028	-159,349	-0,077	0,003
-648,014	-200,000	0,032	-0,115
-646,999	508,892	0,036	-0,061
-645,984	-200,000	-0,029	0,099
-644,970	-200,000	-0,024	0,126
-643,955	-130,099	-0,099	-0,010
-642,941	262,807	-0,147	-0,184
-641,926	-84,688	-0,121	0,027
-640,911	-64,427	-0,081	-0,024
-639,897	800,000	-0,067	-0,136
-638,882	30,687	0,098	-0,061
-637,868	131,813	0,040	-0,037
-636,853	42,228	-0,042	-0,027
-635,838	-200,000	0,068	0,000
-634,824	-88,708	-0,032	-0,007
-633,809	176,008	0,054	-0,057
-632,795	83,154	0,151	0,119
-631,780	563,312	-0,060	0,105
-630,765	-66,709	0,096	-0,027
-629,751	211,338	-0,099	-0,113
-628,736	52,900	-0,112	-0,077
-627,722	800,000	-0,051	-0,128
-626,707	-200,000	0,016	-0,097
-625,692	-33,345	-0,084	0,034
-624,678	-28,898	0,059	0,024
-623,663	664,720	-0,013	-0,025
-622,649	-98,143	0,108	0,020
-621,634	800,000	0,028	-0,082
-620,619	-54,361	-0,127	-0,041
-619,605	800,000	0,067	-0,167
-618,590	142,436	0,061	-0,059
-617,576	-200,000	0,011	0,068
-616,561	-156,909	-0,066	-0,003
-615,546	-62,292	-0,130	-0,039
-614,532	-200,000	-0,004	-0,082
-613,517	-157,983	0,112	-0,005
-612,503	800,000	-0,027	0,068
-611,488	-200,000	-0,018	0,128
-610,474	90,507	-0,068	-0,055
-609,459	-200,000	-0,003	-0,048
-608,444	-200,000	-0,025	-0,098
-607,430	163,797	-0,065	0,066
-606,415	3,927	0,078	-0,041
-605,401	-74,006	-0,062	0,016
-604,386	-49,008	0,143	-0,049
-603,371	-153,753	-0,108	0,005
-602,357	161,412	0,034	0,034
-601,342	-50,401	-0,035	-0,012
-600,328	781,782	-0,095	-0,188
-599,313	-87,112	-0,244	-0,053
-598,298	-77,869	-0,086	-0,021
-597,284	79,542	-0,021	-0,016
-596,269	58,003	0,132	0,093
-595,255	176,930	-0,060	0,063
-594,240	158,034	-0,036	0,036
-593,225	800,000	-0,045	-0,126
-592,211	-200,000	-0,001	0,027
-591,196	-145,967	-0,062	-0,004
-590,182	69,220	-0,066	0,049
-589,167	603,368	-0,012	-0,022
-588,152	134,164	0,031	-0,029
-587,138	-200,000	-0,157	-0,000
-586,123	-200,000	-0,002	0,081
-585,109	71,949	-0,036	0,027
-584,094	-141,188	0,214	0,015
-583,079	-74,222	0,056	-0,015
-582,065	702,838	0,105	0,200
-581,050	1,829	-0,065	0,034
-580,036	309,426	-0,040	0,054
-579,021	355,535	-0,017	-0,025
-578,006	295,821	-0,114	-0,151
-576,992	-105,665	0,160	-0,026
-575,977	83,605	-0,063	0,050
-574,963	412,395	0,068	0,105
-573,948	-132,758	-0,057	0,005
-572,934	-61,798	-0,128	-0,038
-571,919	800,000	-0,037	0,086
-570,904	-10,674	-0,176	-0,084
-569,890	264,092	-0,033	-0,042
-568,875	223,117	0,064	-0,075
-567,861	119,756	0,125	-0,112
-566,846	708,702	-0,051	0,098
-565,831	-200,000	0,016	-0,064
-564,817	-200,000	-0,015	-0,205
-563,802	130,410	-0,073	-0,068
-562,788	8,994	-0,054	-0,029
-561,773	265,855	0,040	0,050
-560,758	-200,000	0,017	0,100
-559,744	-47,534	-0,074	0,026
-558,729	21,505	-0,044	0,026
-557,715	743,252	0,039	-0,077
-556,700	-200,000	0,013	-0,054
-555,685	226,034	0,074	-0,086
-554,671	-97,025	0,080	0,015
-553,656	-146,750	-0,046	0,003
-552,642	-200,000	-0,003	-0,090
-551,627	-21,211	-0,005	0,002
-550,612	-200,000	0,008	0,029
-549,598	38,237	-0,105	0,067
-548,583	275,768	0,099	0,126
-547,569	-132,079	0,031	0,003
-546,554	4,695	0,055	0,029
-545,539	90,440	0,012	0,010
-544,525	-30,011	0,035	0,014
-543,510	-200,000	0,016	-0,072
-542,496	204,814	0,111	-0,124
-541,481	180,818	-0,096	0,101
-540,466	800,000	-0,045	0,122
-539,452	-146,867	0,061	0,004
-538,437	161,003	-0,054	-0,055
-537,423	30,563	-0,056	-0,034
-536,408	800,000	-0,032	0,102
-535,393	-200,000	0,005	-0,074
-534,379	256,809	-0,051	0,063
-533,364	800,000	0,041	0,112
-532,350	-200,000	0,039	-0,173
-531,335	-169,406	0,095	-0,002
-530,321	-51,071	0,076	0,025
-529,306	24,467	-0,053	-0,032
-528,291	322,975	-0,024	-0,033
-527,277	150,811	-0,033	-0,032
-526,262	-42,266	-0,088	-0,032
-525,248	-61,449	0,104	0,031
-524,233	-200,000	0,019	-0,087
-523,218	365,038	-0,039	-0,056
-522,204	-200,000	-0,010	0,050
-521,189	800,000	0,012	-0,036
-520,175	435,860	0,058	-0,092
-519,160	529,813	-0,038	0,064
-518,145	-15,494	-0,121	-0,055
-517,131	175,516	0,027	0,029
-516,116	-137,971	0,198	-0,016
-515,102	-200,000	-0,002	-0,037
-514,087	118,433	0,114	-0,101
-513,072	-27,595	-0,050	-0,021
-512,058	179,691	-0,054	-0,057
-511,043	252,247	0,080	0,098
-510,029	-21,443	-0,111	-0,049
-509,014	635,821	0,122	0,223
-507,999	-55,104	-0,057	-0,018
-506,985	115,096	-0,085	0,074
-505,970	-200,000	0,026	-0,113
-504,956	-200,000	0,009	-0,035
-503,941	120,462	0,022	-0,020
-502,926	158,303	0,064	-0,064
-501,912	-1,298	0,108	-0,055
-500,897	800,000	-0,030	0,088
-499,883	121,428	0,070	0,063
-498,868	-119,721	-0,158	0,019
-497,853	133,001	0,082	-0,076
-496,839	-118,071	0,089	-0,011
-495,824	-176,568	0,059	0,001
-494,810	97,604	0,110	0,090
-493,795	43,413	-0,029	-0,019
-492,781	317,598	-0,097	-0,132
-491,766	38,754	0,039	-0,025
-490,751	589,149	-0,089	-0,159
-489,737	85,644	0,037	0,029
-488,722	800,000	0,050	0,121
-487,708	-93,235	0,139	0,027
-486,693	-200,000	0,027	-0,195
-485,678	239,259	-0,068	-0,082
-484,664	800,000	-0,032	-0,089
-483,649	800,000	-0,018	-0,042
-482,635	-54,295	0,058	-0,019
-481,620	800,000	0,038	0,103
-480,605	800,000	-0,005	0,010
-479,591	-200,000	-0,001	0,011
-478,576	-200,000	0,003	-0,037
-477,562	800,000	0,086	-0,201
-476,547	200,886	0,037	0,041
-475,532	-93,447	0,082	-0,016
-474,518	32,055	0,141	-0,087
-473,503	-200,000	0,017	-0,087
-472,489	173,589	-0,012	0,012
-471,474	37,276	0,028	-0,018
-470,459	74,547	-0,066	-0,049
-469,445	-117,318	-0,096	-0,012
-468,430	800,000	0,026	-0,063
-467,416	-14,846	-0,006	0,003
-466,401	800,000	0,030	-0,064
-465,386	163,775	0,061	-0,061
-464,372	419,842	-0,015	0,023
-463,357	-200,000	0,020	0,189
-462,343	17,309	-0,145	-0,082
-461,328	-71,756	-0,107	0,028
-460,313	800,000	0,080	-0,193
-459,299	-2,862	0,085	-0,043
-458,284	-200,000	-0,017	0,078
-457,270	-200,000	0,021	-0,073
-456,255	23,625	-0,108	-0,063
-455,241	-200,000	0,006	-0,103
-454,226	800,000	0,065	-0,140
-453,211	-95,060	-0,039	-0,007
-452,197	-200,000	-0,017	-0,071
-451,182	800,000	0,036	0,097
-450,168	-108,623	0,136	0,021
-449,153	-200,000	-0,014	0,132
-448,138	-200,000	-0,017	0,140
-447,124	-200,000	-0,018	-0,209
-446,109	11,303	-0,109	0,060
-445,095	800,000	0,075	0,213
-444,080	-28,411	0,068	0,028
-443,065	800,000	0,052	0,144
-442,051	30,123	-0,115	0,070
-441,036	-200,000	0,013	-0,146
-440,022	-200,000	0,000	0,109
-439,007	-28,485	-0,030	0,012
-437,992	800,000	0,008	0,018
-436,978	73,744	0,079	0,059
-435,963	12,244	-0,101	0,055
-434,949	-134,193	0,033	0,003
-433,934	-56,340	0,085	0,027
-432,919	-200,000	-0,016	-0,118
-431,905	800,000	0,065	-0,155
-430,890	-200,000	0,023	0,134
-429,876	-85,850	0,202	0,045
-428,861	-200,000	0,002	0,083
-427,846	-126,993	0,153	0,016
-426,832	146,274	-0,032	-0,030
-425,817	-200,000	-0,006	-0,133
-424,803	-101,274	0,031	-0,005
-423,788	463,085	-0,079	-0,126
-422,773	-17,141	0,132	0,059
-421,759	-143,060	-0,122	-0,008
-420,744	-86,971	-0,145	-0,031
-419,730	-6,784	-0,073	-0,035
-418,715	-86,810	0,129	0,028
-417,701	30,394	-0,057	-0,035
-416,686	800,000	-0,003	0,009
-415,671	5,292	0,058	-0,030
-414,657	27,817	0,126	-0,076
-413,642	138,060	-0,101	-0,095
-412,628	-200,000	0,001	0,052
-411,613	800,000	0,051	-0,151
-410,598	-166,560	-0,156	-0,005
-409,584	-200,000	0,014	0,049
-408,569	566,636	0,046	0,079
-407,555	773,585	-0,017	-0,034
-406,540	70,003	-0,038	0,028
-405,525	368,489	0,097	0,141
-404,511	-200,000	-0,038	-0,143
-403,496	800,000	0,019	-0,045
-402,482	293,976	-0,086	0,113
-401,467	599,924	0,021	-0,037
-400,452	58,853	0,034	-0,024
-399,438	319,496	-0,077	0,105
-398,423	800,000	0,042	0,123
-397,409	532,592	-0,055	-0,093
-396,394	-70,232	0,082	0,022
-395,379	800,000	-0,097	-0,250
-394,365	-127,596	0,165	-0,017
-393,350	-200,000	0,014	0,072
-392,336	286,384	-0,016	0,021
-391,321	-54,835	0,070	-0,023
-390,306	74,848	0,010	0,007
-389,292	207,403	-0,094	0,105
-388,277	591,578	0,031	0,056
-387,263	-40,181	0,090	-0,033
-386,248	-200,000	0,043	-0,138
-385,233	69,239	0,073	0,053
-384,219	-200,000	-0,010	-0,123
-383,204	396,360	-0,038	-0,057
-382,190	-59,155	-0,081	-0,025
-381,175	405,854	0,020	-0,030
-380,160	357,218	0,085	0,121
-379,146	234,523	0,023	-0,027
-378,131	344,177	0,054	0,075
-377,117	-57,432	-0,081	0,025
-376,102	-74,269	-0,047	-0,012
-375,088	-69,154	-0,028	-0,008
-374,073	-200,000	-0,004	0,062
-373,058	-116,753	0,021	0,003
-372,044	-6,466	0,030	-0,015
-371,029	30,217	0,082	0,050
-370,015	-12,701	0,118	0,055
-369,000	1,428	-0,121	-0,062
-367,985	203,478	0,087	-0,096
-366,971	-72,006	-0,064	-0,017
-365,956	483,282	-0,062	-0,102
-364,942	800,000	0,044	0,110
-363,927	-200,000	0,006	0,098
-362,912	-200,000	0,031	0,206
-361,898	195,259	0,043	-0,047
-360,883	-135,826	-0,071	0,006
-359,869	-200,000	0,012	-0,125
-358,854	-90,567	0,105	0,022
-357,839	94,509	-0,087	0,070
-356,825	-200,000	-0,001	0,090
-355,810	-192,124	-0,111	0,001
-354,796	60,443	-0,060	0,042
-353,781	-200,000	0,011	-0,090
-352,766	141,279	0,110	-0,104
-351,752	-94,569	0,044	0,009
-350,737	800,000	0,022	-0,054
-349,723	-200,000	0,032	0,151
-348,708	-200,000	-0,011	0,055
-347,693	-3,793	-0,076	0,038
-346,679	-200,000	-0,004	-0,086
-345,664	-92,469	-0,078	0,015
-344,650	119,668	-0,037	-0,033
-343,635	-200,000	0,057	0,180
-342,620	-200,000	-0,010	0,054
-341,606	-24,179	0,063	0,027
-340,591	8,324	-0,106	-0,056
-339,577	800,000	-0,037	0,092
-338,562	-159,677	-0,060	-0,002
-337,548	800,000	-0,056	-0,129
-336,533	-38,560	-0,075	0,028
-335,518	-200,000	-0,039	0,185
-334,504	-200,000	-0,014	0,080
-333,489	-33,501	-0,074	0,029
-332,475	142,178	-0,023	0,021
-331,460	-107,694	-0,028	-0,004
-330,445	-141,423	0,052	0,004
-329,431	-100,379	0,010	0,002
-328,416	363,505	-0,043	-0,062
-327,402	-200,000	-0,006	0,027
-326,387	-78,212	0,064	0,016
-325,372	-37,280	-0,126	0,048
-324,358	257,153	-0,081	-0,100
-323,343	-142,843	-0,065	0,004
-322,329	-18,536	-0,137	0,061
-321,314	-103,569	0,195	0,032
-320,299	-53,578	-0,141	0,046
-319,285	-130,951	0,275	-0,026
-318,270	570,567	-0,029	0,051
-317,256	339,673	0,039	-0,054
-316,241	252,283	-0,042	0,051
-315,226	40,563	0,037	0,024
-314,212	-35,167	0,078	-0,030
-313,197	85,758	0,098	0,077
-312,183	80,617	0,050	-0,038
-311,168	800,000	-0,044	-0,097
-310,153	-59,438	0,121	-0,037
-309,139	104,205	-0,084	0,070
-308,124	169,674	-0,056	0,057
-307,110	49,052	0,034	0,023
-306,095	159,292	0,068	0,068
-305,080	-200,000	0,001	0,007
-304,066	95,526	-0,152	0,123
-303,051	-200,000	-0,029	-0,104
-302,037	-114,844	0,073	0,010
-301,022	-200,000	-0,008	0,152
-300,008	-200,000	-0,004	0,054
-298,993	-200,000	0,026	0,119
-297,978	67,241	0,060	-0,043
-296,964	722,186	0,020	-0,039
-295,949	639,207	-0,052	-0,095
-294,935	800,000	0,009	-0,022
-293,920	-96,452	0,106	-0,020
-292,905	-52,802	0,072	0,023
-291,891	227,504	-0,025	0,029
-290,876	41,107	0,086	-0,055
-289,862	138,820	0,086	0,081
-288,847	-200,000	-0,045	-0,183
-287,832	30,477	0,026	-0,016
-286,818	659,151	0,017	-0,031
-285,803	-48,578	0,083	-0,028
-284,789	253,863	0,074	0,090
-283,774	-164,144	-0,089	-0,003
-282,759	-200,000	-0,000	-0,151
-281,745	37,658	0,062	0,039
-280,730	578,436	-0,012	0,020
-279,716	55,955	-0,092	0,063
-278,701	800,000	0,077	0,165
-277,686	-200,000	0,026	0,088
-276,672	800,000	0,024	0,053
-275,657	-200,000	-0,008	-0,035
-274,643	476,319	-0,048	-0,077
-273,628	631,994	-0,024	-0,043
-272,613	68,118	-0,058	0,042
-271,599	-147,109	0,125	0,007
-270,584	-200,000	-0,019	0,075
-269,570	17,169	-0,071	0,040
-268,555	348,047	0,080	-0,112
-267,540	77,299	-0,102	-0,077
-266,526	239,646	-0,039	0,046
-265,511	-200,000	0,050	-0,249
-264,497	-86,986	-0,246	-0,053
-263,482	-200,000	-0,014	0,096
-262,467	800,000	-0,049	0,133
-261,453	-200,000	0,052	0,171
-260,438	108,598	0,093	-0,079
-259,424	-195,157	0,090	0,000
-258,409	-136,200	-0,012	-0,001
-257,395	-200,000	-0,005	0,133
-256,380	-200,000	-0,017	-0,095
-255,365	-1,901	0,065	0,032
-254,351	-200,000	0,008	0,126
-253,336	164,005	0,092	0,092
-252,322	-200,000	0,008	0,105
-251,307	759,377	-0,049	-0,095
-250,292	-123,017	0,041	0,005
-249,278	800,000	-0,056	0,123
-248,263	741,090	-0,073	0,140
-247,249	-200,000	-0,012	0,093
-246,234	-159,580	-0,020	-0,001
-245,219	-30,247	-0,141	0,057
-244,205	-200,000	0,013	-0,116
-243,190	-144,819	-0,097	-0,006
-242,176	800,000	-0,029	0,061
-241,161	-200,000	-0,017	0,054
-240,146	35,271	-0,004	-0,003
-239,132	-200,000	-0,019	-0,074
-238,117	346,464	-0,114	-0,160
-237,103	-114,698	-0,057	0,008
-236,088	800,000	-0,037	-0,075
-235,073	800,000	0,039	0,096
-234,059	-200,000	0,016	0,098
-233,044	-141,376	0,062	-0,004
-232,030	551,272	-0,028	0,048
-231,015	-200,000	-0,013	0,058
-230,000	-200,000	-0,008	-0,035
-228,986	205,537	-0,054	-0,060
-227,971	-103,842	0,062	-0,010
-226,957	800,000	-0,067	-0,153
-225,942	-95,693	-0,045	-0,009
-224,927	-33,020	0,016	-0,006
-223,913	245,233	0,058	-0,069
-222,898	383,239	0,035	0,051
-221,884	-200,000	-0,000	-0,044
-220,869	129,872	0,149	0,135
-219,855	-200,000	0,019	-0,068
-218,840	98,231	0,070	-0,058
-217,825	-88,472	0,143	0,030
-216,811	-121,499	0,060	-0,007
-215,796	-106,324	-0,256	-0,040
-214,782	-4,623	-0,032	0,015
-213,767	-200,000	0,012	-0,082
-212,752	-200,000	0,004	-0,026
-211,738	-200,000	0,001	0,087
-210,723	740,784	-0,049	-0,094
-209,709	-4,789	0,059	-0,029
-208,694	-200,000	0,003	-0,194
-207,679	-147,967	0,150	0,009
-206,665	-200,000	0,007	0,069
-205,650	19,761	0,014	0,008
-204,636	716,876	-0,031	0,058
-203,621	-105,784	-0,211	0,034
-202,606	93,545	0,032	0,026
-201,592	-15,043	-0,094	-0,043
-200,577	84,948	0,061	-0,048
-199,563	257,005	0,075	0,092
-198,548	800,000	-0,022	-0,058
-197,533	-55,741	0,219	0,069
-196,519	156,628	0,079	0,077
-195,504	-200,000	0,097	0,000
-194,490	800,000	-0,016	-0,039
-193,475	359,327	0,020	-0,028
-192,460	617,186	0,040	-0,071
-191,446	-29,438	-0,098	0,039
-190,431	-100,401	0,021	0,004
-189,417	-200,000	-0,009	0,072
-188,402	800,000	-0,053	0,137
-187,387	602,466	-0,018	-0,031
-186,373	443,849	0,051	-0,080
-185,358	800,000	-0,044	-0,099
-184,344	-11,321	-0,015	0,007
-183,329	80,027	-0,023	0,018
-182,315	-200,000	-0,003	0,142
-181,300	33,002	-0,055	-0,034
-180,285	800,000	0,052	-0,129
-179,271	-145,622	-0,206	-0,013
-178,256	-175,430	0,031	0,001
-177,242	-200,000	0,007	0,113
-176,227	38,740	0,103	0,065
-175,212	-106,931	0,034	0,005
-174,198	447,476	-0,022	-0,035
-173,183	-200,000	-0,031	0,111
-172,169	53,513	-0,121	0,082
-171,154	-200,000	0,023	0,097
-170,139	800,000	0,023	0,067
-169,125	94,556	0,094	0,076
-168,110	-200,000	0,005	0,031
-167,096	800,000	-0,101	0,233
-166,081	-200,000	-0,009	0,044
-165,066	63,049	0,047	-0,033
-164,052	77,772	-0,033	-0,025
-163,037	800,000	-0,031	0,087
-162,023	-200,000	0,006	0,059
-161,008	800,000	0,014	-0,035
-159,993	-102,838	0,053	0,009
-158,979	79,289	-0,041	-0,031
-157,964	88,715	-0,188	0,148
-156,950	800,000	0,035	-0,068
-155,935	583,829	0,036	0,062
-154,920	407,252	0,034	0,051
-153,906	800,000	0,077	0,173
-152,891	-200,000	0,007	0,066
-151,877	800,000	-0,007	-0,014
-150,862	215,541	0,079	-0,088
-149,847	49,727	-0,083	-0,056
-148,833	-200,000	-0,017	0,072
-147,818	-99,368	0,045	-0,008
-146,804	800,000	0,022	0,048
-145,789	67,784	-0,112	0,081
-144,775	800,000	-0,021	-0,059
-143,760	22,638	-0,082	0,047
-142,745	-49,254	-0,061	-0,021
-141,731	51,001	0,084	0,056
-140,716	-58,834	-0,100	0,031
-139,702	746,670	-0,052	0,100
-138,687	800,000	-0,074	0,192
-137,672	-63,849	0,129	0,037
-136,658	800,000	-0,012	0,026
-135,643	-49,055	0,057	0,019
-134,629	-200,000	-0,032	0,110
-133,614	97,393	-0,059	0,048
-132,599	-200,000	-0,008	0,110
-131,585	-190,822	-0,050	0,000
-130,570	149,950	-0,028	-0,027
-129,556	21,186	-0,151	-0,086
-128,541	-49,142	-0,196	-0,066
-127,526	-124,453	0,076	0,008
-126,512	-200,000	-0,002	-0,027
-125,497	-125,733	0,298	0,031
-124,483	-56,589	-0,025	0,008
-123,468	800,000	-0,061	0,190
-122,453	-51,972	0,119	-0,039
-121,439	-86,129	-0,063	-0,014
-120,424	115,724	0,059	-0,051
-119,410	800,000	0,018	0,047
-118,395	154,218	0,044	0,043
-117,380	98,661	-0,067	-0,055
-116,366	-64,002	0,022	0,006
-115,351	-200,000	0,040	-0,177
-114,337	369,695	0,044	-0,064
-113,322	236,666	-0,061	-0,071
-112,307	85,155	0,010	0,008
-111,293	345,301	0,075	0,104
-110,278	-89,436	0,058	0,012
-109,264	-200,000	-0,008	-0,180
-108,249	43,156	-0,068	0,043
-107,234	-116,746	-0,089	-0,011
-106,220	-78,865	0,054	-0,013
-105,205	-79,733	-0,026	0,006
-104,191	204,389	-0,028	0,031
-103,176	-153,124	0,159	-0,008
-102,162	-200,000	-0,015	-0,099
-101,147	212,159	-0,077	-0,086
-100,132	-200,000	0,015	-0,073
-99,118	-200,000	-0,013	-0,141
-98,103	265,195	0,086	0,106
-97,089	-96,925	-0,075	0,014
-96,074	-200,000	-0,011	0,147
-95,059	-31,136	-0,122	0,048
-94,045	-200,000	-0,021	0,094
-93,030	-200,000	0,019	-0,153
-92,016	-137,672	0,045	0,004
-91,001	45,749	0,094	-0,061
-89,986	411,490	0,018	-0,028
-88,972	193,624	0,051	-0,054
-87,957	-200,000	-0,013	-0,058
-86,943	79,385	0,035	-0,027
-85,928	28,246	-0,103	-0,061
-84,913	59,460	-0,103	0,072
-83,899	61,100	0,091	0,064
-82,884	3,964	-0,158	0,081
-81,870	40,902	-0,110	0,070
-80,855	-200,000	0,001	-0,042
-79,840	458,417	-0,021	-0,034
-78,826	-200,000	-0,017	-0,084
-77,811	270,378	-0,106	-0,132
-76,797	-168,505	0,080	-0,002
-75,782	133,630	0,127	0,116
-74,767	800,000	-0,021	0,059
-73,753	581,262	-0,046	-0,080
-72,738	-200,000	-0,006	-0,052
-71,724	133,617	-0,078	-0,071
-70,709	579,020	0,058	-0,101
-69,694	2,528	0,062	0,032
-68,680	48,986	0,044	0,029
-67,665	-92,982	0,122	0,024
-66,651	42,269	0,188	-0,120
-65,636	104,672	0,065	0,054
-64,622	-200,000	0,023	-0,178
-63,607	218,211	-0,101	-0,114
-62,592	159,791	0,021	0,021
-61,578	-200,000	-0,014	0,065
-60,563	141,194	0,116	0,109
-59,549	113,000	-0,181	0,155
-58,534	52,624	-2,105	-1,417
-57,519	545,630	-1,112	-1,883
-56,505	-200,000	-0,260	-4,480
-55,490	663,996	0,976	1,785
-54,476	800,000	5,267	11,134
-53,461	-200,000	22,078	342,610
-52,446	800,000	756,403	2299,441
-51,432	536,452	1644,661	2765,097
-50,417	68,489	1642,591	1186,726
-49,403	15,981	1518,401	841,295
-48,388	10,145	1443,695	771,920
-47,373	19,122	1436,253	810,618
-46,359	13,601	1424,965	778,197
-45,344	8,454	1420,698	751,538
-44,330	8,364	1418,935	750,152
-43,315	8,351	1417,072	749,076
-42,300	8,378	1415,357	748,265
-41,286	8,404	1414,061	747,674
-40,271	8,381	1412,815	746,878
-39,257	8,408	1411,485	746,272
-38,242	8,399	1410,590	745,725
-37,227	8,376	1409,474	745,000
-36,213	8,414	1408,084	744,412
-35,198	8,408	1406,798	743,676
-34,184	8,414	1406,002	743,252
-33,169	8,287	1404,622	741,899
-32,154	8,368	1403,687	741,757
-31,140	8,329	1402,548	740,944
-30,125	8,396	1401,250	740,538
-29,111	8,350	1400,331	739,811
-28,096	8,345	1398,936	739,022
-27,082	8,311	1397,912	738,293
-26,067	8,307	1396,843	737,679
-25,052	8,348	1395,596	737,184
-24,038	8,348	1394,844	736,758
-23,023	8,285	1394,026	736,004
-22,009	8,321	1392,748	735,467
-20,994	8,286	1391,768	734,755
-19,979	8,329	1390,694	734,361
-18,965	8,260	1389,800	733,537
-17,950	8,240	1388,918	732,953
-16,936	8,304	1387,897	732,681
-15,921	8,249	1387,035	731,944
-14,906	8,237	1386,262	731,451
-13,892	8,292	1385,046	731,033
-12,877	8,235	1384,506	730,454
-11,863	8,247	1383,645	730,028
-10,848	8,193	1382,989	729,406
-9,833	8,184	1381,678	728,640
-8,819	8,135	1380,846	727,949
-7,804	8,114	1380,031	727,396
-6,790	8,165	1378,844	726,972
-5,775	8,130	1377,843	726,255
-4,760	8,143	1377,024	725,856
-3,746	8,182	1375,875	725,401
-2,731	8,172	1375,152	724,944
-1,717	8,190	1374,238	724,514
-0,702	8,160	1372,648	723,513
0,313	12,186	1284,185	695,093
1,327	28,189	677,495	402,376
2,342	43,770	116,561	75,095
3,356	-2,322	16,570	8,165
4,371	-1,953	3,835	1,894
5,386	-7,870	1,278	0,606
6,400	800,000	0,267	0,649
7,415	-109,344	-0,184	-0,027
8,429	71,015	-0,187	-0,136
9,444	26,964	-0,339	-0,200
10,459	68,939	-0,239	-0,173
11,473	-11,402	-0,321	-0,148
12,488	-20,425	-0,268	-0,116
13,502	42,572	-0,357	-0,228
14,517	78,315	-0,329	-0,247
15,531	137,877	-0,387	-0,357
16,546	159,624	-0,369	-0,362
17,561	70,961	-0,310	-0,226
18,575	222,969	-0,047	-0,053
19,590	561,843	-0,134	-0,228
20,604	26,321	-0,226	-0,133
21,619	102,296	-0,382	-0,314
22,634	-0,433	-0,387	-0,193
23,648	65,921	-0,357	-0,255
24,663	40,398	-0,334	-0,211
25,677	-29,238	-0,355	-0,143
26,692	11,745	-0,295	-0,159
27,707	87,206	-0,448	-0,348
28,721	29,393	-0,351	-0,209
29,736	40,223	-0,470	-0,297
30,750	99,357	-0,380	-0,309
31,765	-82,981	-0,383	-0,086
32,780	43,885	-0,283	-0,182
33,794	16,707	-0,281	-0,156
34,809	44,568	-0,413	-0,267
35,823	3,311	-0,339	-0,173
36,838	26,904	-0,428	-0,252
37,853	154,889	-0,290	-0,280
38,867	107,669	-0,380	-0,318
39,882	196,079	-0,212	-0,227
40,896	166,827	-0,192	-0,192
41,911	72,548	-0,315	-0,231
42,926	42,361	-0,328	-0,209
43,940	87,216	-0,372	-0,289
44,955	16,060	-0,386	-0,213
45,969	110,329	-0,370	-0,312
46,984	-45,837	-0,396	-0,137
47,999	70,296	-0,347	-0,251
49,013	800,000	-0,154	-0,303
50,028	75,627	-0,388	-0,287
51,042	145,874	-0,237	-0,223
52,057	34,299	-0,162	-0,099
53,071	-67,555	-0,245	-0,067
54,086	-66,621	-0,211	-0,058
55,101	-124,084	-0,438	-0,048
56,115	-37,063	-0,280	-0,105
57,130	107,967	-0,240	-0,201
58,144	13,606	-0,310	-0,168
59,159	-1,254	-0,552	-0,273
60,174	107,206	-0,375	-0,313
61,188	65,978	-0,281	-0,200
62,203	73,299	-0,246	-0,181
63,217	53,928	-0,315	-0,212
64,232	-42,187	-0,446	-0,159
65,247	-4,741	-0,350	-0,169
66,261	391,366	-0,250	-0,365
67,276	98,610	-0,486	-0,393
68,290	10,538	-0,296	-0,158
69,305	-38,405	-0,389	-0,143
70,320	109,934	-0,193	-0,162
71,334	-106,986	-0,342	-0,052
72,349	37,042	-0,356	-0,220
73,363	162,120	-0,260	-0,255
74,378	77,012	-0,285	-0,212
75,393	800,000	-0,097	-0,232
76,407	21,374	-0,300	-0,170
77,422	272,979	-0,157	-0,194
78,436	-21,841	-0,359	-0,152
79,451	92,170	-0,264	-0,208
80,466	243,279	-0,221	-0,260
81,480	37,904	-0,320	-0,199
82,495	5,493	-0,257	-0,132
83,509	186,505	-0,222	-0,232
84,524	15,741	-0,260	-0,143
85,539	0,924	-0,247	-0,123
86,553	2,702	-0,253	-0,128
87,568	34,351	-0,323	-0,197
88,582	46,880	-0,312	-0,203
89,597	-42,553	-0,294	-0,104
90,611	-123,249	-0,234	0,026
91,626	-122,811	-0,247	-0,028
92,641	-34,261	-0,291	0,111
93,655	-80,512	-0,368	-0,085
94,670	189,885	-0,137	-0,144
95,684	80,493	-0,379	-0,285
96,699	56,267	-0,399	-0,270
97,714	8,005	-0,339	-0,177
98,728	65,486	-0,139	-0,098
99,743	-57,328	-0,211	-0,065
100,757	-24,841	-0,328	-0,136
101,772	122,335	-0,243	-0,212
102,787	2,553	-0,364	-0,184
103,801	-124,140	-0,156	-0,017
104,816	29,048	-0,229	-0,135
105,830	199,890	-0,118	-0,127
106,845	-87,398	-0,378	-0,079
107,860	58,953	-0,304	-0,209
108,874	205,730	-0,279	-0,304
109,889	72,522	-0,322	-0,234
110,903	46,058	-0,288	-0,186
111,918	-57,309	-0,250	-0,076
112,933	-36,829	-0,168	-0,063
113,947	-36,293	-0,337	-0,126
114,962	70,615	-0,188	-0,136
115,976	22,222	-0,200	-0,114
116,991	16,474	-0,266	-0,146
118,006	110,483	-0,274	-0,230
119,020	-26,813	-0,203	-0,083
120,035	158,543	-0,216	-0,209
121,049	67,168	-0,206	-0,146
122,064	192,653	-0,134	-0,141
123,079	800,000	-0,078	-0,215
124,093	43,265	-0,394	-0,250
125,108	100,878	-0,277	-0,225
126,122	123,626	-0,279	-0,244
127,137	93,255	-0,285	-0,225
128,151	86,023	-0,115	-0,088
129,166	82,112	-0,269	-0,203
130,181	207,243	-0,168	-0,183
131,195	52,125	-0,211	-0,140
132,210	7,559	-0,299	-0,156
133,224	-8,648	-0,355	-0,165
134,239	179,234	-0,239	-0,244
135,254	264,121	-0,234	-0,284
136,268	82,666	-0,243	-0,184
137,283	148,635	-0,184	-0,174
138,297	103,995	-0,253	-0,207
139,312	139,793	-0,353	-0,324
140,327	451,208	-0,071	-0,109
141,341	80,809	-0,274	-0,205
142,356	-71,085	-0,286	-0,074
143,370	488,112	-0,141	-0,226
144,385	70,564	-0,249	-0,179
145,400	675,294	-0,098	-0,177
146,414	-76,461	-0,307	-0,074
147,429	49,434	-0,296	-0,193
148,443	-105,233	-0,285	-0,045
149,458	3,054	-0,212	-0,107
150,473	-200,000	-0,015	-0,116
151,487	194,627	-0,205	-0,216
152,502	248,849	-0,217	-0,256
153,516	-186,782	-0,146	0,001
154,531	41,822	-0,211	-0,133
155,546	-137,874	-0,247	-0,019
156,560	551,362	-0,078	-0,131
157,575	-92,725	-0,225	-0,043
158,589	-9,037	-0,265	-0,123
159,604	295,567	-0,177	-0,226
160,619	86,305	-0,312	-0,239
161,633	-26,898	-0,273	-0,110
162,648	12,982	-0,228	-0,122
163,662	-186,052	-0,197	-0,002
164,677	188,956	-0,169	-0,176
165,692	126,730	-0,164	-0,144
166,706	149,377	-0,225	-0,212
167,721	411,555	-0,166	-0,245
168,735	70,145	-0,223	-0,160
169,750	28,176	-0,234	-0,137
170,764	184,979	-0,099	-0,102
171,779	-59,486	-0,126	-0,037
172,794	-66,095	-0,203	0,056
173,808	-41,469	-0,162	-0,058
174,823	94,746	-0,269	-0,212
175,837	-111,259	-0,283	0,040
176,852	258,110	-0,217	-0,260
177,867	243,288	-0,139	-0,162
178,881	213,908	-0,132	-0,146
179,896	29,790	-0,121	-0,071
180,910	282,429	-0,131	-0,163
181,925	-49,395	-0,120	-0,040
182,940	252,972	-0,155	-0,184
183,954	233,844	-0,161	-0,184
184,969	-76,407	-0,190	0,046
185,983	-105,300	-0,211	-0,033
186,998	137,010	-0,091	-0,083
188,013	23,761	-0,248	-0,141
189,027	5,777	-0,240	-0,123
190,042	36,142	-0,231	-0,141
191,056	258,866	-0,245	-0,294
192,071	800,000	-0,108	-0,223
193,086	69,865	-0,129	-0,092
194,100	27,814	-0,130	-0,076
195,115	202,851	-0,158	-0,169
196,129	221,749	-0,093	-0,104
197,144	95,618	-0,257	-0,203
198,159	-7,892	-0,159	-0,074
199,173	-135,344	-0,236	-0,019
200,188	273,735	-0,102	-0,125
201,202	-39,411	-0,156	-0,056
202,217	-20,216	-0,188	-0,080
203,232	40,764	-0,223	-0,139
204,246	74,826	-0,277	-0,202
205,261	168,265	-0,164	-0,162
206,275	-36,508	-0,167	-0,062
207,290	128,739	-0,098	-0,087
208,304	549,766	-0,069	-0,115
209,319	-117,149	-0,270	-0,034
210,334	-163,733	-0,258	-0,008
211,348	-161,641	-0,219	0,008
212,363	34,232	-0,241	-0,145
213,377	32,038	-0,190	-0,113
214,392	50,758	-0,260	-0,170
215,407	-42,476	-0,101	-0,035
216,421	276,423	-0,137	-0,169
217,436	331,465	-0,078	-0,104
218,450	800,000	-0,091	-0,248
219,465	53,803	-0,181	-0,120
220,480	800,000	-0,048	-0,093
221,494	-68,150	-0,250	-0,067
222,509	104,254	-0,047	0,038
223,523	605,042	-0,113	-0,196
224,538	-21,717	-0,277	-0,116
225,553	-16,559	-0,271	-0,118
226,567	275,681	-0,173	-0,213
227,582	68,682	-0,237	-0,168
228,596	-65,650	-0,136	-0,037
229,611	-200,000	-0,051	-0,167
230,626	-76,677	-0,281	-0,068
231,640	61,922	-0,237	-0,163
232,655	-14,991	-0,213	-0,094
233,669	57,846	-0,094	-0,063
234,684	40,457	-0,190	-0,118
235,699	-60,776	-0,157	-0,046
236,713	-67,853	-0,197	-0,053
237,728	-62,247	-0,248	-0,071
238,742	-86,857	-0,166	-0,035
239,757	153,447	-0,160	-0,151
240,772	-35,653	-0,192	-0,071
241,786	206,824	-0,272	-0,293
242,801	-15,606	-0,339	-0,149
243,815	210,413	-0,131	-0,142
244,830	198,204	-0,109	-0,116
245,844	81,660	-0,144	-0,107
246,859	64,747	-0,215	-0,149
247,874	166,327	-0,155	-0,151
248,888	-200,000	-0,015	-0,114
249,903	18,607	-0,122	-0,067
250,917	-200,000	-0,067	-0,217
251,932	4,785	-0,068	-0,034
252,947	-4,084	-0,065	-0,031
253,961	94,369	-0,307	-0,240
254,976	90,003	-0,229	-0,176
255,990	233,721	-0,155	-0,176
257,005	57,874	-0,176	-0,119
258,020	155,997	-0,253	-0,241
259,034	520,066	-0,124	-0,201
260,049	48,241	-0,178	-0,114
261,063	62,685	-0,175	-0,120
262,078	28,488	-0,191	-0,111
263,093	-97,314	-0,239	-0,042
264,107	192,714	-0,135	-0,141
265,122	50,478	-0,189	-0,123
266,136	178,419	-0,134	-0,135
267,151	7,090	-0,249	-0,128
268,166	251,455	-0,190	-0,223
269,180	276,715	-0,152	-0,186
270,195	54,127	-0,220	-0,145
271,209	-0,551	-0,116	-0,056
272,224	126,311	-0,163	-0,142
273,239	-200,000	-0,014	-0,158
274,253	120,151	-0,164	-0,140
275,268	-71,054	-0,230	-0,059
276,282	-160,396	-0,171	-0,006
277,297	69,841	-0,135	-0,096
278,312	61,637	-0,133	-0,091
279,326	108,660	-0,136	-0,112
280,341	800,000	-0,064	-0,167
281,355	189,411	-0,080	-0,082
282,370	134,336	-0,161	0,143
283,384	-68,287	-0,192	0,051
284,399	-0,293	-0,276	-0,135
285,414	30,437	-0,268	-0,157
286,428	276,694	-0,125	-0,153
287,443	173,235	-0,177	-0,176
288,457	27,197	-0,131	-0,075
289,472	208,997	-0,075	-0,081
290,487	79,652	-0,208	-0,154
291,501	382,827	-0,185	-0,263
292,516	-48,076	-0,218	-0,072
293,530	-128,409	-0,214	-0,021
294,545	-63,225	-0,164	0,046
295,560	-200,000	0,014	-0,155
296,574	-109,366	-0,132	-0,019
297,589	298,221	-0,086	-0,109
298,603	59,412	-0,186	-0,126
299,618	-124,872	-0,167	0,017
300,633	-159,850	-0,211	0,008
301,647	-42,130	-0,182	-0,064
302,662	800,000	-0,063	-0,139
303,676	2,234	-0,172	0,085
304,691	-200,000	-0,045	-0,195
305,706	-148,019	-0,131	0,007
306,720	-160,335	-0,242	0,009
307,735	-34,939	-0,177	0,066
308,749	131,854	-0,153	-0,135
309,764	287,603	-0,066	0,082
310,779	-105,034	-0,146	-0,023
311,793	52,902	-0,310	-0,203
312,808	800,000	-0,094	-0,197
313,822	146,742	-0,206	-0,190
314,837	34,602	-0,081	-0,048
315,852	74,503	-0,234	-0,169
316,866	-125,883	-0,195	0,020
317,881	800,000	-0,050	0,114
318,895	-200,000	-0,022	-0,080
319,910	254,798	-0,142	-0,167
320,925	-114,505	-0,181	-0,024
321,939	-172,335	-0,283	-0,006
322,954	89,285	-0,145	-0,110
323,968	21,383	-0,132	-0,073
324,983	15,134	-0,093	0,050
325,997	-106,345	-0,154	0,023
327,012	-144,617	-0,251	-0,016
328,027	-129,541	-0,210	0,020
329,041	350,659	-0,127	-0,172
330,056	436,015	-0,053	0,079
331,070	-200,000	-0,025	-0,158
332,085	186,291	-0,041	0,042
333,100	-18,305	-0,109	-0,046
334,114	-95,112	-0,168	-0,031
335,129	18,008	-0,163	-0,089
336,143	-19,611	-0,231	-0,098
337,158	37,041	-0,218	-0,132
338,173	-120,294	-0,110	-0,013
339,187	-200,000	0,004	0,014
340,202	-200,000	0,001	-0,020
341,216	800,000	-0,091	-0,199
342,231	47,493	-0,217	-0,138
343,246	-97,814	-0,201	0,035
344,260	302,857	-0,133	-0,169
345,275	-91,668	-0,111	-0,021
346,289	-120,003	-0,114	-0,013
347,304	227,200	-0,076	-0,084
348,319	103,355	-0,207	-0,166
349,333	-139,836	-0,104	-0,007
350,348	-75,815	-0,171	-0,041
351,362	167,086	-0,046	-0,045
352,377	-200,000	-0,016	-0,075
353,392	-200,000	-0,013	-0,085
354,406	-82,208	-0,120	0,026
355,421	208,967	1304,761	1397,975
356,435	160,818	1464,222	1398,442
