DTS Sentinel unit serial number:	SN410029Multiplexer serial number:	ORYXHardware model number:	OX2-SRSoftware version number:	ORYX F/W v4,00 Oryx Data Collector v3.7.2.0data status	okinstallation	B3 Nyhavnadifferential loss correction	single-endedforward channel	channel 1reverse channel	N/Adate	2023/12/01time	14:37:30forward acquisition time	300,00reverse acquisition time	0,00gamma	499,1914k internal	0,3213k external	0,3213temperature offset calibration	1,0000default loss term (dB/km)	0,3820temperature slope calibration	1,0000multiplexer offset coefficient	1,0000multiplexer slope coefficient	1,0000fibre end	0,00T internal ref (°C)	10,93T ext. ref 1 (°C)	-2,45T ext. ref 2 (°C)	-2,52length (m)	temperature (°C)	Stokes	anti-Stokes-744,400	139,591	-0,230	-0,220
-743,385	800,000	-0,099	0,231
-742,371	-200,000	-0,043	-0,314
-741,356	-200,000	0,056	0,334
-740,342	-134,052	-0,207	0,018
-739,327	-200,000	0,007	0,376
-738,312	11,852	-0,307	-0,170
-737,298	800,000	-0,106	0,260
-736,283	147,972	-0,163	-0,159
-735,269	-200,000	-0,012	0,369
-734,254	535,194	-0,114	-0,197
-733,239	2,750	-0,132	0,069
-732,225	-200,000	-0,076	-0,328
-731,210	-169,256	0,146	0,004
-730,196	800,000	-0,060	-0,141
-729,181	-200,000	0,012	-0,080
-728,167	-82,733	0,110	-0,026
-727,152	-76,822	-0,203	-0,051
-726,137	800,000	0,045	0,102
-725,123	-40,248	0,038	0,014
-724,108	-65,458	-0,061	0,018
-723,094	141,336	-0,103	-0,099
-722,079	183,264	0,068	-0,072
-721,064	-200,000	0,009	0,096
-720,050	-80,134	-0,142	-0,034
-719,035	373,540	-0,060	-0,089
-718,021	-200,000	-0,008	-0,101
-717,006	46,315	-0,030	0,020
-715,991	-200,000	-0,045	-0,155
-714,977	96,311	-0,119	-0,098
-713,962	337,178	0,114	-0,161
-712,948	-52,973	-0,148	0,049
-711,933	102,181	-0,058	0,049
-710,918	100,212	-0,036	-0,030
-709,904	800,000	0,048	0,118
-708,889	166,997	-0,088	-0,090
-707,875	37,147	0,042	0,027
-706,860	800,000	-0,013	-0,030
-705,845	-200,000	0,174	-0,000
-704,831	259,352	0,043	-0,054
-703,816	-68,372	0,170	0,047
-702,802	-138,571	-0,194	-0,015
-701,787	447,397	-0,065	0,103
-700,772	-200,000	-0,023	-0,110
-699,758	800,000	-0,022	-0,052
-698,743	-200,000	0,017	0,061
-697,729	800,000	0,059	0,141
-696,714	-10,681	0,037	-0,018
-695,699	71,975	-0,085	0,064
-694,685	53,987	-0,139	0,097
-693,670	-41,105	-0,074	-0,027
-692,656	683,660	-0,032	-0,061
-691,641	113,426	-0,061	0,054
-690,627	57,932	-0,075	0,053
-689,612	-200,000	-0,011	0,073
-688,597	458,036	-0,062	0,100
-687,583	620,925	0,047	-0,086
-686,568	-113,739	-0,124	-0,017
-685,554	83,952	-0,044	-0,035
-684,539	-17,448	0,075	0,034
-683,524	-32,471	0,017	0,007
-682,510	129,677	0,042	0,039
-681,495	104,725	-0,098	-0,084
-680,481	-200,000	0,022	-0,174
-679,466	-54,527	0,078	-0,025
-678,451	800,000	-0,033	-0,080
-677,437	-128,022	0,066	-0,007
-676,422	510,798	-0,037	0,063
-675,408	-18,098	-0,063	-0,028
-674,393	-200,000	-0,003	0,158
-673,378	71,233	-0,110	-0,082
-672,364	-200,000	-0,001	-0,066
-671,349	800,000	0,048	-0,100
-670,335	-12,775	-0,066	-0,031
-669,320	-125,997	0,083	0,009
-668,305	135,697	-0,105	0,099
-667,291	-16,199	0,160	0,073
-666,276	60,055	0,059	-0,042
-665,262	96,612	-0,085	-0,071
-664,247	-165,436	-0,068	-0,002
-663,232	774,186	-0,070	0,138
-662,218	154,224	0,073	-0,072
-661,203	-200,000	-0,005	0,077
-660,189	-77,810	0,024	0,006
-659,174	509,064	-0,085	-0,143
-658,159	220,571	0,070	-0,081
-657,145	25,005	-0,124	-0,074
-656,130	212,925	-0,112	-0,128
-655,116	-200,000	-0,003	0,065
-654,101	351,672	0,062	-0,088
-653,086	-24,899	-0,091	0,039
-652,072	800,000	0,060	-0,128
-651,057	-88,410	-0,065	-0,014
-650,043	52,529	0,024	0,016
-649,028	800,000	-0,009	0,025
-648,014	199,072	0,090	0,099
-646,999	41,482	0,074	0,048
-645,984	-128,476	-0,136	-0,014
-644,970	66,982	-0,072	-0,053
-643,955	-99,972	-0,120	-0,021
-642,941	51,066	-0,053	0,036
-641,926	121,233	-0,139	-0,125
-640,911	567,577	-0,053	0,093
-639,897	39,257	-0,068	0,044
-638,882	-74,755	-0,058	0,015
-637,868	-130,282	-0,053	-0,005
-636,853	-105,919	-0,148	-0,024
-635,838	181,133	-0,097	-0,103
-634,824	800,000	-0,044	0,132
-633,809	210,826	-0,038	0,043
-632,795	559,278	0,071	0,124
-631,780	-189,020	0,096	-0,001
-630,765	-47,714	-0,097	0,034
-629,751	-80,180	-0,070	0,017
-628,736	22,021	-0,128	-0,075
-627,722	-92,390	0,041	0,008
-626,707	433,240	-0,060	-0,094
-625,692	800,000	0,019	0,053
-624,678	73,273	0,132	0,099
-623,663	-200,000	0,017	0,165
-622,649	-200,000	-0,051	0,178
-621,634	-89,718	0,106	0,022
-620,619	800,000	-0,046	-0,135
-619,605	-200,000	0,002	0,033
-618,590	93,771	0,039	0,032
-617,576	2,120	0,140	-0,073
-616,561	-80,166	-0,094	0,023
-615,546	-28,430	-0,061	-0,025
-614,532	243,732	-0,058	-0,070
-613,517	-200,000	-0,020	-0,112
-612,503	311,570	-0,014	-0,019
-611,488	189,386	0,007	0,008
-610,474	-35,278	0,119	-0,046
-609,459	639,669	-0,034	0,062
-608,444	-104,965	-0,056	0,009
-607,430	293,139	-0,047	0,062
-606,415	-200,000	-0,005	-0,027
-605,401	522,358	-0,061	-0,104
-604,386	-200,000	-0,012	0,073
-603,371	164,443	-0,049	0,050
-602,357	-97,791	-0,077	0,014
-601,342	-15,786	-0,097	0,045
-600,328	-183,538	-0,051	-0,001
-599,313	800,000	-0,022	0,050
-598,298	-200,000	-0,018	0,160
-597,284	800,000	-0,028	0,059
-596,269	-27,173	0,015	-0,006
-595,255	-105,316	0,022	-0,004
-594,240	800,000	0,040	-0,098
-593,225	-92,426	-0,215	0,043
-592,211	60,872	-0,028	-0,020
-591,196	-200,000	0,025	-0,113
-590,182	270,725	0,050	0,064
-589,167	-141,207	-0,062	-0,004
-588,152	-59,835	-0,042	0,013
-587,138	-91,822	0,084	0,017
-586,123	32,338	-0,079	-0,049
-585,109	-146,688	-0,145	0,009
-584,094	279,223	-0,049	0,064
-583,079	-148,747	0,102	-0,006
-582,065	-108,497	0,104	0,016
-581,050	800,000	-0,011	0,027
-580,036	214,947	-0,074	0,085
-579,021	558,718	0,018	0,031
-578,006	-200,000	0,004	-0,042
-576,992	-50,742	0,055	0,019
-575,977	-200,000	-0,017	0,092
-574,963	200,581	-0,080	0,088
-573,948	-55,099	-0,072	0,023
-572,934	261,920	-0,085	-0,107
-571,919	253,914	0,065	-0,080
-570,904	-200,000	-0,024	-0,092
-569,890	64,670	-0,105	0,076
-568,875	-200,000	0,000	0,054
-567,861	132,291	-0,079	0,074
-566,846	-200,000	0,000	0,070
-565,831	359,607	-0,023	-0,034
-564,817	-200,000	0,011	-0,065
-563,802	265,953	0,054	-0,067
-562,788	800,000	0,025	0,073
-561,773	5,750	0,019	-0,010
-560,758	584,211	0,098	-0,173
-559,744	-146,614	-0,180	-0,011
-558,729	40,136	0,056	0,036
-557,715	800,000	0,065	-0,136
-556,700	779,327	-0,038	-0,075
-555,685	60,854	-0,164	-0,117
-554,671	56,200	0,157	-0,109
-553,656	231,446	0,060	0,071
-552,642	-200,000	-0,009	-0,030
-551,627	-1,381	0,259	0,131
-550,612	-200,000	0,020	0,098
-549,598	800,000	-0,038	0,103
-548,583	23,400	-0,053	-0,031
-547,569	69,015	0,072	0,053
-546,554	224,756	0,067	0,078
-545,539	413,972	-0,041	0,063
-544,525	20,685	0,144	-0,084
-543,510	133,936	0,124	-0,115
-542,496	559,653	-0,090	-0,157
-541,481	-96,986	-0,074	0,014
-540,466	-90,009	-0,133	-0,028
-539,452	-62,864	0,155	0,046
-538,437	-62,645	-0,103	0,031
-537,423	-200,000	-0,001	0,063
-536,408	-200,000	0,011	0,062
-535,393	627,354	0,059	-0,107
-534,379	403,481	-0,041	-0,063
-533,364	239,003	-0,032	0,038
-532,350	-200,000	0,006	-0,023
-531,335	-200,000	0,032	-0,105
-530,321	126,021	-0,083	-0,075
-529,306	192,381	-0,114	0,124
-528,291	-200,000	0,006	-0,059
-527,277	70,906	-0,081	0,060
-526,262	-200,000	0,011	-0,047
-525,248	800,000	0,032	0,078
-524,233	-200,000	0,013	-0,063
-523,218	-98,814	0,151	0,027
-522,204	-200,000	0,016	-0,098
-521,189	-200,000	-0,058	-0,198
-520,175	341,530	-0,072	-0,102
-519,160	-32,560	0,062	0,025
-518,145	7,530	0,044	0,023
-517,131	-87,797	-0,074	-0,016
-516,116	68,491	0,081	-0,059
-515,102	-200,000	0,008	-0,062
-514,087	429,630	-0,060	-0,094
-513,072	368,673	-0,070	0,102
-512,058	695,016	0,053	0,101
-511,043	-64,711	-0,115	0,033
-510,029	-161,892	0,104	-0,004
-509,014	274,845	-0,056	-0,072
-507,999	-107,193	-0,030	-0,005
-506,985	198,082	-0,103	0,114
-505,970	-200,000	-0,018	0,083
-504,956	800,000	0,036	-0,089
-503,941	340,556	-0,068	0,096
-502,926	124,896	0,031	-0,028
-501,912	-49,624	-0,100	-0,034
-500,897	197,707	0,049	-0,054
-499,883	-200,000	0,002	0,045
-498,868	142,504	0,058	0,055
-497,853	111,426	-0,116	-0,101
-496,839	-152,757	0,090	-0,005
-495,824	-2,151	0,147	0,074
-494,810	-39,853	-0,046	0,017
-493,795	800,000	0,019	-0,042
-492,781	19,118	0,076	-0,043
-491,766	505,600	0,054	0,090
-490,751	-5,387	-0,092	-0,045
-489,737	12,209	0,176	-0,097
-488,722	-80,955	0,096	0,023
-487,708	800,000	-0,043	0,089
-486,693	-200,000	-0,024	0,084
-485,678	800,000	0,013	-0,032
-484,664	-200,000	0,002	-0,134
-483,649	-200,000	0,001	0,037
-482,635	731,628	0,030	-0,057
-481,620	342,066	0,112	0,158
-480,605	-129,318	0,138	-0,014
-479,591	-90,329	0,096	-0,020
-478,576	110,275	0,049	0,042
-477,562	800,000	0,007	-0,020
-476,547	-104,484	0,038	0,006
-475,532	520,670	0,073	-0,122
-474,518	71,680	0,054	-0,040
-473,503	800,000	0,041	0,124
-472,489	-104,446	-0,078	0,013
-471,474	1,120	0,122	-0,062
-470,459	87,064	0,156	-0,123
-469,445	-35,882	-0,114	0,044
-468,430	149,194	-0,060	0,058
-467,416	352,226	0,060	0,085
-466,401	-47,586	-0,015	0,005
-465,386	800,000	0,010	0,020
-464,372	-200,000	0,010	0,043
-463,357	-200,000	-0,009	0,041
-462,343	303,636	0,053	-0,071
-461,328	-200,000	0,009	0,137
-460,313	800,000	0,045	0,134
-459,299	-110,464	0,016	0,002
-458,284	-49,216	0,074	0,025
-457,270	165,869	-0,041	0,042
-456,255	-102,918	-0,082	-0,014
-455,241	110,831	0,059	0,051
-454,226	-94,239	-0,140	-0,027
-453,211	-164,159	0,042	0,001
-452,197	800,000	0,036	0,087
-451,182	93,348	-0,030	-0,024
-450,168	7,160	0,079	-0,042
-449,153	-138,534	0,061	-0,005
-448,138	460,394	-0,044	0,071
-447,124	218,806	0,118	-0,136
-446,109	143,524	-0,080	-0,077
-445,095	-18,963	0,090	-0,040
-444,080	296,304	0,049	-0,064
-443,065	800,000	0,021	0,046
-442,051	395,653	0,037	-0,055
-441,036	-165,936	-0,052	-0,002
-440,022	251,655	-0,055	-0,067
-439,007	800,000	0,014	-0,037
-437,992	263,646	0,036	0,045
-436,978	-200,000	0,010	0,112
-435,963	54,015	0,013	-0,009
-434,949	-66,392	-0,047	0,013
-433,934	747,995	-0,057	-0,111
-432,919	-200,000	0,021	-0,073
-431,905	-200,000	-0,027	0,090
-430,890	800,000	0,037	0,086
-429,876	800,000	-0,022	0,055
-428,861	-200,000	-0,003	-0,035
-427,846	-127,515	0,012	0,001
-426,832	-200,000	-0,012	0,102
-425,817	-117,506	0,109	-0,014
-424,803	-200,000	-0,053	-0,202
-423,788	-26,328	-0,147	-0,062
-422,773	15,121	0,153	0,086
-421,759	206,309	-0,025	-0,028
-420,744	235,780	0,069	-0,081
-419,730	288,795	-0,023	-0,030
-418,715	80,697	0,070	-0,054
-417,701	-200,000	0,003	0,048
-416,686	58,791	-0,082	0,058
-415,671	-200,000	0,004	-0,017
-414,657	375,620	0,071	0,103
-413,642	17,813	-0,106	-0,060
-412,628	-200,000	0,003	-0,025
-411,613	208,782	0,098	-0,109
-410,598	165,588	0,084	-0,085
-409,584	-11,088	0,134	0,063
-408,569	800,000	0,053	0,109
-407,555	-63,684	0,156	0,045
-406,540	-200,000	-0,018	0,057
-405,525	7,635	-0,069	-0,037
-404,511	800,000	-0,041	-0,106
-403,496	800,000	-0,060	-0,125
-402,482	-200,000	-0,013	-0,128
-401,467	120,034	-0,046	-0,041
-400,452	659,483	0,058	-0,107
-399,438	88,322	0,173	0,138
-398,423	-4,759	0,057	0,028
-397,409	255,376	-0,083	-0,101
-396,394	24,392	-0,095	-0,056
-395,379	-13,700	0,081	0,037
-394,365	300,933	-0,028	0,037
-393,350	-111,757	0,098	0,014
-392,336	-200,000	-0,003	0,076
-391,321	800,000	0,023	-0,069
-390,306	-33,778	-0,085	-0,033
-389,292	779,058	-0,046	-0,090
-388,277	-200,000	0,002	0,058
-387,263	-48,718	0,080	0,027
-386,248	132,711	-0,103	0,095
-385,233	740,283	0,064	-0,124
-384,219	-155,719	0,023	0,001
-383,204	-74,701	-0,180	-0,046
-382,190	250,176	-0,096	-0,116
-381,175	-200,000	-0,001	0,055
-380,160	427,317	0,034	0,053
-379,146	-200,000	-0,025	0,116
-378,131	800,000	-0,042	0,123
-377,117	-200,000	-0,004	0,180
-376,102	19,407	-0,086	0,049
-375,088	613,228	0,072	-0,130
-374,073	800,000	-0,037	-0,108
-373,058	45,949	0,061	-0,040
-372,044	-43,940	0,084	0,030
-371,029	-143,718	0,138	0,009
-370,015	-28,537	0,030	-0,012
-369,000	-104,049	-0,077	-0,013
-367,985	-200,000	-0,015	-0,092
-366,971	-19,773	0,080	-0,035
-365,956	-49,487	0,205	-0,069
-364,942	-200,000	0,048	0,183
-363,927	115,825	0,048	-0,042
-362,912	157,591	-0,079	-0,078
-361,898	93,837	-0,109	-0,088
-360,883	58,264	-0,048	0,033
-359,869	-200,000	-0,002	-0,152
-358,854	-87,898	-0,053	-0,011
-357,839	-200,000	-0,048	0,192
-356,825	-46,497	-0,044	0,015
-355,810	366,304	-0,015	-0,022
-354,796	105,388	0,034	0,029
-353,781	129,655	-0,078	-0,071
-352,766	121,730	-0,098	0,088
-351,752	-147,912	-0,137	0,008
-350,737	-76,666	-0,037	0,009
-349,723	56,261	0,089	0,062
-348,708	171,990	-0,037	-0,038
-347,693	-123,849	0,049	-0,005
-346,679	-114,936	-0,113	-0,015
-345,664	24,448	-0,084	0,049
-344,650	-137,858	0,097	-0,008
-343,635	-200,000	0,007	0,060
-342,620	-200,000	-0,007	0,062
-341,606	47,560	0,093	0,062
-340,591	-100,104	-0,076	0,013
-339,577	-117,558	-0,066	-0,008
-338,562	-200,000	0,029	-0,093
-337,548	-200,000	0,003	0,112
-336,533	-61,589	0,088	0,026
-335,518	466,105	0,031	-0,050
-334,504	4,587	0,065	0,034
-333,489	-128,273	-0,169	0,017
-332,475	800,000	-0,050	-0,102
-331,460	-200,000	-0,007	-0,095
-330,445	-200,000	-0,004	-0,027
-329,431	319,114	0,055	0,074
-328,416	167,228	-0,047	0,047
-327,402	410,487	0,035	0,053
-326,387	-77,285	-0,023	0,006
-325,372	-40,232	-0,086	-0,032
-324,358	800,000	-0,051	-0,129
-323,343	166,193	-0,122	0,123
-322,329	10,100	-0,024	0,013
-321,314	561,506	0,048	0,082
-320,299	312,669	-0,023	0,030
-319,285	368,827	-0,098	0,142
-318,270	15,110	0,066	0,037
-317,256	79,929	0,044	-0,034
-316,241	-200,000	0,012	-0,061
-315,226	-117,094	0,095	-0,012
-314,212	-102,734	0,071	-0,012
-313,197	-200,000	-0,008	0,048
-312,183	182,581	0,029	0,030
-311,168	122,203	-0,014	0,013
-310,153	-95,149	0,126	-0,024
-309,139	-200,000	-0,041	0,213
-308,124	800,000	-0,038	0,083
-307,110	-200,000	0,012	0,098
-306,095	90,872	-0,032	0,026
-305,080	-76,256	-0,094	-0,023
-304,066	192,340	-0,052	0,056
-303,051	41,420	-0,102	-0,065
-302,037	-16,317	0,028	-0,013
-301,022	-143,967	-0,156	-0,010
-300,008	-55,029	0,145	0,046
-298,993	-13,016	0,057	-0,027
-297,978	385,064	0,127	0,187
-296,964	-200,000	0,008	-0,068
-295,949	-200,000	0,020	-0,161
-294,935	410,408	-0,091	-0,138
-293,920	19,861	-0,092	-0,053
-292,905	13,871	0,101	-0,056
-291,891	-14,369	-0,034	-0,016
-290,876	32,315	0,054	-0,033
-289,862	-112,172	-0,080	0,011
-288,847	-92,767	-0,079	-0,016
-287,832	-178,460	-0,123	0,002
-286,818	-124,152	0,049	0,005
-285,803	58,651	0,128	0,089
-284,789	94,119	0,197	0,159
-283,774	800,000	0,062	0,137
-282,759	-112,831	0,107	-0,015
-281,745	-200,000	-0,007	-0,057
-280,730	800,000	-0,033	-0,070
-279,716	47,179	0,098	-0,065
-278,701	606,594	-0,014	-0,026
-277,686	-200,000	0,032	0,130
-276,672	-200,000	0,008	0,094
-275,657	800,000	-0,052	0,134
-274,643	359,162	0,024	0,034
-273,628	-200,000	0,027	-0,096
-272,613	-200,000	0,029	-0,145
-271,599	63,486	-0,042	0,030
-270,584	800,000	0,009	-0,019
-269,570	509,219	-0,101	-0,167
-268,555	-18,080	0,100	-0,044
-267,540	-200,000	-0,013	0,137
-266,526	-200,000	0,002	-0,127
-265,511	800,000	0,024	-0,056
-264,497	336,068	-0,089	0,122
-263,482	50,373	-0,064	-0,043
-262,467	70,803	0,121	-0,089
-261,453	-102,713	0,151	-0,025
-260,438	-77,247	-0,158	-0,039
-259,424	255,269	0,077	-0,094
-258,409	661,666	-0,026	0,048
-257,395	-200,000	0,015	-0,119
-256,380	-200,000	-0,018	0,149
-255,365	530,394	0,035	0,059
-254,351	800,000	-0,047	0,117
-253,336	9,473	-0,049	0,026
-252,322	-9,483	-0,169	-0,080
-251,307	800,000	-0,055	-0,156
-250,292	211,340	0,108	0,121
-249,278	31,842	0,088	0,054
-248,263	-200,000	-0,009	0,035
-247,249	-200,000	0,005	0,105
-246,234	488,953	-0,015	0,024
-245,219	-127,714	-0,060	0,006
-244,205	-85,543	-0,180	0,039
-243,190	-115,354	-0,065	0,009
-242,176	-112,182	0,150	-0,021
-241,161	-147,097	-0,092	-0,005
-240,146	149,347	0,099	0,096
-239,132	1,538	-0,163	0,083
-238,117	-77,304	-0,089	-0,022
-237,103	800,000	0,024	-0,060
-236,088	742,424	0,060	0,116
-235,073	-187,295	0,084	0,001
-234,059	33,044	-0,109	0,067
-233,044	-13,203	0,085	0,039
-232,030	800,000	-0,047	-0,122
-231,015	800,000	-0,024	0,071
-230,000	-200,000	0,006	-0,069
-228,986	800,000	0,023	-0,070
-227,971	-55,545	0,115	0,036
-226,957	152,397	0,071	-0,069
-225,942	162,726	-0,017	0,017
-224,927	-1,464	0,180	0,090
-223,913	248,178	-0,101	-0,121
-222,898	800,000	0,059	-0,123
-221,884	206,127	0,084	-0,093
-220,869	158,186	0,066	0,065
-219,855	-99,736	-0,098	0,017
-218,840	-46,037	0,075	0,026
-217,825	800,000	-0,023	-0,069
-216,811	126,285	-0,082	0,074
-215,796	70,847	0,076	-0,056
-214,782	-35,615	-0,137	-0,052
-213,767	800,000	-0,014	0,031
-212,752	-21,044	0,129	-0,056
-211,738	-200,000	-0,016	0,200
-210,723	67,423	0,035	-0,025
-209,709	-197,312	-0,012	0,000
-208,694	67,829	-0,032	-0,023
-207,679	-200,000	-0,003	-0,012
-206,665	450,040	0,038	-0,060
-205,650	525,102	0,034	0,057
-204,636	-200,000	-0,002	0,065
-203,621	143,012	0,051	0,048
-202,606	-46,601	-0,208	-0,072
-201,592	194,870	-0,031	-0,034
-200,577	800,000	-0,026	-0,052
-199,563	-17,879	-0,092	0,041
-198,548	-180,898	0,067	-0,001
-197,533	-134,760	0,021	0,002
-196,519	-112,535	0,067	-0,009
-195,504	-66,471	0,102	-0,029
-194,490	341,814	-0,066	-0,092
-193,475	273,429	0,042	-0,053
-192,460	800,000	-0,014	0,037
-191,446	-119,546	0,095	0,011
-190,431	0,969	0,067	0,034
-189,417	-83,114	-0,109	-0,025
-188,402	365,252	0,084	-0,121
-187,387	-45,454	-0,144	-0,050
-186,373	299,274	-0,069	-0,091
-185,358	164,556	0,074	0,074
-184,344	-200,000	-0,000	0,077
-183,329	800,000	0,036	-0,071
-182,315	30,281	-0,167	0,101
-181,300	-125,271	0,060	-0,006
-180,285	136,265	-0,142	-0,131
-179,271	800,000	0,024	-0,071
-178,256	-139,243	0,091	-0,007
-177,242	-200,000	-0,028	-0,095
-176,227	-47,966	0,051	-0,017
-175,212	-200,000	-0,006	0,057
-174,198	-12,822	-0,120	-0,055
-173,183	4,641	-0,101	0,053
-172,169	336,530	-0,076	-0,105
-171,154	-56,293	-0,084	-0,026
-170,139	-200,000	-0,011	-0,052
-169,125	75,456	0,078	0,058
-168,110	-81,948	0,056	-0,013
-167,096	800,000	-0,030	-0,076
-166,081	-135,263	0,033	0,003
-165,066	800,000	0,060	-0,129
-164,052	-53,271	0,092	0,030
-163,037	-69,976	0,045	-0,012
-162,023	-138,748	0,050	0,004
-161,008	147,027	0,064	-0,061
-159,993	307,096	0,057	0,075
-158,979	-200,000	-0,029	-0,109
-157,964	160,532	-0,048	-0,048
-156,950	-54,472	0,141	0,045
-155,935	-200,000	0,023	0,085
-154,920	224,365	0,090	-0,104
-153,906	800,000	0,027	0,077
-152,891	307,820	0,106	0,140
-151,877	10,069	-0,047	-0,025
-150,862	-132,182	-0,100	-0,009
-149,847	-20,706	0,085	-0,037
-148,833	508,189	0,058	-0,096
-147,818	800,000	-0,060	0,177
-146,804	-200,000	-0,029	0,158
-145,789	-200,000	0,001	0,027
-144,775	203,555	-0,098	0,107
-143,760	-200,000	-0,031	-0,237
-142,745	206,370	0,032	0,035
-141,731	-144,448	-0,062	0,004
-140,716	-55,665	0,086	-0,027
-139,702	-72,006	-0,113	0,029
-138,687	-173,287	-0,033	0,001
-137,672	-154,345	0,043	-0,002
-136,658	403,863	-0,095	-0,142
-135,643	-140,313	-0,131	-0,010
-134,629	546,851	0,013	0,022
-133,614	-77,407	-0,065	-0,016
-132,599	800,000	-0,048	0,117
-131,585	-200,000	-0,005	0,043
-130,570	131,648	-0,024	0,022
-129,556	-200,000	0,005	-0,044
-128,541	110,122	-0,095	0,081
-127,526	800,000	-0,041	0,119
-126,512	-200,000	0,005	-0,060
-125,497	549,890	0,042	-0,072
-124,483	-21,849	-0,088	-0,038
-123,468	-200,000	-0,007	-0,035
-122,453	198,488	0,061	-0,066
-121,439	53,971	0,054	0,037
-120,424	-2,381	0,055	-0,027
-119,410	-200,000	0,024	0,139
-118,395	289,002	-0,050	0,065
-117,380	-200,000	0,013	0,067
-116,366	155,830	0,033	0,032
-115,351	-200,000	-0,039	-0,158
-114,337	-200,000	-0,018	-0,080
-113,322	-20,187	-0,176	-0,077
-112,307	-200,000	-0,032	0,111
-111,293	800,000	0,036	0,108
-110,278	-19,077	0,083	0,036
-109,264	-200,000	-0,034	0,110
-108,249	-200,000	-0,004	-0,031
-107,234	145,917	-0,049	0,046
-106,220	-142,626	-0,083	-0,006
-105,205	103,185	-0,108	-0,089
-104,191	405,390	0,091	0,136
-103,176	75,669	0,035	-0,026
-102,162	800,000	0,022	0,062
-101,147	11,273	-0,108	0,058
-100,132	28,583	0,035	-0,021
-99,118	99,845	0,047	-0,039
-98,103	-14,995	-0,072	0,032
-97,089	139,601	0,038	-0,036
-96,074	800,000	-0,017	0,043
-95,059	-146,660	-0,057	-0,003
-94,045	7,512	-0,071	-0,037
-93,030	-35,064	-0,111	-0,043
-92,016	104,953	0,057	-0,047
-91,001	-50,928	-0,121	-0,040
-89,986	507,269	0,049	-0,081
-88,972	800,000	-0,016	-0,033
-87,957	-200,000	-0,002	0,126
-86,943	518,513	0,004	-0,007
-85,928	-111,326	-0,093	0,013
-84,913	-31,181	0,029	0,011
-83,899	-120,579	-0,046	0,005
-82,884	-200,000	0,001	0,071
-81,870	-200,000	-0,006	-0,129
-80,855	144,103	0,114	0,108
-79,840	371,791	0,058	-0,084
-78,826	800,000	-0,025	0,064
-77,811	705,522	0,056	-0,105
-76,797	-200,000	0,005	0,053
-75,782	-200,000	0,029	-0,152
-74,767	800,000	0,033	0,075
-73,753	-200,000	0,005	-0,076
-72,738	201,690	0,033	0,036
-71,724	-129,639	-0,115	0,011
-70,709	667,409	-0,024	-0,043
-69,694	-49,468	0,077	-0,026
-68,680	-200,000	-0,011	0,117
-67,665	-200,000	0,021	0,076
-66,651	231,266	0,025	0,028
-65,636	448,588	-0,051	-0,079
-64,622	273,618	-0,069	-0,086
-63,607	-122,470	-0,092	-0,010
-62,592	-200,000	0,019	-0,115
-61,578	-200,000	0,003	-0,064
-60,563	-43,515	0,106	0,038
-59,549	-37,321	-0,037	0,014
-58,534	-3,454	-1,876	-0,918
-57,519	462,408	-1,246	-1,969
-56,505	-200,000	-0,389	-4,458
-55,490	437,850	0,920	1,420
-54,476	800,000	5,047	11,182
-53,461	-200,000	20,724	329,252
-52,446	800,000	755,285	2319,559
-51,432	552,786	1661,273	2826,372
-50,417	73,770	1664,798	1229,425
-49,403	18,825	1538,134	866,396
-48,388	12,790	1460,969	793,737
-47,373	19,009	1451,760	818,561
-46,359	15,931	1441,215	797,933
-45,344	11,032	1436,904	772,185
-44,330	10,919	1435,190	770,694
-43,315	10,927	1432,866	769,452
-42,300	10,973	1431,202	768,746
-41,286	11,046	1429,831	768,328
-40,271	10,929	1428,930	767,258
-39,257	10,945	1427,872	766,735
-38,242	10,969	1426,588	766,127
-37,227	10,992	1425,265	765,498
-36,213	10,990	1424,058	764,807
-35,198	10,997	1422,690	764,074
-34,184	11,056	1422,131	764,025
-33,169	10,989	1420,749	762,936
-32,154	11,041	1419,467	762,461
-31,140	11,047	1418,297	761,829
-30,125	11,060	1417,238	761,293
-29,111	11,044	1416,116	760,583
-28,096	11,067	1414,825	759,971
-27,082	10,969	1413,779	758,920
-26,067	10,928	1412,958	758,256
-25,052	11,011	1411,694	757,935
-24,038	10,958	1410,706	757,125
-23,023	10,949	1409,763	756,548
-22,009	10,977	1408,683	756,067
-20,994	10,963	1407,612	755,401
-19,979	10,938	1406,780	754,805
-18,965	10,906	1405,833	754,120
-17,950	10,882	1405,082	753,573
-16,936	10,892	1404,157	753,094
-15,921	10,822	1403,157	752,204
-14,906	10,876	1402,220	751,921
-13,892	10,887	1401,084	751,333
-12,877	10,869	1400,563	750,939
-11,863	10,848	1399,742	750,371
-10,848	10,877	1398,512	749,820
-9,833	10,819	1397,760	749,117
-8,819	10,790	1396,928	748,504
-7,804	10,775	1396,254	748,046
-6,790	10,759	1395,156	747,353
-5,775	10,805	1393,866	746,846
-4,760	10,781	1393,125	746,311
-3,746	10,798	1392,188	745,854
-2,731	10,767	1391,408	745,263
-1,717	10,756	1390,411	744,650
-0,702	10,780	1388,566	743,745
0,313	14,933	1302,720	716,754
1,327	31,346	694,262	419,343
2,342	49,173	120,529	79,704
3,356	-0,626	16,663	8,302
4,371	-4,913	3,434	1,661
5,386	-43,351	0,932	0,330
6,400	800,000	0,215	0,453
7,415	27,515	-0,129	-0,076
8,429	53,353	-0,291	-0,196
9,444	81,666	-0,328	-0,250
10,459	142,191	-0,206	-0,192
11,473	33,815	-0,334	-0,204
12,488	86,395	-0,194	-0,151
13,502	-69,888	-0,370	-0,099
14,517	55,833	-0,344	-0,235
15,531	169,993	-0,309	-0,311
16,546	-15,653	-0,427	-0,191
17,561	153,378	-0,281	-0,271
18,575	600,804	-0,069	-0,121
19,590	40,425	-0,178	-0,112
20,604	-37,464	-0,208	-0,078
21,619	301,508	-0,364	-0,475
22,634	60,710	-0,357	-0,249
23,648	55,179	-0,421	-0,286
24,663	129,503	-0,414	-0,372
25,677	139,207	-0,374	-0,346
26,692	92,351	-0,363	-0,288
27,707	-40,793	-0,366	-0,133
28,721	37,547	-0,348	-0,217
29,736	54,754	-0,264	-0,179
30,750	58,355	-0,409	-0,282
31,765	79,015	-0,452	-0,340
32,780	185,026	-0,316	-0,330
33,794	243,020	-0,288	-0,340
34,809	38,576	-0,472	-0,295
35,823	65,677	-0,301	-0,214
36,838	88,580	-0,327	-0,255
37,853	40,018	-0,297	-0,187
38,867	298,688	-0,289	-0,375
39,882	-101,134	-0,329	-0,056
40,896	36,492	-0,357	-0,221
41,911	28,600	-0,329	-0,195
42,926	82,446	-0,305	-0,232
43,940	25,767	-0,285	-0,166
44,955	60,991	-0,394	-0,274
45,969	215,029	-0,271	-0,302
46,984	17,805	-0,277	-0,154
47,999	-36,699	-0,309	-0,116
49,013	-33,650	-0,369	-0,142
50,028	41,315	-0,352	-0,223
51,042	77,613	-0,248	-0,185
52,057	121,605	-0,312	-0,273
53,071	216,877	-0,216	-0,241
54,086	11,024	-0,372	-0,199
55,101	142,951	-0,240	-0,224
56,115	37,319	-0,388	-0,241
57,130	159,800	-0,389	-0,381
58,144	-73,386	-0,381	-0,097
59,159	150,635	-0,267	-0,254
60,174	192,255	-0,261	-0,276
61,188	27,329	-0,310	-0,182
62,203	127,756	-0,296	-0,264
63,217	-31,561	-0,450	-0,176
64,232	-0,785	-0,332	-0,164
65,247	-78,622	-0,327	-0,078
66,261	112,730	-0,261	-0,222
67,276	62,976	-0,441	-0,309
68,290	-105,698	-0,372	-0,058
69,305	-33,141	-0,391	-0,151
70,320	-37,071	-0,304	-0,114
71,334	-37,948	-0,341	-0,126
72,349	86,551	-0,172	-0,133
73,363	108,255	-0,268	-0,224
74,378	73,704	-0,341	-0,250
75,393	127,716	-0,205	-0,183
76,407	-142,352	-0,272	-0,019
77,422	-119,243	-0,329	0,040
78,436	55,145	-0,180	-0,122
79,451	33,601	-0,341	-0,207
80,466	44,831	-0,289	-0,186
81,480	60,061	-0,307	-0,212
82,495	-1,448	-0,376	-0,185
83,509	-14,695	-0,255	-0,114
84,524	96,701	-0,248	-0,198
85,539	153,282	-0,246	-0,236
86,553	-141,223	-0,311	0,022
87,568	84,664	-0,303	-0,232
88,582	51,294	-0,252	-0,167
89,597	-20,473	-0,317	-0,136
90,611	-54,756	-0,328	-0,103
91,626	4,441	-0,184	-0,094
92,641	109,804	-0,269	-0,226
93,655	219,364	-0,193	-0,216
94,670	94,116	-0,306	-0,243
95,684	97,738	-0,187	-0,150
96,699	223,623	-0,226	-0,255
97,714	-43,578	-0,322	-0,113
98,728	89,763	-0,220	-0,171
99,743	148,758	-0,163	-0,154
100,757	88,530	-0,141	-0,110
101,772	42,406	-0,341	-0,216
102,787	152,765	-0,209	-0,200
103,801	109,642	-0,357	-0,299
104,816	-5,437	-0,356	-0,170
105,830	-149,236	-0,313	0,017
106,845	19,464	-0,246	-0,138
107,860	135,484	-0,118	-0,107
108,874	9,333	-0,202	-0,106
109,889	419,104	-0,180	-0,270
110,903	-10,970	-0,379	-0,174
111,918	109,257	-0,300	-0,251
112,933	800,000	-0,122	-0,266
113,947	105,638	-0,169	-0,139
114,962	235,445	-0,198	-0,228
115,976	-37,059	-0,329	-0,122
116,991	84,178	-0,163	-0,124
118,006	347,039	-0,178	-0,246
119,020	-20,027	-0,351	-0,151
120,035	-52,906	-0,216	-0,069
121,049	30,099	-0,268	-0,159
122,064	-3,979	-0,268	-0,129
123,079	-68,880	-0,343	-0,092
124,093	-35,901	-0,315	-0,118
125,108	87,170	-0,311	-0,239
126,122	75,019	-0,281	-0,206
127,137	544,651	-0,143	-0,239
128,151	95,174	-0,226	-0,179
129,166	-59,801	-0,214	-0,063
130,181	47,211	-0,164	-0,106
131,195	198,940	-0,210	-0,225
132,210	726,964	-0,109	-0,204
133,224	-72,951	-0,289	-0,073
134,239	-33,243	-0,277	-0,107
135,254	93,541	-0,207	-0,163
136,268	-104,330	-0,207	-0,033
137,283	-45,797	-0,342	-0,117
138,297	77,392	-0,322	-0,238
139,312	269,420	-0,245	-0,300
140,327	112,632	-0,255	-0,215
141,341	522,618	-0,122	-0,200
142,356	58,032	-0,212	-0,144
143,370	176,329	-0,172	-0,174
144,385	800,000	-0,097	-0,196
145,400	246,079	-0,210	-0,246
146,414	52,095	-0,262	-0,174
147,429	143,084	-0,179	-0,165
148,443	200,713	-0,221	-0,237
149,458	72,131	-0,359	-0,260
150,473	68,940	-0,232	-0,166
151,487	-51,779	-0,241	-0,078
152,502	71,202	-0,268	-0,193
153,516	132,056	-0,316	-0,283
154,531	-30,764	-0,371	-0,145
155,546	109,179	-0,244	-0,203
156,560	623,408	-0,141	-0,249
157,575	-44,377	-0,199	-0,069
158,589	-186,511	-0,265	-0,003
159,604	-7,273	-0,265	-0,124
160,619	-1,715	-0,380	-0,185
161,633	-45,008	-0,283	-0,097
162,648	78,505	-0,231	-0,171
163,662	57,699	-0,338	-0,229
164,677	320,630	-0,168	-0,222
165,692	-120,394	-0,281	-0,033
166,706	15,304	-0,175	-0,095
167,721	194,788	-0,155	-0,164
168,735	-73,981	-0,245	-0,061
169,750	217,559	-0,222	-0,247
170,764	276,907	-0,158	-0,196
171,779	-71,095	-0,171	-0,044
172,794	55,597	-0,174	-0,117
173,808	20,498	-0,296	-0,166
174,823	59,817	-0,250	-0,171
175,837	57,210	-0,279	-0,189
176,852	21,006	-0,191	-0,107
177,867	498,166	-0,187	-0,299
178,881	76,524	-0,195	-0,143
179,896	43,858	-0,160	-0,102
180,910	265,624	-0,104	-0,126
181,925	157,537	-0,252	-0,242
182,940	556,394	-0,126	-0,212
183,954	305,601	-0,191	-0,247
184,969	112,675	-0,129	-0,108
185,983	31,781	-0,217	-0,129
186,998	800,000	-0,071	-0,151
188,013	387,148	-0,171	-0,246
189,027	20,727	-0,291	-0,163
190,042	25,862	-0,263	-0,152
191,056	710,885	-0,152	-0,280
192,071	11,542	-0,219	-0,116
193,086	-91,585	-0,133	-0,026
194,100	-12,995	-0,101	-0,046
195,115	109,344	-0,116	-0,097
196,129	-0,569	-0,269	-0,132
197,144	172,850	-0,249	-0,249
198,159	123,088	-0,245	-0,213
199,173	74,573	-0,104	-0,076
200,188	9,517	-0,146	-0,076
201,202	572,969	-0,118	-0,200
202,217	-13,533	-0,317	-0,142
203,232	0,918	-0,246	-0,122
204,246	96,921	-0,148	-0,118
205,261	800,000	-0,051	-0,119
206,275	-74,275	-0,243	-0,060
207,290	-152,362	-0,189	-0,009
208,304	110,042	-0,173	-0,144
209,319	334,330	-0,091	-0,123
210,334	130,084	-0,131	-0,116
211,348	2,885	-0,289	-0,145
212,363	-34,704	-0,224	-0,084
213,377	327,450	-0,163	-0,217
214,392	-91,827	-0,142	0,028
215,407	-200,000	-0,191	0,000
216,421	-14,601	-0,184	-0,082
217,436	79,796	-0,212	-0,157
218,450	-100,312	-0,237	-0,040
219,465	16,042	-0,214	-0,116
220,480	36,066	-0,244	-0,148
221,494	58,039	-0,207	-0,140
222,509	25,605	-0,177	-0,101
223,523	-125,327	-0,175	-0,018
224,538	99,427	-0,232	-0,186
225,553	88,695	-0,103	-0,079
226,567	169,140	-0,172	-0,169
227,582	300,286	-0,105	-0,134
228,596	71,729	-0,169	-0,121
229,611	-20,906	-0,144	-0,061
230,626	28,807	-0,175	-0,102
231,640	-40,810	-0,126	-0,045
232,655	-70,972	-0,211	-0,054
233,669	53,905	-0,182	-0,121
234,684	-24,395	-0,215	-0,088
235,699	800,000	-0,052	-0,153
236,713	78,032	-0,175	-0,129
237,728	24,456	-0,116	-0,066
238,742	180,912	-0,130	-0,131
239,757	15,929	-0,167	-0,091
240,772	277,059	-0,211	-0,260
241,786	-19,672	-0,162	-0,069
242,801	518,204	-0,147	-0,238
243,815	-200,000	-0,013	-0,170
244,830	93,515	-0,191	-0,149
245,844	-29,858	-0,160	-0,063
246,859	481,161	-0,133	-0,209
247,874	-136,136	-0,188	-0,015
248,888	-84,928	-0,111	-0,024
249,903	33,004	-0,150	-0,089
250,917	385,552	-0,117	-0,167
251,932	-172,543	-0,164	0,003
252,947	2,288	-0,207	-0,103
253,961	117,414	-0,119	-0,100
254,976	-34,785	-0,265	-0,099
255,990	82,190	-0,193	-0,144
257,005	-99,253	-0,140	-0,024
258,020	-53,384	-0,126	-0,039
259,034	-200,000	0,014	-0,195
260,049	800,000	-0,059	-0,141
261,063	-17,611	-0,160	0,069
262,078	-59,305	-0,260	-0,077
263,093	-12,744	-0,243	-0,109
264,107	303,035	-0,105	-0,135
265,122	118,151	-0,132	-0,112
266,136	-67,886	-0,241	-0,064
267,151	-189,915	-0,178	0,001
268,166	28,069	-0,255	-0,148
269,180	55,115	-0,191	-0,127
270,195	94,349	-0,121	-0,094
271,209	84,365	-0,102	-0,077
272,224	-135,927	-0,168	0,013
273,239	166,953	-0,118	-0,115
274,253	-95,851	-0,114	-0,021
275,268	85,054	-0,148	-0,112
276,282	1,665	-0,179	-0,088
277,297	99,065	-0,158	-0,126
278,312	5,444	-0,164	-0,083
279,326	-144,424	-0,162	0,010
280,341	45,829	-0,162	-0,103
281,355	-53,302	-0,211	-0,066
282,370	11,989	-0,311	-0,164
283,384	-18,638	-0,166	-0,071
284,399	-105,412	-0,170	0,026
285,414	611,062	-0,099	-0,171
286,428	-30,344	-0,111	-0,043
287,443	10,689	-0,156	-0,082
288,457	-108,896	-0,134	-0,019
289,472	101,934	-0,185	-0,148
290,487	117,820	-0,198	-0,168
291,501	0,308	-0,202	-0,099
292,516	314,009	-0,091	-0,118
293,530	-200,000	-0,016	-0,152
294,545	557,853	-0,137	-0,228
295,560	167,415	-0,142	-0,138
296,574	2,975	-0,039	-0,019
297,589	-51,828	-0,106	-0,034
298,603	800,000	-0,083	-0,161
299,618	123,681	-0,122	-0,105
300,633	172,090	-0,021	0,021
301,647	316,009	-0,106	-0,138
302,662	800,000	-0,068	-0,151
303,676	-89,544	-0,178	-0,036
304,691	-200,000	0,007	-0,092
305,706	-200,000	-0,032	-0,127
306,720	-139,078	-0,143	-0,010
307,735	60,645	-0,082	-0,056
308,749	233,825	-0,175	-0,198
309,764	596,590	-0,062	-0,107
310,779	800,000	-0,075	-0,190
311,793	150,510	-0,119	-0,111
312,808	577,954	-0,070	-0,118
313,822	4,419	-0,168	-0,084
314,837	748,725	-0,026	-0,048
315,852	800,000	-0,026	0,060
316,866	-71,552	-0,153	0,039
317,881	800,000	-0,056	-0,109
318,895	-200,000	-0,041	-0,126
319,910	541,866	-0,144	-0,237
320,925	66,860	-0,159	-0,111
321,939	800,000	-0,067	-0,145
322,954	-98,215	-0,117	-0,020
323,968	-133,705	0,021	-0,002
324,983	323,970	-0,157	-0,205
325,997	314,133	-0,180	-0,232
327,012	422,089	-0,178	-0,262
328,027	98,552	-0,164	-0,129
329,041	206,833	-0,107	-0,114
330,056	-64,424	-0,174	-0,048
331,070	800,000	-0,037	0,085
332,085	594,475	-0,109	-0,186
333,100	-169,698	-0,194	-0,005
334,114	-19,132	-0,243	-0,103
335,129	800,000	-0,079	-0,209
336,143	-127,908	-0,111	0,011
337,158	425,234	-0,133	-0,196
338,173	438,385	-0,073	-0,110
339,187	635,876	-0,089	-0,155
340,202	-54,502	-0,207	-0,064
341,216	193,854	-0,051	-0,053
342,231	113,465	-0,075	-0,062
343,246	23,286	-0,127	-0,071
344,260	13,965	-0,059	-0,031
345,275	-31,674	-0,040	-0,015
346,289	189,094	-0,169	-0,173
347,304	429,344	-0,074	-0,110
348,319	467,672	-0,149	-0,229
349,333	480,745	-0,128	-0,199
350,348	90,404	-0,192	-0,147
351,362	227,660	-0,113	-0,126
352,377	303,673	-0,085	-0,108
353,392	-118,743	-0,109	-0,013
354,406	-1,233	-0,124	-0,060
355,421	208,848	1313,715	1406,752
356,435	160,719	1474,284	1407,228
