DTS Sentinel unit serial number:	SN410029Multiplexer serial number:	ORYXHardware model number:	OX2-SRSoftware version number:	ORYX F/W v4,00 Oryx Data Collector v3.7.2.0data status	okinstallation	B3 Nyhavnadifferential loss correction	single-endedforward channel	channel 1reverse channel	N/Adate	2023/12/02time	22:17:30forward acquisition time	300,00reverse acquisition time	0,00gamma	499,1914k internal	0,3201k external	0,3201temperature offset calibration	1,0000default loss term (dB/km)	0,3820temperature slope calibration	1,0000multiplexer offset coefficient	1,0000multiplexer slope coefficient	1,0000fibre end	0,00T internal ref (°C)	13,19T ext. ref 1 (°C)	-1,82T ext. ref 2 (°C)	-1,83length (m)	temperature (°C)	Stokes	anti-Stokes-744,400	-200,000	-0,088	-0,289
-743,385	-200,000	-0,009	0,333
-742,371	-200,000	0,049	-0,239
-741,356	-200,000	0,049	0,352
-740,342	800,000	-0,077	-0,184
-739,327	-200,000	-0,034	0,245
-738,312	800,000	-0,103	-0,242
-737,298	432,689	-0,113	0,179
-736,283	181,465	-0,203	-0,217
-735,269	800,000	0,109	0,276
-734,254	152,943	-0,123	-0,122
-733,239	-45,620	-0,131	-0,047
-732,225	-200,000	-0,019	-0,228
-731,210	-200,000	0,023	0,138
-730,196	128,880	-0,083	-0,077
-729,181	337,705	0,049	0,069
-728,167	148,091	-0,040	0,039
-727,152	-129,119	-0,044	0,004
-726,137	110,925	0,075	-0,066
-725,123	24,644	-0,060	0,036
-724,108	800,000	-0,016	-0,041
-723,094	190,966	-0,134	-0,147
-722,079	-170,003	-0,068	-0,002
-721,064	27,475	0,078	-0,047
-720,050	800,000	0,014	0,035
-719,035	800,000	-0,072	0,153
-718,021	353,098	-0,012	-0,017
-717,006	268,675	-0,040	-0,051
-715,991	-200,000	0,020	-0,139
-714,977	-200,000	-0,053	-0,192
-713,962	259,939	-0,034	-0,043
-712,948	-31,090	0,045	-0,018
-711,933	56,597	-0,059	0,042
-710,918	211,007	0,022	0,026
-709,904	44,200	0,029	0,020
-708,889	-49,365	-0,117	0,040
-707,875	389,206	-0,066	0,099
-706,860	-149,824	-0,087	0,005
-705,845	-200,000	-0,004	-0,088
-704,831	-159,993	0,094	0,004
-703,816	-200,000	-0,015	0,074
-702,802	54,656	-0,092	-0,064
-701,787	-200,000	-0,007	-0,080
-700,772	142,715	0,100	-0,096
-699,758	-62,207	0,084	0,025
-698,743	475,969	0,018	0,029
-697,729	-81,321	0,178	-0,042
-696,714	75,806	-0,055	-0,042
-695,699	443,788	-0,038	0,061
-694,685	61,695	0,107	-0,077
-693,670	586,627	-0,020	-0,036
-692,656	305,546	-0,070	-0,095
-691,641	-200,000	0,000	-0,010
-690,627	-200,000	-0,010	-0,062
-689,612	-200,000	0,034	-0,136
-688,597	49,267	-0,041	-0,028
-687,583	208,110	0,088	-0,100
-686,568	-126,793	-0,023	-0,002
-685,554	-200,000	-0,009	-0,128
-684,539	49,674	-0,047	-0,032
-683,524	176,222	0,041	-0,043
-682,510	-50,939	-0,038	0,013
-681,495	-96,408	-0,133	0,025
-680,481	-200,000	-0,011	0,072
-679,466	-200,000	-0,031	-0,103
-678,451	-89,886	-0,131	-0,027
-677,437	-200,000	0,007	-0,068
-676,422	-200,000	-0,005	0,053
-675,408	31,936	-0,114	-0,071
-674,393	-114,640	0,053	0,007
-673,378	-61,862	-0,104	0,031
-672,364	-72,605	-0,186	-0,049
-671,349	-98,668	-0,122	0,022
-670,335	114,156	-0,082	-0,073
-669,320	66,379	0,092	-0,067
-668,305	-125,037	-0,160	0,018
-667,291	204,106	-0,091	-0,102
-666,276	-200,000	0,027	0,087
-665,262	236,795	0,077	-0,093
-664,247	-200,000	0,021	-0,158
-663,232	800,000	0,025	-0,076
-662,218	135,881	-0,043	-0,040
-661,203	539,473	-0,073	0,127
-660,189	800,000	-0,023	-0,052
-659,174	800,000	-0,079	-0,160
-658,159	800,000	-0,073	-0,190
-657,145	463,376	-0,069	0,112
-656,130	800,000	-0,053	-0,144
-655,116	-200,000	0,000	0,058
-654,101	-33,941	-0,157	0,062
-653,086	-13,082	0,041	0,019
-652,072	268,623	-0,078	-0,100
-651,057	191,965	-0,032	-0,035
-650,043	-80,816	-0,109	-0,026
-649,028	-200,000	0,017	-0,187
-648,014	217,714	-0,068	0,079
-646,999	-200,000	-0,007	0,079
-645,984	591,012	0,059	0,105
-644,970	-200,000	0,010	-0,073
-643,955	78,640	-0,175	-0,136
-642,941	800,000	0,043	-0,112
-641,926	148,578	-0,093	-0,091
-640,911	-200,000	-0,013	-0,044
-639,897	-200,000	0,000	-0,014
-638,882	437,467	-0,026	-0,042
-637,868	-62,762	-0,092	-0,027
-636,853	217,265	-0,030	-0,035
-635,838	-200,000	-0,002	-0,078
-634,824	6,132	-0,100	0,053
-633,809	509,999	0,021	0,036
-632,795	3,230	-0,034	-0,018
-631,780	325,895	-0,060	0,083
-630,765	70,255	-0,037	-0,027
-629,751	-91,980	-0,089	-0,018
-628,736	800,000	-0,062	-0,135
-627,722	-100,379	-0,109	0,019
-626,707	-56,723	0,114	0,036
-625,692	116,377	-0,067	-0,059
-624,678	23,749	0,138	0,082
-623,663	445,607	-0,068	-0,108
-622,649	610,604	-0,046	-0,083
-621,634	421,337	-0,056	-0,087
-620,619	53,122	0,058	0,040
-619,605	-173,857	0,061	0,001
-618,590	-200,000	-0,011	-0,119
-617,576	244,264	0,048	0,059
-616,561	-200,000	0,003	0,155
-615,546	-29,962	-0,082	-0,033
-614,532	-0,757	0,206	-0,105
-613,517	800,000	0,034	-0,087
-612,503	-173,385	-0,116	0,002
-611,488	-200,000	-0,019	0,132
-610,474	-200,000	-0,031	0,102
-609,459	-25,739	-0,095	0,040
-608,444	249,824	-0,041	-0,050
-607,430	67,623	-0,028	0,020
-606,415	251,039	-0,033	0,041
-605,401	800,000	0,059	0,150
-604,386	-87,240	0,081	-0,018
-603,371	800,000	-0,021	-0,064
-602,357	-128,845	0,067	-0,007
-601,342	736,513	-0,037	-0,071
-600,328	94,924	-0,086	-0,071
-599,313	-3,703	0,117	0,059
-598,298	-200,000	-0,029	0,142
-597,284	-68,686	0,221	0,061
-596,269	174,149	-0,085	0,089
-595,255	-200,000	0,006	0,134
-594,240	456,758	-0,025	0,040
-593,225	10,946	-0,027	-0,015
-592,211	197,793	-0,086	-0,095
-591,196	-200,000	0,025	0,083
-590,182	283,839	0,090	0,117
-589,167	90,101	0,098	0,079
-588,152	-200,000	0,030	-0,136
-587,138	800,000	-0,028	-0,070
-586,123	416,560	-0,033	-0,051
-585,109	-200,000	-0,027	0,107
-584,094	800,000	-0,030	0,092
-583,079	-200,000	-0,008	0,139
-582,065	-200,000	0,009	-0,038
-581,050	69,687	-0,096	-0,071
-580,036	-200,000	0,014	-0,129
-579,021	-6,903	0,106	-0,052
-578,006	-200,000	0,009	0,047
-576,992	26,093	0,040	0,024
-575,977	75,048	-0,074	0,056
-574,963	800,000	-0,036	0,097
-573,948	-142,020	0,158	-0,011
-572,934	-137,058	-0,123	0,010
-571,919	800,000	-0,035	0,097
-570,904	800,000	0,041	-0,122
-569,890	271,831	-0,049	0,062
-568,875	25,369	-0,051	-0,030
-567,861	325,803	-0,043	0,060
-566,846	-200,000	-0,021	0,086
-565,831	584,012	0,086	0,152
-564,817	-200,000	0,014	-0,092
-563,802	671,981	0,100	-0,189
-562,788	800,000	0,026	-0,069
-561,773	147,091	0,117	0,113
-560,758	-25,559	-0,027	-0,011
-559,744	-200,000	0,021	0,243
-558,729	712,968	0,078	0,149
-557,715	118,540	-0,091	-0,081
-556,700	-56,417	-0,044	0,014
-555,685	-66,461	-0,136	0,039
-554,671	186,313	0,073	0,078
-553,656	12,200	0,078	0,043
-552,642	50,761	-0,085	-0,058
-551,627	-93,117	0,135	-0,027
-550,612	-200,000	0,039	-0,183
-549,598	-200,000	0,015	0,092
-548,583	279,882	-0,098	-0,126
-547,569	-200,000	-0,001	0,100
-546,554	202,101	0,083	0,092
-545,539	35,254	-0,035	0,022
-544,525	483,549	0,025	-0,041
-543,510	46,665	0,044	0,029
-542,496	654,345	0,111	-0,207
-541,481	402,745	-0,076	-0,115
-540,466	-200,000	-0,005	-0,126
-539,452	-200,000	0,023	-0,098
-538,437	-200,000	0,001	-0,137
-537,423	206,712	-0,042	0,048
-536,408	758,467	0,021	-0,041
-535,393	32,776	-0,058	-0,036
-534,379	-200,000	0,013	0,052
-533,364	800,000	0,023	0,050
-532,350	-120,178	0,109	-0,013
-531,335	148,747	-0,127	0,124
-530,321	800,000	0,008	-0,021
-529,306	-200,000	-0,007	0,049
-528,291	4,280	-0,167	0,088
-527,277	800,000	-0,044	0,101
-526,262	48,811	0,061	-0,041
-525,248	-200,000	-0,002	0,019
-524,233	800,000	-0,033	0,091
-523,218	-74,841	0,098	0,025
-522,204	-66,876	-0,161	0,046
-521,189	800,000	-0,033	-0,094
-520,175	800,000	0,048	-0,119
-519,160	-200,000	-0,040	0,150
-518,145	800,000	-0,017	0,052
-517,131	800,000	-0,017	0,048
-516,116	467,654	0,098	0,158
-515,102	746,721	-0,063	-0,124
-514,087	49,301	-0,059	-0,040
-513,072	-200,000	-0,024	-0,108
-512,058	381,404	0,066	-0,098
-511,043	-200,000	0,021	0,073
-510,029	800,000	0,060	0,166
-509,014	393,052	0,061	-0,092
-507,999	-82,446	-0,093	0,022
-506,985	104,147	-0,069	-0,058
-505,970	-97,496	0,058	-0,011
-504,956	800,000	0,026	-0,066
-503,941	-171,599	0,101	0,002
-502,926	-153,039	0,048	-0,002
-501,912	8,631	-0,160	-0,086
-500,897	633,966	0,062	-0,113
-499,883	670,192	0,034	-0,064
-498,868	-110,148	-0,039	-0,006
-497,853	-66,159	-0,092	-0,026
-496,839	800,000	-0,039	-0,120
-495,824	157,634	0,073	0,073
-494,810	-145,961	0,138	0,009
-493,795	52,863	-0,066	-0,045
-492,781	646,915	-0,008	-0,016
-491,766	-200,000	-0,013	0,050
-490,751	311,258	0,060	-0,081
-489,737	36,917	-0,068	0,044
-488,722	13,451	0,060	0,033
-487,708	800,000	0,071	0,220
-486,693	26,509	0,084	0,050
-485,678	25,809	0,152	0,091
-484,664	800,000	-0,027	-0,081
-483,649	-74,376	-0,052	-0,014
-482,635	-200,000	0,019	-0,094
-481,620	239,506	0,037	-0,044
-480,605	800,000	0,011	0,033
-479,591	800,000	0,060	0,173
-478,576	800,000	-0,030	0,078
-477,562	-200,000	0,019	-0,074
-476,547	800,000	-0,067	-0,146
-475,532	-87,601	0,063	-0,014
-474,518	159,519	-0,048	-0,049
-473,503	51,430	0,137	0,093
-472,489	71,457	0,032	0,024
-471,474	800,000	-0,009	-0,024
-470,459	-45,435	-0,174	-0,062
-469,445	360,099	-0,103	-0,149
-468,430	800,000	-0,024	-0,066
-467,416	185,453	0,051	-0,055
-466,401	-200,000	-0,001	-0,069
-465,386	-173,055	-0,055	-0,001
-464,372	63,476	-0,089	0,064
-463,357	579,637	-0,057	-0,101
-462,343	-52,169	-0,113	0,037
-461,328	-76,675	0,203	-0,051
-460,313	-200,000	0,006	-0,093
-459,299	-200,000	-0,017	0,081
-458,284	204,078	0,067	-0,075
-457,270	-95,442	-0,106	0,020
-456,255	800,000	-0,036	0,112
-455,241	277,890	0,029	-0,037
-454,226	-69,777	-0,057	-0,016
-453,211	270,822	-0,017	0,021
-452,197	328,436	-0,047	-0,065
-451,182	160,354	-0,087	0,087
-450,168	-200,000	0,041	0,188
-449,153	-38,482	0,052	0,020
-448,138	-200,000	0,014	0,085
-447,124	58,982	-0,108	-0,076
-446,109	-200,000	-0,005	0,098
-445,095	-72,130	-0,162	0,043
-444,080	800,000	0,034	0,101
-443,065	-92,296	0,112	-0,023
-442,051	-200,000	0,003	-0,016
-441,036	-4,728	-0,025	-0,012
-440,022	-143,898	-0,189	0,013
-439,007	-200,000	0,010	-0,036
-437,992	267,494	-0,017	0,021
-436,978	628,061	0,022	-0,039
-435,963	-124,600	-0,086	0,010
-434,949	16,343	0,065	0,037
-433,934	67,499	-0,059	-0,044
-432,919	129,043	-0,062	-0,057
-431,905	-200,000	0,014	-0,057
-430,890	800,000	-0,024	0,048
-429,876	-200,000	-0,014	0,072
-428,861	494,695	-0,029	0,048
-427,846	-16,276	-0,055	0,025
-426,832	-200,000	0,011	-0,068
-425,817	-84,122	-0,062	0,014
-424,803	-100,058	0,066	0,012
-423,788	248,423	0,063	0,077
-422,773	-200,000	-0,010	0,113
-421,759	-200,000	0,031	0,202
-420,744	-4,143	0,030	0,015
-419,730	-107,252	-0,102	-0,016
-418,715	-159,719	0,041	0,002
-417,701	-200,000	0,006	0,060
-416,686	-108,267	0,116	-0,018
-415,671	162,074	0,030	0,030
-414,657	46,450	-0,092	-0,061
-413,642	-200,000	0,002	0,119
-412,628	47,400	0,013	0,009
-411,613	38,941	-0,140	-0,090
-410,598	800,000	0,025	-0,063
-409,584	15,500	0,211	-0,119
-408,569	236,323	-0,008	-0,010
-407,555	-200,000	-0,072	0,229
-406,540	-200,000	0,036	0,135
-405,525	544,892	-0,057	-0,099
-404,511	-200,000	0,015	-0,090
-403,496	-0,807	-0,056	0,029
-402,482	133,739	0,110	0,102
-401,467	-21,147	0,187	-0,082
-400,452	-128,594	-0,047	0,005
-399,438	800,000	0,023	-0,058
-398,423	291,129	-0,084	0,110
-397,409	81,756	0,124	0,096
-396,394	-64,936	0,131	-0,038
-395,379	-200,000	-0,003	0,059
-394,365	379,932	0,038	0,056
-393,350	-200,000	-0,013	0,128
-392,336	61,631	0,081	0,058
-391,321	-200,000	0,011	0,049
-390,306	800,000	0,017	-0,034
-389,292	-113,724	-0,132	-0,018
-388,277	51,485	0,021	-0,014
-387,263	-151,702	0,152	-0,008
-386,248	1,669	-0,065	0,033
-385,233	-29,885	0,088	0,036
-384,219	-200,000	-0,004	0,083
-383,204	285,696	-0,052	-0,067
-382,190	-66,234	0,067	0,019
-381,175	12,761	-0,086	0,047
-380,160	-2,407	-0,018	-0,009
-379,146	208,369	0,059	-0,066
-378,131	-47,532	0,057	0,020
-377,117	-101,615	0,040	-0,007
-376,102	209,408	-0,042	0,048
-375,088	127,937	0,015	0,013
-374,073	11,810	0,099	0,054
-373,058	67,903	0,062	-0,045
-372,044	-200,000	0,009	0,046
-371,029	-23,747	-0,064	-0,027
-370,015	259,056	0,046	0,056
-369,000	477,186	-0,009	0,015
-367,985	-87,641	-0,070	0,015
-366,971	-200,000	-0,023	0,084
-365,956	-200,000	-0,010	0,094
-364,942	42,997	0,099	0,064
-363,927	295,340	-0,025	0,033
-362,912	-13,507	0,049	0,023
-361,898	800,000	0,089	-0,235
-360,883	-21,050	-0,040	-0,017
-359,869	-117,292	-0,020	0,003
-358,854	-200,000	0,022	-0,103
-357,839	147,534	-0,113	0,109
-356,825	-165,015	0,148	0,005
-355,810	-200,000	-0,024	-0,092
-354,796	-200,000	0,036	-0,156
-353,781	-200,000	-0,006	-0,103
-352,766	-57,624	-0,105	-0,033
-351,752	-200,000	-0,003	0,108
-350,737	164,783	0,055	-0,056
-349,723	-34,286	-0,069	-0,027
-348,708	-106,472	0,092	-0,015
-347,693	800,000	0,023	-0,060
-346,679	121,930	-0,054	-0,048
-345,664	154,464	0,080	-0,079
-344,650	800,000	0,037	0,095
-343,635	800,000	-0,037	-0,083
-342,620	87,978	-0,112	-0,089
-341,606	88,382	0,053	0,042
-340,591	-72,901	-0,043	-0,011
-339,577	223,998	0,100	0,115
-338,562	204,430	-0,041	-0,045
-337,548	376,647	-0,024	0,035
-336,533	21,658	0,025	0,014
-335,518	206,932	0,073	0,082
-334,504	435,774	0,038	-0,060
-333,489	116,395	-0,074	0,065
-332,475	-200,000	0,006	0,101
-331,460	-94,107	-0,064	-0,012
-330,445	444,523	0,111	-0,175
-329,431	-200,000	0,016	0,084
-328,416	48,966	-0,010	-0,007
-327,402	-1,214	-0,122	0,061
-326,387	-104,132	-0,038	-0,006
-325,372	-200,000	-0,014	-0,096
-324,358	-80,938	-0,136	0,032
-323,343	-127,644	-0,054	0,005
-322,329	-112,299	0,148	0,021
-321,314	201,994	0,022	0,025
-320,299	800,000	0,050	-0,121
-319,285	-200,000	-0,005	0,063
-318,270	-200,000	-0,001	0,024
-317,256	-200,000	0,009	-0,089
-316,241	-164,317	0,144	0,005
-315,226	-200,000	0,004	-0,062
-314,212	800,000	0,013	0,028
-313,197	156,810	-0,029	0,029
-312,183	-200,000	-0,006	0,136
-311,168	800,000	-0,011	0,025
-310,153	-200,000	-0,023	-0,084
-309,139	80,976	0,099	-0,076
-308,124	-200,000	-0,003	0,038
-307,110	-200,000	-0,000	-0,021
-306,095	800,000	0,023	0,055
-305,080	-200,000	0,002	0,142
-304,066	115,167	-0,126	-0,110
-303,051	-200,000	0,026	-0,114
-302,037	566,535	-0,024	-0,042
-301,022	-127,599	0,105	-0,011
-300,008	-200,000	0,036	-0,150
-298,993	-126,685	0,101	-0,011
-297,978	100,116	0,115	-0,095
-296,964	-159,283	0,121	-0,005
-295,949	155,752	-0,036	0,036
-294,935	-129,628	-0,024	0,002
-293,920	-89,356	0,079	-0,017
-292,905	4,932	0,046	0,024
-291,891	159,103	0,057	0,057
-290,876	800,000	-0,034	-0,097
-289,862	-11,334	0,071	0,033
-288,847	-200,000	-0,013	-0,054
-287,832	-200,000	-0,060	-0,213
-286,818	800,000	0,038	-0,103
-285,803	391,538	0,133	0,198
-284,789	-200,000	0,008	0,076
-283,774	-200,000	0,000	-0,077
-282,759	-111,031	0,080	-0,012
-281,745	-200,000	0,004	-0,184
-280,730	-132,296	-0,008	-0,001
-279,716	-17,650	0,032	0,014
-278,701	-6,833	0,120	-0,058
-277,686	275,803	0,028	0,035
-276,672	579,403	0,018	0,031
-275,657	80,781	0,101	0,078
-274,643	-200,000	-0,001	0,020
-273,628	-98,301	0,065	-0,012
-272,613	-67,436	-0,128	-0,036
-271,599	-200,000	-0,002	0,068
-270,584	540,157	0,045	0,077
-269,570	-200,000	-0,005	-0,041
-268,555	-102,320	-0,071	-0,012
-267,540	-200,000	-0,022	-0,121
-266,526	-48,290	-0,078	-0,027
-265,511	99,688	0,029	-0,024
-264,497	-200,000	0,034	-0,152
-263,482	-88,089	0,024	0,005
-262,467	106,208	0,067	0,057
-261,453	-50,331	0,033	-0,011
-260,438	58,825	0,084	-0,059
-259,424	-200,000	-0,059	-0,000
-258,409	-77,180	-0,037	-0,009
-257,395	225,203	0,089	0,102
-256,380	98,271	0,064	0,052
-255,365	18,141	0,064	-0,037
-254,351	-200,000	-0,031	0,148
-253,336	-200,000	-0,008	0,056
-252,322	-200,000	-0,017	-0,072
-251,307	800,000	-0,025	-0,078
-250,292	800,000	0,041	-0,086
-249,278	800,000	0,053	-0,118
-248,263	294,448	0,063	0,082
-247,249	800,000	-0,010	0,021
-246,234	89,142	0,101	-0,080
-245,219	11,472	-0,183	-0,100
-244,205	-20,196	-0,049	0,021
-243,190	-126,978	-0,136	0,014
-242,176	339,488	0,085	0,119
-241,161	-200,000	-0,003	0,141
-240,146	39,300	-0,092	-0,059
-239,132	800,000	-0,029	-0,063
-238,117	64,654	-0,084	0,060
-237,103	-200,000	-0,008	-0,060
-236,088	-99,142	0,071	0,013
-235,073	257,631	0,060	-0,074
-234,059	-200,000	0,007	-0,060
-233,044	542,059	-0,066	0,112
-232,030	-150,029	0,049	0,003
-231,015	-200,000	0,033	-0,137
-230,000	728,550	0,049	-0,094
-228,986	-200,000	-0,013	-0,125
-227,971	506,377	0,024	-0,041
-226,957	-200,000	0,035	0,147
-225,942	800,000	0,041	0,083
-224,927	279,713	-0,082	0,104
-223,913	800,000	-0,019	0,058
-222,898	-80,636	-0,024	-0,006
-221,884	346,748	-0,069	-0,097
-220,869	207,301	0,104	0,116
-219,855	-167,923	-0,079	-0,002
-218,840	-153,297	0,080	0,004
-217,825	-183,232	0,080	-0,001
-216,811	-149,503	-0,093	0,005
-215,796	45,932	-0,023	-0,015
-214,782	691,794	-0,063	0,118
-213,767	-75,574	0,028	0,007
-212,752	-200,000	-0,008	0,094
-211,738	-200,000	-0,025	0,132
-210,723	800,000	-0,044	-0,133
-209,709	-6,435	-0,165	0,080
-208,694	-200,000	-0,009	-0,070
-207,679	30,701	-0,120	-0,073
-206,665	348,866	0,035	0,050
-205,650	470,719	0,043	0,069
-204,636	800,000	0,060	0,139
-203,621	-200,000	0,002	-0,096
-202,606	483,734	0,047	0,077
-201,592	-200,000	0,006	-0,062
-200,577	-200,000	0,018	0,057
-199,563	-200,000	0,012	-0,099
-198,548	-26,165	-0,046	-0,019
-197,533	-200,000	-0,019	0,066
-196,519	-200,000	0,003	0,087
-195,504	-122,993	-0,067	0,008
-194,490	800,000	-0,050	0,113
-193,475	-200,000	0,011	-0,071
-192,460	6,574	0,068	0,036
-191,446	-200,000	0,007	0,038
-190,431	-39,671	0,114	-0,042
-189,417	57,146	-0,058	0,040
-188,402	-25,072	-0,101	0,043
-187,387	-200,000	-0,011	-0,093
-186,373	800,000	-0,043	-0,098
-185,358	188,589	-0,082	-0,088
-184,344	92,886	0,088	0,071
-183,329	697,139	-0,038	0,071
-182,315	-72,499	-0,115	0,030
-181,300	-124,811	-0,032	0,003
-180,285	-128,652	-0,132	-0,013
-179,271	800,000	-0,044	-0,090
-178,256	-15,104	0,094	0,043
-177,242	514,675	-0,074	0,124
-176,227	800,000	0,038	-0,108
-175,212	498,488	-0,043	-0,070
-174,198	-5,103	0,124	0,060
-173,183	141,261	0,056	0,053
-172,169	511,354	-0,042	0,070
-171,154	648,991	-0,062	-0,114
-170,139	-116,340	-0,063	-0,008
-169,125	94,233	-0,084	0,068
-168,110	585,411	0,026	-0,045
-167,096	-154,998	-0,087	-0,004
-166,081	-46,954	-0,128	-0,044
-165,066	30,556	0,023	-0,014
-164,052	-102,302	-0,116	-0,020
-163,037	-34,949	0,077	-0,030
-162,023	-50,394	0,064	0,021
-161,008	-124,207	-0,104	-0,011
-159,993	-161,338	0,024	-0,001
-158,979	701,626	-0,061	-0,115
-157,964	32,669	-0,130	0,080
-156,950	-85,360	0,116	-0,026
-155,935	-200,000	-0,030	-0,115
-154,920	-200,000	0,005	0,101
-153,906	800,000	-0,050	-0,148
-152,891	201,742	0,083	-0,091
-151,877	-200,000	0,006	0,024
-150,862	-43,919	0,085	0,030
-149,847	-83,277	0,023	0,005
-148,833	101,513	-0,055	-0,046
-147,818	352,129	0,031	-0,044
-146,804	-200,000	0,044	0,147
-145,789	800,000	0,029	-0,064
-144,775	-200,000	-0,048	0,191
-143,760	-111,153	-0,031	0,004
-142,745	13,950	0,080	-0,044
-141,731	377,979	0,032	0,046
-140,716	340,967	0,050	0,070
-139,702	-132,709	0,072	0,006
-138,687	-76,924	0,108	0,027
-137,672	800,000	-0,028	0,072
-136,658	217,900	-0,039	0,045
-135,643	800,000	0,068	-0,178
-134,629	4,091	0,075	-0,039
-133,614	-76,879	0,039	0,010
-132,599	-200,000	-0,013	0,072
-131,585	-72,568	0,015	-0,004
-130,570	-200,000	0,008	-0,042
-129,556	64,452	-0,018	-0,013
-128,541	78,606	-0,025	0,019
-127,526	800,000	0,022	-0,047
-126,512	-125,387	0,026	-0,003
-125,497	107,733	0,121	0,103
-124,483	-200,000	-0,017	-0,245
-123,468	-200,000	-0,007	-0,160
-122,453	51,193	-0,055	0,037
-121,439	31,983	0,020	-0,012
-120,424	-57,362	-0,061	0,019
-119,410	-32,464	0,120	0,047
-118,395	-200,000	0,043	0,188
-117,380	-91,737	0,077	0,015
-116,366	-200,000	-0,002	-0,039
-115,351	-21,650	-0,151	-0,065
-114,337	294,370	-0,035	-0,045
-113,322	-47,769	0,033	-0,011
-112,307	310,068	-0,014	0,019
-111,293	-200,000	0,043	-0,152
-110,278	214,108	0,109	-0,123
-109,264	-71,375	0,050	0,013
-108,249	800,000	-0,024	0,074
-107,234	-200,000	-0,009	-0,101
-106,220	-200,000	0,022	0,198
-105,205	48,448	0,077	0,051
-104,191	800,000	0,046	0,107
-103,176	70,480	0,086	0,063
-102,162	319,327	0,023	-0,031
-101,147	-200,000	0,020	-0,075
-100,132	325,752	0,046	-0,062
-99,118	-125,751	-0,048	0,005
-98,103	308,837	0,049	-0,065
-97,089	27,329	0,085	-0,051
-96,074	-23,530	-0,032	-0,014
-95,059	125,551	-0,095	-0,085
-94,045	297,555	-0,009	0,012
-93,030	-179,078	0,091	0,001
-92,016	134,929	0,032	-0,029
-91,001	-200,000	0,006	0,066
-89,986	25,605	0,092	0,054
-88,972	-200,000	-0,034	0,123
-87,957	138,982	-0,025	-0,023
-86,943	-67,924	-0,105	-0,029
-85,928	-192,232	-0,051	-0,000
-84,913	9,876	-0,114	0,061
-83,899	40,870	-0,042	0,027
-82,884	800,000	0,054	-0,124
-81,870	-200,000	-0,009	0,106
-80,855	-200,000	0,024	0,075
-79,840	127,933	-0,130	0,117
-78,826	800,000	-0,021	-0,063
-77,811	46,719	-0,039	-0,026
-76,797	-153,187	-0,097	-0,005
-75,782	213,371	-0,089	-0,100
-74,767	82,183	-0,098	0,075
-73,753	-49,946	0,131	-0,044
-72,738	800,000	0,015	-0,030
-71,724	800,000	-0,027	0,064
-70,709	800,000	-0,031	-0,064
-69,694	-33,026	0,053	0,021
-68,680	-107,010	0,086	0,013
-67,665	-200,000	0,041	-0,151
-66,651	17,799	0,054	0,030
-65,636	288,200	-0,077	0,099
-64,622	-24,741	0,080	-0,033
-63,607	260,770	-0,062	-0,076
-62,592	-200,000	-0,013	-0,115
-61,578	-78,448	-0,133	-0,032
-60,563	-33,150	-0,124	0,048
-59,549	-49,225	-0,102	0,034
-58,534	-0,735	-1,516	-0,759
-57,519	373,911	-1,406	-2,033
-56,505	-200,000	-0,280	-4,597
-55,490	227,369	0,906	1,044
-54,476	800,000	4,969	11,299
-53,461	-200,000	19,315	321,202
-52,446	-200,000	741,988	2334,856
-51,432	571,923	1656,113	2867,323
-50,417	77,998	1670,828	1260,232
-49,403	21,154	1544,031	884,930
-48,388	15,046	1466,543	810,810
-47,373	17,950	1456,804	819,431
-46,359	16,625	1446,557	807,279
-45,344	13,342	1441,720	788,824
-44,330	13,227	1440,053	787,329
-43,315	13,237	1438,236	786,351
-42,300	13,228	1436,666	785,416
-41,286	13,274	1435,449	784,943
-40,271	13,177	1434,168	783,745
-39,257	13,219	1432,821	783,179
-38,242	13,276	1431,426	782,659
-37,227	13,264	1430,162	781,880
-36,213	13,305	1428,684	781,232
-35,198	13,295	1427,610	780,569
-34,184	13,330	1426,565	780,132
-33,169	13,300	1425,417	779,329
-32,154	13,318	1424,259	778,754
-31,140	13,312	1422,997	778,001
-30,125	13,325	1421,955	777,462
-29,111	13,327	1420,667	776,739
-28,096	13,310	1419,673	776,082
-27,082	13,237	1418,725	775,190
-26,067	13,206	1417,528	774,360
-25,052	13,191	1416,474	773,683
-24,038	13,212	1415,580	773,264
-23,023	13,210	1414,515	772,638
-22,009	13,188	1413,506	771,957
-20,994	13,160	1412,470	771,229
-19,979	13,193	1411,688	770,925
-18,965	13,176	1410,662	770,254
-17,950	13,133	1409,740	769,517
-16,936	13,149	1408,854	769,078
-15,921	13,155	1407,653	768,422
-14,906	13,134	1406,794	767,821
-13,892	13,139	1405,869	767,310
-12,877	13,158	1404,904	766,842
-11,863	13,165	1404,210	766,466
-10,848	13,099	1403,291	765,625
-9,833	13,057	1402,661	765,058
-8,819	13,091	1401,568	764,588
-7,804	13,044	1400,763	763,900
-6,790	13,027	1399,795	763,263
-5,775	13,018	1398,841	762,668
-4,760	13,037	1397,728	762,121
-3,746	13,046	1396,744	761,595
-2,731	13,040	1395,739	760,988
-1,717	12,989	1395,090	760,369
-0,702	13,025	1393,112	759,428
0,313	16,978	1309,950	732,375
1,327	33,587	702,965	431,355
2,342	51,445	123,045	82,568
3,356	3,608	16,672	8,575
4,371	-4,344	3,216	1,568
5,386	-7,851	0,555	0,264
6,400	800,000	0,138	0,344
7,415	246,469	-0,181	-0,216
8,429	800,000	-0,043	-0,126
9,444	18,738	-0,244	-0,137
10,459	-23,308	-0,305	-0,129
11,473	39,191	-0,230	-0,145
12,488	-15,113	-0,308	-0,139
13,502	144,987	-0,281	-0,266
14,517	-20,408	-0,333	-0,144
15,531	121,612	-0,254	-0,223
16,546	40,212	-0,419	-0,266
17,561	27,858	-0,319	-0,189
18,575	217,488	-0,161	-0,182
19,590	166,638	-0,304	-0,305
20,604	82,131	-0,231	-0,177
21,619	38,018	-0,417	-0,261
22,634	191,315	-0,493	-0,524
23,648	108,930	-0,304	-0,256
24,663	3,344	-0,344	-0,176
25,677	6,890	-0,412	-0,216
26,692	60,247	-0,448	-0,313
27,707	42,523	-0,366	-0,234
28,721	77,454	-0,336	-0,252
29,736	138,223	-0,411	-0,381
30,750	60,696	-0,419	-0,293
31,765	-18,698	-0,468	-0,205
32,780	51,798	-0,384	-0,257
33,794	94,451	-0,303	-0,243
34,809	66,722	-0,282	-0,202
35,823	24,447	-0,421	-0,245
36,838	34,110	-0,345	-0,212
37,853	57,222	-0,484	-0,333
38,867	69,059	-0,373	-0,270
39,882	111,913	-0,313	-0,266
40,896	22,127	-0,378	-0,217
41,911	0,271	-0,290	-0,145
42,926	0,574	-0,353	-0,177
43,940	-10,833	-0,381	-0,177
44,955	40,053	-0,322	-0,203
45,969	166,589	-0,366	-0,366
46,984	453,654	-0,209	-0,326
47,999	-5,573	-0,374	-0,180
49,013	56,562	-0,270	-0,185
50,028	28,719	-0,385	-0,229
51,042	135,883	-0,329	-0,302
52,057	406,276	-0,259	-0,386
53,071	317,268	-0,284	-0,380
54,086	34,192	-0,354	-0,217
55,101	39,515	-0,302	-0,190
56,115	3,101	-0,334	-0,170
57,130	-71,733	-0,427	-0,111
58,144	29,476	-0,381	-0,227
59,159	129,267	-0,303	-0,272
60,174	-8,129	-0,330	-0,156
61,188	-5,281	-0,335	-0,162
62,203	136,655	-0,311	-0,286
63,217	155,997	-0,239	-0,232
64,232	43,767	-0,255	-0,164
65,247	156,313	-0,297	-0,289
66,261	-4,553	-0,404	-0,195
67,276	73,994	-0,384	-0,283
68,290	44,819	-0,314	-0,203
69,305	156,467	-0,330	-0,321
70,320	115,804	-0,147	-0,126
71,334	-52,715	-0,362	-0,117
72,349	36,430	-0,275	-0,170
73,363	64,165	-0,458	-0,323
74,378	144,253	-0,390	-0,366
75,393	16,289	-0,323	-0,179
76,407	10,462	-0,204	-0,109
77,422	-61,009	-0,395	-0,117
78,436	-122,112	-0,403	-0,046
79,451	307,906	-0,174	-0,228
80,466	42,769	-0,432	-0,276
81,480	6,110	-0,287	-0,149
82,495	109,574	-0,239	-0,201
83,509	51,156	-0,209	-0,139
84,524	58,861	-0,300	-0,207
85,539	8,920	-0,327	-0,173
86,553	17,983	-0,238	-0,133
87,568	45,586	-0,422	-0,273
88,582	-62,461	-0,364	-0,106
89,597	33,753	-0,252	-0,154
90,611	55,236	-0,271	-0,184
91,626	13,414	-0,387	-0,210
92,641	68,592	-0,139	-0,100
93,655	67,538	-0,258	-0,184
94,670	-56,815	-0,372	-0,115
95,684	314,012	-0,228	-0,302
96,699	-33,987	-0,317	-0,122
97,714	65,048	-0,326	-0,231
98,728	58,385	-0,254	-0,174
99,743	-4,335	-0,313	-0,151
100,757	-31,005	-0,255	-0,101
101,772	-50,800	-0,317	-0,104
102,787	82,068	-0,122	-0,093
103,801	46,243	-0,394	-0,255
104,816	163,555	-0,295	-0,291
105,830	106,330	-0,245	-0,203
106,845	116,124	-0,254	-0,218
107,860	226,297	-0,164	-0,187
108,874	174,335	-0,289	-0,293
109,889	34,806	-0,362	-0,221
110,903	22,780	-0,384	-0,220
111,918	-137,288	-0,264	-0,021
112,933	90,059	-0,211	-0,165
113,947	13,671	-0,204	-0,111
114,962	0,722	-0,256	-0,128
115,976	29,135	-0,249	-0,148
116,991	10,352	-0,290	-0,154
118,006	54,048	-0,284	-0,191
119,020	275,358	-0,149	-0,186
120,035	-146,814	-0,174	-0,010
121,049	-54,564	-0,304	-0,096
122,064	27,318	-0,297	-0,174
123,079	131,482	-0,245	-0,220
124,093	-69,819	-0,249	-0,066
125,108	103,267	-0,205	-0,169
126,122	155,567	-0,327	-0,315
127,137	39,244	-0,268	-0,168
128,151	137,189	-0,178	-0,163
129,166	183,987	-0,199	-0,206
130,181	14,592	-0,208	-0,113
131,195	4,292	-0,363	-0,185
132,210	78,268	-0,192	-0,144
133,224	103,486	-0,331	-0,272
134,239	76,840	-0,231	-0,171
135,254	264,468	-0,205	-0,250
136,268	-30,316	-0,211	-0,083
137,283	-64,770	-0,193	-0,054
138,297	-47,906	-0,345	-0,116
139,312	582,350	-0,224	-0,386
140,327	66,523	-0,258	-0,183
141,341	-25,390	-0,278	-0,114
142,356	7,591	-0,198	-0,103
143,370	-34,701	-0,226	-0,086
144,385	100,169	-0,234	-0,190
145,400	285,145	-0,153	-0,194
146,414	-23,270	-0,395	-0,165
147,429	1,701	-0,364	-0,182
148,443	120,960	-0,166	-0,145
149,458	-100,406	-0,248	0,042
150,473	-3,278	-0,173	-0,084
151,487	-88,459	-0,224	-0,046
152,502	206,293	-0,303	-0,329
153,516	362,971	-0,224	-0,314
154,531	-0,169	-0,277	-0,137
155,546	58,963	-0,330	-0,227
156,560	25,819	-0,253	-0,147
157,575	-165,931	-0,107	-0,003
158,589	-58,991	-0,217	-0,065
159,604	254,451	-0,194	-0,232
160,619	37,764	-0,290	-0,180
161,633	51,607	-0,346	-0,229
162,648	262,472	-0,161	-0,195
163,662	361,803	-0,169	-0,237
164,677	-55,790	-0,224	-0,069
165,692	-79,517	-0,262	-0,061
166,706	-59,142	-0,285	-0,085
167,721	156,030	-0,267	-0,257
168,735	65,122	-0,217	-0,153
169,750	271,014	-0,133	-0,164
170,764	276,398	-0,105	-0,130
171,779	117,838	-0,185	-0,159
172,794	32,123	-0,219	-0,132
173,808	206,512	-0,248	-0,269
174,823	88,870	-0,257	-0,199
175,837	445,076	-0,178	-0,273
176,852	-67,286	-0,273	-0,074
177,867	-130,217	-0,244	-0,023
178,881	-37,346	-0,180	-0,067
179,896	-43,715	-0,319	-0,111
180,910	5,833	-0,174	-0,089
181,925	-95,402	-0,217	0,040
182,940	-42,239	-0,254	-0,090
183,954	-56,286	-0,212	-0,065
184,969	-125,240	-0,209	0,022
185,983	800,000	-0,098	-0,257
186,998	-66,155	-0,259	-0,071
188,013	382,264	-0,093	-0,133
189,027	193,636	-0,198	-0,209
190,042	-51,602	-0,311	-0,100
191,056	-200,000	-0,055	-0,209
192,071	387,070	-0,155	-0,224
193,086	-8,662	-0,176	-0,082
194,100	-81,908	-0,089	-0,020
195,115	66,951	-0,135	-0,095
196,129	164,917	-0,107	-0,105
197,144	39,202	-0,344	-0,214
198,159	67,758	-0,251	-0,178
199,173	306,427	-0,100	-0,129
200,188	349,731	-0,133	-0,183
201,202	113,434	-0,207	-0,174
202,217	-72,318	-0,261	-0,067
203,232	-23,307	-0,236	-0,098
204,246	80,029	-0,322	-0,240
205,261	-30,031	-0,191	-0,075
206,275	-42,996	-0,120	-0,042
207,290	14,308	-0,178	-0,096
208,304	28,181	-0,145	-0,085
209,319	68,197	-0,228	-0,162
210,334	89,653	-0,212	-0,165
211,348	45,228	-0,156	-0,100
212,363	75,163	-0,119	-0,087
213,377	290,383	-0,195	-0,247
214,392	-17,707	-0,223	-0,097
215,407	-200,000	0,011	-0,100
216,421	-13,713	-0,143	-0,064
217,436	-17,969	-0,158	-0,068
218,450	-60,822	-0,239	-0,070
219,465	45,073	-0,168	-0,107
220,480	800,000	-0,132	-0,274
221,494	33,442	-0,189	-0,114
222,509	147,601	-0,174	-0,163
223,523	-47,566	-0,228	-0,076
224,538	800,000	-0,085	-0,191
225,553	353,446	-0,186	-0,257
226,567	73,809	-0,263	-0,191
227,582	274,460	-0,246	-0,303
228,596	69,106	-0,184	-0,131
229,611	274,121	-0,139	-0,171
230,626	305,713	-0,177	-0,228
231,640	104,840	-0,195	-0,159
232,655	27,583	-0,285	-0,166
233,669	361,855	-0,118	-0,165
234,684	-36,275	-0,264	-0,098
235,699	-23,939	-0,212	-0,087
236,713	-172,113	-0,173	-0,004
237,728	-146,564	-0,219	-0,013
238,742	-144,459	-0,198	-0,013
239,757	382,330	-0,152	-0,218
240,772	37,935	-0,245	-0,150
241,786	123,203	-0,100	-0,086
242,801	3,644	-0,135	-0,068
243,815	33,404	-0,209	-0,126
244,830	487,855	-0,120	-0,190
245,844	18,606	-0,169	-0,093
246,859	108,181	-0,131	-0,108
247,874	22,763	-0,142	-0,080
248,888	-105,732	-0,144	-0,022
249,903	36,641	-0,231	-0,141
250,917	16,855	-0,099	-0,054
251,932	-48,440	-0,087	0,029
252,947	108,509	-0,150	-0,124
253,961	104,668	-0,209	-0,170
254,976	-84,461	-0,164	-0,036
255,990	163,384	-0,163	-0,159
257,005	219,932	-0,072	-0,080
258,020	2,986	-0,116	-0,058
259,034	-200,000	-0,045	-0,155
260,049	189,282	-0,158	-0,164
261,063	96,031	-0,225	-0,178
262,078	-0,669	-0,230	-0,112
263,093	135,807	-0,162	-0,146
264,107	87,963	-0,135	-0,104
265,122	-3,217	-0,174	-0,084
266,136	-48,782	-0,271	-0,089
267,151	30,233	-0,263	-0,155
268,166	255,522	-0,119	-0,141
269,180	442,535	-0,181	-0,274
270,195	-174,044	-0,191	-0,004
271,209	26,528	-0,272	-0,157
272,224	-200,000	-0,022	-0,149
273,239	-200,000	-0,041	-0,158
274,253	377,171	-0,084	-0,119
275,268	-19,385	-0,205	-0,088
276,282	-200,000	0,020	-0,213
277,297	117,993	-0,150	-0,127
278,312	646,707	-0,158	-0,279
279,326	19,458	-0,124	-0,069
280,341	-153,955	-0,163	-0,008
281,355	-15,656	-0,142	-0,062
282,370	495,918	-0,158	-0,252
283,384	-33,745	-0,271	-0,102
284,399	-124,414	-0,239	-0,025
285,414	225,862	0,010	0,012
286,428	776,063	-0,108	-0,204
287,443	-52,839	-0,159	0,050
288,457	-125,579	-0,151	-0,016
289,472	293,096	-0,200	-0,252
290,487	238,886	-0,156	-0,179
291,501	109,378	-0,106	-0,088
292,516	13,748	-0,304	-0,162
293,530	800,000	-0,098	-0,207
294,545	289,550	-0,075	-0,094
295,560	763,374	-0,111	-0,209
296,574	661,108	-0,044	-0,079
297,589	80,414	-0,103	-0,077
298,603	265,038	-0,126	-0,151
299,618	245,694	-0,136	-0,158
300,633	118,667	-0,131	-0,112
301,647	389,359	-0,141	-0,201
302,662	55,560	-0,108	-0,072
303,676	800,000	-0,051	-0,110
304,691	-200,000	-0,240	-0,001
305,706	-86,486	-0,246	-0,052
306,720	646,900	-0,081	-0,144
307,735	3,274	-0,117	-0,058
308,749	-200,000	-0,015	-0,112
309,764	-146,415	-0,135	-0,008
310,779	410,497	-0,073	-0,107
311,793	405,868	-0,094	-0,137
312,808	140,310	-0,143	-0,130
313,822	62,057	-0,160	-0,110
314,837	186,248	-0,105	-0,108
315,852	-70,125	-0,223	-0,058
316,866	-28,081	-0,112	-0,044
317,881	-192,278	-0,087	-0,001
318,895	266,628	-0,134	-0,162
319,910	361,903	-0,112	-0,154
320,925	604,260	-0,106	-0,182
321,939	155,511	-0,123	-0,116
322,954	-180,087	-0,197	-0,003
323,968	-200,000	0,018	-0,148
324,983	266,015	-0,102	-0,123
325,997	209,559	-0,155	-0,167
327,012	161,326	-0,143	-0,138
328,027	-156,847	-0,193	-0,008
329,041	-161,257	-0,071	-0,002
330,056	288,456	-0,104	-0,130
331,070	-147,881	-0,086	-0,005
332,085	50,621	-0,183	-0,119
333,100	-140,251	-0,172	-0,012
334,114	48,979	-0,184	-0,118
335,129	-113,412	-0,114	-0,015
336,143	-165,504	-0,202	0,006
337,158	-42,030	-0,259	-0,091
338,173	-157,812	-0,168	-0,007
339,187	800,000	-0,088	-0,170
340,202	-131,679	-0,098	-0,009
341,216	-34,266	-0,187	-0,070
342,231	513,799	-0,127	-0,205
343,246	-66,320	-0,115	-0,031
344,260	-200,000	-0,052	-0,158
345,275	109,591	-0,137	-0,113
346,289	-26,183	-0,035	0,014
347,304	434,512	-0,052	-0,078
348,319	201,963	-0,143	-0,152
349,333	-61,766	-0,130	0,037
350,348	190,543	-0,096	-0,099
351,362	-44,428	-0,201	-0,069
352,377	-0,193	-0,041	0,020
353,392	800,000	-0,030	-0,076
354,406	263,018	-0,161	-0,192
355,421	210,127	1314,443	1416,781
356,435	161,748	1475,145	1417,272
