DTS Sentinel unit serial number:	SN410029Multiplexer serial number:	ORYXHardware model number:	OX2-SRSoftware version number:	ORYX F/W v4,00 Oryx Data Collector v3.7.2.0data status	okinstallation	B3 Nyhavnadifferential loss correction	single-endedforward channel	channel 1reverse channel	N/Adate	2023/11/30time	21:02:30forward acquisition time	300,00reverse acquisition time	0,00gamma	499,1914k internal	0,3209k external	0,3209temperature offset calibration	1,0000default loss term (dB/km)	0,3820temperature slope calibration	1,0000multiplexer offset coefficient	1,0000multiplexer slope coefficient	1,0000fibre end	0,00T internal ref (°C)	10,87T ext. ref 1 (°C)	-4,43T ext. ref 2 (°C)	-4,55length (m)	temperature (°C)	Stokes	anti-Stokes-744,400	353,497	-0,221	-0,319
-743,385	-200,000	0,026	0,196
-742,371	46,027	-0,240	-0,161
-741,356	-200,000	-0,036	0,307
-740,342	269,616	-0,165	-0,211
-739,327	800,000	-0,129	0,259
-738,312	-200,000	-0,077	-0,257
-737,298	-200,000	-0,001	0,215
-736,283	-41,528	-0,261	-0,097
-735,269	-200,000	0,083	0,375
-734,254	80,073	-0,282	-0,219
-733,239	110,791	-0,112	0,098
-732,225	-200,000	-0,058	-0,263
-731,210	800,000	-0,053	0,133
-730,196	-150,918	-0,009	-0,000
-729,181	800,000	-0,000	0,001
-728,167	800,000	0,009	0,019
-727,152	-104,887	0,098	-0,016
-726,137	11,882	-0,117	-0,065
-725,123	229,031	-0,056	-0,066
-724,108	357,639	-0,039	-0,056
-723,094	700,440	-0,075	-0,144
-722,079	164,289	-0,083	-0,085
-721,064	556,091	-0,057	-0,100
-720,050	154,332	-0,115	0,115
-719,035	132,593	-0,047	-0,044
-718,021	-200,000	-0,008	0,071
-717,006	-108,060	-0,263	-0,041
-715,991	558,080	-0,071	-0,125
-714,977	-200,000	-0,036	-0,126
-713,962	-200,000	-0,014	-0,052
-712,948	514,072	0,065	0,110
-711,933	-186,056	0,078	-0,001
-710,918	250,465	0,063	0,078
-709,904	800,000	0,013	-0,039
-708,889	-70,570	-0,083	0,022
-707,875	-200,000	0,017	-0,109
-706,860	-106,447	0,061	-0,010
-705,845	255,748	-0,046	0,058
-704,831	-200,000	0,029	0,098
-703,816	-103,638	0,106	-0,018
-702,802	-200,000	0,014	0,050
-701,787	114,152	-0,018	0,016
-700,772	537,290	-0,034	-0,059
-699,758	-124,926	-0,135	0,015
-698,743	-119,660	0,100	-0,012
-697,729	-141,498	0,062	0,004
-696,714	-200,000	0,030	0,206
-695,699	714,715	0,049	-0,094
-694,685	800,000	0,018	-0,054
-693,670	38,774	0,035	-0,023
-692,656	-200,000	-0,003	0,035
-691,641	194,194	-0,020	-0,022
-690,627	800,000	0,006	-0,016
-689,612	-23,007	-0,077	0,033
-688,597	-8,251	-0,109	-0,053
-687,583	-53,831	0,051	-0,017
-686,568	800,000	-0,015	-0,046
-685,554	-156,649	-0,070	-0,003
-684,539	-151,134	0,117	-0,006
-683,524	-200,000	0,007	0,133
-682,510	-47,371	-0,080	0,028
-681,495	-56,432	-0,087	0,028
-680,481	-200,000	-0,035	-0,178
-679,466	78,200	0,168	-0,130
-678,451	34,851	-0,193	0,122
-677,437	-200,000	0,002	0,081
-676,422	-200,000	0,032	0,117
-675,408	-200,000	-0,002	-0,124
-674,393	295,590	-0,069	-0,091
-673,378	-200,000	-0,001	-0,056
-672,364	139,417	-0,040	0,038
-671,349	-83,261	0,048	0,011
-670,335	-200,000	0,032	-0,143
-669,320	800,000	-0,014	0,041
-668,305	-51,526	0,048	0,016
-667,291	-200,000	-0,049	-0,222
-666,276	547,068	-0,003	-0,006
-665,262	-200,000	-0,018	-0,306
-664,247	-112,811	0,051	0,007
-663,232	281,856	0,040	-0,051
-662,218	62,842	0,083	-0,060
-661,203	107,125	0,123	-0,106
-660,189	459,600	0,037	-0,060
-659,174	186,733	-0,054	0,058
-658,159	60,637	-0,020	-0,014
-657,145	-200,000	-0,021	-0,139
-656,130	32,871	0,081	0,050
-655,116	213,031	-0,065	-0,074
-654,101	-123,145	0,100	0,011
-653,086	20,767	-0,087	0,051
-652,072	-200,000	-0,007	0,201
-651,057	-28,554	-0,178	0,074
-650,043	124,190	-0,132	0,120
-649,028	-158,938	0,058	-0,002
-648,014	-200,000	0,005	0,152
-646,999	-200,000	0,009	-0,064
-645,984	167,023	-0,129	-0,133
-644,970	-22,338	-0,175	-0,076
-643,955	40,460	0,088	-0,057
-642,941	157,318	-0,060	-0,060
-641,926	110,826	0,083	-0,072
-640,911	0,500	0,121	0,062
-639,897	-200,000	-0,008	0,105
-638,882	271,254	-0,097	0,124
-637,868	800,000	-0,028	0,060
-636,853	51,880	0,050	-0,034
-635,838	699,119	-0,037	-0,070
-634,824	-34,520	0,045	-0,018
-633,809	220,661	0,019	0,022
-632,795	-124,179	-0,069	0,008
-631,780	694,926	0,012	-0,023
-630,765	223,931	-0,032	-0,038
-629,751	-200,000	0,001	-0,097
-628,736	-81,379	-0,168	-0,040
-627,722	303,189	-0,065	-0,087
-626,707	-200,000	0,017	0,103
-625,692	-200,000	-0,103	0,000
-624,678	-70,390	-0,181	-0,049
-623,663	131,910	0,080	-0,075
-622,649	423,415	-0,013	0,020
-621,634	800,000	-0,051	0,138
-620,619	-91,713	-0,074	0,015
-619,605	512,753	0,075	0,126
-618,590	626,618	0,020	0,038
-617,576	-122,189	-0,101	0,012
-616,561	513,938	-0,126	-0,213
-615,546	-106,495	0,110	0,018
-614,532	800,000	0,045	0,100
-613,517	-130,299	0,177	-0,017
-612,503	126,424	-0,051	-0,046
-611,488	-125,797	0,121	-0,013
-610,474	151,202	-0,080	0,079
-609,459	314,061	-0,014	0,019
-608,444	-13,325	-0,220	0,103
-607,430	-71,808	-0,085	0,023
-606,415	396,630	-0,047	-0,071
-605,401	-77,393	0,173	-0,043
-604,386	-120,335	0,135	0,016
-603,371	800,000	0,028	0,086
-602,357	800,000	-0,043	-0,100
-601,342	263,681	0,036	-0,045
-600,328	-200,000	0,018	-0,137
-599,313	103,294	-0,101	-0,085
-598,298	-200,000	-0,005	-0,159
-597,284	800,000	0,045	0,125
-596,269	95,057	-0,156	0,128
-595,255	-33,595	0,085	-0,034
-594,240	2,887	0,040	-0,021
-593,225	800,000	0,032	-0,074
-592,211	-38,186	0,039	-0,015
-591,196	67,352	0,096	-0,071
-590,182	26,571	0,140	0,084
-589,167	772,330	0,020	-0,039
-588,152	-200,000	0,031	0,188
-587,138	800,000	-0,031	-0,094
-586,123	130,488	-0,064	0,059
-585,109	-75,391	0,049	-0,012
-584,094	-200,000	-0,016	0,073
-583,079	-200,000	0,021	-0,074
-582,065	800,000	0,069	0,211
-581,050	800,000	-0,012	-0,036
-580,036	-200,000	0,007	0,084
-579,021	-200,000	-0,009	-0,106
-578,006	136,898	0,004	0,004
-576,992	432,303	0,061	0,096
-575,977	-92,959	0,172	-0,034
-574,963	15,685	0,098	-0,055
-573,948	24,184	0,039	0,023
-572,934	564,143	-0,017	0,029
-571,919	420,289	-0,033	-0,050
-570,904	379,207	-0,065	-0,097
-569,890	-24,901	-0,102	0,044
-568,875	72,074	0,073	0,055
-567,861	-19,349	0,110	0,049
-566,846	114,462	-0,029	0,025
-565,831	-200,000	-0,029	0,113
-564,817	-200,000	0,006	-0,024
-563,802	-200,000	0,033	-0,119
-562,788	-200,000	0,005	-0,130
-561,773	59,378	0,107	-0,076
-560,758	258,523	0,058	0,072
-559,744	3,082	-0,083	0,043
-558,729	800,000	0,016	0,032
-557,715	-31,928	0,057	-0,023
-556,700	-70,850	-0,107	0,029
-555,685	251,192	-0,072	-0,089
-554,671	-200,000	-0,020	-0,067
-553,656	-7,770	0,042	0,020
-552,642	-60,347	0,020	0,006
-551,627	-200,000	-0,004	-0,056
-550,612	182,627	-0,060	0,064
-549,598	-32,942	-0,131	-0,052
-548,583	453,041	-0,097	0,155
-547,569	-80,235	-0,186	0,044
-546,554	-65,437	-0,094	0,027
-545,539	553,540	-0,079	0,137
-544,525	-176,854	-0,072	-0,001
-543,510	253,278	0,011	0,013
-542,496	467,308	0,029	-0,048
-541,481	644,996	-0,089	-0,165
-540,466	795,485	-0,038	-0,076
-539,452	-200,000	-0,008	0,101
-538,437	169,681	0,088	0,091
-537,423	-7,298	0,127	0,062
-536,408	-88,683	-0,152	0,032
-535,393	-99,071	0,061	0,011
-534,379	-87,127	0,091	-0,020
-533,364	-125,238	-0,096	0,010
-532,350	-75,205	0,097	0,025
-531,335	-200,000	0,005	-0,027
-530,321	413,092	0,080	0,123
-529,306	-107,669	0,079	0,012
-528,291	24,533	-0,111	0,066
-527,277	152,895	-0,039	-0,038
-526,262	-11,153	-0,082	0,039
-525,248	-27,302	0,106	-0,044
-524,233	-200,000	-0,022	-0,095
-523,218	158,633	0,079	0,079
-522,204	729,418	-0,046	0,088
-521,189	-16,627	0,067	-0,031
-520,175	800,000	-0,051	-0,130
-519,160	111,706	0,136	0,118
-518,145	-140,428	0,017	-0,001
-517,131	-200,000	0,058	-0,269
-516,116	394,205	0,022	-0,033
-515,102	-19,418	0,050	0,022
-514,087	96,567	-0,143	-0,118
-513,072	-200,000	0,007	-0,109
-512,058	4,240	-0,015	-0,008
-511,043	-82,879	-0,181	-0,042
-510,029	-200,000	0,033	0,121
-509,014	-23,561	0,043	0,018
-507,999	-200,000	0,007	0,140
-506,985	-200,000	0,007	0,038
-505,970	45,153	-0,083	0,055
-504,956	-4,369	0,058	0,029
-503,941	-200,000	0,002	-0,140
-502,926	345,829	0,076	0,107
-501,912	678,921	0,131	0,246
-500,897	166,644	-0,072	0,074
-499,883	112,411	-0,077	0,067
-498,868	-198,432	0,069	-0,000
-497,853	69,830	-0,031	-0,023
-496,839	-106,662	0,058	0,009
-495,824	19,342	0,056	0,032
-494,810	-22,173	0,054	-0,023
-493,795	44,926	-0,127	-0,084
-492,781	-200,000	0,015	-0,060
-491,766	-200,000	0,026	-0,144
-490,751	279,047	0,057	-0,073
-489,737	67,500	-0,080	-0,058
-488,722	800,000	0,013	-0,034
-487,708	-200,000	0,021	-0,066
-486,693	-119,293	-0,075	0,009
-485,678	-75,712	0,046	-0,012
-484,664	-145,373	-0,104	-0,007
-483,649	-200,000	0,010	-0,101
-482,635	313,066	0,067	0,091
-481,620	-200,000	0,010	0,072
-480,605	514,576	0,021	0,036
-479,591	167,752	0,133	0,136
-478,576	153,867	-0,070	0,069
-477,562	-28,010	-0,059	-0,024
-476,547	-200,000	0,000	-0,129
-475,532	362,102	-0,068	-0,099
-474,518	-200,000	0,009	0,066
-473,503	208,488	0,113	0,127
-472,489	-41,854	-0,066	-0,024
-471,474	-200,000	-0,007	0,056
-470,459	125,946	-0,093	0,084
-469,445	-2,480	-0,038	-0,019
-468,430	145,690	0,032	-0,031
-467,416	3,820	-0,059	-0,031
-466,401	800,000	-0,038	-0,119
-465,386	185,800	0,046	0,049
-464,372	-200,000	-0,014	-0,054
-463,357	710,329	0,031	-0,059
-462,343	399,004	-0,074	-0,112
-461,328	10,886	0,106	0,058
-460,313	-200,000	-0,010	-0,038
-459,299	-65,030	-0,056	0,016
-458,284	-53,397	0,182	-0,059
-457,270	346,089	-0,009	-0,013
-456,255	173,273	-0,114	-0,118
-455,241	-200,000	0,022	-0,168
-454,226	-37,563	0,077	-0,029
-453,211	-200,000	0,020	-0,082
-452,197	800,000	0,025	0,075
-451,182	-27,788	0,236	0,098
-450,168	-200,000	-0,004	0,106
-449,153	10,155	0,024	0,013
-448,138	222,111	-0,115	-0,133
-447,124	-6,865	0,051	-0,025
-446,109	800,000	-0,017	-0,050
-445,095	-107,231	0,163	0,026
-444,080	381,062	-0,058	0,086
-443,065	83,283	0,128	0,100
-442,051	-141,189	0,058	0,004
-441,036	800,000	0,041	-0,090
-440,022	109,670	-0,115	0,099
-439,007	11,614	0,112	-0,061
-437,992	-200,000	0,014	0,071
-436,978	-200,000	-0,019	0,131
-435,963	-43,330	0,082	0,030
-434,949	188,554	-0,012	-0,013
-433,934	-102,399	-0,121	-0,021
-432,919	-200,000	-0,002	-0,034
-431,905	-43,890	0,032	0,011
-430,890	-200,000	0,048	0,212
-429,876	-200,000	-0,018	0,101
-428,861	-200,000	0,001	0,048
-427,846	-200,000	-0,008	-0,158
-426,832	-42,276	-0,082	-0,030
-425,817	89,351	-0,094	0,075
-424,803	62,714	-0,096	-0,069
-423,788	800,000	0,049	-0,120
-422,773	39,838	-0,136	-0,087
-421,759	-153,643	0,081	-0,004
-420,744	144,830	0,042	-0,040
-419,730	-1,155	-0,066	0,033
-418,715	53,582	-0,051	0,035
-417,701	8,532	0,063	0,034
-416,686	-200,000	-0,009	-0,107
-415,671	243,849	-0,054	-0,065
-414,657	-200,000	0,001	0,120
-413,642	-24,779	-0,188	0,080
-412,628	224,020	0,039	-0,045
-411,613	-200,000	0,003	-0,098
-410,598	139,463	-0,070	-0,066
-409,584	800,000	-0,042	0,092
-408,569	800,000	0,058	0,122
-407,555	800,000	-0,076	0,153
-406,540	25,330	-0,129	0,076
-405,525	-98,515	-0,144	0,026
-404,511	149,441	-0,105	-0,102
-403,496	196,940	0,098	-0,107
-402,482	114,703	0,050	-0,044
-401,467	-200,000	0,003	0,088
-400,452	-137,007	0,103	0,008
-399,438	-200,000	-0,015	-0,080
-398,423	402,969	-0,073	-0,111
-397,409	-112,298	-0,118	-0,017
-396,394	-200,000	-0,013	-0,092
-395,379	-4,893	-0,071	-0,035
-394,365	-43,808	-0,051	-0,018
-393,350	7,613	-0,087	0,046
-392,336	605,508	-0,030	0,054
-391,321	26,274	-0,087	0,052
-390,306	327,015	0,068	0,094
-389,292	2,762	-0,052	0,027
-388,277	-200,000	0,017	-0,158
-387,263	-200,000	-0,023	0,082
-386,248	-102,720	0,130	-0,022
-385,233	-107,060	-0,119	-0,019
-384,219	699,092	-0,097	-0,184
-383,204	-200,000	0,027	0,178
-382,190	340,185	0,079	0,110
-381,175	122,774	0,100	-0,090
-380,160	-200,000	0,038	0,156
-379,146	698,135	-0,025	0,048
-378,131	-200,000	0,171	-0,000
-377,117	408,143	-0,066	-0,100
-376,102	-200,000	0,041	-0,133
-375,088	9,897	-0,073	0,039
-374,073	800,000	0,040	0,104
-373,058	-95,390	0,062	0,012
-372,044	-200,000	-0,004	0,041
-371,029	-200,000	0,016	0,074
-370,015	33,065	-0,061	-0,037
-369,000	131,584	-0,063	-0,058
-367,985	800,000	-0,032	0,083
-366,971	-90,519	0,019	0,004
-365,956	79,741	0,126	-0,097
-364,942	-162,943	0,230	-0,008
-363,927	-200,000	0,004	0,112
-362,912	-29,913	0,044	-0,018
-361,898	800,000	0,015	0,030
-360,883	-87,800	-0,041	-0,009
-359,869	-200,000	-0,032	-0,123
-358,854	800,000	-0,035	-0,079
-357,839	418,087	0,096	-0,147
-356,825	66,094	0,129	0,094
-355,810	-200,000	0,014	0,100
-354,796	-200,000	-0,001	0,028
-353,781	162,783	-0,111	-0,112
-352,766	68,908	0,108	-0,079
-351,752	800,000	0,032	-0,069
-350,737	206,321	0,099	0,111
-349,723	699,455	-0,054	0,101
-348,708	35,628	-0,136	-0,085
-347,693	-100,292	-0,028	0,005
-346,679	84,002	0,054	-0,042
-345,664	653,886	-0,080	0,147
-344,650	58,053	-0,062	0,043
-343,635	-200,000	0,003	0,050
-342,620	-109,774	0,167	0,025
-341,606	800,000	0,047	0,125
-340,591	20,267	0,073	-0,042
-339,577	179,416	0,023	0,024
-338,562	83,972	-0,103	-0,080
-337,548	-200,000	-0,012	0,086
-336,533	612,424	-0,016	0,029
-335,518	-166,663	0,094	0,003
-334,504	-21,379	0,142	0,061
-333,489	-95,147	0,039	0,007
-332,475	138,456	-0,075	-0,071
-331,460	800,000	-0,048	-0,108
-330,445	406,035	0,040	-0,061
-329,431	147,069	0,095	-0,091
-328,416	-30,782	0,124	0,050
-327,402	-200,000	0,025	0,146
-326,387	-34,781	0,097	0,038
-325,372	91,324	0,066	-0,053
-324,358	-200,000	-0,001	0,031
-323,343	96,080	-0,060	0,049
-322,329	800,000	-0,069	0,149
-321,314	316,644	0,074	-0,100
-320,299	800,000	0,039	0,107
-319,285	-133,826	-0,126	-0,011
-318,270	-75,529	-0,064	0,016
-317,256	800,000	-0,077	-0,192
-316,241	68,090	0,120	0,087
-315,226	-200,000	0,032	0,101
-314,212	-200,000	-0,017	0,159
-313,197	800,000	-0,063	0,179
-312,183	7,343	0,126	0,067
-311,168	73,421	-0,066	0,049
-310,153	385,885	0,017	-0,025
-309,139	-52,064	0,006	0,002
-308,124	320,120	-0,031	0,042
-307,110	-200,000	-0,004	0,075
-306,095	800,000	-0,018	0,056
-305,080	-200,000	0,032	0,155
-304,066	83,425	-0,097	0,075
-303,051	174,488	0,082	-0,085
-302,037	183,416	-0,081	-0,086
-301,022	-126,098	-0,183	-0,019
-300,008	449,400	0,129	0,204
-298,993	-109,910	0,183	0,027
-297,978	57,352	-0,091	-0,063
-296,964	-200,000	-0,014	-0,065
-295,949	436,564	-0,034	0,053
-294,935	800,000	-0,040	-0,116
-293,920	-79,494	-0,035	-0,008
-292,905	-6,757	0,053	-0,026
-291,891	-129,346	0,114	0,011
-290,876	45,211	-0,055	0,036
-289,862	-29,201	0,124	-0,050
-288,847	800,000	-0,018	-0,048
-287,832	800,000	0,018	-0,036
-286,818	-111,033	-0,052	0,008
-285,803	-200,000	0,008	0,028
-284,789	346,149	0,101	0,142
-283,774	560,155	0,046	-0,079
-282,759	393,593	-0,032	0,048
-281,745	315,876	0,108	-0,146
-280,730	-113,207	-0,083	-0,012
-279,716	-200,000	-0,043	-0,236
-278,701	-200,000	-0,005	0,036
-277,686	63,016	0,121	0,087
-276,672	-21,533	-0,114	0,049
-275,657	-200,000	0,024	0,108
-274,643	281,610	-0,051	0,065
-273,628	-200,000	0,011	-0,064
-272,613	83,638	0,083	-0,065
-271,599	-200,000	-0,004	-0,107
-270,584	-200,000	0,007	-0,039
-269,570	800,000	-0,016	0,048
-268,555	-68,288	-0,146	0,040
-267,540	-74,962	0,060	-0,015
-266,526	-30,672	0,077	0,031
-265,511	507,519	-0,042	-0,070
-264,497	-45,645	0,032	-0,011
-263,482	800,000	0,051	0,159
-262,467	800,000	-0,062	0,189
-261,453	166,961	-0,022	0,022
-260,438	-200,000	-0,024	-0,093
-259,424	511,714	-0,031	-0,052
-258,409	-59,278	-0,083	0,025
-257,395	800,000	-0,010	-0,027
-256,380	-200,000	0,015	0,000
-255,365	220,996	0,113	0,129
-254,351	360,983	0,066	0,094
-253,336	-86,317	0,050	-0,011
-252,322	-200,000	-0,028	-0,118
-251,307	-41,812	-0,038	-0,014
-250,292	48,793	-0,057	-0,038
-249,278	200,770	0,089	-0,097
-248,263	194,302	0,041	-0,045
-247,249	356,971	-0,033	0,047
-246,234	800,000	-0,077	-0,200
-245,219	800,000	-0,022	-0,067
-244,205	8,072	-0,123	-0,066
-243,190	149,741	0,145	-0,140
-242,176	-200,000	0,017	-0,162
-241,161	86,099	-0,017	0,013
-240,146	-127,870	0,098	-0,010
-239,132	212,796	0,069	-0,078
-238,117	10,509	0,063	0,034
-237,103	-200,000	0,001	-0,218
-236,088	-200,000	0,009	-0,119
-235,073	800,000	0,039	0,079
-234,059	256,562	-0,050	-0,061
-233,044	207,117	-0,034	0,038
-232,030	177,608	-0,098	-0,102
-231,015	85,874	-0,129	-0,101
-230,000	-109,147	0,056	-0,008
-228,986	-126,360	0,101	0,011
-227,971	800,000	0,032	0,080
-226,957	499,198	0,084	0,138
-225,942	797,180	-0,058	0,114
-224,927	-74,251	0,205	-0,052
-223,913	128,068	-0,063	-0,057
-222,898	-200,000	0,006	-0,179
-221,884	14,326	0,131	-0,073
-220,869	-200,000	0,016	-0,111
-219,855	-200,000	0,001	0,061
-218,840	-200,000	-0,030	0,115
-217,825	448,966	0,022	-0,034
-216,811	214,681	-0,116	-0,131
-215,796	-200,000	0,004	0,083
-214,782	721,745	-0,089	-0,170
-213,767	-200,000	-0,019	0,116
-212,752	191,617	-0,052	-0,055
-211,738	-137,114	0,089	-0,007
-210,723	145,182	-0,053	0,050
-209,709	319,068	-0,139	-0,188
-208,694	-200,000	-0,001	0,126
-207,679	-200,000	-0,029	0,107
-206,665	-200,000	0,029	0,192
-205,650	-200,000	-0,007	0,023
-204,636	-200,000	0,016	0,225
-203,621	282,044	-0,020	0,026
-202,606	126,520	-0,066	-0,060
-201,592	800,000	-0,039	-0,102
-200,577	-9,599	0,084	-0,040
-199,563	-200,000	0,005	0,067
-198,548	83,671	0,190	0,147
-197,533	800,000	-0,021	0,062
-196,519	-102,232	-0,074	0,012
-195,504	-149,895	-0,198	0,011
-194,490	800,000	0,048	-0,110
-193,475	11,783	0,081	-0,044
-192,460	-8,079	0,098	0,047
-191,446	-123,106	0,044	-0,005
-190,431	343,585	0,063	0,088
-189,417	-200,000	0,031	0,160
-188,402	800,000	-0,019	-0,045
-187,387	137,768	-0,141	-0,131
-186,373	800,000	-0,047	0,137
-185,358	56,447	-0,032	-0,022
-184,344	800,000	-0,043	0,092
-183,329	-200,000	-0,017	0,065
-182,315	180,360	-0,057	-0,059
-181,300	-60,043	-0,079	0,024
-180,285	800,000	-0,061	0,133
-179,271	234,301	0,060	0,071
-178,256	34,424	-0,048	0,030
-177,242	-200,000	-0,012	0,070
-176,227	66,473	-0,037	-0,027
-175,212	-200,000	0,022	0,107
-174,198	800,000	-0,020	0,059
-173,183	239,956	0,024	-0,029
-172,169	-200,000	-0,024	-0,176
-171,154	-59,462	-0,099	-0,030
-170,139	-200,000	0,008	-0,095
-169,125	-200,000	0,005	-0,047
-168,110	-119,472	0,115	-0,014
-167,096	-87,499	0,038	0,008
-166,081	-80,764	0,066	-0,015
-165,066	-89,682	0,169	-0,035
-164,052	-200,000	-0,021	-0,066
-163,037	159,123	-0,030	0,029
-162,023	325,760	-0,048	0,066
-161,008	617,524	-0,045	-0,080
-159,993	-200,000	-0,002	-0,131
-158,979	-68,623	-0,206	-0,056
-157,964	-200,000	-0,008	-0,184
-156,950	591,667	-0,023	-0,040
-155,935	484,067	-0,066	-0,107
-154,920	-200,000	0,000	0,084
-153,906	362,706	0,065	-0,092
-152,891	-200,000	0,014	0,059
-151,877	-124,310	-0,112	0,012
-150,862	-71,741	0,054	-0,014
-149,847	-58,868	-0,084	0,026
-148,833	-200,000	-0,004	0,046
-147,818	800,000	-0,027	-0,071
-146,804	-200,000	-0,012	0,138
-145,789	-115,804	-0,105	0,014
-144,775	23,847	-0,137	-0,080
-143,760	-200,000	0,003	-0,121
-142,745	-88,579	-0,026	-0,005
-141,731	800,000	-0,068	-0,147
-140,716	-66,248	0,085	0,024
-139,702	382,405	-0,037	0,054
-138,687	-200,000	-0,021	0,074
-137,672	45,118	0,117	-0,076
-136,658	755,371	0,037	-0,071
-135,643	-12,196	-0,103	-0,048
-134,629	238,938	-0,045	0,053
-133,614	97,368	0,076	0,062
-132,599	46,451	0,111	-0,073
-131,585	-19,666	-0,058	0,025
-130,570	-200,000	0,013	0,098
-129,556	-200,000	0,044	-0,156
-128,541	-200,000	-0,002	-0,142
-127,526	-200,000	-0,005	0,033
-126,512	800,000	-0,048	0,098
-125,497	-200,000	-0,006	0,023
-124,483	45,173	0,125	0,081
-123,468	217,272	0,023	0,026
-122,453	37,646	-0,094	-0,059
-121,439	151,112	0,025	-0,024
-120,424	-3,776	-0,122	0,060
-119,410	183,839	-0,041	0,043
-118,395	-159,108	0,064	0,003
-117,380	278,666	-0,059	0,075
-116,366	58,401	0,058	0,040
-115,351	-69,956	-0,099	0,027
-114,337	5,422	-0,137	-0,071
-113,322	-64,746	0,044	0,013
-112,307	88,271	0,150	0,118
-111,293	773,550	0,029	0,056
-110,278	-121,438	0,151	-0,018
-109,264	-77,162	0,019	-0,005
-108,249	126,897	-0,053	0,048
-107,234	-200,000	0,026	-0,183
-106,220	800,000	-0,034	-0,107
-105,205	4,938	0,040	-0,021
-104,191	21,747	0,111	-0,064
-103,176	-38,051	-0,009	0,003
-102,162	-53,457	-0,106	-0,034
-101,147	215,788	0,079	0,089
-100,132	184,026	0,013	0,014
-99,118	74,150	0,124	0,092
-98,103	496,890	-0,060	-0,099
-97,089	800,000	0,051	0,115
-96,074	127,481	0,136	0,122
-95,059	136,917	-0,034	0,031
-94,045	347,555	-0,048	0,068
-93,030	-200,000	-0,100	0,000
-92,016	560,237	-0,047	-0,080
-91,001	-142,926	-0,047	-0,003
-89,986	282,896	0,048	0,061
-88,972	-200,000	0,006	-0,127
-87,957	-200,000	-0,013	-0,057
-86,943	-47,845	-0,041	0,014
-85,928	10,142	0,086	-0,046
-84,913	265,838	0,020	-0,025
-83,899	-200,000	0,002	0,025
-82,884	97,769	0,027	0,022
-81,870	800,000	-0,008	-0,019
-80,855	-200,000	0,004	0,068
-79,840	71,252	-0,016	-0,012
-78,826	-43,883	-0,129	0,046
-77,811	-189,090	-0,120	0,001
-76,797	18,561	-0,032	-0,018
-75,782	70,857	-0,016	0,011
-74,767	407,981	0,050	-0,075
-73,753	800,000	-0,055	0,114
-72,738	259,992	0,027	-0,034
-71,724	-200,000	0,055	-0,178
-70,709	-27,869	-0,156	-0,063
-69,694	800,000	-0,045	-0,103
-68,680	195,206	0,068	-0,073
-67,665	118,033	0,080	0,070
-66,651	-48,809	0,024	0,008
-65,636	-57,099	0,007	0,002
-64,622	121,372	-0,017	0,015
-63,607	184,534	0,053	-0,056
-62,592	-200,000	0,001	-0,063
-61,578	-200,000	0,007	0,071
-60,563	-200,000	0,007	0,093
-59,549	800,000	-0,010	0,025
-58,534	45,713	-1,728	-1,126
-57,519	455,105	-1,250	-1,964
-56,505	-200,000	-0,318	-4,467
-55,490	401,410	0,840	1,250
-54,476	800,000	5,095	11,548
-53,461	-200,000	20,927	332,452
-52,446	800,000	758,214	2331,349
-51,432	551,765	1663,757	2832,296
-50,417	73,683	1666,031	1231,546
-49,403	18,693	1539,371	867,594
-48,388	12,699	1462,239	795,056
-47,373	19,257	1452,941	821,524
-46,359	15,984	1442,399	799,922
-45,344	10,991	1438,230	773,740
-44,330	10,931	1436,063	772,258
-43,315	10,884	1434,393	771,108
-42,300	10,908	1432,606	770,231
-41,286	10,949	1431,257	769,667
-40,271	10,906	1430,249	768,890
-39,257	10,928	1428,938	768,259
-38,242	10,947	1427,823	767,722
-37,227	10,947	1426,604	767,033
-36,213	10,922	1425,564	766,329
-35,198	10,908	1424,450	765,633
-34,184	10,976	1423,401	765,360
-33,169	10,879	1422,179	764,211
-32,154	10,977	1421,049	764,037
-31,140	11,015	1419,604	763,413
-30,125	11,034	1418,505	762,880
-29,111	10,983	1417,728	762,192
-28,096	11,000	1416,214	761,427
-27,082	10,952	1415,124	760,582
-26,067	10,878	1414,206	759,711
-25,052	10,915	1413,243	759,338
-24,038	10,962	1412,051	758,890
-23,023	10,930	1411,140	758,219
-22,009	10,850	1410,033	757,217
-20,994	10,835	1409,186	756,664
-19,979	10,910	1408,283	756,501
-18,965	10,849	1407,235	755,620
-17,950	10,817	1406,415	755,002
-16,936	10,837	1405,754	754,709
-15,921	10,783	1404,589	753,805
-14,906	10,745	1403,791	753,167
-13,892	10,884	1402,358	753,015
-12,877	10,836	1401,806	752,466
-11,863	10,787	1401,057	751,809
-10,848	10,849	1399,850	751,415
-9,833	10,735	1399,277	750,549
-8,819	10,712	1398,425	749,957
-7,804	10,690	1397,549	749,355
-6,790	10,670	1396,629	748,739
-5,775	10,743	1395,333	748,353
-4,760	10,686	1394,423	747,570
-3,746	10,718	1393,437	747,161
-2,731	10,737	1392,570	746,752
-1,717	10,711	1391,831	746,206
-0,702	10,704	1389,993	745,160
0,313	14,635	1303,446	716,837
1,327	30,666	693,907	418,157
2,342	47,674	120,495	79,213
3,356	2,290	16,559	8,423
4,371	1,037	3,477	1,754
5,386	14,907	0,862	0,474
6,400	-200,000	0,125	0,501
7,415	10,512	-0,155	-0,083
8,429	65,186	-0,224	-0,159
9,444	312,169	-0,191	-0,254
10,459	32,381	-0,257	-0,156
11,473	-14,020	-0,293	-0,133
12,488	34,113	-0,337	-0,207
13,502	101,484	-0,190	-0,156
14,517	91,411	-0,321	-0,254
15,531	89,170	-0,286	-0,224
16,546	8,007	-0,326	-0,172
17,561	271,364	-0,360	-0,447
18,575	-23,596	-0,373	-0,157
19,590	74,138	-0,275	-0,203
20,604	-0,196	-0,253	-0,126
21,619	49,854	-0,542	-0,359
22,634	127,657	-0,477	-0,427
23,648	72,446	-0,345	-0,253
24,663	73,651	-0,365	-0,269
25,677	69,303	-0,202	-0,146
26,692	-8,159	-0,493	-0,233
27,707	-43,800	-0,292	-0,103
28,721	36,741	-0,319	-0,198
29,736	181,481	-0,314	-0,326
30,750	277,561	-0,354	-0,445
31,765	162,952	-0,400	-0,395
32,780	86,031	-0,349	-0,270
33,794	18,258	-0,302	-0,169
34,809	155,911	-0,384	-0,372
35,823	800,000	-0,183	-0,394
36,838	83,214	-0,407	-0,312
37,853	261,341	-0,351	-0,429
38,867	115,518	-0,227	-0,195
39,882	7,669	-0,370	-0,194
40,896	163,569	-0,308	-0,305
41,911	-80,609	-0,306	-0,071
42,926	84,321	-0,358	-0,275
43,940	59,236	-0,357	-0,246
44,955	98,113	-0,387	-0,313
45,969	255,587	-0,360	-0,435
46,984	195,681	-0,263	-0,282
47,999	21,405	-0,375	-0,214
49,013	38,638	-0,290	-0,181
50,028	24,024	-0,320	-0,185
51,042	43,089	-0,460	-0,295
52,057	89,280	-0,445	-0,349
53,071	123,192	-0,388	-0,341
54,086	24,703	-0,232	-0,134
55,101	32,438	-0,416	-0,252
56,115	2,530	-0,427	-0,216
57,130	64,431	-0,369	-0,261
58,144	-68,193	-0,342	-0,093
59,159	63,671	-0,435	-0,306
60,174	-29,755	-0,330	-0,131
61,188	34,961	-0,355	-0,218
62,203	93,724	-0,282	-0,224
63,217	-149,918	-0,277	-0,015
64,232	50,866	-0,182	-0,121
65,247	187,195	-0,288	-0,301
66,261	121,462	-0,283	-0,247
67,276	5,414	-0,457	-0,236
68,290	235,217	-0,228	-0,265
69,305	114,417	-0,357	-0,305
70,320	-56,060	-0,309	-0,096
71,334	-41,053	-0,227	-0,082
72,349	104,788	-0,251	-0,208
73,363	0,657	-0,286	-0,143
74,378	24,011	-0,327	-0,189
75,393	90,778	-0,351	-0,276
76,407	11,235	-0,309	-0,165
77,422	351,946	-0,203	-0,283
78,436	23,995	-0,243	-0,140
79,451	89,533	-0,249	-0,194
80,466	120,962	-0,298	-0,260
81,480	159,902	-0,332	-0,325
82,495	326,821	-0,196	-0,264
83,509	99,836	-0,249	-0,202
84,524	-68,324	-0,349	-0,094
85,539	141,413	-0,194	-0,180
86,553	-151,614	-0,405	-0,021
87,568	-33,061	-0,257	-0,099
88,582	-66,798	-0,442	-0,122
89,597	85,986	-0,275	-0,211
90,611	289,460	-0,228	-0,290
91,626	171,475	-0,185	-0,186
92,641	167,289	-0,207	-0,206
93,655	-8,513	-0,375	-0,176
94,670	-90,092	-0,300	-0,061
95,684	-39,649	-0,331	-0,121
96,699	76,471	-0,345	-0,256
97,714	-3,328	-0,251	-0,122
98,728	218,947	-0,203	-0,227
99,743	514,953	-0,082	-0,135
100,757	196,421	-0,273	-0,292
101,772	-34,674	-0,269	-0,102
102,787	-68,675	-0,293	-0,079
103,801	16,361	-0,208	-0,115
104,816	136,503	-0,195	-0,178
105,830	-14,998	-0,219	-0,098
106,845	-81,598	-0,292	-0,067
107,860	-75,422	-0,274	-0,068
108,874	-122,135	-0,274	-0,031
109,889	122,310	-0,206	-0,180
110,903	-31,885	-0,374	-0,146
111,918	92,265	-0,164	-0,129
112,933	120,794	-0,221	-0,192
113,947	32,108	-0,313	-0,188
114,962	-6,560	-0,279	-0,132
115,976	107,300	-0,219	-0,182
116,991	-2,284	-0,343	-0,168
118,006	190,674	-0,156	-0,164
119,020	3,375	-0,347	-0,176
120,035	511,236	-0,200	-0,326
121,049	-18,857	-0,206	-0,089
122,064	-13,801	-0,196	-0,088
123,079	-32,373	-0,204	-0,079
124,093	-36,819	-0,265	-0,099
125,108	-177,468	-0,221	0,004
126,122	518,608	-0,233	-0,383
127,137	-0,447	-0,145	-0,072
128,151	69,780	-0,092	-0,066
129,166	127,550	-0,157	-0,139
130,181	234,051	-0,179	-0,206
131,195	-40,425	-0,318	-0,115
132,210	96,905	-0,375	-0,299
133,224	102,613	-0,285	-0,232
134,239	13,979	-0,160	-0,087
135,254	-74,763	-0,207	-0,051
136,268	23,159	-0,115	-0,066
137,283	99,901	-0,202	-0,163
138,297	142,461	-0,316	-0,293
139,312	156,417	-0,166	-0,160
140,327	117,419	-0,235	-0,201
141,341	-36,488	-0,261	-0,097
142,356	-78,818	-0,268	-0,063
143,370	-123,803	-0,180	-0,020
144,385	57,166	-0,168	-0,114
145,400	-8,269	-0,375	-0,175
146,414	-42,349	-0,156	-0,055
147,429	-25,168	-0,315	-0,129
148,443	68,044	-0,217	-0,154
149,458	116,057	-0,314	-0,268
150,473	222,615	-0,188	-0,212
151,487	-21,933	-0,277	-0,117
152,502	60,978	-0,273	-0,189
153,516	82,504	-0,304	-0,230
154,531	166,068	-0,328	-0,324
155,546	42,701	-0,253	-0,160
156,560	-47,150	-0,199	-0,067
157,575	-78,150	-0,208	-0,049
158,589	-87,780	-0,185	-0,038
159,604	-41,750	-0,175	-0,062
160,619	239,334	-0,260	-0,301
161,633	304,949	-0,166	-0,215
162,648	800,000	-0,118	-0,277
163,662	-8,083	-0,185	-0,086
164,677	316,916	-0,162	-0,214
165,692	222,092	-0,122	-0,137
166,706	-51,401	-0,324	-0,105
167,721	85,638	-0,193	-0,147
168,735	-38,835	-0,273	-0,100
169,750	291,114	-0,158	-0,200
170,764	597,329	-0,151	-0,261
171,779	284,293	-0,132	-0,165
172,794	39,728	-0,263	-0,164
173,808	63,348	-0,180	-0,126
174,823	118,680	-0,293	-0,251
175,837	52,738	-0,304	-0,202
176,852	152,283	-0,169	-0,160
177,867	446,835	-0,135	-0,207
178,881	197,854	-0,105	-0,111
179,896	-30,519	-0,232	-0,091
180,910	531,674	-0,106	-0,176
181,925	289,869	-0,249	-0,315
182,940	65,038	-0,318	-0,223
183,954	153,124	-0,231	-0,220
184,969	136,403	-0,066	-0,060
185,983	94,206	-0,193	-0,152
186,998	40,074	-0,203	-0,127
188,013	375,735	-0,175	-0,249
189,027	-33,999	-0,273	-0,104
190,042	110,792	-0,261	-0,218
191,056	331,694	-0,146	-0,195
192,071	127,032	-0,154	-0,136
193,086	-51,856	-0,232	-0,074
194,100	-36,936	-0,177	-0,066
195,115	-200,000	-0,038	-0,147
196,129	375,919	-0,127	-0,180
197,144	189,851	-0,229	-0,239
198,159	96,557	-0,251	-0,199
199,173	137,446	-0,204	-0,185
200,188	449,631	-0,066	-0,102
201,202	332,797	-0,149	-0,199
202,217	32,772	-0,178	-0,106
203,232	176,607	-0,146	-0,148
204,246	251,205	-0,197	-0,233
205,261	5,166	-0,277	-0,141
206,275	250,094	-0,122	-0,144
207,290	-200,000	-0,015	-0,175
208,304	273,333	-0,149	-0,183
209,319	-56,804	-0,143	-0,044
210,334	72,966	-0,133	-0,096
211,348	114,104	-0,229	-0,193
212,363	-55,543	-0,108	-0,033
213,377	-86,982	-0,236	-0,049
214,392	800,000	-0,063	-0,176
215,407	321,526	-0,092	-0,121
216,421	82,945	-0,200	-0,150
217,436	29,448	-0,245	-0,144
218,450	-84,048	-0,232	-0,051
219,465	5,792	-0,260	-0,133
220,480	252,240	-0,116	-0,137
221,494	177,132	-0,202	-0,203
222,509	-64,567	-0,150	-0,042
223,523	800,000	-0,064	-0,141
224,538	41,433	-0,159	-0,099
225,553	106,990	-0,252	-0,207
226,567	323,658	-0,150	-0,199
227,582	-14,929	-0,236	-0,104
228,596	800,000	-0,046	-0,133
229,611	76,695	-0,118	-0,087
230,626	-107,006	-0,135	-0,020
231,640	220,635	-0,192	-0,214
232,655	14,375	-0,294	-0,158
233,669	-63,656	-0,208	-0,059
234,684	-78,274	-0,149	-0,035
235,699	200,774	-0,166	-0,176
236,713	-170,703	-0,216	-0,005
237,728	132,503	-0,166	-0,148
238,742	-171,597	-0,107	0,002
239,757	77,521	-0,280	-0,206
240,772	190,921	-0,180	-0,187
241,786	202,290	-0,179	-0,191
242,801	170,453	-0,203	-0,200
243,815	-115,608	-0,164	0,021
244,830	-42,038	-0,161	-0,057
245,844	-103,225	-0,353	-0,057
246,859	202,454	-0,125	-0,133
247,874	285,848	-0,156	-0,195
248,888	13,389	-0,251	-0,134
249,903	-65,649	-0,234	-0,064
250,917	24,934	-0,055	0,031
251,932	5,964	-0,234	-0,119
252,947	55,905	-0,172	-0,115
253,961	290,455	-0,107	-0,135
254,976	299,600	-0,126	-0,160
255,990	-103,091	-0,160	0,026
257,005	89,936	-0,162	-0,125
258,020	83,196	-0,089	-0,067
259,034	-124,401	-0,320	0,034
260,049	116,934	-0,115	-0,098
261,063	124,144	-0,157	-0,136
262,078	6,180	-0,161	-0,082
263,093	643,808	-0,121	-0,214
264,107	-113,300	-0,215	-0,029
265,122	70,815	-0,193	-0,138
266,136	-80,596	-0,154	-0,035
267,151	227,742	-0,142	-0,160
268,166	73,724	-0,149	-0,108
269,180	542,333	-0,159	-0,263
270,195	-13,947	-0,204	-0,091
271,209	298,321	-0,128	-0,163
272,224	416,417	-0,070	-0,103
273,239	409,398	-0,184	-0,270
274,253	-200,000	-0,013	0,095
275,268	121,538	-0,103	-0,089
276,282	-18,205	-0,256	-0,110
277,297	216,790	-0,120	-0,131
278,312	643,181	-0,141	-0,248
279,326	-104,532	-0,147	-0,023
280,341	-7,153	-0,180	-0,084
281,355	800,000	-0,032	-0,089
282,370	708,783	-0,078	-0,143
283,384	589,597	-0,108	-0,185
284,399	-200,000	-0,048	-0,220
285,414	482,210	-0,122	-0,191
286,428	-2,569	-0,222	-0,107
287,443	9,097	-0,239	-0,124
288,457	41,933	-0,091	-0,057
289,472	-12,178	-0,166	-0,074
290,487	59,634	-0,106	0,072
291,501	-39,574	-0,133	-0,047
292,516	-104,500	-0,240	-0,038
293,530	-58,406	-0,218	-0,065
294,545	41,877	-0,157	-0,098
295,560	-54,308	-0,109	-0,034
296,574	-79,137	-0,196	-0,046
297,589	-200,000	0,033	-0,106
298,603	219,297	-0,107	-0,117
299,618	271,163	-0,219	-0,266
300,633	800,000	-0,058	-0,142
301,647	800,000	-0,088	-0,182
302,662	-200,000	0,011	-0,095
303,676	9,745	-0,275	-0,143
304,691	390,247	-0,113	-0,161
305,706	-84,461	-0,145	0,031
306,720	-99,847	-0,288	-0,049
307,735	52,728	-0,235	-0,154
308,749	-15,860	-0,204	-0,089
309,764	-125,484	-0,162	0,017
310,779	-81,476	-0,173	-0,039
311,793	-10,683	-0,102	-0,046
312,808	207,261	-0,178	-0,191
313,822	-43,110	-0,128	-0,044
314,837	-147,323	-0,210	0,012
315,852	610,534	-0,050	0,086
316,866	-200,000	-0,052	-0,244
317,881	586,785	-0,100	-0,170
318,895	86,342	-0,098	-0,074
319,910	-122,438	-0,134	0,015
320,925	-84,784	-0,243	-0,052
321,939	189,589	0,064	-0,066
322,954	279,975	-0,141	-0,174
323,968	164,344	-0,068	-0,066
324,983	361,486	-0,106	-0,147
325,997	-60,307	-0,094	-0,027
327,012	745,948	-0,050	-0,093
328,027	252,755	-0,135	-0,158
329,041	-20,672	-0,298	-0,125
330,056	-156,903	-0,177	-0,007
331,070	-200,000	-0,004	-0,054
332,085	145,360	-0,112	-0,102
333,100	-28,769	-0,097	0,038
334,114	605,840	-0,146	-0,251
335,129	-200,000	-0,058	-0,190
336,143	181,095	-0,028	-0,028
337,158	-7,012	-0,102	-0,047
338,173	-10,662	-0,082	-0,037
339,187	90,729	-0,079	-0,061
340,202	-73,296	-0,074	-0,018
341,216	199,610	-0,103	-0,108
342,231	-104,335	-0,233	-0,037
343,246	155,791	-0,189	-0,178
344,260	-19,899	-0,203	-0,085
345,275	13,787	0,070	-0,037
346,289	34,786	-0,173	-0,104
347,304	30,518	-0,139	-0,081
348,319	-35,468	-0,125	-0,046
349,333	-200,000	0,005	-0,165
350,348	55,611	-0,120	-0,080
351,362	800,000	-0,080	-0,165
352,377	516,365	-0,112	-0,180
353,392	33,530	-0,193	0,115
354,406	40,459	-0,140	-0,086
355,421	207,983	1313,414	1405,705
356,435	160,020	1473,957	1406,199
