DTS Sentinel unit serial number:	SN410029Multiplexer serial number:	ORYXHardware model number:	OX2-SRSoftware version number:	ORYX F/W v4,00 Oryx Data Collector v3.7.2.0data status	okinstallation	B3 Nyhavnadifferential loss correction	single-endedforward channel	channel 1reverse channel	N/Adate	2023/12/03time	13:22:30forward acquisition time	300,00reverse acquisition time	0,00gamma	499,1914k internal	0,3200k external	0,3200temperature offset calibration	1,0000default loss term (dB/km)	0,3820temperature slope calibration	1,0000multiplexer offset coefficient	1,0000multiplexer slope coefficient	1,0000fibre end	0,00T internal ref (°C)	14,93T ext. ref 1 (°C)	1,18T ext. ref 2 (°C)	1,17length (m)	temperature (°C)	Stokes	anti-Stokes-744,400	126,391	-0,217	-0,200
-743,385	-200,000	-0,005	0,299
-742,371	-0,474	-0,242	-0,124
-741,356	-200,000	0,088	0,328
-740,342	-200,000	-0,065	-0,247
-739,327	-200,000	-0,065	0,348
-738,312	104,649	-0,212	-0,182
-737,298	800,000	-0,124	0,329
-736,283	388,936	-0,144	-0,217
-735,269	-200,000	0,005	0,409
-734,254	199,241	-0,156	-0,174
-733,239	335,323	-0,124	0,175
-732,225	-200,000	-0,052	-0,193
-731,210	303,762	0,117	0,158
-730,196	-200,000	-0,010	0,081
-729,181	-154,952	0,245	0,012
-728,167	63,739	-0,169	-0,124
-727,152	-200,000	0,034	-0,134
-726,137	-54,610	-0,078	-0,025
-725,123	109,216	-0,099	-0,086
-724,108	53,529	-0,108	0,075
-723,094	230,834	-0,108	-0,128
-722,079	800,000	0,040	-0,091
-721,064	552,895	0,059	-0,104
-720,050	118,645	-0,078	-0,070
-719,035	-187,052	-0,098	0,001
-718,021	247,217	-0,052	-0,064
-717,006	-200,000	0,020	-0,258
-715,991	800,000	0,020	-0,053
-714,977	272,610	-0,063	-0,081
-713,962	800,000	0,106	-0,236
-712,948	-200,000	-0,014	-0,095
-711,933	253,568	0,043	0,054
-710,918	-111,363	-0,050	0,007
-709,904	69,708	-0,065	-0,049
-708,889	29,526	-0,119	0,073
-707,875	-37,260	0,020	0,008
-706,860	149,130	-0,030	-0,030
-705,845	163,376	0,061	-0,063
-704,831	-200,000	0,010	-0,084
-703,816	-138,267	-0,092	0,007
-702,802	394,153	-0,053	0,080
-701,787	-2,250	-0,169	0,086
-700,772	343,475	0,056	-0,080
-699,758	92,128	-0,102	-0,083
-698,743	-74,435	0,138	0,036
-697,729	13,161	-0,126	-0,070
-696,714	-200,000	-0,002	0,038
-695,699	46,547	-0,150	0,101
-694,685	-33,052	0,107	-0,043
-693,670	548,097	-0,064	-0,111
-692,656	-200,000	-0,015	-0,153
-691,641	-200,000	0,020	0,067
-690,627	198,567	0,115	-0,128
-689,612	-200,000	-0,015	0,050
-688,597	-200,000	-0,027	-0,094
-687,583	423,074	0,032	-0,050
-686,568	452,131	-0,037	-0,059
-685,554	-75,947	0,096	-0,024
-684,539	687,259	0,088	-0,169
-683,524	28,745	0,171	0,105
-682,510	-136,853	-0,150	-0,012
-681,495	-123,171	-0,115	0,013
-680,481	269,149	-0,069	-0,087
-679,466	-16,555	-0,047	-0,021
-678,451	50,799	0,057	-0,039
-677,437	240,279	-0,019	-0,023
-676,422	16,432	0,059	0,034
-675,408	79,432	-0,067	0,052
-674,393	-200,000	-0,009	0,043
-673,378	-63,058	-0,232	-0,069
-672,364	496,394	-0,026	0,044
-671,349	-68,766	0,046	-0,013
-670,335	-200,000	-0,009	0,052
-669,320	-39,316	-0,043	0,016
-668,305	-200,000	0,010	0,103
-667,291	281,639	0,042	-0,055
-666,276	313,099	-0,083	-0,114
-665,262	-45,383	-0,305	-0,109
-664,247	-200,000	-0,008	-0,055
-663,232	41,920	-0,056	-0,037
-662,218	-33,837	0,162	-0,064
-661,203	298,716	-0,048	0,064
-660,189	-147,445	-0,090	-0,005
-659,174	84,056	-0,046	-0,036
-658,159	800,000	0,041	-0,126
-657,145	-39,411	-0,053	-0,020
-656,130	-27,474	-0,181	0,076
-655,116	27,724	-0,097	0,059
-654,101	70,106	0,035	-0,026
-653,086	38,060	-0,059	-0,038
-652,072	221,380	0,040	-0,047
-651,057	800,000	0,014	0,030
-650,043	-200,000	-0,013	-0,148
-649,028	13,997	0,064	-0,036
-648,014	119,867	-0,078	-0,070
-646,999	630,232	-0,010	0,018
-645,984	800,000	-0,018	-0,042
-644,970	800,000	0,080	-0,162
-643,955	-67,121	-0,141	0,040
-642,941	-200,000	0,029	-0,102
-641,926	573,357	0,038	-0,068
-640,911	-200,000	-0,017	0,067
-639,897	282,441	0,053	0,069
-638,882	-167,930	0,129	0,004
-637,868	-78,341	0,070	-0,017
-636,853	-200,000	0,007	-0,114
-635,838	53,351	-0,094	-0,065
-634,824	800,000	0,029	-0,077
-633,809	66,302	0,038	0,028
-632,795	266,573	0,078	-0,099
-631,780	-200,000	0,022	0,081
-630,765	-200,000	-0,003	-0,118
-629,751	-39,437	0,110	-0,041
-628,736	235,186	-0,034	0,040
-627,722	-83,205	-0,087	-0,020
-626,707	-77,219	0,150	0,038
-625,692	-87,013	0,052	0,011
-624,678	-84,863	0,120	-0,027
-623,663	800,000	0,009	-0,028
-622,649	-200,000	0,005	-0,068
-621,634	372,120	0,039	-0,058
-620,619	73,603	-0,029	-0,022
-619,605	14,372	0,062	-0,035
-618,590	118,745	0,063	-0,056
-617,576	119,562	-0,058	0,052
-616,561	226,002	-0,064	0,075
-615,546	141,615	0,133	0,128
-614,532	-77,006	-0,029	-0,007
-613,517	-60,139	-0,101	-0,031
-612,503	800,000	0,026	-0,063
-611,488	-91,564	0,056	-0,011
-610,474	634,865	0,046	0,085
-609,459	-125,805	-0,164	-0,018
-608,444	-200,000	-0,006	-0,034
-607,430	-144,813	-0,042	-0,003
-606,415	-200,000	0,000	-0,045
-605,401	-78,336	-0,077	0,019
-604,386	114,762	0,045	0,039
-603,371	403,298	-0,034	0,053
-602,357	-49,889	0,057	-0,020
-601,342	-169,770	-0,034	-0,001
-600,328	-30,891	-0,090	-0,037
-599,313	-200,000	-0,013	-0,108
-598,298	-138,492	-0,067	-0,005
-597,284	-129,021	0,089	-0,009
-596,269	-92,113	-0,053	-0,011
-595,255	-200,000	-0,004	0,055
-594,240	-200,000	-0,020	0,085
-593,225	52,829	-0,028	-0,020
-592,211	26,378	-0,054	-0,032
-591,196	-64,552	-0,144	0,042
-590,182	-200,000	-0,033	0,168
-589,167	-200,000	0,001	-0,027
-588,152	341,742	0,024	0,034
-587,138	-200,000	0,042	-0,163
-586,123	-200,000	-0,034	-0,187
-585,109	-200,000	-0,004	-0,046
-584,094	-82,276	-0,123	-0,029
-583,079	481,103	0,050	-0,082
-582,065	158,780	0,071	0,071
-581,050	-110,647	-0,019	-0,003
-580,036	279,423	0,058	0,075
-579,021	-106,781	-0,213	-0,034
-578,006	-182,582	-0,086	0,001
-576,992	-200,000	0,001	-0,082
-575,977	278,864	0,037	-0,048
-574,963	-16,915	0,124	0,056
-573,948	-200,000	0,010	-0,139
-572,934	-140,689	-0,074	-0,005
-571,919	2,880	0,019	-0,010
-570,904	279,747	-0,088	-0,114
-569,890	-146,559	-0,092	-0,006
-568,875	-81,656	0,093	-0,022
-567,861	441,301	0,053	-0,083
-566,846	-170,476	-0,013	0,000
-565,831	-108,166	0,076	-0,012
-564,817	-200,000	0,011	0,047
-563,802	-113,321	-0,119	-0,017
-562,788	-200,000	-0,001	-0,046
-561,773	396,489	0,044	-0,067
-560,758	284,543	-0,081	0,106
-559,744	261,804	-0,040	-0,051
-558,729	-18,219	0,066	0,030
-557,715	167,581	-0,118	-0,121
-556,700	79,484	-0,126	-0,097
-555,685	137,769	-0,039	-0,036
-554,671	536,323	0,067	-0,115
-553,656	800,000	0,024	0,058
-552,642	-200,000	-0,005	0,112
-551,627	24,490	-0,021	0,012
-550,612	800,000	-0,020	0,060
-549,598	-90,278	-0,127	0,026
-548,583	305,090	0,128	-0,172
-547,569	704,513	0,014	-0,028
-546,554	-94,196	0,177	0,035
-545,539	201,453	-0,110	0,123
-544,525	-200,000	0,040	0,143
-543,510	-200,000	0,026	0,148
-542,496	-73,519	-0,082	0,021
-541,481	-140,648	0,043	0,003
-540,466	800,000	-0,007	-0,018
-539,452	3,446	0,155	0,081
-538,437	-59,087	0,039	-0,012
-537,423	-200,000	-0,007	0,033
-536,408	-200,000	-0,005	-0,107
-535,393	-200,000	0,024	-0,120
-534,379	-79,115	-0,076	-0,018
-533,364	-200,000	0,030	0,105
-532,350	800,000	0,021	-0,063
-531,335	-91,606	0,038	0,008
-530,321	-158,199	0,120	0,005
-529,306	88,680	0,104	-0,084
-528,291	-200,000	0,016	-0,115
-527,277	278,456	-0,033	-0,043
-526,262	118,586	-0,046	0,041
-525,248	8,149	0,045	0,024
-524,233	295,141	0,102	0,135
-523,218	-26,714	0,120	0,050
-522,204	319,528	-0,061	-0,084
-521,189	800,000	-0,063	-0,161
-520,175	-146,004	0,105	0,007
-519,160	-43,027	0,056	0,021
-518,145	19,321	-0,076	-0,044
-517,131	-76,821	0,199	0,050
-516,116	-122,126	0,133	-0,016
-515,102	-86,891	-0,089	-0,020
-514,087	-116,708	0,056	0,007
-513,072	294,250	-0,038	-0,050
-512,058	-57,381	0,177	-0,056
-511,043	800,000	-0,051	0,143
-510,029	144,321	-0,042	-0,041
-509,014	427,624	0,063	0,098
-507,999	297,697	-0,052	0,069
-506,985	-24,382	-0,133	0,057
-505,970	-134,099	0,066	0,006
-504,956	188,872	-0,044	0,047
-503,941	119,544	-0,070	0,063
-502,926	-200,000	0,052	0,218
-501,912	252,218	0,024	0,030
-500,897	-93,202	-0,082	-0,016
-499,883	230,954	-0,055	-0,065
-498,868	161,150	0,048	-0,049
-497,853	118,884	-0,050	0,045
-496,839	75,008	0,085	-0,064
-495,824	207,556	-0,022	0,025
-494,810	387,017	-0,051	-0,075
-493,795	278,947	-0,036	-0,047
-492,781	536,520	0,099	-0,170
-491,766	80,992	-0,060	0,047
-490,751	332,176	-0,043	0,060
-489,737	-200,000	0,002	0,035
-488,722	-200,000	-0,004	0,080
-487,708	-200,000	-0,012	0,129
-486,693	-200,000	-0,007	0,226
-485,678	187,802	-0,124	-0,134
-484,664	-37,385	-0,134	0,051
-483,649	-108,671	-0,079	0,012
-482,635	800,000	0,028	0,082
-481,620	-62,658	-0,026	0,008
-480,605	800,000	0,069	0,150
-479,591	7,814	0,051	-0,028
-478,576	-76,823	0,095	0,024
-477,562	-115,499	0,094	-0,013
-476,547	800,000	0,025	-0,074
-475,532	587,915	-0,021	0,038
-474,518	800,000	-0,028	-0,076
-473,503	-119,474	-0,034	0,004
-472,489	-200,000	-0,008	-0,133
-471,474	353,954	-0,040	-0,057
-470,459	-90,520	0,163	0,034
-469,445	800,000	0,025	0,059
-468,430	-144,003	-0,069	-0,005
-467,416	-184,868	-0,028	0,000
-466,401	205,396	0,091	0,101
-465,386	441,032	-0,047	0,075
-464,372	-66,157	0,103	-0,029
-463,357	-80,486	-0,080	-0,019
-462,343	800,000	-0,036	-0,094
-461,328	-52,502	-0,017	0,005
-460,313	68,787	-0,118	0,087
-459,299	422,148	-0,066	0,102
-458,284	800,000	0,036	0,102
-457,270	-51,872	-0,090	-0,030
-456,255	54,339	-0,052	-0,036
-455,241	-200,000	0,008	0,050
-454,226	-114,976	0,083	0,011
-453,211	514,873	-0,018	0,031
-452,197	4,771	-0,104	0,055
-451,182	-200,000	-0,022	0,147
-450,168	-200,000	0,007	0,070
-449,153	-200,000	-0,020	-0,076
-448,138	-146,064	-0,072	-0,005
-447,124	67,530	-0,085	-0,062
-446,109	800,000	-0,020	-0,046
-445,095	64,432	-0,023	-0,017
-444,080	217,870	0,064	-0,073
-443,065	-100,468	0,074	-0,013
-442,051	263,220	-0,033	0,042
-441,036	-200,000	0,002	-0,007
-440,022	-200,000	-0,008	0,064
-439,007	-149,414	-0,173	-0,010
-437,992	232,450	0,071	0,083
-436,978	8,497	-0,034	-0,018
-435,963	92,164	-0,116	-0,094
-434,949	-29,451	0,057	-0,023
-433,934	-200,000	-0,014	-0,117
-432,919	23,705	-0,036	0,021
-431,905	-139,917	0,147	-0,011
-430,890	-200,000	-0,023	0,132
-429,876	144,210	-0,035	-0,034
-428,861	-200,000	-0,021	-0,078
-427,846	-90,783	0,033	-0,007
-426,832	54,413	-0,134	-0,092
-425,817	221,319	-0,059	-0,068
-424,803	-200,000	0,008	0,116
-423,788	-200,000	-0,004	0,119
-422,773	-200,000	0,006	0,177
-421,759	-26,470	0,162	0,068
-420,744	800,000	0,006	0,012
-419,730	396,679	-0,049	-0,073
-418,715	237,351	-0,072	-0,086
-417,701	-200,000	0,009	-0,172
-416,686	5,425	-0,068	0,036
-415,671	-43,017	-0,031	-0,011
-414,657	-91,479	0,058	-0,012
-413,642	-200,000	0,005	-0,097
-412,628	606,494	-0,057	-0,103
-411,613	122,020	-0,064	-0,057
-410,598	-42,561	-0,100	0,036
-409,584	800,000	0,042	0,096
-408,569	-93,961	0,046	-0,009
-407,555	492,560	0,047	-0,078
-406,540	-200,000	-0,006	0,024
-405,525	1,503	-0,068	0,035
-404,511	-5,911	-0,095	-0,047
-403,496	239,271	-0,067	-0,080
-402,482	140,428	0,053	0,050
-401,467	44,998	0,045	0,030
-400,452	-83,944	0,158	-0,036
-399,438	58,714	0,074	0,052
-398,423	-8,613	-0,116	-0,056
-397,409	-200,000	0,011	0,057
-396,394	800,000	-0,018	0,043
-395,379	-169,567	-0,149	0,004
-394,365	204,820	0,144	0,161
-393,350	25,951	-0,133	-0,079
-392,336	60,971	-0,029	-0,021
-391,321	-200,000	0,000	0,048
-390,306	800,000	0,052	-0,105
-389,292	-82,472	-0,196	0,045
-388,277	219,021	0,019	-0,022
-387,263	-35,292	0,184	0,071
-386,248	66,108	0,045	-0,033
-385,233	387,694	-0,074	-0,110
-384,219	-24,110	-0,095	-0,040
-383,204	167,704	0,060	-0,062
-382,190	87,780	-0,070	-0,055
-381,175	-200,000	-0,039	0,175
-380,160	-100,594	0,097	-0,017
-379,146	-150,628	-0,095	0,005
-378,131	-46,201	-0,132	-0,046
-377,117	-200,000	0,017	0,065
-376,102	199,854	-0,106	0,117
-375,088	-101,327	0,122	0,021
-374,073	87,476	-0,080	-0,063
-373,058	-89,148	0,027	0,006
-372,044	800,000	-0,020	0,054
-371,029	-153,366	-0,142	-0,007
-370,015	-15,784	0,084	0,038
-369,000	-200,000	0,009	0,135
-367,985	14,929	-0,063	0,035
-366,971	-120,655	-0,085	0,010
-365,956	-42,496	-0,037	0,013
-364,942	40,747	0,044	-0,028
-363,927	57,048	0,081	-0,056
-362,912	-95,736	0,127	-0,024
-361,898	-63,833	-0,103	-0,030
-360,883	85,764	-0,057	0,045
-359,869	-200,000	0,012	-0,041
-358,854	800,000	-0,010	-0,029
-357,839	-41,754	-0,129	0,047
-356,825	-52,057	0,060	-0,020
-355,810	-148,209	0,039	-0,002
-354,796	-200,000	0,000	-0,029
-353,781	563,607	-0,007	0,012
-352,766	-152,726	0,178	-0,009
-351,752	394,699	0,051	0,077
-350,737	249,925	0,078	0,095
-349,723	570,242	-0,071	0,125
-348,708	-200,000	0,015	0,123
-347,693	-124,992	0,042	-0,005
-346,679	-144,837	0,082	0,005
-345,664	140,971	-0,085	-0,081
-344,650	-38,171	0,023	-0,009
-343,635	-200,000	0,012	0,060
-342,620	326,735	0,114	0,157
-341,606	199,384	0,085	0,094
-340,591	-200,000	0,005	-0,023
-339,577	160,457	0,049	-0,049
-338,562	800,000	-0,064	-0,136
-337,548	-133,623	0,125	0,011
-336,533	-200,000	0,031	0,104
-335,518	800,000	-0,024	0,063
-334,504	-200,000	-0,004	-0,055
-333,489	266,741	0,038	-0,048
-332,475	-200,000	-0,105	-0,000
-331,460	478,194	-0,095	-0,155
-330,445	429,057	0,047	0,072
-329,431	-118,405	0,151	-0,019
-328,416	-200,000	-0,004	0,122
-327,402	-200,000	-0,017	0,123
-326,387	800,000	-0,033	0,092
-325,372	128,052	0,083	-0,076
-324,358	-145,445	-0,154	0,010
-323,343	130,953	0,018	0,016
-322,329	-138,612	0,145	-0,011
-321,314	800,000	-0,041	0,117
-320,299	119,220	0,063	0,056
-319,285	800,000	0,043	-0,099
-318,270	180,333	-0,086	0,091
-317,256	-200,000	-0,014	0,049
-316,241	-200,000	0,003	-0,117
-315,226	235,844	0,066	0,078
-314,212	-46,735	0,101	0,035
-313,197	134,116	0,031	-0,029
-312,183	125,996	0,108	-0,097
-311,168	-200,000	0,030	-0,096
-310,153	800,000	-0,092	-0,186
-309,139	197,599	0,047	-0,052
-308,124	-63,229	-0,099	0,029
-307,110	-105,583	-0,108	-0,017
-306,095	800,000	0,016	0,049
-305,080	77,896	-0,051	0,039
-304,066	-200,000	-0,004	0,092
-303,051	800,000	-0,044	0,121
-302,037	-200,000	-0,010	-0,050
-301,022	800,000	0,048	-0,096
-300,008	-107,535	0,214	-0,033
-298,993	800,000	-0,030	0,089
-297,978	18,771	-0,078	-0,045
-296,964	49,928	0,089	0,060
-295,949	-106,142	-0,071	-0,011
-294,935	-56,775	0,124	-0,039
-293,920	-200,000	-0,016	0,056
-292,905	-200,000	-0,004	0,025
-291,891	-200,000	0,014	0,106
-290,876	-200,000	-0,004	-0,085
-289,862	117,185	-0,062	-0,055
-288,847	438,351	0,058	0,091
-287,832	-46,478	-0,131	-0,046
-286,818	302,425	0,024	0,032
-285,803	-200,000	0,013	0,066
-284,789	-33,214	0,063	-0,025
-283,774	-63,819	-0,101	-0,029
-282,759	415,010	-0,079	-0,121
-281,745	-76,354	-0,085	-0,021
-280,730	39,580	0,064	0,041
-279,716	105,523	-0,087	-0,073
-278,701	-77,974	0,047	0,012
-277,686	-196,592	0,077	0,000
-276,672	217,769	0,044	0,050
-275,657	-44,851	0,107	0,038
-274,643	-200,000	-0,003	-0,011
-273,628	385,047	-0,097	-0,144
-272,613	800,000	0,004	-0,009
-271,599	-200,000	0,006	0,046
-270,584	37,544	0,093	0,059
-269,570	-200,000	0,027	-0,117
-268,555	129,975	-0,054	0,049
-267,540	-74,493	0,060	0,015
-266,526	-42,489	-0,035	-0,013
-265,511	109,627	-0,095	-0,081
-264,497	-200,000	0,001	0,008
-263,482	242,518	-0,005	0,006
-262,467	305,315	0,077	0,102
-261,453	800,000	0,025	0,053
-260,438	-73,434	-0,201	-0,052
-259,424	-2,454	0,028	-0,014
-258,409	39,609	0,097	0,062
-257,395	286,598	0,043	0,056
-256,380	-179,329	0,174	0,003
-255,365	-200,000	0,035	0,116
-254,351	-200,000	-0,001	-0,039
-253,336	800,000	-0,034	-0,081
-252,322	58,271	0,009	-0,006
-251,307	-100,273	-0,191	0,034
-250,292	-115,232	0,065	-0,009
-249,278	-30,584	0,102	-0,041
-248,263	51,716	-0,043	0,029
-247,249	445,724	-0,007	0,011
-246,234	184,874	0,070	0,075
-245,219	-200,000	-0,045	-0,175
-244,205	233,451	0,060	-0,070
-243,190	442,517	0,055	0,086
-242,176	-76,078	0,043	0,011
-241,161	800,000	0,035	0,072
-240,146	-200,000	-0,030	0,161
-239,132	-102,619	-0,066	-0,011
-238,117	800,000	-0,027	-0,079
-237,103	-139,802	-0,086	0,006
-236,088	115,804	-0,204	0,178
-235,073	92,546	0,111	0,089
-234,059	800,000	0,029	-0,088
-233,044	190,398	-0,045	0,049
-232,030	-84,704	0,161	-0,036
-231,015	800,000	-0,034	-0,070
-230,000	-200,000	-0,011	-0,073
-228,986	-73,239	-0,096	0,025
-227,971	16,929	-0,086	0,049
-226,957	-200,000	-0,010	0,053
-225,942	3,370	0,041	0,021
-224,927	151,346	0,037	0,036
-223,913	-86,816	0,055	0,012
-222,898	548,394	-0,059	-0,101
-221,884	-184,248	-0,096	-0,001
-220,869	800,000	0,073	-0,218
-219,855	-45,486	0,059	0,021
-218,840	17,941	-0,058	0,033
-217,825	-55,336	0,112	0,036
-216,811	213,112	-0,073	-0,082
-215,796	800,000	0,050	-0,104
-214,782	-50,455	-0,106	-0,035
-213,767	-200,000	-0,019	-0,135
-212,752	800,000	0,060	0,122
-211,738	-200,000	0,002	0,013
-210,723	800,000	-0,028	-0,063
-209,709	123,783	0,039	0,035
-208,694	64,907	-0,070	0,051
-207,679	148,187	0,074	-0,071
-206,665	-94,455	-0,114	-0,022
-205,650	800,000	-0,018	-0,054
-204,636	167,373	0,073	-0,074
-203,621	800,000	0,029	0,082
-202,606	-79,120	0,026	-0,006
-201,592	-93,013	0,058	-0,011
-200,577	-40,478	0,084	-0,031
-199,563	364,076	-0,051	0,073
-198,548	-45,421	0,044	-0,016
-197,533	-200,000	-0,020	0,175
-196,519	-187,507	0,090	-0,001
-195,504	-182,305	-0,091	0,001
-194,490	-103,592	-0,107	-0,018
-193,475	273,089	-0,043	-0,054
-192,460	15,168	-0,057	0,032
-191,446	-21,687	0,103	-0,044
-190,431	28,922	-0,049	-0,029
-189,417	-115,467	0,101	0,013
-188,402	-200,000	-0,011	-0,118
-187,387	17,682	-0,061	0,034
-186,373	-95,265	-0,168	-0,032
-185,358	-180,003	-0,050	0,001
-184,344	-112,493	-0,051	0,007
-183,329	209,787	0,082	-0,091
-182,315	-65,302	0,095	0,027
-181,300	-200,000	-0,042	-0,153
-180,285	-25,468	-0,194	-0,081
-179,271	71,828	0,053	-0,039
-178,256	193,367	-0,074	0,080
-177,242	93,246	0,057	0,045
-176,227	218,735	0,062	0,070
-175,212	-200,000	0,007	-0,088
-174,198	-149,326	0,032	-0,002
-173,183	1,546	0,073	-0,037
-172,169	325,554	0,091	0,124
-171,154	158,406	0,036	-0,036
-170,139	800,000	0,027	-0,077
-169,125	800,000	-0,032	0,077
-168,110	-200,000	0,043	0,211
-167,096	-76,180	0,023	0,006
-166,081	800,000	-0,067	0,147
-165,066	-200,000	0,002	0,008
-164,052	800,000	0,056	-0,171
-163,037	-81,472	0,071	-0,016
-162,023	-61,501	0,059	0,018
-161,008	104,484	0,018	-0,015
-159,993	800,000	0,038	0,076
-158,979	-200,000	-0,053	-0,184
-157,964	-200,000	0,011	0,061
-156,950	-200,000	-0,008	0,049
-155,935	459,789	-0,084	-0,133
-154,920	-200,000	0,016	0,211
-153,906	-141,715	0,134	0,009
-152,891	800,000	-0,019	0,047
-151,877	800,000	-0,043	-0,091
-150,862	-200,000	-0,020	-0,111
-149,847	-61,600	0,044	-0,013
-148,833	800,000	0,035	-0,077
-147,818	-45,158	0,038	0,013
-146,804	524,233	-0,047	-0,078
-145,789	800,000	-0,060	0,123
-144,775	-123,448	-0,009	-0,001
-143,760	-82,740	-0,108	0,025
-142,745	800,000	-0,007	-0,021
-141,731	-200,000	-0,002	-0,074
-140,716	-200,000	-0,014	-0,109
-139,702	94,500	0,012	-0,010
-138,687	533,518	-0,056	-0,095
-137,672	6,280	-0,090	-0,047
-136,658	6,120	0,050	-0,026
-135,643	743,373	0,042	-0,081
-134,629	-200,000	0,008	-0,077
-133,614	109,427	0,148	0,126
-132,599	800,000	0,041	0,087
-131,585	-103,134	-0,070	0,012
-130,570	800,000	0,049	-0,097
-129,556	-92,531	0,083	-0,016
-128,541	800,000	-0,064	-0,168
-127,526	72,044	0,072	0,053
-126,512	335,678	0,049	-0,067
-125,497	298,596	0,033	0,043
-124,483	634,256	-0,037	-0,067
-123,468	-70,293	-0,040	0,011
-122,453	-104,836	-0,110	0,018
-121,439	-2,787	0,049	-0,024
-120,424	257,030	-0,090	-0,110
-119,410	74,766	0,145	-0,108
-118,395	129,003	0,041	-0,037
-117,380	-200,000	0,007	0,037
-116,366	83,052	-0,154	-0,119
-115,351	-200,000	0,019	-0,069
-114,337	153,030	-0,098	0,095
-113,322	708,937	0,072	-0,136
-112,307	135,448	-0,077	-0,071
-111,293	-43,326	-0,062	0,022
-110,278	470,306	0,032	0,051
-109,264	800,000	-0,082	-0,162
-108,249	50,340	-0,072	-0,049
-107,234	176,150	-0,092	-0,095
-106,220	-156,060	-0,083	0,004
-105,205	800,000	-0,032	-0,089
-104,191	800,000	0,024	0,049
-103,176	-200,000	0,014	0,073
-102,162	-136,672	0,115	-0,009
-101,147	147,239	-0,117	0,112
-100,132	-200,000	-0,029	-0,127
-99,118	65,826	-0,170	-0,122
-98,103	9,680	0,052	0,028
-97,089	-76,772	0,076	0,019
-96,074	-200,000	-0,010	0,113
-95,059	-160,092	-0,085	-0,003
-94,045	0,964	-0,118	0,060
-93,030	300,492	-0,039	-0,051
-92,016	68,643	0,110	0,080
-91,001	346,473	0,007	0,010
-89,986	-200,000	0,021	-0,125
-88,972	-200,000	-0,048	0,187
-87,957	71,844	-0,122	-0,090
-86,943	767,804	-0,014	-0,027
-85,928	70,686	-0,009	-0,007
-84,913	-120,379	-0,050	-0,006
-83,899	454,323	0,076	-0,121
-82,884	-123,395	0,065	-0,007
-81,870	-21,914	0,036	-0,015
-80,855	-134,167	-0,097	-0,008
-79,840	-66,792	0,027	-0,007
-78,826	571,987	0,063	-0,109
-77,811	607,743	0,057	-0,101
-76,797	55,007	-0,050	-0,034
-75,782	-27,726	0,126	-0,051
-74,767	800,000	0,028	0,088
-73,753	-200,000	0,014	-0,047
-72,738	-135,135	0,012	-0,001
-71,724	800,000	-0,023	0,058
-70,709	-29,595	-0,064	-0,026
-69,694	367,494	-0,068	-0,097
-68,680	-161,829	0,123	0,004
-67,665	90,756	-0,078	-0,062
-66,651	28,450	-0,028	0,016
-65,636	-200,000	0,021	0,073
-64,622	-92,542	-0,019	-0,004
-63,607	34,370	-0,185	-0,114
-62,592	800,000	-0,074	0,216
-61,578	195,962	0,094	0,101
-60,563	554,756	0,062	0,107
-59,549	-181,517	-0,129	-0,002
-58,534	-31,456	-1,424	-0,564
-57,519	359,532	-1,605	-2,280
-56,505	-200,000	-0,557	-4,568
-55,490	199,080	1,067	1,159
-54,476	800,000	4,654	10,888
-53,461	-200,000	18,110	287,247
-52,446	800,000	726,313	2228,605
-51,432	557,284	1641,645	2813,390
-50,417	79,359	1664,224	1262,410
-49,403	22,823	1537,640	889,915
-48,388	16,804	1460,976	816,419
-47,373	17,806	1450,997	815,633
-46,359	17,265	1441,296	807,562
-45,344	15,037	1436,692	794,324
-44,330	15,004	1434,694	793,033
-43,315	14,973	1433,084	791,964
-42,300	14,988	1431,571	791,167
-41,286	15,021	1430,351	790,620
-40,271	15,024	1428,903	789,802
-39,257	14,982	1427,807	788,964
-38,242	15,050	1426,347	788,450
-37,227	15,080	1425,185	787,915
-36,213	15,051	1424,036	787,114
-35,198	15,027	1422,849	786,315
-34,184	15,087	1421,889	786,034
-33,169	14,999	1420,738	784,954
-32,154	15,007	1419,517	784,283
-31,140	15,044	1418,158	783,675
-30,125	15,064	1417,285	783,255
-29,111	15,102	1415,986	782,686
-28,096	15,043	1414,812	781,731
-27,082	15,008	1413,824	780,988
-26,067	14,977	1412,741	780,213
-25,052	15,015	1411,580	779,717
-24,038	14,933	1410,835	778,893
-23,023	14,926	1409,636	778,168
-22,009	14,918	1408,837	777,657
-20,994	14,902	1407,972	777,072
-19,979	14,913	1406,819	776,459
-18,965	14,906	1405,919	775,899
-17,950	14,851	1405,155	775,189
-16,936	14,863	1403,923	774,537
-15,921	14,871	1402,821	773,932
-14,906	14,832	1402,021	773,278
-13,892	14,870	1401,124	772,932
-12,877	14,821	1400,331	772,234
-11,863	14,815	1399,446	771,688
-10,848	14,821	1398,361	771,089
-9,833	14,791	1397,633	770,515
-8,819	14,787	1396,445	769,811
-7,804	14,813	1395,653	769,466
-6,790	14,756	1394,621	768,600
-5,775	14,769	1393,620	768,078
-4,760	14,753	1392,782	767,513
-3,746	14,761	1391,928	767,049
-2,731	14,766	1391,222	766,653
-1,717	14,762	1390,100	765,986
-0,702	14,795	1388,367	765,152
0,313	18,554	1307,654	738,066
1,327	34,872	706,598	436,626
2,342	53,558	124,817	84,611
3,356	3,966	16,695	8,609
4,371	5,022	3,190	1,656
5,386	-104,859	0,523	0,084
6,400	800,000	0,112	0,256
7,415	79,313	-0,250	-0,189
8,429	-21,696	-0,423	-0,182
9,444	286,382	-0,262	-0,335
10,459	47,202	-0,204	-0,134
11,473	167,741	-0,369	-0,372
12,488	-73,796	-0,213	-0,054
13,502	221,002	-0,179	-0,203
14,517	63,653	-0,235	-0,166
15,531	142,230	-0,237	-0,222
16,546	77,766	-0,338	-0,254
17,561	66,766	-0,423	-0,304
18,575	19,813	-0,229	-0,130
19,590	-14,286	-0,239	-0,108
20,604	385,309	-0,201	-0,294
21,619	55,440	-0,477	-0,326
22,634	18,397	-0,517	-0,291
23,648	-38,996	-0,472	-0,175
24,663	7,945	-0,475	-0,251
25,677	134,636	-0,355	-0,326
26,692	70,689	-0,261	-0,190
27,707	-20,007	-0,444	-0,193
28,721	150,017	-0,408	-0,391
29,736	138,104	-0,418	-0,387
30,750	76,685	-0,334	-0,250
31,765	261,167	-0,286	-0,351
32,780	123,252	-0,368	-0,325
33,794	25,151	-0,385	-0,225
34,809	64,605	-0,410	-0,291
35,823	61,435	-0,369	-0,259
36,838	157,923	-0,261	-0,256
37,853	115,158	-0,378	-0,325
38,867	131,403	-0,243	-0,220
39,882	-35,338	-0,442	-0,169
40,896	51,300	-0,295	-0,197
41,911	149,088	-0,315	-0,301
42,926	-54,349	-0,371	-0,118
43,940	26,631	-0,399	-0,235
44,955	104,077	-0,347	-0,287
45,969	131,337	-0,415	-0,376
46,984	-18,517	-0,442	-0,194
47,999	51,129	-0,287	-0,191
49,013	11,294	-0,262	-0,141
50,028	309,899	-0,272	-0,360
51,042	52,651	-0,294	-0,197
52,057	150,714	-0,369	-0,354
53,071	120,568	-0,280	-0,245
54,086	62,800	-0,365	-0,257
55,101	16,976	-0,382	-0,212
56,115	-5,629	-0,326	-0,157
57,130	73,921	-0,314	-0,232
58,144	34,036	-0,469	-0,287
59,159	199,261	-0,299	-0,323
60,174	110,220	-0,405	-0,343
61,188	166,565	-0,304	-0,303
62,203	171,005	-0,293	-0,296
63,217	128,294	-0,429	-0,385
64,232	-19,495	-0,358	-0,156
65,247	183,045	-0,306	-0,318
66,261	-44,704	-0,242	-0,084
67,276	68,298	-0,346	-0,249
68,290	375,029	-0,338	-0,486
69,305	79,745	-0,279	-0,211
70,320	74,770	-0,256	-0,189
71,334	72,748	-0,381	-0,279
72,349	125,507	-0,223	-0,198
73,363	61,072	-0,482	-0,336
74,378	277,054	-0,225	-0,283
75,393	-15,808	-0,326	-0,146
76,407	-94,697	-0,289	-0,055
77,422	-33,928	-0,266	-0,103
78,436	1,393	-0,279	-0,141
79,451	86,492	-0,351	-0,272
80,466	68,839	-0,374	-0,270
81,480	58,992	-0,370	-0,255
82,495	70,946	-0,280	-0,204
83,509	125,898	-0,169	-0,150
84,524	-9,579	-0,286	-0,133
85,539	1,300	-0,381	-0,192
86,553	35,808	-0,291	-0,179
87,568	264,548	-0,273	-0,335
88,582	73,113	-0,444	-0,326
89,597	198,900	-0,313	-0,337
90,611	125,574	-0,226	-0,200
91,626	122,076	-0,224	-0,197
92,641	-29,727	-0,369	-0,147
93,655	258,907	-0,220	-0,267
94,670	26,051	-0,313	-0,183
95,684	-21,975	-0,254	-0,108
96,699	120,157	-0,207	-0,180
97,714	83,956	-0,329	-0,252
98,728	-47,148	-0,196	-0,067
99,743	110,524	-0,236	-0,199
100,757	38,701	-0,242	-0,151
101,772	-13,941	-0,341	-0,154
102,787	162,338	-0,228	-0,225
103,801	109,363	-0,304	-0,255
104,816	-15,583	-0,291	-0,130
105,830	115,522	-0,274	-0,235
106,845	-141,685	-0,295	0,021
107,860	67,749	-0,310	-0,222
108,874	-6,797	-0,207	-0,098
109,889	27,154	-0,213	-0,125
110,903	102,761	-0,362	-0,297
111,918	320,219	-0,223	-0,298
112,933	0,695	-0,249	-0,124
113,947	-9,361	-0,279	-0,130
114,962	321,298	-0,231	-0,308
115,976	-3,395	-0,187	-0,091
116,991	24,668	-0,310	-0,179
118,006	91,322	-0,313	-0,246
119,020	178,435	-0,168	-0,172
120,035	-72,392	-0,342	-0,088
121,049	83,862	-0,233	-0,178
122,064	18,617	-0,287	-0,160
123,079	37,402	-0,189	-0,117
124,093	-19,542	-0,339	-0,146
125,108	73,439	-0,232	-0,170
126,122	45,803	-0,241	-0,156
127,137	312,964	-0,092	-0,121
128,151	254,723	-0,215	-0,259
129,166	296,108	-0,213	-0,274
130,181	50,727	-0,184	-0,122
131,195	579,050	-0,162	-0,279
132,210	119,515	-0,250	-0,217
133,224	32,990	-0,298	-0,180
134,239	-119,130	-0,224	-0,027
135,254	316,587	-0,140	-0,186
136,268	297,838	-0,188	-0,242
137,283	195,913	-0,112	-0,119
138,297	229,472	-0,321	-0,368
139,312	48,840	-0,398	-0,260
140,327	112,033	-0,175	-0,148
141,341	99,936	-0,175	-0,142
142,356	62,095	-0,108	-0,075
143,370	44,399	-0,213	-0,137
144,385	-12,817	-0,446	-0,202
145,400	109,988	-0,180	-0,151
146,414	103,509	-0,257	-0,210
147,429	292,741	-0,192	-0,245
148,443	157,353	-0,298	-0,289
149,458	-73,094	-0,297	-0,076
150,473	30,371	-0,263	-0,157
151,487	97,514	-0,273	-0,219
152,502	53,983	-0,216	-0,145
153,516	62,083	-0,319	-0,222
154,531	88,064	-0,251	-0,194
155,546	800,000	-0,122	-0,347
156,560	-18,428	-0,324	-0,141
157,575	-10,024	-0,272	-0,126
158,589	314,442	-0,194	-0,256
159,604	-25,814	-0,341	-0,140
160,619	-11,674	-0,357	-0,163
161,633	-12,339	-0,357	-0,162
162,648	113,056	-0,245	-0,207
163,662	-44,003	-0,324	-0,113
164,677	-54,690	-0,205	-0,064
165,692	254,689	-0,114	-0,137
166,706	-40,323	-0,245	-0,089
167,721	334,917	-0,216	-0,293
168,735	96,131	-0,245	-0,195
169,750	-109,206	-0,189	-0,028
170,764	-70,330	-0,125	-0,033
171,779	45,194	-0,282	-0,181
172,794	-73,127	-0,200	0,051
173,808	10,168	-0,263	-0,139
174,823	27,841	-0,379	-0,222
175,837	-8,488	-0,326	-0,152
176,852	74,942	-0,113	-0,083
177,867	-100,469	-0,201	-0,034
178,881	104,833	-0,236	-0,194
179,896	81,703	-0,276	-0,208
180,910	-34,440	-0,268	-0,102
181,925	116,139	-0,262	-0,224
182,940	81,509	-0,240	-0,180
183,954	88,023	-0,193	-0,149
184,969	396,895	-0,101	-0,147
185,983	439,498	-0,194	-0,296
186,998	-66,880	-0,155	-0,042
188,013	274,958	-0,148	-0,182
189,027	362,603	-0,183	-0,256
190,042	164,452	-0,236	-0,232
191,056	-15,576	-0,308	-0,136
192,071	-74,163	-0,222	-0,056
193,086	-12,803	-0,162	-0,073
194,100	-93,656	-0,222	-0,042
195,115	132,941	-0,207	-0,186
196,129	24,596	-0,183	-0,105
197,144	-8,581	-0,366	-0,170
198,159	-4,203	-0,289	-0,138
199,173	368,002	-0,137	-0,193
200,188	350,630	-0,154	-0,212
201,202	67,828	-0,250	-0,177
202,217	0,269	-0,221	-0,109
203,232	368,871	-0,171	-0,241
204,246	157,487	-0,243	-0,234
205,261	422,993	-0,131	-0,197
206,275	74,776	-0,171	-0,125
207,290	188,539	-0,144	-0,149
208,304	176,257	-0,143	-0,145
209,319	240,150	-0,171	-0,198
210,334	209,474	-0,179	-0,195
211,348	124,492	-0,135	-0,118
212,363	-32,054	-0,163	-0,063
213,377	172,129	-0,131	-0,131
214,392	6,184	-0,195	-0,100
215,407	18,675	-0,137	-0,076
216,421	-108,633	-0,128	0,019
217,436	286,708	-0,124	-0,155
218,450	60,447	-0,276	-0,190
219,465	189,481	-0,145	-0,152
220,480	440,422	-0,192	-0,293
221,494	288,660	-0,176	-0,221
222,509	-37,614	-0,252	-0,093
223,523	407,027	-0,139	-0,204
224,538	800,000	-0,107	-0,314
225,553	196,675	-0,192	-0,203
226,567	151,122	-0,185	-0,175
227,582	186,766	-0,199	-0,206
228,596	160,778	-0,127	-0,123
229,611	-45,662	-0,210	-0,072
230,626	-16,313	-0,221	-0,097
231,640	-102,571	-0,177	-0,029
232,655	126,556	-0,144	-0,126
233,669	250,504	-0,176	-0,208
234,684	800,000	-0,045	-0,107
235,699	72,645	-0,171	-0,124
236,713	50,562	-0,197	-0,129
237,728	-111,276	-0,181	0,025
238,742	-100,693	-0,234	-0,040
239,757	140,056	-0,167	-0,153
240,772	29,009	-0,322	-0,189
241,786	335,015	-0,108	-0,145
242,801	342,336	-0,130	-0,177
243,815	-112,032	-0,172	-0,024
244,830	22,947	-0,243	-0,137
245,844	-150,368	-0,191	-0,010
246,859	-111,640	-0,268	-0,037
247,874	72,260	-0,277	-0,200
248,888	189,873	-0,174	-0,181
249,903	32,264	-0,306	-0,182
250,917	542,604	-0,143	-0,237
251,932	82,052	-0,105	-0,078
252,947	577,491	-0,142	-0,242
253,961	49,473	-0,231	-0,150
254,976	-200,000	-0,024	-0,209
255,990	61,539	-0,195	-0,134
257,005	130,836	-0,201	-0,178
258,020	552,207	-0,099	-0,165
259,034	800,000	-0,041	-0,123
260,049	191,817	-0,140	-0,146
261,063	35,178	-0,206	-0,125
262,078	309,266	-0,155	-0,201
263,093	50,491	-0,328	-0,214
264,107	75,617	-0,224	-0,164
265,122	800,000	-0,119	-0,240
266,136	28,695	-0,034	-0,020
267,151	116,260	-0,106	-0,090
268,166	-112,470	-0,141	-0,019
269,180	-27,169	-0,186	-0,075
270,195	800,000	-0,091	-0,201
271,209	110,651	-0,106	-0,088
272,224	-91,324	-0,199	0,039
273,239	434,866	-0,057	-0,085
274,253	37,256	-0,185	-0,113
275,268	-36,532	-0,159	-0,059
276,282	59,104	-0,250	-0,170
277,297	398,432	-0,160	-0,233
278,312	193,288	-0,231	-0,242
279,326	26,219	-0,138	-0,080
280,341	79,591	-0,194	-0,144
281,355	50,180	-0,179	-0,116
282,370	-160,271	-0,049	-0,002
283,384	27,526	-0,213	-0,123
284,399	-200,000	-0,071	-0,245
285,414	91,584	-0,167	-0,129
286,428	-18,165	-0,074	-0,032
287,443	-200,000	-0,026	-0,186
288,457	67,273	-0,110	-0,077
289,472	88,809	-0,142	-0,109
290,487	196,019	-0,189	-0,198
291,501	128,996	-0,222	-0,196
292,516	15,292	-0,213	-0,115
293,530	174,139	-0,188	-0,188
294,545	-138,432	-0,193	-0,014
295,560	800,000	-0,099	-0,204
296,574	75,076	-0,037	0,027
297,589	70,478	-0,181	-0,129
298,603	800,000	-0,136	-0,319
299,618	-179,809	-0,158	-0,002
300,633	130,377	-0,189	-0,167
301,647	-51,381	-0,202	-0,065
302,662	44,933	-0,130	-0,082
303,676	92,470	-0,055	-0,043
304,691	316,700	-0,104	-0,136
305,706	-94,345	-0,231	-0,043
306,720	33,098	-0,113	-0,067
307,735	283,272	-0,107	-0,133
308,749	-74,120	-0,247	-0,061
309,764	-101,333	-0,130	-0,022
310,779	197,595	-0,074	-0,078
311,793	63,391	-0,097	-0,067
312,808	117,987	-0,064	-0,055
313,822	32,061	-0,296	-0,175
314,837	800,000	-0,081	-0,211
315,852	319,857	-0,071	-0,093
316,866	11,622	-0,189	-0,099
317,881	-65,665	-0,196	-0,054
318,895	62,649	-0,201	-0,138
319,910	284,053	-0,042	-0,052
320,925	245,531	-0,159	-0,184
321,939	179,768	-0,026	0,026
322,954	268,522	-0,156	-0,188
323,968	-60,357	-0,071	-0,021
324,983	-98,402	-0,139	-0,024
325,997	-36,001	-0,148	-0,055
327,012	307,101	-0,109	-0,139
328,027	128,170	-0,131	-0,115
329,041	800,000	-0,087	-0,169
330,056	800,000	-0,033	0,081
331,070	3,335	-0,119	0,059
332,085	281,166	-0,078	-0,096
333,100	204,687	-0,104	-0,111
334,114	800,000	-0,098	-0,238
335,129	96,110	-0,122	-0,096
336,143	193,795	-0,182	-0,190
337,158	430,593	-0,107	-0,160
338,173	157,343	-0,173	-0,164
339,187	262,121	-0,149	-0,178
340,202	-28,356	-0,143	-0,056
341,216	-31,500	-0,128	0,049
342,231	62,167	-0,139	-0,095
343,246	201,409	-0,164	-0,173
344,260	288,299	-0,163	-0,203
345,275	135,200	-0,112	-0,100
346,289	35,088	-0,206	-0,124
347,304	-200,000	0,021	-0,076
348,319	56,756	-0,195	-0,130
349,333	-74,731	-0,233	0,057
350,348	154,470	-0,142	-0,134
351,362	138,918	-0,141	-0,127
352,377	-76,881	-0,094	-0,022
353,392	-16,706	-0,164	-0,071
354,406	-17,358	-0,180	-0,078
355,421	210,088	1314,316	1416,805
356,435	161,710	1475,024	1417,299
