DTS Sentinel unit serial number:	SN410029Multiplexer serial number:	ORYXHardware model number:	OX2-SRSoftware version number:	ORYX F/W v4,00 Oryx Data Collector v3.7.2.0data status	okinstallation	B3 Nyhavnadifferential loss correction	single-endedforward channel	channel 1reverse channel	N/Adate	2023/12/03time	01:17:30forward acquisition time	300,00reverse acquisition time	0,00gamma	499,1914k internal	0,3201k external	0,3201temperature offset calibration	1,0000default loss term (dB/km)	0,3820temperature slope calibration	1,0000multiplexer offset coefficient	1,0000multiplexer slope coefficient	1,0000fibre end	0,00T internal ref (°C)	13,32T ext. ref 1 (°C)	-1,69T ext. ref 2 (°C)	-1,70length (m)	temperature (°C)	Stokes	anti-Stokes-744,400	238,190	-0,217	-0,263
-743,385	-200,000	-0,012	0,184
-742,371	296,453	-0,076	-0,101
-741,356	-200,000	0,027	0,359
-740,342	20,832	-0,230	-0,135
-739,327	-200,000	0,066	0,334
-738,312	126,064	-0,195	-0,179
-737,298	-200,000	-0,022	0,344
-736,283	-7,271	-0,118	-0,058
-735,269	-200,000	-0,039	0,284
-734,254	413,651	-0,161	-0,250
-733,239	63,613	-0,211	0,154
-732,225	134,133	-0,180	-0,170
-731,210	574,858	0,097	0,172
-730,196	-26,969	-0,120	-0,051
-729,181	-200,000	-0,015	-0,092
-728,167	753,272	-0,037	0,072
-727,152	173,778	-0,025	-0,026
-726,137	-200,000	0,018	-0,088
-725,123	800,000	-0,039	-0,082
-724,108	800,000	-0,053	-0,126
-723,094	-13,872	0,032	-0,015
-722,079	800,000	0,055	0,144
-721,064	800,000	0,043	-0,128
-720,050	384,174	-0,043	0,064
-719,035	53,112	-0,130	0,090
-718,021	-200,000	-0,006	-0,082
-717,006	800,000	0,006	0,014
-715,991	205,238	-0,056	0,063
-714,977	-32,207	0,029	-0,012
-713,962	800,000	-0,009	-0,021
-712,948	-122,912	0,124	-0,014
-711,933	58,996	0,117	-0,083
-710,918	491,586	-0,083	0,139
-709,904	26,740	-0,066	0,040
-708,889	296,238	0,055	-0,073
-707,875	120,329	0,096	-0,086
-706,860	49,459	-0,162	0,111
-705,845	-0,085	0,076	-0,039
-704,831	-178,497	0,098	-0,002
-703,816	120,996	0,020	-0,018
-702,802	164,152	0,092	0,094
-701,787	800,000	0,032	-0,081
-700,772	-200,000	0,000	-0,100
-699,758	800,000	-0,047	-0,126
-698,743	525,117	0,035	0,060
-697,729	58,006	-0,098	-0,070
-696,714	-98,357	-0,033	0,006
-695,699	-100,710	-0,122	-0,022
-694,685	49,782	-0,114	-0,078
-693,670	75,926	0,044	0,033
-692,656	159,094	-0,105	-0,106
-691,641	-33,870	-0,122	-0,049
-690,627	-200,000	-0,013	0,088
-689,612	-41,524	0,090	0,033
-688,597	-53,704	0,045	-0,015
-687,583	-200,000	-0,025	-0,161
-686,568	-79,153	-0,168	-0,041
-685,554	-200,000	0,008	0,064
-684,539	509,419	-0,014	0,024
-683,524	-200,000	0,005	-0,040
-682,510	800,000	-0,013	0,036
-681,495	106,872	-0,055	-0,047
-680,481	-200,000	-0,020	-0,084
-679,466	-200,000	0,017	-0,078
-678,451	126,350	-0,059	-0,054
-677,437	-200,000	-0,005	-0,072
-676,422	-119,426	0,133	0,017
-675,408	-200,000	0,003	0,060
-674,393	529,394	-0,108	-0,185
-673,378	-2,423	-0,159	-0,081
-672,364	-200,000	-0,003	-0,145
-671,349	59,929	-0,051	-0,036
-670,335	-24,459	-0,156	0,067
-669,320	-84,268	0,145	0,033
-668,305	-200,000	0,032	-0,123
-667,291	800,000	0,048	-0,124
-666,276	566,658	-0,122	-0,216
-665,262	-65,623	-0,098	-0,028
-664,247	473,697	0,047	-0,077
-663,232	-200,000	0,011	-0,054
-662,218	800,000	0,028	0,075
-661,203	267,254	-0,065	0,082
-660,189	556,934	0,067	0,118
-659,174	-115,843	-0,082	0,011
-658,159	-200,000	-0,044	-0,159
-657,145	-65,953	-0,014	0,004
-656,130	-200,000	-0,009	-0,084
-655,116	16,212	0,039	0,022
-654,101	-200,000	-0,007	0,174
-653,086	-200,000	0,013	-0,045
-652,072	35,686	0,049	0,031
-651,057	-33,473	0,075	-0,030
-650,043	-27,608	-0,064	0,027
-649,028	-193,031	0,015	0,000
-648,014	-200,000	0,002	-0,033
-646,999	47,563	0,064	0,043
-645,984	-200,000	0,008	-0,075
-644,970	538,427	-0,096	-0,166
-643,955	-200,000	-0,040	-0,136
-642,941	-86,923	-0,144	-0,032
-641,926	100,051	0,027	-0,022
-640,911	20,417	-0,105	0,062
-639,897	-200,000	-0,032	0,107
-638,882	67,114	0,086	0,063
-637,868	800,000	-0,009	0,025
-636,853	-158,708	0,066	-0,003
-635,838	-200,000	-0,005	0,090
-634,824	-111,919	-0,097	-0,014
-633,809	800,000	0,036	-0,097
-632,795	-200,000	0,011	-0,096
-631,780	-93,626	0,059	-0,012
-630,765	-200,000	-0,004	-0,036
-629,751	74,651	-0,051	0,039
-628,736	-17,141	-0,113	-0,051
-627,722	-97,368	-0,134	-0,025
-626,707	-22,066	0,084	-0,037
-625,692	120,373	0,089	0,080
-624,678	186,837	0,087	0,094
-623,663	-19,811	0,087	0,039
-622,649	-87,801	0,032	-0,007
-621,634	-57,271	-0,082	-0,026
-620,619	11,177	-0,155	-0,085
-619,605	65,038	0,109	-0,080
-618,590	522,718	0,027	0,046
-617,576	-57,328	0,198	-0,063
-616,561	-4,443	-0,031	0,015
-615,546	18,454	-0,033	-0,019
-614,532	-42,210	-0,102	-0,037
-613,517	148,591	-0,051	-0,050
-612,503	800,000	-0,036	-0,095
-611,488	457,897	0,096	0,154
-610,474	-69,809	0,105	0,029
-609,459	1,394	-0,110	0,057
-608,444	-128,233	-0,094	0,010
-607,430	-200,000	-0,012	-0,060
-606,415	-13,127	-0,060	0,028
-605,401	-154,298	0,090	-0,004
-604,386	-200,000	-0,023	0,179
-603,371	-7,759	0,147	0,072
-602,357	-102,195	-0,041	0,007
-601,342	-200,000	-0,001	-0,033
-600,328	83,665	-0,107	0,084
-599,313	800,000	0,006	0,012
-598,298	704,941	0,022	0,042
-597,284	-200,000	0,005	0,067
-596,269	-200,000	0,010	-0,050
-595,255	-129,831	0,100	-0,010
-594,240	625,056	-0,041	-0,075
-593,225	-40,470	0,062	-0,023
-592,211	57,054	-0,103	-0,072
-591,196	176,809	0,019	0,020
-590,182	622,967	-0,047	0,087
-589,167	-52,970	-0,045	0,015
-588,152	-200,000	-0,013	-0,118
-587,138	800,000	0,038	-0,107
-586,123	-80,809	-0,136	-0,032
-585,109	28,685	0,115	-0,070
-584,094	289,537	0,035	0,047
-583,079	31,656	-0,085	0,053
-582,065	800,000	0,046	0,125
-581,050	800,000	0,036	0,084
-580,036	-200,000	-0,022	0,087
-579,021	-102,154	0,082	-0,014
-578,006	-116,205	-0,048	-0,006
-576,992	113,946	0,023	0,020
-575,977	-84,886	0,131	0,029
-574,963	-96,693	0,070	0,013
-573,948	702,812	0,003	-0,005
-572,934	-86,196	-0,004	0,001
-571,919	572,636	-0,107	-0,189
-570,904	261,448	-0,085	-0,106
-569,890	-200,000	-0,022	0,076
-568,875	10,563	0,095	0,052
-567,861	-200,000	-0,016	0,053
-566,846	-200,000	-0,025	0,117
-565,831	-72,388	-0,033	-0,009
-564,817	212,882	0,041	0,047
-563,802	-20,507	0,079	-0,035
-562,788	800,000	0,043	0,109
-561,773	-200,000	0,003	-0,049
-560,758	-4,409	-0,029	0,014
-559,744	213,346	0,096	0,110
-558,729	655,968	-0,049	0,091
-557,715	-200,000	-0,004	-0,075
-556,700	376,763	-0,041	0,061
-555,685	-200,000	0,005	-0,163
-554,671	201,168	0,055	0,061
-553,656	-200,000	0,011	-0,048
-552,642	-169,058	0,094	0,002
-551,627	-200,000	0,005	0,063
-550,612	176,329	-0,034	-0,036
-549,598	-200,000	-0,019	-0,101
-548,583	-70,769	-0,107	-0,029
-547,569	360,857	0,048	0,069
-546,554	-6,043	0,110	-0,054
-545,539	-37,448	-0,108	-0,042
-544,525	117,673	0,125	0,111
-543,510	-200,000	-0,000	-0,040
-542,496	800,000	0,058	-0,127
-541,481	71,345	-0,038	0,028
-540,466	61,653	0,098	0,070
-539,452	800,000	-0,037	-0,085
-538,437	-4,958	0,032	-0,016
-537,423	37,560	0,033	-0,021
-536,408	611,406	-0,017	0,031
-535,393	34,620	0,132	-0,083
-534,379	385,032	-0,116	-0,173
-533,364	20,953	0,033	0,019
-532,350	-135,820	0,064	-0,005
-531,335	-200,000	0,019	0,121
-530,321	29,416	-0,174	-0,107
-529,306	-12,600	0,109	0,051
-528,291	38,061	-0,152	-0,097
-527,277	125,494	-0,094	-0,086
-526,262	-200,000	-0,020	-0,079
-525,248	569,807	-0,010	0,018
-524,233	-200,000	0,012	0,059
-523,218	36,653	-0,100	-0,064
-522,204	-88,374	0,081	0,017
-521,189	-21,437	0,021	-0,009
-520,175	-200,000	-0,022	-0,208
-519,160	-42,056	-0,010	-0,004
-518,145	-200,000	-0,034	-0,134
-517,131	34,952	-0,069	0,044
-516,116	-200,000	-0,022	0,217
-515,102	-75,591	0,003	-0,001
-514,087	-200,000	-0,010	-0,098
-513,072	162,816	-0,150	-0,152
-512,058	289,864	0,062	-0,082
-511,043	-78,049	-0,026	0,006
-510,029	5,311	0,111	0,059
-509,014	104,523	-0,115	0,097
-507,999	-200,000	-0,042	-0,157
-506,985	354,914	-0,067	-0,097
-505,970	-200,000	0,007	-0,055
-504,956	-49,940	-0,058	-0,020
-503,941	800,000	0,020	-0,044
-502,926	-200,000	-0,007	-0,075
-501,912	243,146	0,061	-0,074
-500,897	307,141	0,058	0,079
-499,883	-103,946	-0,129	-0,021
-498,868	-200,000	0,030	-0,202
-497,853	71,869	-0,110	-0,082
-496,839	800,000	0,026	0,062
-495,824	-200,000	0,003	-0,013
-494,810	-200,000	0,015	0,091
-493,795	244,509	0,046	0,056
-492,781	-79,043	-0,110	-0,027
-491,766	70,287	0,037	-0,028
-490,751	-200,000	0,010	-0,102
-489,737	800,000	0,073	-0,164
-488,722	43,570	0,068	-0,045
-487,708	800,000	0,024	0,051
-486,693	331,864	-0,050	0,070
-485,678	317,805	0,034	0,047
-484,664	33,156	0,049	-0,031
-483,649	800,000	0,023	0,070
-482,635	-200,000	0,029	0,096
-481,620	539,821	0,033	0,056
-480,605	800,000	0,098	0,241
-479,591	800,000	0,035	0,100
-478,576	428,801	-0,102	-0,159
-477,562	-136,594	-0,164	-0,013
-476,547	800,000	-0,049	-0,129
-475,532	428,249	-0,018	-0,028
-474,518	800,000	0,023	-0,054
-473,503	-83,844	-0,048	-0,011
-472,489	-200,000	-0,018	0,070
-471,474	-124,090	0,100	-0,011
-470,459	-200,000	0,001	0,069
-469,445	314,089	-0,035	-0,047
-468,430	27,526	-0,056	-0,034
-467,416	119,095	-0,068	0,060
-466,401	66,703	0,112	0,082
-465,386	62,685	-0,063	0,046
-464,372	200,620	0,048	-0,053
-463,357	168,288	-0,058	0,060
-462,343	800,000	0,058	0,124
-461,328	-111,114	0,057	-0,008
-460,313	23,866	0,160	0,095
-459,299	230,788	0,022	-0,026
-458,284	0,016	0,156	0,080
-457,270	-200,000	-0,017	0,065
-456,255	-200,000	0,007	0,057
-455,241	161,762	0,032	0,033
-454,226	-200,000	-0,014	-0,056
-453,211	272,468	-0,031	-0,040
-452,197	134,226	0,016	0,015
-451,182	322,129	0,070	-0,096
-450,168	-167,985	-0,079	0,002
-449,153	-200,000	0,026	0,095
-448,138	800,000	0,021	-0,058
-447,124	-200,000	0,032	-0,120
-446,109	147,371	0,082	0,079
-445,095	-112,984	0,177	0,025
-444,080	800,000	0,042	-0,085
-443,065	-63,647	0,106	0,031
-442,051	-200,000	-0,001	-0,072
-441,036	710,746	-0,075	-0,143
-440,022	96,020	-0,107	-0,088
-439,007	800,000	-0,035	0,080
-437,992	248,960	-0,052	-0,064
-436,978	216,831	0,090	0,103
-435,963	-200,000	-0,005	-0,069
-434,949	-200,000	0,029	-0,102
-433,934	800,000	-0,033	-0,075
-432,919	428,556	-0,051	-0,080
-431,905	-103,920	0,054	-0,009
-430,890	-80,735	-0,061	0,014
-429,876	29,943	0,018	-0,011
-428,861	376,315	0,080	0,117
-427,846	7,597	0,062	0,033
-426,832	-126,439	-0,136	-0,014
-425,817	-137,160	0,047	-0,004
-424,803	117,493	0,017	0,015
-423,788	-149,790	0,103	0,006
-422,773	-200,000	0,015	0,052
-421,759	416,435	-0,067	0,104
-420,744	-193,808	-0,056	0,000
-419,730	-42,671	-0,144	0,052
-418,715	765,723	-0,032	-0,064
-417,701	58,706	0,042	-0,030
-416,686	-200,000	0,043	0,136
-415,671	101,054	0,102	0,085
-414,657	85,816	0,047	0,037
-413,642	800,000	0,025	0,065
-412,628	-14,316	-0,156	0,072
-411,613	-121,268	0,060	0,007
-410,598	519,496	0,058	-0,098
-409,584	43,853	0,090	0,059
-408,569	-200,000	-0,010	0,071
-407,555	767,567	0,076	0,150
-406,540	112,651	-0,069	0,060
-405,525	-123,172	0,177	0,020
-404,511	800,000	-0,016	0,040
-403,496	-200,000	0,098	0,000
-402,482	346,290	-0,022	-0,031
-401,467	-177,311	-0,038	0,001
-400,452	-71,283	0,090	0,024
-399,438	149,380	0,086	-0,084
-398,423	-200,000	-0,020	0,082
-397,409	-102,368	-0,045	-0,008
-396,394	-151,807	-0,161	0,008
-395,379	-28,345	-0,113	0,047
-394,365	235,744	0,065	0,077
-393,350	65,673	0,089	0,065
-392,336	-2,881	-0,036	0,018
-391,321	-96,081	0,073	0,014
-390,306	-200,000	-0,011	-0,109
-389,292	-125,945	-0,097	-0,010
-388,277	-200,000	0,025	0,080
-387,263	-81,636	0,044	-0,010
-386,248	-85,552	0,154	-0,034
-385,233	-32,918	0,039	0,015
-384,219	-49,960	-0,019	-0,006
-383,204	349,640	-0,065	-0,092
-382,190	800,000	0,013	-0,031
-381,175	-200,000	0,012	0,065
-380,160	148,314	-0,049	-0,048
-379,146	117,029	0,046	-0,041
-378,131	800,000	0,018	-0,044
-377,117	-73,506	0,018	0,005
-376,102	800,000	0,066	-0,187
-375,088	-153,793	-0,143	0,007
-374,073	-200,000	-0,006	-0,037
-373,058	-80,643	0,093	-0,022
-372,044	645,253	0,074	0,135
-371,029	800,000	-0,042	-0,129
-370,015	308,749	-0,132	-0,178
-369,000	304,733	0,030	-0,040
-367,985	-200,000	0,031	-0,139
-366,971	-200,000	0,005	0,033
-365,956	53,219	0,155	0,107
-364,942	-157,221	0,081	-0,003
-363,927	800,000	0,022	0,057
-362,912	-200,000	-0,009	0,149
-361,898	272,837	-0,042	-0,053
-360,883	-200,000	-0,043	-0,157
-359,869	72,974	-0,076	0,057
-358,854	-200,000	0,021	0,231
-357,839	-72,655	-0,177	0,046
-356,825	-50,782	-0,013	-0,004
-355,810	285,865	-0,051	0,066
-354,796	46,153	-0,066	0,044
-353,781	381,861	-0,013	0,020
-352,766	-182,259	-0,142	0,002
-351,752	114,489	0,146	-0,127
-350,737	109,212	-0,029	-0,025
-349,723	-200,000	0,018	0,207
-348,708	-200,000	0,013	0,174
-347,693	-28,692	-0,076	0,031
-346,679	394,023	0,033	-0,049
-345,664	528,704	0,033	-0,056
-344,650	220,453	-0,089	-0,102
-343,635	-200,000	-0,003	0,014
-342,620	-200,000	0,015	0,088
-341,606	600,818	-0,032	0,056
-340,591	-200,000	-0,028	0,145
-339,577	-200,000	-0,048	-0,175
-338,562	-200,000	-0,008	-0,173
-337,548	129,122	0,090	0,082
-336,533	-21,686	0,057	0,025
-335,518	-150,296	-0,097	-0,005
-334,504	552,705	-0,048	-0,082
-333,489	281,485	0,049	-0,063
-332,475	-200,000	0,012	-0,122
-331,460	147,225	-0,118	-0,113
-330,445	0,901	0,066	-0,034
-329,431	-76,769	0,210	-0,052
-328,416	-48,590	0,026	0,009
-327,402	-200,000	0,003	0,097
-326,387	24,228	0,162	0,096
-325,372	-94,350	-0,042	0,008
-324,358	-200,000	0,007	0,047
-323,343	128,388	0,136	0,124
-322,329	-200,000	-0,015	-0,069
-321,314	-16,538	0,159	0,072
-320,299	40,815	0,100	0,065
-319,285	-200,000	-0,021	0,124
-318,270	501,436	-0,048	-0,080
-317,256	-25,375	-0,155	0,065
-316,241	-111,515	-0,125	0,018
-315,226	800,000	-0,022	-0,050
-314,212	238,582	-0,029	-0,035
-313,197	153,617	0,070	-0,069
-312,183	141,355	0,019	-0,018
-311,168	710,829	0,008	0,015
-310,153	-84,563	-0,030	-0,007
-309,139	113,897	-0,085	0,074
-308,124	631,282	-0,034	0,061
-307,110	91,508	-0,080	-0,064
-306,095	466,562	0,074	0,119
-305,080	-200,000	0,008	-0,047
-304,066	-176,565	-0,043	0,001
-303,051	189,390	-0,057	0,062
-302,037	-11,956	0,106	-0,050
-301,022	-200,000	0,000	-0,154
-300,008	3,426	-0,034	0,018
-298,993	45,664	0,061	0,040
-297,978	152,302	-0,092	-0,090
-296,964	232,226	-0,079	0,092
-295,949	239,388	-0,053	0,063
-294,935	-59,546	-0,028	-0,009
-293,920	58,792	-0,099	0,069
-292,905	-200,000	-0,002	-0,092
-291,891	216,690	0,027	0,031
-290,876	-115,708	0,038	-0,005
-289,862	-111,503	-0,044	0,006
-288,847	-97,874	-0,062	0,011
-287,832	-200,000	0,017	-0,107
-286,818	379,377	0,039	-0,057
-285,803	-21,709	0,063	-0,027
-284,789	111,800	0,077	-0,066
-283,774	-24,574	0,039	0,017
-282,759	-121,715	-0,050	-0,006
-281,745	621,520	0,022	-0,040
-280,730	-55,349	-0,127	-0,040
-279,716	293,289	0,095	0,124
-278,701	-200,000	-0,044	0,145
-277,686	-10,756	0,122	0,058
-276,672	-200,000	0,053	0,170
-275,657	749,695	0,047	0,091
-274,643	800,000	0,046	0,143
-273,628	95,168	-0,078	-0,063
-272,613	304,268	-0,023	-0,031
-271,599	207,576	0,100	0,111
-270,584	800,000	0,033	-0,096
-269,570	-14,102	-0,054	0,025
-268,555	8,202	-0,130	0,070
-267,540	114,126	-0,034	0,030
-266,526	33,729	-0,060	-0,037
-265,511	-200,000	-0,011	-0,041
-264,497	85,222	0,049	0,038
-263,482	114,090	0,082	0,071
-262,467	-80,545	-0,012	-0,003
-261,453	616,307	0,039	-0,069
-260,438	-17,577	0,040	0,018
-259,424	76,745	-0,168	-0,127
-258,409	800,000	-0,017	-0,047
-257,395	-181,676	0,065	0,001
-256,380	-200,000	0,023	0,141
-255,365	-200,000	0,004	0,041
-254,351	770,349	-0,045	-0,088
-253,336	800,000	-0,011	-0,022
-252,322	7,006	-0,032	0,017
-251,307	-200,000	-0,017	-0,100
-250,292	-200,000	0,003	-0,143
-249,278	-200,000	0,029	0,093
-248,263	0,878	-0,055	0,028
-247,249	-200,000	-0,002	0,035
-246,234	-200,000	-0,003	0,026
-245,219	316,374	-0,036	0,049
-244,205	435,446	0,017	-0,026
-243,190	800,000	0,009	-0,023
-242,176	-47,840	0,096	-0,033
-241,161	300,128	0,025	-0,033
-240,146	111,394	-0,052	-0,045
-239,132	378,319	-0,035	0,052
-238,117	-200,000	0,014	-0,050
-237,103	312,511	-0,094	0,126
-236,088	483,422	-0,055	-0,090
-235,073	370,308	0,049	-0,071
-234,059	-200,000	0,023	0,216
-233,044	47,148	0,014	0,009
-232,030	164,821	-0,087	-0,088
-231,015	-200,000	-0,037	-0,151
-230,000	-9,750	-0,145	-0,069
-228,986	-97,966	0,095	0,017
-227,971	-200,000	0,021	0,117
-226,957	95,588	0,061	-0,050
-225,942	-106,393	-0,041	-0,006
-224,927	800,000	0,036	-0,097
-223,913	613,257	0,025	-0,045
-222,898	80,002	-0,027	-0,021
-221,884	16,356	-0,053	-0,030
-220,869	133,414	0,109	-0,101
-219,855	57,022	0,014	-0,010
-218,840	-200,000	0,013	0,068
-217,825	93,312	-0,026	0,021
-216,811	-200,000	0,004	-0,034
-215,796	256,302	-0,072	-0,088
-214,782	-4,139	-0,188	-0,092
-213,767	16,496	0,021	-0,012
-212,752	-200,000	-0,001	-0,020
-211,738	800,000	0,019	0,060
-210,723	-184,414	0,066	-0,001
-209,709	798,430	0,027	-0,053
-208,694	800,000	-0,035	-0,084
-207,679	130,311	-0,044	-0,040
-206,665	110,116	0,072	0,062
-205,650	207,633	0,057	0,064
-204,636	-63,366	0,138	0,040
-203,621	90,560	-0,067	0,054
-202,606	-200,000	0,007	0,122
-201,592	-126,349	-0,167	-0,017
-200,577	1,767	-0,031	-0,016
-199,563	256,967	0,044	-0,053
-198,548	-200,000	-0,014	0,187
-197,533	155,838	-0,116	-0,114
-196,519	40,440	-0,092	0,059
-195,504	368,193	0,056	0,081
-194,490	-200,000	-0,005	-0,166
-193,475	533,157	-0,059	-0,100
-192,460	-76,819	0,123	0,030
-191,446	319,020	0,047	0,063
-190,431	-110,005	0,105	0,015
-189,417	-200,000	-0,007	0,084
-188,402	81,493	0,102	0,079
-187,387	163,618	-0,087	0,087
-186,373	52,546	0,068	-0,046
-185,358	-85,528	0,010	0,002
-184,344	264,195	0,113	0,140
-183,329	800,000	0,069	0,149
-182,315	-200,000	-0,027	0,185
-181,300	800,000	0,048	-0,114
-180,285	71,941	-0,140	-0,104
-179,271	421,666	-0,050	-0,076
-178,256	-56,589	0,062	0,020
-177,242	-21,207	0,047	-0,020
-176,227	-21,841	-0,199	0,086
-175,212	529,120	-0,003	-0,004
-174,198	381,675	-0,051	-0,074
-173,183	318,347	0,044	-0,060
-172,169	-52,622	-0,098	-0,032
-171,154	-68,129	-0,084	-0,023
-170,139	245,552	0,026	-0,032
-169,125	-200,000	-0,009	0,144
-168,110	-200,000	-0,039	-0,168
-167,096	162,832	0,106	-0,106
-166,081	-173,481	-0,104	0,002
-165,066	800,000	0,030	0,062
-164,052	-20,496	0,025	0,011
-163,037	-17,494	-0,110	0,049
-162,023	71,747	0,154	0,114
-161,008	-200,000	-0,008	0,117
-159,993	324,795	-0,130	-0,177
-158,979	-200,000	0,001	0,021
-157,964	-200,000	-0,018	-0,152
-156,950	63,729	-0,078	0,056
-155,935	-200,000	0,002	0,131
-154,920	-12,578	0,038	-0,018
-153,906	-200,000	-0,004	0,063
-152,891	800,000	-0,010	-0,022
-151,877	91,563	0,117	0,094
-150,862	13,877	0,012	0,007
-149,847	71,230	-0,087	-0,064
-148,833	-36,846	0,021	0,008
-147,818	-200,000	0,007	0,067
-146,804	42,644	-0,110	0,071
-145,789	-7,110	0,064	-0,031
-144,775	-105,451	0,081	0,013
-143,760	42,579	-0,045	0,029
-142,745	-22,486	-0,072	0,031
-141,731	-28,849	-0,114	0,046
-140,716	800,000	0,008	0,021
-139,702	-200,000	0,011	0,092
-138,687	-200,000	0,008	0,112
-137,672	184,542	-0,078	-0,082
-136,658	-0,774	-0,082	-0,041
-135,643	593,489	0,024	0,042
-134,629	-14,352	0,074	0,034
-133,614	58,916	-0,048	-0,033
-132,599	-200,000	-0,009	0,061
-131,585	715,979	-0,051	0,097
-130,570	612,340	0,053	0,094
-129,556	-200,000	0,023	-0,143
-128,541	91,472	0,023	0,018
-127,526	-125,041	0,029	-0,003
-126,512	800,000	0,047	0,139
-125,497	501,613	0,065	0,107
-124,483	-130,116	0,082	0,008
-123,468	-46,132	-0,037	-0,013
-122,453	269,532	-0,063	0,078
-121,439	800,000	-0,020	-0,052
-120,424	-199,245	0,089	0,000
-119,410	-107,220	0,080	0,012
-118,395	287,784	-0,069	0,089
-117,380	-200,000	-0,012	0,124
-116,366	800,000	0,072	-0,166
-115,351	107,910	-0,064	-0,054
-114,337	150,904	0,084	-0,081
-113,322	322,064	-0,073	0,099
-112,307	800,000	-0,029	0,066
-111,293	40,697	-0,032	0,020
-110,278	-200,000	-0,035	0,118
-109,264	-46,459	0,034	0,012
-108,249	-122,603	0,092	-0,010
-107,234	-144,082	-0,088	0,006
-106,220	357,293	-0,053	-0,075
-105,205	-200,000	0,004	-0,121
-104,191	-19,046	0,209	-0,092
-103,176	-48,925	0,165	-0,056
-102,162	449,885	-0,046	0,072
-101,147	498,780	0,068	0,112
-100,132	-200,000	-0,017	-0,108
-99,118	-200,000	-0,005	-0,033
-98,103	70,201	-0,075	-0,055
-97,089	-200,000	0,008	0,087
-96,074	-200,000	-0,015	0,050
-95,059	-70,746	-0,154	-0,041
-94,045	640,282	-0,029	0,053
-93,030	1,916	0,156	-0,080
-92,016	381,182	-0,080	-0,116
-91,001	-155,286	0,086	0,004
-89,986	-87,163	0,052	-0,011
-88,972	-200,000	0,020	0,111
-87,957	800,000	-0,020	0,040
-86,943	800,000	0,007	-0,019
-85,928	142,450	-0,021	-0,020
-84,913	800,000	0,051	0,122
-83,899	-137,324	-0,033	-0,003
-82,884	-200,000	-0,063	0,199
-81,870	-200,000	0,018	0,061
-80,855	-114,010	0,088	-0,012
-79,840	-37,504	-0,058	0,022
-78,826	141,156	-0,030	-0,028
-77,811	162,895	-0,034	0,034
-76,797	122,967	0,055	-0,049
-75,782	-30,573	0,138	0,055
-74,767	44,301	-0,076	0,049
-73,753	-51,827	0,125	-0,041
-72,738	-58,783	-0,059	0,018
-71,724	-200,000	-0,001	-0,034
-70,709	800,000	-0,026	0,079
-69,694	-144,344	0,087	0,006
-68,680	-4,398	0,166	-0,081
-67,665	-200,000	0,022	0,113
-66,651	-30,230	-0,051	0,020
-65,636	135,839	0,121	0,112
-64,622	800,000	-0,013	0,040
-63,607	-200,000	0,012	0,128
-62,592	-96,606	0,024	-0,004
-61,578	800,000	-0,063	0,146
-60,563	-31,088	0,153	-0,061
-59,549	800,000	0,045	0,135
-58,534	-23,147	-1,700	-0,722
-57,519	400,010	-1,303	-1,941
-56,505	-200,000	-0,715	-4,418
-55,490	135,060	1,102	1,014
-54,476	800,000	4,930	11,361
-53,461	-200,000	19,162	319,462
-52,446	-200,000	740,572	2334,279
-51,432	573,446	1655,684	2869,946
-50,417	78,281	1671,184	1262,084
-49,403	21,275	1544,131	885,703
-48,388	15,199	1466,436	811,588
-47,373	17,961	1456,725	819,528
-46,359	16,650	1446,536	807,478
-45,344	13,455	1441,825	789,510
-44,330	13,356	1439,977	787,990
-43,315	13,394	1438,241	787,192
-42,300	13,389	1436,508	786,190
-41,286	13,418	1435,351	785,664
-40,271	13,348	1434,187	784,660
-39,257	13,355	1432,827	783,917
-38,242	13,378	1431,519	783,279
-37,227	13,460	1430,229	782,934
-36,213	13,414	1429,021	782,025
-35,198	13,388	1427,622	781,103
-34,184	13,445	1426,793	780,887
-33,169	13,390	1425,492	779,887
-32,154	13,473	1424,269	779,580
-31,140	13,401	1423,153	778,595
-30,125	13,484	1421,810	778,223
-29,111	13,442	1421,033	777,568
-28,096	13,406	1419,839	776,712
-27,082	13,328	1418,911	775,807
-26,067	13,321	1417,729	775,099
-25,052	13,361	1416,388	774,521
-24,038	13,354	1415,421	773,928
-23,023	13,324	1414,592	773,306
-22,009	13,311	1413,429	772,576
-20,994	13,338	1412,507	772,170
-19,979	13,375	1411,650	771,841
-18,965	13,316	1410,579	770,948
-17,950	13,281	1409,976	770,428
-16,936	13,300	1408,808	769,848
-15,921	13,256	1407,713	769,012
-14,906	13,275	1406,909	768,628
-13,892	13,295	1405,698	768,034
-12,877	13,259	1405,070	767,488
-11,863	13,273	1404,165	767,032
-10,848	13,262	1403,429	766,547
-9,833	13,227	1402,485	765,837
-8,819	13,234	1401,366	765,230
-7,804	13,170	1400,895	764,644
-6,790	13,135	1399,705	763,803
-5,775	13,157	1398,631	763,286
-4,760	13,198	1397,466	762,810
-3,746	13,155	1396,734	762,182
-2,731	13,152	1396,006	761,740
-1,717	13,142	1394,842	761,028
-0,702	13,102	1393,386	760,020
0,313	16,966	1309,949	732,405
1,327	33,281	703,749	431,183
2,342	50,525	123,414	82,463
3,356	2,257	16,681	8,505
4,371	15,037	3,187	1,761
5,386	-10,374	0,549	0,256
6,400	-200,000	-0,000	0,247
7,415	-52,010	-0,089	-0,029
8,429	5,696	-0,263	-0,137
9,444	-34,324	-0,285	-0,110
10,459	-118,455	-0,483	-0,060
11,473	-87,689	-0,269	-0,057
12,488	-94,042	-0,312	-0,060
13,502	23,521	-0,297	-0,172
14,517	-90,336	-0,406	-0,082
15,531	270,244	-0,259	-0,323
16,546	158,996	-0,288	-0,283
17,561	119,830	-0,456	-0,400
18,575	362,361	-0,163	-0,232
19,590	47,853	-0,247	-0,163
20,604	104,826	-0,395	-0,329
21,619	309,427	-0,353	-0,468
22,634	-48,549	-0,447	-0,151
23,648	65,500	-0,443	-0,317
24,663	48,290	-0,313	-0,207
25,677	14,976	-0,273	-0,151
26,692	48,474	-0,391	-0,258
27,707	288,752	-0,276	-0,353
28,721	31,280	-0,392	-0,237
29,736	21,352	-0,423	-0,242
30,750	62,590	-0,361	-0,254
31,765	131,241	-0,367	-0,332
32,780	72,859	-0,488	-0,359
33,794	65,582	-0,326	-0,233
34,809	476,395	-0,298	-0,477
35,823	186,443	-0,300	-0,315
36,838	-7,192	-0,497	-0,237
37,853	154,957	-0,364	-0,353
38,867	114,241	-0,438	-0,376
39,882	114,440	-0,340	-0,292
40,896	137,777	-0,317	-0,293
41,911	142,283	-0,343	-0,321
42,926	253,725	-0,298	-0,360
43,940	4,887	-0,416	-0,215
44,955	-89,008	-0,416	-0,086
45,969	312,871	-0,216	-0,287
46,984	166,126	-0,175	-0,175
47,999	43,138	-0,422	-0,271
49,013	178,789	-0,263	-0,271
50,028	82,853	-0,234	-0,179
51,042	46,021	-0,385	-0,251
52,057	448,764	-0,297	-0,463
53,071	14,467	-0,319	-0,175
54,086	293,286	-0,283	-0,365
55,101	-45,498	-0,388	-0,135
56,115	112,400	-0,264	-0,225
57,130	0,126	-0,396	-0,198
58,144	231,552	-0,276	-0,319
59,159	8,921	-0,430	-0,228
60,174	110,327	-0,275	-0,233
61,188	153,386	-0,316	-0,305
62,203	100,820	-0,257	-0,210
63,217	217,680	-0,231	-0,260
64,232	40,767	-0,389	-0,247
65,247	17,217	-0,367	-0,204
66,261	30,446	-0,378	-0,227
67,276	23,060	-0,333	-0,192
68,290	136,039	-0,375	-0,344
69,305	42,979	-0,348	-0,223
70,320	166,349	-0,289	-0,289
71,334	100,379	-0,317	-0,259
72,349	-30,481	-0,408	-0,162
73,363	-78,916	-0,391	-0,093
74,378	179,304	-0,357	-0,367
75,393	11,410	-0,352	-0,189
76,407	202,262	-0,175	-0,190
77,422	193,792	-0,233	-0,248
78,436	-16,180	-0,398	-0,177
79,451	143,486	-0,339	-0,317
80,466	299,422	-0,179	-0,233
81,480	150,199	-0,313	-0,299
82,495	53,873	-0,374	-0,252
83,509	33,852	-0,258	-0,157
84,524	738,894	-0,095	-0,180
85,539	156,783	-0,363	-0,353
86,553	-6,366	-0,355	-0,170
87,568	85,296	-0,251	-0,193
88,582	70,361	-0,239	-0,173
89,597	96,395	-0,300	-0,241
90,611	-72,958	-0,447	-0,114
91,626	-38,659	-0,217	-0,080
92,641	686,013	-0,098	-0,180
93,655	32,131	-0,178	-0,108
94,670	40,885	-0,282	-0,178
95,684	31,413	-0,315	-0,190
96,699	9,414	-0,113	-0,060
97,714	-67,434	-0,382	-0,105
98,728	-12,587	-0,222	-0,101
99,743	3,886	-0,364	-0,186
100,757	134,713	-0,204	-0,186
101,772	-58,880	-0,351	-0,106
102,787	59,130	-0,415	-0,286
103,801	171,651	-0,320	-0,322
104,816	102,712	-0,268	-0,220
105,830	161,336	-0,238	-0,234
106,845	79,775	-0,254	-0,191
107,860	22,642	-0,347	-0,199
108,874	229,863	-0,209	-0,239
109,889	342,807	-0,208	-0,286
110,903	105,938	-0,181	-0,150
111,918	-0,400	-0,292	-0,145
112,933	2,156	-0,294	-0,149
113,947	-82,605	-0,310	-0,070
114,962	117,974	-0,200	-0,173
115,976	32,312	-0,356	-0,215
116,991	77,197	-0,317	-0,236
118,006	102,424	-0,302	-0,247
119,020	101,263	-0,174	-0,142
120,035	-91,265	-0,193	-0,038
121,049	261,828	-0,168	-0,204
122,064	101,763	-0,226	-0,184
123,079	119,712	-0,198	-0,172
124,093	-53,096	-0,257	-0,082
125,108	186,515	-0,265	-0,276
126,122	639,248	-0,190	-0,340
127,137	-15,890	-0,256	-0,113
128,151	275,029	-0,194	-0,240
129,166	152,133	-0,226	-0,215
130,181	-200,000	-0,013	-0,281
131,195	-188,426	-0,266	-0,002
132,210	-94,052	-0,222	-0,042
133,224	42,769	-0,334	-0,213
134,239	26,161	-0,272	-0,158
135,254	104,474	-0,250	-0,206
136,268	56,214	-0,215	-0,146
137,283	-112,736	-0,099	-0,014
138,297	180,147	-0,312	-0,320
139,312	515,732	-0,212	-0,347
140,327	-87,646	-0,371	-0,078
141,341	65,303	-0,175	-0,123
142,356	138,157	-0,264	-0,242
143,370	707,131	-0,144	-0,268
144,385	141,148	-0,232	-0,214
145,400	24,182	-0,334	-0,192
146,414	681,348	-0,146	-0,267
147,429	253,197	-0,252	-0,301
148,443	144,767	-0,221	-0,206
149,458	53,885	-0,190	-0,128
150,473	800,000	-0,111	-0,257
151,487	-84,062	-0,195	-0,043
152,502	-35,245	-0,281	-0,106
153,516	3,600	-0,325	-0,165
154,531	513,173	-0,205	-0,335
155,546	188,303	-0,262	-0,273
156,560	-36,305	-0,247	-0,093
157,575	174,687	-0,141	-0,143
158,589	3,981	-0,268	-0,136
159,604	194,213	-0,311	-0,329
160,619	22,746	-0,412	-0,235
161,633	144,390	-0,180	-0,168
162,648	48,725	-0,298	-0,195
163,662	13,442	-0,288	-0,155
164,677	-92,170	-0,275	-0,054
165,692	-3,260	-0,130	-0,063
166,706	96,568	-0,278	-0,222
167,721	-4,756	-0,165	-0,079
168,735	153,209	-0,217	-0,207
169,750	800,000	-0,059	-0,151
170,764	221,362	-0,163	-0,183
171,779	369,801	-0,149	-0,211
172,794	250,440	-0,132	-0,157
173,808	284,989	-0,217	-0,273
174,823	322,016	-0,183	-0,243
175,837	105,412	-0,256	-0,211
176,852	58,885	-0,313	-0,214
177,867	164,066	-0,173	-0,170
178,881	257,463	-0,181	-0,217
179,896	430,525	-0,134	-0,202
180,910	47,606	-0,260	-0,169
181,925	-25,403	-0,132	-0,054
182,940	-130,333	-0,329	-0,031
183,954	-11,153	-0,179	-0,082
184,969	158,774	-0,136	-0,131
185,983	800,000	-0,043	-0,121
186,998	214,729	-0,179	-0,198
188,013	48,835	-0,225	-0,147
189,027	189,688	-0,169	-0,177
190,042	262,882	-0,170	-0,206
191,056	416,596	-0,131	-0,195
192,071	-84,342	-0,263	-0,057
193,086	-42,819	-0,167	-0,059
194,100	176,236	-0,166	-0,168
195,115	68,822	-0,229	-0,164
196,129	-79,365	-0,249	-0,058
197,144	104,518	-0,237	-0,194
198,159	-103,061	-0,221	-0,036
199,173	20,947	-0,238	-0,134
200,188	-163,645	-0,148	-0,005
201,202	324,585	-0,065	-0,086
202,217	224,380	-0,183	-0,206
203,232	161,885	-0,245	-0,238
204,246	200,372	-0,221	-0,236
205,261	10,493	-0,248	-0,131
206,275	445,860	-0,137	-0,210
207,290	71,012	-0,150	-0,108
208,304	338,506	-0,097	-0,131
209,319	-200,000	-0,031	-0,188
210,334	33,117	-0,257	-0,154
211,348	-108,408	-0,154	-0,023
212,363	72,832	-0,259	-0,188
213,377	295,299	-0,161	-0,205
214,392	153,135	-0,175	-0,166
215,407	122,104	-0,168	-0,146
216,421	357,709	-0,102	-0,142
217,436	70,812	-0,200	-0,143
218,450	179,667	-0,234	-0,238
219,465	-26,959	-0,317	-0,128
220,480	409,467	-0,167	-0,247
221,494	-200,000	-0,055	-0,225
222,509	27,383	-0,188	-0,110
223,523	-93,514	-0,173	-0,033
224,538	46,432	-0,210	-0,135
225,553	229,113	-0,214	-0,243
226,567	581,133	-0,109	-0,187
227,582	260,832	-0,231	-0,278
228,596	98,969	-0,191	-0,153
229,611	131,248	-0,072	-0,064
230,626	-17,035	-0,163	-0,071
231,640	110,217	-0,126	-0,105
232,655	-34,506	-0,144	-0,054
233,669	118,706	-0,202	-0,173
234,684	-6,293	-0,245	-0,115
235,699	170,047	-0,200	-0,198
236,713	30,988	-0,092	-0,055
237,728	97,042	-0,186	-0,148
238,742	-91,097	-0,316	-0,062
239,757	70,112	-0,223	-0,159
240,772	-184,959	-0,355	-0,004
241,786	13,525	-0,307	-0,164
242,801	-3,596	-0,194	-0,093
243,815	800,000	-0,124	-0,299
244,830	32,396	0,029	-0,017
245,844	204,612	-0,123	-0,132
246,859	67,534	-0,262	-0,185
247,874	449,824	-0,144	-0,220
248,888	266,230	-0,094	-0,114
249,903	800,000	-0,065	-0,164
250,917	-200,000	0,031	-0,119
251,932	-14,878	-0,231	-0,102
252,947	150,450	-0,153	-0,144
253,961	116,846	-0,186	-0,158
254,976	21,688	-0,183	-0,103
255,990	-21,267	-0,226	-0,095
257,005	112,975	-0,303	-0,254
258,020	-22,795	-0,228	-0,095
259,034	-79,903	-0,126	-0,029
260,049	-200,000	-0,048	-0,185
261,063	197,178	-0,242	-0,255
262,078	187,017	-0,193	-0,199
263,093	-44,471	-0,190	-0,066
264,107	26,508	-0,183	-0,105
265,122	-200,000	-0,011	-0,086
266,136	53,234	-0,217	-0,144
267,151	-71,656	-0,201	-0,051
268,166	195,384	-0,133	-0,140
269,180	-8,157	-0,194	-0,090
270,195	-132,732	-0,196	-0,017
271,209	49,193	-0,193	-0,125
272,224	800,000	-0,116	-0,263
273,239	-24,024	-0,087	-0,036
274,253	3,280	-0,254	0,127
275,268	280,321	-0,104	-0,129
276,282	-27,221	-0,145	-0,058
277,297	72,740	-0,123	-0,088
278,312	782,238	-0,158	-0,301
279,326	800,000	-0,079	-0,175
280,341	800,000	-0,062	-0,174
281,355	574,736	-0,048	-0,082
282,370	198,904	-0,131	-0,139
283,384	220,519	-0,123	-0,137
284,399	199,832	-0,194	-0,206
285,414	-50,203	-0,303	-0,098
286,428	453,015	-0,135	-0,207
287,443	800,000	-0,048	0,112
288,457	-124,081	-0,227	0,024
289,472	660,877	-0,136	-0,242
290,487	384,621	-0,135	-0,193
291,501	138,202	-0,242	-0,219
292,516	59,847	-0,270	-0,184
293,530	386,839	-0,100	-0,143
294,545	357,656	-0,148	-0,205
295,560	44,665	-0,073	-0,046
296,574	-95,959	-0,169	0,031
297,589	-200,000	-0,034	-0,108
298,603	-23,333	-0,056	-0,023
299,618	-102,512	-0,063	0,010
300,633	800,000	-0,073	-0,172
301,647	191,144	-0,144	-0,150
302,662	98,525	-0,185	-0,147
303,676	-2,083	-0,210	-0,101
304,691	-200,000	0,013	-0,093
305,706	579,144	-0,083	-0,140
306,720	744,477	-0,210	-0,391
307,735	-20,793	-0,096	-0,040
308,749	-64,290	-0,127	0,035
309,764	55,615	-0,158	-0,105
310,779	42,842	-0,205	-0,128
311,793	-34,046	-0,271	-0,102
312,808	26,594	-0,131	-0,075
313,822	-52,762	-0,215	0,068
314,837	-40,746	-0,092	-0,033
315,852	-200,000	0,017	-0,080
316,866	72,586	-0,126	0,091
317,881	-13,196	-0,089	-0,039
318,895	219,698	-0,134	-0,147
319,910	-53,328	-0,165	-0,052
320,925	107,733	-0,160	-0,131
321,939	26,680	-0,078	0,045
322,954	-30,864	-0,114	-0,044
323,968	346,972	0,055	-0,075
324,983	-131,342	-0,100	0,009
325,997	200,083	-0,133	-0,140
327,012	251,902	-0,139	-0,163
328,027	115,532	-0,160	-0,134
329,041	102,878	-0,055	-0,044
330,056	-200,000	-0,014	-0,076
331,070	142,663	-0,172	-0,158
332,085	-142,183	-0,138	0,009
333,100	44,601	-0,160	0,101
334,114	-142,989	-0,079	-0,005
335,129	190,867	-0,113	-0,117
336,143	88,003	-0,172	-0,131
337,158	-129,429	-0,229	0,022
338,173	-144,134	-0,171	-0,011
339,187	-147,593	-0,078	-0,004
340,202	-125,162	-0,168	-0,017
341,216	-109,258	-0,177	0,025
342,231	-163,875	-0,106	-0,003
343,246	-33,425	-0,093	-0,035
344,260	440,325	-0,075	-0,113
345,275	-200,000	-0,009	-0,063
346,289	43,257	-0,050	-0,031
347,304	-16,682	-0,197	-0,085
348,319	124,960	-0,183	-0,158
349,333	800,000	-0,063	-0,129
350,348	-67,638	-0,165	0,044
351,362	-63,185	-0,209	-0,059
352,377	-114,820	-0,115	-0,015
353,392	317,373	-0,119	-0,154
354,406	567,126	-0,052	-0,087
355,421	209,324	1313,151	1413,112
356,435	161,099	1473,689	1413,606
