DTS Sentinel unit serial number:	SN410029Multiplexer serial number:	ORYXHardware model number:	OX2-SRSoftware version number:	ORYX F/W v4,00 Oryx Data Collector v3.7.2.0data status	okinstallation	B3 Nyhavnadifferential loss correction	single-endedforward channel	channel 1reverse channel	N/Adate	2023/11/30time	06:42:30forward acquisition time	300,00reverse acquisition time	0,00gamma	499,1914k internal	0,3210k external	0,3210temperature offset calibration	1,0000default loss term (dB/km)	0,3820temperature slope calibration	1,0000multiplexer offset coefficient	1,0000multiplexer slope coefficient	1,0000fibre end	0,00T internal ref (°C)	10,20T ext. ref 1 (°C)	-5,53T ext. ref 2 (°C)	-5,65length (m)	temperature (°C)	Stokes	anti-Stokes-744,400	139,424	-0,292	-0,279
-743,385	-200,000	0,042	0,267
-742,371	632,510	-0,162	-0,299
-741,356	344,685	0,135	0,193
-740,342	800,000	-0,123	-0,256
-739,327	-200,000	0,042	0,235
-738,312	512,508	-0,187	-0,317
-737,298	-200,000	-0,044	0,268
-736,283	295,341	-0,147	-0,196
-735,269	-200,000	0,096	0,421
-734,254	444,245	-0,204	-0,326
-733,239	-7,731	-0,334	0,163
-732,225	511,668	-0,072	-0,122
-731,210	55,685	0,102	0,071
-730,196	800,000	-0,027	0,060
-729,181	-6,968	-0,092	0,045
-728,167	-200,000	-0,010	0,037
-727,152	183,324	-0,142	-0,153
-726,137	22,280	-0,086	-0,051
-725,123	-46,023	-0,142	0,050
-724,108	32,307	-0,052	-0,032
-723,094	-96,260	-0,195	-0,037
-722,079	68,936	-0,065	-0,048
-721,064	-200,000	-0,014	-0,043
-720,050	-71,787	0,075	0,020
-719,035	-200,000	0,016	-0,052
-718,021	-88,457	-0,076	-0,016
-717,006	282,500	-0,051	-0,066
-715,991	-200,000	-0,043	-0,145
-714,977	202,125	-0,084	-0,093
-713,962	299,982	0,063	-0,085
-712,948	-200,000	-0,010	0,039
-711,933	135,879	0,094	0,088
-710,918	-200,000	-0,010	0,039
-709,904	126,155	-0,179	-0,164
-708,889	549,990	0,023	0,040
-707,875	-19,296	-0,181	-0,081
-706,860	27,210	0,139	0,085
-705,845	-200,000	-0,014	-0,089
-704,831	-66,304	0,109	-0,031
-703,816	-200,000	0,011	0,156
-702,802	800,000	-0,044	0,109
-701,787	-200,000	0,025	-0,161
-700,772	547,811	0,043	-0,075
-699,758	-48,566	-0,097	-0,034
-698,743	-95,229	0,067	-0,013
-697,729	-200,000	-0,002	0,141
-696,714	800,000	-0,013	0,031
-695,699	-200,000	-0,126	0,000
-694,685	409,508	0,054	-0,083
-693,670	-6,764	-0,149	0,073
-692,656	257,861	0,078	0,098
-691,641	470,041	-0,063	-0,102
-690,627	16,452	0,154	0,088
-689,612	137,439	-0,037	0,035
-688,597	-104,338	0,071	-0,012
-687,583	-200,000	-0,000	-0,048
-686,568	86,204	-0,072	-0,057
-685,554	800,000	0,075	-0,197
-684,539	63,207	0,060	-0,043
-683,524	534,958	0,013	0,022
-682,510	-68,967	0,149	-0,041
-681,495	-92,828	-0,115	-0,023
-680,481	800,000	-0,014	-0,040
-679,466	-50,888	-0,152	-0,051
-678,451	-106,913	0,061	-0,010
-677,437	-200,000	-0,002	-0,044
-676,422	68,249	0,073	0,054
-675,408	438,391	-0,037	0,058
-674,393	-67,734	0,072	0,020
-673,378	326,955	-0,068	-0,094
-672,364	49,888	-0,094	-0,064
-671,349	-115,039	0,067	-0,009
-670,335	-86,632	0,033	-0,007
-669,320	160,968	0,069	-0,070
-668,305	66,260	0,115	0,084
-667,291	-47,560	-0,117	-0,041
-666,276	14,778	0,038	-0,022
-665,262	800,000	-0,051	-0,106
-664,247	58,015	-0,113	0,080
-663,232	-200,000	-0,007	0,144
-662,218	-7,939	0,023	-0,011
-661,203	-200,000	-0,005	0,025
-660,189	33,803	0,119	0,075
-659,174	247,771	-0,015	-0,019
-658,159	800,000	-0,012	0,035
-657,145	-12,301	0,092	0,043
-656,130	800,000	-0,033	0,083
-655,116	-173,735	0,118	0,002
-654,101	-200,000	0,016	-0,057
-653,086	-200,000	0,009	0,108
-652,072	440,696	-0,054	0,085
-651,057	-70,541	-0,103	0,028
-650,043	-200,000	-0,002	-0,013
-649,028	-200,000	-0,015	0,067
-648,014	57,810	0,113	0,080
-646,999	-200,000	-0,013	-0,068
-645,984	800,000	-0,009	0,028
-644,970	33,977	-0,033	0,021
-643,955	-84,738	-0,020	-0,004
-642,941	-26,570	-0,115	-0,048
-641,926	406,076	0,082	0,125
-640,911	44,927	0,098	0,065
-639,897	-103,886	0,014	0,002
-638,882	800,000	-0,068	0,207
-637,868	-66,290	-0,155	0,044
-636,853	-54,048	-0,113	0,037
-635,838	594,449	-0,025	0,045
-634,824	312,006	-0,023	-0,032
-633,809	-200,000	-0,038	0,151
-632,795	242,298	-0,023	-0,028
-631,780	-200,000	-0,011	0,229
-630,765	-58,959	-0,079	-0,025
-629,751	43,731	-0,164	0,108
-628,736	56,596	-0,119	0,083
-627,722	-8,903	-0,059	-0,028
-626,707	-147,895	0,049	0,003
-625,692	-50,632	-0,117	-0,039
-624,678	24,868	0,059	0,035
-623,663	408,022	-0,059	-0,091
-622,649	129,902	-0,011	0,010
-621,634	-183,854	-0,051	0,001
-620,619	-200,000	-0,020	-0,117
-619,605	800,000	-0,038	0,110
-618,590	57,240	-0,070	0,049
-617,576	-32,614	0,092	-0,037
-616,561	-35,929	-0,140	-0,054
-615,546	-200,000	0,007	0,110
-614,532	-168,367	-0,199	0,005
-613,517	162,315	-0,037	0,037
-612,503	231,447	-0,047	-0,056
-611,488	-28,748	-0,032	0,013
-610,474	800,000	-0,017	0,050
-609,459	188,175	-0,025	0,027
-608,444	-142,347	0,172	-0,012
-607,430	-96,809	-0,138	0,026
-606,415	89,402	0,122	-0,098
-605,401	42,668	0,108	0,070
-604,386	-24,229	-0,049	-0,021
-603,371	140,019	0,043	-0,041
-602,357	-43,066	0,083	-0,030
-601,342	35,368	0,077	0,048
-600,328	-114,150	-0,098	0,014
-599,313	-200,000	-0,024	-0,089
-598,298	-181,575	-0,095	0,001
-597,284	-0,515	-0,054	-0,028
-596,269	257,537	0,031	0,038
-595,255	478,310	-0,089	0,146
-594,240	641,946	-0,052	-0,097
-593,225	-165,681	0,122	0,004
-592,211	-25,376	-0,154	-0,065
-591,196	346,901	0,053	-0,075
-590,182	366,003	0,104	0,151
-589,167	-174,891	-0,078	-0,002
-588,152	-87,391	-0,078	0,017
-587,138	-158,992	0,074	0,003
-586,123	-200,000	0,013	-0,099
-585,109	800,000	-0,028	-0,056
-584,094	800,000	0,032	0,075
-583,079	-29,019	0,029	-0,012
-582,065	-200,000	0,002	0,043
-581,050	-32,232	-0,111	0,044
-580,036	-185,270	-0,009	-0,000
-579,021	800,000	0,022	-0,054
-578,006	-200,000	0,007	-0,127
-576,992	-200,000	0,003	0,021
-575,977	707,050	0,067	0,128
-574,963	-68,283	0,114	-0,032
-573,948	-200,000	-0,007	-0,029
-572,934	175,248	0,015	0,015
-571,919	-99,405	-0,047	-0,009
-570,904	-150,856	0,160	-0,009
-569,890	33,614	-0,134	-0,083
-568,875	-156,386	0,103	-0,005
-567,861	97,084	0,157	0,130
-566,846	18,700	-0,084	0,048
-565,831	104,390	-0,055	-0,046
-564,817	-15,684	-0,132	-0,060
-563,802	456,448	-0,026	-0,042
-562,788	543,352	0,055	-0,095
-561,773	-200,000	-0,020	0,108
-560,758	715,981	-0,007	0,013
-559,744	119,266	-0,017	0,015
-558,729	-88,824	-0,081	0,017
-557,715	800,000	0,018	-0,053
-556,700	49,227	-0,104	0,070
-555,685	254,878	-0,051	0,062
-554,671	-96,440	0,152	-0,029
-553,656	141,895	0,078	0,075
-552,642	34,879	0,076	-0,048
-551,627	15,674	0,033	0,019
-550,612	372,910	-0,082	-0,121
-549,598	-200,000	-0,010	-0,104
-548,583	-200,000	-0,019	0,070
-547,569	-84,548	0,019	0,004
-546,554	-200,000	-0,021	-0,120
-545,539	-78,023	0,127	0,031
-544,525	-100,904	-0,035	0,006
-543,510	124,212	-0,049	-0,044
-542,496	-7,313	-0,067	-0,033
-541,481	254,744	-0,014	0,017
-540,466	271,645	0,033	-0,042
-539,452	86,029	0,022	-0,018
-538,437	800,000	-0,016	-0,033
-537,423	-27,462	-0,074	-0,031
-536,408	-145,493	-0,140	-0,009
-535,393	-200,000	0,018	0,065
-534,379	-200,000	0,031	-0,100
-533,364	-92,239	-0,030	-0,006
-532,350	511,660	0,061	-0,102
-531,335	100,287	0,061	0,051
-530,321	-200,000	0,008	0,104
-529,306	-200,000	0,032	0,178
-528,291	-122,602	0,070	0,008
-527,277	58,621	-0,081	-0,057
-526,262	-200,000	0,006	-0,167
-525,248	-200,000	-0,025	-0,125
-524,233	557,411	0,075	0,130
-523,218	235,831	0,047	-0,056
-522,204	-200,000	-0,040	0,150
-521,189	-200,000	0,031	0,158
-520,175	-157,227	-0,064	-0,003
-519,160	-172,580	-0,064	0,001
-518,145	433,836	0,037	0,058
-517,131	92,444	-0,033	-0,026
-516,116	1,953	-0,109	-0,056
-515,102	-200,000	0,005	-0,036
-514,087	-47,895	0,149	-0,052
-513,072	800,000	-0,026	0,079
-512,058	-135,457	-0,108	0,009
-511,043	-149,471	-0,135	0,008
-510,029	-119,815	0,038	0,005
-509,014	800,000	0,032	0,088
-507,999	-35,348	-0,046	-0,018
-506,985	242,172	0,072	0,087
-505,970	-200,000	0,003	-0,018
-504,956	205,175	-0,039	-0,043
-503,941	65,892	0,129	0,094
-502,926	-48,018	-0,145	-0,050
-501,912	-174,028	-0,075	-0,002
-500,897	69,551	0,050	0,037
-499,883	-200,000	0,013	0,087
-498,868	-51,104	0,030	0,010
-497,853	-6,036	-0,110	-0,054
-496,839	-200,000	0,048	-0,161
-495,824	42,638	0,142	0,093
-494,810	455,468	0,019	-0,030
-493,795	-200,000	-0,012	0,059
-492,781	800,000	-0,023	-0,069
-491,766	-21,384	0,083	0,036
-490,751	36,939	-0,118	-0,075
-489,737	-150,019	-0,044	-0,002
-488,722	116,304	0,098	0,086
-487,708	464,201	0,059	0,095
-486,693	-200,000	0,015	0,077
-485,678	88,250	0,031	0,024
-484,664	69,612	-0,095	-0,070
-483,649	60,440	-0,131	-0,093
-482,635	93,029	-0,126	0,102
-481,620	-200,000	0,001	0,025
-480,605	-168,454	0,044	0,001
-479,591	113,252	0,056	0,049
-478,576	344,124	-0,067	-0,095
-477,562	-53,412	0,053	0,017
-476,547	38,907	0,127	0,082
-475,532	-200,000	-0,021	-0,075
-474,518	-200,000	0,045	0,179
-473,503	-200,000	-0,032	0,158
-472,489	-200,000	0,014	-0,101
-471,474	37,211	0,070	-0,044
-470,459	-31,988	0,044	0,017
-469,445	-200,000	0,007	-0,038
-468,430	800,000	0,015	-0,045
-467,416	-200,000	-0,006	0,114
-466,401	250,235	0,129	0,158
-465,386	800,000	0,034	0,091
-464,372	800,000	0,031	0,088
-463,357	-200,000	0,020	0,129
-462,343	-49,172	0,089	-0,030
-461,328	39,668	0,031	-0,020
-460,313	-200,000	0,002	0,058
-459,299	37,142	0,107	0,068
-458,284	-191,964	0,143	-0,001
-457,270	203,156	-0,031	0,034
-456,255	312,382	0,075	-0,101
-455,241	-143,270	-0,144	-0,010
-454,226	195,010	-0,088	0,095
-453,211	257,972	0,107	0,132
-452,197	116,605	0,067	0,059
-451,182	800,000	0,034	0,082
-450,168	251,690	0,052	-0,064
-449,153	-93,783	0,045	-0,009
-448,138	-133,114	-0,181	0,016
-447,124	-200,000	-0,040	-0,151
-446,109	800,000	0,035	0,087
-445,095	800,000	0,088	0,259
-444,080	80,384	0,130	0,100
-443,065	-200,000	0,012	-0,100
-442,051	-200,000	-0,009	-0,035
-441,036	-200,000	0,002	0,012
-440,022	-21,953	-0,103	0,045
-439,007	800,000	0,038	-0,077
-437,992	149,293	0,054	0,053
-436,978	-148,590	-0,065	-0,004
-435,963	-33,903	0,015	-0,006
-434,949	587,200	0,059	-0,104
-433,934	127,417	-0,108	-0,098
-432,919	26,179	-0,034	0,021
-431,905	-200,000	0,013	-0,167
-430,890	-108,089	0,030	-0,005
-429,876	-1,840	0,120	0,060
-428,861	-140,594	-0,085	0,006
-427,846	-158,282	-0,050	0,002
-426,832	-200,000	0,034	-0,110
-425,817	-96,561	-0,077	-0,014
-424,803	168,609	-0,035	-0,036
-423,788	393,393	-0,108	-0,161
-422,773	176,164	0,047	-0,049
-421,759	-31,945	-0,242	-0,096
-420,744	151,950	0,099	0,096
-419,730	52,454	0,037	0,025
-418,715	17,687	-0,091	-0,051
-417,701	-26,683	0,135	-0,056
-416,686	121,113	-0,072	-0,064
-415,671	800,000	-0,034	-0,072
-414,657	118,238	0,017	-0,015
-413,642	758,336	0,049	0,096
-412,628	99,842	-0,075	-0,062
-411,613	-200,000	0,016	0,098
-410,598	143,295	-0,046	-0,044
-409,584	800,000	-0,020	-0,049
-408,569	80,645	0,167	0,129
-407,555	-147,867	0,123	0,007
-406,540	36,344	0,040	0,025
-405,525	800,000	0,041	-0,093
-404,511	-150,160	-0,110	-0,006
-403,496	-58,811	-0,105	0,032
-402,482	-51,975	0,034	-0,011
-401,467	73,706	0,077	0,058
-400,452	19,832	-0,074	0,043
-399,438	800,000	0,066	0,201
-398,423	800,000	0,047	-0,098
-397,409	-200,000	-0,031	-0,158
-396,394	66,921	-0,104	-0,076
-395,379	795,262	-0,065	-0,129
-394,365	31,101	-0,073	-0,045
-393,350	213,998	0,107	0,121
-392,336	-151,904	0,062	-0,003
-391,321	10,364	0,141	-0,076
-390,306	800,000	-0,037	0,088
-389,292	149,907	-0,015	0,014
-388,277	-116,694	-0,060	0,008
-387,263	-65,478	0,107	0,031
-386,248	-200,000	0,012	0,049
-385,233	24,498	-0,127	0,075
-384,219	129,592	0,108	0,099
-383,204	257,421	-0,027	-0,033
-382,190	-48,362	-0,103	-0,035
-381,175	-49,221	0,030	0,010
-380,160	-60,740	0,040	0,012
-379,146	-90,804	0,137	0,028
-378,131	-116,739	-0,098	-0,013
-377,117	-200,000	0,041	0,131
-376,102	800,000	-0,017	-0,040
-375,088	-200,000	-0,012	-0,085
-374,073	675,532	-0,074	0,137
-373,058	800,000	0,005	-0,010
-372,044	-200,000	0,004	0,117
-371,029	-84,812	0,114	0,025
-370,015	-200,000	-0,018	-0,138
-369,000	92,908	-0,039	-0,031
-367,985	131,302	-0,122	-0,112
-366,971	-13,938	-0,027	-0,013
-365,956	280,332	0,058	-0,075
-364,942	800,000	0,022	0,044
-363,927	173,898	-0,083	0,086
-362,912	139,868	-0,067	-0,063
-361,898	-200,000	0,002	-0,067
-360,883	-24,257	0,110	-0,047
-359,869	-57,164	0,092	-0,029
-358,854	0,377	-0,049	-0,025
-357,839	800,000	0,069	0,159
-356,825	62,564	-0,128	0,091
-355,810	-112,970	0,095	0,013
-354,796	-200,000	-0,007	-0,024
-353,781	-200,000	-0,008	-0,125
-352,766	-176,341	-0,084	0,002
-351,752	330,942	0,080	-0,111
-350,737	-166,583	0,115	-0,003
-349,723	-112,329	0,056	0,008
-348,708	-20,832	0,118	-0,052
-347,693	-200,000	-0,023	-0,075
-346,679	-200,000	-0,029	-0,163
-345,664	86,250	-0,085	-0,067
-344,650	93,824	-0,015	-0,012
-343,635	-39,042	0,091	0,034
-342,620	-82,376	0,152	-0,035
-341,606	-200,000	0,004	-0,096
-340,591	800,000	-0,039	-0,095
-339,577	-67,700	-0,142	-0,039
-338,562	371,180	-0,008	0,012
-337,548	753,112	0,067	-0,130
-336,533	20,289	-0,060	0,035
-335,518	18,498	-0,014	0,008
-334,504	-57,195	0,117	-0,036
-333,489	-200,000	-0,002	-0,104
-332,475	-23,604	0,061	-0,026
-331,460	-137,859	-0,043	-0,003
-330,445	-200,000	0,018	0,072
-329,431	-145,902	0,237	0,015
-328,416	-200,000	-0,003	-0,118
-327,402	-27,013	0,143	0,059
-326,387	130,997	-0,104	-0,096
-325,372	800,000	-0,042	-0,119
-324,358	-113,273	0,020	-0,003
-323,343	367,423	-0,077	-0,111
-322,329	-37,318	0,138	-0,052
-321,314	246,585	-0,100	0,121
-320,299	-200,000	0,031	0,120
-319,285	59,307	0,010	-0,007
-318,270	-200,000	-0,016	0,119
-317,256	593,428	0,061	0,108
-316,241	659,158	-0,049	0,090
-315,226	-18,340	0,105	0,047
-314,212	-200,000	-0,025	0,083
-313,197	323,303	0,100	0,137
-312,183	-112,859	-0,130	-0,018
-311,168	-101,680	-0,150	0,026
-310,153	774,970	-0,073	-0,143
-309,139	273,818	-0,075	0,095
-308,124	-200,000	0,023	-0,076
-307,110	-32,589	0,104	-0,041
-306,095	67,639	0,103	-0,075
-305,080	-24,080	-0,094	-0,040
-304,066	770,721	0,090	-0,176
-303,051	308,723	0,052	-0,069
-302,037	11,602	-0,012	-0,006
-301,022	18,663	0,063	0,036
-300,008	-200,000	-0,006	0,107
-298,993	149,539	-0,075	0,073
-297,978	-200,000	0,010	-0,119
-296,964	5,152	0,168	0,088
-295,949	133,528	0,059	0,055
-294,935	24,601	0,085	0,050
-293,920	651,383	0,087	-0,160
-292,905	257,701	-0,116	0,142
-291,891	-200,000	0,002	-0,027
-290,876	-177,778	0,047	-0,001
-289,862	-42,561	0,011	0,004
-288,847	388,390	-0,120	-0,177
-287,832	-9,198	0,102	0,048
-286,818	-23,666	0,132	-0,056
-285,803	-168,330	-0,144	-0,004
-284,789	168,844	0,092	0,093
-283,774	800,000	-0,038	0,105
-282,759	-68,376	0,116	0,032
-281,745	800,000	-0,056	-0,147
-280,730	423,332	0,049	-0,075
-279,716	-165,055	-0,163	-0,005
-278,701	34,834	0,062	-0,038
-277,686	6,516	0,070	-0,037
-276,672	-144,110	0,111	-0,007
-275,657	800,000	0,010	0,023
-274,643	-200,000	0,024	-0,122
-273,628	229,361	0,097	-0,113
-272,613	-200,000	-0,005	0,157
-271,599	-70,141	-0,195	0,052
-270,584	170,452	0,128	-0,130
-269,570	-200,000	-0,016	0,061
-268,555	75,796	0,045	0,034
-267,540	24,700	-0,095	-0,056
-266,526	80,295	-0,131	-0,100
-265,511	125,037	-0,083	-0,075
-264,497	-20,366	0,156	-0,068
-263,482	453,172	0,044	0,069
-262,467	-200,000	0,008	0,105
-261,453	423,191	0,086	0,132
-260,438	-158,399	-0,188	0,008
-259,424	41,745	-0,088	0,057
-258,409	-107,725	0,027	-0,004
-257,395	41,745	-0,104	-0,067
-256,380	432,050	0,081	-0,126
-255,365	82,609	0,034	-0,026
-254,351	34,101	-0,095	-0,059
-253,336	-200,000	0,021	0,067
-252,322	-50,412	-0,035	-0,012
-251,307	77,527	-0,029	0,022
-250,292	6,533	-0,048	-0,026
-249,278	800,000	0,055	-0,155
-248,263	-37,051	0,166	0,063
-247,249	-170,342	0,066	-0,002
-246,234	-63,382	-0,138	-0,040
-245,219	-200,000	-0,009	-0,044
-244,205	218,297	0,101	-0,115
-243,190	-200,000	0,005	-0,051
-242,176	489,730	0,098	0,161
-241,161	-64,176	0,125	-0,036
-240,146	-200,000	-0,007	0,071
-239,132	-102,227	-0,046	-0,008
-238,117	800,000	-0,004	-0,012
-237,103	-200,000	-0,002	0,109
-236,088	324,987	-0,081	-0,110
-235,073	199,377	0,153	0,167
-234,059	356,341	0,089	0,126
-233,044	312,730	0,055	-0,073
-232,030	136,391	-0,082	-0,076
-231,015	-200,000	-0,021	-0,082
-230,000	-200,000	0,027	-0,112
-228,986	-108,953	0,110	0,017
-227,971	217,373	0,039	-0,045
-226,957	424,658	0,054	0,083
-225,942	-92,622	0,060	-0,012
-224,927	218,711	0,054	0,061
-223,913	800,000	-0,055	-0,153
-222,898	800,000	0,063	-0,140
-221,884	-200,000	0,014	-0,060
-220,869	800,000	-0,034	-0,098
-219,855	116,687	0,038	-0,033
-218,840	-200,000	0,014	0,075
-217,825	-147,130	-0,160	-0,010
-216,811	-200,000	0,036	-0,116
-215,796	-200,000	-0,000	-0,026
-214,782	-106,558	-0,169	-0,026
-213,767	-62,474	0,015	-0,004
-212,752	-200,000	-0,038	0,177
-211,738	800,000	-0,057	0,158
-210,723	-114,323	-0,108	0,015
-209,709	-200,000	-0,038	0,126
-208,694	176,868	0,060	-0,062
-207,679	-171,401	0,067	-0,002
-206,665	133,741	-0,051	-0,047
-205,650	-108,073	-0,083	0,013
-204,636	-158,388	0,062	0,002
-203,621	800,000	0,031	-0,063
-202,606	66,651	-0,009	0,006
-201,592	144,342	-0,034	-0,032
-200,577	52,921	-0,168	-0,114
-199,563	-200,000	-0,008	-0,179
-198,548	170,250	-0,031	-0,032
-197,533	321,154	-0,077	-0,104
-196,519	-200,000	0,019	-0,076
-195,504	34,319	0,035	-0,022
-194,490	-148,876	-0,182	-0,010
-193,475	1,554	-0,093	0,048
-192,460	676,483	-0,045	0,084
-191,446	800,000	0,047	-0,121
-190,431	-200,000	0,017	0,071
-189,417	-200,000	0,007	0,029
-188,402	85,203	-0,035	-0,027
-187,387	-200,000	-0,021	-0,197
-186,373	-73,558	-0,067	0,017
-185,358	610,416	0,016	0,028
-184,344	-200,000	-0,005	0,130
-183,329	-200,000	-0,005	0,083
-182,315	-40,293	-0,067	-0,025
-181,300	-40,592	-0,108	0,040
-180,285	272,559	0,067	0,084
-179,271	-200,000	-0,005	-0,112
-178,256	-11,292	-0,064	0,030
-177,242	-16,781	0,118	0,053
-176,227	-105,359	0,028	0,004
-175,212	-31,079	-0,038	-0,015
-174,198	40,106	0,087	0,056
-173,183	582,840	0,073	0,128
-172,169	-10,868	0,099	-0,046
-171,154	113,401	0,031	0,027
-170,139	-47,383	0,116	0,040
-169,125	94,306	-0,082	-0,066
-168,110	735,812	0,040	0,076
-167,096	-120,378	-0,067	-0,008
-166,081	784,547	0,032	-0,062
-165,066	-67,522	-0,095	0,026
-164,052	72,965	0,137	-0,101
-163,037	197,309	-0,119	-0,129
-162,023	118,086	0,063	0,055
-161,008	125,931	-0,043	0,039
-159,993	-95,316	0,107	0,020
-158,979	800,000	0,008	0,021
-157,964	-143,661	-0,072	0,005
-156,950	72,641	-0,073	0,054
-155,935	206,451	-0,080	0,089
-154,920	316,922	0,083	-0,112
-153,906	800,000	0,041	0,092
-152,891	179,558	-0,082	0,085
-151,877	-200,000	-0,007	0,120
-150,862	800,000	-0,043	0,112
-149,847	-200,000	-0,015	-0,074
-148,833	16,651	0,035	-0,020
-147,818	-97,282	-0,076	0,014
-146,804	-77,222	0,057	0,014
-145,789	800,000	-0,071	-0,149
-144,775	-200,000	-0,004	-0,115
-143,760	135,628	-0,063	-0,058
-142,745	-21,955	0,108	0,046
-141,731	501,731	-0,034	0,056
-140,716	-59,643	0,069	0,021
-139,702	-200,000	0,021	0,099
-138,687	92,629	0,037	0,030
-137,672	-81,989	0,134	-0,031
-136,658	-2,689	-0,053	0,026
-135,643	553,322	0,028	0,047
-134,629	60,913	-0,071	-0,050
-133,614	-86,752	0,068	0,015
-132,599	800,000	0,084	0,177
-131,585	380,316	-0,063	0,092
-130,570	-50,968	-0,082	-0,027
-129,556	-49,440	0,036	0,012
-128,541	118,238	0,096	0,084
-127,526	-200,000	-0,038	-0,126
-126,512	109,697	0,078	0,066
-125,497	-200,000	-0,002	0,046
-124,483	-200,000	-0,002	-0,035
-123,468	-152,743	0,094	-0,005
-122,453	-35,564	0,082	-0,031
-121,439	-200,000	-0,007	-0,049
-120,424	24,463	-0,079	-0,046
-119,410	287,009	0,090	0,116
-118,395	-200,000	0,034	0,121
-117,380	699,675	-0,014	-0,027
-116,366	-0,540	0,012	-0,006
-115,351	-200,000	-0,008	-0,109
-114,337	800,000	-0,018	0,049
-113,322	164,483	0,066	-0,066
-112,307	-4,739	-0,135	0,066
-111,293	-200,000	0,021	0,082
-110,278	-78,977	0,031	0,008
-109,264	-200,000	-0,027	0,116
-108,249	-170,616	-0,168	-0,004
-107,234	-48,943	-0,040	0,014
-106,220	70,660	0,079	-0,058
-105,205	196,525	0,100	-0,108
-104,191	-167,411	0,102	-0,003
-103,176	183,991	-0,067	-0,071
-102,162	-200,000	-0,020	0,131
-101,147	800,000	-0,019	-0,055
-100,132	54,334	0,059	-0,040
-99,118	215,876	-0,110	-0,124
-98,103	-200,000	-0,010	-0,034
-97,089	-200,000	-0,004	0,089
-96,074	-128,059	0,209	0,021
-95,059	-17,880	-0,091	-0,040
-94,045	-107,528	0,090	-0,014
-93,030	274,218	0,049	-0,062
-92,016	177,040	-0,061	-0,063
-91,001	800,000	0,029	0,069
-89,986	-200,000	0,035	0,163
-88,972	652,506	0,087	-0,158
-87,957	657,100	0,096	0,175
-86,943	43,009	0,175	-0,113
-85,928	-87,428	-0,136	-0,029
-84,913	-130,264	-0,121	-0,011
-83,899	150,344	0,036	-0,034
-82,884	-200,000	0,022	0,087
-81,870	800,000	-0,023	0,053
-80,855	-133,162	0,044	0,004
-79,840	-108,827	-0,099	-0,015
-78,826	800,000	0,018	0,041
-77,811	10,650	0,065	-0,035
-76,797	275,869	0,062	-0,078
-75,782	800,000	0,016	0,051
-74,767	800,000	0,031	-0,072
-73,753	-3,466	0,123	-0,060
-72,738	545,927	-0,030	-0,051
-71,724	-200,000	-0,051	-0,214
-70,709	185,124	-0,011	-0,011
-69,694	-44,739	-0,156	-0,055
-68,680	800,000	-0,017	-0,042
-67,665	-62,117	0,083	0,024
-66,651	118,811	0,104	0,091
-65,636	541,357	-0,025	0,042
-64,622	427,998	-0,045	0,069
-63,607	7,070	-0,104	-0,055
-62,592	800,000	0,023	0,064
-61,578	-200,000	-0,010	0,062
-60,563	55,917	0,086	-0,059
-59,549	-97,813	-0,100	0,018
-58,534	48,296	-1,921	-1,267
-57,519	406,840	-1,270	-1,900
-56,505	-200,000	-0,373	-4,441
-55,490	550,266	0,973	1,653
-54,476	800,000	5,069	11,085
-53,461	-200,000	21,243	340,253
-52,446	800,000	759,810	2357,465
-51,432	558,634	1662,592	2843,092
-50,417	73,587	1661,763	1227,299
-49,403	18,061	1535,378	861,713
-48,388	12,003	1458,786	789,416
-47,373	19,401	1449,708	819,977
-46,359	15,493	1438,905	795,248
-45,344	10,335	1434,757	768,364
-44,330	10,248	1433,023	766,991
-43,315	10,186	1431,370	765,780
-42,300	10,218	1429,385	764,838
-41,286	10,263	1428,281	764,432
-40,271	10,252	1426,831	763,575
-39,257	10,236	1425,656	762,837
-38,242	10,290	1424,628	762,515
-37,227	10,270	1423,642	761,859
-36,213	10,262	1422,228	761,035
-35,198	10,225	1421,052	760,202
-34,184	10,306	1420,190	760,091
-33,169	10,236	1418,836	759,009
-32,154	10,290	1417,940	758,752
-31,140	10,299	1416,629	758,065
-30,125	10,370	1415,459	757,744
-29,111	10,301	1414,295	756,763
-28,096	10,252	1413,334	755,987
-27,082	10,249	1411,848	755,152
-26,067	10,212	1411,034	754,513
-25,052	10,266	1409,718	754,032
-24,038	10,243	1408,893	753,451
-23,023	10,275	1407,938	753,059
-22,009	10,214	1406,962	752,223
-20,994	10,216	1406,018	751,699
-19,979	10,215	1405,038	751,142
-18,965	10,241	1403,917	750,630
-17,950	10,194	1403,386	750,102
-16,936	10,162	1402,457	749,426
-15,921	10,091	1401,626	748,620
-14,906	10,161	1400,501	748,314
-13,892	10,194	1399,358	747,830
-12,877	10,147	1398,590	747,170
-11,863	10,104	1397,852	746,547
-10,848	10,089	1396,957	745,966
-9,833	10,066	1396,000	745,320
-8,819	10,014	1395,231	744,643
-7,804	10,028	1394,346	744,202
-6,790	10,046	1393,277	743,687
-5,775	10,064	1392,252	743,195
-4,760	10,044	1391,268	742,545
-3,746	10,003	1390,471	741,902
-2,731	10,025	1389,640	741,532
-1,717	9,987	1388,712	740,831
-0,702	10,010	1386,786	739,880
0,313	14,085	1299,542	711,966
1,327	30,409	689,650	414,807
2,342	47,092	119,518	78,310
3,356	1,947	16,423	8,331
4,371	7,275	3,518	1,847
5,386	-2,195	0,916	0,452
6,400	-200,000	0,182	0,746
7,415	125,356	-0,185	-0,165
8,429	40,124	-0,293	-0,185
9,444	-57,275	-0,346	-0,107
10,459	7,884	-0,169	-0,089
11,473	33,608	-0,225	-0,138
12,488	-10,567	-0,295	-0,137
13,502	81,654	-0,290	-0,221
14,517	-56,434	-0,354	-0,110
15,531	-33,391	-0,259	-0,100
16,546	137,474	-0,224	-0,206
17,561	58,074	-0,296	-0,204
18,575	-19,993	-0,152	-0,066
19,590	112,897	-0,198	-0,169
20,604	-102,218	-0,307	-0,052
21,619	95,429	-0,419	-0,336
22,634	81,894	-0,521	-0,397
23,648	59,357	-0,476	-0,330
24,663	-29,007	-0,434	-0,175
25,677	-0,295	-0,361	-0,180
26,692	178,132	-0,349	-0,359
27,707	134,622	-0,247	-0,226
28,721	7,747	-0,385	-0,202
29,736	73,949	-0,379	-0,279
30,750	132,026	-0,335	-0,304
31,765	149,423	-0,429	-0,409
32,780	89,138	-0,384	-0,300
33,794	212,986	-0,266	-0,296
34,809	-7,918	-0,251	-0,119
35,823	12,713	-0,350	-0,189
36,838	91,260	-0,400	-0,316
37,853	118,633	-0,398	-0,346
38,867	168,734	-0,352	-0,353
39,882	-83,196	-0,312	-0,070
40,896	-32,988	-0,346	-0,134
41,911	68,659	-0,306	-0,220
42,926	99,812	-0,362	-0,295
43,940	-28,191	-0,412	-0,167
44,955	283,346	-0,302	-0,382
45,969	419,267	-0,262	-0,396
46,984	134,062	-0,300	-0,273
47,999	-21,588	-0,322	-0,137
49,013	-10,509	-0,305	-0,141
50,028	-9,723	-0,316	-0,147
51,042	0,987	-0,328	-0,165
52,057	480,168	-0,284	-0,454
53,071	-37,766	-0,427	-0,159
54,086	72,923	-0,290	-0,213
55,101	87,250	-0,272	-0,211
56,115	-27,277	-0,292	-0,119
57,130	107,535	-0,249	-0,208
58,144	134,839	-0,255	-0,232
59,159	-32,227	-0,296	-0,116
60,174	-61,090	-0,508	-0,150
61,188	102,319	-0,245	-0,201
62,203	-91,201	-0,364	-0,073
63,217	-37,189	-0,326	-0,122
64,232	45,740	-0,236	-0,153
65,247	25,857	-0,218	-0,127
66,261	180,801	-0,280	-0,289
67,276	50,830	-0,380	-0,252
68,290	8,389	-0,266	-0,140
69,305	17,821	-0,367	-0,204
70,320	134,684	-0,203	-0,185
71,334	75,037	-0,219	-0,162
72,349	-71,531	-0,440	-0,114
73,363	233,471	-0,346	-0,399
74,378	-101,029	-0,423	-0,072
75,393	-6,965	-0,482	-0,229
76,407	168,571	-0,205	-0,204
77,422	800,000	-0,059	-0,183
78,436	19,132	-0,394	-0,221
79,451	115,907	-0,292	-0,250
80,466	21,056	-0,260	-0,147
81,480	174,461	-0,303	-0,307
82,495	253,452	-0,273	-0,327
83,509	245,466	-0,178	-0,210
84,524	-126,551	-0,373	0,038
85,539	485,605	-0,148	-0,237
86,553	-19,700	-0,221	-0,095
87,568	135,556	-0,279	-0,255
88,582	67,927	-0,351	-0,251
89,597	9,144	-0,332	-0,175
90,611	178,775	-0,280	-0,287
91,626	-52,182	-0,348	-0,112
92,641	79,021	-0,273	-0,204
93,655	215,863	-0,239	-0,266
94,670	131,468	-0,258	-0,232
95,684	426,219	-0,200	-0,302
96,699	207,399	-0,222	-0,243
97,714	199,946	-0,289	-0,311
98,728	63,708	-0,333	-0,233
99,743	7,601	-0,166	-0,086
100,757	5,708	-0,360	-0,185
101,772	324,939	-0,179	-0,240
102,787	11,498	-0,361	-0,193
103,801	-58,897	-0,271	-0,081
104,816	-71,603	-0,180	-0,047
105,830	31,873	-0,312	-0,187
106,845	393,593	-0,188	-0,274
107,860	-129,259	-0,184	-0,018
108,874	33,300	-0,217	-0,131
109,889	37,669	-0,366	-0,226
110,903	800,000	-0,097	-0,244
111,918	-10,898	-0,264	-0,121
112,933	143,479	-0,236	-0,220
113,947	79,321	-0,290	-0,217
114,962	-37,974	-0,237	-0,087
115,976	40,173	-0,258	-0,162
116,991	72,452	-0,393	-0,286
118,006	284,110	-0,221	-0,279
119,020	152,753	-0,269	-0,257
120,035	-25,277	-0,217	-0,089
121,049	117,045	-0,192	-0,165
122,064	219,520	-0,180	-0,201
123,079	105,219	-0,257	-0,212
124,093	54,054	-0,240	-0,161
125,108	-18,369	-0,295	-0,128
126,122	329,319	-0,181	-0,244
127,137	-44,172	-0,152	-0,053
128,151	-72,255	-0,232	-0,059
129,166	-33,036	-0,142	-0,055
130,181	-8,506	-0,253	-0,118
131,195	64,793	-0,255	-0,179
132,210	654,803	-0,140	-0,252
133,224	16,985	-0,326	-0,180
134,239	125,708	-0,274	-0,241
135,254	11,886	-0,174	-0,093
136,268	-67,119	-0,259	-0,071
137,283	-56,590	-0,302	-0,093
138,297	88,375	-0,314	-0,243
139,312	75,380	-0,270	-0,199
140,327	50,121	-0,314	-0,206
141,341	-116,117	-0,179	-0,023
142,356	170,028	-0,109	-0,109
143,370	88,085	-0,233	-0,180
144,385	32,550	-0,310	-0,186
145,400	-31,233	-0,183	-0,072
146,414	-27,861	-0,295	-0,118
147,429	112,223	-0,064	-0,054
148,443	-50,998	-0,335	-0,109
149,458	-17,655	-0,197	-0,086
150,473	-85,775	-0,110	-0,024
151,487	-68,463	-0,355	-0,095
152,502	383,005	-0,252	-0,362
153,516	66,385	-0,280	-0,198
154,531	81,287	-0,243	-0,182
155,546	800,000	-0,107	-0,326
156,560	-100,982	-0,340	-0,057
157,575	-200,000	-0,018	-0,273
158,589	176,308	-0,084	-0,085
159,604	105,560	-0,219	-0,180
160,619	71,791	-0,348	-0,252
161,633	159,764	-0,146	-0,142
162,648	-0,249	-0,315	-0,155
163,662	113,080	-0,147	-0,124
164,677	-10,650	-0,260	-0,119
165,692	98,501	-0,236	-0,189
166,706	-16,226	-0,213	-0,094
167,721	75,749	-0,275	-0,202
168,735	63,839	-0,274	-0,191
169,750	13,994	-0,234	-0,126
170,764	-27,605	-0,224	-0,090
171,779	-165,646	-0,206	-0,006
172,794	319,248	-0,107	-0,142
173,808	-200,000	-0,030	-0,150
174,823	800,000	-0,069	-0,163
175,837	89,282	-0,246	-0,191
176,852	332,722	-0,147	-0,197
177,867	-99,426	-0,291	-0,050
178,881	729,927	-0,069	-0,128
179,896	107,547	-0,220	-0,181
180,910	18,956	-0,163	-0,090
181,925	-21,066	-0,266	-0,113
182,940	291,949	-0,239	-0,303
183,954	45,989	-0,212	-0,136
184,969	-40,200	-0,089	-0,032
185,983	70,362	-0,188	-0,135
186,998	186,835	-0,130	-0,135
188,013	506,006	-0,160	-0,258
189,027	72,982	-0,251	-0,182
190,042	232,401	-0,138	-0,158
191,056	-63,850	-0,189	-0,053
192,071	-0,735	-0,175	-0,086
193,086	-26,994	-0,284	-0,114
194,100	99,164	-0,242	-0,194
195,115	326,388	-0,128	-0,171
196,129	-9,828	-0,251	-0,116
197,144	154,707	-0,250	-0,238
198,159	165,317	-0,201	-0,197
199,173	133,977	-0,235	-0,211
200,188	64,692	-0,189	-0,132
201,202	800,000	-0,109	-0,225
202,217	80,242	-0,171	-0,127
203,232	495,223	-0,086	-0,138
204,246	33,368	-0,229	-0,137
205,261	20,188	-0,273	-0,152
206,275	-60,674	-0,114	-0,033
207,290	59,964	-0,113	-0,077
208,304	-14,773	-0,141	-0,063
209,319	-121,157	-0,181	-0,021
210,334	122,703	-0,180	-0,156
211,348	7,889	-0,146	-0,076
212,363	103,750	-0,281	-0,228
213,377	129,873	-0,214	-0,190
214,392	260,744	-0,117	-0,141
215,407	800,000	-0,101	-0,245
216,421	-14,434	-0,118	-0,052
217,436	363,895	-0,141	-0,197
218,450	800,000	-0,144	-0,300
219,465	3,876	-0,225	-0,114
220,480	261,982	-0,084	-0,101
221,494	113,984	-0,175	-0,147
222,509	1,598	-0,108	-0,053
223,523	6,970	-0,076	-0,039
224,538	161,541	-0,130	-0,126
225,553	129,286	-0,258	-0,228
226,567	110,486	-0,314	-0,261
227,582	-40,753	-0,205	-0,073
228,596	99,597	-0,123	-0,098
229,611	-153,989	-0,124	0,006
230,626	-16,807	-0,170	-0,074
231,640	82,693	-0,242	-0,182
232,655	198,024	-0,167	-0,176
233,669	800,000	-0,090	-0,264
234,684	-129,252	-0,240	-0,023
235,699	800,000	-0,108	-0,230
236,713	-1,497	-0,154	-0,075
237,728	144,465	-0,130	-0,120
238,742	-1,819	-0,167	-0,081
239,757	33,267	-0,222	-0,133
240,772	-63,346	-0,299	-0,084
241,786	49,234	-0,129	-0,084
242,801	13,598	-0,173	0,093
243,815	285,126	-0,085	-0,106
244,830	299,417	0,040	-0,051
245,844	302,170	-0,076	0,098
246,859	-189,426	-0,170	-0,001
247,874	-139,855	-0,297	0,021
248,888	50,468	-0,220	-0,143
249,903	-23,365	-0,251	-0,104
250,917	172,021	-0,094	-0,094
251,932	226,950	-0,191	-0,215
252,947	-52,192	-0,210	0,067
253,961	-22,966	-0,167	-0,069
254,976	45,494	-0,179	-0,114
255,990	36,195	-0,174	-0,106
257,005	182,394	-0,168	-0,171
258,020	800,000	-0,069	-0,135
259,034	-88,017	-0,189	-0,039
260,049	-120,023	-0,202	-0,024
261,063	42,022	-0,293	-0,183
262,078	77,218	-0,204	-0,149
263,093	59,154	-0,154	-0,105
264,107	131,662	-0,130	-0,115
265,122	50,011	-0,147	-0,096
266,136	252,169	-0,088	-0,103
267,151	800,000	-0,025	-0,061
268,166	6,263	-0,078	-0,040
269,180	-7,511	-0,104	-0,048
270,195	134,446	-0,201	-0,180
271,209	800,000	-0,079	-0,154
272,224	46,948	-0,178	-0,114
273,239	-200,000	0,007	-0,130
274,253	533,653	-0,090	-0,148
275,268	170,234	-0,143	-0,141
276,282	176,957	-0,119	-0,120
277,297	-157,134	-0,161	-0,007
278,312	57,881	-0,257	-0,173
279,326	-34,797	-0,174	-0,065
280,341	800,000	-0,042	-0,081
281,355	42,112	-0,231	-0,144
282,370	93,904	-0,157	-0,122
283,384	-8,997	-0,117	-0,053
284,399	537,753	-0,094	-0,155
285,414	136,168	-0,180	-0,162
286,428	-121,545	-0,135	-0,015
287,443	-151,268	-0,234	-0,012
288,457	-110,615	-0,190	0,027
289,472	800,000	0,035	-0,073
290,487	-111,943	-0,094	0,013
291,501	800,000	-0,076	-0,153
292,516	86,740	-0,194	-0,147
293,530	388,532	-0,129	-0,185
294,545	122,502	-0,136	-0,117
295,560	131,110	-0,060	-0,053
296,574	171,748	-0,107	-0,106
297,589	-126,973	-0,214	0,021
298,603	42,796	-0,147	-0,092
299,618	-38,492	-0,187	-0,068
300,633	175,280	-0,127	-0,127
301,647	-53,370	-0,150	0,047
302,662	22,873	-0,125	0,070
303,676	8,497	-0,115	0,059
304,691	-42,400	-0,143	-0,050
305,706	-200,000	-0,052	-0,227
306,720	7,332	-0,238	-0,122
307,735	800,000	-0,059	-0,165
308,749	800,000	-0,105	-0,200
309,764	-22,725	-0,123	-0,051
310,779	800,000	-0,054	0,116
311,793	-200,000	-0,074	-0,232
312,808	-200,000	-0,062	-0,190
313,822	123,669	-0,154	-0,132
314,837	-63,415	-0,062	0,017
315,852	424,624	-0,046	-0,068
316,866	53,229	-0,093	0,061
317,881	-116,509	-0,122	-0,015
318,895	-200,000	-0,021	-0,123
319,910	47,440	-0,172	-0,110
320,925	19,241	-0,177	-0,097
321,939	-26,732	-0,168	-0,067
322,954	57,171	-0,075	-0,050
323,968	-145,849	-0,186	-0,011
324,983	-93,710	-0,141	-0,026
325,997	25,975	-0,190	-0,108
327,012	73,542	-0,188	-0,135
328,027	-5,063	-0,168	-0,079
329,041	800,000	-0,038	-0,079
330,056	262,407	-0,064	-0,076
331,070	313,295	-0,100	-0,129
332,085	-200,000	0,011	-0,056
333,100	188,644	-0,076	-0,078
334,114	-70,925	-0,256	-0,065
335,129	-4,869	-0,209	-0,098
336,143	152,423	-0,108	-0,101
337,158	800,000	-0,083	-0,185
338,173	-115,809	-0,150	-0,019
339,187	-109,047	-0,097	-0,014
340,202	659,978	-0,053	-0,093
341,216	66,977	-0,191	-0,133
342,231	24,792	-0,174	-0,099
343,246	677,549	-0,072	-0,129
344,260	-200,000	0,010	-0,127
345,275	-100,892	-0,225	-0,037
346,289	800,000	-0,060	-0,138
347,304	800,000	0,003	-0,006
348,319	216,998	-0,110	-0,120
349,333	-200,000	-0,025	-0,170
350,348	671,443	-0,107	-0,191
351,362	-129,281	-0,096	-0,009
352,377	-22,468	-0,139	-0,057
353,392	-200,000	-0,026	-0,126
354,406	52,488	-0,184	-0,120
355,421	207,235	1310,678	1399,823
356,435	159,409	1470,887	1400,298
