DTS Sentinel unit serial number:	SN410029Multiplexer serial number:	ORYXHardware model number:	OX2-SRSoftware version number:	ORYX F/W v4,00 Oryx Data Collector v3.7.2.0data status	okinstallation	B3 Nyhavnadifferential loss correction	single-endedforward channel	channel 1reverse channel	N/Adate	2023/12/02time	16:22:30forward acquisition time	300,00reverse acquisition time	0,00gamma	499,1914k internal	0,3197k external	0,3197temperature offset calibration	1,0000default loss term (dB/km)	0,3820temperature slope calibration	1,0000multiplexer offset coefficient	1,0000multiplexer slope coefficient	1,0000fibre end	0,00T internal ref (°C)	14,29T ext. ref 1 (°C)	-1,28T ext. ref 2 (°C)	-1,30length (m)	temperature (°C)	Stokes	anti-Stokes-744,400	484,049	-0,154	-0,257
-743,385	-200,000	0,042	0,267
-742,371	150,116	-0,212	-0,210
-741,356	-200,000	0,006	0,268
-740,342	176,964	-0,253	-0,268
-739,327	-200,000	0,029	0,302
-738,312	207,401	-0,230	-0,262
-737,298	800,000	0,067	0,207
-736,283	61,827	-0,332	-0,240
-735,269	535,293	0,201	0,348
-734,254	-27,731	-0,189	-0,080
-733,239	50,973	-0,142	0,098
-732,225	732,438	-0,099	-0,193
-731,210	36,084	0,216	0,138
-730,196	39,204	0,077	0,050
-729,181	-62,145	-0,113	0,034
-728,167	-59,486	-0,123	0,038
-727,152	18,411	-0,032	0,018
-726,137	800,000	0,014	0,029
-725,123	-90,492	-0,049	0,010
-724,108	76,432	-0,177	-0,136
-723,094	507,645	-0,109	-0,185
-722,079	-85,941	-0,133	-0,030
-721,064	65,822	0,110	-0,081
-720,050	-31,171	-0,126	0,052
-719,035	800,000	-0,030	-0,085
-718,021	-200,000	0,009	-0,062
-717,006	180,859	-0,059	-0,063
-715,991	-7,229	0,112	0,055
-714,977	-66,416	-0,092	-0,026
-713,962	-105,058	0,138	-0,023
-712,948	153,450	-0,035	-0,035
-711,933	800,000	-0,008	-0,024
-710,918	-49,039	0,055	0,019
-709,904	-60,854	-0,044	-0,013
-708,889	-59,985	-0,115	-0,035
-707,875	154,281	0,085	0,085
-706,860	76,972	0,054	0,042
-705,845	-163,777	0,086	-0,003
-704,831	-200,000	0,004	-0,038
-703,816	222,018	0,052	-0,061
-702,802	-78,302	-0,095	-0,024
-701,787	-200,000	0,036	-0,192
-700,772	-62,336	0,035	-0,011
-699,758	800,000	0,040	-0,087
-698,743	-65,301	-0,151	0,044
-697,729	-62,711	0,218	0,065
-696,714	592,374	-0,049	0,089
-695,699	-105,987	-0,059	-0,010
-694,685	-84,789	0,093	-0,021
-693,670	-42,965	-0,162	0,059
-692,656	156,819	0,116	0,117
-691,641	72,987	0,074	-0,056
-690,627	217,068	0,027	0,031
-689,612	-40,964	0,155	0,058
-688,597	51,214	-0,079	-0,055
-687,583	113,794	-0,070	-0,062
-686,568	327,077	-0,045	-0,063
-685,554	-91,232	-0,128	0,026
-684,539	234,202	-0,160	0,192
-683,524	97,942	0,045	0,038
-682,510	-146,712	0,054	0,003
-681,495	800,000	-0,032	0,069
-680,481	800,000	-0,027	-0,085
-679,466	-133,030	0,013	0,001
-678,451	221,602	-0,078	-0,092
-677,437	-31,341	0,058	-0,023
-676,422	118,582	0,056	0,050
-675,408	170,757	-0,099	0,103
-674,393	-200,000	0,014	-0,119
-673,378	800,000	-0,054	-0,131
-672,364	-200,000	-0,014	-0,160
-671,349	-72,127	-0,096	-0,026
-670,335	127,714	0,160	-0,147
-669,320	102,448	-0,070	-0,060
-668,305	-200,000	-0,005	-0,086
-667,291	2,679	0,031	0,016
-666,276	-200,000	-0,021	0,070
-665,262	800,000	-0,024	-0,051
-664,247	343,883	-0,046	-0,065
-663,232	-105,742	-0,058	-0,009
-662,218	-200,000	0,006	0,077
-661,203	672,944	0,036	-0,068
-660,189	-159,886	0,117	-0,005
-659,174	-87,687	0,043	-0,009
-658,159	-146,321	0,100	0,006
-657,145	-200,000	0,053	-0,221
-656,130	-200,000	0,009	-0,057
-655,116	800,000	-0,020	-0,042
-654,101	335,096	-0,060	0,084
-653,086	570,933	-0,060	0,107
-652,072	-92,810	0,059	0,012
-651,057	-200,000	-0,006	-0,072
-650,043	800,000	-0,015	-0,035
-649,028	-29,582	0,032	0,013
-648,014	-90,431	0,099	-0,021
-646,999	-41,698	0,070	-0,026
-645,984	21,117	-0,006	0,004
-644,970	178,953	-0,065	0,069
-643,955	-81,773	0,073	-0,017
-642,941	613,628	-0,021	0,039
-641,926	185,373	-0,042	0,045
-640,911	-200,000	-0,002	-0,007
-639,897	109,509	-0,082	-0,072
-638,882	-167,961	-0,091	0,003
-637,868	-200,000	-0,017	-0,119
-636,853	268,597	-0,108	-0,138
-635,838	136,104	0,103	-0,098
-634,824	78,520	0,062	-0,048
-633,809	-1,987	0,088	0,045
-632,795	671,539	0,026	0,048
-631,780	-200,000	0,026	0,146
-630,765	499,795	0,008	0,013
-629,751	-31,883	-0,043	-0,018
-628,736	463,794	-0,092	-0,149
-627,722	-200,000	-0,015	-0,067
-626,707	257,158	0,022	0,028
-625,692	102,250	0,092	0,078
-624,678	175,550	-0,033	0,035
-623,663	-83,184	-0,135	0,031
-622,649	-101,349	0,059	0,010
-621,634	374,857	0,048	-0,072
-620,619	-151,140	-0,183	-0,010
-619,605	386,078	-0,044	-0,067
-618,590	-69,543	-0,124	0,034
-617,576	607,602	0,119	0,216
-616,561	51,896	-0,085	0,059
-615,546	450,136	0,078	-0,125
-614,532	-78,767	-0,136	-0,033
-613,517	-39,215	0,164	0,062
-612,503	73,901	-0,117	0,088
-611,488	314,200	-0,038	-0,053
-610,474	380,662	0,073	0,108
-609,459	-200,000	-0,037	0,125
-608,444	-109,127	0,037	-0,006
-607,430	-200,000	-0,078	-0,263
-606,415	800,000	0,044	-0,093
-605,401	325,033	0,021	-0,029
-604,386	-63,042	0,084	0,025
-603,371	-200,000	-0,001	0,058
-602,357	152,169	-0,065	-0,064
-601,342	800,000	-0,006	-0,018
-600,328	800,000	-0,044	-0,093
-599,313	-79,751	0,039	0,009
-598,298	-8,157	0,069	0,033
-597,284	800,000	0,048	0,099
-596,269	-121,705	0,069	0,008
-595,255	-104,582	-0,115	0,019
-594,240	107,701	-0,060	-0,052
-593,225	800,000	-0,029	-0,060
-592,211	-77,051	-0,052	-0,013
-591,196	-125,535	-0,043	-0,005
-590,182	-200,000	0,026	0,098
-589,167	-200,000	0,021	-0,219
-588,152	-25,443	0,039	-0,017
-587,138	383,335	-0,007	0,011
-586,123	-107,609	-0,028	0,004
-585,109	-200,000	-0,003	-0,043
-584,094	249,088	-0,037	-0,045
-583,079	216,123	-0,038	-0,043
-582,065	-200,000	-0,005	0,158
-581,050	105,938	-0,079	0,067
-580,036	-102,309	0,056	0,010
-579,021	669,437	-0,064	-0,120
-578,006	48,339	0,023	0,015
-576,992	-200,000	-0,003	0,091
-575,977	279,681	0,025	0,033
-574,963	515,045	-0,017	-0,029
-573,948	228,999	0,076	-0,089
-572,934	270,952	-0,072	-0,092
-571,919	-25,008	-0,044	0,019
-570,904	-107,303	-0,064	0,010
-569,890	660,970	-0,041	0,076
-568,875	-59,299	0,048	-0,015
-567,861	-148,140	0,113	-0,007
-566,846	-13,996	0,048	0,022
-565,831	800,000	0,015	0,037
-564,817	63,847	0,055	-0,040
-563,802	-200,000	-0,009	-0,095
-562,788	800,000	0,056	0,130
-561,773	-200,000	0,006	0,120
-560,758	151,353	0,038	-0,037
-559,744	21,163	0,127	0,074
-558,729	678,029	0,003	0,006
-557,715	800,000	0,027	-0,057
-556,700	83,992	-0,026	-0,020
-555,685	-200,000	0,024	-0,083
-554,671	-200,000	0,008	-0,035
-553,656	800,000	0,044	0,109
-552,642	53,426	-0,120	0,083
-551,627	-200,000	0,028	0,109
-550,612	-161,034	0,028	0,001
-549,598	-200,000	0,004	-0,162
-548,583	-8,285	0,137	0,066
-547,569	800,000	0,067	-0,162
-546,554	127,962	0,070	-0,064
-545,539	320,709	0,049	0,068
-544,525	106,970	-0,051	0,043
-543,510	800,000	-0,039	0,104
-542,496	-33,836	0,043	-0,017
-541,481	-200,000	-0,022	0,072
-540,466	-82,147	0,076	0,018
-539,452	474,924	-0,004	0,007
-538,437	800,000	-0,014	-0,033
-537,423	-200,000	-0,001	0,150
-536,408	-18,558	-0,029	-0,013
-535,393	726,470	-0,069	-0,133
-534,379	101,601	-0,113	-0,095
-533,364	-200,000	-0,007	-0,155
-532,350	-28,165	-0,063	-0,026
-531,335	-75,343	0,020	-0,005
-530,321	-200,000	0,016	-0,140
-529,306	-27,314	-0,135	-0,057
-528,291	-200,000	-0,035	-0,133
-527,277	-200,000	-0,019	-0,087
-526,262	567,461	0,024	-0,043
-525,248	-176,841	-0,101	-0,002
-524,233	-200,000	-0,033	0,203
-523,218	604,061	0,105	0,189
-522,204	32,353	-0,066	-0,041
-521,189	-23,356	0,035	0,015
-520,175	800,000	0,042	-0,109
-519,160	-200,000	-0,002	-0,017
-518,145	-6,578	0,107	0,052
-517,131	81,371	0,074	0,058
-516,116	106,957	-0,034	0,030
-515,102	52,584	0,079	-0,054
-514,087	-42,931	-0,109	-0,040
-513,072	480,181	-0,033	0,054
-512,058	-144,330	0,035	0,002
-511,043	-88,130	-0,005	0,001
-510,029	-136,472	0,073	0,006
-509,014	-7,186	0,078	0,038
-507,999	-200,000	-0,001	-0,009
-506,985	-200,000	0,011	-0,051
-505,970	72,645	0,062	-0,047
-504,956	19,553	-0,082	0,047
-503,941	202,647	-0,059	0,066
-502,926	31,571	0,088	0,055
-501,912	590,064	-0,075	0,134
-500,897	-200,000	-0,008	0,148
-499,883	800,000	-0,003	-0,009
-498,868	-62,357	-0,034	-0,010
-497,853	-200,000	0,005	-0,141
-496,839	-52,529	0,100	-0,033
-495,824	7,990	0,045	0,024
-494,810	-200,000	0,007	0,049
-493,795	800,000	-0,065	0,199
-492,781	74,257	0,040	0,030
-491,766	392,569	0,054	-0,080
-490,751	-200,000	0,050	-0,165
-489,737	52,388	-0,056	0,038
-488,722	138,548	0,047	0,045
-487,708	-200,000	-0,005	0,051
-486,693	90,246	0,055	0,044
-485,678	-163,171	-0,066	0,002
-484,664	-200,000	0,005	-0,027
-483,649	800,000	-0,033	-0,091
-482,635	800,000	-0,056	-0,121
-481,620	220,412	0,086	0,099
-480,605	-15,836	0,007	-0,003
-479,591	113,059	0,046	-0,041
-478,576	-49,595	-0,067	0,023
-477,562	800,000	-0,005	0,011
-476,547	800,000	-0,036	0,073
-475,532	121,754	0,106	0,096
-474,518	-200,000	-0,005	-0,056
-473,503	-200,000	0,028	0,112
-472,489	162,298	0,118	0,119
-471,474	-76,943	0,062	-0,015
-470,459	-40,077	-0,128	0,048
-469,445	356,528	0,043	-0,062
-468,430	-23,758	-0,120	0,051
-467,416	164,040	0,005	-0,005
-466,401	-43,101	0,089	-0,032
-465,386	-200,000	-0,018	-0,089
-464,372	-200,000	0,042	0,158
-463,357	-16,654	-0,048	-0,022
-462,343	-200,000	0,002	-0,151
-461,328	-120,955	0,094	-0,011
-460,313	800,000	0,038	0,088
-459,299	131,792	0,088	0,082
-458,284	-60,407	-0,103	0,031
-457,270	-139,304	-0,051	-0,004
-456,255	-145,012	-0,006	0,000
-455,241	-200,000	-0,065	-0,233
-454,226	347,699	0,012	0,018
-453,211	-200,000	0,004	0,089
-452,197	-143,377	0,063	0,004
-451,182	61,774	0,020	-0,014
-450,168	16,174	-0,070	0,040
-449,153	-200,000	0,000	0,064
-448,138	-106,260	0,083	-0,013
-447,124	376,473	-0,081	-0,120
-446,109	-200,000	0,008	-0,043
-445,095	532,836	-0,036	0,062
-444,080	-86,446	-0,052	-0,011
-443,065	374,239	0,037	-0,055
-442,051	299,812	-0,008	0,011
-441,036	354,030	-0,057	-0,082
-440,022	209,161	0,061	-0,068
-439,007	-200,000	-0,015	-0,166
-437,992	240,545	0,044	-0,053
-436,978	-2,238	0,084	0,042
-435,963	800,000	-0,044	-0,120
-434,949	800,000	-0,059	0,130
-433,934	-46,778	-0,061	-0,021
-432,919	-132,896	-0,121	-0,011
-431,905	800,000	-0,037	0,086
-430,890	-92,884	-0,027	-0,005
-429,876	1,199	0,080	-0,041
-428,861	-46,382	-0,065	-0,023
-427,846	-200,000	0,000	0,046
-426,832	-200,000	-0,007	0,087
-425,817	-144,119	0,113	0,007
-424,803	-200,000	-0,026	-0,085
-423,788	330,093	-0,090	0,125
-422,773	-200,000	-0,018	-0,090
-421,759	-151,170	0,034	-0,002
-420,744	669,198	-0,064	0,120
-419,730	310,687	-0,039	0,053
-418,715	186,221	-0,087	-0,093
-417,701	-200,000	0,031	-0,101
-416,686	70,755	0,052	0,039
-415,671	-200,000	0,008	-0,032
-414,657	77,627	0,059	-0,045
-413,642	374,322	0,071	-0,104
-412,628	800,000	0,031	-0,062
-411,613	800,000	-0,021	-0,047
-410,598	-93,441	-0,088	-0,017
-409,584	275,495	-0,077	-0,099
-408,569	-200,000	-0,009	-0,057
-407,555	661,601	0,084	0,156
-406,540	-86,459	0,095	0,021
-405,525	12,764	0,117	0,065
-404,511	-52,381	-0,035	-0,012
-403,496	268,821	0,046	0,057
-402,482	-200,000	0,008	0,066
-401,467	27,321	-0,096	0,058
-400,452	89,421	0,135	0,108
-399,438	-43,949	0,069	0,025
-398,423	124,939	-0,030	0,028
-397,409	213,529	-0,038	-0,043
-396,394	32,404	-0,077	-0,048
-395,379	-200,000	0,000	0,066
-394,365	46,384	-0,074	0,049
-393,350	-76,723	0,130	0,032
-392,336	-154,755	-0,142	0,007
-391,321	548,891	-0,044	-0,076
-390,306	547,874	-0,066	-0,113
-389,292	-200,000	0,030	-0,101
-388,277	69,917	0,066	0,049
-387,263	120,386	-0,087	0,077
-386,248	29,302	0,154	0,094
-385,233	-200,000	-0,015	-0,083
-384,219	12,459	0,056	0,031
-383,204	-174,714	-0,074	-0,001
-382,190	800,000	-0,035	-0,096
-381,175	-200,000	-0,010	-0,087
-380,160	-158,736	0,109	0,004
-379,146	800,000	-0,042	0,106
-378,131	-20,118	-0,075	-0,033
-377,117	-39,594	0,037	-0,014
-376,102	778,085	-0,075	0,148
-375,088	142,828	-0,089	-0,085
-374,073	800,000	0,027	-0,070
-373,058	417,876	0,050	0,078
-372,044	294,918	0,013	-0,017
-371,029	-46,332	0,092	0,032
-370,015	-46,952	0,140	0,049
-369,000	22,964	0,035	-0,021
-367,985	-138,535	0,012	-0,001
-366,971	29,993	0,079	0,048
-365,956	-200,000	0,027	0,137
-364,942	80,751	0,063	0,049
-363,927	-124,258	0,087	-0,010
-362,912	-200,000	0,009	-0,083
-361,898	-200,000	-0,018	0,194
-360,883	0,203	-0,028	0,014
-359,869	-200,000	0,004	-0,091
-358,854	117,812	0,060	0,053
-357,839	565,032	-0,056	0,098
-356,825	-148,402	0,083	-0,005
-355,810	715,972	0,033	-0,063
-354,796	-200,000	-0,035	0,111
-353,781	800,000	0,050	0,113
-352,766	-147,474	-0,063	-0,004
-351,752	-200,000	-0,018	0,169
-350,737	-22,720	0,112	0,048
-349,723	748,051	0,008	0,016
-348,708	-33,399	-0,143	-0,056
-347,693	-66,961	0,092	0,026
-346,679	-129,326	-0,154	-0,015
-345,664	197,918	0,087	0,096
-344,650	254,078	-0,062	0,077
-343,635	800,000	-0,109	0,219
-342,620	800,000	0,019	-0,055
-341,606	800,000	-0,015	-0,046
-340,591	190,862	-0,056	-0,061
-339,577	89,449	-0,090	-0,072
-338,562	120,265	0,063	-0,056
-337,548	87,587	-0,167	0,132
-336,533	0,042	0,061	0,031
-335,518	-65,329	0,252	-0,072
-334,504	-110,829	-0,076	0,011
-333,489	202,559	-0,060	0,067
-332,475	-62,289	-0,147	-0,044
-331,460	-69,056	-0,098	-0,027
-330,445	800,000	-0,009	-0,028
-329,431	800,000	0,014	0,029
-328,416	550,517	-0,029	0,049
-327,402	800,000	0,027	-0,081
-326,387	-200,000	-0,014	-0,070
-325,372	-56,552	0,078	0,025
-324,358	-98,944	-0,084	-0,015
-323,343	125,977	0,100	-0,090
-322,329	185,549	0,032	-0,034
-321,314	238,612	0,014	-0,017
-320,299	135,550	-0,067	-0,062
-319,285	50,617	-0,063	0,042
-318,270	-200,000	-0,016	-0,101
-317,256	628,690	0,026	0,048
-316,241	36,190	0,091	0,057
-315,226	-200,000	0,005	-0,050
-314,212	103,844	0,128	0,107
-313,197	800,000	0,043	0,101
-312,183	800,000	-0,008	-0,021
-311,168	-102,781	0,138	-0,023
-310,153	-200,000	-0,003	-0,055
-309,139	800,000	-0,015	-0,039
-308,124	800,000	-0,037	-0,116
-307,110	800,000	0,028	-0,079
-306,095	321,693	-0,030	0,042
-305,080	-97,306	0,110	0,020
-304,066	-133,661	0,058	-0,005
-303,051	-34,252	-0,082	0,032
-302,037	592,385	0,051	-0,091
-301,022	-200,000	0,026	-0,085
-300,008	209,385	-0,036	0,040
-298,993	-68,143	-0,036	-0,010
-297,978	-200,000	-0,002	-0,014
-296,964	26,511	-0,037	-0,022
-295,949	-70,469	0,035	0,009
-294,935	-108,319	-0,110	-0,017
-293,920	-35,517	-0,073	0,028
-292,905	-200,000	-0,000	0,036
-291,891	23,672	0,167	0,098
-290,876	-115,508	-0,088	-0,012
-289,862	85,498	0,072	0,057
-288,847	-39,112	-0,109	0,041
-287,832	119,744	-0,008	-0,007
-286,818	-92,851	-0,058	-0,012
-285,803	-200,000	-0,021	0,098
-284,789	-21,287	0,105	0,046
-283,774	57,921	0,072	0,050
-282,759	-58,280	-0,045	0,014
-281,745	-139,415	-0,270	-0,020
-280,730	630,218	0,071	-0,129
-279,716	38,706	-0,057	0,036
-278,701	800,000	-0,029	0,066
-277,686	-148,064	0,027	0,002
-276,672	238,649	0,074	0,089
-275,657	731,616	-0,037	-0,071
-274,643	-200,000	0,004	-0,175
-273,628	-200,000	0,009	-0,042
-272,613	800,000	-0,014	-0,044
-271,599	-91,962	-0,086	-0,017
-270,584	-200,000	0,000	0,020
-269,570	-200,000	-0,010	0,058
-268,555	82,554	-0,035	-0,027
-267,540	-155,566	-0,076	-0,003
-266,526	800,000	0,038	-0,085
-265,511	-71,118	0,102	0,027
-264,497	-200,000	0,012	-0,135
-263,482	-66,172	0,139	0,039
-262,467	-200,000	-0,031	0,248
-261,453	-80,262	0,139	0,033
-260,438	-200,000	0,005	0,189
-259,424	-52,377	0,068	-0,022
-258,409	-200,000	0,008	-0,113
-257,395	222,318	0,069	-0,080
-256,380	-61,496	0,191	-0,057
-255,365	-200,000	0,046	-0,193
-254,351	800,000	-0,035	-0,096
-253,336	9,776	0,039	-0,021
-252,322	29,272	-0,099	-0,060
-251,307	334,948	0,056	-0,078
-250,292	-200,000	-0,007	0,102
-249,278	-151,825	0,165	-0,008
-248,263	261,588	-0,071	0,088
-247,249	96,340	0,067	-0,055
-246,234	45,136	-0,077	0,051
-245,219	-184,131	0,034	-0,000
-244,205	800,000	-0,015	-0,044
-243,190	180,422	0,088	0,092
-242,176	800,000	-0,038	-0,096
-241,161	653,841	0,091	0,168
-240,146	-2,963	-0,068	0,034
-239,132	-200,000	-0,007	0,053
-238,117	-23,321	-0,042	-0,018
-237,103	-133,514	-0,219	-0,019
-236,088	229,983	-0,081	0,095
-235,073	-93,784	-0,051	-0,010
-234,059	-50,227	-0,081	-0,027
-233,044	800,000	-0,060	-0,119
-232,030	-40,625	-0,076	-0,028
-231,015	-200,000	0,034	-0,134
-230,000	800,000	-0,050	-0,134
-228,986	-67,745	-0,157	0,044
-227,971	-129,915	0,171	0,016
-226,957	-200,000	0,031	0,123
-225,942	-32,493	0,097	-0,038
-224,927	800,000	-0,057	0,142
-223,913	-142,133	-0,100	-0,007
-222,898	45,908	0,047	0,031
-221,884	421,167	0,051	-0,078
-220,869	800,000	-0,037	0,090
-219,855	800,000	0,066	0,160
-218,840	-200,000	0,031	0,104
-217,825	800,000	-0,009	0,022
-216,811	800,000	0,035	0,070
-215,796	-29,701	-0,139	-0,057
-214,782	209,262	0,062	-0,069
-213,767	49,052	-0,005	0,003
-212,752	-200,000	0,002	-0,147
-211,738	91,797	-0,104	-0,084
-210,723	-141,773	-0,111	-0,008
-209,709	-23,839	-0,090	0,038
-208,694	110,313	-0,069	-0,059
-207,679	-16,579	0,056	-0,025
-206,665	145,914	-0,009	-0,009
-205,650	184,720	0,103	0,109
-204,636	244,668	-0,044	0,052
-203,621	76,768	-0,046	-0,034
-202,606	-26,504	-0,085	-0,035
-201,592	82,467	0,130	0,101
-200,577	800,000	-0,044	-0,114
-199,563	800,000	0,012	-0,024
-198,548	-19,425	0,140	0,062
-197,533	655,082	0,020	0,037
-196,519	-45,052	0,070	-0,025
-195,504	10,192	-0,088	0,048
-194,490	9,533	0,127	-0,068
-193,475	800,000	0,050	0,136
-192,460	-36,109	0,045	-0,017
-191,446	-194,738	0,034	0,000
-190,431	26,863	-0,057	-0,034
-189,417	71,999	0,074	0,055
-188,402	-142,224	0,039	0,003
-187,387	239,333	-0,089	-0,106
-186,373	-200,000	-0,015	-0,048
-185,358	75,285	-0,187	-0,141
-184,344	-200,000	-0,015	0,047
-183,329	-51,404	0,124	-0,041
-182,315	57,588	-0,174	0,121
-181,300	-200,000	-0,012	0,062
-180,285	144,399	-0,071	-0,067
-179,271	-200,000	0,012	0,101
-178,256	286,799	-0,019	-0,024
-177,242	165,665	0,110	0,110
-176,227	503,753	-0,029	-0,048
-175,212	112,539	0,052	0,045
-174,198	800,000	0,022	-0,063
-173,183	-94,092	-0,099	0,019
-172,169	0,122	-0,101	0,051
-171,154	18,101	-0,042	-0,024
-170,139	-200,000	-0,018	-0,063
-169,125	69,730	0,119	0,087
-168,110	800,000	-0,058	0,140
-167,096	-104,580	0,145	0,024
-166,081	-200,000	0,040	-0,176
-165,066	-200,000	0,009	-0,042
-164,052	-200,000	-0,013	-0,055
-163,037	-200,000	-0,004	-0,080
-162,023	123,169	-0,034	0,030
-161,008	800,000	-0,031	0,083
-159,993	-65,497	-0,071	-0,020
-158,979	800,000	-0,049	-0,122
-157,964	-200,000	-0,020	-0,167
-156,950	-200,000	-0,010	-0,121
-155,935	-29,003	-0,094	0,038
-154,920	-77,167	0,093	0,023
-153,906	-36,685	0,084	-0,032
-152,891	-127,047	-0,120	-0,012
-151,877	255,330	-0,080	0,098
-150,862	-94,281	0,021	-0,004
-149,847	-200,000	-0,005	-0,073
-148,833	-78,562	0,031	0,007
-147,818	-200,000	0,006	0,096
-146,804	-22,015	0,029	-0,013
-145,789	-90,763	-0,050	-0,010
-144,775	800,000	0,040	0,094
-143,760	-82,813	0,042	-0,009
-142,745	800,000	-0,035	0,074
-141,731	800,000	-0,050	-0,120
-140,716	-116,291	0,061	-0,008
-139,702	-200,000	0,012	-0,060
-138,687	-115,663	0,143	0,019
-137,672	-37,029	-0,054	0,020
-136,658	-13,707	-0,074	0,034
-135,643	-118,539	-0,161	0,020
-134,629	121,060	0,068	-0,060
-133,614	800,000	0,072	0,179
-132,599	800,000	0,040	0,102
-131,585	-200,000	0,020	0,129
-130,570	26,018	0,084	-0,049
-129,556	178,545	-0,075	-0,078
-128,541	505,151	0,038	-0,063
-127,526	392,664	-0,007	-0,010
-126,512	537,503	-0,025	0,043
-125,497	-56,941	-0,053	0,016
-124,483	-33,488	0,051	-0,020
-123,468	57,363	-0,132	-0,091
-122,453	-200,000	-0,013	-0,067
-121,439	213,262	0,024	-0,028
-120,424	-200,000	0,028	0,113
-119,410	464,995	0,039	0,062
-118,395	800,000	-0,042	0,106
-117,380	104,195	-0,110	0,092
-116,366	-152,436	0,089	-0,004
-115,351	800,000	0,012	0,026
-114,337	-200,000	-0,005	-0,041
-113,322	-49,149	-0,143	-0,048
-112,307	-141,332	0,127	-0,009
-111,293	57,031	-0,022	0,015
-110,278	-121,173	0,062	0,007
-109,264	-200,000	-0,017	-0,116
-108,249	-200,000	-0,096	-0,000
-107,234	-200,000	0,040	-0,134
-106,220	800,000	-0,034	-0,101
-105,205	-200,000	0,018	0,143
-104,191	-25,394	0,089	0,037
-103,176	76,690	-0,065	-0,049
-102,162	173,754	0,084	0,086
-101,147	-88,278	-0,138	-0,029
-100,132	-28,709	-0,144	0,058
-99,118	-14,088	-0,117	-0,053
-98,103	-63,574	0,044	0,013
-97,089	-128,863	0,125	-0,012
-96,074	-200,000	0,011	0,195
-95,059	55,432	-0,052	-0,036
-94,045	-89,297	-0,056	0,012
-93,030	-97,008	-0,234	0,043
-92,016	800,000	-0,037	-0,079
-91,001	-14,386	0,096	-0,043
-89,986	-44,038	0,070	0,025
-88,972	800,000	-0,040	0,117
-87,957	83,451	0,023	0,018
-86,943	-47,006	-0,091	0,031
-85,928	726,384	0,115	-0,218
-84,913	-200,000	-0,035	-0,139
-83,899	800,000	0,042	0,083
-82,884	-200,000	-0,006	0,061
-81,870	446,040	0,066	0,103
-80,855	800,000	0,057	0,128
-79,840	-182,359	-0,087	-0,001
-78,826	7,439	0,019	0,010
-77,811	-200,000	-0,027	0,127
-76,797	-45,637	-0,093	0,032
-75,782	-200,000	0,006	0,128
-74,767	-154,691	0,100	-0,005
-73,753	-200,000	0,017	0,148
-72,738	-200,000	0,015	0,120
-71,724	-200,000	0,001	0,044
-70,709	-190,949	-0,040	-0,000
-69,694	800,000	0,099	0,230
-68,680	-29,507	-0,084	0,034
-67,665	-200,000	0,001	0,040
-66,651	235,975	0,040	-0,047
-65,636	-137,529	-0,110	-0,009
-64,622	269,408	-0,022	0,028
-63,607	378,685	-0,034	-0,049
-62,592	-200,000	-0,020	-0,100
-61,578	800,000	0,018	0,046
-60,563	464,907	0,093	0,148
-59,549	-200,000	-0,033	0,187
-58,534	-14,474	-1,400	-0,636
-57,519	418,857	-1,425	-2,168
-56,505	-200,000	-0,412	-4,529
-55,490	137,995	0,988	0,918
-54,476	800,000	4,845	11,326
-53,461	-200,000	18,700	300,832
-52,446	800,000	734,978	2275,532
-51,432	563,206	1650,746	2843,490
-50,417	78,748	1668,117	1263,339
-49,403	22,222	1541,197	889,681
-48,388	16,175	1463,883	815,691
-47,373	17,781	1454,134	817,977
-46,359	16,967	1444,552	808,652
-45,344	14,431	1439,608	793,721
-44,330	14,385	1437,555	792,335
-43,315	14,362	1436,043	791,358
-42,300	14,337	1434,307	790,251
-41,286	14,382	1433,010	789,722
-40,271	14,383	1431,759	789,007
-39,257	14,386	1430,605	788,353
-38,242	14,403	1429,253	787,657
-37,227	14,417	1428,051	787,029
-36,213	14,415	1426,668	786,227
-35,198	14,390	1425,892	785,652
-34,184	14,404	1424,842	785,108
-33,169	14,370	1423,333	784,082
-32,154	14,435	1422,288	783,785
-31,140	14,387	1421,025	782,830
-30,125	14,449	1419,879	782,459
-29,111	14,413	1418,746	781,636
-28,096	14,341	1417,733	780,705
-27,082	14,342	1416,701	780,112
-26,067	14,307	1415,672	779,348
-25,052	14,328	1414,440	778,739
-24,038	14,265	1413,612	777,953
-23,023	14,312	1412,504	777,535
-22,009	14,283	1411,669	776,907
-20,994	14,278	1410,843	776,399
-19,979	14,239	1409,839	775,635
-18,965	14,256	1408,795	775,110
-17,950	14,271	1407,692	774,542
-16,936	14,330	1406,691	774,236
-15,921	14,254	1405,613	773,257
-14,906	14,187	1404,889	772,516
-13,892	14,256	1403,779	772,197
-12,877	14,209	1403,161	771,607
-11,863	14,224	1402,209	771,122
-10,848	14,245	1401,290	770,683
-9,833	14,179	1400,690	770,017
-8,819	14,151	1399,556	769,233
-7,804	14,121	1398,576	768,520
-6,790	14,155	1397,358	767,982
-5,775	14,122	1396,427	767,283
-4,760	14,100	1395,673	766,740
-3,746	14,114	1394,638	766,207
-2,731	14,131	1393,815	765,799
-1,717	14,116	1393,022	765,265
-0,702	14,098	1391,317	764,216
0,313	17,933	1309,558	737,077
1,327	34,383	705,213	435,020
2,342	52,760	123,892	83,742
3,356	-0,093	16,762	8,422
4,371	17,251	3,228	1,809
5,386	112,769	0,482	0,413
6,400	-200,000	-0,019	0,147
7,415	-155,668	-0,235	-0,011
8,429	162,956	-0,251	-0,249
9,444	84,191	-0,347	-0,268
10,459	334,776	-0,196	-0,270
11,473	-42,905	-0,251	-0,090
12,488	167,322	-0,173	-0,174
13,502	-195,972	-0,283	0,001
14,517	3,936	-0,370	-0,191
15,531	44,419	-0,355	-0,230
16,546	-58,030	-0,338	-0,104
17,561	800,000	-0,176	-0,420
18,575	-124,866	-0,271	-0,029
19,590	44,269	-0,354	-0,230
20,604	17,715	-0,365	-0,205
21,619	94,732	-0,372	-0,299
22,634	125,941	-0,376	-0,336
23,648	179,482	-0,438	-0,454
24,663	70,245	-0,440	-0,321
25,677	147,493	-0,342	-0,325
26,692	71,502	-0,399	-0,292
27,707	36,045	-0,342	-0,212
28,721	36,603	-0,421	-0,262
29,736	-15,293	-0,393	-0,177
30,750	139,246	-0,335	-0,311
31,765	194,820	-0,275	-0,295
32,780	117,089	-0,295	-0,256
33,794	17,490	-0,426	-0,239
34,809	26,763	-0,400	-0,236
35,823	196,736	-0,280	-0,302
36,838	103,951	-0,412	-0,342
37,853	93,514	-0,326	-0,261
38,867	59,768	-0,400	-0,278
39,882	75,908	-0,375	-0,280
40,896	12,802	-0,480	-0,261
41,911	219,979	-0,271	-0,307
42,926	46,133	-0,341	-0,222
43,940	7,141	-0,441	-0,232
44,955	26,754	-0,411	-0,242
45,969	-51,319	-0,438	-0,144
46,984	30,446	-0,356	-0,214
47,999	-16,132	-0,258	-0,115
49,013	197,116	-0,239	-0,258
50,028	67,322	-0,356	-0,256
51,042	224,748	-0,312	-0,357
52,057	108,498	-0,395	-0,333
53,071	153,192	-0,291	-0,281
54,086	91,613	-0,311	-0,246
55,101	0,576	-0,242	-0,121
56,115	101,731	-0,268	-0,220
57,130	13,800	-0,252	-0,137
58,144	-68,305	-0,406	-0,110
59,159	-34,883	-0,478	-0,183
60,174	80,669	-0,273	-0,207
61,188	82,975	-0,306	-0,235
62,203	178,460	-0,251	-0,258
63,217	67,359	-0,249	-0,179
64,232	58,268	-0,418	-0,289
65,247	-22,284	-0,425	-0,181
66,261	112,872	-0,301	-0,257
67,276	298,616	-0,201	-0,261
68,290	-30,000	-0,421	-0,168
69,305	171,445	-0,190	-0,192
70,320	199,204	-0,274	-0,296
71,334	271,722	-0,231	-0,287
72,349	12,770	-0,373	-0,202
73,363	-62,221	-0,404	-0,118
74,378	147,901	-0,343	-0,325
75,393	54,068	-0,299	-0,202
76,407	110,022	-0,329	-0,278
77,422	70,410	-0,267	-0,194
78,436	231,242	-0,206	-0,238
79,451	166,825	-0,213	-0,213
80,466	197,444	-0,235	-0,252
81,480	13,251	-0,380	-0,207
82,495	-7,184	-0,289	-0,137
83,509	84,359	-0,236	-0,181
84,524	50,056	-0,295	-0,196
85,539	342,448	-0,193	-0,266
86,553	-77,021	-0,251	-0,061
87,568	157,680	-0,255	-0,249
88,582	99,001	-0,388	-0,315
89,597	60,493	-0,318	-0,221
90,611	565,955	-0,141	-0,242
91,626	-57,881	-0,369	-0,113
92,641	-85,971	-0,275	-0,059
93,655	32,474	-0,265	-0,160
94,670	19,671	-0,234	-0,132
95,684	50,815	-0,318	-0,212
96,699	78,045	-0,325	-0,243
97,714	13,783	-0,451	-0,246
98,728	84,928	-0,319	-0,246
99,743	37,343	-0,309	-0,192
100,757	251,979	-0,160	-0,192
101,772	105,432	-0,267	-0,221
102,787	81,334	-0,271	-0,206
103,801	277,738	-0,269	-0,337
104,816	-57,948	-0,311	-0,095
105,830	-44,332	-0,259	-0,090
106,845	-110,170	-0,216	-0,031
107,860	13,571	-0,335	-0,182
108,874	162,757	-0,238	-0,235
109,889	78,972	-0,287	-0,215
110,903	18,872	-0,242	-0,136
111,918	-27,403	-0,338	-0,137
112,933	-55,329	-0,235	-0,074
113,947	14,088	-0,399	-0,217
114,962	449,167	-0,160	-0,248
115,976	-1,140	-0,307	-0,152
116,991	421,801	-0,193	-0,292
118,006	2,065	-0,236	-0,119
119,020	11,964	-0,256	-0,138
120,035	45,315	-0,213	-0,138
121,049	33,325	-0,151	-0,092
122,064	-74,853	-0,239	-0,060
123,079	-14,985	-0,295	-0,132
124,093	68,110	-0,240	-0,172
125,108	32,878	-0,196	-0,119
126,122	95,197	-0,283	-0,226
127,137	-0,848	-0,200	-0,099
128,151	49,545	-0,240	-0,158
129,166	20,139	-0,258	-0,145
130,181	66,591	-0,261	-0,186
131,195	45,529	-0,258	-0,166
132,210	81,392	-0,201	-0,152
133,224	-33,039	-0,283	-0,109
134,239	304,222	-0,154	-0,201
135,254	94,635	-0,262	-0,209
136,268	56,415	-0,226	-0,153
137,283	-18,497	-0,307	-0,134
138,297	29,837	-0,296	-0,176
139,312	317,385	-0,237	-0,314
140,327	15,031	-0,273	-0,149
141,341	5,732	-0,280	-0,144
142,356	150,891	-0,170	-0,162
143,370	-89,000	-0,248	0,051
144,385	42,196	-0,184	-0,117
145,400	51,309	-0,282	-0,187
146,414	119,764	-0,185	-0,160
147,429	254,611	-0,205	-0,246
148,443	63,308	-0,271	-0,190
149,458	-0,587	-0,276	-0,136
150,473	-27,742	-0,364	-0,147
151,487	-164,138	-0,226	-0,007
152,502	-25,616	-0,168	-0,069
153,516	31,763	-0,141	-0,085
154,531	156,744	-0,245	-0,236
155,546	71,962	-0,265	-0,193
156,560	201,509	-0,208	-0,224
157,575	118,735	-0,265	-0,228
158,589	25,945	-0,256	-0,149
159,604	17,679	-0,201	-0,111
160,619	27,471	-0,262	-0,154
161,633	233,708	-0,265	-0,305
162,648	243,047	-0,233	-0,273
163,662	76,485	-0,239	-0,176
164,677	-82,085	-0,277	-0,063
165,692	92,835	-0,117	-0,092
166,706	39,575	-0,236	-0,148
167,721	-146,549	-0,357	0,021
168,735	278,007	-0,134	-0,167
169,750	151,315	-0,105	-0,100
170,764	76,904	-0,226	-0,167
171,779	197,289	-0,115	0,123
172,794	129,167	-0,192	-0,171
173,808	-132,501	-0,237	-0,021
174,823	-74,277	-0,257	-0,064
175,837	2,284	-0,245	-0,123
176,852	396,786	-0,160	-0,234
177,867	180,217	-0,137	-0,141
178,881	-47,005	-0,282	-0,096
179,896	63,053	-0,238	-0,166
180,910	13,836	-0,254	-0,137
181,925	161,859	-0,217	-0,212
182,940	148,398	-0,208	-0,196
183,954	189,933	-0,259	-0,272
184,969	422,455	-0,206	-0,310
185,983	379,198	-0,156	-0,224
186,998	158,112	-0,155	-0,150
188,013	130,043	-0,198	-0,177
189,027	-50,531	-0,306	-0,100
190,042	238,117	-0,226	-0,262
191,056	71,469	-0,312	-0,225
192,071	178,140	-0,234	-0,238
193,086	3,504	-0,271	-0,137
194,100	243,840	-0,124	-0,145
195,115	800,000	-0,141	-0,276
196,129	-73,420	-0,230	0,058
197,144	134,599	-0,225	-0,203
198,159	-200,000	-0,034	-0,109
199,173	-11,835	-0,217	-0,099
200,188	-116,274	-0,228	-0,029
201,202	-8,302	-0,178	-0,083
202,217	233,549	-0,167	-0,192
203,232	74,582	-0,139	-0,101
204,246	225,405	-0,258	-0,292
205,261	-15,009	-0,327	-0,145
206,275	147,679	-0,152	-0,142
207,290	-166,069	-0,131	0,004
208,304	-153,678	-0,137	0,006
209,319	18,822	-0,257	-0,143
210,334	263,402	-0,114	-0,138
211,348	-53,937	-0,257	-0,081
212,363	-36,764	-0,223	-0,083
213,377	105,626	-0,166	-0,137
214,392	367,446	-0,116	-0,164
215,407	140,556	-0,142	-0,131
216,421	689,161	-0,106	-0,193
217,436	165,716	-0,177	-0,174
218,450	59,790	-0,182	-0,124
219,465	-40,181	-0,272	-0,098
220,480	35,249	-0,176	-0,107
221,494	-47,418	-0,142	-0,048
222,509	13,724	-0,187	-0,101
223,523	98,350	-0,209	-0,167
224,538	-44,675	-0,137	-0,047
225,553	114,662	-0,199	-0,168
226,567	35,552	-0,260	-0,158
227,582	20,124	-0,188	-0,105
228,596	196,782	-0,122	-0,129
229,611	118,915	-0,072	-0,062
230,626	-166,405	-0,211	0,006
231,640	800,000	-0,062	-0,133
232,655	65,746	-0,226	-0,159
233,669	581,863	-0,131	-0,224
234,684	93,779	-0,262	-0,206
235,699	624,517	-0,128	-0,224
236,713	800,000	-0,137	-0,281
237,728	19,515	-0,278	-0,155
238,742	164,561	-0,199	-0,195
239,757	-200,000	-0,053	-0,236
240,772	-200,000	-0,067	-0,298
241,786	-24,923	-0,213	-0,087
242,801	563,515	-0,103	-0,173
243,815	467,881	-0,107	-0,166
244,830	-96,206	-0,283	0,051
245,844	74,116	-0,171	-0,124
246,859	211,659	-0,181	-0,198
247,874	-32,775	-0,251	-0,096
248,888	-23,482	-0,168	0,070
249,903	-74,424	-0,237	-0,059
250,917	10,988	-0,158	-0,084
251,932	800,000	-0,057	-0,164
252,947	18,789	-0,214	-0,118
253,961	40,111	-0,230	-0,143
254,976	25,427	-0,205	-0,118
255,990	123,518	-0,149	-0,129
257,005	-49,407	-0,059	0,019
258,020	-91,780	-0,275	-0,054
259,034	-113,541	-0,235	-0,031
260,049	-74,555	-0,115	0,028
261,063	-67,669	-0,232	-0,062
262,078	-31,234	-0,297	-0,115
263,093	-190,240	-0,252	-0,002
264,107	-5,600	-0,136	-0,064
265,122	39,632	-0,085	-0,052
266,136	-52,390	-0,100	-0,032
267,151	308,438	-0,093	-0,120
268,166	120,889	-0,143	-0,123
269,180	-3,693	-0,176	-0,084
270,195	40,481	-0,256	-0,159
271,209	332,688	-0,097	-0,130
272,224	800,000	-0,079	-0,169
273,239	-200,000	-0,060	-0,260
274,253	48,087	-0,243	-0,157
275,268	93,077	-0,123	-0,096
276,282	25,353	-0,194	-0,111
277,297	-68,073	-0,189	-0,050
278,312	-200,000	-0,032	-0,162
279,326	-68,241	-0,066	-0,018
280,341	-200,000	0,013	-0,103
281,355	62,299	-0,244	-0,168
282,370	198,275	-0,141	-0,149
283,384	800,000	-0,059	-0,152
284,399	0,598	-0,101	-0,050
285,414	60,469	-0,191	-0,130
286,428	297,487	-0,127	-0,162
287,443	-66,984	-0,192	0,052
288,457	96,239	-0,129	-0,102
289,472	165,545	-0,107	-0,104
290,487	124,140	-0,247	-0,214
291,501	321,108	-0,118	-0,156
292,516	-200,000	-0,064	-0,255
293,530	800,000	-0,085	-0,179
294,545	800,000	-0,051	-0,100
295,560	-94,689	-0,164	0,031
296,574	92,395	-0,123	-0,096
297,589	119,321	-0,071	-0,061
298,603	800,000	-0,070	-0,198
299,618	-200,000	-0,013	-0,138
300,633	-9,771	-0,198	-0,091
301,647	4,656	-0,139	0,070
302,662	1,003	-0,121	-0,060
303,676	13,240	-0,158	-0,084
304,691	-159,182	-0,183	-0,007
305,706	353,552	-0,176	-0,241
306,720	75,674	-0,239	-0,174
307,735	52,384	-0,137	-0,090
308,749	137,594	-0,173	-0,156
309,764	321,296	-0,144	-0,189
310,779	-134,827	-0,156	-0,013
311,793	80,579	-0,168	-0,125
312,808	35,217	-0,215	-0,130
313,822	207,362	-0,050	-0,053
314,837	-68,234	-0,100	0,027
315,852	-200,000	0,026	-0,133
316,866	-66,094	-0,142	-0,039
317,881	-19,272	-0,130	-0,055
318,895	206,855	-0,177	-0,191
319,910	-200,000	-0,054	-0,201
320,925	154,174	-0,233	-0,220
321,939	638,990	-0,074	-0,129
322,954	40,005	-0,150	-0,093
323,968	-200,000	-0,007	-0,126
324,983	40,733	-0,178	0,110
325,997	-200,000	0,015	-0,153
327,012	137,455	-0,098	-0,088
328,027	83,577	-0,225	-0,168
329,041	35,227	-0,158	-0,095
330,056	-63,498	-0,115	-0,032
331,070	6,134	-0,063	0,032
332,085	-200,000	-0,068	-0,244
333,100	-2,100	-0,079	-0,038
334,114	641,849	-0,099	-0,175
335,129	126,250	-0,157	-0,137
336,143	668,067	-0,063	-0,112
337,158	-200,000	-0,006	-0,044
338,173	598,530	-0,066	0,113
339,187	220,919	-0,069	0,076
340,202	800,000	-0,059	-0,140
341,216	94,787	-0,105	-0,082
342,231	473,580	-0,112	-0,174
343,246	223,493	-0,196	-0,218
344,260	800,000	-0,092	-0,199
345,275	-91,339	-0,224	-0,044
346,289	104,194	-0,094	-0,076
347,304	40,184	-0,142	-0,088
348,319	104,060	-0,144	-0,116
349,333	-94,018	-0,269	-0,050
350,348	115,056	-0,149	-0,125
351,362	261,158	-0,104	-0,124
352,377	-8,374	-0,143	-0,066
353,392	-128,621	-0,077	0,007
354,406	328,597	-0,131	-0,173
355,421	208,136	1313,774	1411,512
356,435	160,133	1474,411	1412,012
