DTS Sentinel unit serial number:	SN410029Multiplexer serial number:	ORYXHardware model number:	OX2-SRSoftware version number:	ORYX F/W v4,00 Oryx Data Collector v3.7.2.0data status	okinstallation	B3 Nyhavnadifferential loss correction	single-endedforward channel	channel 1reverse channel	N/Adate	2023/11/29time	13:22:30forward acquisition time	300,00reverse acquisition time	0,00gamma	499,1914k internal	0,3212k external	0,3212temperature offset calibration	1,0000default loss term (dB/km)	0,3820temperature slope calibration	1,0000multiplexer offset coefficient	1,0000multiplexer slope coefficient	1,0000fibre end	0,00T internal ref (°C)	10,31T ext. ref 1 (°C)	-3,65T ext. ref 2 (°C)	-3,80length (m)	temperature (°C)	Stokes	anti-Stokes-744,400	800,000	-0,117	-0,327
-743,385	-200,000	0,040	0,313
-742,371	-42,015	-0,291	-0,107
-741,356	-200,000	-0,013	0,292
-740,342	207,622	-0,126	-0,142
-739,327	-200,000	0,068	0,260
-738,312	-200,000	-0,026	-0,306
-737,298	800,000	-0,075	0,202
-736,283	46,284	-0,307	-0,205
-735,269	-200,000	0,027	0,233
-734,254	-200,000	-0,022	-0,120
-733,239	36,096	-0,259	0,165
-732,225	-200,000	-0,048	-0,249
-731,210	-200,000	0,046	0,160
-730,196	-35,444	-0,097	-0,038
-729,181	-200,000	0,003	-0,033
-728,167	263,284	0,037	0,047
-727,152	131,885	-0,082	0,077
-726,137	171,586	-0,127	0,133
-725,123	-114,527	-0,009	0,001
-724,108	800,000	0,067	-0,146
-723,094	-124,725	-0,066	0,007
-722,079	112,244	-0,068	0,059
-721,064	-200,000	-0,043	-0,153
-720,050	-200,000	-0,020	-0,097
-719,035	-81,056	-0,046	-0,011
-718,021	800,000	-0,023	-0,070
-717,006	27,052	-0,191	-0,116
-715,991	123,517	-0,153	0,139
-714,977	800,000	-0,060	0,139
-713,962	-155,285	0,078	0,004
-712,948	-80,151	-0,134	0,032
-711,933	219,786	-0,047	0,055
-710,918	-2,656	-0,106	0,054
-709,904	-65,927	0,095	0,027
-708,889	41,741	-0,122	-0,080
-707,875	-111,213	-0,118	0,017
-706,860	69,244	0,052	-0,039
-705,845	27,825	0,038	-0,023
-704,831	-200,000	-0,038	0,223
-703,816	7,529	-0,078	0,042
-702,802	519,068	0,028	0,048
-701,787	85,482	-0,115	-0,091
-700,772	-200,000	-0,001	-0,035
-699,758	-200,000	0,010	0,131
-698,743	-144,379	0,042	0,003
-697,729	58,635	-0,050	0,036
-696,714	45,027	0,069	0,046
-695,699	-200,000	-0,003	-0,090
-694,685	800,000	-0,022	0,054
-693,670	27,897	0,092	-0,056
-692,656	-163,953	-0,082	-0,003
-691,641	161,623	0,110	0,112
-690,627	-108,605	-0,047	-0,007
-689,612	-200,000	-0,020	0,086
-688,597	225,248	0,029	-0,034
-687,583	-200,000	0,022	0,107
-686,568	763,252	-0,036	0,071
-685,554	-200,000	0,000	-0,069
-684,539	-200,000	-0,024	0,093
-683,524	413,362	0,066	0,102
-682,510	800,000	0,030	-0,068
-681,495	-14,068	0,050	-0,023
-680,481	118,113	-0,085	-0,076
-679,466	-8,894	-0,164	-0,079
-678,451	327,124	-0,074	-0,103
-677,437	67,540	-0,103	-0,076
-676,422	-65,553	-0,127	-0,037
-675,408	800,000	0,014	0,044
-674,393	54,254	-0,123	0,085
-673,378	187,151	-0,073	-0,079
-672,364	84,073	-0,049	0,039
-671,349	40,585	0,084	0,055
-670,335	343,988	-0,033	0,046
-669,320	53,105	0,064	0,044
-668,305	-107,962	0,031	0,005
-667,291	-105,162	0,075	-0,012
-666,276	-141,440	-0,127	-0,009
-665,262	54,399	-0,056	-0,039
-664,247	-200,000	-0,007	-0,075
-663,232	183,795	0,060	-0,064
-662,218	-98,991	-0,023	-0,004
-661,203	23,551	-0,046	0,027
-660,189	179,835	-0,100	0,106
-659,174	401,119	-0,074	-0,113
-658,159	302,904	0,098	-0,131
-657,145	-200,000	0,014	0,093
-656,130	-96,121	0,021	-0,004
-655,116	229,232	-0,041	-0,048
-654,101	800,000	-0,015	0,032
-653,086	471,972	0,025	-0,041
-652,072	-136,305	-0,068	-0,006
-651,057	445,331	-0,031	-0,049
-650,043	-200,000	0,009	-0,080
-649,028	-23,973	0,064	0,027
-648,014	-74,995	-0,119	0,030
-646,999	-200,000	-0,003	-0,030
-645,984	265,144	-0,043	-0,054
-644,970	-200,000	-0,011	0,173
-643,955	-47,525	-0,057	0,020
-642,941	220,157	0,100	0,115
-641,926	-44,164	-0,162	0,058
-640,911	800,000	0,033	-0,072
-639,897	285,121	0,071	0,093
-638,882	-113,487	-0,055	-0,008
-637,868	204,829	0,032	0,036
-636,853	-200,000	0,001	-0,063
-635,838	30,362	-0,079	-0,049
-634,824	240,785	0,038	-0,045
-633,809	10,776	0,024	0,013
-632,795	25,730	-0,037	-0,022
-631,780	-127,162	0,149	-0,016
-630,765	456,277	0,016	-0,026
-629,751	53,571	0,009	-0,006
-628,736	44,260	-0,091	0,060
-627,722	236,303	-0,143	-0,170
-626,707	125,724	-0,042	-0,038
-625,692	-144,826	0,172	-0,011
-624,678	226,877	-0,082	0,096
-623,663	-122,151	-0,033	0,004
-622,649	385,965	-0,014	0,021
-621,634	-96,898	-0,143	-0,027
-620,619	710,944	-0,082	-0,157
-619,605	-200,000	-0,005	-0,069
-618,590	-200,000	0,015	0,085
-617,576	-200,000	-0,015	0,102
-616,561	515,440	0,017	0,028
-615,546	-128,526	-0,210	0,021
-614,532	-200,000	-0,023	-0,163
-613,517	800,000	-0,025	-0,056
-612,503	800,000	0,077	0,164
-611,488	233,062	-0,015	0,017
-610,474	27,394	0,013	-0,008
-609,459	800,000	0,006	-0,014
-608,444	-200,000	0,003	-0,087
-607,430	-131,020	-0,092	-0,009
-606,415	89,687	-0,112	-0,090
-605,401	48,805	-0,036	-0,025
-604,386	800,000	0,019	0,050
-603,371	23,828	-0,026	-0,016
-602,357	171,827	0,028	0,029
-601,342	297,120	0,013	-0,018
-600,328	-155,146	-0,123	-0,006
-599,313	-15,934	0,056	-0,025
-598,298	-155,219	-0,056	-0,003
-597,284	-80,638	0,080	-0,019
-596,269	551,177	0,025	0,043
-595,255	4,453	-0,039	0,021
-594,240	-52,237	-0,095	0,032
-593,225	-200,000	0,014	0,078
-592,211	-200,000	-0,014	-0,104
-591,196	-106,979	0,138	-0,022
-590,182	-200,000	0,006	-0,025
-589,167	-68,881	0,086	-0,024
-588,152	800,000	0,019	-0,052
-587,138	160,072	0,035	-0,035
-586,123	368,611	-0,069	-0,101
-585,109	-200,000	-0,030	-0,156
-584,094	130,449	0,089	-0,082
-583,079	-21,792	0,084	0,037
-582,065	-47,949	-0,082	-0,028
-581,050	41,964	0,069	0,045
-580,036	-200,000	0,028	0,102
-579,021	20,576	-0,171	0,100
-578,006	270,471	-0,105	-0,133
-576,992	600,880	-0,041	-0,073
-575,977	-200,000	0,001	0,007
-574,963	-20,276	-0,065	-0,029
-573,948	153,894	-0,051	0,050
-572,934	-129,717	-0,108	-0,011
-571,919	800,000	0,015	-0,034
-570,904	-34,555	-0,099	-0,039
-569,890	-200,000	-0,010	-0,163
-568,875	-56,203	0,104	-0,033
-567,861	71,754	0,062	0,046
-566,846	-200,000	0,010	0,143
-565,831	-78,074	-0,086	0,021
-564,817	-88,183	0,076	0,016
-563,802	69,638	-0,088	0,065
-562,788	106,725	-0,089	-0,076
-561,773	632,848	0,053	0,097
-560,758	800,000	0,020	-0,064
-559,744	-85,256	-0,073	-0,016
-558,729	9,158	0,143	0,078
-557,715	505,791	0,006	0,010
-556,700	78,534	0,040	0,031
-555,685	-200,000	-0,004	-0,096
-554,671	574,794	0,066	-0,116
-553,656	128,781	0,024	0,022
-552,642	-200,000	0,007	0,037
-551,627	-200,000	-0,031	-0,102
-550,612	-200,000	-0,021	0,107
-549,598	-88,268	-0,058	0,012
-548,583	245,799	-0,095	-0,116
-547,569	5,937	0,034	-0,018
-546,554	6,021	0,072	0,038
-545,539	-52,857	0,037	0,012
-544,525	197,875	-0,126	0,139
-543,510	-178,841	0,137	0,002
-542,496	-150,985	-0,210	-0,011
-541,481	-200,000	-0,034	-0,140
-540,466	-94,384	0,065	-0,013
-539,452	-200,000	-0,004	0,030
-538,437	800,000	0,067	0,168
-537,423	-138,464	-0,065	0,005
-536,408	-200,000	-0,013	0,044
-535,393	118,830	-0,038	-0,034
-534,379	35,254	-0,110	-0,069
-533,364	249,939	-0,063	-0,076
-532,350	-200,000	0,010	-0,078
-531,335	438,521	0,044	0,070
-530,321	73,162	0,089	-0,067
-529,306	-29,753	-0,051	0,021
-528,291	-57,641	-0,022	0,007
-527,277	-105,301	-0,065	0,011
-526,262	-200,000	-0,008	-0,118
-525,248	142,561	0,053	-0,051
-524,233	-153,620	-0,082	-0,004
-523,218	-200,000	-0,014	0,073
-522,204	-130,815	-0,089	-0,008
-521,189	-200,000	0,017	0,097
-520,175	46,387	-0,148	-0,098
-519,160	137,789	-0,035	0,033
-518,145	10,264	0,082	0,045
-517,131	-83,272	0,092	-0,021
-516,116	285,083	0,071	0,092
-515,102	-200,000	-0,014	0,159
-514,087	-200,000	0,002	-0,052
-513,072	-42,167	-0,092	-0,034
-512,058	47,757	0,095	-0,064
-511,043	-200,000	-0,032	0,151
-510,029	748,590	0,010	-0,019
-509,014	-147,849	0,085	0,005
-507,999	210,233	0,078	0,089
-506,985	-200,000	0,028	-0,148
-505,970	446,697	0,013	-0,021
-504,956	340,519	-0,048	-0,067
-503,941	235,203	0,030	-0,036
-502,926	-6,453	0,138	0,067
-501,912	800,000	0,067	0,138
-500,897	51,304	-0,049	-0,034
-499,883	-200,000	0,008	0,056
-498,868	-200,000	0,052	-0,221
-497,853	20,856	-0,095	-0,055
-496,839	475,756	-0,035	0,057
-495,824	179,471	0,122	-0,128
-494,810	70,434	0,043	-0,032
-493,795	-45,453	-0,129	0,046
-492,781	-200,000	-0,017	0,077
-491,766	773,281	0,087	-0,170
-490,751	316,227	-0,049	-0,066
-489,737	-200,000	0,001	-0,039
-488,722	-200,000	-0,062	0,214
-487,708	800,000	-0,058	0,118
-486,693	370,680	0,068	0,099
-485,678	571,058	0,031	0,055
-484,664	-87,074	-0,121	0,026
-483,649	-200,000	-0,004	-0,165
-482,635	-200,000	0,008	-0,066
-481,620	-200,000	0,006	0,029
-480,605	-200,000	0,017	-0,164
-479,591	-200,000	-0,011	-0,043
-478,576	673,268	-0,023	-0,042
-477,562	7,393	-0,012	0,006
-476,547	-200,000	-0,088	-0,000
-475,532	-200,000	0,004	0,052
-474,518	-9,272	-0,136	0,065
-473,503	-200,000	-0,023	0,099
-472,489	800,000	-0,025	0,051
-471,474	-200,000	-0,011	-0,036
-470,459	244,521	-0,041	-0,049
-469,445	238,914	-0,019	-0,022
-468,430	-200,000	0,011	-0,101
-467,416	-73,075	0,108	0,028
-466,401	625,564	-0,047	-0,086
-465,386	16,156	0,098	-0,055
-464,372	34,284	-0,080	-0,050
-463,357	244,069	0,028	-0,034
-462,343	800,000	-0,068	-0,213
-461,328	543,098	0,046	-0,079
-460,313	115,586	-0,120	0,105
-459,299	342,777	0,068	0,095
-458,284	187,523	0,065	0,069
-457,270	732,605	0,050	0,095
-456,255	-134,369	-0,167	-0,014
-455,241	-200,000	-0,004	-0,091
-454,226	-200,000	0,032	0,103
-453,211	164,293	-0,055	0,055
-452,197	59,257	0,042	0,029
-451,182	240,846	0,077	-0,092
-450,168	-103,769	0,068	0,011
-449,153	-200,000	-0,039	-0,130
-448,138	-150,721	0,115	0,006
-447,124	82,628	-0,049	-0,038
-446,109	-200,000	0,043	0,217
-445,095	45,453	0,097	0,064
-444,080	-200,000	-0,001	0,061
-443,065	-92,160	0,110	0,022
-442,051	55,592	-0,095	-0,066
-441,036	-15,436	-0,042	-0,019
-440,022	269,351	-0,141	-0,178
-439,007	0,695	-0,131	-0,067
-437,992	-65,742	0,115	0,033
-436,978	354,078	0,085	0,121
-435,963	548,891	0,106	-0,183
-434,949	-122,008	-0,070	-0,008
-433,934	-200,000	0,019	-0,165
-432,919	434,990	0,033	-0,051
-431,905	412,973	-0,038	-0,058
-430,890	-143,266	0,050	0,003
-429,876	217,465	-0,054	-0,062
-428,861	180,218	0,105	0,110
-427,846	-200,000	0,053	0,170
-426,832	-34,211	-0,044	0,017
-425,817	-43,173	-0,054	0,019
-424,803	-3,181	-0,032	0,016
-423,788	196,311	0,048	0,052
-422,773	800,000	0,051	-0,115
-421,759	-180,821	-0,181	-0,003
-420,744	-31,244	0,073	0,029
-419,730	762,056	0,020	-0,039
-418,715	800,000	0,038	-0,098
-417,701	456,305	0,007	0,012
-416,686	131,604	0,104	0,095
-415,671	15,664	-0,082	0,046
-414,657	437,307	0,027	-0,041
-413,642	449,004	0,021	-0,033
-412,628	-165,524	-0,063	-0,002
-411,613	-200,000	0,001	-0,034
-410,598	-200,000	0,017	-0,135
-409,584	187,980	-0,073	0,078
-408,569	495,298	0,071	-0,118
-407,555	800,000	0,043	0,134
-406,540	137,618	-0,087	-0,081
-405,525	-200,000	0,009	-0,145
-404,511	-81,374	-0,069	0,016
-403,496	-137,464	0,162	0,013
-402,482	-129,073	0,095	-0,009
-401,467	279,597	-0,056	-0,071
-400,452	800,000	0,037	0,081
-399,438	800,000	0,026	-0,071
-398,423	-38,316	0,046	0,017
-397,409	-200,000	0,021	-0,154
-396,394	-200,000	0,004	-0,093
-395,379	-40,769	0,120	-0,044
-394,365	779,822	-0,065	-0,129
-393,350	4,878	0,129	0,068
-392,336	256,908	0,040	-0,049
-391,321	227,717	-0,034	-0,039
-390,306	-200,000	0,045	0,151
-389,292	-200,000	0,032	-0,100
-388,277	32,954	0,065	0,040
-387,263	-200,000	-0,006	0,026
-386,248	-58,708	0,118	0,036
-385,233	800,000	-0,053	0,118
-384,219	-200,000	-0,000	0,082
-383,204	-53,016	0,012	0,004
-382,190	67,441	-0,078	0,057
-381,175	-200,000	0,014	-0,118
-380,160	-140,327	-0,067	-0,005
-379,146	14,367	0,129	-0,072
-378,131	-200,000	-0,005	-0,044
-377,117	-200,000	-0,005	-0,076
-376,102	-23,538	0,066	0,028
-375,088	21,527	-0,109	0,063
-374,073	70,815	-0,029	-0,022
-373,058	-32,143	-0,004	-0,002
-372,044	-124,601	0,140	-0,015
-371,029	-200,000	-0,000	0,093
-370,015	-200,000	0,003	0,070
-369,000	599,816	0,014	-0,025
-367,985	-73,118	-0,079	-0,021
-366,971	800,000	0,021	0,046
-365,956	-4,475	-0,076	0,038
-364,942	800,000	-0,065	0,139
-363,927	-99,423	0,121	-0,022
-362,912	62,969	0,043	0,030
-361,898	-118,878	-0,031	0,004
-360,883	-99,841	0,127	-0,023
-359,869	-200,000	0,006	-0,113
-358,854	-87,563	0,044	-0,009
-357,839	-23,304	0,054	0,023
-356,825	-200,000	0,002	-0,057
-355,810	389,890	0,018	-0,027
-354,796	116,830	-0,102	0,089
-353,781	-28,812	-0,136	0,056
-352,766	172,536	-0,052	-0,054
-351,752	267,195	-0,053	0,066
-350,737	-6,039	-0,049	-0,024
-349,723	-81,662	0,221	-0,051
-348,708	-4,065	-0,050	-0,025
-347,693	-200,000	0,019	-0,173
-346,679	-24,008	-0,054	-0,023
-345,664	-104,553	-0,045	-0,007
-344,650	-121,051	0,054	0,006
-343,635	58,905	0,136	0,095
-342,620	152,919	0,028	-0,027
-341,606	-200,000	-0,015	-0,152
-340,591	112,335	0,135	-0,116
-339,577	-200,000	0,008	-0,027
-338,562	379,672	-0,023	0,034
-337,548	-200,000	0,002	0,042
-336,533	-200,000	0,014	0,138
-335,518	-200,000	0,034	0,189
-334,504	-200,000	-0,017	0,092
-333,489	-6,046	-0,155	0,075
-332,475	-200,000	0,012	-0,080
-331,460	255,164	-0,123	-0,151
-330,445	375,754	-0,015	-0,023
-329,431	-26,607	-0,080	0,033
-328,416	800,000	0,059	0,135
-327,402	-32,321	-0,062	0,025
-326,387	-200,000	0,000	-0,086
-325,372	800,000	-0,104	-0,217
-324,358	17,289	0,052	0,030
-323,343	-67,772	0,050	-0,014
-322,329	-200,000	-0,029	0,153
-321,314	-53,095	-0,054	0,018
-320,299	-45,917	-0,089	0,031
-319,285	262,556	0,124	-0,154
-318,270	-140,565	-0,196	0,014
-317,256	-200,000	0,010	0,047
-316,241	318,681	-0,092	0,124
-315,226	-200,000	0,002	0,016
-314,212	-18,415	0,105	-0,047
-313,197	772,027	0,051	0,099
-312,183	378,649	0,107	0,156
-311,168	-73,775	-0,042	-0,011
-310,153	496,968	-0,065	0,108
-309,139	-82,742	-0,092	-0,021
-308,124	-15,312	0,040	0,018
-307,110	154,080	-0,071	0,070
-306,095	-200,000	0,020	-0,079
-305,080	75,721	-0,068	0,051
-304,066	-11,450	-0,086	0,040
-303,051	-73,181	-0,045	-0,012
-302,037	800,000	0,029	-0,064
-301,022	215,358	0,044	0,050
-300,008	501,101	-0,021	0,035
-298,993	-31,266	-0,032	0,013
-297,978	419,938	0,042	-0,064
-296,964	114,554	-0,096	-0,083
-295,949	115,740	0,089	0,077
-294,935	-140,506	0,075	-0,006
-293,920	168,449	0,062	-0,063
-292,905	96,978	0,073	0,060
-291,891	-128,512	0,143	0,014
-290,876	312,988	0,134	0,180
-289,862	-150,305	0,097	-0,005
-288,847	-12,653	0,073	0,034
-287,832	7,928	0,043	-0,023
-286,818	206,408	-0,048	-0,054
-285,803	-154,103	0,079	-0,004
-284,789	-56,698	-0,067	0,021
-283,774	-120,502	0,077	0,009
-282,759	348,645	-0,039	0,055
-281,745	-200,000	-0,025	-0,107
-280,730	-200,000	0,031	-0,104
-279,716	-200,000	-0,015	0,080
-278,701	449,302	0,067	0,106
-277,686	26,203	0,173	0,103
-276,672	-45,674	-0,096	0,033
-275,657	-200,000	0,017	0,140
-274,643	-108,051	-0,146	0,022
-273,628	-200,000	-0,014	0,106
-272,613	84,118	0,054	-0,042
-271,599	222,974	0,058	0,066
-270,584	-200,000	0,018	-0,103
-269,570	-200,000	-0,008	-0,069
-268,555	175,231	-0,073	0,075
-267,540	-34,883	0,055	0,021
-266,526	800,000	-0,036	-0,099
-265,511	-200,000	-0,015	-0,100
-264,497	-200,000	-0,017	-0,106
-263,482	-5,059	0,038	-0,018
-262,467	407,964	0,125	0,189
-261,453	-184,274	-0,050	0,001
-260,438	301,191	-0,029	0,038
-259,424	-154,239	0,051	0,002
-258,409	-34,000	0,065	-0,025
-257,395	-90,868	-0,173	0,035
-256,380	31,814	0,121	0,074
-255,365	800,000	0,031	0,096
-254,351	-103,073	-0,174	-0,029
-253,336	-61,778	-0,110	0,033
-252,322	-200,000	-0,020	0,083
-251,307	292,748	0,099	-0,128
-250,292	-200,000	-0,009	0,096
-249,278	-92,290	0,057	0,011
-248,263	-14,359	0,113	0,052
-247,249	179,526	-0,086	0,089
-246,234	304,013	0,039	-0,051
-245,219	427,212	0,076	-0,117
-244,205	-6,389	-0,085	-0,041
-243,190	9,770	0,139	0,075
-242,176	367,493	0,054	0,077
-241,161	-200,000	0,014	0,076
-240,146	-53,549	-0,017	-0,005
-239,132	137,269	-0,012	0,011
-238,117	-61,568	-0,058	-0,017
-237,103	276,361	-0,052	-0,066
-236,088	-188,183	-0,074	0,001
-235,073	337,178	0,041	0,057
-234,059	-200,000	0,011	0,058
-233,044	136,513	-0,085	-0,079
-232,030	-200,000	0,021	-0,068
-231,015	399,974	-0,080	-0,119
-230,000	416,458	-0,011	-0,016
-228,986	800,000	-0,034	0,089
-227,971	148,234	-0,031	0,029
-226,957	758,169	-0,012	-0,023
-225,942	218,342	0,081	-0,092
-224,927	-144,770	0,106	-0,007
-223,913	-200,000	-0,011	-0,096
-222,898	-50,459	0,069	0,023
-221,884	800,000	-0,023	0,046
-220,869	187,416	0,024	0,025
-219,855	746,951	0,038	0,074
-218,840	-84,617	0,076	0,017
-217,825	-136,364	-0,135	0,011
-216,811	19,734	0,023	0,013
-215,796	-200,000	-0,008	-0,089
-214,782	-200,000	-0,054	-0,170
-213,767	16,482	0,149	0,083
-212,752	102,956	0,094	0,079
-211,738	800,000	-0,057	0,115
-210,723	800,000	-0,060	0,118
-209,709	-72,474	-0,056	0,014
-208,694	119,750	-0,057	-0,050
-207,679	800,000	0,037	0,102
-206,665	800,000	0,031	-0,067
-205,650	205,752	-0,081	0,089
-204,636	30,956	0,143	0,087
-203,621	75,374	0,070	0,053
-202,606	-200,000	0,014	-0,070
-201,592	197,490	-0,109	-0,118
-200,577	800,000	-0,043	-0,113
-199,563	385,441	-0,049	0,071
-198,548	-174,364	0,144	-0,003
-197,533	-71,155	-0,063	-0,017
-196,519	-1,210	0,058	0,029
-195,504	537,940	-0,057	0,096
-194,490	399,971	-0,045	0,067
-193,475	-149,053	0,141	0,008
-192,460	-200,000	0,015	-0,049
-191,446	-124,891	0,069	-0,007
-190,431	-200,000	0,003	-0,049
-189,417	172,664	0,057	0,058
-188,402	335,955	-0,054	-0,075
-187,387	-200,000	0,001	-0,005
-186,373	-93,864	-0,055	0,011
-185,358	365,570	-0,105	0,150
-184,344	413,367	-0,055	-0,083
-183,329	-92,311	0,103	0,020
-182,315	-200,000	-0,006	0,065
-181,300	-200,000	0,005	-0,066
-180,285	40,480	-0,111	-0,071
-179,271	32,920	-0,138	-0,084
-178,256	-200,000	-0,029	0,172
-177,242	-200,000	-0,012	-0,056
-176,227	12,750	0,105	0,057
-175,212	-200,000	-0,027	0,105
-174,198	125,604	-0,099	0,088
-173,183	-200,000	-0,024	-0,136
-172,169	-200,000	0,031	-0,161
-171,154	118,321	-0,035	0,030
-170,139	-31,585	0,135	0,053
-169,125	382,561	0,062	0,090
-168,110	-8,471	0,179	0,085
-167,096	39,972	-0,101	-0,064
-166,081	40,020	-0,093	0,059
-165,066	-59,829	0,060	-0,018
-164,052	19,017	-0,081	0,046
-163,037	33,666	0,074	-0,046
-162,023	-4,136	0,042	0,020
-161,008	353,750	0,126	0,178
-159,993	69,792	-0,044	0,032
-158,979	673,912	-0,039	0,073
-157,964	93,201	0,099	-0,079
-156,950	780,152	0,036	-0,071
-155,935	365,244	-0,036	0,051
-154,920	-108,220	-0,025	-0,004
-153,906	389,086	0,021	-0,032
-152,891	136,887	0,107	-0,099
-151,877	136,197	-0,041	-0,038
-150,862	50,847	-0,122	-0,081
-149,847	-200,000	-0,002	0,052
-148,833	383,699	0,013	-0,019
-147,818	474,066	0,059	0,095
-146,804	800,000	-0,051	-0,119
-145,789	-7,122	0,113	-0,054
-144,775	338,554	-0,088	-0,122
-143,760	142,543	-0,110	-0,103
-142,745	63,748	-0,052	-0,037
-141,731	294,698	-0,025	-0,033
-140,716	-200,000	-0,007	0,125
-139,702	134,365	0,036	0,034
-138,687	469,437	0,034	0,055
-137,672	52,797	-0,103	0,069
-136,658	286,888	-0,073	-0,094
-135,643	-105,113	0,084	0,014
-134,629	-170,986	-0,087	-0,002
-133,614	434,082	-0,018	0,028
-132,599	800,000	0,052	0,151
-131,585	30,169	0,071	0,043
-130,570	24,392	-0,138	0,080
-129,556	729,184	-0,005	0,010
-128,541	109,307	-0,039	-0,033
-127,526	-200,000	0,037	-0,168
-126,512	282,608	0,023	0,030
-125,497	800,000	0,090	0,219
-124,483	43,326	-0,059	-0,038
-123,468	-162,157	-0,144	0,005
-122,453	-200,000	0,025	-0,087
-121,439	169,896	0,114	-0,115
-120,424	57,024	0,081	-0,056
-119,410	-200,000	-0,007	-0,036
-118,395	800,000	0,059	0,182
-117,380	131,840	-0,041	0,037
-116,366	800,000	-0,035	-0,109
-115,351	800,000	0,037	-0,074
-114,337	800,000	-0,060	-0,126
-113,322	407,478	0,127	-0,191
-112,307	-120,934	-0,108	-0,013
-111,293	800,000	0,017	-0,035
-110,278	715,488	0,036	0,068
-109,264	800,000	0,045	0,100
-108,249	286,136	-0,020	0,025
-107,234	800,000	-0,038	0,095
-106,220	-200,000	-0,018	-0,067
-105,205	477,229	0,051	-0,082
-104,191	-84,340	0,112	0,025
-103,176	-25,769	0,190	-0,079
-102,162	-187,915	-0,073	0,001
-101,147	780,203	-0,028	0,055
-100,132	-165,833	-0,040	0,001
-99,118	454,072	0,045	-0,070
-98,103	716,698	-0,037	-0,069
-97,089	77,535	0,005	0,003
-96,074	178,584	-0,108	-0,112
-95,059	413,400	-0,009	-0,013
-94,045	-200,000	0,010	-0,107
-93,030	67,479	-0,061	0,044
-92,016	-110,137	0,050	0,007
-91,001	-52,409	0,148	0,048
-89,986	277,241	0,138	-0,173
-88,972	-200,000	-0,034	0,126
-87,957	-27,432	0,035	0,014
-86,943	-63,458	-0,095	-0,027
-85,928	-200,000	-0,034	-0,114
-84,913	36,853	-0,056	-0,035
-83,899	277,401	0,092	0,116
-82,884	310,808	0,010	0,013
-81,870	-200,000	0,010	-0,055
-80,855	-200,000	0,010	0,077
-79,840	-146,371	-0,060	-0,004
-78,826	78,080	-0,128	-0,096
-77,811	-174,937	-0,139	-0,003
-76,797	75,842	-0,027	0,020
-75,782	508,749	0,038	-0,062
-74,767	62,098	0,070	0,049
-73,753	-157,245	-0,190	0,008
-72,738	800,000	-0,066	-0,149
-71,724	-53,242	0,017	0,005
-70,709	551,540	-0,008	-0,014
-69,694	-26,744	0,065	-0,027
-68,680	-200,000	0,019	-0,100
-67,665	333,922	0,056	0,077
-66,651	-118,905	-0,162	0,020
-65,636	-120,148	-0,093	0,011
-64,622	800,000	-0,056	-0,113
-63,607	152,957	0,058	0,056
-62,592	-200,000	-0,009	0,049
-61,578	800,000	-0,013	0,034
-60,563	136,478	0,024	-0,022
-59,549	77,732	-0,051	-0,038
-58,534	40,569	-1,966	-1,248
-57,519	670,763	-1,138	-2,089
-56,505	-200,000	-0,308	-4,412
-55,490	507,552	0,900	1,480
-54,476	800,000	5,154	11,299
-53,461	-200,000	21,083	336,255
-52,446	800,000	757,927	2343,051
-51,432	555,508	1660,973	2832,303
-50,417	73,433	1661,408	1225,559
-49,403	18,140	1534,802	861,304
-48,388	12,132	1458,071	789,205
-47,373	19,221	1448,884	818,190
-46,359	15,504	1438,299	794,518
-45,344	10,413	1434,014	767,907
-44,330	10,364	1432,107	766,622
-43,315	10,378	1430,339	765,709
-42,300	10,343	1428,610	764,587
-41,286	10,379	1427,191	763,968
-40,271	10,332	1426,120	763,143
-39,257	10,297	1425,131	762,416
-38,242	10,357	1423,832	761,975
-37,227	10,366	1422,900	761,487
-36,213	10,361	1421,691	760,787
-35,198	10,375	1420,386	760,127
-34,184	10,397	1419,612	759,787
-33,169	10,368	1418,008	758,760
-32,154	10,451	1417,193	758,686
-31,140	10,396	1415,918	757,712
-30,125	10,456	1414,714	757,319
-29,111	10,429	1413,350	756,433
-28,096	10,384	1412,449	755,711
-27,082	10,366	1411,239	754,950
-26,067	10,347	1410,368	754,364
-25,052	10,362	1409,166	753,762
-24,038	10,320	1408,333	753,091
-23,023	10,325	1407,326	752,543
-22,009	10,357	1406,147	752,034
-20,994	10,357	1405,135	751,462
-19,979	10,311	1404,258	750,749
-18,965	10,319	1403,245	750,215
-17,950	10,274	1402,404	749,525
-16,936	10,306	1401,612	749,223
-15,921	10,212	1400,801	748,320
-14,906	10,226	1399,867	747,857
-13,892	10,256	1398,642	747,313
-12,877	10,274	1397,920	746,982
-11,863	10,245	1397,169	746,414
-10,848	10,205	1396,267	745,718
-9,833	10,206	1395,315	745,187
-8,819	10,175	1394,603	744,631
-7,804	10,148	1393,716	744,005
-6,790	10,142	1392,479	743,288
-5,775	10,173	1391,405	742,827
-4,760	10,182	1390,552	742,383
-3,746	10,191	1389,594	741,884
-2,731	10,188	1388,669	741,346
-1,717	10,143	1387,825	740,660
-0,702	10,174	1385,923	739,757
0,313	14,190	1299,214	711,840
1,327	30,402	690,134	414,850
2,342	47,362	119,409	78,298
3,356	-2,268	16,640	8,202
4,371	-0,778	3,507	1,746
5,386	-22,128	1,018	0,434
6,400	-200,000	0,170	0,574
7,415	-57,390	-0,259	-0,080
8,429	-78,477	-0,265	-0,063
9,444	-22,016	-0,374	-0,159
10,459	26,392	-0,340	-0,200
11,473	-39,259	-0,356	-0,131
12,488	103,414	-0,211	-0,174
13,502	-2,077	-0,426	-0,210
14,517	39,406	-0,191	-0,121
15,531	54,799	-0,394	-0,267
16,546	124,302	-0,250	-0,221
17,561	153,447	-0,324	-0,312
18,575	-26,377	-0,184	0,076
19,590	82,018	-0,306	-0,233
20,604	-61,355	-0,262	-0,077
21,619	108,640	-0,408	-0,343
22,634	-45,307	-0,513	-0,178
23,648	81,990	-0,423	-0,322
24,663	73,634	-0,325	-0,239
25,677	-76,209	-0,481	-0,118
26,692	191,957	-0,225	-0,239
27,707	-22,568	-0,403	-0,171
28,721	577,195	-0,170	-0,294
29,736	88,778	-0,516	-0,403
30,750	232,599	-0,328	-0,379
31,765	58,687	-0,331	-0,229
32,780	162,679	-0,310	-0,306
33,794	-35,138	-0,360	-0,137
34,809	169,719	-0,282	-0,284
35,823	131,516	-0,271	-0,245
36,838	192,977	-0,317	-0,337
37,853	-24,792	-0,368	-0,153
38,867	272,165	-0,354	-0,439
39,882	76,067	-0,310	-0,230
40,896	33,837	-0,382	-0,233
41,911	23,788	-0,287	-0,166
42,926	90,004	-0,341	-0,267
43,940	164,553	-0,377	-0,373
44,955	18,476	-0,355	-0,199
45,969	137,488	-0,383	-0,352
46,984	144,570	-0,325	-0,305
47,999	153,687	-0,355	-0,341
49,013	26,170	-0,381	-0,223
50,028	-14,933	-0,351	-0,158
51,042	208,478	-0,257	-0,282
52,057	145,046	-0,303	-0,285
53,071	173,667	-0,287	-0,291
54,086	37,388	-0,490	-0,304
55,101	48,329	-0,295	-0,194
56,115	-12,298	-0,190	-0,087
57,130	195,096	-0,315	-0,336
58,144	49,895	-0,434	-0,287
59,159	287,859	-0,324	-0,412
60,174	231,863	-0,263	-0,303
61,188	-29,930	-0,452	-0,180
62,203	-24,592	-0,311	-0,129
63,217	75,799	-0,386	-0,286
64,232	-15,673	-0,310	-0,138
65,247	124,822	-0,299	-0,264
66,261	-7,501	-0,499	-0,236
67,276	166,154	-0,294	-0,292
68,290	126,661	-0,243	-0,216
69,305	127,536	-0,267	-0,238
70,320	91,245	-0,241	-0,190
71,334	226,925	-0,330	-0,376
72,349	45,398	-0,294	-0,190
73,363	17,183	-0,494	-0,274
74,378	-16,431	-0,285	-0,126
75,393	50,437	-0,269	-0,178
76,407	65,797	-0,239	-0,169
77,422	-90,720	-0,342	-0,068
78,436	322,123	-0,186	-0,249
79,451	49,298	-0,287	-0,189
80,466	42,847	-0,315	-0,200
81,480	390,986	-0,196	-0,286
82,495	73,210	-0,335	-0,245
83,509	479,109	-0,210	-0,334
84,524	25,590	-0,356	-0,207
85,539	-8,916	-0,226	-0,106
86,553	28,461	-0,288	-0,170
87,568	149,510	-0,278	-0,263
88,582	231,745	-0,268	-0,307
89,597	71,333	-0,263	-0,190
90,611	-1,574	-0,295	-0,145
91,626	28,365	-0,186	-0,110
92,641	198,176	-0,225	-0,241
93,655	-11,138	-0,298	-0,137
94,670	47,297	-0,245	-0,159
95,684	44,055	-0,331	-0,212
96,699	800,000	-0,083	-0,200
97,714	40,077	-0,287	-0,180
98,728	-13,187	-0,312	-0,141
99,743	26,525	-0,228	-0,133
100,757	81,134	-0,169	-0,128
101,772	212,648	-0,189	-0,209
102,787	69,911	-0,338	-0,244
103,801	36,621	-0,352	-0,217
104,816	98,541	-0,209	-0,168
105,830	184,858	-0,264	-0,273
106,845	-31,820	-0,238	-0,093
107,860	359,094	-0,186	-0,260
108,874	-2,598	-0,291	-0,142
109,889	22,490	-0,208	-0,118
110,903	-61,973	-0,371	-0,107
111,918	125,817	-0,226	-0,200
112,933	27,743	-0,233	-0,137
113,947	-49,127	-0,153	-0,051
114,962	38,387	-0,224	-0,139
115,976	16,151	-0,396	-0,217
116,991	81,790	-0,221	-0,167
118,006	54,895	-0,343	-0,231
119,020	-128,289	-0,147	-0,014
120,035	-119,728	-0,323	-0,038
121,049	-145,221	-0,278	-0,017
122,064	-64,300	-0,324	-0,091
123,079	12,683	-0,254	-0,136
124,093	445,384	-0,142	-0,219
125,108	-19,265	-0,309	-0,133
126,122	-87,640	-0,248	0,052
127,137	216,979	-0,155	-0,173
128,151	-30,202	-0,263	-0,104
129,166	139,830	-0,163	-0,150
130,181	280,169	-0,147	-0,183
131,195	155,331	-0,227	-0,218
132,210	106,493	-0,350	-0,289
133,224	163,243	-0,225	-0,220
134,239	261,894	-0,230	-0,278
135,254	-87,593	-0,358	-0,075
136,268	66,208	-0,169	-0,120
137,283	-59,173	-0,251	-0,075
138,297	65,804	-0,195	-0,138
139,312	156,411	-0,174	-0,168
140,327	123,847	-0,244	-0,213
141,341	30,082	-0,342	-0,203
142,356	235,831	-0,236	-0,272
143,370	3,116	-0,238	-0,120
144,385	800,000	-0,069	-0,201
145,400	20,156	-0,410	-0,230
146,414	126,623	-0,234	-0,206
147,429	780,236	-0,174	-0,333
148,443	197,011	-0,226	-0,240
149,458	354,270	-0,115	-0,159
150,473	173,464	-0,166	-0,167
151,487	120,687	-0,221	-0,191
152,502	-77,980	-0,291	-0,069
153,516	47,100	-0,175	-0,113
154,531	25,798	-0,288	-0,166
155,546	-9,042	-0,268	-0,124
156,560	44,445	-0,235	-0,150
157,575	217,346	-0,162	-0,180
158,589	20,796	-0,220	-0,123
159,604	94,588	-0,223	-0,176
160,619	-37,696	-0,143	-0,053
161,633	-48,266	-0,206	-0,069
162,648	385,647	-0,259	-0,372
163,662	-8,704	-0,188	-0,087
164,677	139,970	-0,111	-0,102
165,692	274,547	-0,163	-0,201
166,706	195,709	-0,230	-0,244
167,721	-36,575	-0,247	-0,092
168,735	800,000	-0,099	-0,205
169,750	587,995	-0,109	-0,187
170,764	52,751	-0,223	-0,148
171,779	283,062	-0,117	-0,146
172,794	443,247	-0,177	-0,270
173,808	-131,291	-0,263	-0,024
174,823	121,403	-0,217	-0,188
175,837	12,558	-0,280	-0,150
176,852	51,757	-0,233	-0,153
177,867	170,285	-0,235	-0,233
178,881	-100,965	-0,192	-0,032
179,896	43,572	-0,234	-0,148
180,910	199,349	-0,174	-0,185
181,925	-1,339	-0,325	-0,159
182,940	57,018	-0,204	-0,138
183,954	67,564	-0,249	-0,176
184,969	403,324	-0,181	-0,265
185,983	2,900	-0,103	-0,052
186,998	-41,501	-0,274	-0,097
188,013	9,273	-0,195	-0,102
189,027	60,494	-0,269	-0,185
190,042	9,455	-0,200	-0,105
191,056	123,490	-0,268	-0,233
192,071	618,690	-0,155	-0,271
193,086	56,353	-0,206	-0,139
194,100	-43,586	-0,140	-0,049
195,115	5,892	-0,264	-0,135
196,129	113,291	-0,190	-0,160
197,144	39,829	-0,205	-0,128
198,159	218,926	-0,106	-0,118
199,173	121,984	-0,251	-0,217
200,188	-86,695	-0,111	-0,023
201,202	102,075	-0,169	-0,136
202,217	39,606	-0,170	-0,106
203,232	-31,402	-0,193	-0,075
204,246	140,959	-0,232	-0,213
205,261	135,839	-0,196	-0,177
206,275	12,009	-0,225	-0,119
207,290	75,831	-0,157	-0,115
208,304	192,883	-0,153	-0,160
209,319	277,264	-0,070	-0,086
210,334	-12,154	-0,312	-0,141
211,348	1,396	-0,275	-0,137
212,363	123,116	-0,224	-0,195
213,377	9,263	-0,199	-0,104
214,392	786,986	-0,115	-0,220
215,407	63,684	-0,241	-0,167
216,421	164,782	-0,148	-0,144
217,436	21,016	-0,303	-0,170
218,450	-105,157	-0,281	0,044
219,465	-1,497	-0,277	-0,135
220,480	16,159	-0,235	-0,128
221,494	79,150	-0,117	-0,086
222,509	-157,016	-0,159	-0,007
223,523	56,408	-0,139	-0,093
224,538	96,213	-0,128	-0,101
225,553	192,419	-0,238	-0,249
226,567	208,825	-0,245	-0,265
227,582	-200,000	-0,038	-0,154
228,596	104,775	-0,187	-0,152
229,611	-82,708	-0,230	-0,051
230,626	38,639	-0,137	-0,085
231,640	-10,674	-0,192	-0,087
232,655	190,151	-0,186	-0,194
233,669	178,529	-0,228	-0,230
234,684	74,885	-0,219	-0,159
235,699	-89,467	-0,239	-0,048
236,713	-107,615	-0,225	-0,034
237,728	800,000	-0,077	-0,161
238,742	133,872	-0,180	-0,161
239,757	343,945	-0,123	-0,167
240,772	29,137	-0,072	-0,042
241,786	573,695	-0,182	-0,307
242,801	513,265	-0,102	-0,165
243,815	800,000	-0,097	-0,218
244,830	287,003	-0,134	-0,167
245,844	-3,796	-0,209	-0,100
246,859	99,718	-0,191	-0,152
247,874	800,000	-0,116	-0,273
248,888	71,786	-0,187	-0,134
249,903	178,031	-0,124	-0,125
250,917	-132,686	-0,226	-0,020
251,932	-142,504	-0,154	0,010
252,947	203,226	-0,177	-0,189
253,961	-60,568	-0,137	-0,040
254,976	285,772	-0,131	-0,163
255,990	140,559	-0,122	-0,111
257,005	-53,214	-0,223	-0,070
258,020	-89,203	-0,181	-0,036
259,034	464,562	-0,124	-0,192
260,049	0,842	-0,086	0,042
261,063	148,101	-0,132	-0,123
262,078	28,477	-0,200	-0,116
263,093	75,402	-0,239	-0,173
264,107	150,906	-0,204	-0,191
265,122	411,736	-0,149	-0,218
266,136	37,688	-0,176	-0,108
267,151	800,000	-0,043	-0,106
268,166	-111,940	-0,201	0,028
269,180	284,670	-0,106	-0,132
270,195	67,235	-0,275	-0,193
271,209	-117,498	-0,214	-0,026
272,224	7,280	-0,177	-0,091
273,239	-60,219	-0,230	-0,067
274,253	-92,481	-0,172	-0,033
275,268	174,262	-0,127	-0,127
276,282	423,814	-0,165	-0,245
277,297	87,059	-0,162	-0,123
278,312	295,054	-0,117	-0,148
279,326	-2,805	-0,102	-0,049
280,341	494,323	-0,051	-0,081
281,355	800,000	-0,091	-0,192
282,370	270,236	-0,191	-0,232
283,384	225,414	-0,171	-0,191
284,399	785,447	-0,127	-0,242
285,414	223,309	-0,130	-0,145
286,428	222,500	-0,149	-0,165
287,443	44,261	-0,238	-0,150
288,457	89,442	-0,217	-0,166
289,472	32,588	-0,143	-0,085
290,487	710,655	-0,117	-0,214
291,501	24,309	-0,183	-0,104
292,516	283,294	-0,096	-0,119
293,530	-200,000	-0,006	-0,202
294,545	-19,423	-0,078	-0,033
295,560	-119,288	-0,217	-0,026
296,574	-27,548	-0,129	-0,051
297,589	209,960	-0,157	-0,170
298,603	-200,000	-0,007	-0,031
299,618	169,592	-0,093	-0,091
300,633	178,960	-0,120	-0,120
301,647	262,566	-0,053	-0,063
302,662	49,533	-0,203	-0,131
303,676	614,601	-0,067	-0,116
304,691	91,454	-0,190	-0,146
305,706	-107,212	-0,142	-0,021
306,720	231,645	-0,074	-0,084
307,735	629,116	-0,108	-0,187
308,749	800,000	-0,081	-0,183
309,764	-84,949	-0,216	-0,046
310,779	-100,330	-0,153	-0,026
311,793	116,167	-0,161	-0,135
312,808	302,012	-0,157	-0,200
313,822	-3,569	-0,213	-0,101
314,837	-89,258	-0,117	-0,024
315,852	-132,557	-0,076	-0,007
316,866	-200,000	-0,010	-0,078
317,881	-141,526	-0,185	-0,013
318,895	-57,818	-0,070	-0,021
319,910	94,887	-0,175	-0,137
320,925	332,043	-0,112	-0,148
321,939	120,527	-0,157	-0,134
322,954	4,105	-0,090	-0,045
323,968	504,717	-0,024	-0,039
324,983	-3,202	0,064	0,030
325,997	-75,010	-0,058	0,014
327,012	800,000	-0,108	-0,216
328,027	240,442	-0,083	0,095
329,041	398,010	-0,096	-0,138
330,056	-89,826	-0,138	0,027
331,070	-7,522	-0,126	0,058
332,085	241,046	-0,097	-0,111
333,100	65,004	-0,207	-0,143
334,114	-94,337	-0,179	-0,033
335,129	-200,000	-0,070	-0,280
336,143	-72,368	-0,110	-0,028
337,158	-200,000	-0,004	-0,070
338,173	15,959	-0,145	-0,078
339,187	-109,667	-0,154	-0,022
340,202	-80,321	-0,129	-0,029
341,216	-115,843	-0,271	-0,034
342,231	197,872	-0,193	-0,202
343,246	191,481	-0,198	-0,204
344,260	-200,000	-0,060	-0,207
345,275	18,748	-0,028	0,015
346,289	-200,000	0,002	0,070
347,304	609,064	-0,142	-0,244
348,319	-89,200	-0,124	-0,025
349,333	356,393	-0,100	-0,137
350,348	-36,841	-0,111	-0,040
351,362	574,809	-0,104	-0,175
352,377	-80,632	-0,050	-0,011
353,392	-200,000	-0,065	-0,211
354,406	-200,000	-0,017	-0,123
355,421	207,666	1306,094	1395,440
356,435	159,767	1465,723	1395,924
