DTS Sentinel unit serial number:	SN410029Multiplexer serial number:	ORYXHardware model number:	OX2-SRSoftware version number:	ORYX F/W v4,00 Oryx Data Collector v3.7.2.0data status	okinstallation	B3 Nyhavnadifferential loss correction	single-endedforward channel	channel 1reverse channel	N/Adate	2023/11/30time	08:42:30forward acquisition time	300,00reverse acquisition time	0,00gamma	499,1914k internal	0,3213k external	0,3213temperature offset calibration	1,0000default loss term (dB/km)	0,3820temperature slope calibration	1,0000multiplexer offset coefficient	1,0000multiplexer slope coefficient	1,0000fibre end	0,00T internal ref (°C)	9,40T ext. ref 1 (°C)	-5,29T ext. ref 2 (°C)	-5,37length (m)	temperature (°C)	Stokes	anti-Stokes-744,400	188,556	-0,212	-0,230
-743,385	-200,000	-0,017	0,270
-742,371	43,494	-0,320	-0,211
-741,356	-200,000	-0,090	0,357
-740,342	-200,000	-0,049	-0,318
-739,327	-200,000	-0,013	0,233
-738,312	202,400	-0,231	-0,259
-737,298	800,000	0,105	0,247
-736,283	-200,000	-0,029	-0,159
-735,269	-200,000	-0,038	0,306
-734,254	-200,000	-0,095	-0,309
-733,239	-9,283	-0,205	0,099
-732,225	175,943	-0,214	-0,225
-731,210	-26,498	0,079	0,034
-730,196	114,550	-0,088	-0,078
-729,181	-138,804	0,138	0,011
-728,167	-67,929	-0,027	0,008
-727,152	-107,771	-0,103	-0,016
-726,137	-78,964	0,193	0,047
-725,123	154,231	-0,069	0,068
-724,108	45,618	0,102	-0,068
-723,094	-44,675	-0,162	-0,058
-722,079	-200,000	-0,022	-0,156
-721,064	26,497	0,094	-0,057
-720,050	-28,630	-0,093	-0,039
-719,035	-176,200	-0,060	0,001
-718,021	-7,824	0,049	0,024
-717,006	-200,000	-0,041	-0,132
-715,991	-200,000	-0,017	-0,137
-714,977	800,000	-0,034	0,089
-713,962	181,233	0,074	-0,079
-712,948	800,000	-0,041	0,097
-711,933	42,467	-0,107	0,070
-710,918	-32,198	-0,167	0,067
-709,904	-200,000	-0,005	-0,123
-708,889	89,386	-0,081	0,065
-707,875	800,000	-0,048	-0,121
-706,860	800,000	0,039	-0,087
-705,845	-11,732	0,119	0,056
-704,831	39,949	-0,074	0,048
-703,816	800,000	-0,027	0,085
-702,802	716,208	-0,046	0,089
-701,787	-176,425	0,105	0,002
-700,772	800,000	-0,037	0,078
-699,758	32,571	-0,129	0,080
-698,743	33,609	0,094	0,059
-697,729	-137,359	-0,072	0,006
-696,714	-104,959	0,149	0,025
-695,699	3,482	-0,081	0,043
-694,685	158,494	-0,044	-0,044
-693,670	-200,000	-0,001	-0,145
-692,656	155,847	0,037	0,037
-691,641	319,846	-0,112	0,154
-690,627	110,656	0,073	0,063
-689,612	800,000	0,039	0,121
-688,597	-40,837	0,103	-0,039
-687,583	800,000	-0,050	-0,123
-686,568	-200,000	0,009	-0,146
-685,554	563,160	-0,016	0,028
-684,539	-52,444	-0,069	-0,023
-683,524	187,482	0,070	-0,075
-682,510	128,698	-0,128	0,118
-681,495	103,301	0,059	0,050
-680,481	276,621	-0,112	-0,144
-679,466	-200,000	-0,009	0,040
-678,451	583,185	-0,025	-0,044
-677,437	272,768	-0,092	-0,117
-676,422	800,000	0,034	0,074
-675,408	800,000	0,113	0,247
-674,393	135,216	0,101	-0,095
-673,378	800,000	-0,052	-0,107
-672,364	800,000	0,023	-0,067
-671,349	800,000	0,035	-0,089
-670,335	-21,158	-0,031	0,014
-669,320	251,688	-0,027	0,033
-668,305	95,971	0,018	0,015
-667,291	-51,052	-0,028	-0,009
-666,276	-200,000	0,037	-0,162
-665,262	564,939	0,028	-0,049
-664,247	-200,000	-0,011	0,051
-663,232	-116,455	0,117	0,015
-662,218	239,517	0,106	0,128
-661,203	-53,272	0,127	0,042
-660,189	254,532	-0,033	-0,041
-659,174	68,338	-0,133	-0,098
-658,159	223,257	-0,112	0,130
-657,145	-122,528	-0,160	0,019
-656,130	-200,000	0,010	-0,055
-655,116	-47,589	0,081	-0,028
-654,101	791,760	0,068	0,136
-653,086	72,996	-0,051	-0,038
-652,072	351,071	0,035	-0,051
-651,057	57,907	-0,086	-0,061
-650,043	337,920	-0,064	-0,090
-649,028	199,849	0,065	-0,072
-648,014	-200,000	-0,015	0,049
-646,999	800,000	-0,031	0,082
-645,984	1,469	-0,063	-0,033
-644,970	-71,546	0,114	-0,031
-643,955	800,000	0,025	-0,059
-642,941	-110,360	-0,118	0,017
-641,926	-200,000	-0,028	-0,097
-640,911	110,207	-0,041	-0,035
-639,897	-28,103	0,022	0,009
-638,882	-200,000	0,012	-0,153
-637,868	26,969	-0,068	-0,041
-636,853	-200,000	-0,011	-0,115
-635,838	70,276	-0,182	0,135
-634,824	116,161	0,105	-0,093
-633,809	202,762	0,089	0,100
-632,795	-76,915	0,084	-0,021
-631,780	7,001	0,033	-0,018
-630,765	105,550	0,112	-0,095
-629,751	800,000	0,071	-0,167
-628,736	63,624	-0,060	-0,043
-627,722	38,991	-0,097	0,062
-626,707	-200,000	0,013	-0,131
-625,692	295,676	0,039	0,051
-624,678	-200,000	-0,007	0,046
-623,663	109,139	0,077	-0,066
-622,649	-200,000	-0,023	0,087
-621,634	180,153	-0,070	-0,074
-620,619	-200,000	0,010	-0,154
-619,605	182,291	-0,079	-0,084
-618,590	-200,000	0,004	0,078
-617,576	800,000	-0,017	0,041
-616,561	-200,000	0,034	0,142
-615,546	17,183	0,126	-0,072
-614,532	-200,000	0,012	0,077
-613,517	-200,000	-0,048	0,207
-612,503	399,766	-0,104	-0,158
-611,488	-179,912	-0,163	-0,002
-610,474	-200,000	-0,015	-0,075
-609,459	162,032	0,107	-0,108
-608,444	800,000	0,017	-0,033
-607,430	-14,785	-0,045	0,021
-606,415	-190,384	0,171	-0,001
-605,401	282,480	0,066	0,086
-604,386	-200,000	0,013	0,099
-603,371	528,410	-0,072	0,122
-602,357	100,560	0,016	-0,013
-601,342	583,800	-0,032	-0,057
-600,328	748,041	-0,046	-0,090
-599,313	-90,250	-0,069	0,014
-598,298	-92,923	-0,069	-0,014
-597,284	-200,000	-0,007	0,039
-596,269	800,000	-0,020	-0,052
-595,255	-200,000	-0,002	0,045
-594,240	112,518	0,058	0,050
-593,225	-42,793	0,097	0,035
-592,211	208,869	-0,074	-0,084
-591,196	263,510	0,054	0,068
-590,182	-95,884	-0,118	-0,022
-589,167	-200,000	0,029	0,132
-588,152	-66,178	-0,041	0,012
-587,138	158,411	0,067	0,067
-586,123	479,275	0,034	-0,056
-585,109	16,449	-0,060	-0,034
-584,094	-200,000	-0,013	0,075
-583,079	-200,000	0,017	0,076
-582,065	800,000	-0,017	-0,052
-581,050	380,252	0,019	-0,029
-580,036	520,331	-0,044	0,075
-579,021	771,858	-0,044	0,086
-578,006	800,000	-0,029	-0,064
-576,992	106,825	0,078	-0,067
-575,977	-200,000	0,006	-0,018
-574,963	-52,726	-0,085	-0,028
-573,948	800,000	0,045	-0,096
-572,934	-200,000	0,003	-0,024
-571,919	193,763	-0,103	-0,112
-570,904	800,000	-0,038	-0,089
-569,890	-78,984	-0,150	0,036
-568,875	462,818	-0,031	0,050
-567,861	73,319	-0,074	0,056
-566,846	-200,000	-0,008	-0,068
-565,831	800,000	0,012	-0,034
-564,817	800,000	-0,071	-0,152
-563,802	800,000	0,068	-0,211
-562,788	-72,665	0,080	-0,021
-561,773	800,000	-0,010	0,026
-560,758	25,192	0,086	-0,051
-559,744	-79,918	0,077	0,019
-558,729	422,241	0,055	0,085
-557,715	357,953	-0,081	0,116
-556,700	24,276	-0,065	0,039
-555,685	-27,664	-0,009	-0,004
-554,671	246,519	0,076	-0,092
-553,656	24,837	0,058	-0,034
-552,642	-151,383	0,073	-0,004
-551,627	-142,213	0,146	-0,010
-550,612	-119,821	-0,114	-0,014
-549,598	-200,000	-0,008	0,092
-548,583	-177,237	-0,098	-0,002
-547,569	475,277	0,108	0,176
-546,554	-200,000	0,004	0,064
-545,539	-74,700	-0,045	0,012
-544,525	-50,686	-0,042	0,014
-543,510	-47,187	-0,045	-0,016
-542,496	-200,000	-0,007	-0,084
-541,481	-76,418	-0,080	-0,020
-540,466	800,000	-0,026	0,062
-539,452	82,287	0,058	-0,045
-538,437	800,000	0,039	-0,093
-537,423	-59,423	-0,071	-0,022
-536,408	-62,394	0,066	-0,020
-535,393	-200,000	0,001	-0,031
-534,379	-41,016	-0,028	-0,010
-533,364	221,918	-0,065	-0,076
-532,350	-200,000	0,023	0,075
-531,335	-119,897	0,065	-0,008
-530,321	800,000	0,033	0,092
-529,306	528,745	-0,010	-0,017
-528,291	252,059	-0,040	-0,050
-527,277	-200,000	-0,020	0,089
-526,262	-79,157	0,065	-0,016
-525,248	-200,000	0,016	-0,075
-524,233	-88,339	0,149	-0,032
-523,218	-200,000	-0,032	0,175
-522,204	86,528	-0,019	0,015
-521,189	-46,559	-0,096	0,033
-520,175	-77,867	0,028	-0,007
-519,160	-103,265	-0,155	0,026
-518,145	-28,102	-0,074	0,031
-517,131	-200,000	0,015	0,098
-516,116	9,194	0,061	0,033
-515,102	-200,000	-0,026	0,116
-514,087	-119,623	0,079	-0,010
-513,072	-134,585	0,179	0,015
-512,058	-108,003	-0,078	0,012
-511,043	-200,000	0,008	-0,060
-510,029	800,000	0,084	0,256
-509,014	-72,024	0,054	0,014
-507,999	-83,100	-0,082	-0,019
-506,985	125,836	-0,009	0,008
-505,970	-200,000	0,001	-0,163
-504,956	332,252	0,030	-0,042
-503,941	709,247	-0,057	0,110
-502,926	-77,027	-0,098	0,024
-501,912	360,799	0,051	-0,074
-500,897	576,918	0,050	-0,088
-499,883	-124,353	0,034	-0,004
-498,868	-200,000	0,013	-0,060
-497,853	-200,000	0,049	-0,180
-496,839	-200,000	0,026	-0,123
-495,824	800,000	-0,023	0,066
-494,810	723,677	-0,012	-0,023
-493,795	-37,911	0,094	0,036
-492,781	-46,204	-0,035	0,012
-491,766	-109,582	-0,107	0,016
-490,751	-157,746	-0,154	0,006
-489,737	605,884	-0,046	-0,083
-488,722	250,483	-0,133	0,163
-487,708	-194,554	0,191	-0,001
-486,693	-200,000	0,014	0,240
-485,678	-48,031	0,042	0,015
-484,664	87,133	-0,115	-0,091
-483,649	376,384	-0,053	-0,078
-482,635	52,124	-0,055	-0,038
-481,620	80,484	0,084	-0,065
-480,605	149,342	0,059	-0,057
-479,591	403,303	0,031	-0,048
-478,576	800,000	-0,008	0,019
-477,562	63,853	0,051	-0,037
-476,547	171,957	-0,122	-0,126
-475,532	588,450	-0,033	0,058
-474,518	-200,000	-0,001	0,006
-473,503	294,073	-0,076	0,100
-472,489	-20,266	0,252	0,111
-471,474	170,072	-0,024	-0,025
-470,459	298,621	0,009	-0,012
-469,445	424,445	-0,044	-0,068
-468,430	-200,000	0,002	0,176
-467,416	-200,000	-0,036	-0,132
-466,401	645,617	0,024	-0,044
-465,386	800,000	-0,050	0,120
-464,372	-106,691	0,172	0,027
-463,357	-200,000	0,016	0,097
-462,343	562,846	-0,038	-0,067
-461,328	-79,850	0,025	0,006
-460,313	-59,963	0,081	0,025
-459,299	-200,000	0,008	0,162
-458,284	800,000	0,039	0,107
-457,270	129,422	0,046	0,042
-456,255	486,056	-0,088	-0,144
-455,241	-200,000	-0,024	-0,080
-454,226	-200,000	0,004	0,061
-453,211	-62,600	0,145	0,043
-452,197	-200,000	0,041	0,136
-451,182	-200,000	0,020	0,224
-450,168	-174,024	0,053	-0,001
-449,153	-35,411	-0,099	-0,039
-448,138	506,401	-0,034	0,056
-447,124	137,701	-0,032	-0,030
-446,109	-200,000	0,055	0,188
-445,095	800,000	-0,074	0,178
-444,080	-106,925	0,076	0,012
-443,065	-200,000	0,044	0,145
-442,051	800,000	0,039	0,078
-441,036	-200,000	0,024	0,086
-440,022	88,691	-0,063	-0,050
-439,007	800,000	-0,029	-0,090
-437,992	-125,604	0,118	0,013
-436,978	206,154	0,115	-0,129
-435,963	-40,674	-0,047	0,017
-434,949	800,000	-0,029	-0,061
-433,934	36,768	-0,043	-0,027
-432,919	-200,000	-0,001	-0,069
-431,905	800,000	0,034	-0,080
-430,890	-169,723	0,165	-0,004
-429,876	135,031	0,077	0,072
-428,861	71,610	0,092	-0,068
-427,846	-80,011	0,068	-0,016
-426,832	213,113	0,044	-0,050
-425,817	-200,000	-0,000	-0,083
-424,803	-106,158	-0,046	0,007
-423,788	-85,607	-0,083	-0,018
-422,773	-200,000	-0,013	0,079
-421,759	-125,664	0,088	0,009
-420,744	221,283	-0,044	-0,050
-419,730	800,000	-0,022	-0,061
-418,715	800,000	-0,027	-0,076
-417,701	-82,986	-0,111	-0,025
-416,686	-32,590	0,095	0,038
-415,671	479,964	-0,024	0,039
-414,657	800,000	-0,020	0,052
-413,642	6,618	0,026	-0,014
-412,628	36,004	0,106	-0,067
-411,613	48,613	-0,059	-0,039
-410,598	293,627	-0,088	0,115
-409,584	-200,000	0,007	0,030
-408,569	340,245	0,147	0,206
-407,555	349,696	0,032	0,045
-406,540	-75,472	-0,060	0,015
-405,525	-200,000	-0,036	-0,227
-404,511	270,789	-0,113	-0,143
-403,496	-13,367	-0,039	0,018
-402,482	-200,000	0,001	0,023
-401,467	-200,000	0,012	0,046
-400,452	-200,000	-0,004	-0,024
-399,438	-200,000	0,005	-0,020
-398,423	-200,000	0,005	-0,104
-397,409	800,000	0,018	-0,050
-396,394	-54,557	-0,047	0,015
-395,379	800,000	0,059	-0,164
-394,365	-130,917	0,086	0,008
-393,350	22,381	-0,119	0,070
-392,336	388,117	-0,020	-0,029
-391,321	5,050	0,071	0,037
-390,306	-200,000	-0,008	0,037
-389,292	-200,000	-0,000	-0,116
-388,277	3,308	-0,083	-0,043
-387,263	800,000	0,042	-0,106
-386,248	-200,000	0,008	-0,039
-385,233	-30,193	0,078	-0,032
-384,219	281,964	-0,004	-0,005
-383,204	251,411	0,015	-0,018
-382,190	284,268	-0,063	-0,081
-381,175	466,318	0,040	-0,064
-380,160	-200,000	0,014	-0,047
-379,146	302,577	0,043	0,057
-378,131	-200,000	-0,001	0,087
-377,117	282,125	-0,072	0,092
-376,102	-26,599	-0,016	0,007
-375,088	-200,000	0,040	-0,151
-374,073	96,415	-0,082	-0,067
-373,058	-17,246	0,101	-0,045
-372,044	-75,633	0,114	-0,029
-371,029	17,582	-0,083	0,047
-370,015	-46,747	-0,109	-0,038
-369,000	-200,000	-0,001	-0,022
-367,985	-72,742	-0,051	0,013
-366,971	-70,285	-0,152	-0,041
-365,956	-200,000	-0,012	-0,069
-364,942	-200,000	-0,016	0,101
-363,927	800,000	-0,009	-0,024
-362,912	-61,395	0,113	-0,034
-361,898	85,108	0,057	0,045
-360,883	-200,000	-0,013	-0,066
-359,869	-200,000	-0,002	-0,132
-358,854	-200,000	-0,020	0,114
-357,839	-200,000	0,021	0,111
-356,825	159,657	0,048	-0,048
-355,810	-156,774	0,029	-0,001
-354,796	96,253	-0,071	-0,058
-353,781	124,898	-0,076	-0,068
-352,766	-6,801	0,182	-0,088
-351,752	229,496	-0,057	-0,066
-350,737	131,902	-0,034	0,031
-349,723	-9,789	0,066	0,031
-348,708	456,455	-0,027	0,043
-347,693	302,015	0,013	0,017
-346,679	109,093	-0,052	0,044
-345,664	-200,000	0,001	-0,105
-344,650	-85,665	0,191	0,042
-343,635	480,175	-0,086	-0,139
-342,620	800,000	0,047	-0,093
-341,606	53,118	-0,061	0,042
-340,591	800,000	-0,049	-0,103
-339,577	318,495	-0,047	-0,064
-338,562	-200,000	0,008	-0,050
-337,548	800,000	-0,066	0,145
-336,533	-200,000	-0,012	-0,059
-335,518	800,000	0,066	-0,133
-334,504	-200,000	0,003	0,048
-333,489	179,096	-0,035	0,037
-332,475	-200,000	0,007	-0,099
-331,460	-200,000	-0,009	-0,119
-330,445	-200,000	0,025	0,114
-329,431	-200,000	0,005	-0,155
-328,416	644,857	-0,018	0,032
-327,402	510,136	0,045	0,075
-326,387	2,054	0,019	-0,010
-325,372	45,369	-0,164	-0,107
-324,358	-55,577	0,024	0,008
-323,343	800,000	0,008	0,022
-322,329	-200,000	-0,028	0,095
-321,314	-17,088	0,172	0,077
-320,299	667,250	-0,030	-0,055
-319,285	693,906	0,067	0,126
-318,270	189,520	-0,084	0,090
-317,256	-107,633	0,121	0,019
-316,241	225,254	-0,070	-0,081
-315,226	115,320	-0,077	0,067
-314,212	291,411	0,114	-0,148
-313,197	800,000	0,086	0,214
-312,183	-22,408	0,107	0,046
-311,168	67,167	-0,068	-0,049
-310,153	-31,052	-0,077	0,031
-309,139	-61,634	0,072	0,021
-308,124	-200,000	-0,016	0,087
-307,110	-70,407	0,141	-0,038
-306,095	788,664	-0,056	0,111
-305,080	458,610	-0,044	0,071
-304,066	8,027	-0,115	-0,061
-303,051	-82,846	-0,078	-0,018
-302,037	147,864	-0,056	-0,054
-301,022	616,337	-0,011	-0,020
-300,008	792,711	0,052	0,103
-298,993	109,978	0,080	0,068
-297,978	-200,000	-0,013	-0,126
-296,964	136,748	0,129	-0,120
-295,949	16,591	-0,105	0,059
-294,935	441,602	0,049	0,077
-293,920	-40,057	0,152	0,056
-292,905	611,667	0,100	0,180
-291,891	-200,000	-0,007	0,146
-290,876	-200,000	-0,004	-0,121
-289,862	-87,221	-0,048	-0,010
-288,847	-200,000	-0,005	-0,017
-287,832	215,713	0,055	-0,063
-286,818	-109,049	-0,154	0,023
-285,803	-89,322	0,133	-0,028
-284,789	-54,421	0,150	0,048
-283,774	654,182	-0,007	0,012
-282,759	354,445	-0,042	-0,059
-281,745	242,278	0,021	0,025
-280,730	234,019	-0,113	-0,132
-279,716	400,603	0,044	0,066
-278,701	800,000	0,036	0,075
-277,686	210,204	0,129	0,144
-276,672	117,102	0,052	0,046
-275,657	670,967	0,059	0,109
-274,643	28,624	-0,100	0,060
-273,628	-200,000	-0,008	-0,060
-272,613	-200,000	-0,011	-0,037
-271,599	330,146	-0,093	0,128
-270,584	-200,000	0,041	0,178
-269,570	-50,796	0,103	0,034
-268,555	-170,277	-0,122	-0,003
-267,540	-200,000	-0,003	0,025
-266,526	-114,799	0,064	-0,009
-265,511	-200,000	0,025	0,089
-264,497	201,904	0,027	0,029
-263,482	4,397	0,033	0,017
-262,467	-48,053	0,183	-0,063
-261,453	-76,077	-0,084	-0,021
-260,438	-47,163	0,026	-0,009
-259,424	800,000	0,023	0,054
-258,409	-121,964	-0,057	0,007
-257,395	800,000	-0,064	0,145
-256,380	-36,599	0,053	0,020
-255,365	140,788	-0,033	0,031
-254,351	-18,994	-0,033	0,014
-253,336	11,003	-0,082	0,044
-252,322	213,809	-0,029	0,032
-251,307	-160,153	-0,042	0,002
-250,292	2,965	-0,068	0,035
-249,278	215,681	0,021	0,024
-248,263	-200,000	0,033	0,111
-247,249	-51,134	-0,089	-0,029
-246,234	-147,000	0,081	0,005
-245,219	-182,335	-0,026	-0,000
-244,205	-162,177	-0,044	0,002
-243,190	25,518	-0,068	0,040
-242,176	171,457	-0,033	0,034
-241,161	-66,341	0,046	0,013
-240,146	800,000	-0,024	0,048
-239,132	-200,000	-0,011	0,175
-238,117	26,440	-0,077	-0,045
-237,103	341,856	0,032	0,045
-236,088	484,367	-0,051	-0,083
-235,073	-136,332	0,007	-0,001
-234,059	10,024	-0,083	0,045
-233,044	304,429	-0,110	0,145
-232,030	800,000	0,037	-0,095
-231,015	206,635	-0,029	-0,032
-230,000	222,929	-0,038	0,043
-228,986	417,677	-0,012	-0,018
-227,971	-23,599	0,078	-0,033
-226,957	-174,217	0,033	-0,001
-225,942	-135,788	0,051	-0,004
-224,927	-123,585	-0,070	-0,008
-223,913	-200,000	0,087	0,000
-222,898	149,466	0,073	-0,070
-221,884	-63,687	-0,104	-0,030
-220,869	800,000	-0,005	0,012
-219,855	-200,000	-0,012	0,064
-218,840	800,000	0,077	0,209
-217,825	47,534	0,062	-0,041
-216,811	210,316	-0,070	-0,079
-215,796	-117,036	-0,075	0,010
-214,782	116,231	0,052	0,045
-213,767	15,985	-0,132	0,074
-212,752	19,390	0,142	0,081
-211,738	-200,000	0,002	-0,178
-210,723	-200,000	0,009	0,069
-209,709	166,924	0,015	0,015
-208,694	-42,164	-0,035	-0,013
-207,679	-38,382	-0,037	-0,014
-206,665	539,106	0,090	-0,152
-205,650	0,061	-0,089	0,045
-204,636	-66,104	0,051	-0,014
-203,621	-83,178	-0,113	0,026
-202,606	800,000	0,061	-0,172
-201,592	6,334	-0,014	-0,008
-200,577	-111,418	-0,123	-0,018
-199,563	-200,000	-0,006	-0,059
-198,548	34,676	0,186	0,115
-197,533	-26,187	0,121	-0,050
-196,519	-24,717	0,075	0,032
-195,504	261,587	-0,034	-0,041
-194,490	57,554	-0,138	-0,095
-193,475	-200,000	-0,016	0,158
-192,460	-29,935	-0,109	-0,044
-191,446	210,186	0,112	-0,124
-190,431	41,285	-0,040	-0,026
-189,417	-200,000	0,001	-0,032
-188,402	476,019	-0,027	-0,043
-187,387	-62,142	-0,103	-0,030
-186,373	-200,000	0,010	-0,098
-185,358	800,000	0,016	0,048
-184,344	352,605	0,035	-0,049
-183,329	-200,000	-0,018	0,100
-182,315	-200,000	0,003	-0,032
-181,300	14,809	-0,075	-0,042
-180,285	99,657	0,006	-0,005
-179,271	800,000	0,021	-0,056
-178,256	-200,000	0,027	-0,091
-177,242	-200,000	-0,002	0,083
-176,227	-45,164	0,164	-0,058
-175,212	-200,000	0,000	0,036
-174,198	11,235	-0,074	-0,040
-173,183	-200,000	0,006	-0,177
-172,169	300,082	-0,101	-0,133
-171,154	40,481	0,061	0,039
-170,139	-23,694	-0,062	-0,026
-169,125	-200,000	0,003	-0,014
-168,110	-200,000	-0,027	0,126
-167,096	622,812	0,028	-0,050
-166,081	116,233	-0,125	-0,109
-165,066	93,746	-0,122	-0,098
-164,052	-200,000	0,013	0,130
-163,037	156,154	0,077	0,075
-162,023	-128,688	-0,106	-0,010
-161,008	800,000	0,060	0,156
-159,993	-69,425	0,109	0,029
-158,979	-85,853	-0,140	-0,030
-157,964	341,662	-0,052	0,072
-156,950	264,408	-0,075	-0,092
-155,935	-41,106	-0,082	0,030
-154,920	469,581	0,027	-0,043
-153,906	-200,000	0,005	0,105
-152,891	161,645	0,045	-0,044
-151,877	-200,000	0,036	-0,121
-150,862	608,479	0,072	0,128
-149,847	56,624	-0,117	-0,081
-148,833	475,074	0,053	0,086
-147,818	800,000	0,006	0,019
-146,804	-138,182	0,103	-0,008
-145,789	324,361	-0,052	0,070
-144,775	800,000	0,042	-0,111
-143,760	335,149	-0,129	-0,177
-142,745	-200,000	-0,003	0,088
-141,731	-200,000	-0,007	-0,037
-140,716	-200,000	-0,017	-0,052
-139,702	-9,697	-0,085	0,040
-138,687	-200,000	-0,018	0,075
-137,672	-200,000	-0,001	0,061
-136,658	-64,980	-0,145	0,041
-135,643	-55,203	-0,040	-0,013
-134,629	56,109	0,129	-0,088
-133,614	-98,481	-0,058	0,010
-132,599	128,250	0,104	0,094
-131,585	800,000	0,057	-0,162
-130,570	287,869	0,068	-0,087
-129,556	-66,156	-0,072	-0,020
-128,541	236,424	-0,031	-0,037
-127,526	-200,000	-0,003	0,051
-126,512	232,376	0,075	0,088
-125,497	-200,000	0,028	0,124
-124,483	-74,364	-0,040	-0,010
-123,468	279,747	-0,157	0,199
-122,453	-200,000	-0,015	0,179
-121,439	800,000	-0,031	0,071
-120,424	638,219	0,019	0,035
-119,410	38,508	0,066	-0,042
-118,395	238,393	-0,055	0,064
-117,380	151,522	-0,055	-0,053
-116,366	-85,401	-0,126	0,027
-115,351	-200,000	-0,008	0,054
-114,337	-107,813	-0,179	-0,027
-113,322	-200,000	0,018	-0,141
-112,307	20,003	0,122	-0,070
-111,293	-200,000	0,032	0,103
-110,278	586,539	-0,076	0,133
-109,264	800,000	0,036	0,081
-108,249	-200,000	-0,000	-0,110
-107,234	-30,824	-0,120	0,048
-106,220	-46,522	-0,039	-0,013
-105,205	620,547	0,086	-0,153
-104,191	322,272	-0,077	0,104
-103,176	73,583	0,124	0,092
-102,162	-93,330	-0,164	-0,032
-101,147	800,000	0,044	-0,106
-100,132	132,846	0,118	0,108
-99,118	60,539	-0,125	0,087
-98,103	104,601	0,063	-0,052
-97,089	378,510	-0,156	0,226
-96,074	-63,679	0,040	0,011
-95,059	-33,270	-0,053	-0,021
-94,045	19,673	0,039	0,022
-93,030	121,731	-0,095	-0,083
-92,016	-70,120	-0,103	0,027
-91,001	-200,000	0,027	-0,114
-89,986	-200,000	-0,015	0,089
-88,972	154,309	-0,019	-0,019
-87,957	604,860	-0,062	0,109
-86,943	-200,000	-0,006	-0,216
-85,928	800,000	0,029	0,058
-84,913	800,000	0,016	-0,048
-83,899	800,000	0,019	0,040
-82,884	793,770	0,087	0,171
-81,870	-59,538	0,043	0,013
-80,855	800,000	-0,049	0,116
-79,840	-83,100	0,096	0,022
-78,826	800,000	0,033	0,078
-77,811	-36,731	-0,105	-0,040
-76,797	94,473	-0,046	0,036
-75,782	-92,000	0,085	-0,017
-74,767	-200,000	0,001	-0,028
-73,753	-200,000	-0,017	-0,096
-72,738	71,427	-0,069	0,050
-71,724	185,678	-0,048	0,051
-70,709	-200,000	0,012	-0,046
-69,694	-41,451	-0,177	0,064
-68,680	-64,079	0,084	-0,024
-67,665	84,299	-0,043	0,033
-66,651	490,146	0,061	0,099
-65,636	559,664	0,065	0,111
-64,622	1,189	-0,084	-0,042
-63,607	-52,471	-0,013	0,004
-62,592	-200,000	-0,005	0,036
-61,578	-35,261	0,131	-0,050
-60,563	135,558	0,060	0,055
-59,549	-27,149	0,103	0,042
-58,534	64,719	-1,915	-1,361
-57,519	537,793	-1,158	-1,948
-56,505	-200,000	-0,295	-4,307
-55,490	494,184	0,973	1,580
-54,476	800,000	5,171	11,300
-53,461	-200,000	21,662	344,236
-52,446	800,000	763,173	2341,288
-51,432	546,792	1662,268	2815,923
-50,417	71,398	1658,919	1213,144
-49,403	17,192	1532,289	854,945
-48,388	11,246	1456,114	783,725
-47,373	19,243	1447,808	817,542
-46,359	14,717	1436,640	789,723
-45,344	9,529	1432,722	762,867
-44,330	9,495	1430,670	761,582
-43,315	9,458	1428,844	760,405
-42,300	9,455	1427,256	759,514
-41,286	9,466	1426,043	758,893
-40,271	9,461	1424,708	758,127
-39,257	9,426	1423,519	757,297
-38,242	9,475	1422,638	757,031
-37,227	9,480	1421,532	756,438
-36,213	9,494	1420,032	755,675
-35,198	9,491	1418,732	754,939
-34,184	9,496	1418,130	754,611
-33,169	9,448	1416,696	753,594
-32,154	9,456	1415,740	753,092
-31,140	9,517	1414,192	752,526
-30,125	9,507	1413,198	751,921
-29,111	9,494	1412,075	751,233
-28,096	9,428	1411,013	750,326
-27,082	9,423	1409,693	749,572
-26,067	9,323	1408,853	748,627
-25,052	9,475	1407,509	748,596
-24,038	9,421	1406,758	747,911
-23,023	9,438	1405,844	747,475
-22,009	9,429	1404,636	746,764
-20,994	9,418	1403,644	746,153
-19,979	9,432	1402,580	745,623
-18,965	9,393	1401,626	744,907
-17,950	9,434	1400,816	744,636
-16,936	9,366	1399,920	743,817
-15,921	9,340	1399,109	743,231
-14,906	9,380	1397,970	742,786
-13,892	9,401	1397,097	742,389
-12,877	9,364	1396,322	741,775
-11,863	9,318	1395,715	741,211
-10,848	9,303	1394,547	740,490
-9,833	9,303	1393,502	739,906
-8,819	9,251	1392,805	739,269
-7,804	9,289	1391,726	738,842
-6,790	9,236	1390,725	738,036
-5,775	9,292	1389,456	737,590
-4,760	9,275	1388,745	737,108
-3,746	9,272	1387,888	736,609
-2,731	9,222	1387,125	735,943
-1,717	9,257	1386,169	735,566
-0,702	9,272	1384,552	734,749
0,313	13,448	1296,684	707,138
1,327	29,909	687,443	412,056
2,342	46,585	118,832	77,611
3,356	0,088	16,602	8,312
4,371	-4,871	3,637	1,761
5,386	-12,801	1,278	0,584
6,400	800,000	0,274	0,684
7,415	-23,302	-0,251	-0,106
8,429	66,199	-0,276	-0,197
9,444	38,866	-0,344	-0,216
10,459	126,206	-0,264	-0,235
11,473	7,785	-0,226	-0,119
12,488	-160,077	-0,264	0,010
13,502	-22,445	-0,310	-0,131
14,517	241,247	-0,221	-0,261
15,531	77,797	-0,395	-0,296
16,546	123,425	-0,351	-0,310
17,561	17,824	-0,428	-0,239
18,575	205,786	-0,117	-0,128
19,590	53,923	-0,278	-0,188
20,604	10,167	-0,236	-0,126
21,619	48,036	-0,411	-0,270
22,634	72,413	-0,439	-0,322
23,648	54,272	-0,365	-0,247
24,663	126,673	-0,327	-0,291
25,677	5,841	-0,362	-0,188
26,692	-61,857	-0,313	-0,091
27,707	-45,566	-0,343	-0,119
28,721	12,925	-0,392	-0,212
29,736	49,251	-0,379	-0,250
30,750	33,407	-0,487	-0,297
31,765	91,522	-0,263	-0,207
32,780	117,510	-0,323	-0,279
33,794	297,288	-0,246	-0,319
34,809	-21,550	-0,423	-0,181
35,823	734,590	-0,226	-0,427
36,838	62,339	-0,363	-0,254
37,853	0,467	-0,476	-0,238
38,867	130,372	-0,439	-0,395
39,882	0,772	-0,373	-0,187
40,896	203,369	-0,289	-0,314
41,911	132,725	-0,326	-0,295
42,926	126,997	-0,303	-0,270
43,940	127,579	-0,402	-0,359
44,955	48,085	-0,388	-0,254
45,969	231,190	-0,231	-0,266
46,984	56,217	-0,326	-0,222
47,999	62,382	-0,379	-0,265
49,013	-38,622	-0,278	-0,103
50,028	87,305	-0,230	-0,178
51,042	-4,072	-0,332	-0,161
52,057	141,310	-0,244	-0,227
53,071	135,591	-0,290	-0,265
54,086	205,382	-0,302	-0,329
55,101	318,421	-0,230	-0,306
56,115	37,923	-0,306	-0,190
57,130	-27,369	-0,394	-0,160
58,144	27,615	-0,397	-0,234
59,159	197,508	-0,262	-0,281
60,174	67,766	-0,391	-0,280
61,188	16,187	-0,435	-0,240
62,203	110,084	-0,212	-0,179
63,217	95,100	-0,257	-0,205
64,232	-7,778	-0,331	-0,156
65,247	169,316	-0,309	-0,309
66,261	4,422	-0,506	-0,259
67,276	28,540	-0,480	-0,284
68,290	800,000	-0,152	-0,297
69,305	41,021	-0,289	-0,182
70,320	115,671	-0,258	-0,221
71,334	96,278	-0,290	-0,232
72,349	198,571	-0,246	-0,265
73,363	42,085	-0,360	-0,229
74,378	0,586	-0,433	-0,216
75,393	14,956	-0,335	-0,183
76,407	-65,660	-0,245	-0,068
77,422	106,890	-0,298	-0,248
78,436	40,864	-0,236	-0,149
79,451	295,758	-0,185	-0,237
80,466	581,214	-0,159	-0,275
81,480	215,230	-0,265	-0,295
82,495	-35,825	-0,282	-0,106
83,509	168,270	-0,194	-0,194
84,524	82,836	-0,270	-0,205
85,539	46,593	-0,221	-0,143
86,553	75,877	-0,319	-0,236
87,568	-61,142	-0,338	-0,099
88,582	-79,134	-0,278	-0,066
89,597	131,969	-0,295	-0,266
90,611	6,170	-0,365	-0,189
91,626	47,066	-0,237	-0,154
92,641	1,665	-0,348	-0,175
93,655	151,787	-0,259	-0,247
94,670	86,980	-0,176	-0,136
95,684	26,783	-0,319	-0,187
96,699	198,082	-0,148	-0,158
97,714	29,414	-0,350	-0,207
98,728	34,351	-0,284	-0,173
99,743	622,314	-0,180	-0,317
100,757	24,622	-0,197	-0,114
101,772	86,731	-0,219	-0,169
102,787	101,699	-0,305	-0,248
103,801	143,063	-0,236	-0,219
104,816	-6,513	-0,352	-0,167
105,830	38,633	-0,281	-0,175
106,845	-111,945	-0,169	-0,024
107,860	-162,989	-0,273	0,009
108,874	-35,261	-0,294	-0,111
109,889	24,056	-0,375	-0,216
110,903	33,497	-0,223	-0,135
111,918	-17,478	-0,230	-0,101
112,933	142,826	-0,197	-0,183
113,947	-77,795	-0,193	-0,046
114,962	40,378	-0,245	-0,154
115,976	-28,886	-0,267	-0,107
116,991	-13,625	-0,254	-0,114
118,006	126,066	-0,210	-0,185
119,020	-41,447	-0,301	-0,108
120,035	378,174	-0,165	-0,236
121,049	22,194	-0,222	-0,126
122,064	181,261	-0,180	-0,185
123,079	-81,918	-0,269	-0,061
124,093	7,591	-0,366	-0,190
125,108	124,786	-0,270	-0,237
126,122	233,656	-0,247	-0,284
127,137	97,015	-0,214	-0,171
128,151	247,196	-0,141	-0,167
129,166	800,000	-0,102	-0,202
130,181	800,000	-0,095	-0,193
131,195	-78,023	-0,265	-0,063
132,210	-10,310	-0,253	-0,117
133,224	253,321	-0,211	-0,252
134,239	-127,625	-0,183	-0,018
135,254	20,505	-0,314	-0,176
136,268	245,544	-0,143	-0,168
137,283	-28,897	-0,238	-0,095
138,297	328,087	-0,181	-0,243
139,312	800,000	-0,117	-0,299
140,327	697,516	-0,144	-0,265
141,341	251,138	-0,178	-0,211
142,356	55,829	-0,248	-0,167
143,370	186,999	-0,202	-0,210
144,385	-40,544	-0,306	-0,110
145,400	73,528	-0,230	-0,167
146,414	282,259	-0,210	-0,263
147,429	230,273	-0,177	-0,202
148,443	284,441	-0,175	-0,220
149,458	39,607	-0,169	-0,105
150,473	-26,210	-0,246	-0,100
151,487	2,673	-0,346	-0,174
152,502	25,642	-0,220	-0,127
153,516	182,049	-0,288	-0,295
154,531	18,880	-0,193	-0,107
155,546	55,514	-0,283	-0,190
156,560	295,699	-0,098	-0,125
157,575	166,607	-0,174	-0,172
158,589	71,658	-0,258	-0,186
159,604	-13,121	-0,311	-0,140
160,619	6,853	-0,305	-0,158
161,633	60,353	-0,260	-0,178
162,648	232,852	-0,214	-0,244
163,662	788,289	-0,118	-0,226
164,677	-82,189	-0,311	-0,070
165,692	179,927	-0,130	-0,132
166,706	194,465	-0,193	-0,203
167,721	800,000	-0,089	-0,194
168,735	138,121	-0,247	-0,225
169,750	53,208	-0,232	-0,154
170,764	-73,768	-0,258	-0,065
171,779	386,943	-0,074	-0,107
172,794	53,712	-0,256	-0,170
173,808	8,602	-0,242	-0,126
174,823	91,137	-0,209	-0,163
175,837	85,475	-0,364	-0,278
176,852	800,000	-0,100	-0,248
177,867	76,680	-0,195	-0,143
178,881	561,990	-0,128	-0,216
179,896	-50,763	-0,260	-0,084
180,910	552,804	-0,137	-0,229
181,925	-70,438	-0,344	-0,090
182,940	580,509	-0,204	-0,347
183,954	-120,828	-0,311	-0,036
184,969	242,418	-0,157	-0,183
185,983	-200,000	0,008	-0,165
186,998	32,888	-0,274	-0,164
188,013	292,234	-0,172	-0,217
189,027	247,704	-0,275	-0,322
190,042	31,389	-0,298	-0,177
191,056	268,070	-0,188	-0,229
192,071	393,516	-0,077	-0,112
193,086	800,000	-0,121	-0,292
194,100	239,981	-0,204	-0,236
195,115	129,964	-0,258	-0,228
196,129	-200,000	-0,054	-0,260
197,144	160,119	-0,295	-0,285
198,159	121,788	-0,191	-0,165
199,173	800,000	-0,089	-0,217
200,188	651,933	-0,077	-0,138
201,202	58,477	-0,131	-0,089
202,217	68,763	-0,318	-0,226
203,232	136,413	-0,187	-0,169
204,246	349,287	-0,181	-0,248
205,261	46,998	-0,210	-0,135
206,275	27,676	-0,214	-0,124
207,290	331,254	-0,154	-0,207
208,304	217,849	-0,091	-0,100
209,319	95,139	-0,163	-0,128
210,334	13,044	-0,165	-0,088
211,348	124,577	-0,230	-0,200
212,363	183,155	-0,237	-0,243
213,377	360,241	-0,117	-0,163
214,392	29,984	-0,196	-0,115
215,407	144,532	-0,161	-0,148
216,421	321,990	-0,115	-0,152
217,436	0,949	-0,276	-0,137
218,450	558,572	-0,162	-0,272
219,465	-200,000	-0,069	-0,293
220,480	317,054	-0,096	-0,126
221,494	-171,667	-0,256	0,006
222,509	452,134	-0,080	-0,123
223,523	-111,273	-0,237	-0,033
224,538	199,555	-0,136	-0,144
225,553	-200,000	-0,028	-0,119
226,567	221,028	-0,191	-0,212
227,582	800,000	-0,104	-0,244
228,596	48,353	-0,170	-0,110
229,611	57,671	-0,143	-0,096
230,626	-28,175	-0,184	-0,073
231,640	152,073	-0,163	-0,153
232,655	362,313	-0,181	-0,251
233,669	800,000	-0,095	-0,212
234,684	-200,000	0,024	-0,207
235,699	-171,799	-0,317	0,007
236,713	130,770	-0,110	-0,098
237,728	-88,579	-0,148	0,030
238,742	320,118	-0,183	-0,241
239,757	189,957	-0,216	-0,224
240,772	43,884	-0,168	-0,106
241,786	-200,000	-0,030	-0,203
242,801	62,908	-0,162	-0,112
243,815	45,341	-0,106	-0,067
244,830	6,268	-0,193	-0,098
245,844	61,240	-0,140	-0,096
246,859	305,653	-0,156	-0,200
247,874	635,075	-0,121	-0,213
248,888	100,752	-0,192	-0,154
249,903	-78,299	-0,172	-0,040
250,917	104,091	-0,174	-0,141
251,932	32,575	-0,117	0,070
252,947	-140,051	-0,163	0,012
253,961	44,263	-0,245	-0,155
254,976	158,890	-0,241	-0,231
255,990	800,000	-0,075	-0,162
257,005	261,564	-0,140	-0,167
258,020	-200,000	-0,005	-0,068
259,034	-79,164	-0,159	-0,037
260,049	-8,943	-0,148	-0,068
261,063	217,261	-0,158	-0,174
262,078	253,845	-0,235	-0,278
263,093	308,016	-0,250	-0,322
264,107	-97,082	-0,241	-0,043
265,122	-89,476	-0,206	-0,041
266,136	378,969	-0,067	-0,095
267,151	-68,572	-0,204	-0,054
268,166	261,030	-0,199	-0,237
269,180	250,435	-0,155	-0,181
270,195	3,528	-0,278	-0,139
271,209	14,065	-0,242	-0,129
272,224	414,789	-0,085	-0,125
273,239	-144,367	-0,147	-0,009
274,253	7,276	-0,216	-0,111
275,268	153,605	-0,214	-0,202
276,282	393,445	-0,141	-0,203
277,297	48,146	-0,161	-0,103
278,312	259,305	-0,123	-0,146
279,326	108,225	-0,194	-0,159
280,341	465,519	-0,081	-0,124
281,355	201,535	-0,133	-0,141
282,370	-125,171	-0,101	-0,010
283,384	800,000	-0,106	-0,230
284,399	567,750	-0,119	-0,199
285,414	65,427	-0,279	-0,194
286,428	52,584	-0,152	-0,099
287,443	-144,185	-0,225	-0,014
288,457	117,426	-0,152	-0,129
289,472	-77,113	-0,142	-0,034
290,487	194,835	-0,174	-0,182
291,501	800,000	-0,045	-0,116
292,516	-124,439	-0,237	-0,025
293,530	-112,435	-0,135	0,018
294,545	53,748	-0,203	-0,134
295,560	523,804	-0,057	-0,092
296,574	8,304	-0,167	-0,086
297,589	91,332	-0,203	-0,157
298,603	233,862	-0,176	-0,200
299,618	-200,000	-0,079	-0,296
300,633	443,055	-0,042	-0,063
301,647	-200,000	-0,002	-0,064
302,662	-19,174	-0,137	-0,058
303,676	48,054	-0,181	-0,116
304,691	309,336	-0,137	-0,176
305,706	223,933	-0,113	-0,125
306,720	-12,577	-0,218	-0,097
307,735	393,362	-0,092	-0,132
308,749	-200,000	0,003	-0,126
309,764	133,465	-0,150	-0,133
310,779	244,900	-0,119	-0,137
311,793	-68,693	-0,129	-0,034
312,808	302,445	-0,177	-0,226
313,822	-200,000	0,012	-0,129
314,837	199,019	-0,191	-0,201
315,852	324,029	-0,046	-0,060
316,866	0,755	-0,124	-0,060
317,881	-20,280	-0,144	0,061
318,895	800,000	-0,063	-0,136
319,910	-200,000	-0,058	-0,210
320,925	16,767	-0,131	-0,071
321,939	-200,000	-0,004	0,024
322,954	800,000	-0,085	-0,162
323,968	800,000	-0,047	-0,105
324,983	27,880	-0,116	-0,067
325,997	-83,480	-0,162	-0,035
327,012	-18,913	-0,175	-0,074
328,027	-200,000	-0,051	-0,156
329,041	792,064	-0,078	-0,147
330,056	357,015	-0,126	-0,173
331,070	11,355	-0,039	-0,020
332,085	-180,755	-0,081	0,001
333,100	398,421	-0,169	-0,243
334,114	39,529	-0,194	-0,119
335,129	187,218	-0,158	-0,162
336,143	-159,739	-0,138	0,005
337,158	-172,349	-0,116	0,002
338,173	-95,415	-0,270	0,049
339,187	-130,031	-0,165	-0,015
340,202	172,911	-0,097	-0,096
341,216	-33,128	-0,189	-0,071
342,231	56,958	-0,137	-0,091
343,246	295,993	-0,202	-0,254
344,260	-78,798	-0,111	-0,026
345,275	182,684	-0,096	-0,097
346,289	-200,000	-0,015	0,076
347,304	286,344	-0,126	-0,156
348,319	800,000	-0,071	-0,206
349,333	-72,312	-0,110	-0,028
350,348	61,091	-0,236	-0,160
351,362	800,000	-0,099	-0,248
352,377	182,750	-0,097	-0,098
353,392	-55,667	-0,091	0,028
354,406	800,000	-0,030	-0,068
355,421	207,119	1310,510	1398,258
356,435	159,320	1470,676	1398,728
