DTS Sentinel unit serial number:	SN410029Multiplexer serial number:	ORYXHardware model number:	OX2-SRSoftware version number:	ORYX F/W v4,00 Oryx Data Collector v3.7.2.0data status	okinstallation	B3 Nyhavnadifferential loss correction	single-endedforward channel	channel 1reverse channel	N/Adate	2023/12/01time	14:32:30forward acquisition time	300,00reverse acquisition time	0,00gamma	499,1914k internal	0,3213k external	0,3213temperature offset calibration	1,0000default loss term (dB/km)	0,3820temperature slope calibration	1,0000multiplexer offset coefficient	1,0000multiplexer slope coefficient	1,0000fibre end	0,00T internal ref (°C)	10,82T ext. ref 1 (°C)	-2,55T ext. ref 2 (°C)	-2,61length (m)	temperature (°C)	Stokes	anti-Stokes-744,400	-23,027	-0,263	-0,114
-743,385	-200,000	-0,063	0,233
-742,371	-200,000	-0,004	-0,142
-741,356	-200,000	-0,076	0,399
-740,342	19,138	-0,181	-0,105
-739,327	-200,000	-0,057	0,211
-738,312	775,927	-0,146	-0,290
-737,298	86,606	-0,115	0,091
-736,283	-200,000	-0,036	-0,143
-735,269	-200,000	0,011	0,285
-734,254	25,314	-0,194	-0,117
-733,239	158,388	-0,158	0,159
-732,225	658,702	-0,099	-0,186
-731,210	-92,100	0,054	0,011
-730,196	800,000	-0,061	-0,156
-729,181	790,214	-0,036	-0,072
-728,167	-200,000	0,008	-0,065
-727,152	-14,186	-0,050	-0,023
-726,137	-42,015	-0,069	0,025
-725,123	10,655	-0,074	-0,041
-724,108	-61,245	-0,192	0,058
-723,094	160,710	0,081	-0,082
-722,079	209,766	0,070	-0,079
-721,064	-200,000	-0,000	-0,137
-720,050	-35,502	-0,070	-0,027
-719,035	126,042	-0,039	-0,036
-718,021	18,423	-0,151	-0,087
-717,006	800,000	-0,018	-0,037
-715,991	79,879	-0,117	-0,091
-714,977	-200,000	-0,099	0,000
-713,962	255,205	0,047	-0,058
-712,948	-152,737	-0,087	0,004
-711,933	147,638	0,082	-0,080
-710,918	-200,000	-0,019	0,063
-709,904	-200,000	-0,005	-0,071
-708,889	-158,639	-0,048	-0,002
-707,875	137,835	-0,071	-0,067
-706,860	-200,000	0,000	-0,091
-705,845	800,000	0,046	0,102
-704,831	56,742	0,124	0,087
-703,816	160,962	0,055	0,055
-702,802	800,000	-0,020	0,054
-701,787	161,340	0,007	0,007
-700,772	800,000	-0,044	0,105
-699,758	83,420	-0,078	0,061
-698,743	-13,518	0,045	0,021
-697,729	-200,000	0,007	-0,034
-696,714	-200,000	-0,036	0,165
-695,699	-200,000	-0,003	0,017
-694,685	-164,815	-0,125	0,004
-693,670	-136,407	-0,132	0,011
-692,656	248,531	0,057	0,070
-691,641	-93,720	-0,010	0,002
-690,627	-117,655	-0,114	0,015
-689,612	-200,000	0,016	0,112
-688,597	684,111	-0,049	-0,092
-687,583	-75,468	-0,252	-0,064
-686,568	98,059	-0,034	-0,028
-685,554	-138,383	0,031	-0,002
-684,539	32,562	-0,004	0,002
-683,524	-21,530	0,146	0,064
-682,510	800,000	0,044	0,127
-681,495	32,194	-0,127	-0,079
-680,481	-200,000	0,037	-0,120
-679,466	-157,466	-0,064	-0,003
-678,451	436,612	0,074	-0,117
-677,437	32,300	0,050	0,031
-676,422	614,868	-0,044	-0,079
-675,408	-4,601	0,130	0,065
-674,393	7,844	-0,184	0,100
-673,378	-168,690	-0,070	-0,002
-672,364	-200,000	0,019	-0,120
-671,349	-65,246	0,032	-0,009
-670,335	189,879	-0,051	-0,056
-669,320	-42,358	0,076	0,028
-668,305	212,843	0,061	0,069
-667,291	-200,000	-0,001	0,206
-666,276	800,000	0,022	0,051
-665,262	-148,260	-0,073	0,004
-664,247	-200,000	0,006	-0,044
-663,232	11,223	0,103	-0,057
-662,218	30,822	0,033	0,021
-661,203	-200,000	-0,050	0,309
-660,189	363,392	-0,027	0,039
-659,174	-7,500	-0,047	-0,023
-658,159	345,062	-0,098	-0,140
-657,145	-200,000	-0,003	-0,167
-656,130	800,000	0,023	-0,048
-655,116	143,059	0,037	-0,036
-654,101	-194,833	0,041	-0,000
-653,086	-200,000	0,094	0,000
-652,072	-79,720	-0,134	0,032
-651,057	800,000	0,030	-0,089
-650,043	533,858	-0,021	-0,037
-649,028	-200,000	0,025	-0,220
-648,014	9,581	-0,116	0,063
-646,999	-1,370	0,186	-0,095
-645,984	800,000	-0,028	-0,074
-644,970	85,244	-0,111	-0,088
-643,955	167,867	-0,037	-0,038
-642,941	800,000	0,033	-0,103
-641,926	800,000	-0,067	-0,137
-640,911	54,157	0,048	0,033
-639,897	-154,006	0,067	-0,003
-638,882	-48,963	-0,065	0,022
-637,868	55,728	-0,132	-0,092
-636,853	250,704	-0,058	-0,072
-635,838	-200,000	-0,022	0,082
-634,824	-42,294	-0,082	0,030
-633,809	-50,463	0,136	-0,046
-632,795	800,000	0,048	0,103
-631,780	-200,000	-0,026	0,176
-630,765	48,333	-0,036	0,024
-629,751	-200,000	-0,013	-0,081
-628,736	-60,174	-0,169	0,052
-627,722	-200,000	-0,023	0,113
-626,707	105,717	-0,059	0,050
-625,692	-80,346	0,035	-0,008
-624,678	-200,000	0,021	0,083
-623,663	800,000	-0,072	0,169
-622,649	255,812	-0,103	-0,128
-621,634	762,601	0,034	-0,068
-620,619	386,994	-0,023	0,035
-619,605	-200,000	0,009	-0,107
-618,590	105,429	0,112	-0,096
-617,576	554,486	-0,062	0,109
-616,561	96,320	-0,039	-0,032
-615,546	-200,000	0,008	-0,118
-614,532	-200,000	0,014	-0,174
-613,517	800,000	0,019	-0,042
-612,503	-44,509	-0,115	0,041
-611,488	682,781	-0,014	-0,026
-610,474	-129,742	0,164	-0,016
-609,459	-53,317	-0,071	-0,023
-608,444	147,794	-0,069	-0,067
-607,430	-200,000	-0,011	0,040
-606,415	27,834	0,100	-0,061
-605,401	192,535	-0,072	-0,078
-604,386	-88,821	0,042	0,009
-603,371	-200,000	-0,032	0,112
-602,357	-200,000	0,000	-0,079
-601,342	11,349	-0,046	0,026
-600,328	11,579	-0,070	-0,039
-599,313	-200,000	-0,014	0,097
-598,298	168,215	0,096	-0,099
-597,284	390,132	-0,030	-0,044
-596,269	115,543	0,078	0,069
-595,255	-122,322	0,031	-0,004
-594,240	-23,221	0,078	-0,034
-593,225	65,501	0,014	0,010
-592,211	187,409	0,032	0,035
-591,196	-200,000	-0,017	-0,065
-590,182	-41,019	0,024	-0,009
-589,167	263,030	0,050	-0,063
-588,152	-200,000	0,013	-0,136
-587,138	34,746	-0,147	-0,092
-586,123	74,295	-0,121	0,092
-585,109	800,000	-0,005	0,010
-584,094	28,269	-0,049	0,030
-583,079	344,684	0,057	-0,081
-582,065	46,350	0,065	-0,043
-581,050	175,423	0,132	0,138
-580,036	800,000	-0,043	0,126
-579,021	62,452	-0,072	-0,052
-578,006	800,000	0,042	-0,089
-576,992	800,000	0,016	0,045
-575,977	-63,160	0,018	-0,005
-574,963	577,579	-0,012	0,021
-573,948	449,061	0,080	0,128
-572,934	800,000	-0,051	-0,124
-571,919	236,722	-0,052	0,062
-570,904	800,000	0,014	-0,041
-569,890	800,000	0,032	-0,092
-568,875	-200,000	0,000	0,007
-567,861	508,174	0,083	-0,139
-566,846	-200,000	-0,012	0,069
-565,831	230,954	0,023	0,027
-564,817	-93,124	-0,063	-0,013
-563,802	150,559	-0,072	-0,071
-562,788	-200,000	-0,003	0,136
-561,773	800,000	0,044	0,095
-560,758	800,000	-0,015	0,040
-559,744	261,071	0,040	-0,050
-558,729	274,337	0,060	-0,077
-557,715	-200,000	0,016	-0,060
-556,700	-200,000	-0,008	-0,120
-555,685	-73,247	0,037	0,010
-554,671	197,060	0,080	-0,088
-553,656	-70,244	0,061	-0,016
-552,642	-105,258	0,086	0,014
-551,627	178,323	0,095	0,100
-550,612	800,000	-0,037	-0,087
-549,598	-200,000	-0,017	-0,071
-548,583	123,935	-0,049	0,044
-547,569	800,000	0,017	0,050
-546,554	-200,000	0,000	-0,006
-545,539	-200,000	0,096	-0,000
-544,525	-3,862	0,065	-0,032
-543,510	-200,000	-0,017	-0,084
-542,496	-13,306	-0,101	0,047
-541,481	304,808	-0,048	-0,065
-540,466	-200,000	0,010	-0,088
-539,452	36,907	0,166	-0,105
-538,437	-200,000	-0,016	-0,069
-537,423	91,470	0,008	-0,007
-536,408	-200,000	-0,005	-0,067
-535,393	800,000	0,025	0,064
-534,379	16,655	0,046	0,026
-533,364	-200,000	-0,004	0,034
-532,350	-200,000	-0,018	0,100
-531,335	-200,000	-0,021	0,070
-530,321	-200,000	0,010	0,194
-529,306	66,051	0,035	0,025
-528,291	-200,000	-0,028	0,092
-527,277	378,674	0,079	-0,116
-526,262	-200,000	0,004	0,061
-525,248	186,631	0,054	-0,058
-524,233	-200,000	-0,011	0,085
-523,218	-64,138	-0,060	0,017
-522,204	-200,000	0,007	-0,039
-521,189	-152,758	-0,096	0,005
-520,175	-128,803	-0,083	-0,008
-519,160	265,013	-0,048	0,060
-518,145	-119,256	-0,052	0,006
-517,131	-56,580	0,146	0,046
-516,116	22,537	0,048	-0,028
-515,102	80,567	0,060	-0,046
-514,087	102,282	-0,069	-0,058
-513,072	-200,000	-0,026	-0,158
-512,058	-75,247	-0,058	-0,015
-511,043	800,000	0,028	0,081
-510,029	-37,260	-0,089	0,034
-509,014	-200,000	-0,015	-0,053
-507,999	36,428	-0,031	-0,020
-506,985	800,000	0,067	-0,138
-505,970	-51,037	-0,120	0,040
-504,956	-200,000	0,025	-0,124
-503,941	28,211	0,117	0,071
-502,926	800,000	-0,053	0,139
-501,912	800,000	-0,017	0,034
-500,897	12,487	0,089	0,049
-499,883	-26,564	0,116	0,048
-498,868	-200,000	0,030	-0,228
-497,853	800,000	0,029	-0,090
-496,839	-200,000	0,007	-0,027
-495,824	53,594	0,038	-0,026
-494,810	800,000	-0,016	0,040
-493,795	-200,000	-0,009	0,041
-492,781	129,903	0,030	-0,027
-491,766	340,107	0,019	0,026
-490,751	-200,000	-0,014	0,062
-489,737	-40,034	-0,116	-0,043
-488,722	-97,557	-0,092	0,017
-487,708	682,647	-0,056	0,106
-486,693	206,702	-0,057	0,063
-485,678	-6,263	-0,083	0,041
-484,664	-59,555	0,030	-0,009
-483,649	800,000	0,016	-0,049
-482,635	-39,386	0,099	-0,037
-481,620	-200,000	0,018	0,163
-480,605	12,106	-0,058	-0,032
-479,591	-200,000	-0,002	0,044
-478,576	69,664	-0,145	-0,107
-477,562	-200,000	-0,002	-0,018
-476,547	369,583	-0,100	0,146
-475,532	-69,331	0,062	-0,017
-474,518	-200,000	0,015	0,114
-473,503	-98,645	0,111	-0,020
-472,489	141,936	-0,041	0,039
-471,474	-200,000	-0,020	-0,149
-470,459	-91,974	-0,049	0,010
-469,445	-41,390	-0,096	0,035
-468,430	-200,000	-0,012	0,080
-467,416	-200,000	0,023	0,091
-466,401	57,291	0,054	-0,037
-465,386	134,581	0,128	0,119
-464,372	200,629	0,056	0,062
-463,357	139,062	0,093	0,088
-462,343	-200,000	0,006	-0,044
-461,328	113,044	-0,158	-0,138
-460,313	-84,176	-0,184	-0,042
-459,299	-60,113	0,104	0,032
-458,284	247,706	-0,072	0,087
-457,270	800,000	0,021	0,059
-456,255	58,623	-0,179	0,126
-455,241	-3,601	-0,053	-0,026
-454,226	-146,594	-0,066	0,004
-453,211	49,112	0,043	-0,029
-452,197	-148,746	0,095	-0,005
-451,182	-138,665	-0,092	0,007
-450,168	-200,000	0,009	0,046
-449,153	169,302	0,100	0,102
-448,138	464,516	-0,031	0,050
-447,124	-200,000	-0,018	-0,058
-446,109	230,752	-0,085	0,099
-445,095	-123,117	-0,066	0,007
-444,080	-200,000	-0,034	0,109
-443,065	141,997	-0,075	0,071
-442,051	-90,143	0,098	0,020
-441,036	155,412	-0,052	-0,051
-440,022	-103,073	-0,049	0,008
-439,007	-59,883	-0,037	-0,011
-437,992	-169,321	-0,208	0,005
-436,978	76,382	0,110	-0,084
-435,963	593,612	-0,008	-0,015
-434,949	90,161	-0,107	-0,085
-433,934	-200,000	-0,024	-0,177
-432,919	-200,000	0,014	-0,104
-431,905	-200,000	0,020	-0,095
-430,890	-134,135	-0,045	-0,004
-429,876	-123,723	0,085	-0,010
-428,861	277,583	0,049	-0,063
-427,846	382,820	0,111	-0,164
-426,832	80,553	-0,024	0,018
-425,817	800,000	-0,037	-0,099
-424,803	-200,000	-0,007	-0,092
-423,788	800,000	-0,032	0,080
-422,773	-200,000	-0,006	0,046
-421,759	124,498	-0,020	0,018
-420,744	-200,000	-0,005	0,109
-419,730	119,980	0,105	0,093
-418,715	393,163	-0,046	-0,069
-417,701	-108,571	-0,200	-0,030
-416,686	249,880	-0,030	-0,037
-415,671	112,433	0,080	0,069
-414,657	227,064	0,044	0,051
-413,642	-200,000	-0,004	0,052
-412,628	406,354	-0,012	-0,018
-411,613	195,053	0,061	-0,067
-410,598	-43,103	0,090	-0,032
-409,584	-200,000	-0,000	-0,008
-408,569	800,000	0,028	-0,069
-407,555	-200,000	-0,014	-0,127
-406,540	111,497	0,089	-0,077
-405,525	304,136	0,060	-0,080
-404,511	-113,286	-0,068	0,009
-403,496	-200,000	0,012	-0,063
-402,482	-200,000	0,008	0,068
-401,467	800,000	0,042	0,120
-400,452	54,866	0,062	-0,042
-399,438	414,238	0,046	0,070
-398,423	-186,063	0,127	-0,001
-397,409	190,933	-0,065	-0,070
-396,394	800,000	0,007	-0,021
-395,379	186,640	0,063	-0,068
-394,365	208,969	0,010	-0,011
-393,350	-44,386	-0,119	0,042
-392,336	-200,000	-0,011	-0,084
-391,321	-28,227	-0,191	-0,078
-390,306	-200,000	0,009	-0,124
-389,292	-200,000	0,006	0,050
-388,277	-160,379	0,103	0,004
-387,263	27,811	-0,077	-0,046
-386,248	-200,000	0,014	0,143
-385,233	283,203	-0,069	0,089
-384,219	-21,783	0,062	0,027
-383,204	95,828	-0,127	-0,103
-382,190	141,866	0,052	-0,049
-381,175	800,000	0,016	-0,032
-380,160	90,266	0,125	-0,099
-379,146	-200,000	-0,019	0,083
-378,131	-200,000	0,007	0,045
-377,117	-200,000	-0,011	-0,076
-376,102	168,405	-0,038	-0,039
-375,088	0,720	0,119	-0,061
-374,073	-200,000	0,020	-0,125
-373,058	-200,000	-0,000	0,014
-372,044	20,684	0,098	0,057
-371,029	-29,173	0,094	0,038
-370,015	-121,864	-0,041	-0,005
-369,000	-200,000	0,006	-0,127
-367,985	-72,357	0,061	-0,016
-366,971	-30,443	0,024	0,010
-365,956	88,733	-0,090	-0,072
-364,942	-200,000	0,067	0,213
-363,927	-53,323	0,042	-0,014
-362,912	-200,000	-0,021	0,123
-361,898	-13,295	0,029	0,013
-360,883	-200,000	-0,005	-0,047
-359,869	-200,000	-0,022	0,136
-358,854	-145,289	0,086	0,005
-357,839	120,194	0,044	0,039
-356,825	-200,000	0,013	0,134
-355,810	-200,000	-0,050	0,208
-354,796	602,090	0,019	-0,034
-353,781	-29,043	-0,121	-0,049
-352,766	800,000	-0,060	-0,137
-351,752	704,301	0,028	-0,054
-350,737	90,237	0,081	0,064
-349,723	118,738	-0,084	0,074
-348,708	126,733	0,036	-0,033
-347,693	-24,231	0,104	-0,044
-346,679	800,000	-0,045	-0,112
-345,664	270,711	-0,044	0,055
-344,650	-150,287	0,094	-0,005
-343,635	-200,000	-0,000	0,055
-342,620	-37,225	0,140	0,053
-341,606	354,840	0,082	-0,117
-340,591	-29,011	-0,045	0,018
-339,577	-200,000	0,005	0,048
-338,562	-63,118	-0,056	-0,016
-337,548	-200,000	-0,001	0,143
-336,533	-200,000	-0,011	0,049
-335,518	117,823	0,042	0,037
-334,504	-62,465	0,126	0,037
-333,489	-200,000	0,008	0,058
-332,475	35,058	-0,097	-0,061
-331,460	248,316	-0,038	0,046
-330,445	-12,844	0,100	-0,046
-329,431	260,490	0,027	-0,033
-328,416	800,000	0,029	0,059
-327,402	-60,344	0,130	0,039
-326,387	-121,886	-0,088	-0,010
-325,372	800,000	-0,008	-0,021
-324,358	466,299	0,006	0,009
-323,343	197,935	-0,066	0,072
-322,329	-132,906	0,086	0,008
-321,314	800,000	-0,030	0,090
-320,299	189,132	0,099	0,105
-319,285	-200,000	-0,006	0,190
-318,270	184,942	0,057	-0,060
-317,256	651,602	-0,061	-0,111
-316,241	-200,000	0,015	0,122
-315,226	-200,000	0,002	-0,059
-314,212	3,282	0,087	0,045
-313,197	-81,464	-0,091	-0,021
-312,183	407,376	0,032	-0,049
-311,168	564,649	-0,041	-0,071
-310,153	-77,655	0,027	-0,007
-309,139	-200,000	-0,015	-0,090
-308,124	800,000	0,062	0,164
-307,110	800,000	0,034	-0,074
-306,095	626,493	0,069	0,124
-305,080	128,078	-0,085	0,077
-304,066	800,000	-0,049	-0,133
-303,051	29,681	0,092	0,056
-302,037	-200,000	0,014	-0,118
-301,022	45,618	0,115	-0,075
-300,008	-200,000	0,049	-0,178
-298,993	-132,152	0,111	-0,010
-297,978	365,317	0,036	0,052
-296,964	-200,000	-0,016	0,101
-295,949	-200,000	-0,010	-0,072
-294,935	-39,018	-0,068	0,025
-293,920	-63,531	-0,125	0,036
-292,905	236,603	0,042	0,049
-291,891	569,678	0,135	0,234
-290,876	-70,469	0,046	0,012
-289,862	21,664	-0,064	0,037
-288,847	-200,000	-0,051	-0,180
-287,832	-200,000	0,019	-0,076
-286,818	69,290	-0,145	0,106
-285,803	381,283	0,031	-0,045
-284,789	3,352	-0,018	-0,009
-283,774	244,850	0,044	0,053
-282,759	76,418	-0,058	-0,044
-281,745	-200,000	0,004	0,018
-280,730	-200,000	0,002	0,060
-279,716	27,266	-0,069	-0,041
-278,701	-200,000	0,004	0,021
-277,686	800,000	-0,045	0,096
-276,672	800,000	-0,010	-0,030
-275,657	-200,000	-0,026	0,096
-274,643	800,000	0,037	-0,090
-273,628	-200,000	-0,042	-0,159
-272,613	-138,707	0,025	-0,002
-271,599	91,943	-0,018	-0,015
-270,584	572,457	-0,032	0,055
-269,570	156,078	0,067	-0,065
-268,555	52,905	-0,045	0,030
-267,540	-147,299	-0,101	0,006
-266,526	-200,000	0,004	-0,177
-265,511	160,628	-0,058	0,058
-264,497	62,119	0,073	0,052
-263,482	-111,699	0,198	0,028
-262,467	189,230	-0,027	0,028
-261,453	372,127	-0,096	0,140
-260,438	-200,000	0,034	-0,127
-259,424	209,676	-0,034	-0,038
-258,409	-200,000	-0,020	-0,124
-257,395	-102,884	0,128	-0,021
-256,380	385,994	0,014	0,020
-255,365	353,770	-0,030	0,043
-254,351	135,238	0,018	0,016
-253,336	-175,506	-0,032	0,001
-252,322	-200,000	-0,007	0,041
-251,307	679,093	0,075	-0,140
-250,292	-78,220	-0,187	0,045
-249,278	119,909	0,020	0,018
-248,263	-200,000	-0,003	-0,043
-247,249	210,463	0,039	-0,044
-246,234	-62,603	-0,039	0,011
-245,219	323,706	0,066	-0,090
-244,205	-55,496	0,125	-0,040
-243,190	-133,088	0,034	0,003
-242,176	90,889	0,085	-0,068
-241,161	28,699	-0,072	0,043
-240,146	200,296	0,045	0,049
-239,132	-200,000	0,031	0,108
-238,117	367,135	0,038	0,054
-237,103	-28,401	-0,094	-0,038
-236,088	151,979	-0,023	0,023
-235,073	-138,276	-0,061	0,005
-234,059	-200,000	-0,010	0,065
-233,044	800,000	-0,040	0,108
-232,030	-200,000	0,019	0,132
-231,015	38,446	-0,074	0,047
-230,000	-102,644	0,140	-0,023
-228,986	-200,000	0,021	0,155
-227,971	-200,000	-0,014	0,113
-226,957	-57,035	-0,113	0,035
-225,942	-134,217	0,200	-0,017
-224,927	-107,063	-0,065	0,010
-223,913	-37,507	-0,098	-0,037
-222,898	-96,011	-0,144	-0,027
-221,884	-200,000	-0,046	-0,153
-220,869	-200,000	-0,040	-0,125
-219,855	-200,000	0,000	-0,092
-218,840	89,470	0,074	0,058
-217,825	-36,078	-0,101	-0,039
-216,811	4,830	0,083	-0,043
-215,796	-39,092	0,092	-0,034
-214,782	-200,000	-0,008	0,077
-213,767	-146,079	0,072	0,004
-212,752	294,447	0,074	-0,097
-211,738	-68,997	-0,021	0,006
-210,723	800,000	0,060	0,143
-209,709	-1,891	-0,074	-0,037
-208,694	267,818	-0,068	-0,084
-207,679	-86,044	-0,036	0,008
-206,665	126,866	-0,111	0,100
-205,650	-40,643	0,134	0,049
-204,636	289,572	0,082	0,106
-203,621	-200,000	-0,014	0,169
-202,606	-96,570	-0,111	0,021
-201,592	740,118	0,046	-0,088
-200,577	-200,000	0,009	-0,062
-199,563	-73,736	0,171	0,044
-198,548	724,672	-0,042	0,081
-197,533	-200,000	-0,038	0,136
-196,519	-24,575	0,060	0,025
-195,504	800,000	0,042	-0,117
-194,490	573,973	-0,008	-0,014
-193,475	-31,230	-0,153	0,061
-192,460	338,155	0,022	0,030
-191,446	203,421	0,051	-0,056
-190,431	800,000	0,051	-0,134
-189,417	-200,000	-0,030	-0,098
-188,402	800,000	-0,012	0,024
-187,387	102,847	-0,130	0,108
-186,373	800,000	-0,041	0,098
-185,358	60,766	-0,080	0,056
-184,344	67,654	-0,063	0,046
-183,329	-20,145	0,188	-0,082
-182,315	-25,155	-0,066	-0,028
-181,300	-200,000	-0,012	0,050
-180,285	800,000	-0,046	-0,097
-179,271	-53,342	-0,140	-0,045
-178,256	-90,547	-0,089	-0,018
-177,242	-114,500	0,158	-0,021
-176,227	-200,000	0,021	0,121
-175,212	800,000	0,034	0,078
-174,198	-80,691	-0,175	0,041
-173,183	-70,865	-0,123	-0,033
-172,169	-131,776	-0,088	-0,008
-171,154	-200,000	0,005	-0,101
-170,139	-34,340	0,084	0,033
-169,125	-200,000	0,042	0,190
-168,110	13,601	0,076	0,042
-167,096	-91,444	-0,111	-0,022
-166,081	359,984	0,044	0,063
-165,066	-57,370	0,187	0,058
-164,052	147,721	-0,045	-0,043
-163,037	254,620	0,042	-0,051
-162,023	-152,442	-0,047	0,002
-161,008	-32,714	-0,070	0,027
-159,993	-91,517	0,122	0,024
-158,979	-43,825	0,071	-0,025
-157,964	-26,160	-0,113	0,047
-156,950	710,091	-0,054	-0,102
-155,935	67,571	-0,069	0,050
-154,920	30,607	0,049	-0,030
-153,906	420,559	0,060	0,092
-152,891	-125,319	-0,081	-0,009
-151,877	800,000	-0,063	0,154
-150,862	-200,000	0,010	-0,070
-149,847	-200,000	0,009	-0,097
-148,833	-183,829	0,064	0,001
-147,818	800,000	0,016	-0,044
-146,804	-38,827	0,068	-0,025
-145,789	-200,000	-0,003	0,061
-144,775	10,185	0,084	-0,045
-143,760	-45,531	-0,096	0,033
-142,745	128,410	0,067	-0,061
-141,731	-64,544	0,138	0,039
-140,716	-200,000	-0,010	-0,103
-139,702	800,000	-0,046	0,121
-138,687	-200,000	0,001	0,104
-137,672	43,369	0,031	-0,020
-136,658	-200,000	0,015	0,076
-135,643	-59,203	0,036	0,011
-134,629	-100,099	-0,169	0,030
-133,614	-50,972	0,090	-0,030
-132,599	-106,238	0,045	-0,007
-131,585	-200,000	0,000	0,012
-130,570	-194,132	-0,038	0,000
-129,556	326,865	-0,042	0,057
-128,541	800,000	-0,021	-0,060
-127,526	-105,533	0,035	0,006
-126,512	271,610	0,078	-0,097
-125,497	39,980	-0,018	-0,011
-124,483	-5,679	0,109	-0,053
-123,468	800,000	-0,051	0,137
-122,453	-68,426	0,114	0,031
-121,439	-46,377	-0,106	-0,037
-120,424	-89,472	-0,096	0,020
-119,410	800,000	-0,040	0,089
-118,395	800,000	-0,034	0,068
-117,380	11,532	-0,117	0,063
-116,366	468,443	0,071	0,113
-115,351	17,699	-0,116	0,065
-114,337	23,959	-0,094	0,055
-113,322	800,000	-0,019	0,047
-112,307	-200,000	-0,012	0,068
-111,293	-105,463	0,078	0,012
-110,278	95,718	-0,043	-0,035
-109,264	49,888	-0,037	-0,025
-108,249	18,125	-0,078	-0,044
-107,234	-55,426	-0,049	-0,016
-106,220	-98,441	-0,081	0,014
-105,205	-200,000	-0,006	0,053
-104,191	27,979	0,065	0,039
-103,176	2,990	0,126	0,065
-102,162	140,996	0,065	0,061
-101,147	800,000	0,010	0,020
-100,132	-19,955	-0,034	0,015
-99,118	-200,000	0,012	-0,064
-98,103	-200,000	0,026	-0,113
-97,089	-200,000	0,020	0,078
-96,074	146,012	0,069	-0,066
-95,059	-200,000	0,033	0,186
-94,045	-200,000	-0,019	0,081
-93,030	-85,314	-0,091	-0,020
-92,016	141,457	-0,065	0,061
-91,001	-53,726	0,123	-0,039
-89,986	800,000	-0,053	0,148
-88,972	-128,370	0,076	0,008
-87,957	626,270	-0,022	-0,040
-86,943	51,050	-0,065	0,043
-85,928	-61,773	0,069	-0,020
-84,913	5,805	-0,114	0,060
-83,899	-13,047	0,080	-0,037
-82,884	800,000	0,050	0,109
-81,870	800,000	-0,004	-0,009
-80,855	116,414	-0,013	0,012
-79,840	-96,755	-0,097	-0,018
-78,826	-7,119	0,004	0,002
-77,811	-200,000	-0,005	-0,122
-76,797	-130,785	0,017	-0,002
-75,782	-98,206	0,111	-0,020
-74,767	-200,000	0,007	0,098
-73,753	800,000	-0,036	0,074
-72,738	158,858	0,099	0,097
-71,724	-10,379	-0,060	0,028
-70,709	203,036	-0,081	-0,088
-69,694	800,000	0,039	0,105
-68,680	-169,324	-0,044	-0,001
-67,665	-200,000	0,003	0,027
-66,651	-69,474	0,084	-0,023
-65,636	-108,900	-0,075	-0,011
-64,622	-200,000	-0,001	0,021
-63,607	427,527	0,041	-0,062
-62,592	292,046	0,092	0,119
-61,578	800,000	-0,075	0,178
-60,563	-81,191	0,101	-0,023
-59,549	800,000	0,008	0,025
-58,534	-8,973	-2,103	-0,990
-57,519	489,591	-1,220	-1,975
-56,505	-200,000	-0,426	-4,396
-55,490	520,558	0,839	1,394
-54,476	800,000	4,887	11,254
-53,461	-200,000	20,929	330,536
-52,446	800,000	756,567	2322,394
-51,432	551,884	1661,934	2825,577
-50,417	73,600	1664,984	1228,670
-49,403	18,734	1538,138	865,924
-48,388	12,624	1461,210	793,047
-47,373	19,020	1451,783	818,613
-46,359	15,847	1441,042	797,425
-45,344	10,922	1437,093	771,746
-44,330	10,866	1434,991	770,320
-43,315	10,882	1432,939	769,263
-42,300	10,816	1431,452	768,121
-41,286	10,842	1430,234	767,560
-40,271	10,854	1428,756	766,795
-39,257	10,848	1427,588	766,107
-38,242	10,879	1426,449	765,614
-37,227	10,863	1425,367	764,928
-36,213	10,880	1424,145	764,319
-35,198	10,922	1422,774	763,751
-34,184	10,953	1422,023	763,465
-33,169	10,891	1420,653	762,406
-32,154	10,958	1419,662	762,159
-31,140	10,947	1418,431	761,419
-30,125	11,019	1417,256	761,095
-29,111	10,960	1416,211	760,228
-28,096	10,962	1414,846	759,474
-27,082	10,850	1413,965	758,446
-26,067	10,841	1412,904	757,802
-25,052	10,883	1411,525	757,231
-24,038	10,884	1410,844	756,838
-23,023	10,839	1409,635	755,952
-22,009	10,833	1408,771	755,427
-20,994	10,842	1407,795	754,920
-19,979	10,840	1406,805	754,346
-18,965	10,795	1405,794	753,568
-17,950	10,793	1405,015	753,108
-16,936	10,827	1404,122	752,760
-15,921	10,734	1403,120	751,760
-14,906	10,715	1402,097	751,094
-13,892	10,738	1401,377	750,783
-12,877	10,722	1400,412	750,162
-11,863	10,799	1399,429	749,966
-10,848	10,682	1398,909	749,112
-9,833	10,708	1397,880	748,654
-8,819	10,639	1397,259	747,968
-7,804	10,678	1396,077	747,490
-6,790	10,679	1395,128	746,955
-5,775	10,678	1393,996	746,317
-4,760	10,705	1392,987	745,868
-3,746	10,690	1391,998	745,239
-2,731	10,656	1391,388	744,727
-1,717	10,661	1390,592	744,295
-0,702	10,681	1388,695	743,344
0,313	14,819	1302,554	716,159
1,327	31,210	693,768	418,729
2,342	48,507	120,556	79,464
3,356	0,010	16,576	8,294
4,371	9,475	3,412	1,815
5,386	29,167	0,861	0,514
6,400	800,000	0,172	0,519
7,415	178,265	-0,230	-0,237
8,429	5,659	-0,364	-0,189
9,444	25,532	-0,241	-0,141
10,459	121,000	-0,250	-0,219
11,473	-91,497	-0,307	-0,061
12,488	-195,765	-0,255	0,001
13,502	19,865	-0,355	-0,201
14,517	-48,558	-0,282	-0,095
15,531	196,917	-0,377	-0,406
16,546	86,072	-0,377	-0,292
17,561	15,146	-0,406	-0,223
18,575	469,277	-0,130	-0,206
19,590	73,422	-0,218	-0,161
20,604	-16,696	-0,324	-0,144
21,619	136,861	-0,383	-0,352
22,634	102,899	-0,417	-0,344
23,648	67,760	-0,387	-0,278
24,663	46,547	-0,396	-0,258
25,677	183,452	-0,275	-0,287
26,692	328,437	-0,249	-0,337
27,707	-2,127	-0,488	-0,240
28,721	-39,463	-0,494	-0,181
29,736	390,282	-0,257	-0,377
30,750	55,149	-0,447	-0,303
31,765	229,763	-0,298	-0,343
32,780	46,585	-0,379	-0,247
33,794	50,382	-0,315	-0,209
34,809	-2,919	-0,410	-0,201
35,823	53,805	-0,456	-0,307
36,838	52,971	-0,341	-0,229
37,853	137,349	-0,295	-0,271
38,867	111,582	-0,368	-0,312
39,882	38,186	-0,382	-0,238
40,896	93,353	-0,271	-0,216
41,911	64,108	-0,236	-0,167
42,926	32,155	-0,486	-0,294
43,940	-24,425	-0,362	-0,151
44,955	72,315	-0,388	-0,283
45,969	65,996	-0,433	-0,308
46,984	-35,425	-0,345	-0,131
47,999	92,726	-0,326	-0,258
49,013	9,475	-0,305	-0,161
50,028	34,408	-0,363	-0,222
51,042	34,698	-0,295	-0,180
52,057	79,751	-0,333	-0,250
53,071	273,581	-0,239	-0,298
54,086	-22,531	-0,395	-0,167
55,101	158,252	-0,279	-0,271
56,115	78,202	-0,324	-0,242
57,130	21,695	-0,323	-0,184
58,144	9,485	-0,401	-0,212
59,159	-18,357	-0,370	-0,162
60,174	160,395	-0,303	-0,297
61,188	174,640	-0,230	-0,234
62,203	504,637	-0,149	-0,242
63,217	65,927	-0,371	-0,264
64,232	146,992	-0,215	-0,203
65,247	180,120	-0,256	-0,264
66,261	189,172	-0,350	-0,368
67,276	224,429	-0,292	-0,331
68,290	214,556	-0,254	-0,282
69,305	26,923	-0,221	-0,130
70,320	-189,144	-0,451	0,004
71,334	-107,042	-0,324	-0,050
72,349	-12,648	-0,263	-0,120
73,363	68,069	-0,290	-0,208
74,378	124,526	-0,331	-0,292
75,393	125,629	-0,212	-0,187
76,407	33,777	-0,325	-0,197
77,422	-5,223	-0,245	-0,118
78,436	170,923	-0,155	-0,156
79,451	-143,068	-0,215	-0,014
80,466	71,129	-0,302	-0,219
81,480	355,387	-0,169	-0,236
82,495	-28,008	-0,281	-0,113
83,509	5,358	-0,214	-0,110
84,524	-4,517	-0,269	-0,130
85,539	126,743	-0,231	-0,205
86,553	-73,745	-0,354	-0,090
87,568	88,207	-0,209	-0,162
88,582	186,682	-0,314	-0,327
89,597	-18,634	-0,336	-0,146
90,611	72,352	-0,319	-0,232
91,626	-80,734	-0,257	-0,059
92,641	800,000	-0,070	-0,156
93,655	9,482	-0,209	-0,110
94,670	455,672	-0,234	-0,365
95,684	-30,603	-0,335	-0,132
96,699	13,824	-0,314	-0,170
97,714	218,877	-0,240	-0,269
98,728	-56,101	-0,344	-0,106
99,743	18,789	-0,296	-0,165
100,757	350,569	-0,174	-0,241
101,772	69,599	-0,358	-0,257
102,787	85,897	-0,377	-0,289
103,801	55,682	-0,277	-0,187
104,816	47,887	-0,308	-0,201
105,830	102,373	-0,305	-0,248
106,845	-38,112	-0,497	-0,183
107,860	137,114	-0,188	-0,172
108,874	531,792	-0,167	-0,277
109,889	104,693	-0,347	-0,285
110,903	613,270	-0,149	-0,262
111,918	75,096	-0,336	-0,247
112,933	94,505	-0,235	-0,186
113,947	61,237	-0,188	-0,130
114,962	-6,388	-0,254	-0,120
115,976	313,292	-0,230	-0,302
116,991	517,311	-0,187	-0,307
118,006	18,636	-0,291	-0,162
119,020	22,135	-0,342	-0,194
120,035	171,787	-0,140	-0,140
121,049	42,424	-0,290	-0,184
122,064	-129,500	-0,343	-0,033
123,079	287,037	-0,135	-0,170
124,093	-49,995	-0,241	-0,079
125,108	43,660	-0,237	-0,151
126,122	-20,981	-0,263	-0,112
127,137	176,660	-0,256	-0,259
128,151	63,410	-0,177	-0,123
129,166	-153,514	-0,284	0,013
130,181	-134,074	-0,296	0,025
131,195	33,663	-0,279	-0,169
132,210	37,483	-0,306	-0,188
133,224	288,469	-0,191	-0,241
134,239	25,932	-0,225	-0,130
135,254	224,789	-0,095	-0,107
136,268	-112,340	-0,367	-0,051
137,283	190,341	-0,251	-0,262
138,297	-4,155	-0,425	-0,204
139,312	229,981	-0,252	-0,287
140,327	-36,063	-0,372	-0,139
141,341	37,340	-0,173	-0,107
142,356	259,705	-0,156	-0,188
143,370	134,944	-0,172	-0,155
144,385	121,130	-0,190	-0,165
145,400	352,360	-0,217	-0,300
146,414	153,015	-0,231	-0,220
147,429	-22,344	-0,340	-0,143
148,443	-73,369	-0,105	-0,026
149,458	362,761	-0,157	-0,220
150,473	112,010	-0,203	-0,170
151,487	-65,321	-0,224	-0,062
152,502	64,650	-0,240	-0,168
153,516	515,240	-0,245	-0,399
154,531	294,338	-0,270	-0,344
155,546	115,897	-0,211	-0,180
156,560	53,813	-0,196	-0,131
157,575	200,118	-0,181	-0,194
158,589	300,726	-0,128	-0,165
159,604	94,346	-0,201	-0,158
160,619	-156,845	-0,179	0,008
161,633	39,900	-0,277	-0,173
162,648	322,021	-0,210	-0,278
163,662	536,541	-0,187	-0,309
164,677	20,765	-0,214	-0,120
165,692	114,703	-0,157	-0,133
166,706	30,348	-0,198	-0,117
167,721	-27,067	-0,292	-0,118
168,735	-200,000	-0,050	-0,226
169,750	-36,388	-0,269	-0,100
170,764	-133,559	-0,229	0,020
171,779	-8,448	-0,180	-0,084
172,794	124,121	-0,203	-0,177
173,808	-165,666	-0,297	0,009
174,823	37,320	-0,263	-0,161
175,837	76,458	-0,283	-0,208
176,852	56,047	-0,258	-0,174
177,867	13,479	-0,167	-0,090
178,881	314,621	-0,159	-0,208
179,896	192,423	-0,127	-0,133
180,910	105,013	-0,173	-0,141
181,925	-9,343	-0,229	-0,106
182,940	155,196	-0,127	-0,122
183,954	800,000	-0,098	-0,262
184,969	276,807	-0,158	-0,196
185,983	-16,987	-0,210	-0,092
186,998	90,771	-0,250	-0,194
188,013	-40,290	-0,261	-0,094
189,027	15,845	-0,313	-0,170
190,042	314,388	-0,218	-0,285
191,056	-69,106	-0,210	-0,056
192,071	79,583	-0,116	-0,086
193,086	-23,386	-0,092	-0,038
194,100	800,000	-0,073	-0,177
195,115	-111,626	-0,245	-0,034
196,129	30,593	-0,153	-0,091
197,144	70,046	-0,292	-0,208
198,159	144,908	-0,233	-0,216
199,173	-46,046	-0,200	-0,068
200,188	-14,828	-0,148	-0,065
201,202	-107,527	-0,219	-0,033
202,217	397,946	-0,145	-0,210
203,232	139,878	-0,230	-0,210
204,246	127,636	-0,250	-0,220
205,261	800,000	-0,085	-0,179
206,275	61,133	-0,254	-0,174
207,290	-79,138	-0,155	0,036
208,304	786,606	-0,122	-0,233
209,319	308,400	-0,140	-0,181
210,334	35,092	-0,148	-0,089
211,348	678,395	-0,146	-0,265
212,363	-48,888	-0,353	-0,117
213,377	94,344	-0,083	-0,065
214,392	786,675	-0,132	-0,251
215,407	76,941	-0,168	-0,123
216,421	202,743	-0,194	-0,208
217,436	226,122	-0,114	-0,128
218,450	25,771	-0,226	-0,130
219,465	228,747	-0,193	-0,218
220,480	314,913	-0,146	-0,191
221,494	-32,591	-0,105	0,040
222,509	10,684	-0,269	-0,142
223,523	-73,563	-0,215	-0,054
224,538	242,460	-0,259	-0,300
225,553	125,835	-0,180	-0,157
226,567	179,390	-0,173	-0,175
227,582	56,962	-0,175	-0,118
228,596	-200,000	-0,054	-0,198
229,611	800,000	-0,141	-0,394
230,626	50,273	-0,174	-0,113
231,640	618,948	-0,152	-0,266
232,655	168,548	-0,193	-0,190
233,669	-17,513	-0,298	-0,129
234,684	142,238	-0,254	-0,233
235,699	21,996	-0,240	-0,135
236,713	19,507	-0,211	-0,117
237,728	123,392	-0,065	-0,057
238,742	-83,293	-0,283	-0,062
239,757	-15,612	-0,288	-0,126
240,772	38,671	-0,353	-0,217
241,786	292,066	-0,152	-0,191
242,801	152,050	-0,103	0,097
243,815	429,482	-0,059	-0,088
244,830	-130,435	-0,156	0,014
245,844	-122,165	-0,199	-0,022
246,859	98,567	-0,230	-0,183
247,874	358,152	-0,112	-0,155
248,888	72,044	-0,320	-0,229
249,903	80,233	-0,112	-0,083
250,917	436,343	-0,103	-0,155
251,932	38,370	-0,217	-0,133
252,947	89,565	-0,162	-0,124
253,961	315,664	-0,175	-0,229
254,976	-72,737	-0,165	-0,042
255,990	-44,518	-0,244	-0,084
257,005	800,000	-0,131	-0,267
258,020	-108,062	-0,291	-0,043
259,034	-139,579	-0,204	-0,015
260,049	27,968	-0,215	-0,125
261,063	146,785	-0,259	-0,240
262,078	425,438	-0,193	-0,287
263,093	241,658	-0,146	-0,168
264,107	64,014	-0,255	-0,176
265,122	36,576	-0,202	-0,123
266,136	-49,113	-0,150	-0,049
267,151	179,801	-0,140	-0,141
268,166	-171,800	-0,091	0,002
269,180	760,124	-0,128	-0,239
270,195	486,545	-0,121	-0,191
271,209	392,911	-0,137	-0,196
272,224	661,896	-0,156	-0,278
273,239	626,716	-0,082	-0,143
274,253	15,515	-0,189	-0,102
275,268	47,364	-0,272	-0,174
276,282	43,354	-0,166	-0,104
277,297	240,715	-0,165	-0,189
278,312	-132,145	-0,237	0,021
279,326	663,979	-0,054	-0,096
280,341	335,219	-0,096	-0,128
281,355	-88,467	-0,257	0,052
282,370	-200,000	-0,053	-0,166
283,384	-200,000	-0,072	-0,234
284,399	90,406	-0,195	-0,150
285,414	432,811	-0,153	-0,229
286,428	-86,965	-0,169	-0,035
287,443	800,000	-0,111	-0,212
288,457	-200,000	-0,025	-0,167
289,472	-115,627	-0,239	-0,030
290,487	-95,742	-0,243	-0,044
291,501	-25,104	-0,187	-0,076
292,516	-35,628	-0,266	-0,099
293,530	50,791	-0,145	-0,094
294,545	-49,482	-0,224	-0,073
295,560	35,496	-0,123	-0,074
296,574	488,422	-0,084	-0,132
297,589	102,176	-0,163	-0,131
298,603	558,371	-0,144	-0,239
299,618	350,879	-0,144	-0,197
300,633	-56,042	-0,133	-0,040
301,647	-45,824	-0,097	-0,033
302,662	390,870	-0,092	-0,131
303,676	-200,000	-0,045	-0,151
304,691	24,758	-0,224	-0,127
305,706	20,401	-0,217	-0,120
306,720	156,039	-0,144	-0,136
307,735	-6,458	-0,129	-0,060
308,749	800,000	-0,093	-0,219
309,764	-200,000	-0,014	-0,077
310,779	-116,929	-0,134	-0,017
311,793	69,493	-0,147	-0,104
312,808	83,127	-0,126	-0,094
313,822	375,520	-0,081	-0,114
314,837	12,658	-0,103	-0,054
315,852	-107,916	-0,107	0,016
316,866	474,679	-0,073	-0,113
317,881	308,059	-0,111	-0,142
318,895	-44,194	-0,188	-0,064
319,910	152,820	-0,118	-0,111
320,925	77,479	-0,215	-0,157
321,939	175,159	-0,092	-0,091
322,954	241,062	-0,113	-0,130
323,968	-69,480	-0,110	-0,029
324,983	237,835	-0,033	-0,038
325,997	-117,151	-0,085	-0,010
327,012	-35,796	-0,181	-0,067
328,027	13,569	-0,158	-0,084
329,041	86,371	-0,124	-0,093
330,056	800,000	0,040	-0,120
331,070	-67,950	-0,182	0,048
332,085	-94,144	-0,130	-0,024
333,100	-37,108	-0,135	-0,049
334,114	223,466	-0,188	-0,208
335,129	198,864	-0,124	-0,131
336,143	56,822	-0,181	-0,120
337,158	-19,558	-0,159	0,067
338,173	223,275	-0,145	-0,161
339,187	577,071	-0,034	-0,057
340,202	258,045	-0,070	-0,083
341,216	164,820	-0,131	-0,127
342,231	787,839	-0,117	-0,220
343,246	-10,631	-0,138	-0,062
344,260	568,253	-0,052	-0,086
345,275	-200,000	0,008	0,081
346,289	-200,000	-0,063	-0,198
347,304	800,000	-0,102	-0,272
348,319	233,567	-0,133	-0,150
349,333	128,626	-0,173	-0,151
350,348	408,919	-0,142	-0,206
351,362	-137,811	-0,136	-0,010
352,377	170,554	-0,221	-0,217
353,392	390,480	-0,147	-0,210
354,406	66,035	-0,108	-0,075
355,421	208,467	1312,785	1404,579
356,435	160,411	1473,231	1405,045
