DTS Sentinel unit serial number:	SN410029Multiplexer serial number:	ORYXHardware model number:	OX2-SRSoftware version number:	ORYX F/W v4,00 Oryx Data Collector v3.7.2.0data status	okinstallation	B3 Nyhavnadifferential loss correction	single-endedforward channel	channel 1reverse channel	N/Adate	2023/11/29time	14:07:30forward acquisition time	300,00reverse acquisition time	0,00gamma	499,1914k internal	0,3212k external	0,3212temperature offset calibration	1,0000default loss term (dB/km)	0,3820temperature slope calibration	1,0000multiplexer offset coefficient	1,0000multiplexer slope coefficient	1,0000fibre end	0,00T internal ref (°C)	10,73T ext. ref 1 (°C)	-3,28T ext. ref 2 (°C)	-3,40length (m)	temperature (°C)	Stokes	anti-Stokes-744,400	-200,000	-0,044	-0,246
-743,385	-200,000	-0,022	0,231
-742,371	234,552	-0,085	-0,102
-741,356	800,000	-0,121	0,329
-740,342	800,000	-0,125	-0,326
-739,327	109,571	-0,231	0,200
-738,312	800,000	-0,124	-0,257
-737,298	-200,000	-0,042	0,215
-736,283	71,850	-0,253	-0,191
-735,269	-200,000	-0,073	0,341
-734,254	800,000	-0,149	-0,306
-733,239	45,277	-0,182	0,122
-732,225	-200,000	-0,017	-0,183
-731,210	94,130	0,072	0,059
-730,196	-133,013	-0,076	-0,007
-729,181	-200,000	-0,009	0,050
-728,167	800,000	-0,011	-0,028
-727,152	35,722	0,081	-0,052
-726,137	-26,668	-0,030	0,013
-725,123	-85,273	-0,058	0,013
-724,108	53,723	-0,076	-0,053
-723,094	71,510	-0,059	-0,044
-722,079	20,471	0,044	0,026
-721,064	88,669	-0,102	-0,082
-720,050	8,009	0,098	-0,053
-719,035	241,720	-0,096	-0,117
-718,021	-200,000	0,006	-0,073
-717,006	41,241	-0,116	0,076
-715,991	272,130	-0,066	0,085
-714,977	-200,000	0,043	-0,147
-713,962	800,000	-0,057	-0,119
-712,948	409,402	-0,062	-0,096
-711,933	643,467	-0,066	0,123
-710,918	19,704	-0,061	-0,036
-709,904	226,077	-0,074	-0,087
-708,889	-6,267	-0,101	0,050
-707,875	706,544	-0,017	-0,033
-706,860	432,500	0,076	-0,120
-705,845	143,189	0,027	0,026
-704,831	-68,667	0,103	-0,029
-703,816	800,000	-0,026	0,061
-702,802	800,000	-0,055	-0,118
-701,787	-87,180	-0,117	0,026
-700,772	371,749	0,027	-0,039
-699,758	-140,388	-0,106	-0,008
-698,743	126,758	0,076	-0,070
-697,729	-200,000	0,019	0,105
-696,714	-200,000	0,004	-0,038
-695,699	-200,000	-0,015	-0,176
-694,685	-54,773	-0,076	0,025
-693,670	-200,000	-0,009	-0,068
-692,656	20,153	-0,086	-0,050
-691,641	-200,000	-0,032	0,133
-690,627	-165,627	-0,144	0,004
-689,612	795,692	0,037	0,074
-688,597	-200,000	-0,008	-0,064
-687,583	-91,123	-0,089	-0,018
-686,568	800,000	-0,048	-0,123
-685,554	146,974	0,054	-0,052
-684,539	-200,000	-0,004	-0,145
-683,524	336,017	-0,032	-0,046
-682,510	-200,000	0,014	0,068
-681,495	800,000	0,043	0,129
-680,481	340,194	-0,105	-0,149
-679,466	343,634	-0,055	-0,078
-678,451	-200,000	-0,017	-0,090
-677,437	5,697	0,154	-0,082
-676,422	180,277	0,059	0,062
-675,408	21,395	-0,058	0,034
-674,393	800,000	0,048	-0,130
-673,378	-200,000	0,029	-0,137
-672,364	243,273	-0,179	-0,218
-671,349	-66,731	-0,090	-0,026
-670,335	39,857	-0,046	0,030
-669,320	-136,432	0,064	-0,005
-668,305	-200,000	0,001	0,019
-667,291	-61,706	0,045	-0,014
-666,276	619,618	-0,010	0,018
-665,262	-200,000	0,001	-0,072
-664,247	-200,000	-0,028	-0,175
-663,232	800,000	0,030	-0,066
-662,218	77,929	-0,138	-0,106
-661,203	-112,663	0,011	0,002
-660,189	442,654	0,108	0,171
-659,174	-155,656	0,021	-0,001
-658,159	-134,225	0,203	-0,018
-657,145	-200,000	0,001	-0,008
-656,130	800,000	-0,063	0,135
-655,116	-50,340	0,080	-0,027
-654,101	-83,703	-0,075	-0,017
-653,086	411,143	-0,096	-0,148
-652,072	-54,234	0,045	-0,015
-651,057	-200,000	0,020	-0,080
-650,043	-13,411	0,102	-0,048
-649,028	-31,306	-0,103	-0,042
-648,014	216,328	0,095	0,110
-646,999	17,386	-0,051	-0,029
-645,984	-89,677	0,066	0,014
-644,970	47,535	0,058	0,039
-643,955	-100,601	-0,145	-0,026
-642,941	800,000	-0,031	-0,066
-641,926	-93,146	0,156	-0,031
-640,911	800,000	-0,034	-0,073
-639,897	88,252	-0,067	0,054
-638,882	113,379	0,041	0,036
-637,868	-24,638	-0,037	0,016
-636,853	-126,756	-0,126	-0,013
-635,838	409,542	-0,040	0,061
-634,824	800,000	-0,013	-0,035
-633,809	339,994	-0,055	-0,078
-632,795	150,567	-0,022	-0,022
-631,780	-98,386	0,069	0,013
-630,765	419,104	0,013	0,020
-629,751	136,761	-0,029	-0,028
-628,736	82,003	0,072	-0,056
-627,722	31,061	-0,041	0,026
-626,707	364,884	-0,043	0,063
-625,692	-64,753	0,112	0,033
-624,678	-200,000	-0,030	-0,187
-623,663	394,148	0,018	0,027
-622,649	-200,000	0,011	-0,045
-621,634	-200,000	-0,025	-0,111
-620,619	-200,000	0,040	0,138
-619,605	-200,000	0,001	0,028
-618,590	-77,644	0,033	-0,008
-617,576	-72,081	0,158	-0,042
-616,561	-10,043	-0,127	0,061
-615,546	116,375	-0,025	0,022
-614,532	427,959	0,020	0,031
-613,517	61,700	0,060	-0,043
-612,503	13,074	0,142	0,079
-611,488	800,000	-0,034	-0,085
-610,474	800,000	0,028	0,065
-609,459	30,541	-0,070	0,043
-608,444	800,000	0,029	0,084
-607,430	800,000	-0,039	-0,080
-606,415	-110,510	0,060	0,009
-605,401	-3,623	-0,080	-0,040
-604,386	-200,000	-0,013	-0,106
-603,371	577,311	0,046	0,081
-602,357	226,857	-0,045	-0,053
-601,342	382,245	0,089	-0,133
-600,328	381,031	0,023	-0,034
-599,313	-84,364	-0,102	0,023
-598,298	-200,000	-0,007	-0,122
-597,284	-41,422	0,045	0,017
-596,269	357,627	0,096	-0,139
-595,255	-200,000	0,019	0,161
-594,240	289,389	0,039	-0,051
-593,225	-102,534	-0,213	-0,036
-592,211	-114,710	0,086	-0,012
-591,196	-151,299	0,068	0,004
-590,182	-116,042	0,019	0,002
-589,167	27,396	-0,131	0,079
-588,152	800,000	0,022	-0,053
-587,138	-200,000	0,008	0,028
-586,123	163,879	0,062	-0,063
-585,109	800,000	-0,004	-0,008
-584,094	783,902	-0,031	-0,062
-583,079	-137,703	0,118	-0,009
-582,065	-200,000	-0,019	0,119
-581,050	-200,000	0,027	-0,152
-580,036	-40,359	-0,150	-0,056
-579,021	111,384	-0,100	0,087
-578,006	-85,845	-0,125	-0,028
-576,992	-39,519	0,074	-0,028
-575,977	401,525	0,086	0,131
-574,963	-200,000	0,034	0,221
-573,948	-152,179	-0,103	-0,005
-572,934	-7,616	-0,083	-0,040
-571,919	47,186	0,104	-0,070
-570,904	288,448	-0,077	-0,100
-569,890	-13,197	0,096	-0,045
-568,875	-147,550	0,161	-0,010
-567,861	143,856	-0,049	-0,047
-566,846	-109,307	-0,009	0,001
-565,831	-200,000	0,031	-0,101
-564,817	-123,744	-0,201	-0,023
-563,802	174,169	0,020	-0,021
-562,788	-18,451	-0,087	0,039
-561,773	-72,956	-0,049	-0,013
-560,758	299,499	0,108	-0,144
-559,744	-124,282	-0,085	0,009
-558,729	81,356	0,124	-0,096
-557,715	104,395	-0,057	-0,048
-556,700	8,785	-0,089	-0,048
-555,685	24,280	-0,034	0,020
-554,671	125,187	0,065	-0,059
-553,656	-200,000	0,006	-0,093
-552,642	53,241	0,075	0,052
-551,627	-175,537	0,090	-0,002
-550,612	47,007	-0,147	-0,098
-549,598	209,748	-0,089	-0,101
-548,583	325,534	-0,042	-0,059
-547,569	-200,000	0,044	-0,153
-546,554	107,178	0,070	-0,060
-545,539	-200,000	-0,046	-0,174
-544,525	-200,000	0,008	-0,141
-543,510	-200,000	-0,017	-0,085
-542,496	-200,000	-0,002	-0,089
-541,481	-200,000	-0,008	-0,176
-540,466	-200,000	0,010	0,087
-539,452	800,000	-0,065	-0,163
-538,437	-200,000	0,012	0,095
-537,423	-124,520	-0,067	-0,007
-536,408	27,163	-0,102	-0,061
-535,393	-51,087	0,094	0,032
-534,379	150,661	-0,070	-0,069
-533,364	-136,545	-0,180	0,015
-532,350	447,247	0,053	0,085
-531,335	-200,000	0,015	-0,049
-530,321	56,268	0,095	0,066
-529,306	-92,993	-0,056	-0,011
-528,291	70,848	-0,135	-0,101
-527,277	-200,000	0,017	-0,177
-526,262	427,208	0,073	-0,114
-525,248	462,082	0,037	0,059
-524,233	51,408	0,114	0,078
-523,218	249,511	-0,079	0,096
-522,204	800,000	-0,022	0,049
-521,189	263,993	0,046	-0,058
-520,175	176,967	-0,068	-0,071
-519,160	800,000	-0,007	-0,021
-518,145	186,577	0,119	0,128
-517,131	132,447	-0,055	0,051
-516,116	-29,631	0,096	0,039
-515,102	-128,352	0,066	0,007
-514,087	-96,013	-0,206	0,039
-513,072	800,000	0,019	0,051
-512,058	-87,497	0,081	0,017
-511,043	-200,000	-0,024	0,080
-510,029	83,496	-0,154	-0,120
-509,014	619,807	0,068	0,123
-507,999	800,000	-0,005	-0,010
-506,985	-48,736	-0,055	0,019
-505,970	-85,761	-0,114	-0,025
-504,956	-44,362	0,068	0,024
-503,941	-33,077	-0,091	0,036
-502,926	-200,000	0,015	0,087
-501,912	185,275	0,068	-0,073
-500,897	208,024	-0,101	-0,113
-499,883	161,375	-0,058	0,059
-498,868	293,782	0,096	-0,127
-497,853	123,282	-0,047	-0,042
-496,839	103,928	-0,124	-0,104
-495,824	-135,685	0,093	0,008
-494,810	294,986	0,065	0,086
-493,795	228,797	-0,062	0,072
-492,781	800,000	0,049	0,116
-491,766	800,000	-0,050	-0,132
-490,751	254,864	-0,085	-0,104
-489,737	334,405	0,090	0,126
-488,722	327,520	-0,018	-0,025
-487,708	-148,880	-0,065	0,004
-486,693	-53,263	0,075	-0,024
-485,678	-124,782	-0,122	-0,013
-484,664	104,465	-0,028	0,023
-483,649	800,000	0,024	-0,058
-482,635	541,569	-0,089	-0,152
-481,620	318,708	0,095	0,129
-480,605	-101,733	-0,146	0,025
-479,591	453,867	-0,054	-0,085
-478,576	-100,763	-0,105	0,018
-477,562	800,000	-0,031	0,091
-476,547	60,528	-0,078	-0,055
-475,532	-90,874	0,023	0,005
-474,518	-200,000	-0,021	-0,076
-473,503	28,721	-0,115	-0,070
-472,489	37,462	0,190	0,121
-471,474	-168,741	0,175	0,005
-470,459	1,660	0,120	0,062
-469,445	22,996	-0,091	0,054
-468,430	258,473	0,049	0,061
-467,416	-200,000	0,004	0,020
-466,401	265,963	0,097	0,122
-465,386	-49,536	-0,086	-0,029
-464,372	-200,000	0,001	0,015
-463,357	96,263	0,084	0,069
-462,343	800,000	0,036	-0,086
-461,328	-200,000	-0,027	0,120
-460,313	82,817	-0,052	0,040
-459,299	-152,324	0,119	0,006
-458,284	800,000	-0,018	0,038
-457,270	-200,000	0,000	0,056
-456,255	-200,000	0,004	-0,163
-455,241	-31,610	-0,077	-0,031
-454,226	800,000	-0,063	0,162
-453,211	-71,548	0,109	-0,029
-452,197	-47,396	0,093	-0,032
-451,182	29,173	0,139	0,084
-450,168	-190,831	0,060	0,000
-449,153	52,143	-0,077	0,052
-448,138	800,000	0,016	-0,036
-447,124	-200,000	0,001	-0,073
-446,109	-92,184	0,052	-0,010
-445,095	-200,000	0,008	0,134
-444,080	-200,000	0,022	0,166
-443,065	-200,000	-0,011	0,056
-442,051	272,666	-0,090	-0,115
-441,036	800,000	-0,061	-0,131
-440,022	-59,454	0,079	-0,024
-439,007	-166,117	-0,043	-0,001
-437,992	-29,420	0,134	0,055
-436,978	45,912	-0,024	0,016
-435,963	-200,000	-0,016	0,088
-434,949	371,498	-0,083	0,121
-433,934	-143,877	-0,060	0,004
-432,919	562,939	-0,052	0,091
-431,905	57,091	-0,028	-0,020
-430,890	-112,033	-0,126	-0,018
-429,876	237,778	0,067	0,080
-428,861	-200,000	-0,003	0,109
-427,846	-109,622	0,045	-0,007
-426,832	324,846	0,036	0,049
-425,817	800,000	-0,049	-0,115
-424,803	87,772	0,011	0,008
-423,788	25,667	-0,053	-0,032
-422,773	174,750	-0,075	0,078
-421,759	800,000	0,016	0,039
-420,744	104,774	0,136	0,114
-419,730	112,117	-0,084	0,072
-418,715	-200,000	0,009	-0,054
-417,701	-200,000	0,002	-0,066
-416,686	18,411	-0,052	-0,030
-415,671	84,950	0,080	0,062
-414,657	800,000	-0,053	0,117
-413,642	51,743	-0,134	0,091
-412,628	-200,000	0,034	0,119
-411,613	523,152	-0,018	-0,030
-410,598	4,679	-0,053	-0,028
-409,584	85,745	0,114	-0,090
-408,569	-200,000	0,013	0,097
-407,555	-137,895	0,176	0,014
-406,540	253,893	-0,065	0,079
-405,525	800,000	0,051	-0,160
-404,511	-21,153	-0,047	0,021
-403,496	30,916	0,082	0,050
-402,482	-102,596	-0,061	0,010
-401,467	-199,920	0,159	0,001
-400,452	383,838	0,074	0,110
-399,438	800,000	-0,011	0,031
-398,423	410,176	0,039	-0,059
-397,409	-147,010	-0,142	0,009
-396,394	-200,000	0,037	-0,122
-395,379	-184,858	-0,136	-0,002
-394,365	206,775	-0,057	-0,064
-393,350	-2,993	0,130	0,065
-392,336	-59,790	-0,119	-0,036
-391,321	-96,485	-0,073	-0,014
-390,306	342,423	-0,034	0,048
-389,292	18,692	-0,040	-0,023
-388,277	-200,000	-0,019	0,090
-387,263	-200,000	0,012	0,086
-386,248	-72,358	-0,113	-0,030
-385,233	800,000	-0,011	0,023
-384,219	622,306	-0,034	-0,061
-383,204	-150,392	-0,219	-0,012
-382,190	800,000	-0,058	-0,115
-381,175	-78,844	-0,043	-0,010
-380,160	525,567	0,017	0,029
-379,146	631,802	-0,020	0,036
-378,131	68,530	0,084	0,062
-377,117	800,000	-0,015	-0,034
-376,102	114,726	0,171	-0,149
-375,088	-16,723	-0,120	-0,054
-374,073	41,900	0,112	0,073
-373,058	513,510	0,036	-0,060
-372,044	776,011	0,060	0,117
-371,029	-12,200	0,096	0,045
-370,015	93,808	-0,055	-0,044
-369,000	72,562	0,038	-0,028
-367,985	-195,270	-0,080	-0,000
-366,971	48,201	0,103	-0,069
-365,956	800,000	-0,041	-0,084
-364,942	800,000	0,054	0,107
-363,927	-149,181	-0,017	-0,001
-362,912	-200,000	0,095	0,000
-361,898	-55,870	0,053	-0,017
-360,883	28,485	-0,110	0,066
-359,869	182,666	-0,043	0,045
-358,854	800,000	0,015	0,046
-357,839	800,000	0,047	-0,129
-356,825	150,735	0,101	0,098
-355,810	180,502	0,069	-0,072
-354,796	-75,486	0,075	0,019
-353,781	-102,555	-0,090	0,015
-352,766	-200,000	-0,096	0,000
-351,752	390,991	-0,018	-0,027
-350,737	4,904	0,099	0,052
-349,723	-200,000	0,013	0,051
-348,708	-200,000	-0,010	0,074
-347,693	106,242	-0,069	0,059
-346,679	-200,000	0,003	-0,087
-345,664	-38,807	0,083	0,031
-344,650	800,000	0,034	-0,071
-343,635	435,192	0,084	-0,130
-342,620	800,000	0,005	-0,013
-341,606	353,067	0,085	-0,121
-340,591	481,509	-0,056	0,090
-339,577	-200,000	-0,006	0,047
-338,562	60,603	0,039	0,028
-337,548	-37,558	0,040	0,015
-336,533	357,439	-0,063	-0,090
-335,518	-200,000	-0,016	0,109
-334,504	-53,240	-0,098	0,032
-333,489	-200,000	0,003	-0,014
-332,475	41,573	-0,109	-0,070
-331,460	-200,000	0,000	-0,117
-330,445	-5,067	-0,109	0,053
-329,431	-200,000	0,008	0,080
-328,416	-200,000	0,039	0,135
-327,402	-200,000	-0,016	0,149
-326,387	84,243	0,064	0,050
-325,372	-200,000	0,003	-0,068
-324,358	-175,607	-0,120	-0,002
-323,343	-200,000	-0,009	-0,123
-322,329	-142,487	-0,039	0,003
-321,314	-200,000	-0,011	-0,088
-320,299	-78,926	0,079	0,019
-319,285	81,009	0,053	0,040
-318,270	-136,728	-0,112	-0,009
-317,256	415,841	-0,089	-0,135
-316,241	-200,000	0,014	-0,072
-315,226	-76,980	0,046	0,011
-314,212	562,071	0,008	-0,014
-313,197	234,249	0,002	-0,002
-312,183	-6,260	-0,157	-0,076
-311,168	-79,776	0,019	-0,004
-310,153	-55,294	-0,054	0,017
-309,139	-164,943	-0,193	-0,006
-308,124	119,404	0,075	-0,066
-307,110	464,058	0,005	-0,008
-306,095	-114,701	-0,079	-0,011
-305,080	-200,000	0,001	0,012
-304,066	200,766	0,064	-0,070
-303,051	156,362	-0,078	-0,077
-302,037	6,882	-0,094	-0,050
-301,022	-200,000	-0,010	0,044
-300,008	100,243	0,067	0,055
-298,993	-200,000	-0,035	0,156
-297,978	-200,000	0,010	-0,107
-296,964	12,175	0,065	-0,035
-295,949	-64,623	0,027	0,008
-294,935	-23,400	0,075	0,032
-293,920	-65,784	-0,043	0,012
-292,905	100,980	0,161	0,133
-291,891	6,615	0,017	0,009
-290,876	83,861	-0,033	0,025
-289,862	-39,678	-0,095	0,035
-288,847	-126,090	0,113	-0,012
-287,832	48,362	-0,032	-0,021
-286,818	-28,461	-0,124	-0,051
-285,803	-200,000	0,007	0,027
-284,789	-200,000	-0,019	0,067
-283,774	-200,000	0,030	0,164
-282,759	800,000	-0,009	0,029
-281,745	179,684	-0,033	0,034
-280,730	-200,000	-0,034	-0,111
-279,716	452,346	-0,111	0,176
-278,701	-30,062	-0,074	0,030
-277,686	66,983	0,041	0,030
-276,672	-49,965	0,044	0,015
-275,657	800,000	0,051	0,121
-274,643	235,214	-0,067	-0,079
-273,628	725,420	-0,048	-0,092
-272,613	-200,000	-0,031	0,145
-271,599	53,042	0,077	0,053
-270,584	-44,396	0,092	0,033
-269,570	800,000	-0,016	0,050
-268,555	80,705	0,036	0,027
-267,540	-200,000	0,021	-0,101
-266,526	-200,000	-0,031	-0,103
-265,511	512,951	0,029	0,048
-264,497	800,000	-0,016	0,040
-263,482	800,000	0,073	0,161
-262,467	-34,567	-0,044	0,017
-261,453	-67,348	-0,029	0,008
-260,438	-200,000	0,034	-0,125
-259,424	-200,000	-0,021	-0,079
-258,409	-52,881	-0,070	0,023
-257,395	-91,860	0,132	-0,026
-256,380	141,595	0,108	-0,102
-255,365	134,939	0,085	0,079
-254,351	15,922	0,133	-0,074
-253,336	174,120	-0,114	-0,117
-252,322	800,000	0,054	-0,152
-251,307	-88,693	0,099	0,021
-250,292	800,000	0,020	-0,056
-249,278	484,579	0,046	0,074
-248,263	31,255	0,091	0,055
-247,249	-200,000	0,006	0,103
-246,234	-20,056	0,023	0,010
-245,219	152,442	-0,124	-0,121
-244,205	-10,364	-0,067	-0,032
-243,190	711,997	0,064	-0,121
-242,176	625,929	-0,039	-0,070
-241,161	126,750	0,052	0,047
-240,146	-72,365	-0,041	0,011
-239,132	800,000	0,021	-0,048
-238,117	-163,108	0,087	0,003
-237,103	-28,529	-0,156	-0,063
-236,088	-32,516	0,076	0,030
-235,073	-68,170	0,066	0,018
-234,059	-200,000	-0,002	0,068
-233,044	26,833	0,155	-0,092
-232,030	800,000	0,048	-0,119
-231,015	-1,025	0,085	-0,042
-230,000	-200,000	-0,002	-0,033
-228,986	-200,000	0,037	0,131
-227,971	-200,000	0,004	-0,132
-226,957	800,000	-0,025	0,051
-225,942	33,055	-0,104	0,064
-224,927	66,090	0,073	-0,053
-223,913	800,000	-0,094	-0,221
-222,898	-200,000	0,007	-0,161
-221,884	800,000	-0,024	-0,059
-220,869	586,100	-0,077	0,134
-219,855	-200,000	-0,005	0,103
-218,840	81,540	-0,032	-0,025
-217,825	360,094	-0,056	-0,080
-216,811	-60,606	-0,064	0,019
-215,796	36,110	0,092	-0,057
-214,782	-89,182	-0,125	0,026
-213,767	86,703	0,076	0,059
-212,752	-172,362	0,132	0,003
-211,738	-49,085	0,040	-0,014
-210,723	252,517	0,053	0,065
-209,709	-200,000	-0,004	-0,056
-208,694	-48,208	0,059	0,020
-207,679	580,696	0,055	-0,096
-206,665	-16,692	0,072	-0,032
-205,650	-200,000	0,010	-0,038
-204,636	-102,894	0,063	-0,010
-203,621	-35,155	0,163	0,063
-202,606	94,703	0,019	-0,015
-201,592	-1,987	0,055	-0,028
-200,577	-200,000	-0,002	-0,053
-199,563	169,175	0,068	0,069
-198,548	-200,000	-0,007	0,071
-197,533	-200,000	-0,024	0,099
-196,519	800,000	-0,028	0,066
-195,504	-200,000	0,003	-0,031
-194,490	125,866	0,138	-0,124
-193,475	41,040	-0,042	0,027
-192,460	-200,000	-0,011	0,059
-191,446	-200,000	-0,009	0,040
-190,431	-134,580	0,080	0,007
-189,417	497,277	0,072	0,118
-188,402	61,923	-0,053	0,037
-187,387	-200,000	0,002	-0,080
-186,373	214,511	0,100	0,113
-185,358	-36,116	-0,119	-0,045
-184,344	-200,000	0,038	0,000
-183,329	721,499	0,016	-0,030
-182,315	413,540	-0,063	0,095
-181,300	275,754	-0,077	0,097
-180,285	182,404	-0,075	0,078
-179,271	15,036	0,004	0,002
-178,256	-29,838	0,083	-0,033
-177,242	273,355	-0,039	0,049
-176,227	-200,000	-0,010	0,163
-175,212	328,354	0,067	0,091
-174,198	-157,585	-0,068	0,003
-173,183	692,983	-0,040	0,074
-172,169	-200,000	-0,004	-0,033
-171,154	226,442	-0,063	0,072
-170,139	-200,000	0,020	-0,133
-169,125	84,058	0,120	0,092
-168,110	34,320	0,062	0,038
-167,096	-200,000	-0,011	-0,088
-166,081	-62,055	-0,094	-0,028
-165,066	800,000	-0,016	0,032
-164,052	800,000	-0,076	0,169
-163,037	274,093	0,112	0,141
-162,023	191,127	-0,072	0,077
-161,008	-200,000	-0,022	0,137
-159,993	800,000	-0,066	0,186
-158,979	-200,000	0,013	0,044
-157,964	-200,000	-0,004	0,028
-156,950	-73,571	0,158	-0,041
-155,935	800,000	-0,048	0,127
-154,920	46,576	0,048	-0,031
-153,906	-58,341	0,095	0,029
-152,891	-200,000	0,027	-0,239
-151,877	48,246	0,099	-0,065
-150,862	-111,893	-0,107	0,015
-149,847	800,000	0,015	-0,033
-148,833	105,999	0,023	-0,019
-147,818	650,177	-0,083	-0,151
-146,804	800,000	0,078	0,174
-145,789	51,596	0,026	0,017
-144,775	327,842	0,035	0,047
-143,760	800,000	0,081	-0,182
-142,745	67,986	-0,051	0,037
-141,731	-146,746	-0,037	-0,002
-140,716	-26,686	0,078	-0,032
-139,702	14,066	-0,091	-0,050
-138,687	-153,790	0,072	-0,003
-137,672	-102,226	-0,097	0,016
-136,658	-200,000	0,004	0,045
-135,643	36,770	-0,121	0,076
-134,629	-200,000	0,029	-0,111
-133,614	-200,000	0,012	0,128
-132,599	800,000	-0,040	0,094
-131,585	97,361	0,058	0,047
-130,570	800,000	-0,008	0,021
-129,556	-171,483	-0,094	0,002
-128,541	400,965	0,038	-0,057
-127,526	328,981	0,045	0,061
-126,512	-195,361	0,215	0,001
-125,497	800,000	0,029	0,070
-124,483	-200,000	-0,016	-0,060
-123,468	-200,000	0,017	0,098
-122,453	-200,000	-0,001	-0,077
-121,439	-200,000	-0,037	-0,118
-120,424	235,790	-0,015	0,018
-119,410	41,231	0,045	0,028
-118,395	236,158	0,146	0,171
-117,380	800,000	-0,006	0,018
-116,366	-200,000	0,006	-0,068
-115,351	160,243	-0,075	-0,074
-114,337	-136,278	0,090	-0,007
-113,322	-141,642	-0,140	0,010
-112,307	-200,000	0,016	0,100
-111,293	-54,325	0,082	-0,026
-110,278	-200,000	-0,007	0,139
-109,264	169,887	-0,139	0,141
-108,249	800,000	-0,051	0,104
-107,234	276,199	0,044	0,055
-106,220	-200,000	-0,028	0,156
-105,205	279,274	0,073	-0,093
-104,191	-200,000	0,027	0,100
-103,176	67,621	-0,071	0,051
-102,162	-103,016	0,018	0,003
-101,147	-29,647	-0,094	-0,038
-100,132	-84,793	-0,167	0,037
-99,118	586,026	0,030	0,053
-98,103	-44,336	-0,088	0,031
-97,089	-200,000	-0,003	0,131
-96,074	239,971	0,075	0,088
-95,059	793,841	0,025	-0,049
-94,045	-118,703	0,102	-0,013
-93,030	761,285	-0,019	-0,036
-92,016	680,123	0,070	-0,129
-91,001	-108,047	0,149	0,023
-89,986	436,029	-0,058	-0,089
-88,972	800,000	0,027	-0,062
-87,957	800,000	-0,018	0,040
-86,943	-69,704	0,051	0,014
-85,928	-9,372	-0,178	-0,084
-84,913	104,640	0,069	-0,057
-83,899	667,809	-0,015	-0,028
-82,884	-18,148	0,144	-0,064
-81,870	331,542	0,088	0,120
-80,855	302,939	0,041	0,054
-79,840	19,943	-0,104	-0,059
-78,826	71,571	-0,095	-0,069
-77,811	158,795	-0,057	-0,056
-76,797	-124,310	-0,066	-0,007
-75,782	95,458	-0,057	0,046
-74,767	-77,710	0,181	0,044
-73,753	-200,000	-0,012	0,082
-72,738	800,000	0,068	0,146
-71,724	82,207	0,113	-0,087
-70,709	312,466	-0,129	-0,172
-69,694	800,000	-0,031	0,081
-68,680	800,000	-0,041	-0,100
-67,665	-200,000	-0,002	-0,090
-66,651	126,669	-0,014	-0,013
-65,636	63,363	-0,106	0,075
-64,622	55,610	0,096	0,066
-63,607	-97,867	-0,087	0,016
-62,592	-200,000	0,003	-0,069
-61,578	-159,902	0,111	-0,004
-60,563	130,768	-0,034	-0,031
-59,549	800,000	-0,040	0,085
-58,534	29,691	-1,908	-1,143
-57,519	497,430	-1,240	-2,022
-56,505	-200,000	-0,333	-4,362
-55,490	464,704	0,832	1,317
-54,476	800,000	5,149	11,338
-53,461	-200,000	20,831	329,178
-52,446	800,000	756,927	2322,980
-51,432	550,799	1661,417	2823,881
-50,417	73,397	1663,093	1226,863
-49,403	18,568	1536,323	864,500
-48,388	12,545	1459,173	791,962
-47,373	18,985	1449,938	817,820
-46,359	15,761	1439,214	796,408
-45,344	10,866	1435,080	770,788
-44,330	10,759	1433,110	769,188
-43,315	10,791	1431,232	768,304
-42,300	10,819	1429,329	767,386
-41,286	10,850	1428,110	766,848
-40,271	10,755	1427,042	765,792
-39,257	10,731	1426,000	765,089
-38,242	10,808	1424,436	764,587
-37,227	10,795	1423,606	764,047
-36,213	10,820	1422,358	763,463
-35,198	10,811	1421,225	762,782
-34,184	10,880	1420,213	762,536
-33,169	10,776	1418,952	761,337
-32,154	10,808	1417,890	760,889
-31,140	10,862	1416,425	760,326
-30,125	10,910	1415,515	760,036
-29,111	10,864	1414,588	759,289
-28,096	10,793	1413,507	758,348
-27,082	10,764	1412,057	757,401
-26,067	10,792	1411,186	757,038
-25,052	10,857	1409,849	756,593
-24,038	10,783	1409,116	755,824
-23,023	10,794	1407,979	755,237
-22,009	10,745	1406,962	754,430
-20,994	10,759	1405,944	753,920
-19,979	10,759	1405,124	753,452
-18,965	10,695	1404,232	752,645
-17,950	10,722	1403,290	752,237
-16,936	10,685	1402,382	751,549
-15,921	10,652	1401,490	750,884
-14,906	10,675	1400,473	750,418
-13,892	10,686	1399,604	749,974
-12,877	10,694	1398,758	749,527
-11,863	10,630	1397,895	748,738
-10,848	10,625	1397,025	748,219
-9,833	10,609	1396,085	747,612
-8,819	10,571	1395,440	747,063
-7,804	10,579	1394,423	746,521
-6,790	10,598	1393,231	745,944
-5,775	10,580	1392,354	745,362
-4,760	10,563	1391,494	744,792
-3,746	10,573	1390,510	744,283
-2,731	10,600	1389,721	743,957
-1,717	10,573	1388,702	743,256
-0,702	10,580	1386,868	742,277
0,313	14,641	1300,671	714,720
1,327	30,899	692,418	417,425
2,342	47,887	120,028	78,919
3,356	-1,000	16,545	8,227
4,371	3,624	3,428	1,757
5,386	-27,322	0,855	0,349
6,400	800,000	0,188	0,471
7,415	-20,651	-0,208	-0,090
8,429	109,921	-0,214	-0,181
9,444	241,441	-0,357	-0,421
10,459	-75,547	-0,279	-0,069
11,473	34,002	-0,274	-0,168
12,488	30,819	-0,285	-0,172
13,502	145,052	-0,204	-0,192
14,517	440,814	-0,246	-0,380
15,531	70,841	-0,334	-0,243
16,546	-0,960	-0,452	-0,224
17,561	800,000	-0,150	-0,331
18,575	-80,629	-0,177	-0,041
19,590	151,783	-0,352	-0,338
20,604	-32,365	-0,286	-0,112
21,619	13,773	-0,456	-0,249
22,634	18,355	-0,489	-0,274
23,648	279,539	-0,351	-0,442
24,663	62,669	-0,426	-0,299
25,677	31,623	-0,270	-0,163
26,692	46,123	-0,288	-0,187
27,707	133,259	-0,300	-0,273
28,721	135,453	-0,266	-0,243
29,736	21,960	-0,544	-0,311
30,750	35,763	-0,410	-0,253
31,765	175,475	-0,448	-0,458
32,780	221,590	-0,304	-0,344
33,794	77,484	-0,395	-0,295
34,809	156,224	-0,279	-0,271
35,823	378,760	-0,312	-0,450
36,838	-0,186	-0,322	-0,160
37,853	32,640	-0,481	-0,292
38,867	176,277	-0,355	-0,363
39,882	101,671	-0,326	-0,267
40,896	82,235	-0,387	-0,295
41,911	111,323	-0,368	-0,312
42,926	231,055	-0,316	-0,364
43,940	90,368	-0,326	-0,256
44,955	139,428	-0,310	-0,287
45,969	282,402	-0,326	-0,412
46,984	13,107	-0,288	-0,156
47,999	26,233	-0,379	-0,222
49,013	171,646	-0,304	-0,307
50,028	-77,699	-0,302	-0,073
51,042	507,088	-0,247	-0,405
52,057	66,044	-0,384	-0,273
53,071	-3,748	-0,272	-0,132
54,086	61,403	-0,304	-0,212
55,101	54,459	-0,318	-0,215
56,115	35,030	-0,287	-0,176
57,130	19,193	-0,325	-0,183
58,144	187,062	-0,327	-0,342
59,159	131,637	-0,426	-0,385
60,174	108,240	-0,300	-0,251
61,188	-36,608	-0,488	-0,183
62,203	58,522	-0,339	-0,233
63,217	95,188	-0,303	-0,242
64,232	-8,631	-0,348	-0,163
65,247	134,768	-0,268	-0,244
66,261	-111,308	-0,454	-0,064
67,276	100,072	-0,288	-0,234
68,290	42,991	-0,335	-0,214
69,305	-103,853	-0,334	-0,054
70,320	63,731	-0,286	-0,201
71,334	29,161	-0,254	-0,151
72,349	11,383	-0,432	-0,231
73,363	39,950	-0,447	-0,281
74,378	325,704	-0,241	-0,324
75,393	-14,099	-0,260	-0,117
76,407	-64,765	-0,334	-0,094
77,422	15,077	-0,268	-0,146
78,436	-92,087	-0,229	-0,045
79,451	-31,539	-0,350	-0,137
80,466	-58,677	-0,417	-0,126
81,480	86,197	-0,233	-0,179
82,495	36,867	-0,309	-0,191
83,509	155,783	-0,200	-0,193
84,524	37,160	-0,219	-0,135
85,539	37,477	-0,271	-0,168
86,553	-38,151	-0,360	-0,133
87,568	76,236	-0,229	-0,169
88,582	58,232	-0,359	-0,246
89,597	-29,337	-0,350	-0,140
90,611	-74,248	-0,189	-0,047
91,626	95,588	-0,226	-0,180
92,641	319,010	-0,260	-0,345
93,655	98,426	-0,188	-0,151
94,670	132,282	-0,310	-0,280
95,684	40,654	-0,368	-0,232
96,699	-6,939	-0,313	-0,148
97,714	50,498	-0,337	-0,223
98,728	-100,938	-0,225	-0,038
99,743	-118,498	-0,260	-0,032
100,757	39,513	-0,285	-0,178
101,772	-34,172	-0,246	-0,094
102,787	107,945	-0,348	-0,289
103,801	70,746	-0,373	-0,270
104,816	212,178	-0,226	-0,249
105,830	800,000	-0,106	-0,231
106,845	203,825	-0,204	-0,221
107,860	-151,126	-0,316	-0,016
108,874	-86,174	-0,393	-0,084
109,889	58,822	-0,215	-0,147
110,903	162,811	-0,276	-0,271
111,918	133,392	-0,219	-0,198
112,933	-109,328	-0,454	-0,066
113,947	-127,450	-0,197	-0,020
114,962	183,201	-0,274	-0,283
115,976	167,622	-0,227	-0,225
116,991	28,226	-0,249	-0,146
118,006	19,544	-0,329	-0,184
119,020	-8,743	-0,238	-0,111
120,035	-8,315	-0,280	-0,131
121,049	-110,621	-0,198	-0,028
122,064	-33,177	-0,287	-0,110
123,079	90,390	-0,154	-0,120
124,093	343,007	-0,184	-0,252
125,108	127,461	-0,332	-0,294
126,122	800,000	-0,101	-0,222
127,137	-21,929	-0,240	-0,101
128,151	166,382	-0,215	-0,213
129,166	-10,953	-0,384	-0,176
130,181	248,086	-0,200	-0,236
131,195	41,575	-0,340	-0,214
132,210	254,579	-0,185	-0,221
133,224	47,268	-0,236	-0,153
134,239	-1,591	-0,216	-0,106
135,254	33,074	-0,296	-0,178
136,268	18,594	-0,211	-0,117
137,283	104,404	-0,221	-0,181
138,297	109,106	-0,262	-0,219
139,312	346,495	-0,162	-0,222
140,327	101,460	-0,229	-0,186
141,341	182,705	-0,189	-0,194
142,356	114,889	-0,250	-0,212
143,370	-50,199	-0,298	-0,098
144,385	91,372	-0,173	-0,135
145,400	91,717	-0,283	-0,222
146,414	21,804	-0,259	-0,147
147,429	46,971	-0,209	-0,135
148,443	407,439	-0,195	-0,287
149,458	146,314	-0,241	-0,225
150,473	131,239	-0,236	-0,211
151,487	-98,093	-0,192	0,034
152,502	157,636	-0,212	-0,204
153,516	14,844	-0,277	-0,150
154,531	97,646	-0,240	-0,191
155,546	473,248	-0,140	-0,220
156,560	118,669	-0,187	-0,161
157,575	-105,369	-0,212	-0,033
158,589	319,811	-0,157	-0,207
159,604	30,854	-0,247	-0,147
160,619	120,078	-0,172	-0,148
161,633	-77,110	-0,315	-0,076
162,648	-200,000	-0,057	-0,196
163,662	84,596	-0,241	-0,184
164,677	259,696	-0,256	-0,308
165,692	-48,185	-0,095	-0,032
166,706	-28,979	-0,148	-0,059
167,721	107,401	-0,248	-0,205
168,735	193,961	-0,327	-0,344
169,750	72,121	-0,228	-0,165
170,764	158,907	-0,244	-0,236
171,779	18,348	-0,188	-0,104
172,794	87,623	-0,267	-0,206
173,808	25,061	-0,247	-0,142
174,823	77,273	-0,150	-0,110
175,837	81,658	-0,156	-0,117
176,852	105,041	-0,315	-0,258
177,867	150,264	-0,225	-0,212
178,881	76,072	-0,139	-0,102
179,896	-169,437	-0,278	0,007
180,910	-200,000	-0,077	-0,293
181,925	99,260	-0,261	-0,209
182,940	110,273	-0,206	-0,172
183,954	-76,425	-0,126	0,030
184,969	48,492	-0,221	-0,143
185,983	116,358	-0,096	-0,081
186,998	-45,801	-0,260	-0,089
188,013	-57,577	-0,240	-0,073
189,027	116,129	-0,287	-0,244
190,042	192,912	-0,246	-0,258
191,056	92,075	-0,314	-0,245
192,071	-3,423	-0,164	-0,079
193,086	-162,021	-0,186	-0,006
194,100	-69,563	-0,193	-0,051
195,115	-92,524	-0,227	-0,044
196,129	352,285	-0,238	-0,327
197,144	138,120	-0,251	-0,228
198,159	37,069	-0,203	-0,124
199,173	-73,957	-0,196	-0,049
200,188	-49,119	-0,213	-0,070
201,202	43,688	-0,150	-0,095
202,217	-17,909	-0,151	-0,065
203,232	213,029	-0,167	-0,183
204,246	-0,028	-0,132	-0,065
205,261	15,463	-0,232	-0,126
206,275	3,713	-0,151	-0,076
207,290	-200,000	0,043	-0,162
208,304	800,000	-0,022	-0,064
209,319	145,478	-0,116	-0,108
210,334	17,750	-0,250	-0,137
211,348	-33,792	-0,301	-0,114
212,363	-200,000	0,055	-0,239
213,377	8,330	-0,256	-0,133
214,392	-107,587	-0,181	0,027
215,407	8,806	-0,102	-0,053
216,421	153,046	-0,064	-0,061
217,436	-23,871	-0,245	-0,101
218,450	286,478	-0,154	-0,193
219,465	97,534	-0,146	-0,116
220,480	-9,665	-0,281	-0,129
221,494	-44,866	-0,243	-0,083
222,509	117,450	-0,098	-0,083
223,523	-96,150	-0,320	-0,058
224,538	-16,517	-0,344	-0,150
225,553	3,142	-0,213	-0,107
226,567	21,142	-0,153	-0,086
227,582	116,363	-0,206	-0,175
228,596	152,290	-0,194	-0,183
229,611	-16,938	-0,120	-0,052
230,626	201,627	-0,231	-0,246
231,640	248,379	-0,129	-0,151
232,655	40,287	-0,239	-0,148
233,669	285,771	-0,157	-0,196
234,684	501,608	-0,174	-0,279
235,699	-90,336	-0,084	-0,017
236,713	-200,000	-0,040	-0,233
237,728	-91,381	-0,158	-0,031
238,742	452,310	-0,181	-0,277
239,757	-200,000	-0,000	-0,161
240,772	303,436	-0,151	-0,194
241,786	178,960	-0,092	-0,093
242,801	-200,000	-0,057	-0,200
243,815	-200,000	-0,032	-0,114
244,830	-6,599	-0,241	-0,113
245,844	234,440	-0,139	-0,158
246,859	-113,039	-0,171	-0,023
247,874	84,199	-0,275	-0,207
248,888	54,976	-0,238	-0,158
249,903	-55,883	-0,172	-0,053
250,917	-200,000	-0,073	-0,000
251,932	243,255	-0,224	-0,260
252,947	800,000	-0,090	-0,210
253,961	0,496	-0,275	-0,135
254,976	791,106	-0,136	-0,260
255,990	-94,655	-0,187	-0,035
257,005	-200,000	-0,014	-0,126
258,020	53,104	-0,163	-0,107
259,034	62,518	-0,207	-0,142
260,049	-40,905	-0,159	-0,056
261,063	-9,724	-0,207	-0,095
262,078	117,973	-0,140	-0,119
263,093	374,602	-0,125	-0,176
264,107	243,694	-0,125	-0,144
265,122	3,466	-0,132	-0,066
266,136	381,108	-0,154	-0,219
267,151	68,580	-0,144	-0,101
268,166	198,883	-0,099	-0,105
269,180	-200,000	-0,040	-0,161
270,195	96,853	-0,232	-0,183
271,209	800,000	-0,099	-0,295
272,224	250,442	-0,132	-0,155
273,239	109,359	-0,176	-0,145
274,253	800,000	-0,068	-0,187
275,268	42,293	-0,132	-0,083
276,282	-73,347	-0,213	-0,053
277,297	223,091	-0,169	-0,188
278,312	306,840	-0,151	-0,194
279,326	-50,338	-0,095	0,031
280,341	-41,448	-0,207	-0,073
281,355	-16,037	-0,073	-0,032
282,370	460,208	-0,066	-0,102
283,384	82,346	-0,110	-0,082
284,399	781,398	-0,113	-0,214
285,414	-200,000	-0,038	-0,186
286,428	-35,893	-0,192	-0,071
287,443	207,004	-0,060	-0,064
288,457	-59,984	-0,089	-0,026
289,472	39,904	-0,178	-0,109
290,487	-200,000	-0,026	-0,116
291,501	313,938	-0,228	-0,296
292,516	800,000	-0,090	-0,204
293,530	175,197	-0,130	-0,130
294,545	-52,378	-0,212	-0,067
295,560	800,000	-0,058	-0,114
296,574	-200,000	-0,006	-0,025
297,589	800,000	-0,109	-0,243
298,603	800,000	-0,054	-0,106
299,618	-114,101	-0,238	-0,031
300,633	-48,328	-0,065	-0,021
301,647	57,179	-0,248	-0,166
302,662	156,721	-0,085	-0,080
303,676	660,143	-0,082	-0,145
304,691	186,152	-0,175	-0,179
305,706	14,354	-0,260	-0,139
306,720	800,000	-0,087	-0,198
307,735	-9,380	-0,159	-0,073
308,749	610,943	-0,128	-0,221
309,764	-16,027	-0,213	-0,093
310,779	-89,675	-0,199	-0,040
311,793	800,000	-0,063	-0,150
312,808	-200,000	-0,013	-0,106
313,822	-82,097	-0,161	-0,036
314,837	-200,000	0,035	-0,185
315,852	-200,000	0,021	-0,131
316,866	47,501	-0,104	-0,066
317,881	66,967	-0,157	-0,109
318,895	-200,000	0,001	-0,172
319,910	346,650	-0,176	-0,238
320,925	20,825	-0,178	-0,099
321,939	-200,000	-0,033	-0,135
322,954	145,745	-0,144	-0,132
323,968	-161,121	-0,154	0,005
324,983	-121,937	-0,226	-0,025
325,997	-34,900	-0,191	-0,071
327,012	-42,265	-0,230	-0,080
328,027	32,315	-0,262	-0,155
329,041	-200,000	-0,062	-0,195
330,056	-125,002	-0,152	-0,016
331,070	459,038	-0,132	-0,203
332,085	363,948	-0,035	-0,049
333,100	129,900	-0,122	-0,107
334,114	156,841	-0,212	-0,201
335,129	37,407	-0,172	-0,104
336,143	174,397	-0,174	-0,173
337,158	800,000	-0,060	-0,135
338,173	-124,861	-0,304	-0,032
339,187	319,464	-0,047	-0,062
340,202	236,227	-0,091	-0,103
341,216	-78,565	-0,212	-0,049
342,231	-64,711	-0,138	0,038
343,246	250,394	-0,154	-0,179
344,260	-161,784	-0,095	0,003
345,275	-196,034	-0,118	0,001
346,289	800,000	-0,042	-0,088
347,304	130,121	-0,177	-0,155
348,319	37,724	-0,168	-0,102
349,333	345,016	-0,055	-0,074
350,348	249,127	-0,196	-0,228
351,362	56,131	-0,115	-0,076
352,377	31,277	-0,143	-0,084
353,392	255,548	-0,148	-0,173
354,406	5,605	-0,123	-0,062
355,421	209,492	1305,637	1400,718
356,435	161,241	1465,226	1401,199
