DTS Sentinel unit serial number:	SN410029Multiplexer serial number:	ORYXHardware model number:	OX2-SRSoftware version number:	ORYX F/W v4,00 Oryx Data Collector v3.7.2.0data status	okinstallation	B3 Nyhavnadifferential loss correction	single-endedforward channel	channel 1reverse channel	N/Adate	2023/12/02time	09:12:30forward acquisition time	300,00reverse acquisition time	0,00gamma	499,1914k internal	0,3196k external	0,3196temperature offset calibration	1,0000default loss term (dB/km)	0,3820temperature slope calibration	1,0000multiplexer offset coefficient	1,0000multiplexer slope coefficient	1,0000fibre end	0,00T internal ref (°C)	15,19T ext. ref 1 (°C)	-0,18T ext. ref 2 (°C)	-0,19length (m)	temperature (°C)	Stokes	anti-Stokes-744,400	800,000	-0,079	-0,204
-743,385	-200,000	-0,034	0,254
-742,371	261,622	-0,187	-0,236
-741,356	800,000	0,128	0,335
-740,342	353,988	-0,167	-0,242
-739,327	-200,000	0,008	0,355
-738,312	-31,773	-0,224	-0,091
-737,298	-200,000	-0,030	0,372
-736,283	39,594	-0,212	-0,138
-735,269	-200,000	-0,035	0,266
-734,254	-65,961	-0,336	-0,097
-733,239	264,339	-0,106	0,135
-732,225	-200,000	-0,034	-0,182
-731,210	800,000	0,077	0,208
-730,196	195,953	0,059	0,065
-729,181	-158,938	-0,154	-0,006
-728,167	-200,000	-0,015	-0,063
-727,152	800,000	0,008	0,017
-726,137	738,855	-0,087	-0,171
-725,123	-200,000	-0,037	-0,147
-724,108	800,000	-0,050	-0,106
-723,094	316,608	-0,103	-0,142
-722,079	13,629	-0,091	-0,051
-721,064	664,022	0,020	-0,039
-720,050	-159,439	-0,157	0,006
-719,035	55,745	0,080	0,056
-718,021	5,480	0,115	0,062
-717,006	-200,000	0,004	-0,056
-715,991	-15,775	-0,135	-0,063
-714,977	-200,000	-0,026	-0,110
-713,962	161,382	-0,108	-0,110
-712,948	-49,390	-0,109	-0,038
-711,933	552,621	-0,061	-0,108
-710,918	-200,000	0,018	0,093
-709,904	-55,978	0,078	-0,025
-708,889	214,150	-0,084	-0,097
-707,875	108,634	-0,068	-0,059
-706,860	-161,995	-0,138	0,005
-705,845	-117,297	-0,142	-0,018
-704,831	-81,526	-0,107	0,025
-703,816	338,897	0,035	0,050
-702,802	783,234	-0,024	0,049
-701,787	-200,000	0,010	-0,054
-700,772	67,252	-0,101	-0,075
-699,758	-200,000	-0,009	0,096
-698,743	-200,000	-0,015	-0,049
-697,729	-200,000	-0,029	-0,100
-696,714	800,000	-0,021	0,061
-695,699	13,511	0,037	-0,021
-694,685	50,663	-0,080	-0,055
-693,670	-47,915	0,035	0,012
-692,656	528,759	-0,018	-0,032
-691,641	200,387	-0,061	-0,069
-690,627	7,056	-0,073	0,039
-689,612	1,351	-0,055	0,029
-688,597	-200,000	-0,014	-0,076
-687,583	-200,000	0,001	0,100
-686,568	-149,313	-0,157	0,009
-685,554	-200,000	0,003	-0,054
-684,539	800,000	0,034	-0,086
-683,524	-200,000	0,020	0,077
-682,510	-200,000	-0,033	0,204
-681,495	150,223	-0,103	-0,101
-680,481	296,988	-0,091	-0,122
-679,466	-48,995	-0,115	-0,040
-678,451	-99,875	-0,118	-0,021
-677,437	-200,000	-0,027	-0,122
-676,422	264,003	-0,024	0,030
-675,408	13,832	-0,122	0,069
-674,393	800,000	-0,024	-0,060
-673,378	1,301	-0,129	-0,067
-672,364	-200,000	-0,001	0,074
-671,349	280,712	-0,029	-0,037
-670,335	40,404	-0,079	0,052
-669,320	-200,000	0,034	0,156
-668,305	490,926	-0,047	-0,078
-667,291	-200,000	0,000	-0,020
-666,276	-19,001	-0,082	-0,037
-665,262	-30,299	-0,050	0,021
-664,247	9,413	-0,115	-0,063
-663,232	800,000	-0,013	0,034
-662,218	-200,000	-0,041	0,160
-661,203	-57,087	-0,095	-0,030
-660,189	280,615	0,047	-0,061
-659,174	-21,759	-0,163	-0,072
-658,159	-200,000	-0,002	-0,095
-657,145	-176,603	-0,089	-0,002
-656,130	-200,000	-0,004	-0,090
-655,116	-200,000	0,001	-0,022
-654,101	47,776	0,196	0,133
-653,086	-31,153	-0,090	0,036
-652,072	273,507	0,050	-0,064
-651,057	-32,979	-0,051	-0,020
-650,043	31,056	0,117	0,073
-649,028	-200,000	-0,001	0,028
-648,014	405,566	0,082	-0,126
-646,999	409,956	-0,091	-0,140
-645,984	-81,453	0,152	0,036
-644,970	-200,000	-0,014	-0,073
-643,955	-51,552	-0,153	-0,051
-642,941	51,246	-0,129	-0,089
-641,926	-200,000	0,020	-0,196
-640,911	554,487	0,049	0,085
-639,897	67,312	-0,147	-0,109
-638,882	-124,227	0,024	-0,003
-637,868	-120,828	0,013	0,002
-636,853	117,575	-0,110	-0,098
-635,838	218,313	0,085	-0,098
-634,824	749,744	0,093	-0,182
-633,809	90,254	-0,091	-0,074
-632,795	-115,727	0,033	0,004
-631,780	-200,000	0,001	0,021
-630,765	168,893	0,048	-0,049
-629,751	-3,013	-0,044	0,022
-628,736	800,000	-0,012	-0,029
-627,722	-161,291	-0,126	0,005
-626,707	25,917	-0,098	-0,059
-625,692	161,978	-0,063	0,064
-624,678	-27,243	0,102	0,043
-623,663	7,679	-0,022	-0,012
-622,649	339,461	-0,014	0,020
-621,634	-200,000	0,024	0,077
-620,619	218,581	0,016	0,019
-619,605	800,000	-0,042	0,104
-618,590	196,172	0,031	0,035
-617,576	-200,000	-0,011	0,039
-616,561	44,112	-0,127	-0,084
-615,546	666,632	0,040	-0,075
-614,532	-87,723	-0,155	-0,034
-613,517	20,410	-0,088	-0,052
-612,503	-200,000	0,023	0,095
-611,488	426,611	0,043	0,067
-610,474	417,962	-0,050	0,078
-609,459	92,095	0,060	-0,049
-608,444	-200,000	-0,025	0,081
-607,430	1,668	0,038	-0,020
-606,415	-111,792	-0,092	0,013
-605,401	-156,132	-0,031	0,001
-604,386	-200,000	0,003	0,118
-603,371	-43,325	0,111	-0,040
-602,357	-19,271	-0,112	0,050
-601,342	-200,000	0,013	-0,104
-600,328	-173,499	-0,091	-0,002
-599,313	89,343	-0,067	0,054
-598,298	-200,000	-0,036	0,162
-597,284	-99,627	-0,061	0,011
-596,269	-25,067	0,080	0,034
-595,255	20,295	-0,121	-0,070
-594,240	227,536	0,085	0,100
-593,225	78,440	-0,007	0,006
-592,211	1,512	0,020	0,011
-591,196	283,920	-0,098	-0,128
-590,182	165,636	0,050	-0,051
-589,167	93,268	0,117	-0,095
-588,152	90,273	-0,106	0,086
-587,138	-200,000	-0,027	0,122
-586,123	-200,000	-0,015	-0,082
-585,109	755,247	0,032	0,062
-584,094	800,000	-0,072	0,152
-583,079	-200,000	0,000	0,105
-582,065	720,905	-0,059	0,115
-581,050	-118,775	-0,009	0,001
-580,036	-200,000	-0,048	0,166
-579,021	800,000	0,021	0,064
-578,006	800,000	-0,038	-0,099
-576,992	-200,000	-0,006	-0,033
-575,977	382,554	-0,046	-0,068
-574,963	-88,467	0,104	-0,022
-573,948	-143,577	-0,052	0,004
-572,934	162,551	-0,112	-0,114
-571,919	-69,671	-0,064	0,018
-570,904	131,992	-0,083	-0,077
-569,890	60,703	0,030	0,021
-568,875	39,873	-0,062	-0,040
-567,861	109,018	0,067	0,058
-566,846	-200,000	0,000	-0,101
-565,831	402,863	0,032	-0,048
-564,817	-200,000	-0,013	0,068
-563,802	-98,561	-0,046	-0,008
-562,788	-200,000	-0,024	-0,124
-561,773	-67,972	0,140	0,039
-560,758	1,864	0,098	0,051
-559,744	-200,000	0,021	0,117
-558,729	37,794	0,087	-0,056
-557,715	68,471	-0,085	-0,063
-556,700	-177,576	-0,050	0,001
-555,685	-150,970	-0,060	0,003
-554,671	9,374	0,047	-0,025
-553,656	11,229	-0,061	-0,034
-552,642	175,466	0,047	-0,049
-551,627	-132,308	-0,273	0,025
-550,612	-45,773	-0,122	-0,043
-549,598	-53,977	0,106	0,035
-548,583	99,867	0,109	-0,091
-547,569	209,590	0,113	-0,129
-546,554	-107,827	0,073	-0,011
-545,539	-37,503	0,092	0,035
-544,525	638,619	0,047	0,087
-543,510	-112,045	0,081	0,012
-542,496	-200,000	0,013	-0,066
-541,481	60,424	-0,103	-0,074
-540,466	342,847	-0,101	0,143
-539,452	182,307	-0,027	0,029
-538,437	-33,311	-0,121	0,048
-537,423	66,415	0,107	0,078
-536,408	-76,099	0,066	0,017
-535,393	-200,000	0,029	0,137
-534,379	132,113	-0,150	-0,140
-533,364	150,007	0,075	-0,074
-532,350	-182,540	-0,058	0,001
-531,335	240,426	0,072	-0,087
-530,321	143,519	-0,085	0,082
-529,306	368,774	-0,042	0,061
-528,291	800,000	-0,028	-0,082
-527,277	28,313	-0,097	0,059
-526,262	100,004	-0,023	-0,020
-525,248	-200,000	-0,002	0,068
-524,233	-200,000	-0,007	0,176
-523,218	-88,578	0,104	0,022
-522,204	-75,539	-0,128	-0,033
-521,189	86,475	0,035	-0,028
-520,175	-200,000	0,017	-0,077
-519,160	-200,000	-0,006	-0,036
-518,145	750,859	-0,048	-0,094
-517,131	4,357	0,061	0,032
-516,116	-200,000	-0,060	0,200
-515,102	562,977	-0,046	0,081
-514,087	800,000	-0,026	-0,069
-513,072	-8,202	-0,065	0,031
-512,058	-114,827	0,041	0,006
-511,043	423,263	0,036	0,055
-510,029	-200,000	0,024	0,078
-509,014	-77,180	-0,071	-0,018
-507,999	-198,105	0,078	0,000
-506,985	189,151	-0,061	-0,066
-505,970	-125,624	0,147	0,016
-504,956	-66,345	0,014	-0,004
-503,941	-124,994	0,214	0,023
-502,926	127,166	0,055	0,050
-501,912	194,293	0,088	0,096
-500,897	57,869	-0,020	0,014
-499,883	26,329	-0,118	0,071
-498,868	-200,000	-0,013	-0,226
-497,853	-200,000	-0,023	-0,090
-496,839	-109,318	0,093	0,014
-495,824	-72,766	0,061	0,016
-494,810	800,000	0,066	0,145
-493,795	-162,429	0,034	-0,001
-492,781	-24,703	0,150	0,064
-491,766	-90,686	-0,003	-0,001
-490,751	-200,000	0,028	-0,145
-489,737	643,035	0,103	-0,191
-488,722	-85,867	-0,115	-0,025
-487,708	-200,000	0,004	-0,078
-486,693	-200,000	0,012	0,125
-485,678	-200,000	-0,023	-0,108
-484,664	11,397	-0,080	-0,044
-483,649	-67,395	0,095	-0,027
-482,635	-18,873	-0,181	-0,081
-481,620	117,278	0,051	0,045
-480,605	373,799	0,085	-0,125
-479,591	-163,974	0,174	0,006
-478,576	-200,000	0,031	-0,099
-477,562	-74,723	-0,037	-0,009
-476,547	91,697	-0,009	-0,008
-475,532	-141,042	-0,046	-0,003
-474,518	420,155	0,040	-0,062
-473,503	-200,000	-0,017	0,098
-472,489	13,321	0,063	0,035
-471,474	-200,000	0,036	-0,159
-470,459	-200,000	0,005	-0,159
-469,445	-111,158	-0,053	-0,008
-468,430	-200,000	-0,008	-0,163
-467,416	-37,071	0,104	0,040
-466,401	-112,568	0,042	-0,006
-465,386	49,587	-0,025	-0,017
-464,372	706,685	-0,054	0,103
-463,357	139,989	-0,088	-0,083
-462,343	-90,198	0,033	-0,007
-461,328	401,988	0,057	-0,086
-460,313	-200,000	-0,004	-0,036
-459,299	-200,000	0,005	0,098
-458,284	-200,000	0,007	-0,038
-457,270	800,000	0,079	0,173
-456,255	-171,864	0,103	0,002
-455,241	-90,975	-0,112	0,023
-454,226	47,097	0,074	-0,050
-453,211	28,164	0,144	0,087
-452,197	230,689	0,094	0,111
-451,182	539,340	0,018	0,030
-450,168	22,347	0,111	0,065
-449,153	262,509	-0,057	0,071
-448,138	-200,000	-0,039	-0,145
-447,124	-200,000	-0,000	-0,055
-446,109	-200,000	0,025	-0,115
-445,095	-101,704	0,056	-0,010
-444,080	-20,645	0,150	0,066
-443,065	-200,000	-0,002	0,087
-442,051	-29,371	-0,109	-0,045
-441,036	559,774	0,053	0,093
-440,022	130,861	0,082	-0,075
-439,007	27,070	-0,065	0,039
-437,992	625,767	0,059	0,108
-436,978	306,921	-0,073	0,098
-435,963	-200,000	0,001	0,073
-434,949	-200,000	0,017	0,181
-433,934	607,306	0,023	0,042
-432,919	108,376	-0,124	-0,107
-431,905	341,059	0,114	-0,161
-430,890	85,341	0,082	0,065
-429,876	192,914	-0,031	-0,034
-428,861	682,052	0,075	0,141
-427,846	165,792	0,048	0,049
-426,832	101,392	-0,097	0,081
-425,817	-200,000	-0,020	-0,137
-424,803	-65,331	0,029	-0,008
-423,788	68,555	0,069	0,051
-422,773	-200,000	-0,019	0,107
-421,759	800,000	-0,021	0,055
-420,744	-155,383	0,068	0,003
-419,730	351,775	-0,083	0,119
-418,715	-200,000	0,001	-0,153
-417,701	28,193	-0,036	-0,022
-416,686	-27,269	0,209	0,087
-415,671	-200,000	-0,012	0,068
-414,657	800,000	-0,035	0,084
-413,642	652,609	0,063	-0,118
-412,628	-200,000	0,011	-0,148
-411,613	-154,648	-0,094	-0,004
-410,598	-200,000	0,003	-0,231
-409,584	-81,129	-0,109	-0,026
-408,569	-35,768	0,064	-0,025
-407,555	800,000	0,038	-0,078
-406,540	-115,546	-0,027	0,004
-405,525	-95,245	0,128	-0,025
-404,511	145,963	0,015	0,014
-403,496	-140,860	0,090	0,007
-402,482	-200,000	0,009	-0,090
-401,467	523,131	-0,033	-0,056
-400,452	65,967	0,107	0,078
-399,438	774,126	0,077	0,152
-398,423	52,904	-0,079	-0,054
-397,409	-200,000	-0,001	-0,039
-396,394	187,824	0,061	0,066
-395,379	24,766	0,109	-0,065
-394,365	-49,793	0,112	0,038
-393,350	76,514	-0,047	0,036
-392,336	800,000	0,026	0,058
-391,321	-200,000	-0,006	-0,031
-390,306	-103,798	0,138	-0,023
-389,292	-56,327	0,041	-0,013
-388,277	-187,362	0,069	0,001
-387,263	1,366	0,092	0,048
-386,248	-43,862	-0,071	0,025
-385,233	-150,896	0,062	0,003
-384,219	-198,121	-0,132	0,001
-383,204	-159,990	0,042	-0,002
-382,190	-50,447	0,069	-0,023
-381,175	738,821	0,015	-0,030
-380,160	-62,358	-0,064	-0,019
-379,146	800,000	-0,012	0,034
-378,131	-200,000	0,005	-0,015
-377,117	800,000	-0,023	0,050
-376,102	-200,000	-0,053	-0,224
-375,088	-146,120	-0,159	0,010
-374,073	800,000	-0,030	0,077
-373,058	800,000	0,013	0,035
-372,044	-63,808	-0,081	-0,024
-371,029	-200,000	-0,012	0,105
-370,015	265,119	-0,025	0,031
-369,000	37,750	-0,104	-0,066
-367,985	-200,000	0,008	-0,127
-366,971	182,454	-0,064	-0,068
-365,956	-200,000	0,030	0,115
-364,942	800,000	0,013	-0,034
-363,927	-16,422	-0,029	0,013
-362,912	-40,263	-0,071	0,026
-361,898	-21,374	-0,072	0,031
-360,883	-138,524	-0,089	0,007
-359,869	88,790	0,020	-0,016
-358,854	800,000	-0,016	0,039
-357,839	-123,757	0,039	-0,004
-356,825	146,539	0,084	0,081
-355,810	295,176	-0,017	0,022
-354,796	-155,674	-0,172	0,008
-353,781	-9,339	-0,169	0,081
-352,766	-28,733	0,151	-0,062
-351,752	113,451	-0,049	-0,042
-350,737	78,793	0,083	0,064
-349,723	20,636	0,046	0,027
-348,708	-200,000	0,025	0,097
-347,693	195,768	0,054	0,059
-346,679	108,900	-0,125	-0,107
-345,664	-42,611	0,062	0,022
-344,650	800,000	0,017	-0,041
-343,635	-82,413	0,130	-0,030
-342,620	159,596	0,076	0,075
-341,606	-200,000	0,030	0,127
-340,591	-16,928	-0,056	-0,025
-339,577	-200,000	-0,016	0,060
-338,562	81,373	-0,090	-0,070
-337,548	-200,000	-0,043	-0,154
-336,533	-200,000	-0,000	-0,128
-335,518	724,733	0,044	0,084
-334,504	477,302	-0,031	0,051
-333,489	-200,000	-0,033	-0,174
-332,475	-26,007	-0,054	0,023
-331,460	-20,643	0,053	-0,023
-330,445	-167,442	0,023	0,001
-329,431	728,573	0,043	0,082
-328,416	-200,000	0,008	0,075
-327,402	-138,987	-0,213	0,016
-326,387	96,351	0,148	0,121
-325,372	-17,569	-0,025	0,011
-324,358	146,691	0,025	-0,024
-323,343	-108,200	-0,075	0,012
-322,329	-41,455	0,102	0,037
-321,314	266,083	0,052	0,066
-320,299	204,552	0,074	0,082
-319,285	45,663	0,067	0,044
-318,270	-200,000	-0,032	-0,115
-317,256	-147,763	-0,084	-0,005
-316,241	152,293	0,048	-0,047
-315,226	-200,000	0,025	-0,114
-314,212	-200,000	-0,005	-0,032
-313,197	-200,000	-0,000	0,101
-312,183	-143,955	0,141	0,009
-311,168	94,219	-0,122	-0,099
-310,153	79,380	0,030	-0,023
-309,139	-41,170	-0,070	0,026
-308,124	-143,447	-0,047	-0,003
-307,110	41,431	0,143	0,093
-306,095	800,000	0,032	0,069
-305,080	-158,952	-0,095	-0,004
-304,066	-9,005	-0,101	0,048
-303,051	65,693	-0,041	0,030
-302,037	-200,000	-0,005	-0,229
-301,022	186,702	-0,063	-0,068
-300,008	-48,384	-0,032	-0,011
-298,993	113,715	0,025	0,021
-297,978	55,006	0,061	-0,042
-296,964	-54,513	-0,183	-0,059
-295,949	-200,000	0,052	-0,184
-294,935	-58,576	-0,063	-0,019
-293,920	-104,473	0,077	0,013
-292,905	800,000	0,015	0,036
-291,891	-1,254	0,086	0,044
-290,876	-200,000	0,014	-0,122
-289,862	-131,765	-0,203	0,019
-288,847	-200,000	-0,000	-0,051
-287,832	-11,453	0,076	-0,036
-286,818	-7,031	0,105	-0,051
-285,803	-118,926	-0,030	-0,004
-284,789	200,764	-0,073	0,080
-283,774	-200,000	-0,008	0,057
-282,759	417,210	-0,040	-0,061
-281,745	251,882	0,044	-0,053
-280,730	-200,000	-0,022	-0,124
-279,716	800,000	-0,023	0,055
-278,701	112,940	0,123	0,107
-277,686	-141,096	-0,030	0,002
-276,672	193,884	-0,025	0,027
-275,657	233,545	0,015	-0,018
-274,643	-200,000	-0,015	-0,121
-273,628	650,611	-0,054	-0,100
-272,613	800,000	-0,026	-0,055
-271,599	120,575	0,066	0,058
-270,584	203,678	0,038	-0,042
-269,570	800,000	-0,053	-0,133
-268,555	-101,339	-0,049	-0,009
-267,540	800,000	-0,019	-0,052
-266,526	-91,227	-0,069	0,014
-265,511	85,074	0,065	0,051
-264,497	281,055	-0,046	0,059
-263,482	41,551	0,044	0,029
-262,467	32,498	-0,067	-0,041
-261,453	27,377	0,011	-0,006
-260,438	118,698	-0,067	-0,059
-259,424	-200,000	0,029	-0,099
-258,409	-26,716	0,023	0,010
-257,395	184,267	-0,054	-0,057
-256,380	368,643	-0,023	0,034
-255,365	-151,562	0,210	0,011
-254,351	276,553	-0,106	0,134
-253,336	-200,000	0,007	-0,079
-252,322	279,379	-0,045	-0,058
-251,307	428,373	-0,054	-0,083
-250,292	6,687	-0,046	0,025
-249,278	152,576	-0,133	0,129
-248,263	-132,361	0,102	0,009
-247,249	-102,620	0,024	0,004
-246,234	494,070	0,022	0,036
-245,219	-200,000	-0,032	-0,152
-244,205	79,435	-0,055	0,042
-243,190	-75,180	-0,105	0,027
-242,176	800,000	0,041	0,107
-241,161	-160,352	-0,026	0,001
-240,146	-200,000	0,038	0,191
-239,132	-130,860	-0,062	-0,006
-238,117	-127,831	0,096	-0,010
-237,103	50,901	-0,015	0,010
-236,088	406,100	0,096	0,145
-235,073	9,039	-0,045	-0,024
-234,059	32,965	0,046	0,028
-233,044	-200,000	-0,002	-0,081
-232,030	800,000	-0,056	-0,115
-231,015	800,000	-0,031	-0,062
-230,000	260,212	0,032	-0,039
-228,986	-44,327	0,138	0,049
-227,971	168,241	0,026	0,027
-226,957	497,455	0,031	0,051
-225,942	-28,154	0,047	0,019
-224,927	800,000	-0,043	0,113
-223,913	206,526	0,052	-0,058
-222,898	-93,182	0,054	-0,011
-221,884	-200,000	-0,006	0,132
-220,869	-200,000	0,005	0,037
-219,855	-200,000	-0,023	0,228
-218,840	29,594	-0,080	-0,049
-217,825	672,467	-0,016	0,031
-216,811	288,765	-0,113	-0,146
-215,796	-50,951	-0,114	0,038
-214,782	-200,000	0,006	0,093
-213,767	222,846	-0,030	0,034
-212,752	-11,435	0,080	0,037
-211,738	-200,000	0,020	-0,122
-210,723	469,696	0,064	-0,103
-209,709	75,878	0,100	-0,076
-208,694	-80,252	-0,121	-0,029
-207,679	-166,406	0,018	-0,001
-206,665	-200,000	0,017	0,110
-205,650	-84,475	0,023	0,005
-204,636	-39,510	0,095	0,035
-203,621	-44,615	0,157	0,056
-202,606	135,904	-0,059	0,055
-201,592	-200,000	-0,002	-0,097
-200,577	199,517	0,042	0,046
-199,563	800,000	-0,045	0,134
-198,548	177,240	0,146	0,152
-197,533	-92,452	-0,093	0,019
-196,519	800,000	0,049	0,133
-195,504	-32,216	-0,041	0,016
-194,490	-117,838	-0,158	0,020
-193,475	77,459	0,053	-0,040
-192,460	-200,000	-0,006	-0,022
-191,446	119,042	-0,031	0,028
-190,431	124,661	0,054	0,049
-189,417	-3,924	0,097	-0,048
-188,402	11,583	-0,117	0,064
-187,387	-53,190	-0,042	0,014
-186,373	-66,301	-0,138	0,039
-185,358	234,460	0,037	-0,044
-184,344	154,510	0,071	0,070
-183,329	-200,000	0,018	0,115
-182,315	12,535	0,064	-0,035
-181,300	475,999	-0,041	0,067
-180,285	488,789	0,054	-0,088
-179,271	561,216	-0,060	-0,103
-178,256	190,942	-0,074	0,080
-177,242	-67,797	0,107	-0,030
-176,227	454,165	0,138	0,219
-175,212	-200,000	0,048	0,172
-174,198	185,777	-0,051	0,054
-173,183	-70,559	-0,108	-0,029
-172,169	-17,240	0,028	-0,013
-171,154	-80,233	0,020	0,005
-170,139	552,440	0,016	-0,028
-169,125	-60,474	0,183	0,055
-168,110	38,927	-0,063	0,040
-167,096	-200,000	-0,005	-0,055
-166,081	108,675	-0,052	-0,044
-165,066	-137,998	0,076	0,006
-164,052	-76,724	-0,067	0,017
-163,037	-25,943	-0,080	0,033
-162,023	-200,000	-0,028	0,090
-161,008	-122,977	0,104	0,012
-159,993	6,876	-0,074	-0,039
-158,979	-47,700	-0,074	-0,025
-157,964	-200,000	-0,038	-0,151
-156,950	194,324	0,026	-0,028
-155,935	-200,000	0,001	0,026
-154,920	135,993	-0,092	-0,085
-153,906	800,000	-0,014	-0,039
-152,891	-200,000	0,025	-0,173
-151,877	63,801	-0,126	-0,090
-150,862	297,221	0,057	-0,075
-149,847	800,000	-0,037	-0,100
-148,833	800,000	0,042	-0,086
-147,818	12,441	0,110	0,060
-146,804	-119,529	0,069	0,008
-145,789	-200,000	-0,033	0,105
-144,775	387,775	0,092	-0,136
-143,760	69,300	-0,153	-0,112
-142,745	-78,599	0,142	0,034
-141,731	800,000	0,020	-0,041
-140,716	154,712	-0,066	0,065
-139,702	211,430	-0,033	0,037
-138,687	51,961	0,096	0,065
-137,672	-200,000	0,011	-0,053
-136,658	253,474	0,105	-0,128
-135,643	189,014	-0,045	-0,048
-134,629	14,589	-0,020	0,011
-133,614	-200,000	0,010	0,039
-132,599	-200,000	0,010	0,184
-131,585	473,682	-0,053	0,086
-130,570	-166,209	-0,077	-0,002
-129,556	218,301	0,024	0,027
-128,541	117,795	-0,038	-0,033
-127,526	-134,416	-0,142	-0,012
-126,512	541,443	0,033	0,057
-125,497	20,104	0,041	0,024
-124,483	-200,000	-0,052	0,206
-123,468	426,722	0,036	-0,055
-122,453	-90,971	-0,062	0,013
-121,439	-200,000	-0,001	-0,030
-120,424	75,485	0,046	-0,034
-119,410	-39,418	0,109	-0,040
-118,395	-107,150	0,053	0,008
-117,380	515,502	0,042	0,070
-116,366	458,231	0,134	0,213
-115,351	-200,000	-0,003	-0,108
-114,337	-92,679	-0,104	0,021
-113,322	-112,436	-0,099	0,014
-112,307	-65,196	0,141	0,040
-111,293	-90,709	0,039	0,008
-110,278	3,948	0,019	0,010
-109,264	800,000	0,008	-0,018
-108,249	800,000	0,014	-0,028
-107,234	-200,000	0,002	0,053
-106,220	-200,000	0,018	0,156
-105,205	383,767	-0,044	0,065
-104,191	68,011	-0,087	0,063
-103,176	139,992	-0,066	-0,062
-102,162	278,011	0,027	0,034
-101,147	214,459	-0,029	0,033
-100,132	-129,500	-0,199	-0,019
-99,118	-4,399	0,017	-0,009
-98,103	-125,931	0,144	-0,015
-97,089	800,000	-0,028	0,064
-96,074	-200,000	0,018	0,110
-95,059	175,555	-0,078	0,081
-94,045	-125,293	-0,046	-0,005
-93,030	-200,000	-0,022	-0,129
-92,016	800,000	0,011	0,025
-91,001	8,610	0,061	-0,033
-89,986	800,000	-0,068	0,187
-88,972	316,301	0,046	-0,062
-87,957	141,304	0,104	0,098
-86,943	-23,571	-0,107	0,045
-85,928	44,892	-0,077	-0,051
-84,913	-92,438	-0,075	-0,015
-83,899	-76,989	0,114	-0,028
-82,884	609,368	0,053	0,095
-81,870	800,000	-0,072	0,164
-80,855	-39,041	0,104	-0,039
-79,840	306,477	-0,066	-0,088
-78,826	-36,216	-0,088	0,033
-77,811	554,220	-0,017	0,029
-76,797	-200,000	-0,000	-0,042
-75,782	-48,458	-0,110	0,037
-74,767	153,274	0,133	-0,129
-73,753	-87,127	-0,076	0,016
-72,738	800,000	0,042	0,131
-71,724	-123,055	0,041	0,005
-70,709	-0,799	-0,079	-0,039
-69,694	800,000	0,027	-0,081
-68,680	-200,000	0,002	-0,129
-67,665	800,000	0,043	-0,088
-66,651	-38,773	-0,060	-0,022
-65,636	40,034	-0,104	-0,066
-64,622	319,408	-0,040	-0,054
-63,607	-71,274	-0,096	-0,025
-62,592	23,013	-0,104	-0,061
-61,578	-200,000	-0,003	0,014
-60,563	-70,004	0,078	0,021
-59,549	-200,000	-0,024	0,108
-58,534	-66,692	-1,536	-0,429
-57,519	365,851	-1,516	-2,173
-56,505	-200,000	-0,527	-4,310
-55,490	134,947	1,027	0,946
-54,476	800,000	4,798	11,266
-53,461	-200,000	17,998	285,086
-52,446	800,000	726,656	2224,286
-51,432	556,709	1641,960	2816,913
-50,417	79,464	1663,488	1264,248
-49,403	23,015	1537,575	892,165
-48,388	17,081	1460,573	818,748
-47,373	17,958	1450,787	817,454
-46,359	17,401	1441,016	809,251
-45,344	15,324	1436,470	796,747
-44,330	15,194	1434,501	795,006
-43,315	15,227	1432,778	794,176
-42,300	15,249	1431,228	793,390
-41,286	15,321	1430,124	793,087
-40,271	15,222	1428,828	791,866
-39,257	15,293	1427,492	791,434
-38,242	15,302	1426,138	790,694
-37,227	15,303	1424,786	789,918
-36,213	15,286	1423,567	789,131
-35,198	15,283	1422,727	788,619
-34,184	15,323	1421,492	788,090
-33,169	15,243	1420,357	787,053
-32,154	15,284	1419,460	786,719
-31,140	15,294	1417,890	785,862
-30,125	15,365	1416,714	785,516
-29,111	15,341	1415,699	784,807
-28,096	15,283	1414,700	783,952
-27,082	15,242	1413,467	783,046
-26,067	15,234	1412,197	782,270
-25,052	15,229	1411,453	781,807
-24,038	15,178	1410,563	781,042
-23,023	15,135	1409,639	780,298
-22,009	15,184	1408,284	779,745
-20,994	15,183	1407,297	779,161
-19,979	15,195	1406,550	778,775
-18,965	15,162	1405,511	778,017
-17,950	15,145	1404,622	777,412
-16,936	15,197	1403,483	776,994
-15,921	15,110	1402,532	776,029
-14,906	15,074	1401,603	775,317
-13,892	15,102	1400,825	774,989
-12,877	15,146	1399,668	774,523
-11,863	15,140	1398,882	774,027
-10,848	15,115	1397,933	773,356
-9,833	15,089	1397,156	772,773
-8,819	14,997	1396,408	771,902
-7,804	15,017	1395,262	771,334
-6,790	15,036	1394,271	770,843
-5,775	14,998	1393,356	770,128
-4,760	15,030	1392,278	769,651
-3,746	15,003	1391,428	769,026
-2,731	15,022	1390,676	768,667
-1,717	14,996	1389,729	767,994
-0,702	15,008	1387,892	767,000
0,313	18,875	1307,671	740,556
1,327	35,259	707,087	438,464
2,342	54,220	124,813	84,995
3,356	1,995	16,619	8,472
4,371	16,042	3,146	1,752
5,386	79,112	0,532	0,403
6,400	495,980	0,048	-0,079
7,415	234,588	-0,211	-0,246
8,429	110,932	-0,167	-0,142
9,444	147,433	-0,295	-0,282
10,459	49,690	-0,231	-0,154
11,473	107,489	-0,206	-0,173
12,488	-69,984	-0,368	-0,099
13,502	-76,878	-0,395	-0,097
14,517	44,836	-0,346	-0,225
15,531	128,215	-0,263	-0,237
16,546	148,540	-0,311	-0,297
17,561	124,755	-0,472	-0,421
18,575	-34,086	-0,203	-0,079
19,590	397,842	-0,162	-0,241
20,604	-58,277	-0,312	-0,095
21,619	33,771	-0,316	-0,194
22,634	61,310	-0,483	-0,339
23,648	641,769	-0,303	-0,548
24,663	332,709	-0,259	-0,355
25,677	89,934	-0,427	-0,337
26,692	262,567	-0,274	-0,337
27,707	42,561	-0,295	-0,189
28,721	-121,579	-0,423	-0,049
29,736	115,502	-0,428	-0,370
30,750	70,935	-0,373	-0,273
31,765	460,621	-0,306	-0,484
32,780	191,011	-0,367	-0,391
33,794	84,248	-0,357	-0,275
34,809	71,531	-0,292	-0,214
35,823	92,903	-0,353	-0,282
36,838	74,444	-0,289	-0,215
37,853	88,491	-0,415	-0,325
38,867	116,382	-0,294	-0,255
39,882	81,916	-0,351	-0,268
40,896	68,630	-0,322	-0,233
41,911	-23,533	-0,413	-0,174
42,926	56,190	-0,433	-0,296
43,940	37,330	-0,414	-0,258
44,955	46,018	-0,365	-0,238
45,969	-15,942	-0,380	-0,170
46,984	130,529	-0,274	-0,248
47,999	208,888	-0,289	-0,319
49,013	3,889	-0,345	-0,177
50,028	9,106	-0,312	-0,166
51,042	61,002	-0,333	-0,233
52,057	199,870	-0,369	-0,400
53,071	15,469	-0,447	-0,247
54,086	95,775	-0,418	-0,337
55,101	97,135	-0,363	-0,294
56,115	-114,001	-0,351	-0,047
57,130	28,892	-0,333	-0,199
58,144	19,978	-0,384	-0,218
59,159	76,319	-0,396	-0,296
60,174	108,522	-0,483	-0,407
61,188	-2,842	-0,298	-0,146
62,203	106,296	-0,305	-0,255
63,217	185,523	-0,262	-0,275
64,232	157,769	-0,388	-0,379
65,247	-70,885	-0,487	-0,129
66,261	60,764	-0,317	-0,221
67,276	26,840	-0,274	-0,161
68,290	-84,432	-0,419	-0,092
69,305	108,254	-0,232	-0,195
70,320	68,600	-0,301	-0,217
71,334	-12,368	-0,374	-0,171
72,349	-55,041	-0,314	-0,099
73,363	-54,078	-0,358	-0,114
74,378	-40,853	-0,353	-0,128
75,393	206,432	-0,316	-0,347
76,407	153,278	-0,194	-0,187
77,422	149,274	-0,268	-0,255
78,436	28,668	-0,203	-0,121
79,451	3,887	-0,362	-0,186
80,466	-4,152	-0,322	-0,156
81,480	206,867	-0,299	-0,329
82,495	219,373	-0,258	-0,291
83,509	572,444	-0,145	-0,250
84,524	-39,864	-0,233	-0,085
85,539	-16,215	-0,376	-0,167
86,553	84,881	-0,209	-0,161
87,568	746,890	-0,184	-0,350
88,582	186,506	-0,303	-0,318
89,597	258,674	-0,188	-0,229
90,611	41,235	-0,281	-0,179
91,626	10,036	-0,300	-0,160
92,641	33,783	-0,240	-0,146
93,655	-112,320	-0,315	0,044
94,670	-14,013	-0,283	-0,128
95,684	2,546	-0,449	-0,228
96,699	41,543	-0,177	-0,112
97,714	9,522	-0,265	-0,141
98,728	90,356	-0,217	-0,171
99,743	42,224	-0,201	-0,128
100,757	-6,082	-0,278	-0,133
101,772	-9,581	-0,298	-0,139
102,787	-1,957	-0,368	-0,181
103,801	-77,885	-0,305	-0,073
104,816	51,103	-0,202	-0,134
105,830	-33,206	-0,298	-0,115
106,845	67,333	-0,363	-0,260
107,860	60,623	-0,279	-0,194
108,874	64,363	-0,265	-0,187
109,889	130,607	-0,259	-0,233
110,903	16,427	-0,327	-0,181
111,918	39,858	-0,221	-0,139
112,933	60,637	-0,153	-0,106
113,947	28,219	-0,209	-0,124
114,962	-43,684	-0,302	-0,106
115,976	-60,209	-0,229	-0,068
116,991	26,005	-0,344	-0,201
118,006	167,215	-0,191	-0,191
119,020	25,121	-0,339	-0,197
120,035	223,896	-0,159	-0,181
121,049	800,000	-0,083	-0,174
122,064	-88,402	-0,228	-0,047
123,079	36,790	-0,200	-0,124
124,093	-23,171	-0,338	-0,142
125,108	160,568	-0,213	-0,209
126,122	-17,275	-0,282	-0,124
127,137	33,573	-0,219	-0,133
128,151	-45,265	-0,206	-0,071
129,166	51,334	-0,244	-0,162
130,181	18,182	-0,300	-0,167
131,195	-21,091	-0,299	-0,128
132,210	31,574	-0,322	-0,193
133,224	48,303	-0,342	-0,224
134,239	24,667	-0,220	-0,127
135,254	-1,876	-0,227	-0,111
136,268	-23,781	-0,135	-0,057
137,283	-34,983	-0,408	-0,155
138,297	209,106	-0,266	-0,292
139,312	-32,325	-0,222	-0,086
140,327	-12,426	-0,235	-0,107
141,341	800,000	-0,097	-0,257
142,356	335,471	-0,244	-0,332
143,370	98,447	-0,251	-0,202
144,385	-36,975	-0,237	-0,088
145,400	16,986	-0,263	-0,145
146,414	-6,755	-0,333	-0,158
147,429	281,295	-0,163	-0,204
148,443	108,571	-0,223	-0,186
149,458	272,170	-0,087	-0,108
150,473	27,345	-0,233	-0,137
151,487	141,078	-0,361	-0,334
152,502	20,974	-0,333	-0,188
153,516	83,868	-0,254	-0,194
154,531	-72,259	-0,262	-0,067
155,546	71,874	-0,247	-0,180
156,560	248,569	-0,125	-0,149
157,575	89,206	-0,104	-0,081
158,589	55,983	-0,164	-0,111
159,604	-17,165	-0,272	-0,119
160,619	275,119	-0,203	-0,252
161,633	588,149	-0,232	-0,401
162,648	78,773	-0,275	-0,205
163,662	-18,354	-0,184	-0,080
164,677	218,213	-0,249	-0,278
165,692	-36,445	-0,321	-0,120
166,706	-187,876	-0,135	-0,001
167,721	-39,685	-0,334	-0,121
168,735	102,870	-0,217	-0,177
169,750	800,000	-0,147	-0,307
170,764	193,982	-0,132	-0,139
171,779	123,873	-0,257	-0,225
172,794	123,237	-0,135	-0,118
173,808	-59,512	-0,236	-0,070
174,823	284,396	-0,170	-0,214
175,837	-6,117	-0,402	-0,191
176,852	344,524	-0,170	-0,233
177,867	50,228	-0,232	-0,152
178,881	48,956	-0,168	-0,110
179,896	-132,648	-0,165	-0,015
180,910	31,234	-0,203	-0,121
181,925	57,319	-0,223	-0,151
182,940	635,734	-0,172	-0,306
183,954	-18,099	-0,355	-0,154
184,969	24,064	-0,247	-0,142
185,983	134,716	-0,178	-0,161
186,998	800,000	-0,068	-0,155
188,013	-169,950	-0,310	-0,008
189,027	-24,621	-0,189	-0,078
190,042	13,251	-0,257	-0,138
191,056	84,035	-0,279	-0,212
192,071	-74,521	-0,240	-0,060
193,086	800,000	-0,024	-0,060
194,100	-101,468	-0,123	-0,021
195,115	-66,191	-0,150	0,041
196,129	182,682	-0,068	-0,070
197,144	367,408	-0,208	-0,293
198,159	-83,937	-0,220	-0,048
199,173	-118,031	-0,257	-0,032
200,188	-1,842	-0,159	-0,078
201,202	-140,938	-0,095	-0,007
202,217	-6,112	-0,231	-0,110
203,232	160,664	-0,238	-0,232
204,246	749,043	-0,202	-0,381
205,261	191,787	-0,177	-0,186
206,275	-97,895	-0,163	-0,029
207,290	37,618	-0,130	-0,080
208,304	249,556	-0,172	-0,203
209,319	-51,292	-0,181	-0,059
210,334	800,000	-0,113	-0,241
211,348	11,865	-0,259	-0,138
212,363	3,949	-0,288	-0,146
213,377	-115,931	-0,296	-0,038
214,392	-67,212	-0,145	-0,039
215,407	-17,416	-0,153	-0,067
216,421	-73,840	-0,214	0,054
217,436	164,505	-0,238	-0,234
218,450	79,310	-0,188	-0,140
219,465	165,131	-0,160	-0,157
220,480	735,543	-0,081	-0,152
221,494	466,240	-0,145	-0,226
222,509	59,047	-0,092	-0,063
223,523	-46,005	-0,128	-0,044
224,538	93,424	-0,178	-0,140
225,553	-65,784	-0,224	-0,062
226,567	-9,644	-0,268	-0,124
227,582	-67,823	-0,242	-0,065
228,596	-69,376	-0,215	-0,057
229,611	389,532	-0,179	-0,259
230,626	-60,507	-0,207	0,061
231,640	15,695	-0,271	-0,148
232,655	318,235	-0,144	-0,190
233,669	334,023	-0,102	-0,137
234,684	-150,462	-0,237	-0,012
235,699	247,863	-0,154	-0,181
236,713	-13,994	-0,198	-0,088
237,728	-200,000	-0,069	-0,253
238,742	-31,253	-0,119	-0,046
239,757	90,697	-0,217	-0,169
240,772	571,001	-0,098	-0,167
241,786	237,182	-0,148	-0,171
242,801	-200,000	-0,032	-0,104
243,815	-110,319	-0,169	0,024
244,830	55,314	-0,129	-0,087
245,844	158,694	-0,123	-0,118
246,859	-34,367	-0,162	-0,061
247,874	57,087	-0,199	-0,134
248,888	277,559	-0,248	-0,306
249,903	162,161	-0,153	-0,149
250,917	524,011	-0,109	-0,178
251,932	648,495	-0,085	-0,152
252,947	60,608	-0,222	-0,152
253,961	164,452	-0,271	-0,265
254,976	-18,994	-0,195	-0,084
255,990	-9,485	-0,256	-0,118
257,005	-41,074	-0,162	-0,058
258,020	-36,757	-0,163	-0,060
259,034	266,147	-0,165	-0,200
260,049	64,154	-0,099	-0,069
261,063	55,820	-0,235	-0,157
262,078	87,081	-0,180	-0,138
263,093	57,772	-0,062	-0,042
264,107	39,154	-0,205	-0,127
265,122	164,667	-0,186	-0,182
266,136	100,367	-0,175	-0,140
267,151	-23,831	-0,176	-0,072
268,166	-144,313	-0,194	-0,012
269,180	-79,946	-0,258	-0,060
270,195	-200,000	-0,008	-0,164
271,209	-199,197	-0,151	0,001
272,224	-67,669	-0,203	-0,055
273,239	-33,516	-0,113	-0,043
274,253	99,409	-0,134	-0,107
275,268	800,000	-0,134	-0,297
276,282	210,545	-0,231	-0,252
277,297	65,379	-0,108	-0,076
278,312	3,566	-0,182	-0,092
279,326	459,396	-0,117	-0,181
280,341	15,387	-0,200	-0,108
281,355	743,433	-0,100	-0,186
282,370	299,951	-0,179	-0,229
283,384	-10,825	-0,185	-0,084
284,399	283,210	-0,169	-0,210
285,414	-200,000	-0,003	-0,163
286,428	-200,000	0,037	-0,156
287,443	800,000	-0,032	-0,063
288,457	18,315	-0,181	-0,100
289,472	-187,882	-0,185	-0,002
290,487	210,682	-0,089	-0,097
291,501	800,000	-0,103	-0,202
292,516	17,269	-0,188	-0,103
293,530	10,247	-0,201	-0,105
294,545	16,252	-0,123	-0,067
295,560	27,720	-0,122	-0,071
296,574	18,227	-0,164	-0,090
297,589	-53,633	-0,102	-0,032
298,603	-50,828	-0,202	-0,065
299,618	-126,633	-0,135	-0,014
300,633	177,179	-0,096	0,097
301,647	800,000	0,051	-0,120
302,662	424,205	-0,128	-0,191
303,676	-113,460	-0,236	-0,032
304,691	-82,529	-0,112	0,025
305,706	151,999	-0,195	-0,183
306,720	166,470	-0,244	-0,239
307,735	-30,736	-0,113	0,044
308,749	186,101	-0,200	-0,205
309,764	-14,790	-0,165	-0,073
310,779	-12,171	-0,089	-0,040
311,793	136,653	-0,077	-0,069
312,808	220,208	-0,146	-0,162
313,822	202,921	-0,163	-0,174
314,837	3,667	-0,182	-0,091
315,852	-200,000	-0,003	-0,110
316,866	-103,592	-0,166	-0,027
317,881	800,000	-0,052	-0,114
318,895	-62,168	-0,170	0,049
319,910	184,946	-0,177	-0,181
320,925	800,000	-0,141	-0,281
321,939	80,918	-0,183	-0,136
322,954	214,326	-0,057	-0,062
323,968	-200,000	-0,021	-0,155
324,983	-79,115	-0,119	-0,028
325,997	-162,535	-0,185	0,006
327,012	190,456	-0,238	-0,247
328,027	199,359	-0,230	-0,243
329,041	-170,194	-0,173	-0,004
330,056	-187,286	-0,107	-0,001
331,070	21,673	-0,120	-0,067
332,085	69,464	-0,155	-0,110
333,100	-125,028	-0,188	0,020
334,114	-47,028	-0,252	-0,084
335,129	166,582	-0,127	-0,124
336,143	98,900	-0,209	-0,166
337,158	-200,000	-0,013	-0,216
338,173	800,000	-0,046	-0,101
339,187	-7,483	-0,112	-0,052
340,202	-109,837	-0,122	-0,017
341,216	-9,703	-0,252	-0,115
342,231	-200,000	-0,023	-0,106
343,246	159,522	-0,092	-0,089
344,260	50,398	-0,115	-0,074
345,275	-26,076	-0,117	-0,047
346,289	-66,665	-0,142	-0,038
347,304	31,988	-0,141	-0,083
348,319	-132,360	-0,208	-0,018
349,333	18,340	-0,190	-0,104
350,348	95,089	-0,116	-0,091
351,362	800,000	-0,057	-0,126
352,377	-26,563	-0,188	-0,075
353,392	191,905	-0,192	-0,199
354,406	-164,682	-0,188	0,006
355,421	208,920	1313,773	1414,766
356,435	160,770	1474,420	1415,284
