DTS Sentinel unit serial number:	SN410029Multiplexer serial number:	ORYXHardware model number:	OX2-SRSoftware version number:	ORYX F/W v4,00 Oryx Data Collector v3.7.2.0data status	okinstallation	B3 Nyhavnadifferential loss correction	single-endedforward channel	channel 1reverse channel	N/Adate	2023/12/05time	07:47:30forward acquisition time	300,00reverse acquisition time	0,00gamma	499,1914k internal	0,3200k external	0,3200temperature offset calibration	1,0000default loss term (dB/km)	0,3820temperature slope calibration	1,0000multiplexer offset coefficient	1,0000multiplexer slope coefficient	1,0000fibre end	0,00T internal ref (°C)	13,68T ext. ref 1 (°C)	-1,53T ext. ref 2 (°C)	-1,61length (m)	temperature (°C)	Stokes	anti-Stokes-744,400	164,073	-0,255	-0,262
-743,385	-200,000	-0,062	0,228
-742,371	13,270	-0,323	-0,182
-741,356	800,000	0,130	0,327
-740,342	157,086	-0,207	-0,208
-739,327	800,000	-0,134	0,370
-738,312	124,311	-0,134	-0,123
-737,298	-200,000	0,004	0,270
-736,283	800,000	-0,024	-0,054
-735,269	-200,000	0,067	0,338
-734,254	-180,750	-0,175	-0,003
-733,239	-91,039	-0,237	0,049
-732,225	116,610	-0,232	-0,207
-731,210	800,000	-0,026	0,072
-730,196	102,203	0,072	0,061
-729,181	128,280	-0,094	-0,087
-728,167	73,915	-0,084	-0,064
-727,152	524,431	0,016	-0,027
-726,137	312,658	-0,056	-0,077
-725,123	-200,000	0,011	0,079
-724,108	-13,865	-0,162	-0,076
-723,094	-200,000	0,014	0,057
-722,079	15,965	-0,112	-0,064
-721,064	49,367	-0,117	0,080
-720,050	-200,000	-0,017	0,091
-719,035	-154,699	0,126	0,006
-718,021	-200,000	-0,023	0,174
-717,006	800,000	0,002	0,005
-715,991	-200,000	0,002	-0,053
-714,977	21,508	-0,105	-0,062
-713,962	-64,450	-0,080	0,024
-712,948	-13,600	0,139	-0,065
-711,933	-156,155	0,054	0,002
-710,918	257,802	0,039	0,048
-709,904	-200,000	0,061	0,000
-708,889	59,325	-0,099	-0,071
-707,875	-44,299	-0,062	-0,023
-706,860	-200,000	0,006	-0,073
-705,845	-53,497	-0,104	0,034
-704,831	723,142	-0,108	0,209
-703,816	-200,000	-0,004	-0,136
-702,802	-42,270	-0,099	-0,037
-701,787	136,818	-0,019	0,018
-700,772	12,368	0,071	0,040
-699,758	407,331	-0,096	-0,148
-698,743	494,741	0,006	0,010
-697,729	-200,000	0,011	0,063
-696,714	161,705	-0,105	0,107
-695,699	-148,152	-0,300	-0,018
-694,685	800,000	0,007	0,018
-693,670	-115,616	-0,117	0,016
-692,656	-159,697	0,194	-0,008
-691,641	-200,000	0,003	-0,124
-690,627	343,405	-0,022	-0,032
-689,612	313,311	-0,009	0,013
-688,597	-200,000	0,014	-0,045
-687,583	20,260	-0,093	-0,054
-686,568	-96,889	-0,119	-0,022
-685,554	68,339	-0,046	-0,034
-684,539	275,703	-0,017	-0,022
-683,524	-43,514	0,034	0,012
-682,510	800,000	0,024	0,076
-681,495	-200,000	-0,026	0,125
-680,481	-132,486	-0,136	-0,012
-679,466	-104,771	-0,136	0,023
-678,451	-11,776	-0,061	0,029
-677,437	-2,236	0,032	-0,016
-676,422	-78,284	-0,139	0,034
-675,408	-98,650	0,152	0,028
-674,393	-81,611	-0,157	-0,037
-673,378	-64,876	0,065	0,019
-672,364	277,188	-0,084	-0,108
-671,349	-102,751	0,055	0,009
-670,335	280,963	0,070	0,091
-669,320	57,251	-0,135	0,095
-668,305	-200,000	-0,017	0,074
-667,291	436,603	-0,029	-0,045
-666,276	197,040	-0,039	0,043
-665,262	-19,308	0,112	0,050
-664,247	342,393	0,004	0,006
-663,232	-12,973	-0,072	0,034
-662,218	142,278	-0,019	-0,018
-661,203	109,006	-0,106	-0,092
-660,189	800,000	-0,014	0,035
-659,174	-7,561	-0,133	0,065
-658,159	-200,000	-0,031	-0,105
-657,145	155,751	-0,083	-0,083
-656,130	-109,303	-0,138	0,021
-655,116	800,000	0,048	-0,115
-654,101	-143,457	0,022	-0,001
-653,086	800,000	0,016	-0,048
-652,072	-21,736	-0,076	0,034
-651,057	-28,363	-0,083	-0,034
-650,043	-46,607	-0,062	0,022
-649,028	800,000	-0,003	0,009
-648,014	-18,589	0,150	-0,067
-646,999	-200,000	0,003	0,156
-645,984	-200,000	0,006	-0,055
-644,970	-200,000	0,009	0,080
-643,955	-134,287	-0,077	-0,007
-642,941	46,223	-0,090	0,060
-641,926	707,151	-0,056	-0,107
-640,911	191,878	-0,076	-0,083
-639,897	271,786	0,030	-0,039
-638,882	-200,000	-0,041	0,135
-637,868	-188,766	0,029	0,000
-636,853	314,395	-0,089	-0,122
-635,838	-83,131	-0,088	0,020
-634,824	92,039	-0,095	-0,078
-633,809	-112,420	-0,131	-0,019
-632,795	-31,934	-0,080	-0,032
-631,780	800,000	-0,016	-0,033
-630,765	-200,000	-0,022	-0,072
-629,751	800,000	0,076	-0,182
-628,736	-200,000	0,010	-0,059
-627,722	-89,391	0,052	-0,011
-626,707	-38,000	0,062	-0,024
-625,692	-33,695	0,037	-0,015
-624,678	-80,234	0,052	0,012
-623,663	-200,000	0,017	-0,058
-622,649	449,952	-0,064	-0,102
-621,634	729,699	-0,025	-0,048
-620,619	705,861	-0,033	-0,064
-619,605	422,025	-0,087	0,135
-618,590	800,000	-0,048	0,098
-617,576	336,867	0,067	0,095
-616,561	-200,000	-0,010	0,101
-615,546	-59,202	-0,025	0,008
-614,532	-88,256	0,089	-0,019
-613,517	-200,000	-0,019	0,087
-612,503	454,557	0,016	-0,026
-611,488	424,310	0,102	0,160
-610,474	294,843	0,053	0,070
-609,459	259,231	-0,011	-0,013
-608,444	-200,000	-0,046	-0,240
-607,430	-200,000	0,001	-0,156
-606,415	-200,000	-0,024	-0,120
-605,401	-39,738	-0,091	0,034
-604,386	-200,000	0,017	-0,114
-603,371	800,000	0,009	0,022
-602,357	800,000	0,060	-0,129
-601,342	-200,000	-0,012	0,059
-600,328	782,497	-0,033	-0,065
-599,313	-200,000	-0,008	-0,104
-598,298	800,000	-0,042	-0,124
-597,284	148,436	0,044	-0,043
-596,269	273,072	0,065	0,083
-595,255	214,914	0,060	0,069
-594,240	-58,424	-0,095	0,030
-593,225	155,617	-0,127	-0,127
-592,211	84,629	-0,086	0,068
-591,196	-99,233	0,050	0,009
-590,182	88,447	0,027	-0,022
-589,167	285,950	-0,027	0,035
-588,152	337,868	-0,041	-0,058
-587,138	800,000	0,015	0,042
-586,123	-200,000	0,005	-0,220
-585,109	511,216	0,038	-0,065
-584,094	-186,884	0,093	-0,001
-583,079	-200,000	0,017	0,060
-582,065	-200,000	-0,065	0,256
-581,050	-200,000	0,009	0,189
-580,036	707,956	-0,062	0,120
-579,021	-200,000	0,011	-0,094
-578,006	223,444	-0,058	-0,067
-576,992	695,993	-0,058	-0,110
-575,977	278,730	0,046	0,059
-574,963	-200,000	-0,012	0,120
-573,948	700,620	0,061	0,117
-572,934	262,507	-0,088	0,111
-571,919	-51,783	-0,026	0,009
-570,904	-21,968	-0,032	-0,014
-569,890	-8,480	-0,099	0,048
-568,875	574,629	-0,022	-0,039
-567,861	648,826	0,052	0,097
-566,846	-71,471	-0,042	0,011
-565,831	-171,032	-0,061	0,001
-564,817	-84,078	0,087	0,020
-563,802	-36,678	-0,093	0,036
-562,788	800,000	0,035	0,081
-561,773	-200,000	0,010	-0,080
-560,758	72,295	0,070	0,053
-559,744	-133,721	-0,065	-0,006
-558,729	-200,000	-0,021	0,079
-557,715	76,939	0,037	-0,029
-556,700	-141,396	0,095	-0,007
-555,685	164,831	-0,101	-0,103
-554,671	800,000	-0,025	0,071
-553,656	125,832	-0,026	-0,024
-552,642	114,641	0,055	0,049
-551,627	13,442	0,063	-0,035
-550,612	208,665	-0,091	-0,103
-549,598	-94,307	0,023	0,005
-548,583	38,029	0,085	0,054
-547,569	307,783	0,067	0,090
-546,554	432,095	0,081	-0,127
-545,539	19,251	-0,087	0,050
-544,525	102,163	0,030	0,025
-543,510	68,613	0,022	-0,016
-542,496	549,491	0,047	0,082
-541,481	-200,000	0,021	-0,099
-540,466	-200,000	-0,029	-0,212
-539,452	603,535	0,049	-0,088
-538,437	-139,309	0,127	0,010
-537,423	-10,273	-0,054	-0,026
-536,408	55,648	-0,090	-0,063
-535,393	290,848	-0,069	0,090
-534,379	106,827	-0,098	-0,084
-533,364	335,875	-0,007	-0,009
-532,350	43,717	0,076	0,050
-531,335	-153,549	0,135	0,007
-530,321	3,448	0,143	0,075
-529,306	516,974	-0,062	0,105
-528,291	98,284	-0,037	-0,031
-527,277	-200,000	-0,050	-0,197
-526,262	-10,480	0,123	0,059
-525,248	-139,142	-0,096	-0,007
-524,233	-62,976	0,024	-0,007
-523,218	48,956	0,082	0,056
-522,204	-200,000	0,015	0,143
-521,189	800,000	0,011	-0,025
-520,175	63,160	-0,044	-0,032
-519,160	-200,000	-0,024	0,079
-518,145	85,471	0,053	-0,042
-517,131	-200,000	0,014	0,052
-516,116	267,424	0,023	0,029
-515,102	69,146	-0,051	0,038
-514,087	-200,000	-0,003	-0,013
-513,072	-60,793	-0,057	-0,017
-512,058	193,256	-0,092	-0,101
-511,043	800,000	0,022	-0,050
-510,029	289,945	-0,014	0,018
-509,014	-200,000	0,028	0,117
-507,999	61,334	-0,033	0,023
-506,985	-131,854	0,009	-0,001
-505,970	-78,262	-0,223	-0,055
-504,956	-71,741	0,138	0,037
-503,941	26,295	-0,115	0,069
-502,926	11,393	-0,032	0,018
-501,912	-200,000	0,012	0,072
-500,897	110,581	0,063	0,055
-499,883	225,741	-0,028	0,033
-498,868	800,000	-0,021	-0,055
-497,853	-88,738	-0,081	-0,017
-496,839	-49,807	-0,086	0,029
-495,824	-200,000	0,000	0,047
-494,810	800,000	0,021	0,065
-493,795	251,555	-0,076	0,093
-492,781	74,695	0,104	-0,079
-491,766	0,387	-0,080	-0,041
-490,751	71,806	-0,060	0,045
-489,737	672,732	0,064	0,120
-488,722	-200,000	-0,007	-0,077
-487,708	73,737	0,056	0,043
-486,693	-3,480	0,052	-0,026
-485,678	5,176	-0,043	0,023
-484,664	-200,000	0,004	-0,015
-483,649	800,000	-0,049	-0,104
-482,635	800,000	0,055	-0,135
-481,620	-200,000	-0,029	-0,099
-480,605	380,433	0,056	-0,083
-479,591	-200,000	0,005	-0,170
-478,576	-0,837	-0,054	0,027
-477,562	277,224	0,041	0,053
-476,547	-183,228	0,031	0,000
-475,532	-85,393	-0,101	-0,023
-474,518	-200,000	-0,000	0,019
-473,503	-35,568	0,097	-0,038
-472,489	282,856	0,029	0,038
-471,474	-165,751	-0,065	0,002
-470,459	-200,000	0,019	-0,107
-469,445	397,949	0,036	-0,055
-468,430	218,463	0,054	0,062
-467,416	800,000	0,065	-0,160
-466,401	31,742	0,024	-0,015
-465,386	10,980	0,148	0,081
-464,372	-122,670	0,082	-0,009
-463,357	-152,288	-0,111	-0,006
-462,343	260,116	-0,034	0,042
-461,328	-50,345	-0,044	-0,015
-460,313	-200,000	-0,003	-0,085
-459,299	62,212	-0,131	0,094
-458,284	-200,000	0,010	0,082
-457,270	-200,000	-0,018	-0,079
-456,255	800,000	0,002	-0,008
-455,241	-27,625	-0,064	0,027
-454,226	-200,000	-0,007	-0,237
-453,211	-135,109	-0,037	0,003
-452,197	318,664	-0,031	0,042
-451,182	19,773	0,181	-0,104
-450,168	800,000	-0,009	0,025
-449,153	-200,000	-0,035	0,115
-448,138	-40,168	-0,096	0,036
-447,124	-153,716	-0,070	0,003
-446,109	253,445	-0,040	0,050
-445,095	-23,069	0,016	0,007
-444,080	800,000	0,070	0,153
-443,065	274,996	0,057	0,073
-442,051	-200,000	0,028	0,113
-441,036	402,687	-0,028	0,043
-440,022	63,486	-0,072	-0,052
-439,007	209,957	-0,050	-0,057
-437,992	191,083	0,020	-0,021
-436,978	-5,088	0,110	0,054
-435,963	800,000	0,025	-0,050
-434,949	-97,177	0,202	-0,038
-433,934	-134,779	-0,075	0,006
-432,919	800,000	0,037	0,087
-431,905	3,988	-0,078	0,041
-430,890	585,548	0,045	0,080
-429,876	34,825	0,077	0,049
-428,861	-200,000	-0,014	0,046
-427,846	-200,000	-0,003	-0,100
-426,832	99,457	-0,091	0,076
-425,817	-200,000	-0,017	-0,063
-424,803	-84,891	0,043	-0,010
-423,788	-58,659	0,092	0,028
-422,773	-84,190	-0,012	-0,003
-421,759	800,000	-0,074	0,180
-420,744	-52,532	0,100	0,033
-419,730	-184,734	0,034	0,000
-418,715	-146,973	-0,027	0,002
-417,701	36,040	-0,102	-0,065
-416,686	-200,000	-0,004	-0,019
-415,671	198,137	0,087	0,095
-414,657	230,832	-0,034	-0,040
-413,642	-200,000	-0,008	-0,160
-412,628	800,000	-0,023	-0,062
-411,613	108,842	-0,121	-0,103
-410,598	-48,876	0,147	0,050
-409,584	535,428	0,071	-0,122
-408,569	312,519	-0,060	-0,081
-407,555	800,000	-0,020	0,061
-406,540	800,000	-0,018	0,044
-405,525	-118,238	0,053	-0,007
-404,511	-93,892	-0,111	-0,022
-403,496	-200,000	-0,015	-0,117
-402,482	1,198	0,127	-0,065
-401,467	-200,000	-0,033	0,110
-400,452	-99,007	0,086	-0,016
-399,438	-200,000	0,001	0,043
-398,423	132,091	-0,090	-0,083
-397,409	-71,832	-0,108	-0,029
-396,394	536,837	0,055	0,094
-395,379	-80,597	0,049	-0,012
-394,365	78,546	0,077	0,059
-393,350	-73,014	-0,077	-0,020
-392,336	-98,561	0,100	0,018
-391,321	23,996	-0,051	0,030
-390,306	-200,000	0,011	-0,087
-389,292	800,000	0,025	-0,062
-388,277	421,147	0,030	-0,046
-387,263	-200,000	-0,017	0,109
-386,248	-73,328	0,036	-0,009
-385,233	-138,700	0,100	-0,008
-384,219	316,126	0,015	-0,020
-383,204	104,220	-0,024	0,020
-382,190	800,000	-0,018	-0,038
-381,175	-200,000	0,023	-0,091
-380,160	800,000	-0,030	-0,064
-379,146	519,823	0,082	0,138
-378,131	73,269	0,104	-0,078
-377,117	22,949	0,120	-0,071
-376,102	-65,688	-0,103	0,030
-375,088	-200,000	-0,003	-0,142
-374,073	9,113	0,111	-0,060
-373,058	289,237	0,089	0,116
-372,044	15,087	0,072	-0,040
-371,029	566,843	0,064	0,112
-370,015	-200,000	0,015	0,059
-369,000	668,761	-0,048	0,089
-367,985	118,528	-0,084	-0,074
-366,971	248,096	-0,062	0,076
-365,956	60,203	0,026	0,019
-364,942	-200,000	-0,029	0,128
-363,927	800,000	0,011	0,023
-362,912	525,871	0,043	0,073
-361,898	260,446	-0,022	-0,027
-360,883	495,880	0,021	-0,035
-359,869	-200,000	-0,019	-0,171
-358,854	800,000	0,006	-0,017
-357,839	-200,000	0,012	0,065
-356,825	42,990	0,092	0,060
-355,810	800,000	-0,016	-0,038
-354,796	800,000	0,044	0,111
-353,781	800,000	-0,030	-0,093
-352,766	210,923	-0,088	-0,099
-351,752	129,247	0,048	0,044
-350,737	313,125	-0,079	0,107
-349,723	-35,982	-0,097	0,037
-348,708	-110,065	-0,171	0,025
-347,693	-71,212	0,086	-0,023
-346,679	35,815	0,127	-0,080
-345,664	-200,000	0,010	0,080
-344,650	512,797	0,061	0,102
-343,635	-72,529	0,120	0,032
-342,620	-200,000	0,006	0,119
-341,606	-46,978	0,097	0,034
-340,591	22,417	0,054	-0,032
-339,577	-200,000	-0,027	-0,105
-338,562	-25,613	-0,097	-0,041
-337,548	120,692	0,115	0,102
-336,533	800,000	0,037	0,079
-335,518	24,466	0,219	0,129
-334,504	380,053	-0,060	0,088
-333,489	-140,884	0,093	-0,007
-332,475	-200,000	0,017	-0,061
-331,460	29,397	-0,087	-0,053
-330,445	-52,683	-0,171	-0,056
-329,431	-200,000	-0,003	0,088
-328,416	-200,000	0,049	0,174
-327,402	-163,168	-0,106	0,004
-326,387	-15,319	-0,036	-0,017
-325,372	152,946	0,081	0,079
-324,358	-200,000	-0,016	-0,076
-323,343	671,591	-0,081	-0,151
-322,329	-200,000	0,035	0,198
-321,314	800,000	0,029	-0,068
-320,299	-26,859	-0,124	0,051
-319,285	-200,000	0,011	0,080
-318,270	534,624	0,074	0,125
-317,256	-19,423	-0,054	0,024
-316,241	70,244	0,054	-0,040
-315,226	48,288	-0,030	-0,020
-314,212	-200,000	0,004	-0,054
-313,197	-46,551	-0,032	-0,011
-312,183	-200,000	0,024	0,104
-311,168	-162,023	-0,133	-0,005
-310,153	-200,000	-0,010	-0,101
-309,139	-4,034	-0,036	-0,018
-308,124	-166,394	-0,042	0,001
-307,110	-200,000	-0,001	0,061
-306,095	124,117	-0,071	0,063
-305,080	-139,634	0,081	0,006
-304,066	-200,000	-0,026	-0,085
-303,051	50,647	0,034	-0,023
-302,037	36,705	-0,081	0,051
-301,022	-200,000	-0,007	-0,061
-300,008	-200,000	-0,009	-0,036
-298,993	-117,923	0,095	0,012
-297,978	-200,000	-0,008	-0,103
-296,964	37,369	-0,086	0,054
-295,949	-8,978	0,097	0,046
-294,935	-51,004	-0,191	-0,064
-293,920	110,493	0,038	0,033
-292,905	30,405	-0,101	0,062
-291,891	-200,000	0,001	0,016
-290,876	-200,000	0,005	0,064
-289,862	-98,340	-0,087	0,016
-288,847	366,766	0,041	-0,060
-287,832	-17,072	-0,067	-0,030
-286,818	2,737	0,041	-0,021
-285,803	-41,590	0,092	0,034
-284,789	-200,000	0,058	0,206
-283,774	501,844	0,043	-0,071
-282,759	-69,643	-0,080	-0,022
-281,745	420,488	-0,096	0,147
-280,730	-103,752	-0,131	0,022
-279,716	161,413	0,057	0,057
-278,701	-200,000	0,006	-0,026
-277,686	452,468	0,058	-0,092
-276,672	-69,124	0,085	-0,023
-275,657	-116,563	-0,092	-0,012
-274,643	354,442	-0,027	0,038
-273,628	-153,379	-0,052	0,003
-272,613	-119,683	-0,207	0,025
-271,599	-200,000	0,015	0,086
-270,584	-114,487	0,173	-0,024
-269,570	-200,000	-0,018	-0,070
-268,555	147,150	-0,094	-0,091
-267,540	-122,898	-0,099	-0,011
-266,526	-92,981	-0,160	-0,031
-265,511	-165,620	-0,112	0,003
-264,497	50,341	-0,053	-0,036
-263,482	800,000	0,026	-0,055
-262,467	37,845	0,050	0,032
-261,453	-147,914	0,036	0,002
-260,438	142,728	-0,067	-0,064
-259,424	-50,350	0,070	-0,023
-258,409	-87,734	-0,088	-0,019
-257,395	227,328	-0,068	-0,079
-256,380	-88,254	0,165	0,035
-255,365	554,970	0,088	0,152
-254,351	-35,041	-0,042	0,016
-253,336	-136,250	0,037	-0,003
-252,322	92,125	-0,119	-0,096
-251,307	-85,656	-0,077	-0,017
-250,292	62,431	-0,166	0,118
-249,278	80,679	0,089	-0,069
-248,263	273,315	0,045	-0,056
-247,249	228,137	-0,043	-0,050
-246,234	-200,000	-0,011	-0,064
-245,219	79,075	-0,107	0,082
-244,205	217,666	0,008	0,009
-243,190	22,126	0,106	-0,062
-242,176	-171,126	-0,129	0,003
-241,161	-122,590	-0,026	0,003
-240,146	-103,191	0,164	0,027
-239,132	800,000	-0,068	0,164
-238,117	218,784	-0,016	-0,019
-237,103	53,055	0,144	-0,098
-236,088	800,000	-0,017	0,042
-235,073	177,632	0,144	-0,150
-234,059	459,207	-0,038	0,060
-233,044	-37,793	0,065	-0,025
-232,030	-69,154	0,095	0,026
-231,015	604,617	0,056	-0,101
-230,000	328,334	-0,101	0,139
-228,986	-3,492	-0,036	-0,018
-227,971	-37,222	0,100	0,038
-226,957	230,106	0,101	0,118
-225,942	-89,903	-0,097	0,020
-224,927	-102,236	0,033	-0,006
-223,913	800,000	-0,016	-0,047
-222,898	77,886	0,043	-0,032
-221,884	-2,580	-0,098	0,049
-220,869	6,152	0,027	-0,014
-219,855	800,000	0,018	0,050
-218,840	-189,362	-0,073	0,001
-217,825	-200,000	-0,006	-0,137
-216,811	-200,000	-0,012	-0,082
-215,796	-200,000	0,030	-0,172
-214,782	415,365	0,044	-0,068
-213,767	78,607	-0,044	0,034
-212,752	800,000	0,018	-0,044
-211,738	51,591	0,083	0,056
-210,723	800,000	0,046	0,124
-209,709	-134,504	-0,035	-0,003
-208,694	135,195	-0,118	-0,109
-207,679	-90,935	0,052	0,011
-206,665	-48,231	0,110	0,038
-205,650	-200,000	-0,000	0,035
-204,636	-200,000	0,000	-0,122
-203,621	800,000	0,007	0,018
-202,606	491,993	0,023	-0,038
-201,592	88,245	-0,090	-0,071
-200,577	-62,237	0,001	-0,000
-199,563	477,046	0,027	0,043
-198,548	276,963	-0,100	0,127
-197,533	-200,000	0,035	0,170
-196,519	-64,000	0,094	-0,027
-195,504	-200,000	0,010	-0,033
-194,490	-87,226	-0,028	-0,006
-193,475	-200,000	0,010	-0,087
-192,460	296,826	0,067	-0,088
-191,446	-64,293	0,134	-0,039
-190,431	281,516	0,046	-0,059
-189,417	-200,000	-0,013	-0,048
-188,402	800,000	-0,048	0,108
-187,387	800,000	0,016	-0,051
-186,373	-181,046	0,050	-0,001
-185,358	-3,665	-0,005	0,002
-184,344	-41,291	-0,066	0,024
-183,329	-200,000	-0,019	0,084
-182,315	-88,412	-0,088	-0,019
-181,300	800,000	-0,035	-0,089
-180,285	-42,772	0,065	-0,023
-179,271	109,644	-0,112	0,095
-178,256	800,000	-0,046	-0,126
-177,242	800,000	0,045	0,112
-176,227	27,668	0,064	0,038
-175,212	-137,723	0,105	0,008
-174,198	93,666	0,049	0,040
-173,183	-200,000	0,029	0,107
-172,169	-31,072	-0,041	-0,016
-171,154	-139,752	0,040	0,003
-170,139	361,292	-0,025	0,035
-169,125	-71,551	-0,079	0,021
-168,110	-200,000	0,020	-0,070
-167,096	214,368	0,097	-0,109
-166,081	23,146	-0,121	0,070
-165,066	-127,075	-0,118	0,012
-164,052	-69,177	0,138	-0,038
-163,037	-3,207	0,087	-0,043
-162,023	24,442	0,163	0,096
-161,008	-63,382	0,098	0,028
-159,993	133,604	0,083	0,076
-158,979	161,440	-0,047	0,047
-157,964	-141,458	0,158	-0,011
-156,950	3,905	-0,153	-0,079
-155,935	-200,000	0,003	-0,087
-154,920	-200,000	0,020	0,083
-153,906	800,000	0,021	-0,052
-152,891	800,000	0,064	-0,148
-151,877	-29,461	0,077	0,031
-150,862	355,552	0,022	-0,031
-149,847	35,282	0,217	-0,135
-148,833	-200,000	0,009	0,080
-147,818	28,538	-0,143	0,086
-146,804	339,602	-0,009	-0,012
-145,789	800,000	0,051	0,112
-144,775	-97,908	0,029	0,005
-143,760	78,042	-0,116	-0,088
-142,745	800,000	0,022	-0,061
-141,731	800,000	-0,021	0,054
-140,716	-72,366	-0,110	-0,029
-139,702	300,404	-0,129	0,169
-138,687	800,000	0,035	0,070
-137,672	81,639	-0,033	-0,025
-136,658	-200,000	-0,006	-0,026
-135,643	371,513	-0,090	-0,130
-134,629	800,000	0,005	0,013
-133,614	683,050	0,013	0,025
-132,599	800,000	0,063	0,198
-131,585	441,167	-0,085	0,132
-130,570	248,821	0,024	0,030
-129,556	165,276	-0,094	0,095
-128,541	800,000	-0,021	-0,063
-127,526	-200,000	-0,028	0,099
-126,512	-200,000	0,014	0,129
-125,497	-200,000	-0,000	-0,043
-124,483	800,000	-0,007	-0,023
-123,468	656,632	0,027	-0,050
-122,453	489,241	-0,017	-0,028
-121,439	-19,430	-0,025	0,011
-120,424	-200,000	0,001	0,137
-119,410	-200,000	-0,008	0,055
-118,395	-22,710	0,207	0,088
-117,380	-200,000	-0,001	-0,042
-116,366	-200,000	0,006	0,053
-115,351	242,486	-0,080	-0,096
-114,337	515,525	-0,020	-0,033
-113,322	-40,972	0,075	0,027
-112,307	682,534	-0,037	-0,070
-111,293	45,764	0,145	-0,095
-110,278	-140,626	0,078	0,006
-109,264	-4,791	-0,051	-0,025
-108,249	800,000	-0,034	0,081
-107,234	-122,138	-0,047	0,005
-106,220	288,646	-0,005	0,006
-105,205	-200,000	-0,009	-0,039
-104,191	33,301	0,089	0,055
-103,176	-199,676	-0,078	0,000
-102,162	23,580	-0,071	0,041
-101,147	382,300	-0,029	0,042
-100,132	800,000	0,035	-0,099
-99,118	800,000	0,024	-0,071
-98,103	800,000	0,011	0,029
-97,089	-12,031	0,107	0,050
-96,074	-147,701	-0,090	-0,005
-95,059	-13,124	-0,088	0,041
-94,045	670,875	-0,062	0,115
-93,030	106,081	-0,040	0,033
-92,016	-200,000	-0,019	-0,131
-91,001	153,734	-0,095	0,092
-89,986	800,000	-0,054	0,149
-88,972	-156,357	0,137	0,006
-87,957	-200,000	0,003	-0,039
-86,943	-77,164	0,013	0,003
-85,928	40,578	0,107	0,068
-84,913	800,000	0,017	0,047
-83,899	568,972	-0,011	-0,019
-82,884	-200,000	0,002	0,099
-81,870	-137,612	-0,050	0,004
-80,855	315,188	0,027	0,036
-79,840	-200,000	0,010	0,088
-78,826	-76,702	-0,069	-0,017
-77,811	-200,000	-0,021	-0,081
-76,797	-120,417	0,127	0,015
-75,782	158,601	-0,014	0,014
-74,767	-200,000	0,004	0,040
-73,753	111,174	-0,067	0,057
-72,738	79,919	-0,110	0,084
-71,724	-88,990	0,093	-0,019
-70,709	-68,225	-0,092	-0,025
-69,694	13,672	-0,008	0,004
-68,680	-85,050	0,090	0,020
-67,665	-41,164	-0,036	-0,013
-66,651	-200,000	0,024	-0,079
-65,636	205,319	0,129	-0,142
-64,622	95,806	-0,095	-0,077
-63,607	797,377	-0,020	-0,038
-62,592	117,754	0,049	0,043
-61,578	800,000	-0,004	-0,008
-60,563	-35,871	-0,043	-0,016
-59,549	256,673	0,049	0,059
-58,534	4,762	-1,487	-0,772
-57,519	524,495	-1,234	-2,063
-56,505	-200,000	-0,605	-4,428
-55,490	248,007	0,906	1,087
-54,476	800,000	5,010	11,548
-53,461	-200,000	19,076	317,042
-52,446	-200,000	740,145	2333,377
-51,432	575,457	1656,181	2875,657
-50,417	78,776	1672,281	1265,807
-49,403	21,663	1544,851	888,355
-48,388	15,553	1467,190	813,964
-47,373	17,868	1457,297	819,640
-46,359	16,718	1447,328	808,479
-45,344	13,796	1442,655	791,828
-44,330	13,707	1440,817	790,364
-43,315	13,740	1439,066	789,530
-42,300	13,735	1437,362	788,540
-41,286	13,764	1436,204	788,010
-40,271	13,688	1434,999	786,957
-39,257	13,742	1433,523	786,372
-38,242	13,772	1432,206	785,762
-37,227	13,762	1431,376	785,228
-36,213	13,787	1429,830	784,467
-35,198	13,801	1428,630	783,845
-34,184	13,817	1427,745	783,404
-33,169	13,737	1426,346	782,227
-32,154	13,784	1425,326	781,857
-31,140	13,813	1423,942	781,203
-30,125	13,830	1422,894	780,679
-29,111	13,827	1421,678	779,966
-28,096	13,789	1420,729	779,236
-27,082	13,720	1419,609	778,267
-26,067	13,690	1418,592	777,533
-25,052	13,716	1417,311	776,926
-24,038	13,639	1416,570	776,127
-23,023	13,670	1415,456	775,628
-22,009	13,682	1414,381	775,067
-20,994	13,679	1413,498	774,536
-19,979	13,624	1412,663	773,792
-18,965	13,645	1411,750	773,357
-17,950	13,677	1410,577	772,835
-16,936	13,635	1410,016	772,303
-15,921	13,611	1408,850	771,518
-14,906	13,621	1407,740	770,930
-13,892	13,653	1406,692	770,473
-12,877	13,625	1405,997	769,930
-11,863	13,602	1405,236	769,377
-10,848	13,622	1404,134	768,837
-9,833	13,531	1403,320	767,935
-8,819	13,547	1402,454	767,507
-7,804	13,512	1401,627	766,858
-6,790	13,513	1400,617	766,281
-5,775	13,518	1399,624	765,729
-4,760	13,521	1398,528	765,115
-3,746	13,517	1397,731	764,630
-2,731	13,522	1396,772	764,099
-1,717	13,494	1395,945	763,485
-0,702	13,475	1394,291	762,462
0,313	17,241	1311,330	734,584
1,327	33,350	704,571	431,970
2,342	50,960	123,554	82,752
3,356	1,608	16,630	8,446
4,371	1,811	3,202	1,628
5,386	-79,648	0,648	0,153
6,400	800,000	0,062	0,140
7,415	403,481	-0,125	-0,187
8,429	137,898	-0,296	-0,274
9,444	13,938	-0,303	-0,166
10,459	96,956	-0,284	-0,230
11,473	476,539	-0,145	-0,233
12,488	33,932	-0,235	-0,145
13,502	-74,839	-0,360	-0,091
14,517	22,451	-0,263	-0,152
15,531	145,524	-0,287	-0,272
16,546	156,665	-0,308	-0,301
17,561	207,746	-0,271	-0,299
18,575	111,246	-0,120	-0,102
19,590	-44,179	-0,261	-0,092
20,604	40,391	-0,267	-0,170
21,619	-17,613	-0,482	-0,213
22,634	141,682	-0,393	-0,368
23,648	58,613	-0,482	-0,334
24,663	70,850	-0,347	-0,253
25,677	126,341	-0,233	-0,208
26,692	84,900	-0,261	-0,202
27,707	207,438	-0,273	-0,302
28,721	48,498	-0,287	-0,190
29,736	24,709	-0,343	-0,200
30,750	57,445	-0,390	-0,268
31,765	316,267	-0,353	-0,472
32,780	281,356	-0,238	-0,302
33,794	50,463	-0,436	-0,290
34,809	43,386	-0,404	-0,260
35,823	-77,110	-0,472	-0,115
36,838	103,042	-0,206	-0,170
37,853	-5,213	-0,361	-0,175
38,867	220,849	-0,232	-0,264
39,882	3,957	-0,356	-0,183
40,896	16,391	-0,362	-0,201
41,911	36,469	-0,423	-0,263
42,926	87,522	-0,248	-0,194
43,940	276,800	-0,217	-0,273
44,955	151,190	-0,356	-0,342
45,969	106,285	-0,384	-0,321
46,984	285,149	-0,258	-0,329
47,999	-40,666	-0,506	-0,184
49,013	73,667	-0,276	-0,204
50,028	42,216	-0,286	-0,183
51,042	-21,017	-0,292	-0,126
52,057	96,175	-0,392	-0,315
53,071	109,160	-0,304	-0,256
54,086	-44,410	-0,234	-0,082
55,101	66,409	-0,354	-0,253
56,115	156,227	-0,315	-0,306
57,130	-35,474	-0,273	-0,104
58,144	14,799	-0,433	-0,238
59,159	92,550	-0,352	-0,279
60,174	107,202	-0,385	-0,322
61,188	-10,738	-0,477	-0,221
62,203	86,820	-0,328	-0,255
63,217	49,559	-0,334	-0,221
64,232	85,506	-0,381	-0,295
65,247	4,086	-0,447	-0,229
66,261	141,428	-0,376	-0,350
67,276	47,756	-0,362	-0,238
68,290	84,419	-0,240	-0,184
69,305	71,179	-0,436	-0,317
70,320	-46,513	-0,238	-0,082
71,334	30,589	-0,406	-0,244
72,349	-8,560	-0,433	-0,204
73,363	-76,414	-0,317	-0,078
74,378	130,496	-0,393	-0,354
75,393	31,962	-0,301	-0,182
76,407	-147,147	-0,299	-0,018
77,422	63,617	-0,300	-0,212
78,436	-37,172	-0,305	-0,114
79,451	57,620	-0,347	-0,238
80,466	51,167	-0,282	-0,188
81,480	155,207	-0,263	-0,254
82,495	-61,659	-0,224	-0,066
83,509	-6,452	-0,358	-0,171
84,524	6,882	-0,295	-0,154
85,539	-104,787	-0,343	-0,055
86,553	289,755	-0,229	-0,293
87,568	-9,019	-0,343	-0,160
88,582	20,750	-0,313	-0,178
89,597	39,156	-0,361	-0,227
90,611	-35,025	-0,259	-0,099
91,626	34,220	-0,229	-0,140
92,641	70,897	-0,174	-0,126
93,655	78,635	-0,289	-0,217
94,670	-57,974	-0,306	-0,093
95,684	291,215	-0,260	-0,332
96,699	85,958	-0,270	-0,208
97,714	21,275	-0,305	-0,173
98,728	43,136	-0,278	-0,178
99,743	-41,091	-0,377	-0,136
100,757	6,369	-0,171	-0,089
101,772	60,033	-0,288	-0,200
102,787	111,590	-0,346	-0,293
103,801	-139,686	-0,360	-0,027
104,816	-6,332	-0,235	-0,112
105,830	-130,893	-0,196	-0,018
106,845	-3,374	-0,264	-0,129
107,860	110,572	-0,265	-0,224
108,874	183,207	-0,330	-0,342
109,889	470,321	-0,224	-0,354
110,903	63,496	-0,260	-0,182
111,918	77,232	-0,309	-0,230
112,933	800,000	-0,155	-0,312
113,947	-200,000	-0,058	-0,273
114,962	-125,758	-0,173	-0,018
115,976	-102,708	-0,236	-0,039
116,991	-51,863	-0,341	-0,111
118,006	104,890	-0,336	-0,277
119,020	89,046	-0,266	-0,207
120,035	-39,994	-0,296	-0,107
121,049	51,737	-0,240	-0,159
122,064	13,399	-0,168	-0,091
123,079	-114,556	-0,312	0,041
124,093	55,814	-0,401	-0,272
125,108	220,408	-0,279	-0,314
126,122	132,254	-0,193	-0,174
127,137	43,393	-0,138	-0,088
128,151	367,090	-0,217	-0,307
129,166	65,356	-0,226	-0,160
130,181	354,782	-0,184	-0,256
131,195	73,958	-0,323	-0,237
132,210	48,174	-0,276	-0,180
133,224	-23,494	-0,407	-0,170
134,239	32,786	-0,245	-0,148
135,254	-7,433	-0,325	-0,154
136,268	0,095	-0,302	-0,150
137,283	207,032	-0,131	-0,143
138,297	77,872	-0,319	-0,237
139,312	260,894	-0,194	-0,235
140,327	7,167	-0,417	-0,217
141,341	-48,049	-0,298	-0,100
142,356	-55,084	-0,183	-0,057
143,370	115,252	-0,245	-0,209
144,385	676,813	-0,104	-0,189
145,400	301,752	-0,195	-0,253
146,414	71,938	-0,318	-0,231
147,429	8,517	-0,364	-0,191
148,443	105,689	-0,229	-0,189
149,458	163,342	-0,229	-0,225
150,473	47,461	-0,245	-0,159
151,487	510,697	-0,217	-0,354
152,502	92,096	-0,308	-0,242
153,516	226,221	-0,212	-0,241
154,531	-5,047	-0,247	-0,118
155,546	641,036	-0,089	-0,159
156,560	190,325	-0,125	-0,131
157,575	32,051	-0,295	-0,177
158,589	-4,590	-0,321	-0,154
159,604	146,122	-0,244	-0,228
160,619	-73,234	-0,307	-0,078
161,633	16,959	-0,233	-0,128
162,648	530,473	-0,139	-0,229
163,662	106,511	-0,168	-0,139
164,677	21,422	-0,198	-0,112
165,692	-104,880	-0,294	-0,047
166,706	176,880	-0,321	-0,326
167,721	-18,558	-0,208	-0,090
168,735	103,907	-0,278	-0,228
169,750	145,375	-0,144	-0,135
170,764	119,994	-0,218	-0,189
171,779	178,571	-0,182	-0,186
172,794	-63,995	-0,165	-0,047
173,808	-16,387	-0,238	-0,105
174,823	8,882	-0,266	-0,140
175,837	14,242	-0,163	-0,088
176,852	289,898	-0,162	-0,205
177,867	10,534	-0,136	-0,072
178,881	800,000	-0,053	-0,161
179,896	-65,438	-0,302	-0,084
180,910	-89,699	-0,225	-0,046
181,925	-31,721	-0,295	-0,115
182,940	192,122	-0,176	-0,185
183,954	82,119	-0,252	-0,190
184,969	118,640	-0,166	-0,143
185,983	99,763	-0,114	-0,092
186,998	800,000	-0,060	-0,153
188,013	145,684	-0,233	-0,218
189,027	583,838	-0,155	-0,266
190,042	253,879	-0,242	-0,288
191,056	70,232	-0,206	-0,148
192,071	-9,458	-0,235	-0,109
193,086	93,144	-0,196	-0,154
194,100	-32,925	-0,217	-0,084
195,115	-79,630	-0,276	-0,064
196,129	100,517	-0,278	-0,224
197,144	113,193	-0,339	-0,286
198,159	15,145	-0,249	-0,135
199,173	-1,963	-0,248	-0,121
200,188	-200,000	-0,061	-0,243
201,202	-56,321	-0,218	-0,067
202,217	128,190	-0,227	-0,201
203,232	193,269	-0,196	-0,206
204,246	24,105	-0,315	-0,180
205,261	376,521	-0,195	-0,278
206,275	258,276	-0,205	-0,245
207,290	260,368	-0,182	-0,219
208,304	-139,739	-0,193	0,014
209,319	-157,973	-0,240	-0,010
210,334	49,724	-0,161	-0,105
211,348	113,770	-0,285	-0,241
212,363	109,928	-0,209	-0,174
213,377	770,274	-0,141	-0,267
214,392	-15,401	-0,197	-0,087
215,407	-67,962	-0,289	-0,078
216,421	-70,917	-0,218	-0,057
217,436	284,158	-0,166	-0,208
218,450	172,223	-0,151	-0,151
219,465	136,911	-0,207	-0,188
220,480	382,159	-0,135	-0,193
221,494	-96,833	-0,199	-0,036
222,509	70,801	-0,167	-0,120
223,523	-9,790	-0,077	-0,035
224,538	355,158	-0,140	-0,193
225,553	123,514	-0,259	-0,225
226,567	55,813	-0,244	-0,164
227,582	211,514	-0,257	-0,282
228,596	165,474	-0,166	-0,163
229,611	-178,120	-0,306	-0,005
230,626	289,585	-0,132	-0,166
231,640	178,069	-0,214	-0,217
232,655	117,351	-0,203	-0,173
233,669	270,912	-0,160	-0,196
234,684	-134,085	-0,145	0,012
235,699	433,590	-0,104	-0,157
236,713	-85,378	-0,169	-0,036
237,728	-16,635	-0,128	-0,056
238,742	-35,111	-0,217	-0,082
239,757	-16,222	-0,180	-0,079
240,772	94,496	-0,154	-0,121
241,786	-44,161	-0,327	-0,113
242,801	298,883	-0,153	-0,195
243,815	181,214	-0,148	-0,151
244,830	-69,769	-0,257	-0,067
245,844	446,086	-0,118	-0,180
246,859	-115,698	-0,272	0,035
247,874	-32,333	-0,268	-0,103
248,888	-186,110	-0,259	-0,003
249,903	-200,000	0,045	-0,201
250,917	71,971	-0,149	-0,107
251,932	-10,929	-0,187	-0,085
252,947	-73,704	-0,115	-0,029
253,961	-114,438	-0,193	0,025
254,976	81,415	-0,265	-0,198
255,990	-61,703	-0,208	-0,060
257,005	-200,000	0,013	-0,196
258,020	148,674	-0,112	-0,104
259,034	258,412	-0,175	-0,208
260,049	-200,000	-0,024	-0,134
261,063	39,299	-0,147	-0,091
262,078	49,783	-0,241	-0,157
263,093	79,610	-0,092	-0,068
264,107	302,361	-0,123	-0,158
265,122	-32,435	-0,213	-0,082
266,136	-128,296	-0,279	-0,027
267,151	16,542	-0,103	0,056
268,166	270,962	-0,131	-0,160
269,180	273,072	-0,236	-0,289
270,195	106,568	-0,260	-0,213
271,209	130,102	-0,249	-0,220
272,224	268,186	-0,125	-0,151
273,239	14,386	-0,231	-0,124
274,253	173,759	-0,162	-0,162
275,268	-33,394	-0,201	-0,076
276,282	66,779	-0,180	-0,126
277,297	-200,000	-0,048	-0,192
278,312	98,721	-0,179	-0,142
279,326	800,000	-0,078	-0,171
280,341	-85,028	-0,153	-0,033
281,355	-34,040	-0,161	-0,061
282,370	-71,443	-0,236	-0,061
283,384	59,592	-0,171	-0,116
284,399	-23,656	-0,202	-0,083
285,414	-23,206	-0,232	-0,096
286,428	289,097	-0,092	-0,116
287,443	-113,707	-0,201	-0,027
288,457	212,627	-0,108	-0,118
289,472	118,279	-0,138	-0,117
290,487	-58,117	-0,276	-0,083
291,501	800,000	-0,093	-0,188
292,516	0,836	-0,150	-0,074
293,530	78,039	-0,120	-0,088
294,545	4,292	-0,098	-0,050
295,560	-5,556	-0,094	-0,044
296,574	154,171	0,026	-0,024
297,589	662,209	-0,105	-0,187
298,603	78,332	-0,222	-0,163
299,618	786,792	-0,094	-0,178
300,633	69,630	-0,040	-0,028
301,647	45,641	-0,064	-0,041
302,662	1,903	-0,131	-0,065
303,676	-4,677	-0,057	-0,027
304,691	-48,503	-0,209	-0,069
305,706	225,833	-0,200	-0,224
306,720	-0,123	-0,234	-0,114
307,735	126,941	-0,211	-0,185
308,749	609,413	-0,076	-0,132
309,764	-62,254	-0,082	-0,024
310,779	301,882	-0,139	-0,177
311,793	167,457	-0,209	-0,204
312,808	800,000	-0,064	-0,129
313,822	100,498	-0,144	-0,115
314,837	207,354	-0,115	-0,123
315,852	155,981	-0,170	-0,162
316,866	-139,566	-0,138	-0,010
317,881	221,444	-0,127	-0,141
318,895	180,983	-0,131	-0,133
319,910	-181,778	-0,081	-0,001
320,925	63,720	-0,170	-0,118
321,939	319,359	-0,148	-0,194
322,954	598,809	-0,077	-0,131
323,968	49,191	-0,101	0,065
324,983	29,945	-0,246	-0,144
325,997	800,000	-0,065	-0,155
327,012	523,963	-0,140	-0,227
328,027	293,686	-0,146	-0,184
329,041	382,576	-0,089	-0,126
330,056	-27,672	-0,178	0,071
331,070	-2,567	-0,105	-0,050
332,085	48,970	-0,196	-0,127
333,100	56,053	-0,105	-0,070
334,114	-23,746	-0,135	-0,055
335,129	-51,982	-0,143	-0,045
336,143	70,966	-0,154	-0,109
337,158	135,582	-0,035	-0,032
338,173	-90,022	-0,126	0,025
339,187	397,622	-0,107	-0,154
340,202	-70,103	-0,183	-0,047
341,216	-23,665	-0,181	-0,074
342,231	549,902	-0,073	-0,121
343,246	800,000	-0,117	-0,279
344,260	17,447	-0,087	-0,047
345,275	40,584	-0,069	-0,043
346,289	-200,000	-0,024	-0,094
347,304	-27,583	-0,230	-0,091
348,319	-40,298	-0,144	-0,051
349,333	-14,279	-0,144	-0,063
350,348	30,687	-0,145	-0,085
351,362	-47,420	-0,282	0,093
352,377	-138,123	-0,053	-0,004
353,392	-90,296	-0,071	-0,014
354,406	115,265	-0,048	-0,040
355,421	209,792	1313,342	1415,147
356,435	161,479	1473,898	1415,637
