DTS Sentinel unit serial number:	SN410029Multiplexer serial number:	ORYXHardware model number:	OX2-SRSoftware version number:	ORYX F/W v4,00 Oryx Data Collector v3.7.2.0data status	okinstallation	B3 Nyhavnadifferential loss correction	single-endedforward channel	channel 1reverse channel	N/Adate	2023/12/05time	08:47:30forward acquisition time	300,00reverse acquisition time	0,00gamma	499,1914k internal	0,3191k external	0,3191temperature offset calibration	1,0000default loss term (dB/km)	0,3820temperature slope calibration	1,0000multiplexer offset coefficient	1,0000multiplexer slope coefficient	1,0000fibre end	0,00T internal ref (°C)	12,54T ext. ref 1 (°C)	-3,54T ext. ref 2 (°C)	-3,77length (m)	temperature (°C)	Stokes	anti-Stokes-744,400	-52,571	-0,114	0,038
-743,385	800,000	-0,049	0,106
-742,371	-200,000	-0,043	-0,206
-741,356	130,728	-0,172	0,161
-740,342	-67,492	-0,028	0,008
-739,327	160,904	-0,158	0,162
-738,312	800,000	-0,062	-0,129
-737,298	385,519	-0,130	0,196
-736,283	800,000	0,038	-0,088
-735,269	317,427	-0,111	0,154
-734,254	-140,269	-0,066	0,005
-733,239	-62,296	-0,235	0,071
-732,225	512,823	0,046	-0,078
-731,210	-43,331	0,178	0,065
-730,196	251,677	-0,039	-0,049
-729,181	133,502	0,069	-0,065
-728,167	-200,000	-0,005	-0,064
-727,152	764,095	-0,025	0,050
-726,137	-1,012	-0,113	0,058
-725,123	144,592	-0,038	-0,037
-724,108	27,770	-0,124	-0,076
-723,094	253,772	-0,167	-0,209
-722,079	-77,088	-0,235	-0,059
-721,064	82,746	-0,053	-0,042
-720,050	-200,000	0,014	0,103
-719,035	800,000	-0,010	0,028
-718,021	-135,742	-0,120	-0,010
-717,006	-48,622	-0,062	0,022
-715,991	800,000	-0,017	-0,053
-714,977	-101,521	0,017	-0,003
-713,962	800,000	0,013	0,038
-712,948	-200,000	-0,002	0,103
-711,933	88,237	-0,132	0,107
-710,918	149,401	0,068	-0,067
-709,904	-105,698	-0,084	0,014
-708,889	-79,786	-0,116	-0,028
-707,875	-200,000	-0,013	-0,107
-706,860	418,696	0,010	0,015
-705,845	743,035	-0,082	-0,161
-704,831	-200,000	-0,016	-0,053
-703,816	-112,255	0,102	-0,015
-702,802	271,591	-0,052	0,067
-701,787	282,540	-0,114	-0,149
-700,772	151,931	0,123	-0,123
-699,758	-200,000	-0,002	-0,164
-698,743	707,755	0,015	0,030
-697,729	-98,883	0,058	0,011
-696,714	-147,943	-0,095	-0,006
-695,699	469,600	-0,071	-0,117
-694,685	251,321	-0,060	0,074
-693,670	186,767	-0,031	-0,033
-692,656	65,653	-0,115	-0,085
-691,641	41,164	-0,039	0,026
-690,627	447,500	0,068	0,109
-689,612	346,601	0,021	-0,030
-688,597	800,000	0,025	0,079
-687,583	-97,016	-0,039	-0,007
-686,568	-16,504	-0,092	-0,042
-685,554	-21,321	-0,136	-0,060
-684,539	-8,632	0,035	-0,017
-683,524	-104,319	-0,042	-0,007
-682,510	-84,962	-0,199	-0,045
-681,495	71,849	0,070	0,053
-680,481	-61,402	-0,038	0,012
-679,466	-200,000	0,011	0,043
-678,451	305,095	-0,071	-0,097
-677,437	-103,358	-0,034	-0,006
-676,422	-115,864	0,180	0,024
-675,408	-200,000	0,051	-0,165
-674,393	-78,405	-0,059	0,015
-673,378	-10,522	0,042	-0,020
-672,364	507,745	0,034	-0,057
-671,349	85,366	0,039	-0,031
-670,335	-200,000	0,000	-0,086
-669,320	800,000	-0,021	0,068
-668,305	321,559	0,042	0,058
-667,291	-200,000	-0,006	0,029
-666,276	100,272	-0,107	-0,090
-665,262	800,000	-0,072	-0,153
-664,247	84,726	0,030	0,024
-663,232	800,000	-0,045	0,123
-662,218	48,331	0,026	-0,018
-661,203	86,804	-0,041	-0,033
-660,189	-60,443	-0,112	-0,034
-659,174	-200,000	-0,003	-0,058
-658,159	-138,682	-0,187	0,015
-657,145	-200,000	0,008	-0,090
-656,130	-29,461	0,080	0,033
-655,116	-8,531	-0,056	-0,027
-654,101	-164,709	0,133	-0,004
-653,086	-108,244	-0,078	-0,012
-652,072	-69,405	-0,081	-0,022
-651,057	-200,000	-0,037	-0,129
-650,043	-146,307	-0,128	0,008
-649,028	-51,615	0,083	0,028
-648,014	-200,000	0,002	-0,050
-646,999	278,168	-0,058	0,075
-645,984	617,834	0,040	0,074
-644,970	800,000	-0,060	-0,133
-643,955	260,660	0,004	0,005
-642,941	-200,000	-0,004	-0,040
-641,926	254,994	-0,046	0,058
-640,911	30,364	0,094	0,058
-639,897	512,468	0,063	0,108
-638,882	-200,000	0,009	0,035
-637,868	-92,490	-0,118	0,024
-636,853	288,464	-0,078	-0,103
-635,838	91,799	-0,031	-0,026
-634,824	-43,591	0,013	-0,005
-633,809	211,762	-0,061	-0,070
-632,795	-146,568	-0,044	0,003
-631,780	-161,072	0,108	-0,004
-630,765	800,000	-0,016	-0,052
-629,751	-180,839	-0,086	-0,001
-628,736	-200,000	-0,036	0,134
-627,722	70,662	-0,023	0,017
-626,707	-200,000	0,005	0,022
-625,692	-200,000	0,016	-0,061
-624,678	-200,000	-0,019	-0,069
-623,663	56,036	0,058	-0,041
-622,649	493,616	-0,030	0,051
-621,634	757,103	-0,054	-0,106
-620,619	214,437	-0,077	-0,089
-619,605	78,989	-0,090	0,070
-618,590	-96,549	0,163	0,031
-617,576	189,214	-0,074	-0,081
-616,561	-200,000	-0,031	0,179
-615,546	279,624	-0,047	-0,061
-614,532	-134,640	-0,066	0,006
-613,517	26,449	0,053	-0,032
-612,503	71,172	-0,097	-0,073
-611,488	-152,448	-0,047	0,002
-610,474	-90,255	0,161	0,034
-609,459	-16,670	-0,086	-0,039
-608,444	-48,284	-0,101	-0,035
-607,430	128,376	-0,051	-0,047
-606,415	800,000	-0,023	-0,063
-605,401	486,086	0,062	-0,103
-604,386	-126,240	-0,083	-0,009
-603,371	800,000	0,022	0,045
-602,357	115,028	-0,075	0,066
-601,342	-5,028	0,063	-0,031
-600,328	24,298	-0,090	-0,054
-599,313	-151,471	-0,079	0,004
-598,298	-200,000	-0,034	-0,119
-597,284	-68,306	0,149	-0,042
-596,269	-23,217	-0,076	-0,033
-595,255	175,988	0,140	0,148
-594,240	-66,538	-0,109	-0,031
-593,225	-200,000	0,016	0,080
-592,211	-97,495	-0,090	-0,017
-591,196	-10,097	-0,134	0,064
-590,182	-88,416	0,184	-0,039
-589,167	800,000	-0,021	0,050
-588,152	-10,096	0,104	0,050
-587,138	27,500	0,045	-0,027
-586,123	-83,932	-0,105	-0,024
-585,109	-200,000	0,010	-0,080
-584,094	-200,000	-0,005	-0,034
-583,079	146,559	-0,085	-0,083
-582,065	-37,812	-0,058	-0,022
-581,050	-152,416	-0,096	-0,005
-580,036	-200,000	-0,013	-0,048
-579,021	-200,000	-0,009	-0,088
-578,006	400,946	-0,112	-0,170
-576,992	9,615	-0,104	-0,057
-575,977	-76,171	0,155	-0,039
-574,963	587,650	0,044	-0,079
-573,948	628,221	-0,035	0,064
-572,934	-200,000	0,008	-0,053
-571,919	60,936	-0,067	-0,048
-570,904	-153,356	0,053	0,003
-569,890	800,000	-0,039	0,117
-568,875	101,902	0,031	0,026
-567,861	16,474	-0,126	-0,072
-566,846	-141,630	-0,031	0,002
-565,831	-200,000	-0,022	-0,094
-564,817	301,376	-0,011	0,015
-563,802	-200,000	0,001	-0,061
-562,788	752,571	0,018	-0,035
-561,773	99,002	-0,040	-0,033
-560,758	-200,000	0,016	-0,075
-559,744	445,574	0,036	-0,057
-558,729	666,956	0,073	0,137
-557,715	800,000	-0,051	0,141
-556,700	-60,111	0,039	-0,012
-555,685	69,997	-0,094	-0,070
-554,671	56,265	0,129	-0,090
-553,656	-112,732	-0,127	-0,018
-552,642	146,228	0,078	0,076
-551,627	-29,254	-0,053	-0,022
-550,612	-200,000	-0,014	0,055
-549,598	42,016	-0,068	-0,045
-548,583	575,883	0,031	-0,054
-547,569	422,702	-0,028	-0,044
-546,554	-116,212	0,260	0,035
-545,539	-200,000	0,020	0,083
-544,525	-200,000	-0,015	0,079
-543,510	-34,997	0,074	-0,029
-542,496	-85,342	-0,045	0,010
-541,481	800,000	-0,043	0,097
-540,466	800,000	0,037	0,075
-539,452	-156,177	0,116	0,005
-538,437	800,000	-0,060	-0,164
-537,423	-88,196	0,110	0,024
-536,408	-0,401	-0,050	0,026
-535,393	41,177	-0,152	-0,099
-534,379	-194,413	-0,047	-0,000
-533,364	800,000	0,065	0,160
-532,350	13,492	0,129	0,072
-531,335	-200,000	-0,013	0,126
-530,321	800,000	0,037	0,099
-529,306	-92,469	0,122	-0,025
-528,291	102,463	-0,099	0,083
-527,277	83,110	-0,097	0,077
-526,262	-50,527	0,049	0,017
-525,248	18,609	0,083	0,048
-524,233	-200,000	-0,015	0,049
-523,218	800,000	-0,053	0,158
-522,204	175,651	-0,022	0,023
-521,189	3,773	-0,064	-0,034
-520,175	286,859	0,089	0,116
-519,160	-88,514	0,142	-0,030
-518,145	-38,973	0,059	0,022
-517,131	-200,000	-0,000	0,005
-516,116	-188,605	0,031	-0,000
-515,102	-37,270	-0,049	-0,019
-514,087	33,507	-0,096	-0,060
-513,072	-200,000	0,012	-0,054
-512,058	-200,000	0,005	-0,016
-511,043	356,586	-0,074	0,107
-510,029	158,071	0,069	-0,069
-509,014	55,523	0,042	-0,029
-507,999	119,919	0,130	0,117
-506,985	-200,000	0,012	-0,064
-505,970	-200,000	-0,025	-0,174
-504,956	-200,000	-0,010	-0,114
-503,941	30,506	-0,066	0,041
-502,926	-200,000	-0,003	0,094
-501,912	-200,000	-0,014	0,080
-500,897	-67,756	-0,071	0,020
-499,883	-200,000	0,015	-0,050
-498,868	-200,000	0,012	-0,123
-497,853	-119,719	-0,076	-0,009
-496,839	335,264	-0,066	-0,093
-495,824	-200,000	0,003	-0,084
-494,810	-65,853	0,132	0,038
-493,795	800,000	-0,022	0,065
-492,781	17,189	-0,038	0,022
-491,766	317,126	0,015	0,021
-490,751	3,973	0,046	0,024
-489,737	-53,001	-0,168	0,055
-488,722	-68,770	0,139	-0,038
-487,708	-200,000	0,015	-0,093
-486,693	-200,000	0,032	0,118
-485,678	-200,000	0,006	-0,059
-484,664	800,000	0,035	-0,104
-483,649	800,000	-0,031	0,094
-482,635	-120,522	-0,094	-0,011
-481,620	800,000	-0,013	0,036
-480,605	3,951	0,008	0,004
-479,591	-200,000	0,013	-0,063
-478,576	800,000	0,071	0,168
-477,562	217,185	-0,092	0,107
-476,547	105,774	-0,022	0,019
-475,532	237,242	0,100	-0,120
-474,518	65,643	0,079	0,057
-473,503	-157,399	-0,113	0,005
-472,489	-131,710	0,105	0,010
-471,474	594,172	-0,063	0,112
-470,459	63,163	0,114	-0,082
-469,445	0,534	0,047	0,024
-468,430	7,825	0,061	0,033
-467,416	232,441	0,120	0,142
-466,401	173,901	0,069	0,072
-465,386	230,996	-0,036	0,043
-464,372	-200,000	0,004	-0,050
-463,357	112,519	-0,067	-0,059
-462,343	517,999	0,067	0,113
-461,328	-30,850	-0,096	0,039
-460,313	800,000	-0,021	-0,052
-459,299	220,347	0,143	0,166
-458,284	470,948	0,031	0,051
-457,270	-71,682	-0,064	-0,017
-456,255	-136,251	-0,243	0,020
-455,241	7,135	-0,156	0,084
-454,226	227,027	0,049	-0,058
-453,211	-200,000	0,015	0,073
-452,197	3,827	0,103	-0,054
-451,182	202,893	0,061	-0,069
-450,168	-45,151	0,075	0,027
-449,153	-200,000	-0,012	0,041
-448,138	83,802	-0,020	-0,016
-447,124	800,000	-0,006	0,016
-446,109	25,767	0,036	0,021
-445,095	195,141	0,039	0,043
-444,080	-200,000	-0,015	0,058
-443,065	407,805	0,057	-0,088
-442,051	62,366	0,094	-0,068
-441,036	-200,000	0,033	-0,177
-440,022	-127,555	0,086	-0,009
-439,007	-81,825	0,121	0,028
-437,992	289,685	0,052	-0,068
-436,978	118,582	0,032	-0,029
-435,963	-200,000	-0,002	0,011
-434,949	603,563	-0,027	0,049
-433,934	-145,017	-0,028	-0,002
-432,919	-65,076	-0,158	-0,046
-431,905	-46,201	-0,031	0,011
-430,890	-13,329	-0,015	0,007
-429,876	-200,000	-0,035	-0,155
-428,861	-200,000	0,004	-0,056
-427,846	93,899	-0,083	0,068
-426,832	-97,801	-0,039	-0,007
-425,817	-200,000	-0,003	0,054
-424,803	-200,000	-0,012	-0,078
-423,788	-200,000	0,009	0,060
-422,773	-42,717	0,033	-0,012
-421,759	8,841	-0,077	0,042
-420,744	173,259	-0,071	-0,073
-419,730	-96,377	-0,060	-0,011
-418,715	206,582	-0,040	0,045
-417,701	-124,078	0,149	-0,017
-416,686	800,000	-0,015	-0,045
-415,671	218,601	-0,053	-0,062
-414,657	306,296	0,122	-0,164
-413,642	38,664	-0,066	-0,042
-412,628	-26,415	0,044	0,018
-411,613	106,788	-0,080	-0,068
-410,598	800,000	-0,031	-0,094
-409,584	21,083	-0,052	0,030
-408,569	758,325	-0,076	0,149
-407,555	-138,781	0,057	-0,004
-406,540	62,195	-0,058	0,042
-405,525	529,272	-0,090	-0,154
-404,511	-7,666	0,073	0,036
-403,496	-156,125	0,034	0,002
-402,482	179,724	-0,021	-0,023
-401,467	-200,000	0,002	0,016
-400,452	-18,037	-0,104	0,046
-399,438	-28,908	0,073	0,030
-398,423	60,049	0,073	-0,052
-397,409	45,745	-0,184	-0,122
-396,394	-84,823	0,007	-0,002
-395,379	800,000	0,018	0,039
-394,365	-12,410	0,196	0,092
-393,350	800,000	-0,036	-0,075
-392,336	800,000	-0,038	0,094
-391,321	150,472	0,026	0,026
-390,306	245,642	0,072	-0,088
-389,292	110,098	-0,079	0,068
-388,277	323,065	-0,075	-0,103
-387,263	800,000	0,020	-0,043
-386,248	-66,789	0,164	0,046
-385,233	-200,000	0,005	0,098
-384,219	-190,475	-0,107	-0,001
-383,204	-95,284	0,141	0,027
-382,190	96,395	-0,091	-0,075
-381,175	800,000	0,044	-0,102
-380,160	646,607	0,070	0,130
-379,146	140,140	0,041	0,039
-378,131	-58,564	-0,127	-0,039
-377,117	-200,000	-0,004	0,027
-376,102	-15,581	0,136	-0,062
-375,088	-200,000	0,002	0,053
-374,073	-12,417	-0,057	-0,027
-373,058	17,628	0,036	-0,021
-372,044	-200,000	0,010	0,078
-371,029	800,000	0,014	0,029
-370,015	-72,673	-0,079	-0,021
-369,000	-57,612	-0,128	0,040
-367,985	15,541	-0,072	0,041
-366,971	380,279	-0,045	-0,067
-365,956	-118,641	0,136	0,017
-364,942	-200,000	0,020	-0,109
-363,927	-31,392	0,072	0,029
-362,912	800,000	-0,016	0,036
-361,898	-71,747	0,139	-0,037
-360,883	-72,148	-0,060	-0,016
-359,869	542,787	-0,042	-0,072
-358,854	649,406	0,071	0,130
-357,839	-129,079	0,062	0,006
-356,825	606,803	0,054	0,098
-355,810	392,947	0,079	0,118
-354,796	609,750	-0,099	-0,178
-353,781	-200,000	0,010	0,035
-352,766	245,706	0,037	-0,045
-351,752	1,034	0,065	-0,033
-350,737	2,243	0,025	-0,013
-349,723	381,289	0,017	-0,026
-348,708	800,000	-0,015	-0,042
-347,693	-200,000	-0,003	0,056
-346,679	94,246	-0,054	-0,044
-345,664	-121,136	0,057	-0,007
-344,650	800,000	-0,050	-0,125
-343,635	-200,000	0,013	0,105
-342,620	69,292	-0,074	0,054
-341,606	-40,541	0,174	0,064
-340,591	-9,092	-0,180	0,086
-339,577	158,047	0,090	-0,089
-338,562	30,595	0,054	-0,033
-337,548	-49,039	0,136	0,046
-336,533	632,000	0,017	0,032
-335,518	-200,000	-0,004	-0,032
-334,504	-2,368	0,116	0,058
-333,489	166,889	0,061	-0,062
-332,475	275,891	-0,095	-0,121
-331,460	291,593	-0,084	-0,111
-330,445	5,938	0,030	-0,016
-329,431	-39,684	0,120	0,045
-328,416	-200,000	-0,030	0,130
-327,402	-163,798	0,087	-0,003
-326,387	174,817	-0,066	-0,069
-325,372	-37,334	0,063	0,024
-324,358	-200,000	0,020	-0,133
-323,343	800,000	-0,052	0,140
-322,329	184,407	0,072	0,076
-321,314	800,000	0,023	0,058
-320,299	220,592	0,065	0,075
-319,285	266,587	-0,031	-0,039
-318,270	-200,000	0,011	-0,086
-317,256	-200,000	-0,010	-0,134
-316,241	395,238	0,036	0,054
-315,226	257,061	-0,061	-0,075
-314,212	400,835	0,034	-0,051
-313,197	-186,545	0,125	-0,001
-312,183	57,553	-0,047	-0,033
-311,168	800,000	-0,017	-0,050
-310,153	70,970	-0,123	0,091
-309,139	-200,000	0,019	-0,070
-308,124	108,745	0,105	0,090
-307,110	100,736	-0,074	0,062
-306,095	151,596	0,099	0,096
-305,080	-200,000	-0,007	0,025
-304,066	22,276	0,161	0,094
-303,051	-14,314	0,089	-0,041
-302,037	525,478	0,052	-0,088
-301,022	281,828	-0,035	-0,045
-300,008	800,000	0,027	0,063
-298,993	196,071	-0,018	0,019
-297,978	44,438	-0,116	0,076
-296,964	134,563	-0,022	-0,020
-295,949	-200,000	-0,003	-0,021
-294,935	-200,000	0,011	0,038
-293,920	634,421	-0,049	-0,089
-292,905	-200,000	0,004	0,079
-291,891	-53,727	0,159	0,052
-290,876	658,023	-0,024	0,044
-289,862	-200,000	-0,004	-0,031
-288,847	108,094	-0,069	0,059
-287,832	-87,527	-0,029	0,006
-286,818	-200,000	-0,019	0,085
-285,803	800,000	0,026	0,069
-284,789	-200,000	-0,009	-0,063
-283,774	-133,659	-0,006	0,001
-282,759	-46,310	-0,049	0,017
-281,745	-22,275	-0,058	0,025
-280,730	340,854	-0,090	-0,126
-279,716	-200,000	-0,015	0,108
-278,701	-145,871	0,187	0,012
-277,686	-200,000	0,014	0,122
-276,672	635,110	-0,045	0,082
-275,657	-200,000	-0,015	0,094
-274,643	-40,078	-0,100	0,037
-273,628	-94,260	-0,018	-0,004
-272,613	800,000	-0,033	0,073
-271,599	-7,635	-0,030	-0,014
-270,584	51,000	0,008	0,005
-269,570	-162,763	0,025	-0,001
-268,555	111,368	0,051	-0,044
-267,540	-200,000	-0,014	0,062
-266,526	-68,922	0,086	-0,023
-265,511	227,522	-0,055	-0,065
-264,497	800,000	0,023	0,063
-263,482	340,670	-0,078	0,109
-262,467	-144,765	-0,042	-0,003
-261,453	-200,000	0,005	0,030
-260,438	67,047	0,007	-0,005
-259,424	-8,978	-0,091	-0,044
-258,409	-114,074	-0,090	0,012
-257,395	-78,112	0,023	-0,006
-256,380	527,835	-0,077	-0,130
-255,365	-200,000	-0,018	0,116
-254,351	-200,000	0,019	0,069
-253,336	-10,710	-0,088	0,042
-252,322	103,894	-0,056	-0,047
-251,307	-124,021	-0,052	0,006
-250,292	23,896	-0,023	-0,013
-249,278	-200,000	-0,001	-0,054
-248,263	-68,623	-0,039	-0,011
-247,249	200,838	0,062	-0,068
-246,234	-92,426	0,041	0,008
-245,219	99,061	0,058	-0,048
-244,205	-200,000	-0,012	-0,037
-243,190	-39,844	0,068	-0,025
-242,176	247,299	-0,065	0,079
-241,161	200,056	0,044	0,048
-240,146	129,766	0,041	0,037
-239,132	-200,000	0,011	-0,040
-238,117	6,401	0,076	0,040
-237,103	-122,217	0,127	-0,015
-236,088	-200,000	-0,004	0,027
-235,073	-84,728	0,090	0,020
-234,059	800,000	0,021	0,043
-233,044	0,799	-0,048	-0,024
-232,030	800,000	-0,005	-0,017
-231,015	-200,000	0,038	-0,170
-230,000	376,768	-0,140	-0,205
-228,986	-200,000	-0,008	-0,030
-227,971	800,000	-0,046	-0,123
-226,957	-185,201	0,071	0,001
-225,942	153,199	0,098	-0,096
-224,927	59,561	-0,078	-0,055
-223,913	800,000	0,028	-0,087
-222,898	302,163	0,106	-0,140
-221,884	-200,000	-0,003	-0,025
-220,869	-20,836	0,010	-0,004
-219,855	-103,645	0,011	0,002
-218,840	11,355	-0,105	-0,057
-217,825	-106,294	0,069	0,011
-216,811	-200,000	0,011	0,078
-215,796	239,706	-0,059	0,070
-214,782	-200,000	-0,037	0,120
-213,767	-200,000	-0,011	-0,041
-212,752	336,699	0,155	0,216
-211,738	261,523	-0,043	0,053
-210,723	227,883	-0,064	-0,075
-209,709	174,583	-0,053	-0,055
-208,694	800,000	-0,023	-0,051
-207,679	-50,492	-0,058	-0,019
-206,665	800,000	0,062	0,141
-205,650	369,763	-0,091	0,132
-204,636	473,121	0,046	-0,075
-203,621	-200,000	0,091	0,000
-202,606	-200,000	0,003	0,026
-201,592	-33,955	-0,043	0,017
-200,577	-79,008	0,090	-0,022
-199,563	-198,422	-0,042	0,000
-198,548	-200,000	-0,000	0,147
-197,533	800,000	0,070	0,150
-196,519	-200,000	0,022	0,168
-195,504	353,176	0,004	-0,005
-194,490	36,263	-0,124	-0,078
-193,475	800,000	-0,040	-0,089
-192,460	-200,000	0,013	-0,132
-191,446	800,000	0,037	-0,110
-190,431	626,671	-0,018	0,033
-189,417	-44,313	-0,016	-0,006
-188,402	-146,378	0,056	-0,003
-187,387	-200,000	-0,038	-0,176
-186,373	-148,078	-0,132	0,008
-185,358	341,335	0,058	-0,082
-184,344	446,617	0,087	0,138
-183,329	-52,113	0,082	0,027
-182,315	41,117	0,133	0,085
-181,300	15,196	-0,034	-0,019
-180,285	-200,000	-0,034	-0,133
-179,271	404,578	-0,041	-0,062
-178,256	-200,000	0,023	0,076
-177,242	543,408	0,043	0,073
-176,227	800,000	0,028	0,076
-175,212	68,341	-0,066	0,049
-174,198	-51,894	0,062	-0,020
-173,183	52,684	-0,101	0,069
-172,169	294,573	0,067	-0,088
-171,154	800,000	-0,026	0,075
-170,139	-200,000	-0,022	0,161
-169,125	800,000	-0,045	0,109
-168,110	120,060	0,102	-0,090
-167,096	170,677	-0,119	-0,121
-166,081	645,626	-0,103	-0,189
-165,066	-200,000	-0,001	-0,037
-164,052	-200,000	-0,057	-0,186
-163,037	14,884	-0,124	0,069
-162,023	-118,954	0,118	0,015
-161,008	-72,731	-0,108	-0,028
-159,993	84,165	0,130	0,102
-158,979	265,346	-0,050	-0,063
-157,964	32,219	-0,108	-0,066
-156,950	7,447	0,138	0,073
-155,935	49,450	-0,073	-0,049
-154,920	-200,000	-0,004	0,065
-153,906	-5,873	0,080	0,039
-152,891	91,373	-0,045	0,036
-151,877	800,000	-0,032	-0,085
-150,862	301,277	-0,112	-0,147
-149,847	47,892	-0,044	-0,029
-148,833	1,014	-0,065	0,033
-147,818	-29,058	0,065	-0,027
-146,804	-200,000	-0,033	0,126
-145,789	800,000	-0,023	0,048
-144,775	-94,375	0,093	0,018
-143,760	497,296	0,004	0,006
-142,745	800,000	0,018	-0,040
-141,731	-200,000	-0,004	0,058
-140,716	-200,000	-0,016	0,051
-139,702	227,368	0,057	-0,067
-138,687	104,982	-0,015	0,012
-137,672	-200,000	0,011	0,077
-136,658	-200,000	-0,020	-0,097
-135,643	-93,126	0,074	-0,015
-134,629	-90,251	0,008	-0,002
-133,614	590,022	-0,018	0,032
-132,599	-123,249	0,031	-0,004
-131,585	-93,602	0,171	0,033
-130,570	-69,388	0,124	-0,034
-129,556	44,665	-0,113	-0,074
-128,541	-200,000	0,009	-0,082
-127,526	-113,005	0,030	-0,004
-126,512	-200,000	-0,008	-0,058
-125,497	800,000	-0,036	-0,079
-124,483	177,457	0,031	-0,032
-123,468	-200,000	-0,009	-0,108
-122,453	189,861	0,019	-0,020
-121,439	-200,000	-0,021	-0,150
-120,424	-167,687	-0,189	0,005
-119,410	331,679	0,081	-0,112
-118,395	466,615	0,035	0,055
-117,380	-200,000	-0,005	-0,132
-116,366	-200,000	-0,017	0,113
-115,351	129,812	0,113	0,103
-114,337	-200,000	0,005	0,081
-113,322	215,424	-0,125	0,141
-112,307	-123,611	0,109	0,012
-111,293	-189,413	-0,119	-0,001
-110,278	-200,000	-0,022	0,117
-109,264	-56,479	-0,066	-0,021
-108,249	-39,167	-0,044	0,016
-107,234	-27,523	0,106	-0,044
-106,220	133,706	-0,060	-0,056
-105,205	-200,000	-0,024	0,100
-104,191	-79,348	0,117	0,028
-103,176	-166,906	-0,091	0,003
-102,162	0,201	0,152	0,077
-101,147	-174,972	-0,172	-0,003
-100,132	-6,965	-0,078	-0,037
-99,118	633,973	-0,018	-0,032
-98,103	-200,000	0,004	-0,018
-97,089	136,692	0,104	-0,097
-96,074	226,138	-0,035	0,040
-95,059	85,367	0,084	0,066
-94,045	800,000	-0,020	-0,045
-93,030	-200,000	0,014	-0,067
-92,016	125,068	-0,031	0,028
-91,001	-200,000	0,007	-0,102
-89,986	-200,000	-0,034	0,165
-88,972	158,335	-0,065	-0,064
-87,957	33,113	0,100	-0,062
-86,943	102,658	0,032	-0,027
-85,928	-175,381	-0,048	-0,001
-84,913	-136,395	-0,085	0,007
-83,899	800,000	-0,039	0,087
-82,884	399,797	-0,049	0,073
-81,870	32,805	-0,092	-0,057
-80,855	-81,087	0,044	0,010
-79,840	-17,842	-0,035	-0,016
-78,826	-124,404	-0,198	-0,022
-77,811	-200,000	0,001	-0,029
-76,797	-35,951	0,084	-0,032
-75,782	315,588	-0,032	0,043
-74,767	-94,329	-0,034	-0,007
-73,753	177,711	0,096	-0,100
-72,738	-200,000	0,011	0,040
-71,724	-200,000	0,036	-0,123
-70,709	29,076	-0,069	-0,041
-69,694	22,954	0,077	-0,045
-68,680	-200,000	0,023	0,105
-67,665	-200,000	-0,025	-0,194
-66,651	-200,000	0,002	-0,072
-65,636	-28,049	-0,225	-0,092
-64,622	800,000	-0,060	-0,133
-63,607	-200,000	0,005	0,069
-62,592	29,429	-0,077	-0,046
-61,578	10,291	0,080	0,043
-60,563	63,422	-0,032	-0,023
-59,549	-200,000	0,036	-0,119
-58,534	28,311	-1,923	-1,152
-57,519	800,000	-0,407	-1,137
-56,505	-200,000	-0,924	-4,848
-55,490	231,670	0,829	0,967
-54,476	800,000	5,215	11,888
-53,461	-200,000	19,942	330,384
-52,446	800,000	751,611	2334,060
-51,432	552,807	1662,743	2848,604
-50,417	75,699	1672,288	1253,482
-49,403	20,366	1545,563	884,545
-48,388	14,348	1468,201	810,849
-47,373	18,143	1458,297	823,773
-46,359	16,378	1447,908	809,375
-45,344	12,690	1443,381	789,059
-44,330	12,572	1441,583	787,478
-43,315	12,575	1439,807	786,494
-42,300	12,670	1438,001	785,931
-41,286	12,640	1436,636	785,008
-40,271	12,600	1435,251	784,027
-39,257	12,531	1434,424	783,217
-38,242	12,657	1433,099	783,064
-37,227	12,640	1431,852	782,269
-36,213	12,643	1430,429	781,477
-35,198	12,617	1429,398	780,757
-34,184	12,680	1428,380	780,470
-33,169	12,646	1426,946	779,495
-32,154	12,649	1425,737	778,818
-31,140	12,648	1424,533	778,124
-30,125	12,681	1423,527	777,702
-29,111	12,644	1422,345	776,851
-28,096	12,586	1421,306	775,976
-27,082	12,616	1420,147	775,452
-26,067	12,554	1419,067	774,541
-25,052	12,569	1418,192	774,101
-24,038	12,565	1417,031	773,422
-23,023	12,597	1415,898	772,920
-22,009	12,520	1415,033	772,054
-20,994	12,552	1414,149	771,692
-19,979	12,567	1413,158	771,190
-18,965	12,537	1412,290	770,546
-17,950	12,527	1411,340	769,950
-16,936	12,520	1410,344	769,345
-15,921	12,507	1409,347	768,710
-14,906	12,496	1408,517	768,172
-13,892	12,516	1407,568	767,721
-12,877	12,481	1406,833	767,125
-11,863	12,477	1405,805	766,512
-10,848	12,486	1404,991	766,080
-9,833	12,394	1404,237	765,210
-8,819	12,414	1403,252	764,736
-7,804	12,373	1402,369	764,033
-6,790	12,357	1401,518	763,464
-5,775	12,385	1400,147	762,818
-4,760	12,398	1399,194	762,330
-3,746	12,376	1398,198	761,655
-2,731	12,362	1397,376	761,110
-1,717	12,300	1396,815	760,484
-0,702	12,390	1394,671	759,707
0,313	16,439	1309,704	732,180
1,327	32,996	700,306	429,717
2,342	50,758	121,798	81,720
3,356	2,437	16,534	8,466
4,371	3,510	3,320	1,712
5,386	-15,471	0,630	0,284
6,400	-200,000	0,043	0,176
7,415	-29,869	-0,234	-0,094
8,429	-29,170	-0,413	-0,167
9,444	-86,706	-0,262	-0,056
10,459	-45,172	-0,304	-0,106
11,473	-96,409	-0,305	-0,057
12,488	227,136	-0,200	-0,231
13,502	-108,599	-0,477	-0,072
14,517	15,411	-0,202	-0,112
15,531	107,603	-0,329	-0,277
16,546	40,774	-0,344	-0,220
17,561	25,738	-0,366	-0,215
18,575	97,659	-0,211	-0,172
19,590	761,214	-0,073	-0,141
20,604	49,317	-0,261	-0,174
21,619	191,419	-0,324	-0,346
22,634	61,494	-0,386	-0,271
23,648	96,175	-0,485	-0,393
24,663	120,750	-0,357	-0,314
25,677	43,989	-0,407	-0,263
26,692	67,247	-0,340	-0,245
27,707	1,913	-0,307	-0,156
28,721	14,452	-0,441	-0,243
29,736	55,614	-0,357	-0,245
30,750	70,436	-0,473	-0,346
31,765	92,974	-0,311	-0,248
32,780	116,239	-0,245	-0,213
33,794	1,653	-0,414	-0,210
34,809	204,583	-0,288	-0,317
35,823	28,568	-0,484	-0,289
36,838	24,834	-0,372	-0,217
37,853	8,462	-0,428	-0,227
38,867	160,373	-0,274	-0,270
39,882	97,823	-0,315	-0,256
40,896	-44,745	-0,480	-0,168
41,911	760,515	-0,122	-0,234
42,926	81,531	-0,453	-0,347
43,940	256,644	-0,264	-0,322
44,955	48,309	-0,418	-0,276
45,969	257,469	-0,226	-0,275
46,984	28,394	-0,235	-0,140
47,999	-124,630	-0,300	-0,032
49,013	-22,060	-0,272	-0,116
50,028	153,182	-0,272	-0,263
51,042	82,348	-0,279	-0,214
52,057	183,721	-0,333	-0,349
53,071	136,107	-0,351	-0,323
54,086	207,402	-0,276	-0,305
55,101	169,608	-0,264	-0,266
56,115	-26,775	-0,336	-0,138
57,130	-63,984	-0,513	-0,147
58,144	78,239	-0,484	-0,364
59,159	188,140	-0,210	-0,222
60,174	27,034	-0,338	-0,200
61,188	-9,120	-0,246	-0,116
62,203	-101,853	-0,465	-0,079
63,217	13,062	-0,294	-0,160
64,232	394,596	-0,189	-0,279
65,247	-13,703	-0,334	-0,152
66,261	-92,695	-0,381	-0,075
67,276	-17,010	-0,457	-0,203
68,290	84,344	-0,239	-0,184
69,305	109,543	-0,203	-0,172
70,320	-9,112	-0,369	-0,173
71,334	175,014	-0,175	-0,179
72,349	190,905	-0,329	-0,350
73,363	-14,063	-0,327	-0,148
74,378	8,871	-0,428	-0,227
75,393	141,140	-0,317	-0,295
76,407	136,884	-0,280	-0,258
77,422	-12,799	-0,279	-0,128
78,436	-2,585	-0,268	-0,132
79,451	-77,357	-0,405	-0,098
80,466	18,453	-0,271	-0,152
81,480	328,710	-0,240	-0,326
82,495	250,612	-0,200	-0,240
83,509	85,325	-0,312	-0,241
84,524	-158,231	-0,253	-0,010
85,539	266,767	-0,249	-0,308
86,553	98,404	-0,306	-0,248
87,568	-67,561	-0,311	-0,085
88,582	48,567	-0,341	-0,225
89,597	611,824	-0,202	-0,358
90,611	99,800	-0,290	-0,237
91,626	103,354	-0,268	-0,221
92,641	195,390	-0,194	-0,207
93,655	37,505	-0,269	-0,168
94,670	21,540	-0,307	-0,175
95,684	-54,166	-0,387	-0,123
96,699	-22,485	-0,237	-0,101
97,714	107,831	-0,226	-0,189
98,728	-34,574	-0,400	-0,153
99,743	-95,820	-0,293	-0,055
100,757	203,283	-0,208	-0,227
101,772	-17,836	-0,372	-0,164
102,787	44,175	-0,307	-0,198
103,801	-89,752	-0,289	-0,059
104,816	443,150	-0,163	-0,251
105,830	2,031	-0,141	-0,072
106,845	-109,518	-0,367	-0,054
107,860	194,509	-0,129	-0,138
108,874	-72,976	-0,398	-0,102
109,889	323,922	-0,206	-0,277
110,903	41,330	-0,200	-0,127
111,918	119,538	-0,187	-0,163
112,933	-168,905	-0,257	-0,007
113,947	150,168	-0,115	-0,110
114,962	-91,500	-0,374	-0,074
115,976	66,967	-0,385	-0,275
116,991	-117,463	-0,336	-0,042
118,006	138,130	-0,223	-0,205
119,020	48,209	-0,242	-0,158
120,035	-38,484	-0,297	-0,110
121,049	-102,283	-0,340	-0,057
122,064	40,500	-0,145	-0,092
123,079	-44,965	-0,442	-0,154
124,093	212,377	-0,183	-0,202
125,108	-27,910	-0,341	-0,138
126,122	149,589	-0,233	-0,222
127,137	103,209	-0,217	-0,178
128,151	-8,915	-0,372	-0,174
129,166	31,347	-0,317	-0,191
130,181	39,803	-0,356	-0,224
131,195	37,383	-0,337	-0,209
132,210	69,802	-0,199	-0,144
133,224	412,219	-0,132	-0,197
134,239	72,940	-0,217	-0,159
135,254	26,616	-0,208	-0,122
136,268	236,487	-0,210	-0,244
137,283	33,863	-0,230	-0,140
138,297	-57,811	-0,278	-0,085
139,312	159,089	-0,237	-0,231
140,327	7,847	-0,338	-0,177
141,341	6,388	-0,308	-0,160
142,356	51,812	-0,310	-0,206
143,370	122,504	-0,224	-0,196
144,385	99,858	-0,175	-0,142
145,400	354,166	-0,244	-0,341
146,414	800,000	-0,114	-0,338
147,429	172,590	-0,252	-0,255
148,443	12,390	-0,141	-0,076
149,458	42,797	-0,288	-0,183
150,473	-30,367	-0,205	-0,081
151,487	9,319	-0,263	-0,139
152,502	165,623	-0,249	-0,247
153,516	65,053	-0,311	-0,220
154,531	139,925	-0,230	-0,213
155,546	227,229	-0,161	-0,184
156,560	127,031	-0,227	-0,202
157,575	9,436	-0,259	-0,137
158,589	69,262	-0,235	-0,169
159,604	143,413	-0,176	-0,164
160,619	301,168	-0,145	-0,188
161,633	164,722	-0,327	-0,323
162,648	26,467	-0,240	-0,140
163,662	61,137	-0,168	-0,116
164,677	200,406	-0,175	-0,189
165,692	593,530	-0,114	-0,199
166,706	-27,181	-0,224	-0,091
167,721	-24,748	-0,237	-0,098
168,735	204,341	-0,174	-0,189
169,750	-107,242	-0,199	-0,030
170,764	264,511	-0,207	-0,253
171,779	69,253	-0,278	-0,200
172,794	14,508	-0,222	-0,121
173,808	85,847	-0,191	-0,146
174,823	69,444	-0,333	-0,239
175,837	322,094	-0,177	-0,236
176,852	231,263	-0,141	-0,162
177,867	141,354	-0,215	-0,199
178,881	9,254	-0,131	-0,069
179,896	620,151	-0,149	-0,262
180,910	7,348	-0,236	-0,123
181,925	29,822	-0,330	-0,196
182,940	154,779	-0,261	-0,251
183,954	22,196	-0,209	-0,119
184,969	25,037	-0,227	0,131
185,983	-48,363	-0,182	-0,061
186,998	38,579	-0,249	-0,155
188,013	667,166	-0,157	-0,284
189,027	77,628	-0,244	-0,181
190,042	51,593	-0,275	-0,182
191,056	-25,738	-0,354	-0,145
192,071	25,206	-0,132	-0,076
193,086	434,295	-0,150	-0,229
194,100	309,525	-0,223	-0,292
195,115	-63,783	-0,243	-0,069
196,129	66,218	-0,266	-0,188
197,144	121,411	-0,190	-0,165
198,159	-21,888	-0,210	-0,089
199,173	-49,364	-0,248	-0,082
200,188	172,743	-0,117	-0,118
201,202	17,628	-0,134	-0,074
202,217	62,853	-0,218	-0,152
203,232	800,000	-0,154	-0,317
204,246	457,499	-0,211	-0,328
205,261	800,000	-0,165	-0,337
206,275	174,037	-0,092	-0,093
207,290	80,043	-0,121	-0,090
208,304	-113,309	-0,169	-0,023
209,319	6,357	-0,199	-0,103
210,334	182,745	-0,125	-0,129
211,348	-77,327	-0,214	-0,052
212,363	249,536	-0,136	-0,161
213,377	-107,961	-0,200	-0,030
214,392	611,773	-0,054	-0,094
215,407	-96,228	-0,147	-0,027
216,421	248,488	-0,087	-0,103
217,436	44,787	-0,219	-0,140
218,450	28,098	-0,270	-0,159
219,465	199,129	-0,215	-0,229
220,480	78,202	-0,291	-0,216
221,494	-139,597	-0,100	-0,007
222,509	-192,983	-0,241	0,001
223,523	205,859	-0,131	-0,142
224,538	69,402	-0,215	-0,154
225,553	135,192	-0,204	-0,185
226,567	-200,000	-0,051	-0,322
227,582	94,029	-0,213	-0,168
228,596	145,755	-0,191	-0,178
229,611	-109,093	-0,148	-0,022
230,626	39,777	-0,174	-0,108
231,640	667,119	-0,085	-0,153
232,655	6,659	-0,317	-0,163
233,669	194,492	-0,198	-0,209
234,684	98,223	-0,160	-0,128
235,699	-23,677	-0,189	-0,078
236,713	-200,000	-0,169	0,000
237,728	-37,906	-0,145	-0,053
238,742	310,816	-0,125	-0,163
239,757	-44,098	-0,072	-0,025
240,772	-161,620	-0,283	-0,010
241,786	184,034	-0,105	-0,108
242,801	-98,341	-0,216	-0,038
243,815	-33,879	-0,198	-0,075
244,830	79,823	-0,167	-0,125
245,844	362,139	-0,185	-0,258
246,859	-200,000	-0,053	-0,176
247,874	392,101	-0,152	-0,221
248,888	85,430	-0,324	-0,247
249,903	266,243	-0,133	-0,162
250,917	-67,141	-0,142	0,039
251,932	77,379	-0,186	-0,137
252,947	99,349	-0,148	-0,119
253,961	144,216	-0,229	-0,212
254,976	39,857	-0,306	-0,190
255,990	-37,391	-0,191	-0,070
257,005	-7,225	-0,234	-0,110
258,020	13,243	-0,162	-0,087
259,034	193,806	-0,109	-0,114
260,049	65,837	-0,193	-0,136
261,063	-105,289	-0,216	-0,034
262,078	29,301	-0,173	-0,102
263,093	170,374	-0,168	-0,167
264,107	-107,390	-0,226	-0,034
265,122	333,555	-0,094	-0,126
266,136	-48,709	-0,205	0,068
267,151	91,168	-0,133	-0,103
268,166	251,790	-0,123	-0,145
269,180	159,649	-0,123	-0,119
270,195	-4,941	-0,256	-0,122
271,209	364,473	-0,095	-0,133
272,224	800,000	-0,090	-0,193
273,239	-125,844	-0,109	-0,011
274,253	86,362	-0,186	-0,142
275,268	513,252	-0,167	-0,270
276,282	-200,000	-0,029	-0,224
277,297	173,511	-0,250	-0,250
278,312	695,473	-0,160	-0,292
279,326	97,978	-0,181	-0,144
280,341	-66,104	-0,194	-0,053
281,355	260,832	-0,157	-0,189
282,370	68,256	-0,172	-0,122
283,384	-1,641	-0,183	-0,089
284,399	41,780	-0,144	0,090
285,414	-35,485	-0,233	-0,087
286,428	800,000	-0,078	-0,164
287,443	-31,888	0,050	-0,019
288,457	-198,872	-0,149	0,001
289,472	311,474	-0,046	-0,060
290,487	-200,000	-0,027	-0,205
291,501	-118,829	-0,233	-0,028
292,516	156,784	-0,209	-0,200
293,530	218,166	-0,159	-0,176
294,545	131,407	-0,072	-0,064
295,560	-180,138	-0,133	0,002
296,574	-90,610	-0,197	0,039
297,589	-70,876	-0,169	-0,044
298,603	4,138	-0,181	-0,091
299,618	168,344	-0,227	-0,223
300,633	-8,128	-0,201	-0,093
301,647	92,011	-0,213	-0,166
302,662	464,855	-0,050	-0,078
303,676	800,000	-0,147	-0,320
304,691	376,021	-0,129	-0,182
305,706	82,650	-0,082	-0,061
306,720	25,078	-0,121	-0,069
307,735	32,993	-0,105	-0,063
308,749	622,253	-0,146	-0,256
309,764	153,138	-0,075	-0,071
310,779	-121,520	-0,195	-0,022
311,793	41,971	-0,140	-0,088
312,808	350,712	-0,164	-0,224
313,822	84,726	-0,156	-0,118
314,837	-16,663	-0,204	-0,089
315,852	800,000	-0,117	-0,267
316,866	478,812	-0,137	-0,215
317,881	-43,305	-0,130	0,045
318,895	-80,661	-0,259	-0,059
319,910	96,046	-0,129	0,101
320,925	112,380	-0,136	-0,114
321,939	250,911	-0,086	-0,101
322,954	298,147	-0,110	-0,139
323,968	-200,000	-0,029	-0,161
324,983	388,333	-0,113	-0,161
325,997	-70,025	-0,153	-0,040
327,012	262,320	-0,128	-0,153
328,027	-200,000	-0,043	-0,161
329,041	463,974	-0,063	-0,098
330,056	-59,894	-0,126	-0,037
331,070	-174,968	-0,190	0,004
332,085	-53,242	-0,112	-0,035
333,100	-114,297	-0,228	0,030
334,114	131,788	-0,147	-0,130
335,129	23,242	-0,285	-0,161
336,143	800,000	-0,108	-0,274
337,158	-123,217	-0,074	-0,008
338,173	134,549	-0,161	-0,144
339,187	328,875	-0,135	-0,179
340,202	135,637	-0,130	-0,117
341,216	800,000	-0,114	-0,248
342,231	263,750	-0,060	-0,073
343,246	-98,367	-0,115	-0,020
344,260	168,523	-0,088	0,086
345,275	-35,673	-0,055	0,021
346,289	-39,189	-0,224	-0,081
347,304	53,316	-0,178	-0,117
348,319	21,956	-0,048	-0,027
349,333	33,317	-0,149	-0,089
350,348	-5,587	-0,251	-0,118
351,362	99,355	-0,183	-0,145
352,377	-200,000	0,012	0,039
353,392	29,063	-0,076	-0,044
354,406	187,908	-0,074	-0,076
355,421	209,609	1312,697	1417,757
356,435	161,329	1472,921	1417,999
