DTS Sentinel unit serial number:	SN410029Multiplexer serial number:	ORYXHardware model number:	OX2-SRSoftware version number:	ORYX F/W v4,00 Oryx Data Collector v3.7.2.0data status	okinstallation	B3 Nyhavnadifferential loss correction	single-endedforward channel	channel 1reverse channel	N/Adate	2023/11/30time	00:47:30forward acquisition time	300,00reverse acquisition time	0,00gamma	499,1914k internal	0,3210k external	0,3210temperature offset calibration	1,0000default loss term (dB/km)	0,3820temperature slope calibration	1,0000multiplexer offset coefficient	1,0000multiplexer slope coefficient	1,0000fibre end	0,00T internal ref (°C)	10,78T ext. ref 1 (°C)	-4,61T ext. ref 2 (°C)	-4,72length (m)	temperature (°C)	Stokes	anti-Stokes-744,400	800,000	-0,183	-0,393
-743,385	-200,000	-0,061	0,304
-742,371	199,485	-0,087	-0,097
-741,356	-200,000	-0,014	0,321
-740,342	378,692	-0,174	-0,259
-739,327	-200,000	0,016	0,299
-738,312	322,731	-0,190	-0,263
-737,298	-200,000	0,042	0,138
-736,283	-200,000	0,018	-0,351
-735,269	-200,000	0,023	0,319
-734,254	387,904	-0,110	-0,165
-733,239	-137,404	-0,268	0,022
-732,225	-200,000	0,039	-0,136
-731,210	-200,000	0,063	0,245
-730,196	-22,442	0,063	0,027
-729,181	800,000	0,023	-0,046
-728,167	4,662	0,108	-0,057
-727,152	-200,000	0,000	-0,019
-726,137	781,346	0,022	0,044
-725,123	57,412	-0,106	-0,075
-724,108	267,562	-0,088	-0,111
-723,094	800,000	0,054	-0,133
-722,079	-200,000	-0,009	-0,114
-721,064	788,672	-0,028	-0,056
-720,050	-200,000	-0,008	-0,030
-719,035	599,710	-0,041	0,074
-718,021	97,056	-0,064	-0,053
-717,006	-76,853	0,028	-0,007
-715,991	562,325	-0,082	-0,144
-714,977	-93,781	-0,220	0,044
-713,962	98,828	-0,059	0,049
-712,948	-6,341	0,095	0,047
-711,933	800,000	-0,018	-0,050
-710,918	-65,619	-0,063	0,018
-709,904	-200,000	-0,016	-0,077
-708,889	-21,372	-0,042	-0,019
-707,875	34,105	-0,051	-0,032
-706,860	-174,080	-0,051	0,001
-705,845	21,630	0,141	-0,083
-704,831	165,293	-0,045	-0,046
-703,816	41,070	0,117	-0,076
-702,802	-38,715	-0,120	0,046
-701,787	515,535	-0,027	-0,046
-700,772	-106,968	-0,103	-0,016
-699,758	29,110	0,025	-0,015
-698,743	215,919	-0,116	0,134
-697,729	-200,000	0,005	-0,017
-696,714	674,906	0,049	-0,092
-695,699	-200,000	-0,019	-0,064
-694,685	-175,756	-0,124	0,002
-693,670	-159,777	-0,087	-0,003
-692,656	128,376	-0,035	-0,032
-691,641	-38,914	0,090	-0,034
-690,627	135,075	-0,035	-0,033
-689,612	-10,913	0,124	0,059
-688,597	-58,058	-0,055	-0,017
-687,583	2,853	-0,172	-0,090
-686,568	355,332	0,078	-0,112
-685,554	271,121	0,081	-0,104
-684,539	128,321	0,048	-0,044
-683,524	183,949	-0,084	0,090
-682,510	800,000	0,035	-0,090
-681,495	245,564	-0,181	-0,221
-680,481	385,075	-0,047	-0,071
-679,466	800,000	-0,064	-0,174
-678,451	-200,000	0,001	-0,142
-677,437	-86,794	0,073	0,016
-676,422	800,000	-0,049	-0,102
-675,408	-99,736	0,124	0,022
-674,393	31,981	0,089	-0,055
-673,378	800,000	0,037	-0,086
-672,364	-41,703	-0,089	0,033
-671,349	406,730	-0,004	-0,006
-670,335	111,799	0,038	0,033
-669,320	-12,488	-0,107	0,050
-668,305	572,762	0,023	0,041
-667,291	356,332	-0,086	-0,124
-666,276	-24,775	-0,097	0,041
-665,262	800,000	0,053	-0,118
-664,247	-87,947	0,176	-0,038
-663,232	196,186	-0,165	-0,182
-662,218	-17,911	0,060	-0,027
-661,203	800,000	-0,002	-0,005
-660,189	-200,000	-0,001	-0,006
-659,174	-149,904	0,110	0,006
-658,159	165,087	0,066	-0,067
-657,145	-16,157	-0,162	-0,074
-656,130	540,524	0,028	-0,049
-655,116	5,442	-0,050	-0,026
-654,101	-37,129	0,051	-0,019
-653,086	-74,462	-0,095	0,025
-652,072	-200,000	-0,009	0,030
-651,057	800,000	-0,064	-0,195
-650,043	56,958	-0,088	-0,062
-649,028	-102,897	-0,075	-0,013
-648,014	133,021	0,057	0,053
-646,999	-15,617	0,101	-0,047
-645,984	0,953	0,102	0,053
-644,970	-200,000	-0,054	-0,183
-643,955	206,908	-0,157	-0,177
-642,941	-200,000	0,000	-0,037
-641,926	6,298	0,124	-0,066
-640,911	-61,391	0,062	0,019
-639,897	277,839	0,055	0,071
-638,882	-152,488	-0,065	-0,003
-637,868	75,323	-0,065	-0,049
-636,853	178,222	-0,023	-0,024
-635,838	222,959	-0,025	-0,030
-634,824	131,403	-0,100	-0,093
-633,809	43,681	0,059	-0,039
-632,795	734,043	-0,041	0,079
-631,780	-200,000	0,029	0,105
-630,765	-200,000	0,037	-0,133
-629,751	119,631	0,103	-0,092
-628,736	-84,999	-0,123	0,028
-627,722	82,323	0,044	0,035
-626,707	-200,000	-0,009	-0,039
-625,692	800,000	0,026	0,054
-624,678	-200,000	-0,002	-0,048
-623,663	-200,000	0,013	-0,083
-622,649	239,909	0,019	0,023
-621,634	168,103	-0,050	-0,051
-620,619	-200,000	0,025	-0,114
-619,605	-200,000	-0,015	0,078
-618,590	-200,000	-0,036	0,000
-617,576	443,113	0,061	-0,097
-616,561	-200,000	-0,003	0,209
-615,546	-200,000	0,017	0,085
-614,532	192,117	-0,072	-0,078
-613,517	20,818	-0,014	-0,008
-612,503	310,912	0,081	0,110
-611,488	7,236	-0,025	-0,013
-610,474	11,067	-0,086	0,047
-609,459	800,000	-0,060	-0,145
-608,444	-200,000	-0,028	0,101
-607,430	-200,000	0,018	-0,063
-606,415	800,000	0,035	-0,098
-605,401	482,413	-0,060	0,099
-604,386	-200,000	0,005	0,048
-603,371	100,685	-0,026	0,022
-602,357	187,157	-0,093	0,100
-601,342	-200,000	0,044	-0,167
-600,328	-200,000	-0,000	-0,109
-599,313	800,000	0,026	-0,057
-598,298	800,000	0,031	0,081
-597,284	342,115	-0,102	0,145
-596,269	-64,875	-0,004	-0,001
-595,255	474,694	0,071	0,116
-594,240	-151,774	0,129	-0,007
-593,225	-200,000	0,018	0,000
-592,211	-133,819	-0,112	0,010
-591,196	486,699	-0,009	0,014
-590,182	800,000	0,017	-0,041
-589,167	-200,000	0,004	0,108
-588,152	-200,000	0,008	-0,099
-587,138	-154,160	-0,153	0,007
-586,123	800,000	0,015	0,042
-585,109	289,118	0,043	-0,057
-584,094	-28,377	0,089	0,037
-583,079	26,903	0,037	-0,022
-582,065	-200,000	0,003	-0,019
-581,050	381,979	0,040	0,060
-580,036	-107,116	-0,039	-0,006
-579,021	-169,592	-0,122	0,003
-578,006	211,638	-0,150	-0,170
-576,992	14,469	0,008	-0,005
-575,977	137,139	-0,077	0,073
-574,963	641,452	0,080	0,147
-573,948	-200,000	0,022	0,081
-572,934	-200,000	-0,012	0,065
-571,919	-200,000	0,041	-0,216
-570,904	620,126	-0,100	-0,182
-569,890	33,780	0,064	0,040
-568,875	93,842	0,077	0,063
-567,861	51,980	0,027	0,019
-566,846	-24,550	-0,111	0,048
-565,831	-200,000	-0,026	-0,100
-564,817	-200,000	0,004	0,096
-563,802	182,160	0,047	0,050
-562,788	781,084	0,005	0,010
-561,773	-6,900	0,102	0,050
-560,758	-71,728	0,043	-0,011
-559,744	-151,486	0,104	0,005
-558,729	-167,708	-0,057	0,002
-557,715	3,519	-0,096	0,050
-556,700	101,864	-0,076	0,064
-555,685	433,895	0,055	-0,086
-554,671	-156,434	0,100	0,004
-553,656	205,890	0,133	-0,149
-552,642	-200,000	-0,019	0,075
-551,627	89,103	0,086	0,069
-550,612	800,000	-0,044	-0,095
-549,598	800,000	-0,037	-0,087
-548,583	-200,000	-0,035	-0,138
-547,569	-200,000	0,009	-0,064
-546,554	18,202	0,113	0,064
-545,539	24,608	-0,090	-0,054
-544,525	637,490	-0,024	-0,044
-543,510	275,758	0,047	0,060
-542,496	557,248	0,006	0,010
-541,481	87,752	-0,076	-0,060
-540,466	310,349	-0,006	-0,008
-539,452	281,908	-0,123	0,159
-538,437	-200,000	0,065	0,215
-537,423	-151,848	-0,101	0,005
-536,408	-48,460	0,118	-0,041
-535,393	-23,528	-0,185	0,080
-534,379	-140,674	-0,088	0,006
-533,364	800,000	0,040	-0,103
-532,350	144,558	-0,011	-0,011
-531,335	17,462	0,120	0,068
-530,321	-200,000	-0,000	0,033
-529,306	-116,352	0,109	-0,014
-528,291	155,628	0,035	-0,034
-527,277	-144,556	0,095	0,006
-526,262	763,367	0,030	-0,059
-525,248	620,348	0,037	0,068
-524,233	-200,000	0,025	0,133
-523,218	-200,000	0,014	0,156
-522,204	-162,089	0,158	0,006
-521,189	43,829	-0,029	0,019
-520,175	277,700	0,068	-0,088
-519,160	-200,000	0,001	-0,159
-518,145	4,863	-0,130	-0,068
-517,131	-200,000	-0,027	0,133
-516,116	800,000	-0,019	-0,055
-515,102	800,000	-0,010	0,028
-514,087	91,490	0,049	0,040
-513,072	-200,000	-0,017	-0,162
-512,058	376,830	0,038	-0,056
-511,043	221,685	0,068	-0,079
-510,029	-200,000	0,003	-0,080
-509,014	-1,268	-0,129	-0,065
-507,999	-115,291	0,110	-0,015
-506,985	158,721	-0,093	0,093
-505,970	-113,729	-0,011	0,001
-504,956	-31,817	-0,125	0,050
-503,941	-125,932	0,123	-0,013
-502,926	-200,000	0,023	-0,120
-501,912	-200,000	-0,108	0,000
-500,897	-200,000	0,043	0,187
-499,883	30,111	-0,099	0,060
-498,868	-19,173	-0,052	-0,023
-497,853	-200,000	-0,030	-0,158
-496,839	164,546	-0,061	-0,062
-495,824	30,459	-0,082	0,050
-494,810	-53,544	0,144	0,047
-493,795	216,594	0,078	0,089
-492,781	-114,453	-0,164	0,022
-491,766	576,621	0,044	0,078
-490,751	-15,227	-0,172	-0,079
-489,737	-51,987	-0,090	-0,030
-488,722	-90,189	-0,031	0,006
-487,708	-97,122	0,153	-0,029
-486,693	800,000	-0,040	-0,105
-485,678	800,000	-0,041	-0,083
-484,664	-200,000	-0,001	0,043
-483,649	-13,957	0,092	-0,042
-482,635	-135,436	-0,048	0,004
-481,620	-30,709	0,058	-0,023
-480,605	-32,315	-0,077	-0,031
-479,591	-2,779	-0,034	-0,017
-478,576	-200,000	-0,002	0,116
-477,562	-61,351	0,059	0,018
-476,547	-98,415	0,035	-0,006
-475,532	172,899	0,041	-0,042
-474,518	800,000	-0,041	0,128
-473,503	-50,645	-0,019	0,006
-472,489	-23,414	0,073	0,031
-471,474	-98,504	0,081	-0,015
-470,459	401,918	-0,075	0,113
-469,445	170,672	-0,153	-0,158
-468,430	-6,340	0,136	-0,066
-467,416	35,825	0,093	0,058
-466,401	-111,443	-0,085	-0,012
-465,386	-69,387	0,128	0,035
-464,372	-99,795	0,023	-0,004
-463,357	800,000	0,039	-0,092
-462,343	800,000	-0,036	0,082
-461,328	-155,715	-0,095	0,004
-460,313	-200,000	0,001	0,077
-459,299	-62,907	-0,012	0,003
-458,284	-117,024	0,015	-0,002
-457,270	800,000	-0,037	0,090
-456,255	-112,178	-0,022	-0,003
-455,241	406,924	-0,065	-0,099
-454,226	-3,324	0,059	0,029
-453,211	-200,000	-0,029	-0,103
-452,197	71,834	0,067	-0,050
-451,182	795,889	-0,060	0,119
-450,168	-140,465	0,162	-0,012
-449,153	-168,791	-0,225	-0,006
-448,138	153,291	-0,079	-0,077
-447,124	-9,076	0,074	0,036
-446,109	82,383	0,116	-0,091
-445,095	800,000	-0,008	-0,023
-444,080	800,000	0,011	0,034
-443,065	-107,593	0,083	0,013
-442,051	-65,467	0,130	-0,037
-441,036	11,277	0,018	0,010
-440,022	-200,000	-0,008	-0,197
-439,007	-200,000	0,016	-0,119
-437,992	-200,000	0,008	-0,116
-436,978	350,310	-0,021	-0,029
-435,963	800,000	0,031	0,072
-434,949	-128,529	0,016	-0,002
-433,934	30,734	-0,106	-0,065
-432,919	95,052	-0,046	0,037
-431,905	139,329	0,101	0,095
-430,890	-200,000	-0,009	-0,033
-429,876	-39,186	0,027	-0,010
-428,861	-154,142	-0,079	0,004
-427,846	-200,000	-0,007	-0,053
-426,832	192,248	-0,014	-0,016
-425,817	251,813	-0,075	-0,091
-424,803	-49,841	-0,075	-0,025
-423,788	-40,986	0,069	-0,025
-422,773	74,120	0,085	-0,064
-421,759	-41,279	0,153	0,056
-420,744	-139,093	0,105	-0,008
-419,730	512,072	-0,116	-0,194
-418,715	-63,465	0,049	0,014
-417,701	-200,000	-0,013	-0,128
-416,686	430,178	-0,071	0,111
-415,671	-200,000	-0,005	0,036
-414,657	-156,329	0,152	-0,007
-413,642	274,814	0,023	-0,030
-412,628	-1,844	0,009	-0,005
-411,613	318,195	-0,069	-0,093
-410,598	800,000	-0,031	-0,072
-409,584	-200,000	-0,002	0,159
-408,569	114,312	0,122	-0,106
-407,555	11,677	0,044	0,024
-406,540	-70,043	-0,159	-0,043
-405,525	-122,837	0,077	-0,009
-404,511	-200,000	-0,013	-0,091
-403,496	-9,452	0,080	-0,038
-402,482	-200,000	-0,041	-0,138
-401,467	-35,392	-0,079	-0,031
-400,452	56,340	-0,131	0,091
-399,438	-200,000	0,010	0,055
-398,423	-200,000	0,009	0,038
-397,409	800,000	-0,041	-0,106
-396,394	395,475	-0,045	-0,067
-395,379	-64,314	-0,113	-0,033
-394,365	-10,030	0,056	0,027
-393,350	46,660	-0,015	0,010
-392,336	-36,672	0,059	0,023
-391,321	-157,156	0,009	0,000
-390,306	-102,175	-0,159	0,027
-389,292	-200,000	-0,043	0,197
-388,277	-134,864	-0,023	0,002
-387,263	-200,000	0,042	-0,186
-386,248	118,644	0,058	0,052
-385,233	-173,484	-0,141	0,003
-384,219	221,438	0,045	-0,052
-383,204	674,841	-0,028	0,053
-382,190	79,586	-0,104	0,080
-381,175	-92,590	-0,134	0,027
-380,160	211,036	-0,062	-0,069
-379,146	-155,060	0,167	-0,008
-378,131	-30,362	-0,073	-0,029
-377,117	800,000	0,079	0,157
-376,102	-107,068	-0,070	-0,011
-375,088	-200,000	0,008	0,060
-374,073	-121,532	-0,065	0,008
-373,058	599,850	-0,027	0,047
-372,044	60,184	0,159	0,112
-371,029	64,397	-0,074	0,053
-370,015	-200,000	-0,008	0,140
-369,000	92,769	-0,047	0,038
-367,985	23,716	-0,059	-0,035
-366,971	-200,000	-0,005	-0,042
-365,956	-75,977	0,047	-0,012
-364,942	13,212	0,118	0,065
-363,927	800,000	0,051	-0,148
-362,912	-36,505	-0,036	-0,014
-361,898	637,303	-0,032	-0,058
-360,883	-200,000	0,013	-0,109
-359,869	258,152	0,108	0,133
-358,854	-84,200	0,112	-0,025
-357,839	301,019	0,076	-0,101
-356,825	800,000	0,057	-0,172
-355,810	252,846	-0,015	0,018
-354,796	86,242	-0,060	0,047
-353,781	800,000	-0,026	0,081
-352,766	12,243	-0,037	0,020
-351,752	-8,657	0,078	0,037
-350,737	-134,023	0,169	-0,015
-349,723	-200,000	0,030	0,193
-348,708	-200,000	0,039	0,148
-347,693	-23,081	0,145	-0,062
-346,679	-101,150	-0,042	-0,007
-345,664	-200,000	0,007	-0,031
-344,650	-200,000	-0,015	-0,068
-343,635	-200,000	-0,002	0,012
-342,620	-77,225	0,075	0,019
-341,606	-200,000	0,017	0,210
-340,591	-47,036	0,065	-0,022
-339,577	800,000	-0,019	-0,050
-338,562	800,000	0,033	-0,088
-337,548	449,945	-0,052	-0,083
-336,533	-200,000	-0,002	-0,031
-335,518	36,421	0,073	0,046
-334,504	377,755	-0,007	-0,011
-333,489	30,320	-0,127	0,077
-332,475	105,625	0,058	0,049
-331,460	-19,615	-0,050	0,022
-330,445	-24,685	0,073	0,031
-329,431	-128,035	0,066	-0,007
-328,416	238,572	0,073	0,087
-327,402	35,010	-0,016	0,010
-326,387	-18,655	0,063	-0,028
-325,372	-200,000	0,003	0,023
-324,358	23,843	0,025	-0,014
-323,343	-200,000	-0,006	-0,022
-322,329	-173,493	-0,039	0,001
-321,314	25,845	0,061	-0,036
-320,299	-29,597	-0,037	0,015
-319,285	-200,000	-0,004	-0,056
-318,270	-200,000	0,005	0,109
-317,256	800,000	-0,018	-0,042
-316,241	317,433	-0,023	0,031
-315,226	-42,031	0,126	0,046
-314,212	800,000	0,099	0,205
-313,197	145,585	0,076	0,073
-312,183	-47,033	0,109	0,038
-311,168	144,529	-0,106	-0,101
-310,153	-43,806	-0,058	0,021
-309,139	-139,172	0,067	0,005
-308,124	-200,000	-0,004	0,051
-307,110	-17,241	0,072	0,032
-306,095	74,603	-0,017	0,013
-305,080	-43,125	0,136	0,049
-304,066	-17,661	-0,068	-0,030
-303,051	317,527	-0,123	-0,166
-302,037	-200,000	0,017	-0,121
-301,022	-200,000	-0,039	-0,150
-300,008	214,844	0,068	0,077
-298,993	55,280	0,024	-0,017
-297,978	-200,000	0,009	0,053
-296,964	-200,000	-0,002	0,041
-295,949	228,815	-0,074	-0,086
-294,935	-200,000	0,005	-0,200
-293,920	-200,000	0,005	-0,076
-292,905	366,762	0,036	-0,052
-291,891	115,116	0,136	-0,118
-290,876	359,057	-0,012	0,017
-289,862	-200,000	-0,016	0,121
-288,847	3,221	0,064	0,033
-287,832	492,093	-0,102	-0,167
-286,818	-119,272	0,070	-0,009
-285,803	-28,958	-0,092	-0,037
-284,789	-200,000	-0,003	0,294
-283,774	-1,254	0,126	0,063
-282,759	-200,000	-0,009	0,115
-281,745	-37,770	0,031	0,012
-280,730	169,209	0,069	-0,070
-279,716	-200,000	-0,005	-0,041
-278,701	-200,000	0,019	-0,106
-277,686	-97,663	0,085	0,016
-276,672	552,509	-0,033	0,057
-275,657	800,000	0,048	-0,137
-274,643	422,928	-0,025	-0,038
-273,628	63,484	-0,023	0,016
-272,613	800,000	-0,022	0,054
-271,599	-200,000	0,016	0,135
-270,584	-200,000	0,011	0,067
-269,570	272,604	0,048	0,061
-268,555	-103,242	0,084	0,014
-267,540	501,548	0,030	0,049
-266,526	444,997	-0,062	-0,097
-265,511	1,244	0,076	0,039
-264,497	132,348	0,080	0,074
-263,482	626,201	-0,055	0,099
-262,467	-0,738	0,164	0,082
-261,453	280,280	-0,060	0,077
-260,438	483,480	-0,059	-0,096
-259,424	18,067	-0,109	0,062
-258,409	-200,000	0,003	0,136
-257,395	-200,000	0,002	-0,102
-256,380	-200,000	0,016	0,117
-255,365	265,008	-0,041	-0,051
-254,351	-200,000	-0,028	0,098
-253,336	-200,000	-0,007	-0,054
-252,322	-70,960	-0,105	0,028
-251,307	800,000	-0,053	-0,116
-250,292	-200,000	-0,019	0,164
-249,278	404,916	-0,078	0,117
-248,263	213,873	0,039	0,044
-247,249	62,710	0,123	-0,088
-246,234	13,813	-0,118	-0,065
-245,219	-200,000	-0,003	0,022
-244,205	275,406	-0,105	-0,132
-243,190	800,000	-0,027	-0,079
-242,176	430,249	0,074	0,115
-241,161	510,076	0,053	0,088
-240,146	-200,000	0,019	-0,062
-239,132	-200,000	-0,028	-0,117
-238,117	-200,000	0,015	-0,059
-237,103	-200,000	0,018	-0,076
-236,088	-31,275	-0,029	0,012
-235,073	-41,597	0,092	0,033
-234,059	1,705	-0,115	0,059
-233,044	-15,696	-0,122	0,055
-232,030	-200,000	-0,018	-0,132
-231,015	172,103	-0,046	-0,047
-230,000	800,000	-0,026	-0,077
-228,986	800,000	0,044	-0,104
-227,971	95,181	0,142	0,115
-226,957	-200,000	-0,015	-0,048
-225,942	-200,000	0,016	-0,123
-224,927	785,675	0,035	-0,069
-223,913	800,000	-0,047	0,127
-222,898	117,516	-0,034	-0,029
-221,884	322,356	0,049	0,066
-220,869	-200,000	-0,016	0,085
-219,855	800,000	-0,035	0,080
-218,840	-200,000	0,015	0,086
-217,825	-13,005	-0,050	0,023
-216,811	-200,000	0,013	-0,077
-215,796	348,513	-0,071	-0,100
-214,782	47,359	-0,061	-0,040
-213,767	800,000	-0,016	-0,034
-212,752	184,293	-0,146	0,154
-211,738	456,561	-0,008	0,013
-210,723	452,869	0,061	0,096
-209,709	429,721	-0,082	-0,126
-208,694	-117,788	-0,011	-0,001
-207,679	564,555	-0,024	-0,041
-206,665	-26,227	-0,085	-0,035
-205,650	800,000	0,066	0,154
-204,636	233,240	0,059	0,069
-203,621	-200,000	-0,020	-0,084
-202,606	-36,243	-0,181	0,069
-201,592	121,390	-0,081	0,071
-200,577	11,695	-0,060	0,033
-199,563	96,126	0,172	0,139
-198,548	800,000	0,105	0,222
-197,533	-13,592	0,055	-0,025
-196,519	148,904	-0,061	-0,058
-195,504	439,062	-0,064	0,099
-194,490	286,079	0,106	0,136
-193,475	-88,272	0,107	-0,023
-192,460	-200,000	-0,023	-0,087
-191,446	555,911	-0,041	0,071
-190,431	426,303	-0,014	-0,022
-189,417	-159,367	0,038	0,001
-188,402	116,032	-0,044	0,038
-187,387	800,000	-0,009	0,026
-186,373	186,995	-0,088	-0,093
-185,358	-200,000	-0,004	-0,065
-184,344	-79,313	0,035	-0,008
-183,329	-200,000	-0,025	0,101
-182,315	-200,000	0,015	-0,095
-181,300	-78,528	-0,158	-0,038
-180,285	8,546	-0,079	0,042
-179,271	130,163	-0,034	-0,031
-178,256	-70,497	0,142	0,038
-177,242	-200,000	-0,021	0,113
-176,227	-200,000	-0,026	0,089
-175,212	55,772	0,063	0,043
-174,198	-111,336	0,021	0,003
-173,183	800,000	0,029	-0,067
-172,169	-121,803	-0,077	0,009
-171,154	1,754	-0,055	0,028
-170,139	800,000	0,021	0,041
-169,125	-200,000	0,009	0,072
-168,110	-74,385	0,032	0,008
-167,096	-69,580	-0,072	-0,019
-166,081	-36,266	0,099	-0,038
-165,066	800,000	0,064	-0,149
-164,052	-4,964	-0,149	-0,073
-163,037	-5,012	0,009	0,004
-162,023	271,052	-0,012	0,015
-161,008	-200,000	0,010	-0,230
-159,993	-96,346	0,110	0,020
-158,979	-112,186	-0,214	0,030
-157,964	-25,609	0,128	0,054
-156,950	-45,942	-0,195	0,068
-155,935	115,556	0,012	0,010
-154,920	493,057	-0,026	0,043
-153,906	-200,000	-0,013	0,198
-152,891	153,200	-0,150	-0,145
-151,877	-200,000	-0,016	0,063
-150,862	122,516	-0,029	-0,026
-149,847	696,944	-0,121	-0,226
-148,833	-121,356	0,135	-0,016
-147,818	-67,104	0,097	0,027
-146,804	800,000	0,029	0,085
-145,789	-200,000	0,015	0,126
-144,775	800,000	-0,061	0,167
-143,760	776,990	-0,076	-0,147
-142,745	800,000	-0,002	0,006
-141,731	-36,195	0,072	-0,027
-140,716	247,606	-0,079	0,095
-139,702	601,185	0,044	0,078
-138,687	-133,152	-0,154	-0,014
-137,672	39,637	0,089	-0,056
-136,658	100,500	-0,030	-0,025
-135,643	-84,417	-0,093	-0,021
-134,629	34,264	-0,014	-0,008
-133,614	-200,000	-0,019	-0,110
-132,599	-130,974	0,208	-0,019
-131,585	661,019	0,029	0,054
-130,570	249,188	-0,024	0,029
-129,556	338,337	0,066	-0,091
-128,541	302,669	-0,087	-0,114
-127,526	-200,000	-0,009	-0,105
-126,512	-5,940	0,097	0,047
-125,497	491,682	-0,022	-0,035
-124,483	800,000	0,023	-0,050
-123,468	-191,997	-0,009	0,000
-122,453	573,019	-0,051	-0,088
-121,439	200,058	0,036	0,039
-120,424	-200,000	-0,004	0,013
-119,410	800,000	-0,004	0,009
-118,395	9,283	0,040	0,021
-117,380	780,127	0,009	-0,017
-116,366	338,906	0,031	-0,043
-115,351	800,000	0,004	-0,009
-114,337	-200,000	0,011	-0,094
-113,322	800,000	-0,012	0,025
-112,307	60,273	0,070	0,049
-111,293	-200,000	-0,070	0,220
-110,278	-22,109	0,158	-0,068
-109,264	800,000	0,041	-0,089
-108,249	-200,000	-0,004	-0,149
-107,234	800,000	-0,028	-0,087
-106,220	-200,000	0,001	-0,147
-105,205	-54,972	0,098	0,031
-104,191	2,433	0,195	0,100
-103,176	-200,000	0,016	-0,096
-102,162	-163,917	-0,106	0,003
-101,147	130,944	0,050	-0,046
-100,132	24,860	-0,124	-0,073
-99,118	-46,543	-0,076	-0,026
-98,103	800,000	-0,025	-0,058
-97,089	-200,000	0,013	-0,048
-96,074	-67,271	0,105	0,029
-95,059	356,367	-0,116	0,163
-94,045	-200,000	-0,031	0,125
-93,030	92,842	-0,048	-0,038
-92,016	100,637	-0,074	-0,060
-91,001	-200,000	0,144	0,000
-89,986	-150,546	0,120	-0,006
-88,972	-107,425	0,086	-0,013
-87,957	-87,609	0,135	0,028
-86,943	-200,000	0,004	-0,050
-85,928	229,971	-0,017	-0,020
-84,913	481,446	-0,050	-0,080
-83,899	23,209	0,059	0,034
-82,884	-200,000	-0,002	-0,108
-81,870	-160,411	0,046	0,002
-80,855	-34,469	-0,077	0,030
-79,840	-200,000	-0,014	-0,222
-78,826	-200,000	-0,012	-0,175
-77,811	108,420	0,090	-0,076
-76,797	44,969	0,053	0,035
-75,782	-200,000	-0,008	0,090
-74,767	-126,521	0,071	0,007
-73,753	322,508	0,027	0,036
-72,738	-200,000	0,003	0,023
-71,724	-90,476	-0,076	0,015
-70,709	159,604	-0,110	0,108
-69,694	718,959	-0,052	-0,098
-68,680	182,344	0,099	0,104
-67,665	-157,619	-0,190	0,008
-66,651	-200,000	0,007	0,045
-65,636	-68,792	0,079	0,021
-64,622	-105,897	-0,050	0,008
-63,607	-173,963	0,127	0,003
-62,592	-200,000	0,007	0,073
-61,578	452,998	-0,083	0,130
-60,563	-80,892	0,126	0,029
-59,549	332,359	-0,054	0,074
-58,534	39,931	-1,940	-1,228
-57,519	464,912	-1,303	-2,066
-56,505	-200,000	-0,206	-4,299
-55,490	432,485	0,994	1,528
-54,476	800,000	5,097	11,076
-53,461	-200,000	20,868	330,944
-52,446	800,000	757,727	2327,364
-51,432	550,797	1662,595	2827,561
-50,417	73,449	1664,245	1228,708
-49,403	18,643	1537,349	865,971
-48,388	12,607	1460,176	793,276
-47,373	19,071	1450,928	819,278
-46,359	15,744	1440,520	797,523
-45,344	10,834	1436,460	771,837
-44,330	10,785	1434,268	770,395
-43,315	10,836	1432,258	769,526
-42,300	10,802	1430,507	768,395
-41,286	10,836	1429,348	767,901
-40,271	10,805	1428,074	767,040
-39,257	10,798	1426,929	766,361
-38,242	10,846	1425,904	766,008
-37,227	10,845	1424,574	765,260
-36,213	10,834	1423,497	764,596
-35,198	10,847	1422,294	763,985
-34,184	10,894	1421,453	763,720
-33,169	10,839	1420,064	762,684
-32,154	10,893	1419,035	762,356
-31,140	10,919	1417,781	761,776
-30,125	10,957	1416,585	761,283
-29,111	10,894	1415,635	760,446
-28,096	10,909	1414,315	759,776
-27,082	10,807	1413,360	758,756
-26,067	10,820	1412,183	758,156
-25,052	10,836	1411,250	757,699
-24,038	10,809	1410,062	756,904
-23,023	10,769	1409,318	756,285
-22,009	10,796	1408,107	755,734
-20,994	10,813	1407,014	755,194
-19,979	10,766	1406,211	754,515
-18,965	10,793	1405,342	754,143
-17,950	10,733	1404,440	753,350
-16,936	10,785	1403,444	753,029
-15,921	10,726	1402,421	752,176
-14,906	10,733	1401,489	751,678
-13,892	10,683	1400,645	750,961
-12,877	10,718	1399,807	750,649
-11,863	10,691	1399,264	750,199
-10,848	10,692	1397,921	749,455
-9,833	10,641	1397,316	748,862
-8,819	10,643	1396,358	748,330
-7,804	10,602	1395,596	747,701
-6,790	10,637	1394,544	747,270
-5,775	10,632	1393,433	746,622
-4,760	10,621	1392,465	746,023
-3,746	10,621	1391,412	745,432
-2,731	10,630	1390,595	745,006
-1,717	10,601	1390,036	744,540
-0,702	10,618	1387,948	743,472
0,313	14,588	1301,494	715,371
1,327	30,749	692,689	417,498
2,342	47,515	120,188	78,929
3,356	-0,205	16,557	8,282
4,371	5,808	3,453	1,796
5,386	-35,579	0,795	0,303
6,400	382,584	0,260	0,379
7,415	800,000	-0,094	-0,255
8,429	-65,083	-0,349	-0,099
9,444	10,583	-0,267	-0,143
10,459	-108,161	-0,277	-0,042
11,473	16,286	-0,229	-0,127
12,488	-3,006	-0,290	-0,142
13,502	-10,851	-0,325	-0,151
14,517	-31,108	-0,341	-0,135
15,531	497,237	-0,237	-0,385
16,546	135,779	-0,195	-0,179
17,561	248,846	-0,216	-0,258
18,575	-87,437	-0,137	-0,029
19,590	292,030	-0,203	-0,261
20,604	129,748	-0,133	-0,120
21,619	-40,674	-0,445	-0,162
22,634	105,244	-0,503	-0,418
23,648	149,993	-0,436	-0,417
24,663	140,771	-0,381	-0,355
25,677	75,695	-0,310	-0,231
26,692	71,241	-0,329	-0,240
27,707	3,467	-0,292	-0,149
28,721	110,096	-0,255	-0,216
29,736	-43,790	-0,373	-0,132
30,750	121,292	-0,469	-0,411
31,765	131,316	-0,347	-0,314
32,780	193,820	-0,273	-0,291
33,794	146,129	-0,230	-0,217
34,809	62,431	-0,375	-0,263
35,823	-33,414	-0,422	-0,163
36,838	154,472	-0,312	-0,302
37,853	144,143	-0,408	-0,383
38,867	46,435	-0,465	-0,303
39,882	78,810	-0,329	-0,247
40,896	30,173	-0,285	-0,170
41,911	4,522	-0,293	-0,151
42,926	20,899	-0,398	-0,226
43,940	101,027	-0,269	-0,220
44,955	199,917	-0,353	-0,381
45,969	86,091	-0,316	-0,244
46,984	12,805	-0,339	-0,183
47,999	58,645	-0,325	-0,224
49,013	76,313	-0,402	-0,299
50,028	68,830	-0,298	-0,214
51,042	-9,310	-0,314	-0,147
52,057	-16,539	-0,400	-0,177
53,071	19,140	-0,299	-0,168
54,086	216,351	-0,311	-0,348
55,101	50,587	-0,396	-0,262
56,115	72,264	-0,227	-0,166
57,130	171,155	-0,331	-0,334
58,144	66,468	-0,513	-0,366
59,159	141,211	-0,295	-0,274
60,174	-18,755	-0,421	-0,183
61,188	85,940	-0,298	-0,230
62,203	53,827	-0,217	-0,146
63,217	800,000	-0,153	-0,350
64,232	137,516	-0,288	-0,265
65,247	56,689	-0,445	-0,303
66,261	139,650	-0,272	-0,252
67,276	27,731	-0,217	-0,128
68,290	69,019	-0,428	-0,308
69,305	106,776	-0,258	-0,215
70,320	-2,820	-0,361	-0,176
71,334	6,124	-0,225	-0,117
72,349	-52,944	-0,294	-0,094
73,363	151,156	-0,268	-0,255
74,378	-40,253	-0,345	-0,125
75,393	23,376	-0,373	-0,214
76,407	27,708	-0,392	-0,231
77,422	154,302	-0,169	-0,162
78,436	-22,022	-0,380	-0,161
79,451	8,219	-0,339	-0,178
80,466	-42,062	-0,247	-0,088
81,480	33,917	-0,409	-0,249
82,495	60,622	-0,247	-0,171
83,509	16,296	-0,334	-0,184
84,524	33,643	-0,286	-0,174
85,539	-27,324	-0,289	-0,117
86,553	234,989	-0,181	-0,210
87,568	33,222	-0,238	-0,144
88,582	556,886	-0,145	-0,246
89,597	48,054	-0,342	-0,224
90,611	358,561	-0,149	-0,208
91,626	77,537	-0,284	-0,212
92,641	155,757	-0,203	-0,196
93,655	26,200	-0,282	-0,165
94,670	3,345	-0,316	-0,161
95,684	67,726	-0,164	-0,117
96,699	23,274	-0,261	-0,150
97,714	25,114	-0,186	-0,108
98,728	31,448	-0,276	-0,166
99,743	8,122	-0,373	-0,196
100,757	-27,505	-0,255	-0,103
101,772	14,882	-0,372	-0,203
102,787	-0,590	-0,327	-0,162
103,801	73,623	-0,266	-0,195
104,816	97,224	-0,398	-0,319
105,830	-136,726	-0,253	-0,020
106,845	-115,723	-0,309	-0,040
107,860	97,348	-0,220	-0,177
108,874	188,316	-0,268	-0,281
109,889	94,571	-0,350	-0,278
110,903	98,327	-0,308	-0,248
111,918	544,710	-0,159	-0,266
112,933	58,858	-0,214	-0,147
113,947	-38,193	-0,240	-0,089
114,962	221,821	-0,125	-0,141
115,976	-23,489	-0,232	-0,097
116,991	111,601	-0,236	-0,199
118,006	142,710	-0,286	-0,265
119,020	800,000	-0,152	-0,309
120,035	326,925	-0,224	-0,301
121,049	-76,303	-0,265	-0,065
122,064	-108,732	-0,224	0,033
123,079	68,339	-0,264	-0,189
124,093	180,499	-0,230	-0,236
125,108	109,670	-0,215	-0,180
126,122	24,455	-0,292	-0,168
127,137	-18,178	-0,161	-0,070
128,151	70,299	-0,197	-0,142
129,166	-42,678	-0,285	-0,101
130,181	115,859	-0,240	-0,204
131,195	567,124	-0,140	-0,239
132,210	173,951	-0,249	-0,251
133,224	78,432	-0,200	-0,149
134,239	-4,806	-0,290	-0,139
135,254	165,004	-0,178	-0,175
136,268	32,046	-0,268	-0,161
137,283	64,472	-0,299	-0,210
138,297	82,811	-0,356	-0,270
139,312	800,000	-0,135	-0,286
140,327	475,911	-0,198	-0,312
141,341	-19,778	-0,334	-0,143
142,356	-42,565	-0,258	-0,091
143,370	553,798	-0,183	-0,308
144,385	-160,332	-0,233	-0,009
145,400	649,195	-0,155	-0,277
146,414	397,678	-0,180	-0,263
147,429	39,910	-0,369	-0,230
148,443	135,513	-0,232	-0,210
149,458	61,032	-0,203	-0,140
150,473	-118,250	-0,198	-0,024
151,487	153,395	-0,275	-0,263
152,502	125,477	-0,159	-0,140
153,516	168,829	-0,239	-0,237
154,531	78,636	-0,352	-0,262
155,546	134,515	-0,188	-0,169
156,560	196,536	-0,156	-0,165
157,575	133,167	-0,319	-0,287
158,589	83,267	-0,152	-0,115
159,604	760,841	-0,097	-0,184
160,619	208,969	-0,203	-0,221
161,633	34,281	-0,308	-0,187
162,648	4,004	-0,229	-0,116
163,662	-185,911	-0,485	-0,005
164,677	27,253	-0,302	-0,176
165,692	-61,881	-0,196	-0,057
166,706	68,558	-0,209	-0,149
167,721	124,134	-0,209	-0,182
168,735	92,340	-0,276	-0,216
169,750	293,329	-0,256	-0,326
170,764	128,604	-0,237	-0,210
171,779	148,403	-0,154	-0,145
172,794	42,026	-0,286	-0,180
173,808	179,518	-0,242	-0,246
174,823	116,794	-0,264	-0,225
175,837	28,227	-0,256	-0,150
176,852	243,299	-0,162	-0,189
177,867	-25,598	-0,172	-0,070
178,881	360,753	-0,205	-0,286
179,896	21,367	-0,188	-0,106
180,910	175,348	-0,242	-0,243
181,925	70,608	-0,276	-0,198
182,940	234,506	-0,234	-0,269
183,954	800,000	-0,080	-0,191
184,969	608,766	-0,075	-0,130
185,983	2,024	-0,162	-0,081
186,998	-200,000	0,017	-0,057
188,013	13,356	-0,266	-0,143
189,027	90,360	-0,323	-0,251
190,042	611,701	-0,153	-0,267
191,056	-117,834	-0,132	-0,016
192,071	157,292	-0,134	-0,129
193,086	-35,041	-0,178	-0,067
194,100	-36,133	-0,249	-0,093
195,115	127,095	-0,230	-0,202
196,129	120,157	-0,194	-0,167
197,144	800,000	-0,107	-0,297
198,159	149,315	-0,234	-0,220
199,173	-4,157	-0,233	-0,112
200,188	214,638	-0,183	-0,202
201,202	350,594	-0,100	-0,138
202,217	51,117	-0,119	-0,078
203,232	67,325	-0,321	-0,227
204,246	8,887	-0,265	-0,138
205,261	301,512	-0,218	-0,280
206,275	-45,281	-0,207	-0,071
207,290	138,541	-0,049	-0,045
208,304	51,154	-0,187	-0,123
209,319	-200,000	0,024	-0,105
210,334	287,575	-0,125	-0,157
211,348	75,122	-0,291	-0,212
212,363	-49,722	-0,331	-0,108
213,377	83,349	-0,260	-0,196
214,392	440,846	-0,109	-0,166
215,407	-151,352	-0,097	-0,005
216,421	157,820	-0,139	-0,134
217,436	49,399	-0,171	-0,112
218,450	288,492	-0,100	-0,125
219,465	198,449	-0,260	-0,276
220,480	369,038	-0,062	-0,087
221,494	35,761	-0,215	-0,131
222,509	-55,834	-0,137	-0,042
223,523	662,404	-0,142	-0,254
224,538	117,488	-0,178	-0,152
225,553	79,230	-0,251	-0,186
226,567	141,930	-0,185	-0,170
227,582	-4,907	-0,223	-0,106
228,596	0,165	-0,100	-0,049
229,611	478,437	-0,042	-0,066
230,626	297,181	-0,122	-0,156
231,640	-17,438	-0,177	-0,077
232,655	0,028	-0,293	-0,144
233,669	270,894	-0,139	-0,170
234,684	94,854	-0,263	-0,206
235,699	-29,377	-0,180	-0,071
236,713	120,441	-0,117	-0,101
237,728	800,000	-0,063	-0,157
238,742	198,093	-0,158	-0,167
239,757	203,996	-0,126	-0,135
240,772	56,843	-0,295	-0,198
241,786	152,922	-0,198	-0,187
242,801	178,664	-0,150	-0,151
243,815	653,863	-0,099	-0,175
244,830	182,124	-0,122	-0,124
245,844	800,000	-0,052	-0,135
246,859	264,588	-0,174	-0,210
247,874	110,454	-0,160	-0,133
248,888	483,285	-0,143	-0,226
249,903	768,541	-0,140	-0,264
250,917	-109,629	-0,164	-0,024
251,932	-200,000	-0,061	-0,280
252,947	329,147	-0,095	-0,127
253,961	-63,681	-0,251	-0,071
254,976	23,212	-0,111	-0,063
255,990	380,487	-0,090	-0,128
257,005	315,918	-0,137	-0,179
258,020	-52,064	-0,100	0,032
259,034	-60,627	-0,191	0,055
260,049	62,592	-0,174	-0,120
261,063	-69,023	-0,295	-0,078
262,078	108,143	-0,232	-0,191
263,093	290,963	-0,159	-0,199
264,107	292,025	-0,111	-0,139
265,122	-200,000	-0,016	-0,053
266,136	229,098	-0,143	-0,162
267,151	-30,159	-0,117	-0,046
268,166	184,128	-0,158	-0,161
269,180	-141,444	-0,129	-0,009
270,195	-95,041	-0,235	0,043
271,209	-10,418	-0,153	-0,070
272,224	800,000	-0,138	-0,270
273,239	360,971	-0,192	-0,265
274,253	82,528	-0,211	-0,158
275,268	-68,166	-0,273	-0,073
276,282	169,617	-0,137	-0,135
277,297	50,883	-0,174	-0,113
278,312	195,935	-0,161	-0,169
279,326	-200,000	-0,020	-0,254
280,341	800,000	-0,067	-0,141
281,355	800,000	-0,093	-0,191
282,370	233,237	-0,158	-0,180
283,384	-34,292	-0,252	-0,095
284,399	800,000	-0,068	-0,137
285,414	-43,297	-0,228	-0,079
286,428	-89,283	-0,284	-0,057
287,443	669,109	-0,057	-0,102
288,457	-77,625	-0,158	-0,037
289,472	61,877	-0,153	-0,105
290,487	351,256	-0,147	-0,200
291,501	86,874	-0,141	-0,107
292,516	-10,003	-0,280	-0,128
293,530	146,835	-0,226	-0,209
294,545	-58,849	-0,041	0,012
295,560	-200,000	-0,053	-0,182
296,574	-119,212	-0,119	-0,014
297,589	25,564	-0,086	-0,049
298,603	117,533	-0,192	-0,163
299,618	159,742	-0,113	-0,108
300,633	-71,130	-0,172	-0,044
301,647	95,023	-0,056	-0,044
302,662	-65,671	-0,073	0,020
303,676	66,958	-0,003	-0,002
304,691	-2,794	-0,324	-0,155
305,706	676,717	-0,100	-0,180
306,720	0,739	-0,131	-0,064
307,735	-200,000	0,011	-0,126
308,749	-134,464	-0,156	-0,013
309,764	-46,108	-0,121	0,041
310,779	433,288	-0,116	-0,174
311,793	96,937	-0,156	-0,123
312,808	48,137	-0,238	-0,153
313,822	-149,788	-0,208	-0,011
314,837	132,932	-0,093	-0,082
315,852	800,000	-0,043	-0,116
316,866	88,844	-0,105	-0,080
317,881	800,000	-0,058	-0,144
318,895	-200,000	-0,031	-0,093
319,910	279,790	-0,216	-0,265
320,925	-118,927	-0,144	-0,017
321,939	273,631	-0,129	-0,157
322,954	147,631	-0,165	-0,153
323,968	-54,215	-0,196	-0,061
324,983	-43,545	-0,149	0,051
325,997	-46,022	-0,203	-0,068
327,012	159,445	-0,218	-0,208
328,027	-200,000	-0,067	-0,270
329,041	-200,000	0,012	-0,161
330,056	-200,000	-0,012	-0,102
331,070	-30,547	-0,201	-0,078
332,085	756,814	0,040	-0,075
333,100	206,717	-0,060	0,064
334,114	474,482	-0,072	-0,112
335,129	-19,781	-0,186	-0,078
336,143	-131,324	-0,120	0,011
337,158	695,840	-0,139	-0,251
338,173	-200,000	0,030	-0,196
339,187	800,000	-0,048	-0,138
340,202	70,562	-0,154	-0,109
341,216	800,000	-0,058	-0,154
342,231	211,601	-0,163	-0,176
343,246	28,923	-0,221	-0,128
344,260	312,442	-0,138	-0,178
345,275	-127,321	0,061	-0,006
346,289	-200,000	0,004	-0,026
347,304	275,399	-0,125	-0,152
348,319	-42,727	-0,098	0,034
349,333	117,152	-0,218	-0,183
350,348	800,000	-0,095	-0,181
351,362	-86,288	-0,168	-0,035
352,377	31,705	-0,125	-0,074
353,392	-5,880	-0,113	-0,053
354,406	380,182	-0,039	-0,055
355,421	206,758	1314,119	1402,370
356,435	159,030	1474,735	1402,862
