DTS Sentinel unit serial number:	SN410029Multiplexer serial number:	ORYXHardware model number:	OX2-SRSoftware version number:	ORYX F/W v4,00 Oryx Data Collector v3.7.2.0data status	okinstallation	B3 Nyhavnadifferential loss correction	single-endedforward channel	channel 1reverse channel	N/Adate	2023/12/03time	06:22:30forward acquisition time	300,00reverse acquisition time	0,00gamma	499,1914k internal	0,3201k external	0,3201temperature offset calibration	1,0000default loss term (dB/km)	0,3820temperature slope calibration	1,0000multiplexer offset coefficient	1,0000multiplexer slope coefficient	1,0000fibre end	0,00T internal ref (°C)	13,31T ext. ref 1 (°C)	-1,73T ext. ref 2 (°C)	-1,74length (m)	temperature (°C)	Stokes	anti-Stokes-744,400	69,030	-0,291	-0,217
-743,385	800,000	0,126	0,303
-742,371	233,330	-0,133	-0,159
-741,356	-200,000	0,078	0,363
-740,342	24,607	-0,224	-0,134
-739,327	509,703	0,127	0,215
-738,312	-200,000	-0,050	-0,294
-737,298	800,000	-0,079	0,249
-736,283	186,415	-0,173	-0,187
-735,269	-200,000	0,018	0,387
-734,254	142,166	-0,220	-0,212
-733,239	120,278	-0,252	0,228
-732,225	800,000	-0,100	-0,213
-731,210	-87,739	0,128	0,028
-730,196	82,405	-0,059	-0,047
-729,181	28,041	-0,037	0,022
-728,167	-50,871	-0,038	-0,013
-727,152	-124,465	0,116	-0,013
-726,137	16,288	0,071	0,041
-725,123	789,098	-0,034	-0,068
-724,108	-119,019	0,060	-0,008
-723,094	78,467	0,127	-0,098
-722,079	-46,676	-0,054	0,019
-721,064	-165,794	0,045	0,001
-720,050	800,000	0,030	0,062
-719,035	-200,000	0,004	0,042
-718,021	-200,000	0,004	0,034
-717,006	177,236	0,060	0,063
-715,991	-9,697	-0,159	0,076
-714,977	242,185	-0,097	-0,118
-713,962	215,297	-0,043	-0,050
-712,948	-58,041	-0,136	0,043
-711,933	263,874	-0,096	0,122
-710,918	125,685	0,028	-0,025
-709,904	87,412	-0,087	-0,070
-708,889	-184,731	-0,135	-0,002
-707,875	-200,000	0,006	-0,024
-706,860	-200,000	-0,005	0,059
-705,845	800,000	-0,022	-0,046
-704,831	-144,709	0,201	-0,013
-703,816	17,173	-0,103	0,059
-702,802	223,805	-0,083	0,097
-701,787	-200,000	-0,054	-0,221
-700,772	-99,319	-0,173	-0,031
-699,758	-200,000	0,016	-0,060
-698,743	-56,086	-0,049	-0,016
-697,729	-127,750	0,105	-0,011
-696,714	-200,000	-0,031	0,112
-695,699	-39,460	-0,024	0,009
-694,685	38,428	0,087	-0,056
-693,670	-200,000	0,007	-0,096
-692,656	-118,670	-0,108	-0,014
-691,641	-86,416	0,071	0,016
-690,627	800,000	0,022	0,056
-689,612	-200,000	-0,041	0,178
-688,597	-43,262	0,100	0,037
-687,583	419,769	-0,100	-0,156
-686,568	3,167	-0,055	-0,029
-685,554	794,431	-0,038	-0,076
-684,539	800,000	0,042	0,123
-683,524	122,598	0,093	0,084
-682,510	-130,617	0,048	-0,005
-681,495	-200,000	-0,006	0,066
-680,481	-200,000	-0,017	-0,056
-679,466	-200,000	-0,017	-0,094
-678,451	156,579	0,025	0,025
-677,437	-200,000	0,021	0,084
-676,422	-200,000	0,001	0,155
-675,408	-200,000	0,020	0,135
-674,393	152,856	-0,076	-0,075
-673,378	-100,362	-0,090	-0,016
-672,364	-132,162	0,045	0,004
-671,349	171,453	-0,115	-0,120
-670,335	-200,000	0,001	0,072
-669,320	-15,555	-0,048	-0,022
-668,305	-182,403	0,109	-0,001
-667,291	55,275	-0,203	0,142
-666,276	2,097	-0,021	-0,011
-665,262	-85,078	0,122	-0,027
-664,247	207,499	-0,086	0,098
-663,232	218,325	-0,101	-0,117
-662,218	-0,888	0,107	-0,055
-661,203	24,949	-0,022	-0,013
-660,189	-200,000	0,013	-0,188
-659,174	-98,627	0,047	0,009
-658,159	-60,082	-0,138	0,042
-657,145	-200,000	0,005	0,080
-656,130	-200,000	0,010	-0,090
-655,116	-200,000	-0,003	0,129
-654,101	800,000	-0,019	0,045
-653,086	-80,649	-0,139	0,033
-652,072	27,490	-0,045	0,028
-651,057	800,000	-0,057	-0,130
-650,043	42,168	-0,059	-0,039
-649,028	10,925	0,045	-0,025
-648,014	-45,858	0,114	-0,041
-646,999	648,708	0,013	0,024
-645,984	-20,207	-0,115	-0,051
-644,970	-106,009	0,052	0,008
-643,955	228,227	-0,065	0,077
-642,941	140,355	-0,170	-0,162
-641,926	162,956	0,093	0,094
-640,911	-200,000	0,008	-0,106
-639,897	-90,394	0,025	-0,005
-638,882	800,000	0,051	-0,123
-637,868	228,766	0,022	-0,026
-636,853	-200,000	0,012	0,082
-635,838	-200,000	-0,001	-0,024
-634,824	475,581	-0,061	-0,100
-633,809	0,516	0,140	0,072
-632,795	235,540	0,059	0,071
-631,780	152,191	-0,084	0,083
-630,765	-60,524	-0,006	0,002
-629,751	9,724	-0,040	0,022
-628,736	187,208	0,030	0,032
-627,722	-200,000	-0,016	-0,070
-626,707	135,872	0,138	-0,130
-625,692	-200,000	-0,005	-0,128
-624,678	1,434	-0,088	0,046
-623,663	-200,000	-0,011	0,081
-622,649	14,066	-0,031	-0,018
-621,634	-117,673	-0,082	-0,011
-620,619	-64,402	-0,106	-0,031
-619,605	-200,000	0,012	0,162
-618,590	-4,034	0,111	0,056
-617,576	-37,324	0,045	-0,017
-616,561	800,000	-0,029	0,073
-615,546	743,097	-0,037	-0,072
-614,532	800,000	0,027	-0,062
-613,517	315,392	0,098	0,134
-612,503	-200,000	-0,030	-0,100
-611,488	-161,527	0,159	0,006
-610,474	-200,000	-0,012	0,107
-609,459	-60,069	0,049	-0,015
-608,444	83,956	-0,014	0,011
-607,430	287,522	-0,012	-0,016
-606,415	329,192	0,019	-0,026
-605,401	282,754	0,051	-0,066
-604,386	-200,000	0,027	-0,099
-603,371	522,085	-0,070	0,119
-602,357	-200,000	0,040	-0,164
-601,342	-16,872	-0,110	-0,050
-600,328	-11,882	-0,163	-0,077
-599,313	340,312	-0,116	-0,164
-598,298	219,112	0,064	-0,074
-597,284	659,655	0,057	-0,106
-596,269	157,091	0,092	0,092
-595,255	-135,794	-0,154	0,013
-594,240	142,486	0,045	-0,043
-593,225	-200,000	-0,007	-0,035
-592,211	450,255	-0,043	0,068
-591,196	-13,409	-0,115	-0,054
-590,182	-14,086	-0,113	-0,053
-589,167	-200,000	-0,024	0,080
-588,152	800,000	-0,044	0,093
-587,138	-200,000	-0,010	0,191
-586,123	800,000	-0,023	-0,057
-585,109	-106,784	0,140	0,022
-584,094	128,495	-0,047	-0,043
-583,079	-55,198	0,065	0,021
-582,065	261,617	0,082	0,103
-581,050	-142,362	0,054	0,004
-580,036	-200,000	-0,011	-0,059
-579,021	-95,382	0,030	-0,006
-578,006	49,556	-0,061	0,041
-576,992	61,280	-0,057	0,041
-575,977	-40,690	-0,096	-0,036
-574,963	352,715	0,089	0,128
-573,948	109,785	-0,075	0,065
-572,934	119,765	-0,076	0,068
-571,919	-200,000	0,012	-0,115
-570,904	800,000	-0,024	0,053
-569,890	-200,000	-0,030	-0,118
-568,875	151,001	-0,132	0,130
-567,861	-200,000	0,021	-0,067
-566,846	-200,000	0,011	-0,112
-565,831	671,879	0,070	0,131
-564,817	-200,000	-0,011	-0,062
-563,802	82,638	-0,081	-0,063
-562,788	65,903	-0,079	-0,058
-561,773	64,055	0,142	0,103
-560,758	-200,000	-0,024	0,117
-559,744	61,706	0,030	0,022
-558,729	-103,955	-0,043	-0,007
-557,715	-200,000	0,022	-0,089
-556,700	-62,062	-0,085	0,026
-555,685	-200,000	0,012	0,046
-554,671	156,093	0,061	-0,060
-553,656	-200,000	0,020	-0,096
-552,642	-82,347	-0,050	0,012
-551,627	-18,522	0,178	0,080
-550,612	800,000	-0,028	-0,064
-549,598	-200,000	-0,035	-0,132
-548,583	-200,000	-0,003	0,018
-547,569	-26,605	-0,086	-0,036
-546,554	800,000	0,053	0,112
-545,539	-182,009	-0,159	-0,002
-544,525	800,000	-0,039	0,115
-543,510	-200,000	-0,026	-0,106
-542,496	353,251	0,049	-0,071
-541,481	-46,353	0,078	-0,027
-540,466	-122,164	0,056	-0,006
-539,452	-40,908	0,099	0,037
-538,437	207,845	-0,115	0,130
-537,423	-89,839	-0,129	-0,027
-536,408	149,931	-0,059	-0,058
-535,393	43,775	0,112	-0,074
-534,379	74,700	-0,155	-0,117
-533,364	-104,268	-0,009	0,001
-532,350	-200,000	0,001	0,003
-531,335	181,775	0,066	0,070
-530,321	271,337	0,037	0,048
-529,306	800,000	-0,070	-0,152
-528,291	800,000	0,006	0,015
-527,277	800,000	-0,066	0,152
-526,262	142,944	0,044	0,042
-525,248	-7,325	-0,049	-0,024
-524,233	212,331	-0,021	0,024
-523,218	-47,901	-0,090	0,031
-522,204	54,717	-0,061	-0,042
-521,189	800,000	-0,052	-0,144
-520,175	-60,962	0,042	-0,013
-519,160	74,069	-0,040	0,030
-518,145	800,000	0,087	-0,180
-517,131	331,650	-0,125	-0,174
-516,116	38,487	-0,071	0,046
-515,102	-200,000	0,001	-0,061
-514,087	800,000	-0,036	-0,108
-513,072	800,000	0,015	-0,040
-512,058	193,041	0,079	-0,086
-511,043	800,000	0,045	-0,121
-510,029	62,293	0,108	-0,077
-509,014	125,136	-0,077	0,070
-507,999	408,342	-0,071	0,108
-506,985	661,341	0,040	0,074
-505,970	179,458	0,013	-0,014
-504,956	269,310	-0,140	-0,177
-503,941	800,000	0,032	-0,094
-502,926	-63,409	0,109	0,032
-501,912	800,000	0,014	0,034
-500,897	233,666	-0,031	-0,037
-499,883	-19,719	-0,128	-0,057
-498,868	-100,655	-0,043	0,008
-497,853	-21,066	0,067	-0,029
-496,839	-11,950	0,130	0,061
-495,824	4,424	0,068	0,036
-494,810	-34,616	-0,033	0,013
-493,795	291,546	-0,057	-0,075
-492,781	100,372	-0,076	-0,063
-491,766	93,508	-0,078	-0,064
-490,751	800,000	-0,081	-0,177
-489,737	-85,784	-0,014	-0,003
-488,722	-14,882	0,137	0,063
-487,708	800,000	-0,017	-0,050
-486,693	123,617	-0,058	0,052
-485,678	121,201	-0,065	-0,058
-484,664	-18,453	-0,115	0,051
-483,649	-54,767	-0,161	-0,052
-482,635	619,424	0,033	0,059
-481,620	-104,211	0,068	0,011
-480,605	800,000	-0,055	0,130
-479,591	-200,000	-0,026	0,162
-478,576	329,446	-0,065	-0,090
-477,562	-200,000	0,032	0,127
-476,547	22,943	0,179	0,106
-475,532	800,000	-0,090	-0,184
-474,518	7,239	-0,116	0,062
-473,503	226,643	0,071	0,083
-472,489	91,269	-0,081	0,065
-471,474	-125,448	-0,108	-0,012
-470,459	522,106	0,043	-0,073
-469,445	-5,081	-0,135	-0,067
-468,430	800,000	-0,010	-0,022
-467,416	44,989	0,083	0,055
-466,401	385,449	0,038	0,056
-465,386	27,013	0,118	0,071
-464,372	390,158	-0,064	0,096
-463,357	-93,205	-0,042	0,008
-462,343	682,300	-0,083	0,156
-461,328	-200,000	0,007	-0,120
-460,313	-42,432	-0,134	-0,049
-459,299	443,799	0,132	0,208
-458,284	-200,000	-0,000	0,130
-457,270	-134,325	-0,070	-0,006
-456,255	-200,000	0,015	-0,130
-455,241	623,911	-0,091	-0,166
-454,226	-200,000	-0,030	-0,140
-453,211	506,297	0,028	-0,047
-452,197	54,074	0,078	0,054
-451,182	-64,059	0,090	-0,026
-450,168	148,535	-0,067	0,065
-449,153	-200,000	0,001	-0,030
-448,138	-200,000	0,018	0,082
-447,124	71,764	-0,100	0,074
-446,109	338,847	0,100	-0,141
-445,095	-104,173	0,076	-0,013
-444,080	800,000	0,039	-0,084
-443,065	115,818	-0,027	0,024
-442,051	-200,000	0,008	-0,043
-441,036	-135,671	-0,141	0,012
-440,022	405,763	0,011	-0,017
-439,007	-200,000	0,011	0,048
-437,992	46,742	0,082	0,054
-436,978	132,416	0,054	0,050
-435,963	-200,000	-0,004	0,159
-434,949	800,000	-0,022	0,052
-433,934	-200,000	-0,010	-0,117
-432,919	-106,841	0,107	0,017
-431,905	43,064	0,071	0,047
-430,890	285,692	0,041	0,053
-429,876	-61,586	0,074	0,022
-428,861	-97,186	-0,045	0,008
-427,846	255,796	-0,074	-0,091
-426,832	403,811	-0,035	-0,054
-425,817	132,483	0,071	-0,066
-424,803	186,171	-0,044	-0,047
-423,788	312,330	0,052	-0,071
-422,773	-200,000	-0,008	0,139
-421,759	-101,161	0,150	0,026
-420,744	-200,000	-0,001	-0,097
-419,730	354,222	-0,075	-0,107
-418,715	-200,000	-0,034	0,114
-417,701	-200,000	0,013	0,056
-416,686	125,970	0,044	0,040
-415,671	800,000	-0,014	-0,041
-414,657	13,528	-0,105	0,058
-413,642	162,733	-0,031	0,031
-412,628	37,752	0,106	-0,067
-411,613	800,000	0,034	-0,105
-410,598	-88,931	-0,155	0,033
-409,584	800,000	-0,013	-0,027
-408,569	348,190	0,019	-0,027
-407,555	-46,248	0,056	-0,020
-406,540	448,450	0,065	-0,103
-405,525	46,026	-0,029	0,019
-404,511	-200,000	0,006	0,128
-403,496	495,999	0,096	-0,159
-402,482	474,752	-0,043	0,070
-401,467	88,667	0,199	0,159
-400,452	800,000	-0,049	0,121
-399,438	254,979	-0,079	0,097
-398,423	-200,000	0,032	0,126
-397,409	716,218	-0,080	-0,152
-396,394	-52,326	0,082	-0,027
-395,379	-94,721	-0,103	-0,020
-394,365	800,000	0,035	0,079
-393,350	-84,724	0,161	0,036
-392,336	17,268	0,178	0,101
-391,321	-45,861	-0,066	-0,023
-390,306	-182,579	0,111	-0,001
-389,292	-56,844	0,052	-0,016
-388,277	800,000	-0,021	-0,050
-387,263	-107,519	0,094	-0,015
-386,248	-200,000	-0,003	0,152
-385,233	800,000	-0,084	0,203
-384,219	-200,000	0,009	-0,106
-383,204	-200,000	0,008	-0,107
-382,190	500,609	-0,025	-0,041
-381,175	187,080	-0,032	-0,034
-380,160	-200,000	0,006	0,069
-379,146	800,000	-0,058	0,126
-378,131	-200,000	0,007	-0,031
-377,117	209,564	-0,043	0,048
-376,102	800,000	-0,033	0,074
-375,088	800,000	0,027	0,057
-374,073	-200,000	-0,023	-0,084
-373,058	142,539	0,078	0,075
-372,044	-34,668	0,047	0,018
-371,029	44,341	-0,009	-0,006
-370,015	-200,000	0,039	-0,130
-369,000	800,000	-0,030	0,069
-367,985	-41,372	0,193	-0,071
-366,971	800,000	0,041	-0,102
-365,956	-200,000	0,011	0,077
-364,942	333,487	0,091	0,126
-363,927	41,479	-0,099	0,064
-362,912	297,770	-0,019	-0,026
-361,898	-200,000	0,001	0,032
-360,883	256,014	-0,044	-0,054
-359,869	-148,063	-0,052	-0,003
-358,854	-200,000	-0,005	0,112
-357,839	-23,973	0,110	0,047
-356,825	607,423	0,047	-0,085
-355,810	-151,585	0,094	-0,005
-354,796	11,652	-0,013	0,007
-353,781	-165,300	-0,060	-0,002
-352,766	-146,128	-0,056	0,004
-351,752	60,601	-0,115	-0,082
-350,737	-200,000	-0,023	0,084
-349,723	-72,460	0,099	0,026
-348,708	800,000	0,038	-0,094
-347,693	-151,935	-0,100	0,005
-346,679	261,276	-0,070	-0,087
-345,664	464,908	0,080	-0,129
-344,650	-200,000	-0,000	0,027
-343,635	158,999	-0,048	0,048
-342,620	388,882	0,009	0,013
-341,606	85,718	0,072	-0,057
-340,591	-66,686	-0,088	-0,025
-339,577	43,759	-0,161	0,105
-338,562	-29,421	0,130	-0,053
-337,548	700,393	-0,054	-0,101
-336,533	66,325	0,092	-0,067
-335,518	-200,000	-0,034	0,182
-334,504	-7,259	0,079	0,038
-333,489	775,099	-0,021	-0,041
-332,475	-22,598	-0,079	-0,034
-331,460	-31,044	0,036	-0,015
-330,445	800,000	0,066	-0,167
-329,431	356,907	-0,039	-0,055
-328,416	800,000	-0,064	0,130
-327,402	800,000	0,030	0,072
-326,387	308,950	0,042	-0,057
-325,372	48,567	0,107	-0,071
-324,358	-99,247	-0,097	-0,017
-323,343	100,272	0,062	-0,051
-322,329	742,055	0,108	0,209
-321,314	-103,493	-0,138	-0,023
-320,299	-87,489	0,044	-0,009
-319,285	486,930	-0,008	-0,012
-318,270	647,362	-0,034	0,062
-317,256	2,760	0,004	0,002
-316,241	61,632	0,054	-0,038
-315,226	-11,888	0,105	-0,049
-314,212	-14,885	0,128	0,059
-313,197	800,000	0,079	0,207
-312,183	450,256	-0,069	-0,109
-311,168	203,971	0,035	-0,038
-310,153	-126,053	0,059	-0,006
-309,139	-18,226	-0,172	-0,076
-308,124	184,837	0,045	0,048
-307,110	800,000	0,022	-0,063
-306,095	-200,000	-0,021	0,135
-305,080	-122,284	-0,114	-0,013
-304,066	800,000	0,055	-0,128
-303,051	-200,000	0,017	-0,152
-302,037	-200,000	0,017	-0,139
-301,022	-127,295	-0,065	-0,007
-300,008	-6,086	-0,033	0,016
-298,993	-200,000	-0,005	0,022
-297,978	-13,572	0,125	-0,058
-296,964	580,549	0,041	-0,073
-295,949	-124,698	-0,092	-0,010
-294,935	-200,000	-0,007	-0,111
-293,920	-200,000	-0,013	0,103
-292,905	135,250	0,011	0,011
-291,891	66,145	0,079	0,057
-290,876	165,865	-0,068	-0,069
-289,862	-95,766	-0,133	-0,025
-288,847	731,043	-0,028	-0,054
-287,832	-200,000	-0,040	0,153
-286,818	145,621	-0,027	-0,026
-285,803	523,200	-0,020	0,033
-284,789	-200,000	0,001	-0,017
-283,774	-200,000	-0,036	0,133
-282,759	543,400	0,023	0,039
-281,745	-200,000	-0,006	0,033
-280,730	800,000	-0,051	-0,134
-279,716	800,000	-0,010	0,023
-278,701	-37,267	0,105	0,040
-277,686	-200,000	-0,019	0,141
-276,672	-80,701	-0,170	0,040
-275,657	-125,949	-0,089	-0,009
-274,643	-200,000	-0,009	0,040
-273,628	163,886	-0,025	0,025
-272,613	-200,000	-0,005	-0,085
-271,599	188,732	-0,101	0,108
-270,584	-157,660	0,020	0,001
-269,570	3,457	-0,081	0,042
-268,555	-200,000	-0,009	0,046
-267,540	-200,000	0,015	-0,139
-266,526	-200,000	0,004	0,024
-265,511	69,978	-0,089	0,066
-264,497	53,862	0,139	0,095
-263,482	171,845	0,031	-0,032
-262,467	-7,331	0,094	0,045
-261,453	-200,000	-0,029	0,097
-260,438	-86,477	-0,022	0,005
-259,424	104,610	0,050	-0,042
-258,409	-49,349	-0,156	-0,053
-257,395	-105,478	-0,121	-0,019
-256,380	-80,505	0,210	-0,050
-255,365	-98,055	0,104	-0,019
-254,351	-112,046	-0,080	0,011
-253,336	211,279	0,056	-0,063
-252,322	61,146	-0,136	-0,097
-251,307	-63,535	0,072	0,021
-250,292	-72,201	-0,099	0,026
-249,278	-63,447	0,104	0,030
-248,263	-200,000	0,002	0,047
-247,249	-200,000	0,007	-0,125
-246,234	800,000	-0,037	-0,084
-245,219	231,516	-0,046	0,054
-244,205	36,293	0,061	-0,039
-243,190	65,203	-0,029	-0,021
-242,176	38,981	-0,049	-0,031
-241,161	72,031	0,054	0,040
-240,146	800,000	-0,012	0,033
-239,132	-72,142	-0,188	0,049
-238,117	-24,766	0,113	-0,048
-237,103	347,281	-0,043	0,061
-236,088	10,615	-0,086	0,047
-235,073	-9,891	0,134	-0,063
-234,059	360,676	0,068	0,098
-233,044	-200,000	-0,083	0,263
-232,030	-106,037	-0,156	0,025
-231,015	438,883	0,040	-0,062
-230,000	-200,000	-0,025	-0,095
-228,986	-90,572	-0,117	-0,024
-227,971	24,230	0,221	-0,130
-226,957	25,258	-0,100	-0,059
-225,942	-146,273	0,116	-0,007
-224,927	444,163	0,046	-0,072
-223,913	-200,000	-0,014	-0,060
-222,898	231,832	-0,063	0,074
-221,884	-104,716	0,103	0,017
-220,869	800,000	0,013	0,036
-219,855	-200,000	-0,047	0,290
-218,840	145,553	0,052	0,049
-217,825	-15,509	-0,235	-0,107
-216,811	-113,347	0,134	-0,019
-215,796	147,792	0,059	0,057
-214,782	-71,061	-0,060	-0,016
-213,767	-200,000	-0,013	0,065
-212,752	-200,000	0,005	0,062
-211,738	-100,348	0,051	-0,009
-210,723	-200,000	-0,019	0,086
-209,709	-30,928	0,063	-0,025
-208,694	11,674	0,136	-0,074
-207,679	-37,766	0,142	-0,054
-206,665	-88,513	0,117	0,025
-205,650	-76,797	0,154	0,038
-204,636	190,346	-0,089	0,095
-203,621	-92,287	0,051	-0,010
-202,606	-66,812	-0,075	0,021
-201,592	410,287	0,100	-0,152
-200,577	-44,803	0,095	0,034
-199,563	-200,000	0,051	0,163
-198,548	16,959	-0,057	0,032
-197,533	800,000	0,041	-0,082
-196,519	115,646	0,071	-0,062
-195,504	-200,000	-0,034	-0,166
-194,490	800,000	0,039	0,093
-193,475	185,344	-0,055	-0,058
-192,460	322,864	-0,048	0,065
-191,446	-200,000	-0,005	0,065
-190,431	-33,377	0,126	0,049
-189,417	-68,788	0,056	0,015
-188,402	228,267	-0,155	0,179
-187,387	-56,633	0,134	0,042
-186,373	-34,634	-0,109	-0,042
-185,358	367,766	-0,088	-0,127
-184,344	-148,898	-0,071	0,004
-183,329	60,639	0,102	0,072
-182,315	-89,753	0,043	-0,009
-181,300	97,872	-0,035	-0,028
-180,285	123,118	0,097	-0,086
-179,271	-72,792	-0,135	-0,035
-178,256	185,417	-0,027	-0,029
-177,242	373,986	-0,017	0,025
-176,227	274,992	0,090	0,113
-175,212	45,311	-0,043	0,028
-174,198	61,874	-0,078	-0,055
-173,183	800,000	-0,064	-0,153
-172,169	127,064	-0,045	-0,040
-171,154	-86,509	-0,027	0,006
-170,139	-145,833	-0,050	-0,003
-169,125	28,710	0,191	0,114
-168,110	342,408	-0,052	-0,073
-167,096	443,470	0,041	-0,064
-166,081	800,000	0,014	0,029
-165,066	-200,000	0,008	0,119
-164,052	289,368	-0,067	0,086
-163,037	-123,878	-0,078	0,009
-162,023	138,836	0,096	-0,090
-161,008	355,322	0,018	-0,025
-159,993	-135,659	0,109	-0,009
-158,979	-0,045	0,040	0,020
-157,964	102,054	0,069	0,057
-156,950	142,555	0,080	0,076
-155,935	125,967	0,089	0,080
-154,920	-200,000	0,030	-0,103
-153,906	22,292	0,166	0,096
-152,891	60,461	0,038	0,027
-151,877	-200,000	-0,021	0,081
-150,862	-200,000	-0,002	0,052
-149,847	278,180	-0,124	-0,157
-148,833	224,178	0,104	0,120
-147,818	-200,000	-0,009	-0,032
-146,804	79,752	0,154	0,117
-145,789	800,000	-0,041	0,093
-144,775	501,030	0,028	0,046
-143,760	139,804	0,050	-0,047
-142,745	-200,000	-0,045	-0,141
-141,731	-192,207	-0,059	-0,000
-140,716	175,506	0,052	-0,054
-139,702	-57,006	-0,090	0,028
-138,687	-200,000	0,000	0,115
-137,672	14,776	-0,058	0,032
-136,658	-200,000	0,023	-0,101
-135,643	-183,162	-0,154	0,002
-134,629	-62,652	0,059	-0,017
-133,614	-200,000	0,032	0,136
-132,599	-117,998	0,055	0,007
-131,585	-200,000	-0,001	0,053
-130,570	773,941	-0,053	0,104
-129,556	91,738	-0,162	-0,129
-128,541	800,000	-0,070	-0,195
-127,526	87,265	0,149	-0,117
-126,512	131,645	0,079	-0,072
-125,497	192,849	0,089	0,095
-124,483	-200,000	-0,001	0,054
-123,468	213,319	0,031	0,035
-122,453	164,299	0,053	0,053
-121,439	-200,000	-0,007	0,039
-120,424	-53,714	0,022	-0,007
-119,410	111,058	0,059	0,050
-118,395	-114,235	0,078	0,011
-117,380	3,635	-0,026	0,014
-116,366	-117,563	0,058	-0,007
-115,351	-46,115	-0,046	0,016
-114,337	800,000	0,048	-0,116
-113,322	-128,885	-0,106	-0,010
-112,307	-87,351	-0,015	-0,003
-111,293	104,930	0,134	0,112
-110,278	-85,229	-0,149	0,033
-109,264	175,648	0,045	0,046
-108,249	312,492	0,056	-0,074
-107,234	-31,862	-0,144	0,057
-106,220	-94,821	0,203	-0,039
-105,205	754,219	-0,055	-0,106
-104,191	-77,760	0,194	0,047
-103,176	-100,568	0,136	0,024
-102,162	25,657	-0,044	0,026
-101,147	800,000	-0,023	-0,059
-100,132	800,000	0,030	0,064
-99,118	-200,000	-0,002	-0,115
-98,103	105,930	-0,122	0,102
-97,089	41,002	0,105	0,067
-96,074	800,000	-0,006	-0,017
-95,059	37,825	-0,084	0,053
-94,045	800,000	0,031	0,068
-93,030	192,156	-0,067	-0,071
-92,016	800,000	0,054	-0,113
-91,001	-163,944	0,159	-0,005
-89,986	-200,000	-0,008	-0,060
-88,972	-15,964	0,064	0,029
-87,957	223,090	0,024	0,028
-86,943	-200,000	-0,022	0,158
-85,928	53,720	0,073	0,049
-84,913	24,772	0,070	-0,041
-83,899	-182,482	0,084	0,001
-82,884	-60,674	0,112	0,033
-81,870	-9,104	0,062	0,029
-80,855	274,728	-0,039	0,049
-79,840	-43,139	0,017	-0,006
-78,826	26,154	0,055	-0,033
-77,811	178,720	-0,090	-0,094
-76,797	6,891	0,081	-0,042
-75,782	-70,186	-0,087	-0,023
-74,767	-200,000	0,041	0,160
-73,753	-71,732	-0,074	-0,019
-72,738	267,153	0,029	0,036
-71,724	-48,034	0,071	0,024
-70,709	800,000	-0,018	-0,047
-69,694	268,350	0,023	0,028
-68,680	-75,375	0,059	-0,015
-67,665	639,976	0,045	-0,082
-66,651	43,316	-0,023	-0,015
-65,636	-200,000	-0,028	-0,121
-64,622	-200,000	0,012	-0,071
-63,607	-200,000	0,027	-0,136
-62,592	140,803	0,090	-0,085
-61,578	800,000	0,039	0,114
-60,563	-200,000	-0,016	-0,055
-59,549	800,000	-0,101	0,276
-58,534	-33,010	-1,607	-0,628
-57,519	369,217	-1,433	-2,059
-56,505	-200,000	-0,433	-4,631
-55,490	176,508	1,060	1,091
-54,476	800,000	4,973	11,425
-53,461	-200,000	19,115	319,653
-52,446	-200,000	740,334	2333,590
-51,432	573,736	1655,313	2869,178
-50,417	78,330	1671,264	1262,084
-49,403	21,301	1544,036	885,565
-48,388	15,160	1466,379	811,166
-47,373	17,960	1456,662	819,288
-46,359	16,659	1446,381	807,233
-45,344	13,421	1441,911	789,200
-44,330	13,376	1439,940	787,874
-43,315	13,357	1438,262	786,831
-42,300	13,433	1436,486	786,192
-41,286	13,396	1435,461	785,425
-40,271	13,360	1433,842	784,335
-39,257	13,343	1432,508	783,493
-38,242	13,377	1431,563	783,105
-37,227	13,384	1430,226	782,376
-36,213	13,377	1428,770	781,518
-35,198	13,366	1427,825	780,919
-34,184	13,465	1426,762	780,776
-33,169	13,411	1425,607	779,854
-32,154	13,427	1424,325	779,200
-31,140	13,464	1423,053	778,649
-30,125	13,412	1422,065	777,831
-29,111	13,454	1420,735	777,270
-28,096	13,437	1419,558	776,517
-27,082	13,328	1418,804	775,558
-26,067	13,385	1417,504	775,083
-25,052	13,354	1416,569	774,396
-24,038	13,300	1415,494	773,524
-23,023	13,333	1414,598	773,161
-22,009	13,283	1413,436	772,259
-20,994	13,281	1412,563	771,744
-19,979	13,294	1411,847	771,380
-18,965	13,298	1410,879	770,841
-17,950	13,265	1409,842	770,090
-16,936	13,249	1409,256	769,661
-15,921	13,193	1407,950	768,657
-14,906	13,262	1406,890	768,369
-13,892	13,296	1405,762	767,881
-12,877	13,214	1405,075	767,093
-11,863	13,210	1404,418	766,686
-10,848	13,213	1403,486	766,159
-9,833	13,119	1402,788	765,312
-8,819	13,187	1401,537	764,917
-7,804	13,163	1400,700	764,317
-6,790	13,197	1399,403	763,736
-5,775	13,206	1398,508	763,260
-4,760	13,186	1397,555	762,614
-3,746	13,116	1396,841	761,871
-2,731	13,104	1396,017	761,337
-1,717	13,121	1395,135	760,904
-0,702	13,082	1393,254	759,665
0,313	16,950	1310,108	732,242
1,327	33,227	703,955	431,079
2,342	51,364	123,406	82,767
3,356	0,179	16,777	8,435
4,371	1,336	3,165	1,603
5,386	-38,516	0,584	0,217
6,400	-200,000	0,057	0,277
7,415	-1,128	-0,131	-0,065
8,429	15,156	-0,360	-0,199
9,444	-24,337	-0,264	-0,111
10,459	-12,045	-0,377	-0,174
11,473	172,607	-0,166	-0,169
12,488	25,793	-0,300	-0,176
13,502	-25,277	-0,210	-0,088
14,517	-67,967	-0,283	-0,077
15,531	230,332	-0,306	-0,354
16,546	186,842	-0,245	-0,258
17,561	111,697	-0,380	-0,324
18,575	-22,357	-0,154	-0,066
19,590	-23,669	-0,274	-0,116
20,604	-6,416	-0,195	-0,094
21,619	78,125	-0,320	-0,241
22,634	159,955	-0,381	-0,375
23,648	129,300	-0,413	-0,372
24,663	91,504	-0,389	-0,308
25,677	62,282	-0,337	-0,237
26,692	-84,989	-0,396	-0,087
27,707	269,089	-0,242	-0,300
28,721	109,720	-0,401	-0,339
29,736	30,611	-0,468	-0,282
30,750	64,618	-0,451	-0,320
31,765	2,009	-0,340	-0,173
32,780	105,600	-0,332	-0,277
33,794	152,168	-0,273	-0,263
34,809	157,052	-0,305	-0,298
35,823	-79,104	-0,360	-0,086
36,838	36,166	-0,520	-0,323
37,853	-16,557	-0,482	-0,214
38,867	221,224	-0,289	-0,328
39,882	226,966	-0,337	-0,387
40,896	-37,645	-0,317	-0,118
41,911	-74,893	-0,409	-0,103
42,926	15,323	-0,393	-0,217
43,940	201,043	-0,266	-0,288
44,955	117,365	-0,337	-0,292
45,969	800,000	-0,134	-0,341
46,984	83,968	-0,390	-0,300
47,999	-29,230	-0,343	-0,138
49,013	31,051	-0,236	-0,142
50,028	225,630	-0,334	-0,382
51,042	236,839	-0,328	-0,383
52,057	-23,439	-0,340	-0,143
53,071	88,075	-0,358	-0,279
54,086	36,776	-0,283	-0,176
55,101	-69,119	-0,413	-0,111
56,115	30,872	-0,446	-0,269
57,130	57,683	-0,237	-0,163
58,144	-62,340	-0,499	-0,145
59,159	104,541	-0,329	-0,273
60,174	-2,541	-0,398	-0,195
61,188	93,711	-0,412	-0,328
62,203	-65,667	-0,436	-0,122
63,217	-39,403	-0,400	-0,147
64,232	12,650	-0,347	-0,188
65,247	29,641	-0,481	-0,287
66,261	420,702	-0,320	-0,484
67,276	212,719	-0,234	-0,261
68,290	230,232	-0,219	-0,252
69,305	618,248	-0,216	-0,382
70,320	-97,233	-0,358	-0,065
71,334	-33,033	-0,282	-0,110
72,349	-74,776	-0,322	-0,081
73,363	407,015	-0,206	-0,307
74,378	-67,254	-0,393	-0,108
75,393	280,024	-0,193	-0,243
76,407	73,797	-0,184	-0,136
77,422	-1,533	-0,306	-0,151
78,436	-186,421	-0,288	-0,003
79,451	138,557	-0,331	-0,305
80,466	5,635	-0,294	-0,152
81,480	199,395	-0,314	-0,339
82,495	-42,271	-0,185	-0,066
83,509	-53,228	-0,394	-0,126
84,524	42,248	-0,250	-0,159
85,539	442,990	-0,153	-0,236
86,553	48,856	-0,311	-0,205
87,568	11,934	-0,318	-0,171
88,582	51,634	-0,324	-0,216
89,597	-37,010	-0,221	-0,083
90,611	74,640	-0,236	-0,174
91,626	304,465	-0,204	-0,267
92,641	-159,437	-0,267	-0,010
93,655	57,506	-0,290	-0,198
94,670	66,610	-0,195	-0,139
95,684	121,493	-0,252	-0,220
96,699	225,397	-0,265	-0,302
97,714	-60,696	-0,349	-0,103
98,728	-60,317	-0,274	-0,081
99,743	25,467	-0,290	-0,169
100,757	115,112	-0,325	-0,278
101,772	87,826	-0,355	-0,276
102,787	-40,766	-0,320	-0,115
103,801	57,236	-0,238	-0,162
104,816	-24,021	-0,244	-0,102
105,830	111,846	-0,198	-0,167
106,845	-32,620	-0,250	-0,097
107,860	-40,680	-0,351	-0,127
108,874	31,556	-0,281	-0,169
109,889	112,109	-0,308	-0,261
110,903	88,514	-0,301	-0,234
111,918	244,588	-0,218	-0,257
112,933	-13,135	-0,273	-0,124
113,947	522,964	-0,121	-0,199
114,962	99,717	-0,148	-0,120
115,976	275,808	-0,308	-0,384
116,991	800,000	-0,121	-0,342
118,006	157,627	-0,152	-0,148
119,020	453,988	-0,104	-0,162
120,035	-120,607	-0,296	-0,035
121,049	14,685	-0,198	-0,108
122,064	199,414	-0,148	-0,159
123,079	44,613	-0,250	-0,160
124,093	163,262	-0,347	-0,342
125,108	75,150	-0,348	-0,256
126,122	114,415	-0,291	-0,248
127,137	267,412	-0,126	-0,155
128,151	85,602	-0,202	-0,155
129,166	-59,841	-0,249	-0,074
130,181	-39,247	-0,370	-0,135
131,195	219,580	-0,234	-0,263
132,210	54,902	-0,325	-0,219
133,224	158,620	-0,220	-0,213
134,239	68,128	-0,180	-0,129
135,254	-6,349	-0,234	-0,111
136,268	-94,849	-0,303	-0,057
137,283	-82,958	-0,196	-0,044
138,297	407,143	-0,228	-0,338
139,312	-73,810	-0,286	-0,072
140,327	15,864	-0,253	-0,139
141,341	38,100	-0,253	-0,157
142,356	39,330	-0,322	-0,201
143,370	104,186	-0,215	-0,177
144,385	171,866	-0,225	-0,226
145,400	-2,588	-0,253	-0,123
146,414	10,487	-0,233	-0,124
147,429	16,016	-0,263	-0,144
148,443	100,798	-0,154	-0,125
149,458	15,165	-0,292	-0,159
150,473	368,388	-0,225	-0,319
151,487	27,095	-0,199	-0,116
152,502	172,782	-0,162	-0,163
153,516	22,110	-0,280	-0,159
154,531	227,165	-0,265	-0,301
155,546	14,937	-0,263	-0,143
156,560	-84,453	-0,337	-0,074
157,575	-40,854	-0,273	-0,098
158,589	70,695	-0,176	-0,127
159,604	728,277	-0,159	-0,297
160,619	355,709	-0,232	-0,323
161,633	162,053	-0,120	-0,118
162,648	201,633	-0,175	-0,188
163,662	-128,374	-0,196	0,019
164,677	-82,037	-0,289	-0,065
165,692	51,137	-0,173	-0,114
166,706	495,690	-0,178	-0,286
167,721	91,638	-0,344	-0,270
168,735	190,807	-0,240	-0,251
169,750	107,369	-0,200	-0,166
170,764	-24,557	-0,238	-0,098
171,779	145,798	-0,162	-0,151
172,794	-84,086	-0,255	-0,056
173,808	1,388	-0,214	-0,107
174,823	112,118	-0,187	-0,157
175,837	-22,961	-0,337	-0,141
176,852	-18,908	-0,277	-0,120
177,867	80,917	-0,159	-0,119
178,881	28,116	-0,081	-0,047
179,896	16,479	-0,215	-0,118
180,910	258,825	-0,129	-0,156
181,925	14,043	-0,251	-0,136
182,940	-9,885	-0,287	-0,133
183,954	278,466	-0,118	-0,147
184,969	87,039	-0,273	-0,210
185,983	15,069	-0,231	-0,125
186,998	87,033	-0,215	-0,165
188,013	-25,504	-0,251	-0,103
189,027	-10,645	-0,334	-0,153
190,042	53,952	-0,312	-0,208
191,056	-31,861	-0,267	-0,104
192,071	-200,000	-0,061	-0,227
193,086	81,430	-0,210	-0,158
194,100	114,937	-0,233	-0,197
195,115	330,725	-0,151	-0,203
196,129	417,360	-0,126	-0,188
197,144	-200,000	-0,010	-0,312
198,159	25,869	-0,241	-0,139
199,173	-107,794	-0,219	-0,033
200,188	69,776	-0,220	-0,158
201,202	-45,157	-0,129	-0,044
202,217	-200,000	0,005	-0,220
203,232	84,338	-0,232	-0,176
204,246	263,476	-0,163	-0,197
205,261	170,643	-0,165	-0,164
206,275	103,147	-0,298	-0,243
207,290	145,779	-0,200	-0,186
208,304	-3,660	-0,148	-0,071
209,319	72,453	-0,236	-0,171
210,334	159,146	-0,113	-0,109
211,348	-24,054	-0,291	-0,120
212,363	447,709	-0,185	-0,284
213,377	800,000	-0,106	-0,223
214,392	194,532	-0,106	-0,112
215,407	697,518	-0,130	-0,238
216,421	95,439	-0,234	-0,185
217,436	210,148	-0,158	-0,173
218,450	291,034	-0,221	-0,279
219,465	111,247	-0,212	-0,177
220,480	800,000	-0,096	-0,193
221,494	169,463	-0,192	-0,191
222,509	-134,189	-0,187	0,016
223,523	-200,000	-0,018	-0,137
224,538	-15,602	-0,171	-0,075
225,553	48,953	-0,255	-0,166
226,567	102,201	-0,258	-0,209
227,582	246,603	-0,174	-0,204
228,596	245,720	-0,112	-0,131
229,611	23,254	-0,202	-0,115
230,626	-28,043	-0,167	-0,067
231,640	80,696	-0,192	-0,144
232,655	194,960	-0,143	-0,151
233,669	-35,358	-0,261	-0,098
234,684	149,158	-0,238	-0,224
235,699	103,283	-0,179	-0,146
236,713	156,086	-0,188	-0,180
237,728	153,184	-0,186	-0,176
238,742	-17,889	-0,174	-0,075
239,757	-59,330	-0,149	-0,044
240,772	800,000	-0,096	-0,289
241,786	58,781	-0,256	-0,174
242,801	13,331	-0,206	-0,110
243,815	525,150	-0,040	-0,066
244,830	-63,817	-0,099	-0,028
245,844	513,413	-0,140	-0,227
246,859	-22,070	-0,190	-0,079
247,874	141,631	-0,210	-0,192
248,888	62,632	-0,144	-0,100
249,903	74,970	-0,108	-0,079
250,917	479,350	-0,082	-0,129
251,932	296,372	-0,116	-0,147
252,947	69,668	-0,107	-0,076
253,961	138,083	-0,175	-0,158
254,976	87,561	-0,240	-0,183
255,990	19,502	-0,238	-0,132
257,005	148,262	-0,193	-0,180
258,020	231,208	-0,142	-0,161
259,034	48,698	-0,150	-0,097
260,049	-70,389	-0,197	-0,051
261,063	140,993	-0,082	-0,075
262,078	81,495	-0,166	-0,124
263,093	593,571	-0,120	-0,205
264,107	-24,707	-0,179	-0,073
265,122	-173,630	-0,068	0,001
266,136	128,468	-0,229	-0,202
267,151	94,659	-0,250	-0,196
268,166	23,269	-0,329	-0,186
269,180	63,019	-0,170	-0,118
270,195	800,000	-0,120	-0,261
271,209	201,989	-0,120	-0,128
272,224	-145,201	-0,150	0,009
273,239	800,000	-0,095	-0,183
274,253	124,413	-0,128	-0,111
275,268	-137,132	-0,267	0,021
276,282	128,884	-0,149	-0,131
277,297	151,061	-0,104	-0,098
278,312	-55,101	-0,226	-0,070
279,326	127,934	-0,107	-0,094
280,341	121,880	-0,101	-0,087
281,355	800,000	-0,064	-0,130
282,370	182,799	-0,261	-0,266
283,384	204,146	-0,194	-0,208
284,399	135,666	-0,260	-0,234
285,414	12,108	-0,195	-0,103
286,428	114,720	-0,234	-0,197
287,443	-126,810	-0,151	0,015
288,457	7,325	-0,162	-0,083
289,472	-158,903	-0,179	0,007
290,487	56,242	-0,167	-0,112
291,501	120,735	-0,242	-0,208
292,516	25,387	-0,223	-0,127
293,530	-55,060	-0,071	0,022
294,545	57,722	-0,117	-0,079
295,560	528,430	-0,089	-0,145
296,574	136,448	-0,189	-0,170
297,589	-102,035	-0,167	0,027
298,603	257,002	-0,173	-0,205
299,618	-4,213	-0,203	-0,097
300,633	74,368	-0,106	-0,077
301,647	182,042	-0,130	-0,132
302,662	-68,374	-0,080	-0,021
303,676	-141,705	-0,114	-0,008
304,691	-100,746	-0,228	-0,038
305,706	-88,019	-0,131	-0,027
306,720	43,004	-0,214	-0,134
307,735	-200,000	-0,038	-0,202
308,749	408,920	-0,152	-0,222
309,764	800,000	-0,078	-0,153
310,779	28,090	-0,118	-0,069
311,793	-62,511	-0,122	-0,035
312,808	678,559	-0,098	-0,176
313,822	-39,145	-0,329	-0,118
314,837	-152,819	-0,175	-0,008
315,852	-200,000	-0,067	-0,203
316,866	719,546	-0,071	-0,131
317,881	800,000	-0,059	-0,119
318,895	-86,369	-0,244	-0,051
319,910	197,699	-0,152	-0,160
320,925	358,011	-0,087	-0,120
321,939	-13,520	-0,181	-0,081
322,954	-80,802	-0,093	0,021
323,968	68,843	-0,221	-0,156
324,983	-186,296	-0,196	-0,002
325,997	-4,891	-0,179	-0,084
327,012	229,665	-0,093	-0,105
328,027	243,534	-0,164	-0,190
329,041	20,143	-0,234	-0,129
330,056	129,462	-0,131	-0,115
331,070	243,223	-0,102	-0,118
332,085	-126,230	-0,037	-0,004
333,100	-54,035	-0,128	-0,040
334,114	-103,299	-0,040	0,006
335,129	-164,217	-0,179	0,006
336,143	251,013	-0,133	-0,156
337,158	324,200	-0,049	-0,064
338,173	775,497	-0,095	-0,179
339,187	25,422	-0,108	-0,062
340,202	22,149	-0,112	-0,062
341,216	-200,000	-0,238	0,000
342,231	354,357	-0,123	-0,169
343,246	159,395	-0,066	-0,063
344,260	800,000	-0,052	-0,132
345,275	-86,344	-0,137	0,029
346,289	75,583	-0,105	0,076
347,304	35,836	-0,131	-0,079
348,319	11,051	-0,161	-0,084
349,333	111,035	-0,120	-0,099
350,348	-66,384	-0,180	-0,049
351,362	169,844	-0,160	-0,157
352,377	-61,675	-0,073	-0,021
353,392	57,875	-0,067	-0,045
354,406	-200,000	0,014	-0,203
355,421	209,709	1311,746	1412,416
356,435	161,415	1472,106	1412,920
