DTS Sentinel unit serial number:	SN410029Multiplexer serial number:	ORYXHardware model number:	OX2-SRSoftware version number:	ORYX F/W v4,00 Oryx Data Collector v3.7.2.0data status	okinstallation	B3 Nyhavnadifferential loss correction	single-endedforward channel	channel 1reverse channel	N/Adate	2023/11/30time	19:57:30forward acquisition time	300,00reverse acquisition time	0,00gamma	499,1914k internal	0,3207k external	0,3207temperature offset calibration	1,0000default loss term (dB/km)	0,3820temperature slope calibration	1,0000multiplexer offset coefficient	1,0000multiplexer slope coefficient	1,0000fibre end	0,00T internal ref (°C)	11,62T ext. ref 1 (°C)	-3,74T ext. ref 2 (°C)	-3,87length (m)	temperature (°C)	Stokes	anti-Stokes-744,400	240,570	-0,197	-0,239
-743,385	754,755	0,158	0,312
-742,371	-200,000	0,007	-0,142
-741,356	800,000	0,157	0,372
-740,342	800,000	-0,114	-0,271
-739,327	194,329	0,191	0,211
-738,312	157,082	-0,185	-0,185
-737,298	-200,000	-0,001	0,184
-736,283	93,983	-0,282	-0,232
-735,269	-200,000	0,073	0,394
-734,254	68,033	-0,314	-0,233
-733,239	-128,947	-0,108	0,011
-732,225	89,449	-0,149	-0,120
-731,210	359,304	0,049	0,071
-730,196	800,000	0,022	-0,052
-729,181	203,576	-0,026	0,029
-728,167	364,178	-0,038	0,055
-727,152	638,180	0,067	0,124
-726,137	162,998	-0,100	-0,102
-725,123	-147,915	-0,083	-0,005
-724,108	-108,938	-0,076	0,012
-723,094	-69,529	0,109	0,030
-722,079	-61,977	-0,109	-0,033
-721,064	-48,777	-0,032	0,011
-720,050	82,902	-0,080	0,063
-719,035	-51,909	0,113	0,038
-718,021	800,000	-0,028	-0,070
-717,006	-131,185	-0,017	0,002
-715,991	653,429	-0,027	-0,050
-714,977	-200,000	-0,001	-0,043
-713,962	-200,000	0,018	0,112
-712,948	-97,469	0,027	-0,005
-711,933	-200,000	-0,001	-0,108
-710,918	800,000	-0,033	0,080
-709,904	-126,321	-0,229	-0,024
-708,889	-200,000	-0,028	-0,142
-707,875	-84,348	0,087	0,020
-706,860	800,000	0,042	-0,097
-705,845	144,357	0,066	0,064
-704,831	-112,667	-0,091	0,013
-703,816	124,186	-0,042	0,038
-702,802	-100,680	-0,074	0,013
-701,787	112,156	0,053	-0,046
-700,772	190,718	-0,056	0,061
-699,758	800,000	-0,031	-0,064
-698,743	15,209	0,050	-0,028
-697,729	-72,798	0,051	-0,014
-696,714	-11,674	-0,057	-0,027
-695,699	-200,000	-0,007	0,102
-694,685	460,369	-0,110	-0,178
-693,670	766,182	-0,028	-0,056
-692,656	800,000	0,043	0,091
-691,641	96,165	0,073	0,060
-690,627	-183,667	-0,151	-0,002
-689,612	92,400	-0,041	0,033
-688,597	321,102	-0,055	-0,076
-687,583	87,435	0,063	-0,051
-686,568	-163,952	-0,127	-0,004
-685,554	-200,000	-0,011	-0,052
-684,539	454,165	0,095	0,152
-683,524	-200,000	-0,006	0,145
-682,510	91,426	-0,115	-0,094
-681,495	-28,941	-0,004	0,002
-680,481	-200,000	-0,035	-0,114
-679,466	7,415	-0,047	-0,026
-678,451	131,511	-0,065	-0,060
-677,437	45,285	-0,082	-0,054
-676,422	-200,000	0,006	0,029
-675,408	30,170	-0,061	-0,038
-674,393	217,873	-0,055	0,063
-673,378	68,391	-0,033	0,025
-672,364	76,403	-0,093	0,071
-671,349	1,157	0,065	-0,034
-670,335	-81,778	-0,117	-0,028
-669,320	800,000	-0,018	-0,046
-668,305	438,123	0,087	-0,138
-667,291	-156,929	-0,048	-0,002
-666,276	620,880	0,026	-0,047
-665,262	-200,000	0,026	-0,097
-664,247	-200,000	-0,005	-0,065
-663,232	-200,000	-0,003	0,053
-662,218	-107,502	0,067	0,010
-661,203	72,772	0,027	0,020
-660,189	800,000	-0,018	0,041
-659,174	80,638	-0,070	-0,054
-658,159	395,212	-0,073	-0,111
-657,145	-200,000	0,003	0,046
-656,130	-200,000	-0,025	-0,127
-655,116	-152,739	0,019	0,001
-654,101	800,000	0,025	0,058
-653,086	76,616	0,122	0,094
-652,072	-68,082	0,059	0,017
-651,057	-200,000	0,021	-0,089
-650,043	203,342	-0,072	-0,080
-649,028	-200,000	-0,025	-0,185
-648,014	-123,420	-0,040	0,005
-646,999	67,228	0,074	0,055
-645,984	-200,000	-0,004	0,064
-644,970	-154,322	-0,187	0,009
-643,955	5,539	-0,043	-0,023
-642,941	128,362	-0,060	0,056
-641,926	-200,000	0,028	0,107
-640,911	800,000	-0,011	0,028
-639,897	2,382	0,094	0,049
-638,882	-74,579	0,129	-0,033
-637,868	-200,000	0,019	0,109
-636,853	306,270	-0,043	-0,058
-635,838	-200,000	0,029	-0,106
-634,824	452,122	0,035	-0,056
-633,809	-157,646	0,198	-0,008
-632,795	-200,000	-0,014	-0,067
-631,780	-112,432	0,048	-0,007
-630,765	-49,493	-0,060	0,020
-629,751	396,008	-0,029	0,043
-628,736	-200,000	0,000	0,016
-627,722	66,701	-0,015	-0,011
-626,707	-200,000	-0,004	-0,048
-625,692	-47,963	-0,084	-0,029
-624,678	800,000	-0,051	0,112
-623,663	550,469	-0,107	0,187
-622,649	135,839	0,040	-0,038
-621,634	-110,892	-0,167	-0,024
-620,619	-9,623	-0,103	-0,049
-619,605	800,000	-0,038	0,117
-618,590	14,395	0,076	-0,043
-617,576	-200,000	0,025	-0,131
-616,561	-135,954	-0,029	-0,002
-615,546	800,000	-0,022	0,052
-614,532	-95,557	-0,038	0,007
-613,517	-65,283	0,016	-0,005
-612,503	-200,000	0,003	-0,163
-611,488	228,030	0,062	0,073
-610,474	-200,000	0,002	0,043
-609,459	-61,019	-0,005	-0,002
-608,444	562,278	0,037	-0,065
-607,430	-50,490	-0,063	-0,021
-606,415	136,382	-0,074	-0,070
-605,401	800,000	0,055	-0,111
-604,386	564,043	-0,021	-0,037
-603,371	-200,000	0,009	-0,107
-602,357	800,000	0,027	-0,078
-601,342	330,334	0,018	-0,026
-600,328	202,829	-0,067	-0,075
-599,313	-200,000	-0,004	-0,026
-598,298	-151,429	-0,121	-0,006
-597,284	75,469	0,014	-0,010
-596,269	-200,000	-0,002	0,066
-595,255	-12,127	0,071	0,034
-594,240	800,000	-0,018	0,043
-593,225	446,929	-0,059	0,093
-592,211	281,653	-0,094	0,122
-591,196	-145,219	-0,047	0,003
-590,182	-76,986	-0,092	-0,023
-589,167	-200,000	-0,004	0,019
-588,152	39,854	0,023	0,015
-587,138	145,275	-0,071	-0,069
-586,123	800,000	0,009	0,020
-585,109	111,642	-0,040	-0,035
-584,094	-200,000	0,006	-0,094
-583,079	399,864	0,087	0,132
-582,065	-9,064	-0,055	-0,026
-581,050	-200,000	0,017	0,078
-580,036	113,608	0,074	-0,065
-579,021	339,749	0,056	-0,078
-578,006	-2,519	-0,085	0,043
-576,992	-200,000	0,030	-0,099
-575,977	-200,000	0,014	0,054
-574,963	-200,000	0,004	0,198
-573,948	-104,293	-0,131	0,022
-572,934	-200,000	-0,011	-0,043
-571,919	-200,000	-0,026	0,094
-570,904	-23,232	0,083	-0,036
-569,890	118,226	0,075	0,067
-568,875	-50,752	-0,075	0,025
-567,861	-0,210	0,085	-0,043
-566,846	800,000	-0,040	0,104
-565,831	800,000	0,032	-0,102
-564,817	800,000	0,087	0,186
-563,802	156,329	-0,062	-0,062
-562,788	-75,551	-0,027	-0,007
-561,773	355,920	0,038	-0,055
-560,758	-200,000	0,021	-0,087
-559,744	101,807	-0,059	0,050
-558,729	-200,000	-0,040	-0,172
-557,715	800,000	-0,070	-0,154
-556,700	-3,495	-0,144	0,072
-555,685	43,697	0,049	-0,032
-554,671	-200,000	-0,005	-0,018
-553,656	342,932	0,094	0,133
-552,642	161,223	0,056	0,056
-551,627	800,000	0,040	0,120
-550,612	58,375	-0,068	0,048
-549,598	580,770	0,012	0,021
-548,583	493,124	-0,067	0,112
-547,569	-116,396	-0,032	0,004
-546,554	-96,172	0,038	-0,007
-545,539	35,834	0,059	0,037
-544,525	-102,475	0,108	-0,018
-543,510	-47,952	0,021	-0,007
-542,496	-7,964	-0,099	-0,048
-541,481	-200,000	0,000	0,002
-540,466	195,116	-0,099	0,108
-539,452	800,000	-0,013	0,032
-538,437	589,002	-0,019	-0,035
-537,423	-200,000	0,021	0,074
-536,408	800,000	-0,052	0,159
-535,393	64,123	-0,123	-0,089
-534,379	800,000	-0,036	0,103
-533,364	83,025	0,056	-0,044
-532,350	-200,000	-0,014	-0,106
-531,335	-28,003	0,079	-0,033
-530,321	44,829	-0,099	-0,065
-529,306	-91,032	-0,101	-0,021
-528,291	-200,000	0,020	-0,091
-527,277	159,912	-0,160	-0,160
-526,262	-160,122	-0,073	-0,003
-525,248	-200,000	0,019	0,107
-524,233	-41,207	-0,153	0,057
-523,218	800,000	0,055	0,121
-522,204	-200,000	-0,010	-0,100
-521,189	-200,000	-0,044	0,164
-520,175	-52,034	0,086	-0,029
-519,160	77,010	-0,025	-0,019
-518,145	-200,000	-0,021	-0,133
-517,131	-94,946	0,131	-0,025
-516,116	120,497	0,054	-0,048
-515,102	-125,934	0,090	0,010
-514,087	-21,365	-0,172	0,075
-513,072	81,046	-0,028	0,022
-512,058	-116,700	-0,074	0,010
-511,043	-164,512	-0,055	-0,002
-510,029	800,000	0,029	-0,075
-509,014	-57,192	-0,263	0,083
-507,999	74,761	-0,061	-0,046
-506,985	260,329	0,047	-0,058
-505,970	-99,589	-0,115	-0,021
-504,956	800,000	-0,036	-0,088
-503,941	800,000	-0,045	-0,107
-502,926	-154,008	0,125	0,006
-501,912	-72,838	-0,135	0,035
-500,897	380,700	0,034	-0,050
-499,883	-200,000	-0,016	-0,100
-498,868	256,802	-0,023	-0,028
-497,853	-9,110	-0,096	0,046
-496,839	800,000	0,028	-0,081
-495,824	24,884	0,090	-0,054
-494,810	-43,710	0,164	0,059
-493,795	140,855	-0,068	0,064
-492,781	-182,826	-0,168	0,002
-491,766	-200,000	0,023	-0,086
-490,751	-200,000	0,014	-0,120
-489,737	800,000	-0,038	0,079
-488,722	-13,129	0,071	-0,033
-487,708	-200,000	-0,056	0,188
-486,693	714,224	0,051	0,097
-485,678	-200,000	-0,019	0,120
-484,664	-14,633	0,117	0,054
-483,649	-131,610	-0,123	-0,011
-482,635	800,000	0,010	-0,027
-481,620	-56,736	0,121	0,038
-480,605	-200,000	0,002	0,036
-479,591	-200,000	-0,002	0,095
-478,576	144,803	0,055	-0,052
-477,562	59,895	0,123	-0,087
-476,547	190,335	-0,053	-0,057
-475,532	-200,000	-0,013	-0,060
-474,518	-101,632	0,141	0,024
-473,503	54,001	0,067	0,046
-472,489	-200,000	0,028	0,099
-471,474	800,000	0,020	0,053
-470,459	14,756	0,049	-0,027
-469,445	-89,797	0,079	0,017
-468,430	-200,000	0,010	-0,035
-467,416	-48,659	-0,020	-0,007
-466,401	-84,232	-0,054	-0,012
-465,386	35,379	-0,068	0,043
-464,372	274,347	0,079	0,101
-463,357	49,960	-0,084	-0,057
-462,343	800,000	-0,026	-0,079
-461,328	45,486	-0,018	-0,012
-460,313	-11,020	0,019	0,009
-459,299	7,175	0,075	0,040
-458,284	-200,000	0,032	0,171
-457,270	481,258	0,128	0,210
-456,255	-134,896	-0,017	0,001
-455,241	-11,267	-0,058	0,027
-454,226	-148,474	0,070	0,004
-453,211	-200,000	0,012	-0,130
-452,197	-76,819	0,121	0,030
-451,182	612,962	-0,044	0,079
-450,168	251,454	-0,032	-0,039
-449,153	-200,000	0,006	-0,078
-448,138	170,054	-0,011	0,011
-447,124	-138,797	-0,150	0,012
-446,109	281,396	-0,055	0,071
-445,095	-200,000	-0,002	-0,058
-444,080	55,496	0,040	-0,028
-443,065	529,700	0,047	-0,080
-442,051	-93,049	0,053	0,011
-441,036	800,000	0,037	-0,091
-440,022	386,880	0,019	-0,028
-439,007	-65,166	0,079	0,023
-437,992	635,914	-0,044	0,081
-436,978	-66,583	0,088	0,025
-435,963	-32,359	0,154	-0,061
-434,949	75,726	-0,125	-0,095
-433,934	-23,812	0,054	-0,023
-432,919	-22,230	0,209	-0,091
-431,905	-108,102	0,117	-0,018
-430,890	64,639	0,058	0,042
-429,876	35,522	0,065	-0,041
-428,861	-11,804	-0,080	-0,038
-427,846	-131,767	-0,133	-0,012
-426,832	150,807	-0,021	0,021
-425,817	-22,057	-0,109	-0,047
-424,803	-200,000	0,001	0,071
-423,788	-200,000	0,011	-0,068
-422,773	-200,000	0,004	0,102
-421,759	427,727	-0,048	0,074
-420,744	-105,206	0,031	0,005
-419,730	82,957	-0,027	0,021
-418,715	-179,908	-0,042	-0,001
-417,701	-52,458	0,067	0,022
-416,686	360,160	0,137	0,197
-415,671	-200,000	0,036	0,179
-414,657	-60,401	0,015	-0,004
-413,642	3,165	-0,109	0,057
-412,628	311,519	-0,037	0,049
-411,613	-200,000	-0,006	-0,115
-410,598	415,731	0,082	-0,126
-409,584	-109,645	0,088	-0,013
-408,569	186,975	0,102	0,109
-407,555	800,000	0,013	-0,035
-406,540	84,401	-0,051	-0,040
-405,525	79,813	-0,093	0,071
-404,511	800,000	0,052	-0,161
-403,496	364,237	-0,063	0,090
-402,482	109,230	0,070	-0,060
-401,467	536,901	-0,063	-0,108
-400,452	13,284	0,063	0,035
-399,438	478,278	0,024	-0,040
-398,423	55,059	-0,174	-0,120
-397,409	390,243	-0,039	-0,058
-396,394	-84,170	-0,086	0,019
-395,379	-200,000	-0,007	0,130
-394,365	-180,599	0,076	0,001
-393,350	-200,000	-0,036	0,132
-392,336	-200,000	0,002	-0,007
-391,321	800,000	0,043	0,100
-390,306	-90,326	-0,080	0,017
-389,292	-200,000	-0,030	-0,108
-388,277	-149,366	0,148	-0,008
-387,263	345,702	-0,030	0,042
-386,248	-43,961	0,093	0,033
-385,233	20,108	0,025	0,014
-384,219	-200,000	0,000	-0,138
-383,204	718,382	-0,075	-0,144
-382,190	-77,008	-0,155	-0,038
-381,175	-200,000	0,014	-0,091
-380,160	103,038	0,151	-0,127
-379,146	256,374	0,073	0,090
-378,131	-200,000	-0,033	-0,212
-377,117	800,000	-0,005	0,014
-376,102	-76,243	0,107	-0,027
-375,088	-17,974	-0,084	0,037
-374,073	79,388	-0,083	-0,064
-373,058	800,000	0,032	0,066
-372,044	212,785	0,073	0,082
-371,029	333,867	0,023	-0,033
-370,015	328,586	-0,080	0,110
-369,000	800,000	0,055	0,143
-367,985	53,945	0,082	0,056
-366,971	176,436	0,062	-0,064
-365,956	-103,393	0,078	0,013
-364,942	42,293	0,138	0,089
-363,927	-200,000	0,015	0,101
-362,912	-16,418	0,187	-0,084
-361,898	89,034	-0,061	-0,048
-360,883	-200,000	0,004	0,034
-359,869	-136,968	-0,044	0,004
-358,854	-200,000	0,025	0,155
-357,839	-200,000	-0,018	0,095
-356,825	-145,289	0,087	-0,006
-355,810	-90,946	0,037	0,008
-354,796	800,000	-0,074	-0,172
-353,781	221,332	-0,057	-0,066
-352,766	-78,290	0,174	0,042
-351,752	800,000	0,056	0,123
-350,737	-200,000	-0,008	-0,087
-349,723	103,743	0,126	0,105
-348,708	-200,000	-0,030	0,219
-347,693	14,822	0,084	-0,047
-346,679	248,931	-0,051	-0,062
-345,664	-200,000	-0,015	-0,050
-344,650	-200,000	-0,009	-0,121
-343,635	-200,000	0,017	0,102
-342,620	166,925	0,113	0,115
-341,606	800,000	0,099	-0,249
-340,591	-162,416	-0,071	0,002
-339,577	-200,000	-0,001	-0,116
-338,562	-200,000	-0,028	-0,154
-337,548	266,108	-0,070	-0,087
-336,533	800,000	0,020	0,044
-335,518	76,830	0,105	0,079
-334,504	384,402	-0,072	0,106
-333,489	800,000	-0,024	0,052
-332,475	-200,000	0,026	-0,081
-331,460	-16,331	0,007	0,003
-330,445	3,244	-0,079	0,041
-329,431	149,645	0,020	0,019
-328,416	216,564	0,033	0,038
-327,402	225,010	0,123	-0,143
-326,387	800,000	-0,042	-0,093
-325,372	-97,215	0,036	0,007
-324,358	56,913	-0,054	-0,037
-323,343	5,081	0,095	-0,050
-322,329	342,503	-0,047	-0,065
-321,314	-171,974	0,052	-0,001
-320,299	-200,000	-0,011	0,055
-319,285	-124,706	0,205	0,022
-318,270	-176,061	-0,098	0,002
-317,256	-200,000	-0,008	0,109
-316,241	800,000	0,024	-0,064
-315,226	78,702	0,020	0,016
-314,212	-200,000	0,006	0,022
-313,197	-36,422	-0,073	0,028
-312,183	-87,817	0,164	0,035
-311,168	35,860	-0,193	-0,121
-310,153	128,421	-0,013	-0,011
-309,139	-5,974	0,081	-0,039
-308,124	-162,639	-0,067	-0,002
-307,110	347,915	0,082	0,116
-306,095	-200,000	-0,043	0,000
-305,080	-18,533	0,035	0,016
-304,066	374,983	0,045	-0,066
-303,051	-134,841	-0,099	0,008
-302,037	-76,386	-0,071	0,018
-301,022	-200,000	-0,012	0,162
-300,008	-200,000	0,022	0,147
-298,993	-200,000	-0,025	0,106
-297,978	-30,408	0,108	0,043
-296,964	125,675	-0,045	0,040
-295,949	137,951	-0,130	0,122
-294,935	-51,792	0,051	-0,017
-293,920	22,147	0,050	-0,029
-292,905	146,432	-0,044	0,042
-291,891	520,221	0,023	-0,038
-290,876	100,672	-0,094	-0,078
-289,862	800,000	-0,012	0,034
-288,847	494,740	-0,018	-0,030
-287,832	118,861	-0,122	0,108
-286,818	-67,521	-0,035	-0,010
-285,803	-194,103	-0,025	-0,000
-284,789	123,343	0,030	0,027
-283,774	-22,108	-0,052	0,022
-282,759	-149,951	0,034	0,002
-281,745	490,752	0,057	0,094
-280,730	51,079	0,032	0,022
-279,716	800,000	-0,041	-0,126
-278,701	800,000	-0,017	-0,054
-277,686	800,000	-0,048	0,118
-276,672	-49,740	0,045	0,015
-275,657	105,518	-0,123	-0,103
-274,643	-200,000	0,015	-0,048
-273,628	-200,000	-0,026	0,087
-272,613	43,604	0,064	-0,042
-271,599	39,055	0,121	0,077
-270,584	114,497	0,060	-0,052
-269,570	-170,743	-0,053	0,001
-268,555	800,000	0,011	0,025
-267,540	190,177	-0,081	-0,087
-266,526	-200,000	0,003	-0,101
-265,511	119,644	-0,060	0,053
-264,497	800,000	-0,030	0,068
-263,482	48,342	0,130	0,087
-262,467	-102,283	-0,041	-0,007
-261,453	13,301	-0,081	0,044
-260,438	-80,656	-0,057	0,014
-259,424	367,480	-0,058	0,084
-258,409	-105,856	-0,081	-0,013
-257,395	192,737	0,080	-0,086
-256,380	110,198	0,059	-0,050
-255,365	-200,000	-0,031	0,204
-254,351	326,968	0,024	0,033
-253,336	167,574	-0,136	-0,138
-252,322	-200,000	0,016	-0,132
-251,307	-200,000	0,047	-0,233
-250,292	-200,000	0,015	-0,148
-249,278	-57,285	-0,024	0,008
-248,263	800,000	0,053	0,156
-247,249	5,354	0,051	0,027
-246,234	-90,607	0,004	0,001
-245,219	71,865	-0,049	0,037
-244,205	511,735	0,015	-0,025
-243,190	-78,302	0,050	-0,012
-242,176	-200,000	0,028	0,129
-241,161	202,186	0,050	-0,055
-240,146	-200,000	0,039	-0,163
-239,132	-200,000	-0,009	0,077
-238,117	-200,000	-0,008	0,201
-237,103	66,128	0,067	-0,049
-236,088	800,000	-0,033	-0,066
-235,073	611,834	-0,038	0,067
-234,059	-200,000	0,001	-0,092
-233,044	-76,655	-0,090	-0,022
-232,030	-200,000	0,003	0,061
-231,015	800,000	0,040	-0,105
-230,000	481,545	-0,032	-0,052
-228,986	-200,000	-0,031	-0,224
-227,971	4,695	0,132	0,069
-226,957	-31,573	-0,062	0,025
-225,942	441,935	-0,040	-0,063
-224,927	691,025	-0,020	0,038
-223,913	800,000	0,014	-0,028
-222,898	-1,659	0,046	-0,023
-221,884	-77,947	-0,150	-0,037
-220,869	800,000	0,034	-0,104
-219,855	-200,000	0,001	0,082
-218,840	-100,791	0,063	-0,011
-217,825	-200,000	0,037	-0,155
-216,811	214,254	0,069	-0,078
-215,796	155,739	0,054	0,053
-214,782	-36,808	-0,055	-0,021
-213,767	-90,448	0,128	-0,026
-212,752	-122,244	0,081	0,009
-211,738	349,713	-0,041	0,058
-210,723	-200,000	0,018	-0,076
-209,709	79,964	-0,047	0,036
-208,694	58,755	-0,020	-0,014
-207,679	-60,507	-0,081	-0,024
-206,665	-200,000	-0,002	-0,046
-205,650	-32,807	0,059	0,023
-204,636	-158,982	-0,070	0,003
-203,621	-200,000	-0,000	-0,031
-202,606	-200,000	-0,010	0,076
-201,592	-95,802	0,129	-0,024
-200,577	-117,834	0,004	-0,000
-199,563	-200,000	-0,016	-0,144
-198,548	234,177	0,057	0,066
-197,533	-200,000	0,020	-0,116
-196,519	800,000	-0,052	-0,121
-195,504	-120,801	-0,231	0,027
-194,490	800,000	-0,063	-0,132
-193,475	-200,000	-0,033	-0,159
-192,460	-28,149	0,081	-0,033
-191,446	104,024	0,109	0,091
-190,431	800,000	0,033	0,072
-189,417	-114,698	0,022	0,003
-188,402	-200,000	0,013	-0,101
-187,387	-156,447	-0,094	-0,004
-186,373	47,678	0,067	-0,044
-185,358	-200,000	0,033	-0,123
-184,344	-31,357	0,108	-0,043
-183,329	-200,000	0,069	0,284
-182,315	-27,618	0,128	0,052
-181,300	9,506	-0,032	0,017
-180,285	-141,625	-0,009	0,001
-179,271	800,000	-0,038	0,085
-178,256	-126,765	-0,076	0,008
-177,242	800,000	0,051	-0,137
-176,227	-177,078	0,147	0,003
-175,212	106,202	-0,047	0,039
-174,198	383,675	-0,088	0,129
-173,183	-137,179	0,107	-0,009
-172,169	549,656	-0,052	-0,090
-171,154	15,649	-0,188	-0,105
-170,139	-200,000	0,002	0,078
-169,125	154,493	-0,052	0,051
-168,110	-11,479	-0,117	0,054
-167,096	-200,000	0,017	0,113
-166,081	669,891	0,017	-0,032
-165,066	-81,693	-0,016	0,004
-164,052	-200,000	-0,016	0,282
-163,037	-46,195	-0,063	0,022
-162,023	800,000	-0,049	0,114
-161,008	800,000	0,040	0,103
-159,993	-140,951	0,046	-0,003
-158,979	800,000	0,033	-0,099
-157,964	-135,650	0,073	-0,006
-156,950	-200,000	-0,002	-0,073
-155,935	-68,319	0,036	-0,010
-154,920	370,870	-0,035	0,050
-153,906	-200,000	-0,035	-0,132
-152,891	-11,716	-0,084	0,039
-151,877	-200,000	-0,007	-0,094
-150,862	-119,982	-0,047	-0,006
-149,847	-20,243	-0,164	0,071
-148,833	54,429	0,069	-0,047
-147,818	-200,000	0,018	-0,094
-146,804	-200,000	-0,010	0,074
-145,789	-23,018	0,078	-0,033
-144,775	-67,044	-0,157	0,044
-143,760	192,157	-0,039	-0,041
-142,745	800,000	0,029	-0,091
-141,731	-113,907	0,058	0,008
-140,716	23,028	-0,038	0,022
-139,702	84,948	-0,038	-0,030
-138,687	-36,452	0,028	0,011
-137,672	393,967	-0,086	-0,128
-136,658	-200,000	0,001	-0,161
-135,643	-200,000	-0,003	-0,123
-134,629	-144,265	-0,086	-0,006
-133,614	-200,000	-0,002	0,076
-132,599	82,112	0,176	0,135
-131,585	-67,232	0,068	0,019
-130,570	68,572	0,123	0,089
-129,556	-29,757	0,030	0,012
-128,541	187,892	0,024	0,025
-127,526	88,488	-0,040	-0,031
-126,512	800,000	0,044	0,126
-125,497	89,413	0,103	0,082
-124,483	-200,000	-0,001	-0,118
-123,468	604,301	0,032	0,057
-122,453	-200,000	-0,002	0,029
-121,439	-133,192	-0,198	0,017
-120,424	69,484	-0,112	-0,082
-119,410	10,678	0,058	-0,031
-118,395	-200,000	0,012	0,062
-117,380	115,667	0,060	-0,052
-116,366	34,197	0,062	0,038
-115,351	77,028	-0,083	-0,062
-114,337	173,417	-0,029	0,030
-113,322	410,698	-0,066	0,100
-112,307	662,592	0,079	-0,145
-111,293	800,000	-0,046	0,093
-110,278	800,000	0,054	0,109
-109,264	-18,796	0,008	-0,004
-108,249	-43,419	-0,071	-0,025
-107,234	-200,000	-0,007	-0,129
-106,220	673,495	0,056	-0,104
-105,205	-181,675	0,189	-0,003
-104,191	-200,000	-0,004	0,066
-103,176	-200,000	0,003	-0,053
-102,162	-98,238	-0,112	0,020
-101,147	800,000	0,013	0,037
-100,132	-200,000	0,032	-0,233
-99,118	23,391	-0,135	-0,078
-98,103	-101,067	0,111	0,019
-97,089	0,834	0,094	0,047
-96,074	543,474	0,035	0,060
-95,059	-77,834	-0,139	0,034
-94,045	315,080	-0,056	-0,075
-93,030	-200,000	0,005	-0,085
-92,016	-58,639	0,152	-0,046
-91,001	-9,223	0,069	0,033
-89,986	800,000	0,042	0,095
-88,972	499,454	0,065	0,107
-87,957	-23,825	0,096	-0,041
-86,943	474,224	0,045	0,072
-85,928	-139,473	0,077	0,006
-84,913	-79,557	-0,089	-0,021
-83,899	-200,000	-0,008	0,029
-82,884	-200,000	0,008	0,061
-81,870	300,530	0,030	-0,040
-80,855	-3,325	0,034	0,017
-79,840	-200,000	0,013	0,074
-78,826	26,965	-0,117	-0,069
-77,811	48,638	-0,126	-0,083
-76,797	48,267	-0,048	-0,032
-75,782	140,889	-0,067	0,062
-74,767	148,853	0,076	0,072
-73,753	-200,000	-0,028	0,127
-72,738	241,783	0,015	0,018
-71,724	-200,000	-0,003	0,068
-70,709	120,645	-0,148	-0,130
-69,694	6,210	-0,010	0,005
-68,680	-161,018	-0,111	-0,004
-67,665	-14,731	0,093	-0,042
-66,651	-128,008	0,063	-0,006
-65,636	-200,000	0,013	-0,091
-64,622	800,000	0,032	-0,072
-63,607	133,058	-0,080	-0,073
-62,592	-60,113	0,074	-0,022
-61,578	800,000	0,054	0,105
-60,563	-95,161	0,164	0,031
-59,549	-200,000	0,013	0,046
-58,534	3,154	-1,975	-1,012
-57,519	419,125	-1,353	-2,053
-56,505	-200,000	-0,402	-4,312
-55,490	345,021	0,925	1,287
-54,476	800,000	5,029	11,556
-53,461	-200,000	20,533	329,695
-52,446	800,000	752,735	2317,407
-51,432	550,875	1659,584	2824,901
-50,417	74,263	1666,673	1235,665
-49,403	19,475	1539,778	872,280
-48,388	13,462	1462,473	799,325
-47,373	18,979	1453,032	820,692
-46,359	16,372	1442,501	802,268
-45,344	11,736	1438,274	777,759
-44,330	11,643	1436,292	776,210
-43,315	11,685	1434,475	775,398
-42,300	11,633	1432,752	774,188
-41,286	11,660	1431,441	773,577
-40,271	11,671	1430,095	772,873
-39,257	11,676	1428,786	772,157
-38,242	11,716	1427,590	771,668
-37,227	11,705	1426,590	771,047
-36,213	11,716	1425,433	770,442
-35,198	11,723	1424,085	769,715
-34,184	11,752	1423,233	769,365
-33,169	11,681	1421,796	768,219
-32,154	11,712	1420,884	767,844
-31,140	11,723	1419,506	767,118
-30,125	11,780	1418,218	766,663
-29,111	11,702	1417,373	765,806
-28,096	11,726	1416,180	765,245
-27,082	11,672	1415,026	764,339
-26,067	11,660	1414,143	763,774
-25,052	11,690	1412,942	763,234
-24,038	11,664	1411,776	762,453
-23,023	11,593	1411,059	761,702
-22,009	11,638	1409,636	761,118
-20,994	11,647	1408,725	760,636
-19,979	11,636	1408,068	760,200
-18,965	11,598	1407,408	759,635
-17,950	11,576	1406,306	758,906
-16,936	11,589	1405,445	758,472
-15,921	11,562	1404,167	757,626
-14,906	11,534	1403,477	757,094
-13,892	11,592	1402,211	756,653
-12,877	11,560	1401,586	756,136
-11,863	11,581	1400,639	755,694
-10,848	11,533	1399,935	755,058
-9,833	11,513	1399,049	754,459
-8,819	11,418	1398,220	753,541
-7,804	11,440	1397,183	753,056
-6,790	11,490	1396,261	752,759
-5,775	11,493	1395,187	752,162
-4,760	11,484	1394,112	751,515
-3,746	11,484	1393,259	751,025
-2,731	11,439	1392,556	750,406
-1,717	11,433	1391,676	749,875
-0,702	11,455	1389,977	749,030
0,313	15,378	1304,159	720,835
1,327	31,610	695,924	421,743
2,342	48,545	121,247	80,088
3,356	0,724	16,489	8,306
4,371	-11,243	3,275	1,518
5,386	6,552	0,870	0,455
6,400	-200,000	0,158	0,593
7,415	495,872	-0,093	-0,151
8,429	286,160	-0,220	-0,281
9,444	55,990	-0,218	-0,149
10,459	-86,379	-0,376	-0,081
11,473	-65,632	-0,247	-0,070
12,488	119,872	-0,225	-0,197
13,502	49,856	-0,394	-0,262
14,517	29,441	-0,387	-0,231
15,531	-6,447	-0,329	-0,158
16,546	58,942	-0,278	-0,192
17,561	110,405	-0,404	-0,342
18,575	42,981	-0,124	-0,080
19,590	108,626	-0,266	-0,224
20,604	-34,727	-0,284	-0,109
21,619	114,455	-0,448	-0,384
22,634	332,207	-0,268	-0,366
23,648	54,086	-0,456	-0,309
24,663	197,454	-0,327	-0,352
25,677	136,764	-0,210	-0,193
26,692	800,000	-0,116	-0,356
27,707	124,463	-0,337	-0,299
28,721	21,973	-0,449	-0,257
29,736	100,736	-0,359	-0,294
30,750	159,844	-0,456	-0,448
31,765	88,017	-0,422	-0,329
32,780	37,401	-0,449	-0,280
33,794	-62,936	-0,311	-0,090
34,809	32,882	-0,393	-0,239
35,823	-46,972	-0,428	-0,146
36,838	29,461	-0,464	-0,277
37,853	36,637	-0,443	-0,275
38,867	20,145	-0,339	-0,192
39,882	17,222	-0,338	-0,188
40,896	-3,848	-0,285	-0,139
41,911	55,322	-0,333	-0,226
42,926	-52,984	-0,418	-0,134
43,940	-49,586	-0,269	-0,090
44,955	220,814	-0,288	-0,325
45,969	94,345	-0,289	-0,231
46,984	24,085	-0,350	-0,203
47,999	9,824	-0,310	-0,165
49,013	504,291	-0,153	-0,250
50,028	66,649	-0,354	-0,253
51,042	53,450	-0,399	-0,269
52,057	-108,902	-0,309	-0,046
53,071	-29,762	-0,501	-0,200
54,086	52,045	-0,281	-0,188
55,101	65,266	-0,380	-0,269
56,115	52,614	-0,303	-0,203
57,130	35,687	-0,304	-0,187
58,144	18,786	-0,388	-0,218
59,159	34,186	-0,277	-0,169
60,174	118,843	-0,328	-0,285
61,188	25,711	-0,408	-0,238
62,203	90,711	-0,312	-0,245
63,217	53,086	-0,274	-0,184
64,232	59,206	-0,363	-0,251
65,247	257,336	-0,249	-0,302
66,261	19,920	-0,272	-0,154
67,276	59,595	-0,333	-0,230
68,290	-16,911	-0,355	-0,157
69,305	-29,577	-0,368	-0,147
70,320	147,048	-0,270	-0,255
71,334	76,794	-0,272	-0,203
72,349	44,153	-0,296	-0,190
73,363	-83,822	-0,388	-0,086
74,378	138,324	-0,312	-0,287
75,393	48,287	-0,379	-0,248
76,407	77,566	-0,346	-0,258
77,422	141,805	-0,293	-0,272
78,436	25,076	-0,363	-0,211
79,451	-68,510	-0,322	-0,087
80,466	-4,943	-0,268	-0,129
81,480	-20,087	-0,332	-0,143
82,495	123,439	-0,350	-0,308
83,509	31,627	-0,364	-0,219
84,524	-96,190	-0,348	-0,064
85,539	-70,212	-0,327	-0,087
86,553	-2,640	-0,252	-0,123
87,568	138,458	-0,309	-0,285
88,582	32,808	-0,205	-0,124
89,597	-39,967	-0,436	-0,159
90,611	-139,006	-0,210	-0,016
91,626	36,709	-0,196	-0,121
92,641	-17,307	-0,325	-0,143
93,655	163,448	-0,275	-0,271
94,670	26,611	-0,348	-0,204
95,684	67,356	-0,361	-0,258
96,699	86,021	-0,315	-0,243
97,714	267,957	-0,207	-0,254
98,728	353,557	-0,214	-0,298
99,743	58,753	-0,157	-0,108
100,757	-21,705	-0,346	-0,147
101,772	41,329	-0,330	-0,208
102,787	-26,559	-0,334	-0,136
103,801	-50,593	-0,297	-0,097
104,816	66,260	-0,333	-0,236
105,830	130,201	-0,148	-0,132
106,845	-16,566	-0,238	-0,105
107,860	189,112	-0,170	-0,179
108,874	64,018	-0,247	-0,173
109,889	92,231	-0,257	-0,203
110,903	0,989	-0,259	-0,129
111,918	131,563	-0,264	-0,238
112,933	38,265	-0,254	-0,158
113,947	729,268	-0,107	-0,201
114,962	141,455	-0,181	-0,168
115,976	156,473	-0,227	-0,220
116,991	396,433	-0,114	-0,167
118,006	-73,323	-0,491	-0,125
119,020	-171,229	-0,295	-0,007
120,035	-10,996	-0,230	-0,106
121,049	100,170	-0,142	-0,115
122,064	92,759	-0,223	-0,176
123,079	92,840	-0,228	-0,180
124,093	168,690	-0,249	-0,248
125,108	-33,723	-0,295	-0,113
126,122	118,930	-0,199	-0,172
127,137	257,286	-0,174	-0,209
128,151	-127,804	-0,290	-0,029
129,166	104,756	-0,180	-0,148
130,181	-44,780	-0,197	-0,068
131,195	32,068	-0,231	-0,139
132,210	120,867	-0,228	-0,198
133,224	325,587	-0,212	-0,283
134,239	81,503	-0,276	-0,208
135,254	-26,576	-0,288	-0,117
136,268	69,786	-0,176	-0,127
137,283	-56,235	-0,159	-0,049
138,297	800,000	-0,160	-0,340
139,312	-2,864	-0,244	-0,119
140,327	193,805	-0,281	-0,297
141,341	-85,637	-0,152	-0,033
142,356	80,100	-0,208	-0,156
143,370	535,860	-0,090	-0,150
144,385	205,035	-0,176	-0,191
145,400	150,356	-0,133	-0,126
146,414	151,237	-0,239	-0,227
147,429	182,791	-0,189	-0,194
148,443	358,641	-0,182	-0,255
149,458	-17,173	-0,190	-0,083
150,473	-159,793	-0,216	-0,008
151,487	-143,818	-0,328	-0,021
152,502	118,073	-0,202	-0,173
153,516	119,781	-0,231	-0,199
154,531	384,994	-0,153	-0,220
155,546	128,265	-0,232	-0,205
156,560	123,815	-0,214	-0,187
157,575	322,982	-0,186	-0,248
158,589	549,794	-0,145	-0,243
159,604	-110,537	-0,240	-0,034
160,619	-78,049	-0,413	-0,098
161,633	-16,247	-0,260	-0,114
162,648	208,736	-0,203	-0,221
163,662	-75,737	-0,218	-0,054
164,677	8,349	-0,152	-0,079
165,692	38,084	-0,205	-0,127
166,706	56,495	-0,258	-0,175
167,721	111,706	-0,258	-0,217
168,735	-46,285	-0,270	-0,092
169,750	-0,894	-0,374	-0,184
170,764	203,983	-0,172	-0,186
171,779	70,526	-0,229	-0,165
172,794	-132,519	-0,237	-0,021
173,808	101,493	-0,312	-0,253
174,823	-29,912	-0,195	-0,077
175,837	358,842	-0,186	-0,259
176,852	800,000	-0,094	-0,188
177,867	42,401	-0,135	-0,085
178,881	8,381	-0,227	-0,118
179,896	-42,314	-0,160	-0,056
180,910	-48,948	-0,243	-0,080
181,925	481,079	-0,206	-0,326
182,940	146,825	-0,198	-0,185
183,954	-110,446	-0,354	-0,051
184,969	120,283	-0,149	-0,129
185,983	-78,085	-0,194	-0,046
186,998	64,001	-0,215	-0,150
188,013	114,166	-0,183	-0,155
189,027	143,944	-0,210	-0,195
190,042	-92,956	-0,229	-0,044
191,056	-37,425	-0,156	-0,057
192,071	-200,000	-0,080	-0,264
193,086	110,116	-0,165	-0,138
194,100	68,143	-0,144	-0,103
195,115	78,117	-0,251	-0,186
196,129	130,811	-0,242	-0,215
197,144	-128,339	-0,231	0,023
198,159	61,599	-0,241	-0,166
199,173	-38,993	-0,323	-0,117
200,188	185,382	-0,135	-0,140
201,202	52,393	-0,154	-0,102
202,217	-65,624	-0,221	-0,061
203,232	98,681	-0,203	-0,162
204,246	60,456	-0,232	-0,159
205,261	221,058	-0,123	-0,137
206,275	-43,371	-0,252	-0,088
207,290	-63,730	-0,150	-0,042
208,304	-16,227	-0,151	-0,066
209,319	-60,419	-0,160	-0,047
210,334	123,580	-0,199	-0,173
211,348	-54,508	-0,303	-0,094
212,363	55,074	-0,188	-0,125
213,377	-58,554	-0,207	-0,062
214,392	167,827	-0,290	-0,286
215,407	-53,737	-0,117	-0,037
216,421	10,119	-0,205	-0,107
217,436	10,991	-0,184	-0,097
218,450	-189,052	-0,199	-0,002
219,465	4,351	-0,216	-0,110
220,480	-20,791	-0,254	-0,108
221,494	438,614	-0,080	-0,121
222,509	-116,642	-0,172	-0,022
223,523	116,872	-0,177	-0,151
224,538	800,000	-0,074	-0,194
225,553	222,276	-0,174	-0,194
226,567	91,100	-0,246	-0,191
227,582	-42,380	-0,109	-0,038
228,596	-16,899	-0,044	-0,019
229,611	222,973	-0,096	-0,107
230,626	-77,796	-0,182	-0,043
231,640	118,936	-0,207	-0,177
232,655	401,330	-0,142	-0,207
233,669	313,877	-0,197	-0,257
234,684	18,427	-0,151	-0,083
235,699	-107,808	-0,162	-0,024
236,713	638,469	-0,130	-0,229
237,728	225,951	-0,126	-0,141
238,742	451,042	-0,112	-0,172
239,757	800,000	-0,102	-0,231
240,772	472,955	-0,177	-0,277
241,786	-39,047	-0,218	-0,079
242,801	241,328	-0,164	-0,189
243,815	-58,009	-0,165	0,050
244,830	-20,337	-0,230	-0,098
245,844	-76,131	-0,146	-0,035
246,859	258,732	-0,118	-0,141
247,874	398,829	-0,081	-0,118
248,888	69,326	-0,207	-0,147
249,903	189,983	-0,149	-0,154
250,917	-53,489	-0,231	-0,073
251,932	-55,970	-0,247	-0,076
252,947	-43,270	-0,189	-0,066
253,961	-56,109	-0,226	-0,069
254,976	-20,834	-0,178	-0,075
255,990	32,901	-0,139	-0,083
257,005	458,512	-0,127	-0,195
258,020	58,877	-0,229	-0,155
259,034	158,315	-0,127	-0,122
260,049	-43,987	-0,137	-0,047
261,063	420,367	-0,071	-0,105
262,078	210,578	-0,141	-0,153
263,093	167,023	-0,192	-0,189
264,107	-105,475	-0,157	-0,024
265,122	800,000	-0,056	-0,127
266,136	225,712	-0,148	-0,166
267,151	-38,995	-0,168	0,061
268,166	226,325	-0,164	-0,184
269,180	-84,772	-0,273	-0,059
270,195	-5,330	-0,166	-0,078
271,209	-89,961	-0,260	-0,052
272,224	13,535	-0,305	-0,163
273,239	39,303	-0,186	-0,115
274,253	-200,000	0,030	-0,167
275,268	800,000	-0,042	-0,107
276,282	70,854	-0,220	-0,157
277,297	118,566	-0,088	-0,075
278,312	-142,297	-0,084	-0,006
279,326	-66,454	-0,092	-0,025
280,341	-143,543	-0,114	-0,007
281,355	-127,775	-0,081	-0,008
282,370	-140,100	-0,132	-0,009
283,384	-46,311	-0,228	-0,077
284,399	130,221	-0,179	-0,158
285,414	175,095	-0,178	-0,178
286,428	-22,227	-0,155	-0,065
287,443	152,958	-0,076	-0,072
288,457	279,743	-0,097	-0,119
289,472	-42,948	-0,199	-0,069
290,487	106,705	-0,128	-0,104
291,501	616,163	-0,123	-0,214
292,516	100,599	-0,154	-0,123
293,530	-24,212	-0,162	-0,066
294,545	-151,538	-0,146	0,007
295,560	418,037	-0,087	-0,128
296,574	98,710	-0,143	-0,114
297,589	-5,238	-0,142	-0,067
298,603	31,523	-0,195	-0,115
299,618	34,367	-0,291	-0,174
300,633	800,000	-0,074	-0,145
301,647	14,128	-0,247	-0,132
302,662	-200,000	-0,024	-0,102
303,676	800,000	0,047	0,110
304,691	800,000	-0,070	-0,145
305,706	8,351	-0,232	-0,120
306,720	65,472	-0,178	-0,124
307,735	-64,311	-0,140	0,039
308,749	152,844	-0,111	-0,104
309,764	104,064	0,038	-0,030
310,779	158,826	-0,055	-0,053
311,793	17,071	-0,143	-0,078
312,808	120,833	-0,080	-0,068
313,822	800,000	-0,045	-0,118
314,837	-200,000	-0,054	-0,197
315,852	-35,237	-0,099	-0,037
316,866	-32,928	0,021	0,008
317,881	-111,543	-0,100	-0,014
318,895	800,000	-0,054	-0,158
319,910	193,093	-0,095	-0,099
320,925	-133,605	-0,267	0,023
321,939	99,218	-0,205	-0,163
322,954	-200,000	-0,022	-0,317
323,968	-200,000	-0,020	-0,111
324,983	183,131	-0,136	-0,138
325,997	290,018	-0,081	-0,101
327,012	92,088	-0,214	-0,166
328,027	-33,340	-0,223	-0,084
329,041	293,664	-0,152	-0,190
330,056	-29,231	-0,189	-0,074
331,070	166,676	-0,055	0,054
332,085	-161,130	-0,046	-0,002
333,100	435,688	-0,042	-0,063
334,114	-15,620	-0,203	-0,088
335,129	364,354	-0,142	-0,196
336,143	800,000	-0,060	-0,159
337,158	194,692	-0,097	-0,101
338,173	140,126	-0,068	-0,062
339,187	-56,911	-0,153	-0,046
340,202	77,060	-0,077	0,056
341,216	56,921	-0,206	-0,137
342,231	-162,578	-0,169	-0,006
343,246	29,627	-0,194	-0,113
344,260	564,485	-0,047	-0,079
345,275	224,917	-0,140	-0,156
346,289	-200,000	-0,068	-0,247
347,304	63,852	-0,135	-0,093
348,319	83,444	-0,089	-0,066
349,333	-21,819	-0,178	-0,074
350,348	-200,000	-0,020	-0,163
351,362	-124,877	-0,110	-0,011
352,377	174,246	-0,114	-0,113
353,392	-119,809	-0,179	-0,021
354,406	238,949	-0,080	-0,092
355,421	207,951	1311,258	1404,074
356,435	159,995	1471,529	1404,561
