DTS Sentinel unit serial number:	SN410029Multiplexer serial number:	ORYXHardware model number:	OX2-SRSoftware version number:	ORYX F/W v4,00 Oryx Data Collector v3.7.2.0data status	okinstallation	B3 Nyhavnadifferential loss correction	single-endedforward channel	channel 1reverse channel	N/Adate	2023/11/29time	13:52:31forward acquisition time	300,00reverse acquisition time	0,00gamma	499,1914k internal	0,3212k external	0,3212temperature offset calibration	1,0000default loss term (dB/km)	0,3820temperature slope calibration	1,0000multiplexer offset coefficient	1,0000multiplexer slope coefficient	1,0000fibre end	0,00T internal ref (°C)	10,60T ext. ref 1 (°C)	-3,39T ext. ref 2 (°C)	-3,52length (m)	temperature (°C)	Stokes	anti-Stokes-744,400	152,270	-0,263	-0,261
-743,385	-200,000	0,048	0,204
-742,371	-200,000	0,009	-0,220
-741,356	-200,000	-0,100	0,362
-740,342	20,904	-0,344	-0,202
-739,327	-200,000	-0,015	0,249
-738,312	-18,219	-0,165	-0,074
-737,298	-200,000	-0,055	0,224
-736,283	172,879	-0,204	-0,213
-735,269	-200,000	0,093	0,383
-734,254	75,180	-0,269	-0,206
-733,239	-23,488	-0,152	0,066
-732,225	-200,000	-0,097	-0,333
-731,210	306,277	0,125	0,168
-730,196	-59,836	-0,037	0,011
-729,181	193,000	0,085	-0,094
-728,167	20,550	0,132	-0,077
-727,152	251,614	0,066	-0,082
-726,137	-96,797	0,017	-0,003
-725,123	307,146	-0,110	-0,149
-724,108	-108,901	-0,254	-0,039
-723,094	-200,000	0,042	-0,146
-722,079	136,732	-0,067	0,064
-721,064	82,172	0,058	-0,046
-720,050	-200,000	0,003	0,041
-719,035	-89,468	-0,114	0,024
-718,021	800,000	0,014	0,033
-717,006	-121,859	-0,095	0,011
-715,991	693,496	-0,017	-0,033
-714,977	-184,658	-0,149	0,002
-713,962	-97,103	-0,095	-0,018
-712,948	-115,820	0,099	0,013
-711,933	373,431	-0,094	-0,139
-710,918	-200,000	0,004	-0,089
-709,904	36,238	-0,185	-0,118
-708,889	-40,858	0,078	0,029
-707,875	159,435	-0,047	-0,047
-706,860	-200,000	0,016	-0,145
-705,845	800,000	0,031	0,096
-704,831	-20,522	0,147	0,065
-703,816	34,781	-0,055	0,035
-702,802	29,858	0,016	0,010
-701,787	98,528	-0,170	-0,141
-700,772	56,216	-0,059	-0,041
-699,758	-8,598	-0,058	-0,028
-698,743	800,000	-0,014	-0,030
-697,729	137,834	0,078	-0,074
-696,714	-200,000	0,008	-0,063
-695,699	-47,411	-0,172	-0,060
-694,685	-99,316	-0,060	0,011
-693,670	478,603	-0,065	-0,108
-692,656	-172,589	-0,061	0,001
-691,641	17,395	-0,034	-0,019
-690,627	800,000	0,055	-0,168
-689,612	35,979	-0,132	0,084
-688,597	77,532	-0,094	-0,072
-687,583	800,000	-0,039	-0,095
-686,568	39,769	0,064	-0,041
-685,554	-102,281	-0,154	-0,026
-684,539	-19,442	0,119	-0,053
-683,524	-152,831	0,185	0,009
-682,510	-200,000	0,015	-0,060
-681,495	193,910	-0,086	-0,094
-680,481	-30,671	0,081	0,033
-679,466	157,742	-0,066	0,066
-678,451	800,000	0,036	-0,089
-677,437	262,529	-0,079	-0,100
-676,422	-76,349	0,011	-0,003
-675,408	-30,278	-0,033	0,013
-674,393	800,000	-0,041	0,085
-673,378	53,815	-0,154	-0,107
-672,364	800,000	-0,041	-0,091
-671,349	-200,000	-0,002	0,027
-670,335	-143,696	-0,098	-0,007
-669,320	-121,860	-0,191	-0,023
-668,305	448,601	0,098	0,157
-667,291	800,000	-0,035	-0,073
-666,276	447,189	-0,036	-0,057
-665,262	-200,000	-0,003	-0,047
-664,247	89,773	-0,191	-0,154
-663,232	23,670	0,103	-0,061
-662,218	-5,894	0,056	-0,028
-661,203	359,731	0,035	-0,051
-660,189	84,980	-0,066	-0,053
-659,174	-200,000	-0,011	-0,064
-658,159	-88,117	-0,221	-0,048
-657,145	800,000	0,045	-0,119
-656,130	62,933	-0,101	0,073
-655,116	-20,496	-0,076	0,034
-654,101	-200,000	-0,031	0,115
-653,086	79,099	-0,044	0,034
-652,072	529,373	-0,031	-0,053
-651,057	238,013	-0,102	-0,123
-650,043	117,342	0,041	0,036
-649,028	-200,000	-0,081	0,000
-648,014	453,269	-0,019	0,031
-646,999	-113,301	0,100	-0,014
-645,984	166,353	-0,067	0,069
-644,970	199,046	-0,065	0,072
-643,955	-7,502	-0,078	-0,038
-642,941	-200,000	0,021	-0,151
-641,926	-57,004	-0,109	-0,034
-640,911	800,000	0,035	0,087
-639,897	509,045	0,027	0,045
-638,882	20,274	0,064	-0,037
-637,868	219,343	0,035	0,041
-636,853	37,193	-0,068	-0,044
-635,838	353,116	-0,122	-0,176
-634,824	800,000	0,067	-0,148
-633,809	-87,450	0,206	0,045
-632,795	-49,030	-0,079	-0,027
-631,780	-124,925	-0,100	0,011
-630,765	133,438	0,012	0,011
-629,751	-200,000	0,033	-0,196
-628,736	492,887	-0,018	0,029
-627,722	-129,153	-0,103	0,010
-626,707	800,000	-0,011	-0,029
-625,692	-71,762	0,033	-0,009
-624,678	-200,000	0,016	0,064
-623,663	705,547	0,042	-0,081
-622,649	67,366	-0,102	0,075
-621,634	307,760	-0,112	-0,151
-620,619	-200,000	0,036	-0,230
-619,605	349,726	0,042	0,060
-618,590	-20,053	-0,013	-0,006
-617,576	212,726	0,069	0,079
-616,561	-79,065	0,071	-0,017
-615,546	800,000	0,070	-0,174
-614,532	-113,555	-0,055	0,008
-613,517	-54,270	0,111	-0,036
-612,503	800,000	0,029	0,071
-611,488	800,000	-0,051	0,124
-610,474	21,860	-0,096	-0,057
-609,459	268,643	0,075	-0,095
-608,444	-121,082	-0,030	0,004
-607,430	187,398	-0,103	-0,111
-606,415	161,371	-0,100	-0,101
-605,401	-200,000	0,003	0,080
-604,386	116,662	0,077	-0,068
-603,371	-66,327	0,020	-0,006
-602,357	332,903	-0,038	-0,053
-601,342	24,406	0,057	0,034
-600,328	-32,406	-0,018	0,007
-599,313	149,890	0,066	0,065
-598,298	-134,076	-0,058	0,005
-597,284	26,798	-0,153	-0,092
-596,269	-200,000	-0,019	0,156
-595,255	155,749	0,077	0,077
-594,240	-200,000	-0,023	0,098
-593,225	94,587	-0,019	-0,016
-592,211	-110,169	-0,129	0,019
-591,196	800,000	-0,049	0,110
-590,182	-200,000	-0,027	0,115
-589,167	92,667	0,077	0,063
-588,152	238,441	0,055	-0,066
-587,138	-65,953	-0,155	-0,044
-586,123	-108,631	-0,062	0,010
-585,109	-175,326	-0,175	-0,003
-584,094	-200,000	0,030	0,152
-583,079	-200,000	-0,002	0,042
-582,065	342,633	0,091	0,128
-581,050	222,284	0,127	0,147
-580,036	434,868	0,044	0,069
-579,021	-200,000	-0,013	0,049
-578,006	-200,000	0,017	-0,065
-576,992	-101,091	-0,097	-0,017
-575,977	-87,824	0,098	0,021
-574,963	-109,265	0,127	0,019
-573,948	749,387	0,012	0,023
-572,934	-104,481	0,080	0,013
-571,919	-200,000	-0,007	-0,082
-570,904	-26,121	-0,139	-0,058
-569,890	48,746	-0,059	0,040
-568,875	-110,294	-0,108	0,016
-567,861	47,587	0,124	0,083
-566,846	-200,000	0,002	0,142
-565,831	43,235	-0,046	-0,030
-564,817	-200,000	0,002	-0,079
-563,802	137,219	0,054	0,051
-562,788	-200,000	0,018	-0,105
-561,773	98,922	-0,103	-0,086
-560,758	217,721	0,088	0,101
-559,744	800,000	-0,020	0,042
-558,729	-98,191	0,134	0,024
-557,715	-41,626	0,064	0,024
-556,700	-25,627	-0,107	-0,045
-555,685	800,000	-0,039	-0,082
-554,671	140,344	0,025	0,024
-553,656	7,293	0,127	-0,068
-552,642	-200,000	0,003	0,106
-551,627	53,621	-0,080	-0,055
-550,612	800,000	0,036	0,089
-549,598	-49,166	-0,119	-0,041
-548,583	-120,031	-0,080	0,010
-547,569	11,220	0,019	0,010
-546,554	20,089	-0,144	0,083
-545,539	151,531	0,079	0,077
-544,525	800,000	-0,024	0,065
-543,510	126,610	0,096	0,088
-542,496	-44,062	-0,213	-0,076
-541,481	-90,321	-0,039	-0,008
-540,466	800,000	0,041	-0,128
-539,452	27,843	-0,052	0,031
-538,437	-200,000	0,120	0,000
-537,423	-200,000	0,004	-0,054
-536,408	-200,000	0,019	-0,078
-535,393	-200,000	0,029	0,159
-534,379	-200,000	-0,001	0,059
-533,364	-200,000	0,019	-0,123
-532,350	17,081	0,034	-0,019
-531,335	-200,000	-0,013	-0,065
-530,321	-200,000	0,000	0,043
-529,306	73,015	-0,117	0,088
-528,291	800,000	-0,001	-0,004
-527,277	44,553	-0,062	-0,041
-526,262	-200,000	0,006	-0,081
-525,248	534,111	-0,011	-0,019
-524,233	-162,851	-0,086	-0,003
-523,218	12,279	0,112	-0,062
-522,204	318,182	0,073	0,099
-521,189	800,000	-0,017	0,042
-520,175	-200,000	0,004	-0,079
-519,160	91,269	0,038	-0,031
-518,145	104,370	-0,048	-0,040
-517,131	-200,000	-0,011	0,051
-516,116	662,123	0,034	0,063
-515,102	-46,914	0,053	0,019
-514,087	-185,268	-0,103	-0,001
-513,072	17,742	0,072	-0,041
-512,058	373,313	0,022	0,033
-511,043	-200,000	0,005	0,113
-510,029	-30,451	0,090	0,037
-509,014	147,251	-0,058	-0,056
-507,999	-41,088	0,092	-0,034
-506,985	47,889	-0,074	0,049
-505,970	53,228	0,060	0,041
-504,956	399,193	-0,064	0,096
-503,941	549,973	-0,048	-0,083
-502,926	-200,000	-0,036	-0,150
-501,912	401,146	0,047	0,072
-500,897	-95,599	0,099	-0,019
-499,883	800,000	-0,051	0,117
-498,868	-200,000	0,030	-0,096
-497,853	-200,000	-0,023	-0,110
-496,839	-200,000	0,010	0,042
-495,824	5,987	-0,094	0,050
-494,810	668,656	0,021	0,039
-493,795	229,756	-0,034	-0,040
-492,781	-200,000	-0,007	-0,075
-491,766	38,042	-0,054	-0,035
-490,751	-200,000	-0,028	-0,120
-489,737	-200,000	-0,002	-0,130
-488,722	241,893	0,081	0,097
-487,708	135,206	0,019	0,017
-486,693	-148,459	0,094	-0,005
-485,678	800,000	0,025	0,057
-484,664	-200,000	0,021	-0,111
-483,649	322,973	0,125	-0,171
-482,635	800,000	0,030	0,077
-481,620	204,180	0,061	0,068
-480,605	-200,000	-0,018	0,114
-479,591	-76,197	0,118	-0,030
-478,576	-134,056	0,057	0,005
-477,562	-200,000	-0,003	-0,056
-476,547	-3,365	-0,053	0,027
-475,532	-200,000	0,011	0,056
-474,518	1,040	0,030	-0,015
-473,503	800,000	0,022	0,058
-472,489	375,516	0,045	0,066
-471,474	609,805	0,079	-0,141
-470,459	800,000	0,027	-0,081
-469,445	-200,000	-0,003	-0,121
-468,430	-183,942	-0,142	0,002
-467,416	79,949	0,069	-0,053
-466,401	-2,939	0,116	0,058
-465,386	224,458	0,090	0,104
-464,372	-200,000	0,018	0,066
-463,357	288,336	-0,130	-0,169
-462,343	-200,000	0,000	-0,095
-461,328	740,258	0,087	-0,168
-460,313	-169,255	0,148	0,004
-459,299	-200,000	-0,048	0,180
-458,284	-200,000	0,007	0,105
-457,270	40,116	0,066	0,043
-456,255	800,000	-0,073	-0,211
-455,241	800,000	-0,043	-0,117
-454,226	406,054	0,082	-0,124
-453,211	-200,000	0,012	0,099
-452,197	-200,000	0,053	0,170
-451,182	-156,759	0,103	-0,004
-450,168	115,925	-0,068	0,060
-449,153	-200,000	-0,029	-0,153
-448,138	61,429	-0,139	-0,099
-447,124	-58,741	-0,021	0,007
-446,109	171,936	0,179	0,184
-445,095	-200,000	-0,002	0,041
-444,080	107,946	-0,027	0,023
-443,065	-176,881	-0,051	-0,001
-442,051	-200,000	0,017	-0,052
-441,036	50,647	-0,118	-0,080
-440,022	-31,873	-0,062	-0,025
-439,007	-145,772	0,030	0,002
-437,992	-95,821	0,107	0,020
-436,978	82,792	-0,095	0,074
-435,963	-200,000	-0,016	0,145
-434,949	-2,476	0,121	0,061
-433,934	-200,000	-0,011	-0,137
-432,919	800,000	0,028	-0,057
-431,905	-159,545	-0,120	-0,005
-430,890	797,507	0,053	-0,105
-429,876	-200,000	-0,024	-0,141
-428,861	-16,676	-0,060	0,027
-427,846	800,000	-0,025	0,050
-426,832	-130,229	-0,202	0,019
-425,817	-34,912	-0,066	0,026
-424,803	-200,000	-0,020	-0,166
-423,788	-55,827	0,131	-0,042
-422,773	-105,317	0,056	0,009
-421,759	800,000	0,005	-0,011
-420,744	800,000	0,057	-0,120
-419,730	-200,000	0,013	0,089
-418,715	800,000	0,074	-0,169
-417,701	-200,000	-0,023	-0,097
-416,686	800,000	0,054	0,123
-415,671	-8,249	-0,092	-0,044
-414,657	-200,000	0,010	0,033
-413,642	-6,653	-0,115	0,056
-412,628	454,969	0,022	0,035
-411,613	800,000	0,022	-0,067
-410,598	-168,552	-0,042	-0,001
-409,584	-200,000	-0,014	-0,129
-408,569	-200,000	-0,007	-0,054
-407,555	-41,950	0,088	0,032
-406,540	498,563	0,041	0,067
-405,525	-200,000	0,016	0,065
-404,511	282,615	-0,093	-0,119
-403,496	-200,000	0,008	0,046
-402,482	42,401	0,071	0,046
-401,467	39,509	0,122	0,078
-400,452	-52,031	0,122	0,040
-399,438	-200,000	0,007	0,040
-398,423	333,181	0,007	0,009
-397,409	-200,000	0,006	-0,107
-396,394	130,764	-0,096	0,088
-395,379	561,798	0,052	-0,090
-394,365	800,000	0,073	0,148
-393,350	46,177	-0,037	-0,024
-392,336	-200,000	0,023	0,077
-391,321	800,000	0,031	0,064
-390,306	-200,000	-0,019	0,086
-389,292	-200,000	-0,037	-0,129
-388,277	-76,254	0,028	-0,007
-387,263	-16,244	0,104	0,047
-386,248	124,294	0,128	0,115
-385,233	383,391	0,012	-0,018
-384,219	-27,004	-0,069	0,029
-383,204	168,021	0,058	-0,059
-382,190	-88,914	-0,079	-0,017
-381,175	800,000	0,056	-0,112
-380,160	800,000	0,048	-0,124
-379,146	276,882	0,067	0,085
-378,131	800,000	-0,013	0,025
-377,117	587,810	-0,059	0,104
-376,102	118,167	-0,113	-0,099
-375,088	800,000	-0,050	-0,127
-374,073	800,000	0,034	0,098
-373,058	109,556	-0,021	-0,018
-372,044	-4,070	0,130	0,064
-371,029	-98,565	0,045	-0,008
-370,015	11,484	-0,034	0,018
-369,000	-200,000	-0,005	0,110
-367,985	800,000	-0,002	0,005
-366,971	-142,258	0,040	0,003
-365,956	-200,000	-0,008	0,110
-364,942	800,000	0,095	0,246
-363,927	197,115	0,048	0,052
-362,912	246,510	0,024	-0,029
-361,898	132,077	0,035	-0,032
-360,883	-200,000	-0,017	-0,129
-359,869	-200,000	-0,014	0,052
-358,854	189,575	-0,058	0,062
-357,839	-200,000	-0,003	0,034
-356,825	-33,308	-0,125	0,049
-355,810	88,466	0,033	-0,026
-354,796	-200,000	0,002	-0,015
-353,781	70,482	-0,032	-0,023
-352,766	441,782	-0,029	0,046
-351,752	-9,782	0,069	0,033
-350,737	-99,173	-0,056	0,010
-349,723	678,883	0,053	0,099
-348,708	19,242	0,103	0,059
-347,693	-200,000	0,010	0,140
-346,679	378,668	-0,065	-0,095
-345,664	154,201	0,019	0,019
-344,650	-200,000	0,002	-0,063
-343,635	776,013	0,061	0,119
-342,620	162,551	0,091	0,091
-341,606	-0,413	0,087	-0,044
-340,591	-200,000	0,014	-0,065
-339,577	-29,682	-0,183	0,074
-338,562	800,000	-0,034	-0,080
-337,548	-54,089	0,101	-0,033
-336,533	800,000	0,036	0,099
-335,518	800,000	-0,010	0,020
-334,504	-200,000	-0,001	-0,028
-333,489	282,921	-0,047	0,060
-332,475	28,330	-0,067	0,040
-331,460	-66,678	-0,055	0,015
-330,445	800,000	0,039	-0,091
-329,431	294,260	-0,035	-0,045
-328,416	239,636	0,068	0,081
-327,402	797,776	0,061	0,121
-326,387	800,000	-0,023	0,070
-325,372	-200,000	-0,011	0,063
-324,358	252,238	-0,033	-0,040
-323,343	-200,000	0,002	0,063
-322,329	12,398	-0,116	-0,063
-321,314	-24,420	0,135	0,057
-320,299	129,999	-0,038	0,034
-319,285	-200,000	0,010	0,085
-318,270	-180,331	-0,115	0,002
-317,256	93,592	-0,103	-0,083
-316,241	42,520	-0,046	-0,030
-315,226	-151,527	0,217	-0,011
-314,212	48,067	-0,064	-0,043
-313,197	-156,948	0,077	0,003
-312,183	138,332	-0,048	0,045
-311,168	346,632	-0,045	0,064
-310,153	-27,388	-0,119	-0,049
-309,139	-131,075	0,179	-0,017
-308,124	94,147	0,036	0,029
-307,110	-106,265	0,123	-0,019
-306,095	-200,000	-0,013	0,146
-305,080	-200,000	-0,039	0,156
-304,066	800,000	-0,036	-0,110
-303,051	800,000	-0,025	0,079
-302,037	800,000	-0,040	-0,091
-301,022	109,791	0,082	0,070
-300,008	800,000	-0,037	0,107
-298,993	-22,556	-0,099	-0,042
-297,978	171,055	0,056	-0,058
-296,964	-200,000	0,026	0,090
-295,949	368,577	-0,050	-0,072
-294,935	81,397	0,019	0,015
-293,920	-200,000	-0,053	-0,179
-292,905	-200,000	-0,009	0,074
-291,891	279,760	-0,019	0,024
-290,876	170,344	0,067	0,068
-289,862	-8,400	0,071	0,034
-288,847	800,000	-0,045	-0,100
-287,832	-20,898	0,027	0,012
-286,818	55,663	0,025	0,017
-285,803	372,735	-0,061	0,089
-284,789	-200,000	0,005	-0,028
-283,774	-200,000	-0,009	-0,073
-282,759	140,300	-0,037	-0,034
-281,745	-80,234	-0,089	-0,021
-280,730	587,357	-0,074	-0,130
-279,716	-200,000	0,005	-0,117
-278,701	53,280	0,087	-0,059
-277,686	-200,000	-0,026	0,090
-276,672	-22,518	-0,138	-0,059
-275,657	168,513	0,077	0,078
-274,643	-27,249	-0,161	-0,066
-273,628	87,573	0,088	0,069
-272,613	181,653	-0,004	-0,004
-271,599	-125,057	0,130	-0,014
-270,584	51,187	0,085	0,057
-269,570	61,664	0,052	0,037
-268,555	800,000	0,029	-0,065
-267,540	-24,170	-0,074	-0,031
-266,526	261,456	0,113	-0,139
-265,511	-36,155	-0,039	-0,015
-264,497	273,910	0,027	-0,034
-263,482	-200,000	-0,012	0,064
-262,467	79,776	0,095	0,072
-261,453	-200,000	0,023	0,112
-260,438	800,000	-0,027	0,069
-259,424	166,272	-0,058	-0,058
-258,409	-111,704	-0,182	0,026
-257,395	-200,000	-0,001	0,019
-256,380	166,355	-0,110	-0,111
-255,365	-200,000	-0,005	-0,047
-254,351	8,753	0,126	-0,068
-253,336	-44,809	-0,075	0,026
-252,322	-87,205	-0,145	-0,031
-251,307	-87,277	-0,021	-0,004
-250,292	-78,468	-0,117	0,028
-249,278	-104,874	-0,113	-0,018
-248,263	-117,063	-0,100	0,013
-247,249	800,000	0,079	0,208
-246,234	480,115	-0,040	0,065
-245,219	-200,000	0,007	-0,083
-244,205	268,709	-0,107	-0,134
-243,190	71,395	0,053	-0,039
-242,176	800,000	-0,024	-0,056
-241,161	-200,000	0,028	-0,105
-240,146	57,763	-0,151	-0,105
-239,132	-200,000	0,028	0,094
-238,117	-56,469	0,055	-0,017
-237,103	-200,000	0,001	-0,073
-236,088	-200,000	-0,003	-0,066
-235,073	292,927	-0,015	0,019
-234,059	-96,683	0,041	0,008
-233,044	146,239	0,095	0,091
-232,030	-200,000	0,014	-0,090
-231,015	-200,000	-0,044	-0,146
-230,000	62,669	-0,090	-0,064
-228,986	17,211	0,030	0,017
-227,971	-112,580	0,049	-0,007
-226,957	800,000	0,080	0,178
-225,942	-116,378	-0,088	-0,011
-224,927	48,223	-0,108	0,072
-223,913	251,830	-0,073	0,089
-222,898	-200,000	-0,022	-0,089
-221,884	14,871	0,053	0,029
-220,869	-200,000	0,002	-0,141
-219,855	-61,511	-0,087	0,026
-218,840	800,000	-0,007	-0,019
-217,825	-50,466	0,066	0,022
-216,811	477,901	-0,038	0,061
-215,796	255,555	-0,019	0,023
-214,782	-83,665	-0,110	0,025
-213,767	1,044	-0,047	0,024
-212,752	800,000	0,075	0,156
-211,738	-200,000	0,020	-0,083
-210,723	-200,000	-0,002	0,037
-209,709	233,392	0,052	0,061
-208,694	45,443	0,046	-0,030
-207,679	713,870	-0,027	-0,050
-206,665	-95,204	-0,090	-0,017
-205,650	-44,403	0,134	-0,047
-204,636	-200,000	0,007	0,058
-203,621	86,773	0,036	0,028
-202,606	186,133	-0,071	-0,075
-201,592	788,623	-0,038	0,075
-200,577	-185,954	0,068	0,001
-199,563	-200,000	-0,014	-0,057
-198,548	-40,737	0,096	-0,035
-197,533	800,000	0,064	0,168
-196,519	5,622	0,091	0,047
-195,504	-9,225	-0,057	-0,027
-194,490	800,000	0,037	0,082
-193,475	167,809	-0,084	-0,085
-192,460	257,093	-0,002	-0,003
-191,446	301,195	0,029	-0,038
-190,431	232,411	-0,049	0,058
-189,417	-77,169	-0,017	0,004
-188,402	-51,848	0,121	-0,040
-187,387	-200,000	0,013	-0,141
-186,373	550,840	-0,035	-0,061
-185,358	119,792	0,047	-0,042
-184,344	265,206	-0,039	-0,048
-183,329	3,065	0,133	0,069
-182,315	-49,495	0,047	0,016
-181,300	800,000	-0,087	-0,180
-180,285	-66,755	-0,122	0,034
-179,271	167,961	-0,074	-0,075
-178,256	160,755	-0,042	0,042
-177,242	113,180	0,082	0,071
-176,227	385,837	-0,065	-0,095
-175,212	307,342	-0,049	-0,065
-174,198	738,399	-0,037	-0,071
-173,183	-109,707	-0,094	0,014
-172,169	800,000	0,012	-0,024
-171,154	325,349	0,036	-0,049
-170,139	235,475	0,122	0,143
-169,125	-41,711	0,088	0,032
-168,110	-100,465	0,041	-0,007
-167,096	268,685	0,017	-0,021
-166,081	800,000	0,020	0,047
-165,066	-200,000	-0,011	-0,201
-164,052	-200,000	0,011	-0,127
-163,037	-200,000	-0,007	-0,024
-162,023	112,629	0,047	0,041
-161,008	800,000	-0,049	0,136
-159,993	94,463	0,075	0,060
-158,979	174,375	-0,109	-0,112
-157,964	-200,000	0,052	-0,232
-156,950	642,466	-0,037	0,067
-155,935	-46,110	-0,109	-0,038
-154,920	800,000	0,118	0,242
-153,906	-200,000	0,003	0,086
-152,891	395,583	-0,052	0,077
-151,877	-131,169	0,025	0,002
-150,862	-200,000	0,002	0,024
-149,847	-200,000	-0,007	0,111
-148,833	-125,254	0,134	-0,014
-147,818	-149,524	0,103	-0,006
-146,804	358,722	-0,005	-0,007
-145,789	-21,996	-0,085	0,037
-144,775	-85,146	-0,089	-0,019
-143,760	32,694	-0,045	0,027
-142,745	-73,327	-0,040	-0,010
-141,731	800,000	0,037	-0,090
-140,716	187,235	0,071	0,075
-139,702	2,585	0,167	0,085
-138,687	-200,000	0,032	0,118
-137,672	262,461	0,041	-0,050
-136,658	800,000	0,047	-0,106
-135,643	318,854	-0,070	-0,094
-134,629	800,000	-0,026	-0,070
-133,614	800,000	-0,080	0,200
-132,599	273,256	-0,071	-0,089
-131,585	361,739	0,029	0,042
-130,570	-113,878	-0,095	0,013
-129,556	-55,327	0,030	0,009
-128,541	-200,000	0,007	-0,100
-127,526	-37,065	0,062	-0,023
-126,512	-9,328	-0,050	-0,024
-125,497	-99,668	0,156	-0,027
-124,483	-148,237	0,063	0,004
-123,468	800,000	0,098	0,196
-122,453	800,000	-0,031	0,073
-121,439	172,184	-0,044	-0,045
-120,424	-200,000	-0,015	-0,070
-119,410	6,738	-0,019	0,010
-118,395	486,772	-0,029	0,046
-117,380	800,000	-0,082	0,248
-116,366	-104,522	0,060	-0,010
-115,351	-8,692	-0,129	-0,061
-114,337	-200,000	0,004	0,044
-113,322	350,632	0,041	0,057
-112,307	-107,967	0,204	0,031
-111,293	-200,000	-0,002	0,034
-110,278	208,049	0,075	0,082
-109,264	174,840	0,033	0,034
-108,249	-200,000	-0,029	-0,122
-107,234	800,000	0,045	-0,091
-106,220	-98,383	-0,099	0,018
-105,205	800,000	0,065	-0,158
-104,191	111,033	0,094	-0,080
-103,176	-200,000	0,032	0,102
-102,162	-157,935	-0,038	-0,002
-101,147	800,000	-0,030	-0,077
-100,132	-200,000	-0,025	-0,125
-99,118	480,665	-0,039	-0,063
-98,103	190,638	-0,092	0,097
-97,089	779,647	0,017	0,034
-96,074	-200,000	0,007	-0,065
-95,059	629,863	0,035	0,063
-94,045	-108,837	-0,081	0,012
-93,030	367,005	-0,101	0,145
-92,016	-200,000	0,017	-0,137
-91,001	-15,079	-0,094	-0,043
-89,986	-200,000	0,000	-0,044
-88,972	-200,000	0,044	0,000
-87,957	-118,291	0,043	-0,005
-86,943	-31,575	0,040	-0,016
-85,928	-200,000	0,002	0,072
-84,913	594,924	-0,078	0,137
-83,899	800,000	-0,024	-0,068
-82,884	800,000	0,070	0,138
-81,870	627,610	0,034	0,060
-80,855	-27,511	0,082	-0,034
-79,840	-87,079	0,107	-0,023
-78,826	-92,140	0,031	-0,006
-77,811	-190,366	-0,139	0,001
-76,797	4,117	-0,039	-0,020
-75,782	574,194	0,104	0,180
-74,767	800,000	-0,061	0,148
-73,753	-200,000	-0,023	-0,084
-72,738	-200,000	0,010	-0,054
-71,724	-200,000	0,018	-0,065
-70,709	497,577	0,012	-0,020
-69,694	508,342	-0,094	-0,154
-68,680	-200,000	0,003	0,047
-67,665	-80,912	-0,097	0,023
-66,651	-56,777	-0,054	-0,017
-65,636	800,000	-0,044	0,131
-64,622	-78,111	0,079	0,019
-63,607	800,000	-0,029	-0,074
-62,592	800,000	-0,018	-0,049
-61,578	263,336	0,062	0,076
-60,563	700,827	-0,035	0,066
-59,549	80,811	-0,086	0,066
-58,534	60,507	-1,863	-1,300
-57,519	429,159	-1,327	-2,031
-56,505	-200,000	-0,354	-4,388
-55,490	341,517	0,827	1,144
-54,476	800,000	5,167	11,562
-53,461	-200,000	20,963	331,833
-52,446	800,000	757,697	2328,373
-51,432	551,393	1661,424	2824,759
-50,417	73,328	1662,682	1226,049
-49,403	18,485	1535,684	863,605
-48,388	12,441	1458,803	791,152
-47,373	19,096	1449,733	818,130
-46,359	15,696	1439,101	795,929
-45,344	10,718	1434,754	769,809
-44,330	10,642	1432,869	768,406
-43,315	10,618	1430,906	767,206
-42,300	10,661	1429,143	766,434
-41,286	10,681	1427,942	765,853
-40,271	10,608	1426,951	764,949
-39,257	10,589	1425,704	764,160
-38,242	10,666	1424,331	763,758
-37,227	10,623	1423,653	763,161
-36,213	10,682	1422,081	762,563
-35,198	10,684	1421,017	761,975
-34,184	10,712	1420,035	761,547
-33,169	10,639	1418,701	760,461
-32,154	10,684	1417,801	760,158
-31,140	10,724	1416,344	759,536
-30,125	10,714	1415,402	758,953
-29,111	10,741	1414,277	758,448
-28,096	10,703	1412,963	757,534
-27,082	10,679	1411,877	756,810
-26,067	10,625	1410,947	756,026
-25,052	10,653	1409,868	755,550
-24,038	10,680	1408,682	755,009
-23,023	10,621	1407,837	754,252
-22,009	10,644	1406,627	753,683
-20,994	10,613	1406,076	753,211
-19,979	10,595	1405,001	752,522
-18,965	10,612	1403,810	751,932
-17,950	10,578	1403,062	751,346
-16,936	10,565	1402,407	750,904
-15,921	10,533	1401,081	750,013
-14,906	10,538	1400,286	749,583
-13,892	10,557	1399,351	749,140
-12,877	10,541	1398,544	748,604
-11,863	10,500	1397,916	748,046
-10,848	10,505	1396,835	747,463
-9,833	10,504	1395,878	746,917
-8,819	10,441	1394,973	746,113
-7,804	10,458	1394,229	745,760
-6,790	10,449	1393,145	745,113
-5,775	10,491	1392,186	744,763
-4,760	10,534	1390,948	744,270
-3,746	10,482	1390,191	743,595
-2,731	10,469	1389,333	743,049
-1,717	10,448	1388,683	742,571
-0,702	10,478	1386,691	741,615
0,313	14,523	1300,344	713,941
1,327	30,685	692,084	416,688
2,342	47,410	120,140	78,801
3,356	2,690	16,397	8,355
4,371	4,437	3,534	1,821
5,386	-13,106	0,952	0,435
6,400	-200,000	0,112	0,495
7,415	-150,168	-0,234	-0,013
8,429	155,286	-0,208	-0,202
9,444	49,523	-0,279	-0,184
10,459	-77,021	-0,328	-0,080
11,473	93,271	-0,274	-0,218
12,488	39,740	-0,260	-0,164
13,502	45,379	-0,270	-0,175
14,517	193,471	-0,247	-0,263
15,531	130,607	-0,272	-0,245
16,546	248,534	-0,227	-0,271
17,561	4,413	-0,392	-0,202
18,575	-7,662	-0,238	-0,113
19,590	23,036	-0,248	-0,143
20,604	-109,353	-0,302	-0,045
21,619	123,884	-0,379	-0,335
22,634	81,741	-0,381	-0,290
23,648	82,144	-0,446	-0,340
24,663	143,975	-0,317	-0,298
25,677	93,799	-0,290	-0,231
26,692	188,786	-0,261	-0,275
27,707	-0,816	-0,394	-0,196
28,721	100,617	-0,497	-0,406
29,736	-3,836	-0,376	-0,183
30,750	-1,479	-0,392	-0,194
31,765	97,780	-0,471	-0,381
32,780	237,754	-0,313	-0,366
33,794	95,515	-0,282	-0,226
34,809	3,442	-0,373	-0,190
35,823	-36,258	-0,324	-0,122
36,838	25,794	-0,303	-0,177
37,853	144,579	-0,404	-0,379
38,867	-2,542	-0,493	-0,242
39,882	26,843	-0,295	-0,173
40,896	55,737	-0,316	-0,215
41,911	286,297	-0,242	-0,308
42,926	160,478	-0,288	-0,283
43,940	69,912	-0,341	-0,246
44,955	94,019	-0,389	-0,310
45,969	95,681	-0,417	-0,334
46,984	-21,024	-0,284	-0,122
47,999	-76,915	-0,379	-0,092
49,013	58,469	-0,276	-0,190
50,028	143,727	-0,260	-0,243
51,042	239,697	-0,308	-0,361
52,057	34,569	-0,364	-0,223
53,071	-34,756	-0,389	-0,149
54,086	212,608	-0,237	-0,263
55,101	95,593	-0,296	-0,237
56,115	104,236	-0,299	-0,247
57,130	18,048	-0,299	-0,167
58,144	135,616	-0,317	-0,290
59,159	228,931	-0,327	-0,375
60,174	29,261	-0,395	-0,235
61,188	507,007	-0,250	-0,408
62,203	133,770	-0,210	-0,191
63,217	-95,261	-0,244	-0,046
64,232	19,557	-0,332	-0,187
65,247	111,340	-0,345	-0,292
66,261	56,137	-0,271	-0,184
67,276	66,317	-0,294	-0,209
68,290	157,642	-0,340	-0,331
69,305	34,216	-0,317	-0,193
70,320	39,625	-0,188	-0,118
71,334	12,820	-0,308	-0,166
72,349	-32,562	-0,324	-0,126
73,363	73,152	-0,297	-0,217
74,378	143,020	-0,309	-0,288
75,393	-64,535	-0,362	-0,102
76,407	-5,725	-0,258	-0,123
77,422	105,980	-0,270	-0,223
78,436	253,620	-0,184	-0,221
79,451	2,223	-0,336	-0,170
80,466	142,699	-0,291	-0,271
81,480	-26,888	-0,358	-0,146
82,495	-34,169	-0,350	-0,134
83,509	138,421	-0,200	-0,183
84,524	-20,684	-0,266	-0,114
85,539	16,711	-0,286	-0,158
86,553	-63,226	-0,188	-0,054
87,568	72,555	-0,247	-0,180
88,582	160,412	-0,243	-0,237
89,597	153,839	-0,197	-0,189
90,611	80,387	-0,295	-0,222
91,626	47,396	-0,222	-0,144
92,641	-0,065	-0,284	-0,141
93,655	49,739	-0,353	-0,233
94,670	-47,153	-0,323	-0,110
95,684	129,200	-0,241	-0,215
96,699	48,192	-0,386	-0,252
97,714	64,610	-0,298	-0,210
98,728	178,336	-0,110	-0,112
99,743	-167,650	-0,153	-0,004
100,757	108,004	-0,206	-0,172
101,772	117,459	-0,281	-0,242
102,787	-65,496	-0,247	-0,069
103,801	249,373	-0,190	-0,226
104,816	690,981	-0,157	-0,288
105,830	-32,372	-0,191	-0,074
106,845	-34,018	-0,151	-0,058
107,860	76,992	-0,200	-0,148
108,874	-38,811	-0,205	-0,075
109,889	77,508	-0,218	-0,162
110,903	129,713	-0,234	-0,209
111,918	-92,900	-0,311	-0,060
112,933	-175,727	-0,131	-0,002
113,947	126,088	-0,245	-0,216
114,962	49,000	-0,299	-0,196
115,976	41,655	-0,224	-0,141
116,991	-42,758	-0,293	-0,103
118,006	4,314	-0,322	-0,164
119,020	108,867	-0,296	-0,247
120,035	254,777	-0,222	-0,266
121,049	800,000	-0,101	-0,219
122,064	-62,515	-0,158	-0,046
123,079	-3,987	-0,280	-0,135
124,093	264,512	-0,187	-0,227
125,108	35,218	-0,340	-0,208
126,122	-71,227	-0,176	-0,046
127,137	-34,764	-0,265	-0,101
128,151	76,957	-0,219	-0,162
129,166	-40,678	-0,344	-0,124
130,181	105,704	-0,219	-0,180
131,195	229,893	-0,102	-0,116
132,210	159,978	-0,292	-0,284
133,224	367,375	-0,183	-0,258
134,239	240,730	-0,158	-0,184
135,254	503,155	-0,127	-0,205
136,268	41,628	-0,141	-0,089
137,283	-97,214	-0,326	-0,059
138,297	80,899	-0,227	-0,171
139,312	94,846	-0,293	-0,232
140,327	52,209	-0,298	-0,198
141,341	-52,175	-0,276	-0,089
142,356	279,157	-0,181	-0,226
143,370	-42,656	-0,231	-0,082
144,385	800,000	-0,083	-0,169
145,400	-28,636	-0,276	-0,110
146,414	-61,686	-0,279	-0,081
147,429	50,569	-0,269	-0,177
148,443	49,439	-0,227	-0,148
149,458	-119,643	-0,145	-0,017
150,473	-25,565	-0,268	-0,110
151,487	129,845	-0,195	-0,174
152,502	124,734	-0,247	-0,216
153,516	355,381	-0,207	-0,288
154,531	-16,412	-0,329	-0,145
155,546	16,022	-0,281	-0,153
156,560	303,306	-0,144	-0,186
157,575	0,142	-0,206	-0,102
158,589	-40,853	-0,170	-0,061
159,604	84,542	-0,184	-0,140
160,619	97,388	-0,213	-0,170
161,633	-57,717	-0,292	-0,088
162,648	20,636	-0,347	-0,195
163,662	-59,009	-0,142	-0,042
164,677	24,803	-0,069	-0,039
165,692	-1,005	-0,283	-0,139
166,706	221,990	-0,265	-0,296
167,721	-75,731	-0,250	-0,061
168,735	194,534	-0,226	-0,238
169,750	40,775	-0,114	-0,071
170,764	109,196	-0,207	-0,172
171,779	110,380	-0,161	-0,134
172,794	473,606	-0,161	-0,253
173,808	43,647	-0,235	-0,149
174,823	-102,384	-0,219	-0,036
175,837	-11,944	-0,309	-0,140
176,852	199,638	-0,220	-0,235
177,867	-101,319	-0,198	0,033
178,881	-104,583	-0,218	-0,035
179,896	385,869	-0,132	-0,190
180,910	399,862	-0,216	-0,315
181,925	13,078	-0,207	-0,111
182,940	194,370	-0,212	-0,224
183,954	214,621	-0,202	-0,223
184,969	-34,553	-0,270	-0,102
185,983	443,978	-0,171	-0,261
186,998	22,550	-0,100	-0,057
188,013	65,496	-0,259	-0,181
189,027	130,298	-0,194	-0,172
190,042	206,927	-0,137	-0,148
191,056	67,191	-0,194	-0,137
192,071	11,362	-0,262	-0,139
193,086	-34,096	-0,281	-0,107
194,100	251,107	-0,106	-0,125
195,115	142,693	-0,191	-0,176
196,129	-63,224	-0,230	-0,065
197,144	158,863	-0,138	-0,133
198,159	-23,385	-0,295	-0,122
199,173	65,435	-0,343	-0,240
200,188	800,000	-0,127	-0,279
201,202	-138,229	-0,183	0,014
202,217	13,433	-0,212	-0,114
203,232	8,516	-0,201	-0,105
204,246	161,566	-0,254	-0,247
205,261	275,181	-0,195	-0,239
206,275	64,631	-0,201	-0,141
207,290	-28,059	-0,189	-0,075
208,304	761,531	-0,147	-0,277
209,319	-200,000	-0,034	-0,312
210,334	118,052	-0,170	-0,145
211,348	364,137	-0,147	-0,205
212,363	-16,559	-0,239	-0,104
213,377	167,981	-0,226	-0,223
214,392	40,516	-0,250	-0,155
215,407	228,217	-0,130	-0,146
216,421	74,556	-0,110	-0,080
217,436	80,146	-0,198	-0,147
218,450	119,526	-0,230	-0,197
219,465	120,399	-0,211	-0,181
220,480	352,357	-0,135	-0,186
221,494	164,734	-0,176	-0,172
222,509	-124,126	-0,202	-0,022
223,523	27,144	-0,195	-0,113
224,538	800,000	-0,077	-0,206
225,553	800,000	-0,058	-0,120
226,567	234,154	-0,198	-0,226
227,582	-26,604	-0,208	-0,084
228,596	70,005	-0,133	-0,095
229,611	96,014	-0,114	-0,090
230,626	-69,978	-0,123	-0,032
231,640	424,145	-0,032	-0,047
232,655	441,013	-0,163	-0,247
233,669	-44,206	-0,243	-0,084
234,684	111,253	-0,254	-0,211
235,699	800,000	-0,074	-0,184
236,713	-134,269	-0,189	0,016
237,728	-155,535	-0,147	-0,006
238,742	-85,944	-0,209	-0,044
239,757	294,420	-0,098	-0,124
240,772	-34,542	-0,220	-0,083
241,786	-61,309	-0,271	-0,078
242,801	800,000	-0,049	-0,110
243,815	66,940	-0,038	0,027
244,830	4,113	-0,079	-0,040
245,844	5,184	-0,160	-0,081
246,859	800,000	-0,115	-0,268
247,874	256,711	-0,137	-0,163
248,888	321,453	-0,186	-0,244
249,903	800,000	-0,086	-0,251
250,917	59,933	-0,131	-0,089
251,932	-1,265	-0,180	-0,087
252,947	206,516	-0,124	-0,133
253,961	2,203	-0,279	-0,139
254,976	197,768	-0,262	-0,276
255,990	246,015	-0,139	-0,161
257,005	-111,300	-0,188	-0,026
258,020	-174,664	-0,166	0,003
259,034	441,215	-0,071	-0,108
260,049	401,788	-0,148	-0,215
261,063	587,911	-0,093	-0,158
262,078	-80,153	-0,180	0,041
263,093	66,899	-0,130	-0,091
264,107	20,150	-0,141	-0,078
265,122	-200,000	-0,121	0,000
266,136	-152,437	-0,134	-0,007
267,151	-200,000	-0,034	-0,215
268,166	-67,012	-0,161	-0,043
269,180	-89,809	-0,108	0,022
270,195	168,361	-0,222	-0,218
271,209	75,517	-0,182	-0,132
272,224	-82,948	-0,087	-0,019
273,239	-58,105	-0,235	-0,070
274,253	800,000	-0,114	-0,229
275,268	-131,883	-0,235	-0,021
276,282	54,339	-0,180	-0,119
277,297	800,000	-0,127	-0,262
278,312	136,963	-0,162	-0,146
279,326	303,213	-0,119	-0,152
280,341	213,345	-0,081	-0,089
281,355	-42,101	-0,240	-0,084
282,370	-143,018	-0,152	-0,010
283,384	171,869	-0,140	-0,139
284,399	308,669	-0,165	-0,213
285,414	455,074	-0,145	-0,222
286,428	253,213	-0,174	-0,205
287,443	589,902	-0,149	-0,253
288,457	97,126	-0,155	-0,122
289,472	157,507	-0,218	-0,207
290,487	197,589	-0,233	-0,245
291,501	52,551	-0,173	-0,113
292,516	45,659	-0,076	-0,048
293,530	386,322	-0,069	-0,098
294,545	740,100	-0,036	-0,066
295,560	800,000	-0,030	-0,088
296,574	611,767	-0,117	-0,202
297,589	169,921	-0,131	-0,129
298,603	-66,349	-0,220	-0,060
299,618	-200,000	-0,001	-0,283
300,633	-59,920	-0,019	-0,006
301,647	-147,924	-0,088	0,005
302,662	86,243	-0,079	-0,060
303,676	525,127	-0,050	-0,082
304,691	-200,000	-0,074	-0,226
305,706	73,618	-0,155	-0,111
306,720	51,388	-0,172	-0,112
307,735	-20,872	-0,131	-0,055
308,749	159,633	-0,189	-0,181
309,764	130,986	-0,149	0,131
310,779	35,455	-0,142	-0,085
311,793	24,117	-0,116	-0,065
312,808	35,538	-0,302	-0,182
313,822	-44,414	-0,157	-0,054
314,837	-138,904	-0,087	0,006
315,852	524,391	-0,037	-0,060
316,866	-68,096	-0,035	0,009
317,881	770,545	0,040	0,075
318,895	-61,323	-0,102	-0,029
319,910	800,000	-0,054	-0,155
320,925	-85,839	-0,224	-0,047
321,939	13,941	-0,135	-0,072
322,954	-4,387	-0,123	0,058
323,968	-39,975	-0,156	-0,056
324,983	169,150	-0,119	-0,116
325,997	48,439	-0,240	-0,154
327,012	-135,913	-0,214	0,017
328,027	-200,000	0,008	-0,057
329,041	290,291	-0,110	-0,138
330,056	132,609	-0,070	-0,062
331,070	199,998	-0,073	0,077
332,085	-199,335	-0,082	0,000
333,100	-29,715	-0,135	-0,052
334,114	562,956	-0,078	-0,130
335,129	30,149	-0,140	-0,081
336,143	-114,853	-0,129	-0,017
337,158	273,835	-0,082	-0,100
338,173	285,013	-0,074	-0,091
339,187	559,436	-0,061	-0,101
340,202	-14,914	-0,127	-0,055
341,216	3,607	-0,188	-0,094
342,231	602,894	-0,087	-0,149
343,246	496,955	-0,091	-0,144
344,260	31,559	-0,167	-0,098
345,275	66,483	-0,167	-0,116
346,289	-9,922	-0,150	-0,068
347,304	-136,080	-0,148	0,012
348,319	25,751	-0,138	-0,079
349,333	-200,000	-0,012	-0,086
350,348	51,042	-0,159	-0,103
351,362	545,565	-0,173	-0,284
352,377	21,248	-0,057	0,031
353,392	149,892	-0,142	0,132
354,406	134,200	-0,215	-0,190
355,421	208,364	1306,807	1398,400
356,435	160,322	1466,564	1398,884
