DTS Sentinel unit serial number:	SN410029Multiplexer serial number:	ORYXHardware model number:	OX2-SRSoftware version number:	ORYX F/W v4,00 Oryx Data Collector v3.7.2.0data status	okinstallation	B3 Nyhavnadifferential loss correction	single-endedforward channel	channel 1reverse channel	N/Adate	2023/11/29time	00:27:30forward acquisition time	300,00reverse acquisition time	0,00gamma	499,1914k internal	0,3212k external	0,3212temperature offset calibration	1,0000default loss term (dB/km)	0,3820temperature slope calibration	1,0000multiplexer offset coefficient	1,0000multiplexer slope coefficient	1,0000fibre end	0,00T internal ref (°C)	9,12T ext. ref 1 (°C)	-5,11T ext. ref 2 (°C)	-5,26length (m)	temperature (°C)	Stokes	anti-Stokes-744,400	141,855	-0,205	-0,197
-743,385	-200,000	0,007	0,218
-742,371	235,273	-0,085	-0,102
-741,356	481,822	0,054	0,089
-740,342	246,515	-0,268	-0,328
-739,327	-200,000	0,000	0,216
-738,312	84,950	-0,150	-0,119
-737,298	390,451	-0,128	0,192
-736,283	16,728	-0,172	-0,099
-735,269	-200,000	0,003	0,325
-734,254	123,355	-0,161	-0,146
-733,239	217,432	-0,105	0,121
-732,225	191,858	-0,180	-0,196
-731,210	119,785	0,199	0,179
-730,196	-34,252	-0,101	0,040
-729,181	207,331	0,040	-0,046
-728,167	800,000	-0,026	0,058
-727,152	-97,276	0,110	0,021
-726,137	-17,892	-0,065	-0,029
-725,123	-11,446	-0,146	-0,069
-724,108	-1,153	-0,099	-0,051
-723,094	-200,000	0,003	0,037
-722,079	431,826	-0,024	0,037
-721,064	105,076	-0,105	-0,090
-720,050	68,003	0,074	0,054
-719,035	-49,474	-0,085	-0,029
-718,021	800,000	-0,016	-0,039
-717,006	-84,342	-0,096	-0,022
-715,991	800,000	-0,082	-0,237
-714,977	22,172	-0,100	0,059
-713,962	-200,000	-0,008	-0,035
-712,948	450,919	-0,011	-0,018
-711,933	-106,608	-0,078	0,012
-710,918	-200,000	-0,011	0,039
-709,904	-200,000	0,015	-0,157
-708,889	-121,773	-0,134	0,016
-707,875	258,395	0,036	0,045
-706,860	-97,963	0,149	-0,027
-705,845	230,056	-0,036	0,043
-704,831	394,587	-0,010	0,016
-703,816	800,000	-0,071	0,174
-702,802	-200,000	0,026	-0,109
-701,787	116,370	-0,062	-0,055
-700,772	800,000	-0,032	0,093
-699,758	-200,000	-0,023	0,090
-698,743	800,000	-0,039	0,117
-697,729	438,875	0,044	0,070
-696,714	158,401	0,092	0,092
-695,699	118,325	-0,078	-0,070
-694,685	57,249	0,039	-0,028
-693,670	313,695	-0,086	-0,117
-692,656	94,823	0,102	-0,084
-691,641	32,573	0,099	0,061
-690,627	266,275	-0,066	0,083
-689,612	-134,074	-0,024	-0,002
-688,597	-200,000	-0,025	0,104
-687,583	-147,342	-0,090	0,005
-686,568	-43,343	-0,123	-0,045
-685,554	-200,000	-0,010	0,039
-684,539	-200,000	0,002	0,061
-683,524	-38,415	-0,053	0,020
-682,510	-127,094	0,135	-0,014
-681,495	113,756	-0,069	0,060
-680,481	-75,581	0,009	-0,002
-679,466	-46,364	-0,108	-0,038
-678,451	800,000	0,048	-0,138
-677,437	-167,602	-0,173	0,005
-676,422	121,412	0,094	0,084
-675,408	317,996	-0,052	-0,072
-674,393	-188,796	-0,093	0,001
-673,378	800,000	-0,077	-0,165
-672,364	-200,000	-0,014	-0,102
-671,349	82,618	-0,093	-0,073
-670,335	458,005	0,050	0,080
-669,320	561,021	-0,033	-0,057
-668,305	96,032	-0,088	-0,072
-667,291	-63,959	-0,136	-0,040
-666,276	-95,183	0,046	-0,009
-665,262	-38,738	0,090	-0,034
-664,247	70,188	-0,082	-0,061
-663,232	76,769	-0,039	0,030
-662,218	-85,605	0,116	-0,026
-661,203	-200,000	0,032	0,141
-660,189	-200,000	0,024	-0,142
-659,174	-30,483	-0,097	-0,039
-658,159	283,475	-0,074	-0,097
-657,145	-155,857	0,089	0,004
-656,130	-200,000	0,057	-0,203
-655,116	272,433	-0,057	-0,073
-654,101	447,890	0,063	-0,100
-653,086	52,967	0,033	-0,023
-652,072	800,000	0,050	-0,107
-651,057	-33,631	-0,077	0,030
-650,043	-200,000	0,014	-0,112
-649,028	-9,657	-0,027	-0,013
-648,014	-46,437	0,087	0,031
-646,999	-65,386	0,098	-0,028
-645,984	-43,616	-0,162	0,059
-644,970	158,432	0,036	0,036
-643,955	-30,982	-0,139	-0,057
-642,941	-43,123	-0,100	-0,036
-641,926	227,939	-0,101	-0,119
-640,911	800,000	-0,005	0,013
-639,897	-22,137	-0,128	0,056
-638,882	-99,517	-0,070	-0,012
-637,868	85,506	-0,097	0,077
-636,853	216,662	-0,060	0,069
-635,838	-137,726	-0,137	-0,011
-634,824	800,000	0,072	-0,152
-633,809	116,555	0,045	0,040
-632,795	-122,654	0,084	0,010
-631,780	157,023	-0,132	0,132
-630,765	158,984	0,057	0,057
-629,751	104,273	0,008	-0,007
-628,736	190,409	0,053	0,058
-627,722	-200,000	-0,022	0,153
-626,707	-45,231	0,074	-0,027
-625,692	-83,145	0,095	-0,022
-624,678	405,824	-0,052	0,079
-623,663	-94,023	0,091	-0,018
-622,649	412,021	-0,056	-0,087
-621,634	-200,000	0,013	0,089
-620,619	112,359	-0,115	-0,100
-619,605	-41,974	0,049	-0,018
-618,590	-133,168	0,080	0,007
-617,576	139,806	0,062	0,058
-616,561	-200,000	0,009	-0,050
-615,546	-200,000	-0,015	0,187
-614,532	-27,019	-0,070	-0,029
-613,517	-127,908	0,050	-0,005
-612,503	-200,000	-0,023	-0,091
-611,488	-66,165	-0,105	0,030
-610,474	-14,199	-0,101	0,047
-609,459	-200,000	0,036	0,131
-608,444	-22,282	0,100	0,043
-607,430	100,524	0,120	-0,101
-606,415	-200,000	0,033	-0,129
-605,401	-47,302	0,080	0,028
-604,386	-200,000	-0,004	0,179
-603,371	-200,000	0,004	0,097
-602,357	383,135	-0,053	-0,078
-601,342	40,864	-0,035	-0,023
-600,328	-200,000	-0,001	-0,045
-599,313	41,911	0,042	-0,027
-598,298	540,197	0,052	-0,089
-597,284	-119,825	0,052	0,006
-596,269	-130,421	0,206	-0,020
-595,255	-200,000	0,043	0,168
-594,240	-200,000	-0,014	-0,054
-593,225	299,343	0,016	-0,022
-592,211	800,000	0,018	-0,051
-591,196	-28,289	0,050	-0,021
-590,182	529,440	0,040	-0,068
-589,167	10,476	0,028	-0,015
-588,152	800,000	-0,075	0,150
-587,138	-200,000	0,001	-0,118
-586,123	179,721	-0,146	-0,154
-585,109	800,000	-0,038	-0,098
-584,094	45,714	-0,035	-0,023
-583,079	-141,963	0,042	-0,003
-582,065	-141,214	-0,056	-0,004
-581,050	-44,284	-0,019	0,007
-580,036	-44,369	-0,049	0,017
-579,021	800,000	-0,035	0,073
-578,006	515,981	-0,054	-0,091
-576,992	-152,827	0,063	0,003
-575,977	-134,078	-0,030	0,003
-574,963	59,691	-0,062	-0,044
-573,948	800,000	-0,014	-0,029
-572,934	213,953	0,060	-0,068
-571,919	296,193	0,035	-0,047
-570,904	20,440	-0,099	-0,058
-569,890	-14,113	-0,035	-0,016
-568,875	-200,000	0,021	0,147
-567,861	800,000	-0,035	-0,101
-566,846	20,064	0,062	-0,036
-565,831	505,979	0,018	0,030
-564,817	-200,000	-0,011	-0,050
-563,802	-5,533	-0,157	-0,077
-562,788	-28,207	0,059	0,024
-561,773	294,855	-0,035	0,046
-560,758	800,000	-0,038	0,092
-559,744	-113,640	0,132	0,018
-558,729	508,564	-0,033	0,055
-557,715	-3,454	-0,115	0,057
-556,700	800,000	-0,048	-0,096
-555,685	491,082	-0,081	-0,135
-554,671	46,243	0,088	0,058
-553,656	-71,225	0,102	-0,027
-552,642	-200,000	-0,037	-0,188
-551,627	48,450	0,081	-0,054
-550,612	-19,590	0,052	0,023
-549,598	-200,000	-0,043	-0,199
-548,583	-200,000	0,008	0,049
-547,569	148,433	-0,065	-0,063
-546,554	-200,000	-0,013	-0,070
-545,539	576,068	0,082	0,144
-544,525	-200,000	-0,046	0,173
-543,510	472,254	-0,031	0,050
-542,496	263,223	0,024	-0,030
-541,481	-189,214	-0,009	0,000
-540,466	-200,000	0,015	0,073
-539,452	164,056	0,075	-0,076
-538,437	74,688	-0,018	-0,014
-537,423	346,355	0,012	-0,017
-536,408	-200,000	-0,009	-0,039
-535,393	800,000	-0,061	-0,130
-534,379	-153,788	-0,157	-0,008
-533,364	249,506	-0,221	-0,270
-532,350	214,351	0,048	-0,055
-531,335	-97,800	-0,025	0,005
-530,321	67,190	0,079	0,058
-529,306	25,841	-0,049	0,029
-528,291	225,624	-0,051	-0,059
-527,277	800,000	0,031	0,093
-526,262	-200,000	-0,017	0,095
-525,248	-200,000	0,007	0,088
-524,233	-200,000	0,022	0,135
-523,218	118,607	0,054	-0,048
-522,204	-83,410	-0,092	0,021
-521,189	650,069	0,029	0,053
-520,175	289,087	0,073	-0,095
-519,160	-27,757	-0,232	-0,096
-518,145	205,508	0,088	0,098
-517,131	47,309	0,055	0,037
-516,116	250,978	-0,074	0,091
-515,102	16,944	-0,087	0,049
-514,087	-200,000	0,002	-0,156
-513,072	-200,000	0,000	-0,088
-512,058	-72,660	0,013	0,003
-511,043	-64,510	0,076	-0,022
-510,029	108,418	0,033	0,028
-509,014	203,648	0,082	0,091
-507,999	-76,560	0,191	-0,048
-506,985	445,608	0,035	-0,056
-505,970	476,254	0,039	0,064
-504,956	280,301	-0,014	-0,018
-503,941	-200,000	0,019	-0,141
-502,926	-30,904	0,137	-0,055
-501,912	-200,000	0,007	0,028
-500,897	103,767	-0,127	0,107
-499,883	0,936	0,043	0,022
-498,868	411,665	0,027	0,041
-497,853	284,957	-0,067	-0,087
-496,839	-61,232	0,107	0,032
-495,824	80,755	0,045	0,035
-494,810	800,000	-0,018	-0,046
-493,795	-200,000	0,023	-0,185
-492,781	76,655	0,146	0,111
-491,766	162,118	-0,050	0,050
-490,751	-200,000	0,004	0,036
-489,737	231,097	-0,112	0,132
-488,722	226,507	0,041	0,048
-487,708	-78,621	0,126	0,031
-486,693	-200,000	0,035	0,145
-485,678	16,523	-0,051	0,029
-484,664	-20,161	-0,041	0,018
-483,649	-139,087	-0,074	0,006
-482,635	-72,258	-0,124	-0,033
-481,620	758,245	-0,039	-0,076
-480,605	-200,000	-0,009	0,031
-479,591	232,052	0,083	0,097
-478,576	60,655	-0,028	0,020
-477,562	800,000	0,052	0,138
-476,547	-42,297	-0,119	-0,043
-475,532	46,313	0,089	-0,059
-474,518	-200,000	0,001	-0,121
-473,503	-200,000	-0,006	0,115
-472,489	800,000	-0,012	-0,034
-471,474	800,000	0,012	0,031
-470,459	333,596	-0,070	-0,098
-469,445	-197,846	0,166	0,001
-468,430	-57,058	-0,018	-0,006
-467,416	-81,063	0,193	-0,045
-466,401	800,000	0,051	-0,109
-465,386	324,816	0,073	0,100
-464,372	71,014	0,035	-0,026
-463,357	6,132	-0,050	0,026
-462,343	177,448	-0,096	-0,100
-461,328	20,600	0,158	0,092
-460,313	-200,000	-0,008	0,166
-459,299	-128,762	-0,086	0,009
-458,284	-112,085	-0,048	0,007
-457,270	183,770	0,081	0,086
-456,255	12,446	0,054	0,030
-455,241	-200,000	0,006	-0,153
-454,226	212,936	-0,095	-0,108
-453,211	472,194	-0,066	0,107
-452,197	-69,993	0,213	-0,058
-451,182	227,296	-0,034	-0,040
-450,168	55,736	0,031	0,022
-449,153	-200,000	0,011	-0,084
-448,138	-110,255	-0,153	-0,023
-447,124	-200,000	-0,015	-0,074
-446,109	-200,000	0,039	-0,139
-445,095	213,674	0,073	-0,083
-444,080	-41,619	0,187	0,068
-443,065	-81,449	-0,074	0,017
-442,051	-177,287	-0,114	0,002
-441,036	800,000	0,031	-0,076
-440,022	-200,000	0,016	0,083
-439,007	-200,000	0,039	0,127
-437,992	-82,146	-0,076	-0,018
-436,978	292,639	0,123	0,161
-435,963	-200,000	0,015	0,118
-434,949	7,862	0,067	0,036
-433,934	-200,000	-0,019	-0,063
-432,919	68,946	-0,053	0,039
-431,905	436,317	-0,027	-0,042
-430,890	-24,830	0,110	0,046
-429,876	-200,000	0,023	0,116
-428,861	184,530	0,026	-0,028
-427,846	-107,655	-0,096	-0,015
-426,832	-132,171	0,051	-0,005
-425,817	-157,626	-0,107	-0,005
-424,803	800,000	0,023	-0,056
-423,788	19,154	0,091	0,052
-422,773	800,000	0,029	0,075
-421,759	44,058	0,054	-0,036
-420,744	215,339	0,017	-0,020
-419,730	398,189	-0,016	-0,024
-418,715	166,284	0,067	-0,068
-417,701	-200,000	-0,024	-0,130
-416,686	-200,000	0,002	-0,089
-415,671	-200,000	-0,001	0,006
-414,657	-121,334	-0,084	0,010
-413,642	-95,429	-0,034	0,007
-412,628	274,767	0,026	0,032
-411,613	-79,943	-0,086	-0,020
-410,598	51,146	-0,052	-0,035
-409,584	-115,021	0,132	-0,018
-408,569	-200,000	0,005	0,044
-407,555	800,000	0,047	0,132
-406,540	118,472	-0,054	0,048
-405,525	800,000	-0,053	-0,121
-404,511	800,000	-0,036	-0,099
-403,496	-200,000	0,005	-0,052
-402,482	-46,434	0,086	-0,030
-401,467	-200,000	-0,019	0,115
-400,452	-200,000	-0,006	0,165
-399,438	-144,515	0,193	-0,013
-398,423	-10,997	-0,041	0,019
-397,409	-200,000	-0,006	0,050
-396,394	254,966	-0,096	-0,118
-395,379	800,000	-0,020	-0,052
-394,365	80,743	0,118	-0,091
-393,350	-121,706	0,142	-0,017
-392,336	44,658	0,094	-0,062
-391,321	-49,162	-0,095	0,032
-390,306	800,000	-0,055	-0,120
-389,292	98,129	0,060	-0,049
-388,277	0,631	-0,133	-0,068
-387,263	-102,137	0,131	-0,022
-386,248	-200,000	0,011	0,057
-385,233	-128,338	0,114	-0,011
-384,219	-46,598	-0,058	-0,020
-383,204	800,000	0,020	0,059
-382,190	800,000	0,072	-0,158
-381,175	-49,859	-0,122	-0,041
-380,160	22,297	0,069	0,040
-379,146	-9,875	0,031	-0,015
-378,131	495,151	-0,072	0,119
-377,117	-159,673	0,054	0,002
-376,102	-44,268	-0,169	-0,060
-375,088	-200,000	-0,018	0,089
-374,073	800,000	-0,022	-0,068
-373,058	312,800	0,010	0,013
-372,044	-87,097	0,056	-0,012
-371,029	-200,000	-0,031	0,178
-370,015	569,656	-0,014	-0,024
-369,000	342,320	0,078	-0,109
-367,985	-92,556	-0,045	-0,009
-366,971	56,237	-0,024	0,017
-365,956	204,768	-0,054	-0,060
-364,942	-200,000	-0,006	0,097
-363,927	215,960	0,082	0,093
-362,912	-200,000	0,027	0,150
-361,898	800,000	-0,084	-0,215
-360,883	-171,775	0,121	-0,003
-359,869	-200,000	0,019	-0,093
-358,854	-200,000	-0,015	0,094
-357,839	-126,730	-0,082	-0,009
-356,825	-75,309	0,084	0,021
-355,810	-137,523	-0,029	-0,002
-354,796	-35,178	0,114	-0,044
-353,781	589,594	-0,046	-0,081
-352,766	-50,298	-0,138	0,046
-351,752	-200,000	-0,016	0,074
-350,737	-197,667	0,186	0,001
-349,723	-173,342	0,115	-0,002
-348,708	29,188	-0,187	0,113
-347,693	93,906	0,113	-0,092
-346,679	-200,000	-0,014	-0,158
-345,664	-34,227	0,020	-0,008
-344,650	6,956	-0,064	0,034
-343,635	657,541	0,076	0,140
-342,620	-125,638	0,075	0,008
-341,606	174,944	0,066	0,069
-340,591	-123,673	-0,149	0,017
-339,577	113,500	0,086	0,074
-338,562	284,621	-0,042	0,055
-337,548	-200,000	-0,022	-0,141
-336,533	800,000	-0,016	0,049
-335,518	-51,000	-0,063	-0,021
-334,504	419,830	0,039	-0,059
-333,489	-200,000	-0,004	-0,108
-332,475	-83,785	0,063	0,014
-331,460	-63,109	-0,069	-0,020
-330,445	-200,000	-0,016	-0,061
-329,431	-122,599	0,085	-0,010
-328,416	800,000	0,024	0,059
-327,402	-55,009	0,033	-0,011
-326,387	-42,861	0,037	0,013
-325,372	-200,000	-0,018	0,116
-324,358	463,361	-0,016	-0,025
-323,343	-200,000	-0,007	0,096
-322,329	-200,000	-0,020	0,066
-321,314	35,908	-0,032	0,020
-320,299	-200,000	-0,011	0,100
-319,285	-124,361	-0,052	-0,006
-318,270	22,596	-0,126	-0,073
-317,256	-200,000	-0,007	-0,105
-316,241	675,517	-0,079	-0,146
-315,226	-65,960	0,070	-0,020
-314,212	-200,000	0,015	0,083
-313,197	177,813	0,086	0,089
-312,183	38,908	0,096	-0,061
-311,168	-164,544	-0,073	-0,002
-310,153	43,297	-0,055	-0,036
-309,139	2,439	-0,064	-0,033
-308,124	-116,325	0,216	0,028
-307,110	-200,000	0,025	0,103
-306,095	-106,310	-0,094	0,015
-305,080	-200,000	0,019	-0,181
-304,066	-126,007	0,159	-0,017
-303,051	-145,184	-0,021	0,001
-302,037	220,068	0,108	-0,124
-301,022	139,518	-0,051	0,048
-300,008	6,753	0,042	0,022
-298,993	-200,000	0,002	-0,019
-297,978	-200,000	-0,021	0,095
-296,964	416,701	-0,061	0,093
-295,949	-13,057	-0,090	-0,041
-294,935	-28,898	0,098	0,040
-293,920	29,264	0,052	0,031
-292,905	800,000	0,039	0,094
-291,891	-77,512	0,074	-0,018
-290,876	800,000	-0,043	0,092
-289,862	-114,531	0,134	-0,018
-288,847	-83,633	-0,070	-0,016
-287,832	45,140	-0,007	0,005
-286,818	107,992	0,044	0,038
-285,803	-200,000	0,015	0,131
-284,789	-69,528	-0,100	0,027
-283,774	332,015	-0,031	0,042
-282,759	187,746	-0,105	-0,112
-281,745	-97,790	-0,135	0,025
-280,730	800,000	0,033	-0,104
-279,716	-200,000	0,012	-0,091
-278,701	-200,000	-0,003	-0,107
-277,686	9,384	0,054	0,029
-276,672	-80,242	0,114	0,027
-275,657	393,446	0,064	-0,095
-274,643	-25,205	-0,215	-0,090
-273,628	-138,667	-0,192	0,015
-272,613	-200,000	-0,006	-0,018
-271,599	12,607	-0,081	0,044
-270,584	800,000	0,056	0,136
-269,570	-25,176	0,023	0,010
-268,555	278,605	0,030	-0,039
-267,540	74,464	-0,084	-0,062
-266,526	-177,247	-0,147	0,003
-265,511	64,581	-0,091	-0,065
-264,497	79,328	0,092	-0,070
-263,482	-38,611	0,039	-0,015
-262,467	800,000	0,007	0,015
-261,453	-145,652	0,006	-0,000
-260,438	-153,175	-0,074	-0,004
-259,424	263,600	-0,058	-0,072
-258,409	-200,000	-0,009	-0,171
-257,395	-95,443	-0,054	0,010
-256,380	-200,000	0,013	-0,055
-255,365	49,017	0,085	0,057
-254,351	429,049	0,034	-0,053
-253,336	238,877	-0,038	-0,045
-252,322	-1,767	-0,061	-0,030
-251,307	147,053	-0,058	0,056
-250,292	-31,299	0,026	0,011
-249,278	-81,464	-0,042	0,010
-248,263	-200,000	-0,018	-0,068
-247,249	14,984	-0,098	0,054
-246,234	-200,000	-0,014	0,052
-245,219	-115,636	-0,135	-0,018
-244,205	2,017	0,149	-0,076
-243,190	119,062	0,021	-0,019
-242,176	-51,439	0,090	-0,030
-241,161	576,301	0,068	0,118
-240,146	113,825	-0,055	-0,047
-239,132	103,306	-0,050	-0,041
-238,117	273,054	0,046	-0,058
-237,103	-200,000	-0,000	0,023
-236,088	52,526	0,135	0,091
-235,073	800,000	0,054	-0,123
-234,059	286,560	0,129	0,166
-233,044	-11,883	0,075	-0,035
-232,030	-71,244	0,010	0,003
-231,015	-1,766	0,033	-0,016
-230,000	77,091	-0,091	-0,069
-228,986	-200,000	-0,006	0,021
-227,971	-200,000	-0,009	0,072
-226,957	253,166	0,105	0,127
-225,942	-200,000	-0,019	0,073
-224,927	252,112	0,064	-0,077
-223,913	-136,262	-0,139	0,011
-222,898	149,087	-0,039	-0,037
-221,884	-15,055	-0,037	-0,017
-220,869	57,071	0,122	0,084
-219,855	64,244	0,033	0,023
-218,840	-200,000	0,038	0,189
-217,825	79,346	-0,067	0,051
-216,811	-200,000	-0,029	-0,131
-215,796	-200,000	-0,015	0,065
-214,782	182,016	-0,045	0,048
-213,767	800,000	-0,032	-0,074
-212,752	800,000	0,035	0,072
-211,738	800,000	0,021	-0,044
-210,723	90,717	0,043	0,034
-209,709	424,361	-0,099	-0,152
-208,694	-200,000	-0,045	-0,175
-207,679	13,272	-0,176	-0,096
-206,665	-29,039	0,059	-0,024
-205,650	-200,000	-0,056	0,177
-204,636	800,000	-0,095	0,191
-203,621	800,000	0,021	0,048
-202,606	605,343	0,071	-0,125
-201,592	-200,000	-0,005	-0,118
-200,577	-16,724	-0,027	-0,012
-199,563	-200,000	0,007	0,025
-198,548	-200,000	-0,016	0,104
-197,533	58,942	0,100	0,069
-196,519	-200,000	0,003	0,057
-195,504	800,000	-0,031	0,074
-194,490	-153,104	-0,090	-0,004
-193,475	-200,000	-0,025	0,099
-192,460	-200,000	0,008	-0,111
-191,446	684,912	-0,040	0,074
-190,431	-200,000	0,059	0,207
-189,417	-129,391	-0,082	0,008
-188,402	-200,000	-0,017	-0,068
-187,387	-200,000	0,007	-0,108
-186,373	-158,464	-0,135	0,005
-185,358	2,694	-0,011	-0,006
-184,344	-200,000	-0,034	0,200
-183,329	-66,809	0,134	0,037
-182,315	-99,759	0,158	-0,028
-181,300	-200,000	-0,126	0,000
-180,285	355,585	0,030	0,042
-179,271	110,373	-0,135	-0,115
-178,256	-138,594	0,075	0,006
-177,242	-200,000	-0,012	-0,099
-176,227	-87,096	0,090	-0,019
-175,212	193,905	0,065	0,070
-174,198	-200,000	0,010	0,216
-173,183	-109,716	-0,064	-0,009
-172,169	-48,276	0,021	-0,007
-171,154	-87,855	-0,069	0,015
-170,139	158,387	-0,090	0,089
-169,125	-61,115	0,015	-0,004
-168,110	63,477	0,067	0,048
-167,096	405,706	-0,043	-0,065
-166,081	93,327	-0,055	-0,044
-165,066	-200,000	-0,038	-0,123
-164,052	458,786	0,096	0,152
-163,037	-200,000	0,034	0,115
-162,023	-200,000	-0,038	0,172
-161,008	-4,753	-0,076	-0,037
-159,993	-137,587	0,029	0,002
-158,979	116,665	-0,159	-0,138
-157,964	94,600	-0,114	-0,092
-156,950	370,397	0,087	-0,126
-155,935	446,236	-0,046	-0,071
-154,920	415,519	0,052	0,079
-153,906	307,210	0,048	0,064
-152,891	69,041	0,063	0,046
-151,877	687,001	0,038	-0,071
-150,862	313,943	0,062	-0,082
-149,847	-200,000	-0,003	-0,065
-148,833	28,506	-0,081	0,048
-147,818	-200,000	-0,003	0,045
-146,804	-14,109	0,065	-0,030
-145,789	800,000	0,029	0,078
-144,775	29,128	-0,104	-0,062
-143,760	-200,000	-0,046	-0,155
-142,745	-200,000	-0,021	-0,249
-141,731	800,000	0,020	0,045
-140,716	-68,540	0,158	0,043
-139,702	-43,397	0,097	0,034
-138,687	153,183	0,088	0,085
-137,672	170,122	-0,127	0,128
-136,658	59,172	0,097	-0,068
-135,643	800,000	0,031	-0,096
-134,629	-200,000	0,008	-0,087
-133,614	-200,000	0,005	-0,078
-132,599	-111,564	0,143	0,020
-131,585	64,611	0,038	0,027
-130,570	-54,548	0,101	-0,032
-129,556	-25,226	-0,209	-0,087
-128,541	50,788	0,101	-0,068
-127,526	800,000	-0,039	-0,079
-126,512	-150,851	0,107	0,006
-125,497	-183,297	-0,038	0,000
-124,483	-200,000	0,011	-0,045
-123,468	-200,000	0,011	-0,046
-122,453	14,126	-0,054	0,030
-121,439	94,001	0,023	-0,019
-120,424	66,408	0,119	0,086
-119,410	-200,000	0,004	0,078
-118,395	243,057	-0,049	-0,058
-117,380	550,453	-0,009	0,015
-116,366	291,700	0,109	0,141
-115,351	-200,000	-0,009	0,101
-114,337	-200,000	-0,013	0,149
-113,322	433,724	-0,066	-0,101
-112,307	800,000	-0,049	0,147
-111,293	800,000	-0,020	-0,042
-110,278	653,909	0,053	0,096
-109,264	-200,000	-0,003	-0,061
-108,249	200,144	-0,056	-0,061
-107,234	62,593	0,052	-0,037
-106,220	-80,208	-0,155	-0,036
-105,205	-200,000	-0,004	-0,035
-104,191	17,918	0,178	0,100
-103,176	-181,414	-0,110	-0,001
-102,162	100,784	-0,083	-0,068
-101,147	-200,000	0,001	0,009
-100,132	-200,000	-0,017	-0,252
-99,118	-163,353	0,014	0,000
-98,103	-200,000	-0,008	0,029
-97,089	-133,462	-0,150	0,013
-96,074	85,281	0,090	0,070
-95,059	47,481	-0,105	0,069
-94,045	42,133	0,079	0,051
-93,030	-80,857	-0,065	-0,015
-92,016	-3,594	0,074	-0,036
-91,001	162,677	0,030	0,029
-89,986	-140,937	-0,066	0,005
-88,972	-168,165	0,033	0,001
-87,957	-200,000	0,004	0,184
-86,943	-21,795	0,093	0,040
-85,928	34,497	-0,117	-0,072
-84,913	142,731	-0,048	-0,045
-83,899	123,553	0,077	0,068
-82,884	566,294	0,057	0,099
-81,870	-103,291	0,046	-0,008
-80,855	-146,739	0,062	0,004
-79,840	-200,000	-0,000	-0,076
-78,826	150,762	0,066	0,063
-77,811	-133,214	-0,040	0,004
-76,797	651,667	-0,020	-0,037
-75,782	-200,000	0,009	0,181
-74,767	-200,000	-0,009	0,136
-73,753	-200,000	0,007	-0,132
-72,738	-51,655	-0,034	0,011
-71,724	-200,000	0,002	-0,143
-70,709	222,754	-0,084	-0,096
-69,694	800,000	0,023	-0,070
-68,680	-48,650	0,150	0,051
-67,665	-200,000	0,003	0,157
-66,651	56,922	-0,030	0,020
-65,636	-41,184	0,035	-0,013
-64,622	492,035	-0,013	-0,021
-63,607	-33,478	-0,077	-0,030
-62,592	-125,860	-0,138	-0,015
-61,578	800,000	0,013	-0,038
-60,563	227,492	0,069	0,080
-59,549	-200,000	-0,058	0,197
-58,534	39,066	-2,112	-1,330
-57,519	725,213	-1,102	-2,083
-56,505	-200,000	-0,388	-4,307
-55,490	764,056	0,904	1,740
-54,476	800,000	5,107	11,187
-53,461	-200,000	21,744	338,587
-52,446	800,000	760,408	2309,299
-51,432	537,289	1655,249	2784,479
-50,417	69,888	1652,352	1200,831
-49,403	16,826	1526,194	849,816
-48,388	10,944	1450,652	779,440
-47,373	19,114	1442,401	813,995
-46,359	14,356	1431,525	785,307
-45,344	9,240	1427,361	758,745
-44,330	9,196	1425,424	757,480
-43,315	9,213	1423,661	756,594
-42,300	9,198	1421,890	755,551
-41,286	9,231	1420,609	754,997
-40,271	9,171	1419,483	754,083
-39,257	9,144	1418,409	753,356
-38,242	9,247	1416,984	753,056
-37,227	9,248	1415,987	752,497
-36,213	9,249	1414,698	751,787
-35,198	9,227	1413,436	750,986
-34,184	9,237	1412,558	750,534
-33,169	9,172	1411,406	749,591
-32,154	9,194	1410,208	749,027
-31,140	9,185	1409,016	748,319
-30,125	9,227	1407,922	747,907
-29,111	9,237	1406,791	747,321
-28,096	9,214	1405,506	746,503
-27,082	9,167	1404,202	745,562
-26,067	9,147	1403,275	744,945
-25,052	9,189	1402,143	744,512
-24,038	9,169	1401,257	743,920
-23,023	9,148	1400,557	743,421
-22,009	9,169	1399,209	742,773
-20,994	9,141	1398,251	742,104
-19,979	9,116	1397,593	741,611
-18,965	9,081	1396,509	740,844
-17,950	9,086	1395,521	740,310
-16,936	9,110	1394,631	739,922
-15,921	9,084	1393,464	739,152
-14,906	9,064	1392,731	738,641
-13,892	9,118	1391,664	738,295
-12,877	9,090	1390,852	737,706
-11,863	9,056	1390,240	737,197
-10,848	9,038	1389,496	736,688
-9,833	8,977	1388,218	735,703
-8,819	8,954	1387,547	735,211
-7,804	8,982	1386,440	734,725
-6,790	8,977	1385,358	734,096
-5,775	8,951	1384,507	733,498
-4,760	9,002	1383,409	733,121
-3,746	8,980	1382,489	732,505
-2,731	8,987	1381,624	732,049
-1,717	8,991	1380,869	731,639
-0,702	8,983	1378,997	730,582
0,313	12,938	1291,219	702,073
1,327	28,994	683,191	407,527
2,342	45,136	117,717	76,349
3,356	-0,569	16,398	8,175
4,371	13,633	3,595	1,962
5,386	-27,261	1,227	0,502
6,400	-200,000	0,181	0,628
7,415	-88,814	-0,309	0,064
8,429	-33,815	-0,227	-0,088
9,444	-9,667	-0,342	-0,160
10,459	-22,652	-0,327	-0,139
11,473	-70,980	-0,336	-0,089
12,488	-83,516	-0,272	-0,061
13,502	37,487	-0,404	-0,252
14,517	9,266	-0,217	-0,115
15,531	96,233	-0,290	-0,233
16,546	-12,194	-0,416	-0,191
17,561	199,964	-0,242	-0,262
18,575	480,179	-0,063	-0,100
19,590	145,945	-0,199	-0,188
20,604	54,382	-0,309	-0,209
21,619	83,057	-0,442	-0,338
22,634	-30,369	-0,454	-0,180
23,648	112,157	-0,430	-0,366
24,663	-30,972	-0,420	-0,166
25,677	27,180	-0,390	-0,230
26,692	41,011	-0,418	-0,265
27,707	-10,865	-0,337	-0,156
28,721	64,484	-0,392	-0,278
29,736	75,968	-0,445	-0,331
30,750	3,744	-0,546	-0,280
31,765	63,276	-0,383	-0,270
32,780	146,793	-0,252	-0,239
33,794	47,622	-0,423	-0,277
34,809	-54,823	-0,459	-0,145
35,823	34,244	-0,443	-0,271
36,838	148,087	-0,353	-0,335
37,853	73,722	-0,365	-0,269
38,867	65,936	-0,402	-0,286
39,882	-19,951	-0,435	-0,188
40,896	2,332	-0,265	-0,134
41,911	-71,915	-0,376	-0,098
42,926	-2,826	-0,402	-0,197
43,940	-20,866	-0,490	-0,210
44,955	144,663	-0,371	-0,348
45,969	325,207	-0,353	-0,475
46,984	219,203	-0,289	-0,325
47,999	147,835	-0,285	-0,270
49,013	58,346	-0,262	-0,180
50,028	13,163	-0,311	-0,169
51,042	186,031	-0,221	-0,231
52,057	-19,087	-0,362	-0,157
53,071	-48,619	-0,384	-0,129
54,086	421,455	-0,273	-0,412
55,101	46,139	-0,264	-0,171
56,115	-70,495	-0,298	-0,079
57,130	-8,786	-0,308	-0,145
58,144	-39,192	-0,400	-0,147
59,159	299,269	-0,318	-0,411
60,174	17,662	-0,445	-0,248
61,188	-21,818	-0,400	-0,170
62,203	-98,903	-0,300	-0,053
63,217	312,276	-0,192	-0,253
64,232	-24,492	-0,301	-0,125
65,247	36,891	-0,223	-0,138
66,261	-9,497	-0,494	-0,230
67,276	132,057	-0,332	-0,299
68,290	-26,452	-0,335	-0,137
69,305	-35,308	-0,273	-0,104
70,320	-83,692	-0,231	-0,051
71,334	83,363	-0,317	-0,241
72,349	167,796	-0,208	-0,207
73,363	-37,536	-0,331	-0,123
74,378	69,080	-0,366	-0,263
75,393	-95,303	-0,291	-0,054
76,407	-18,283	-0,312	-0,136
77,422	56,167	-0,269	-0,183
78,436	17,309	-0,330	-0,183
79,451	54,335	-0,192	-0,129
80,466	77,730	-0,427	-0,318
81,480	161,808	-0,322	-0,316
82,495	194,334	-0,186	-0,197
83,509	137,282	-0,246	-0,225
84,524	63,133	-0,173	-0,121
85,539	-66,932	-0,261	-0,072
86,553	225,511	-0,193	-0,219
87,568	41,891	-0,373	-0,236
88,582	105,315	-0,170	-0,140
89,597	92,690	-0,277	-0,218
90,611	-29,641	-0,248	-0,098
91,626	-142,355	-0,130	-0,009
92,641	-65,586	-0,223	-0,062
93,655	-86,586	-0,336	-0,071
94,670	597,051	-0,181	-0,315
95,684	170,640	-0,260	-0,261
96,699	120,400	-0,231	-0,201
97,714	213,481	-0,172	-0,190
98,728	28,954	-0,193	-0,114
99,743	141,004	-0,208	-0,192
100,757	-29,176	-0,313	-0,125
101,772	110,988	-0,213	-0,179
102,787	48,700	-0,232	-0,152
103,801	178,417	-0,203	-0,208
104,816	52,260	-0,195	-0,130
105,830	159,709	-0,283	-0,276
106,845	-108,097	-0,398	-0,060
107,860	-26,067	-0,290	-0,119
108,874	-34,310	-0,230	-0,088
109,889	7,879	-0,398	-0,208
110,903	48,031	-0,203	-0,133
111,918	7,376	-0,261	-0,136
112,933	737,549	-0,038	-0,072
113,947	109,291	-0,119	-0,100
114,962	-70,893	-0,343	-0,089
115,976	98,737	-0,139	-0,112
116,991	53,506	-0,235	-0,157
118,006	70,264	-0,402	-0,290
119,020	263,062	-0,143	-0,173
120,035	42,772	-0,220	-0,139
121,049	-92,463	-0,226	-0,044
122,064	-19,393	-0,209	0,090
123,079	250,210	-0,162	-0,192
124,093	166,619	-0,285	-0,282
125,108	438,881	-0,213	-0,325
126,122	25,474	-0,196	-0,113
127,137	87,429	-0,274	-0,212
128,151	-112,854	-0,232	-0,032
129,166	-17,785	-0,208	-0,090
130,181	148,928	-0,221	-0,208
131,195	349,785	-0,248	-0,342
132,210	-187,106	-0,275	-0,003
133,224	-61,552	-0,266	0,077
134,239	82,498	-0,189	-0,143
135,254	-78,278	-0,218	-0,052
136,268	83,051	-0,276	-0,209
137,283	283,812	-0,180	-0,226
138,297	-22,361	-0,313	-0,132
139,312	88,648	-0,380	-0,294
140,327	81,128	-0,240	-0,180
141,341	59,783	-0,280	-0,192
142,356	364,197	-0,115	-0,162
143,370	172,245	-0,202	-0,202
144,385	270,330	-0,201	-0,246
145,400	265,599	-0,161	-0,196
146,414	45,852	-0,174	-0,112
147,429	26,987	-0,334	-0,194
148,443	86,244	-0,298	-0,228
149,458	443,867	-0,095	-0,145
150,473	61,072	-0,146	-0,100
151,487	-53,034	-0,221	-0,070
152,502	68,132	-0,304	-0,216
153,516	56,070	-0,213	-0,144
154,531	125,493	-0,261	-0,230
155,546	39,593	-0,244	-0,152
156,560	-170,107	-0,253	-0,006
157,575	341,068	-0,221	-0,300
158,589	170,782	-0,181	-0,180
159,604	8,969	-0,266	-0,139
160,619	-27,210	-0,270	-0,109
161,633	-200,000	-0,106	-0,351
162,648	-22,201	-0,344	-0,145
163,662	64,654	-0,174	-0,122
164,677	85,169	-0,086	-0,065
165,692	69,675	-0,219	-0,157
166,706	265,808	-0,203	-0,246
167,721	471,791	-0,192	-0,302
168,735	10,946	-0,344	-0,182
169,750	-75,349	-0,219	-0,054
170,764	-32,464	-0,261	-0,101
171,779	-25,012	-0,194	-0,080
172,794	-75,908	-0,256	-0,062
173,808	49,643	-0,185	-0,121
174,823	132,775	-0,168	-0,151
175,837	49,765	-0,252	-0,164
176,852	41,075	-0,228	-0,143
177,867	-200,000	0,041	-0,221
178,881	101,234	-0,208	-0,168
179,896	266,690	-0,060	-0,073
180,910	-32,443	-0,164	-0,063
181,925	118,525	-0,256	-0,220
182,940	99,622	-0,244	-0,196
183,954	106,901	-0,261	-0,215
184,969	105,043	-0,199	-0,163
185,983	559,050	-0,099	-0,166
186,998	542,761	-0,190	-0,315
188,013	179,868	-0,197	-0,201
189,027	-80,772	-0,255	-0,058
190,042	-68,869	-0,292	-0,078
191,056	-3,973	-0,191	-0,091
192,071	-50,281	-0,187	-0,061
193,086	800,000	-0,035	-0,072
194,100	163,080	-0,215	-0,209
195,115	7,107	-0,107	-0,055
196,129	-35,718	-0,219	-0,082
197,144	66,719	-0,267	-0,188
198,159	610,018	-0,111	-0,194
199,173	-145,339	-0,169	0,010
200,188	131,149	-0,221	-0,197
201,202	-34,975	-0,291	-0,109
202,217	381,991	-0,121	-0,172
203,232	2,182	-0,200	-0,100
204,246	207,706	-0,135	-0,146
205,261	413,918	-0,079	-0,116
206,275	41,912	-0,280	-0,175
207,290	800,000	-0,109	-0,283
208,304	7,475	-0,165	-0,085
209,319	-27,653	-0,152	-0,061
210,334	53,386	-0,139	-0,092
211,348	-53,202	-0,245	-0,077
212,363	382,800	-0,111	-0,158
213,377	612,003	-0,144	-0,251
214,392	48,612	-0,153	-0,099
215,407	-87,251	-0,184	-0,038
216,421	37,947	-0,184	-0,113
217,436	-63,074	-0,223	-0,063
218,450	19,301	-0,122	-0,067
219,465	371,256	-0,107	-0,150
220,480	-9,887	-0,097	-0,045
221,494	-115,105	-0,202	0,026
222,509	102,936	-0,170	-0,138
223,523	-51,938	-0,195	-0,062
224,538	60,927	-0,188	-0,129
225,553	800,000	-0,107	-0,228
226,567	207,485	-0,207	-0,223
227,582	48,982	-0,193	-0,125
228,596	-2,248	-0,104	-0,050
229,611	-200,000	-0,036	-0,140
230,626	134,029	-0,145	-0,130
231,640	120,244	-0,145	-0,124
232,655	-7,284	-0,208	-0,097
233,669	49,534	-0,223	-0,145
234,684	55,757	-0,257	-0,172
235,699	107,177	-0,287	-0,235
236,713	72,595	-0,101	-0,073
237,728	800,000	-0,076	-0,189
238,742	90,595	-0,154	-0,119
239,757	800,000	-0,087	-0,230
240,772	23,722	-0,218	-0,123
241,786	800,000	-0,067	-0,150
242,801	-141,868	-0,225	0,015
243,815	-135,397	-0,269	0,022
244,830	87,219	-0,230	-0,175
245,844	14,666	-0,158	-0,085
246,859	-97,004	-0,196	-0,035
247,874	73,464	-0,269	-0,194
248,888	1,873	-0,190	-0,094
249,903	17,640	-0,265	-0,145
250,917	-106,541	-0,183	-0,028
251,932	-65,998	-0,216	-0,059
252,947	-30,994	-0,203	-0,079
253,961	88,380	-0,166	-0,127
254,976	143,160	-0,233	-0,214
255,990	54,449	-0,227	-0,151
257,005	800,000	-0,052	-0,155
258,020	91,062	-0,188	-0,145
259,034	4,510	-0,164	-0,083
260,049	-55,953	-0,151	-0,046
261,063	-6,108	-0,177	-0,083
262,078	-107,755	-0,170	-0,025
263,093	152,112	-0,180	-0,169
264,107	62,461	-0,215	-0,148
265,122	-104,195	-0,096	-0,015
266,136	-126,033	-0,148	-0,015
267,151	-58,442	-0,179	-0,053
268,166	34,849	-0,265	-0,160
269,180	53,676	-0,161	-0,107
270,195	116,205	-0,151	-0,127
271,209	800,000	-0,089	-0,170
272,224	-85,096	-0,121	0,026
273,239	-43,630	-0,085	-0,029
274,253	-85,029	-0,157	-0,034
275,268	382,968	-0,130	-0,184
276,282	253,054	-0,091	-0,107
277,297	310,213	-0,149	-0,192
278,312	-110,782	-0,084	-0,012
279,326	34,960	-0,176	-0,106
280,341	800,000	-0,055	-0,129
281,355	48,033	-0,107	0,069
282,370	722,034	-0,070	-0,128
283,384	244,877	-0,105	-0,122
284,399	732,483	-0,097	-0,180
285,414	211,542	-0,100	-0,108
286,428	423,257	-0,070	-0,103
287,443	35,650	-0,135	-0,081
288,457	-123,667	-0,230	-0,025
289,472	101,322	-0,067	-0,054
290,487	-96,673	-0,066	-0,012
291,501	565,893	-0,129	-0,216
292,516	363,111	-0,166	-0,229
293,530	57,935	-0,157	-0,106
294,545	-200,000	-0,045	-0,175
295,560	-2,181	-0,087	0,042
296,574	-52,214	-0,139	-0,044
297,589	800,000	-0,083	-0,201
298,603	66,932	-0,258	-0,180
299,618	250,187	-0,143	-0,167
300,633	-78,215	-0,175	0,041
301,647	-49,058	-0,086	0,028
302,662	-138,901	-0,117	-0,009
303,676	-98,264	-0,114	-0,020
304,691	48,499	-0,189	-0,121
305,706	172,475	-0,184	-0,182
306,720	74,666	-0,192	-0,139
307,735	327,928	-0,111	-0,147
308,749	-132,699	-0,138	-0,012
309,764	-51,025	-0,041	-0,013
310,779	-200,000	-0,030	-0,098
311,793	67,292	-0,174	-0,122
312,808	511,886	-0,157	-0,252
313,822	-12,740	-0,238	-0,106
314,837	136,101	-0,160	-0,143
315,852	191,148	-0,095	-0,099
316,866	199,899	-0,050	-0,052
317,881	-107,043	-0,105	-0,016
318,895	213,348	-0,092	-0,100
319,910	-130,296	-0,178	-0,016
320,925	10,450	-0,200	-0,104
321,939	-93,832	-0,265	0,050
322,954	277,531	-0,102	-0,125
323,968	-97,688	-0,176	0,031
324,983	681,862	-0,058	-0,105
325,997	-84,149	-0,174	0,038
327,012	284,374	-0,138	-0,171
328,027	-22,177	-0,139	-0,058
329,041	-10,270	-0,220	-0,100
330,056	426,416	-0,061	-0,090
331,070	120,173	-0,199	-0,169
332,085	705,253	-0,056	-0,101
333,100	393,174	-0,059	-0,084
334,114	68,080	-0,182	-0,127
335,129	800,000	-0,083	-0,223
336,143	800,000	-0,029	-0,060
337,158	800,000	-0,057	-0,117
338,173	81,509	-0,106	-0,078
339,187	-80,109	-0,134	0,030
340,202	352,066	-0,077	-0,105
341,216	-200,000	-0,079	-0,246
342,231	-28,008	-0,221	-0,087
343,246	438,854	-0,125	-0,187
344,260	-109,870	-0,175	-0,025
345,275	21,319	-0,153	-0,085
346,289	8,472	-0,100	0,051
347,304	48,499	-0,196	-0,125
348,319	135,574	-0,119	-0,106
349,333	525,337	-0,111	-0,179
350,348	42,304	-0,151	-0,094
351,362	40,811	-0,181	-0,111
352,377	-200,000	0,008	-0,067
353,392	-153,167	-0,112	-0,005
354,406	-119,186	-0,144	-0,017
355,421	207,626	1306,005	1395,177
356,435	159,725	1465,643	1395,646
