DTS Sentinel unit serial number:	SN410029Multiplexer serial number:	ORYXHardware model number:	OX2-SRSoftware version number:	ORYX F/W v4,00 Oryx Data Collector v3.7.2.0data status	okinstallation	B3 Nyhavnadifferential loss correction	single-endedforward channel	channel 1reverse channel	N/Adate	2023/12/01time	17:52:30forward acquisition time	300,00reverse acquisition time	0,00gamma	499,1914k internal	0,3203k external	0,3203temperature offset calibration	1,0000default loss term (dB/km)	0,3820temperature slope calibration	1,0000multiplexer offset coefficient	1,0000multiplexer slope coefficient	1,0000fibre end	0,00T internal ref (°C)	14,43T ext. ref 1 (°C)	0,47T ext. ref 2 (°C)	0,44length (m)	temperature (°C)	Stokes	anti-Stokes-744,400	95,970	-0,312	-0,259
-743,385	800,000	0,180	0,385
-742,371	-5,371	-0,177	-0,088
-741,356	447,980	0,170	0,272
-740,342	330,146	-0,184	-0,258
-739,327	800,000	0,084	0,246
-738,312	257,246	-0,241	-0,302
-737,298	-200,000	0,011	0,331
-736,283	224,775	-0,128	-0,151
-735,269	-200,000	0,043	0,165
-734,254	228,278	-0,190	-0,225
-733,239	80,066	-0,186	0,146
-732,225	230,377	-0,065	-0,077
-731,210	-106,863	0,283	-0,045
-730,196	-200,000	0,011	-0,062
-729,181	-200,000	0,017	-0,146
-728,167	-25,043	-0,052	-0,022
-727,152	-200,000	-0,007	0,070
-726,137	75,502	-0,016	-0,012
-725,123	-46,495	-0,116	-0,041
-724,108	-2,479	0,026	0,013
-723,094	-73,160	-0,168	-0,044
-722,079	800,000	-0,061	-0,146
-721,064	800,000	0,012	-0,036
-720,050	0,235	0,086	-0,044
-719,035	22,274	-0,077	-0,046
-718,021	-200,000	-0,001	-0,104
-717,006	4,033	-0,097	-0,051
-715,991	-46,177	-0,060	-0,021
-714,977	764,077	0,020	-0,039
-713,962	3,463	-0,109	0,057
-712,948	-15,476	0,109	-0,050
-711,933	285,549	-0,024	0,031
-710,918	7,086	-0,019	-0,010
-709,904	-52,657	-0,038	-0,013
-708,889	-110,459	-0,136	-0,020
-707,875	38,681	-0,115	0,075
-706,860	383,737	0,108	0,162
-705,845	-200,000	-0,009	0,080
-704,831	-89,373	-0,185	-0,039
-703,816	548,486	-0,074	-0,130
-702,802	800,000	0,029	0,067
-701,787	-77,980	-0,200	-0,050
-700,772	-147,572	-0,094	-0,006
-699,758	-200,000	0,019	0,076
-698,743	-200,000	-0,008	0,035
-697,729	-180,835	-0,039	-0,001
-696,714	-6,765	0,065	0,032
-695,699	11,753	-0,090	-0,050
-694,685	173,319	-0,063	-0,066
-693,670	279,586	0,074	-0,096
-692,656	-200,000	0,007	-0,151
-691,641	-200,000	0,004	0,147
-690,627	464,979	0,036	-0,058
-689,612	36,731	-0,061	0,039
-688,597	112,586	-0,071	0,062
-687,583	287,383	-0,044	0,057
-686,568	-125,094	0,113	-0,012
-685,554	125,984	-0,045	-0,041
-684,539	-78,296	-0,006	0,001
-683,524	35,318	0,140	-0,089
-682,510	236,357	0,030	0,036
-681,495	-200,000	-0,037	-0,119
-680,481	7,457	-0,056	-0,030
-679,466	-140,768	-0,098	0,007
-678,451	-200,000	0,022	0,108
-677,437	136,779	-0,049	0,046
-676,422	-200,000	0,001	-0,072
-675,408	800,000	0,025	0,071
-674,393	-84,976	-0,083	0,019
-673,378	-134,752	0,122	-0,011
-672,364	634,725	-0,092	-0,170
-671,349	-177,173	0,024	0,000
-670,335	40,164	-0,123	-0,080
-669,320	-149,285	0,048	-0,003
-668,305	200,199	0,060	0,067
-667,291	-76,305	-0,240	0,061
-666,276	43,146	0,047	0,031
-665,262	22,098	-0,060	-0,036
-664,247	-110,906	0,091	-0,013
-663,232	80,311	-0,130	-0,101
-662,218	96,393	-0,059	-0,049
-661,203	121,277	-0,146	0,131
-660,189	800,000	0,036	-0,087
-659,174	-200,000	-0,017	0,087
-658,159	358,354	-0,066	-0,096
-657,145	-149,239	-0,178	0,010
-656,130	-99,580	0,047	0,008
-655,116	-200,000	-0,003	0,041
-654,101	800,000	0,042	0,088
-653,086	-32,735	0,085	0,034
-652,072	-200,000	-0,018	-0,154
-651,057	-105,893	-0,110	0,018
-650,043	-26,691	-0,054	0,023
-649,028	-200,000	0,000	-0,113
-648,014	373,636	0,047	0,070
-646,999	50,296	0,142	-0,097
-645,984	-200,000	-0,022	-0,077
-644,970	254,309	0,040	-0,050
-643,955	-150,642	-0,123	0,007
-642,941	-200,000	0,009	-0,059
-641,926	355,927	0,072	-0,104
-640,911	-200,000	0,017	-0,100
-639,897	76,388	0,055	-0,042
-638,882	258,037	0,100	-0,125
-637,868	-190,946	-0,143	0,001
-636,853	266,033	0,017	-0,022
-635,838	-200,000	0,001	-0,097
-634,824	-200,000	0,023	0,080
-633,809	52,307	0,026	0,018
-632,795	796,335	0,018	-0,036
-631,780	90,808	0,099	-0,080
-630,765	8,386	-0,088	-0,048
-629,751	231,048	-0,036	0,043
-628,736	182,836	-0,096	-0,103
-627,722	-200,000	-0,025	0,120
-626,707	800,000	-0,018	-0,039
-625,692	267,170	0,021	0,027
-624,678	614,070	-0,083	-0,151
-623,663	264,959	-0,076	0,096
-622,649	-99,012	-0,142	-0,026
-621,634	365,562	-0,108	-0,157
-620,619	595,950	0,034	-0,061
-619,605	-200,000	0,028	-0,149
-618,590	-49,163	0,066	-0,023
-617,576	147,632	-0,118	-0,115
-616,561	260,427	0,067	-0,084
-615,546	-89,893	-0,100	0,021
-614,532	800,000	0,056	-0,156
-613,517	165,914	-0,039	-0,039
-612,503	14,255	0,141	-0,079
-611,488	-6,427	0,098	-0,048
-610,474	-81,741	-0,033	0,008
-609,459	800,000	-0,020	-0,047
-608,444	168,501	0,066	-0,068
-607,430	800,000	-0,066	-0,168
-606,415	-115,745	0,028	0,004
-605,401	800,000	-0,057	0,146
-604,386	-14,928	-0,097	-0,045
-603,371	-200,000	-0,001	-0,028
-602,357	22,896	-0,090	0,053
-601,342	36,098	0,062	0,040
-600,328	134,680	-0,082	-0,076
-599,313	-200,000	-0,025	-0,110
-598,298	102,788	-0,161	0,136
-597,284	-35,266	-0,062	-0,024
-596,269	-132,543	0,028	0,003
-595,255	-200,000	-0,027	0,091
-594,240	-200,000	-0,002	-0,007
-593,225	-29,356	0,103	-0,042
-592,211	-1,318	-0,042	-0,021
-591,196	-57,723	0,066	-0,021
-590,182	-200,000	-0,002	-0,050
-589,167	800,000	0,024	-0,062
-588,152	-200,000	0,025	0,173
-587,138	800,000	0,030	0,087
-586,123	-58,605	-0,046	-0,014
-585,109	418,949	0,079	-0,122
-584,094	0,201	-0,100	0,051
-583,079	767,768	-0,052	0,103
-582,065	-200,000	0,004	-0,070
-581,050	685,244	-0,042	0,080
-580,036	-45,273	-0,066	-0,024
-579,021	-130,401	-0,010	0,001
-578,006	-133,609	-0,109	-0,010
-576,992	353,573	0,039	-0,057
-575,977	-73,790	0,049	-0,013
-574,963	-200,000	-0,002	-0,020
-573,948	-200,000	0,005	0,138
-572,934	-200,000	-0,017	0,099
-571,919	6,021	-0,068	-0,036
-570,904	141,515	-0,122	-0,117
-569,890	311,806	0,048	0,065
-568,875	134,710	-0,033	-0,031
-567,861	-200,000	0,005	-0,069
-566,846	-200,000	-0,017	0,099
-565,831	36,857	-0,058	-0,037
-564,817	289,406	-0,075	0,098
-563,802	-76,255	-0,075	-0,019
-562,788	-200,000	0,049	-0,161
-561,773	-200,000	0,006	0,044
-560,758	-200,000	0,009	-0,068
-559,744	-6,635	-0,083	0,040
-558,729	95,301	-0,055	0,045
-557,715	262,698	0,050	-0,063
-556,700	-200,000	0,012	-0,056
-555,685	84,986	0,049	0,039
-554,671	242,686	-0,113	-0,137
-553,656	-200,000	0,016	-0,102
-552,642	260,563	0,091	0,114
-551,627	-200,000	-0,009	-0,069
-550,612	-200,000	0,007	0,031
-549,598	421,755	0,050	-0,077
-548,583	54,892	0,127	-0,088
-547,569	-200,000	-0,008	-0,029
-546,554	-200,000	0,023	0,106
-545,539	-60,420	0,070	-0,021
-544,525	-46,215	-0,089	-0,031
-543,510	149,914	-0,078	-0,076
-542,496	98,586	-0,093	-0,077
-541,481	800,000	-0,015	0,036
-540,466	294,266	0,014	-0,018
-539,452	-56,736	0,077	-0,024
-538,437	800,000	0,047	0,105
-537,423	-200,000	0,019	0,085
-536,408	112,324	0,020	0,017
-535,393	242,236	-0,026	0,031
-534,379	181,304	-0,081	-0,086
-533,364	-200,000	0,015	-0,091
-532,350	-71,522	-0,073	0,019
-531,335	800,000	-0,032	0,077
-530,321	-200,000	0,037	0,126
-529,306	628,584	-0,067	0,122
-528,291	556,856	0,038	-0,067
-527,277	-200,000	-0,017	-0,076
-526,262	-200,000	0,009	-0,053
-525,248	340,631	0,059	0,083
-524,233	-200,000	0,018	0,132
-523,218	-93,196	0,091	0,018
-522,204	800,000	0,026	-0,071
-521,189	290,206	-0,062	-0,081
-520,175	800,000	-0,105	-0,237
-519,160	-172,709	0,079	-0,002
-518,145	-45,640	0,121	-0,043
-517,131	22,356	0,059	0,035
-516,116	13,382	-0,062	0,035
-515,102	-85,924	-0,116	-0,026
-514,087	-200,000	0,030	0,108
-513,072	800,000	-0,065	-0,141
-512,058	800,000	-0,038	-0,084
-511,043	311,006	-0,045	0,061
-510,029	-200,000	0,003	0,039
-509,014	-153,983	-0,053	0,003
-507,999	800,000	-0,064	0,129
-506,985	46,865	-0,146	0,098
-505,970	-200,000	-0,010	-0,057
-504,956	800,000	-0,021	-0,045
-503,941	21,168	-0,097	-0,057
-502,926	-200,000	0,002	0,062
-501,912	-154,915	0,118	0,005
-500,897	-140,196	-0,055	-0,004
-499,883	800,000	-0,071	0,191
-498,868	-174,663	-0,145	0,003
-497,853	-28,639	-0,082	-0,034
-496,839	-4,961	-0,077	-0,038
-495,824	435,163	0,070	-0,110
-494,810	91,598	-0,065	-0,052
-493,795	-200,000	0,016	0,074
-492,781	800,000	-0,032	0,094
-491,766	-157,466	-0,148	-0,006
-490,751	673,779	-0,067	-0,126
-489,737	105,818	-0,037	0,031
-488,722	573,110	0,046	-0,082
-487,708	-200,000	0,014	-0,049
-486,693	86,019	0,016	-0,013
-485,678	85,447	-0,081	0,064
-484,664	597,112	-0,032	-0,056
-483,649	-200,000	-0,013	-0,063
-482,635	280,284	0,056	0,072
-481,620	381,376	0,011	0,016
-480,605	-200,000	-0,011	0,130
-479,591	43,615	0,171	0,112
-478,576	387,898	-0,035	-0,052
-477,562	60,884	0,095	0,068
-476,547	-129,885	-0,051	0,005
-475,532	-200,000	0,020	-0,063
-474,518	-69,180	0,063	-0,017
-473,503	-70,664	0,197	0,053
-472,489	-200,000	0,021	0,078
-471,474	98,173	-0,121	0,100
-470,459	192,562	-0,116	-0,126
-469,445	-158,586	0,056	-0,002
-468,430	-11,462	0,041	-0,019
-467,416	81,205	0,115	0,089
-466,401	58,961	-0,112	-0,079
-465,386	232,245	0,051	-0,060
-464,372	55,832	-0,113	-0,079
-463,357	-200,000	-0,011	0,043
-462,343	-200,000	-0,015	-0,053
-461,328	-61,429	-0,185	0,055
-460,313	698,323	0,055	0,104
-459,299	-200,000	0,003	0,233
-458,284	138,705	0,042	0,039
-457,270	800,000	0,026	-0,055
-456,255	-200,000	-0,017	0,090
-455,241	43,836	-0,024	-0,016
-454,226	81,943	-0,046	-0,036
-453,211	222,876	0,068	-0,079
-452,197	238,189	0,092	0,110
-451,182	800,000	0,005	-0,016
-450,168	-74,512	-0,027	-0,007
-449,153	-83,822	0,156	0,036
-448,138	-49,963	0,047	-0,016
-447,124	-200,000	0,007	-0,072
-446,109	-115,579	-0,107	0,014
-445,095	-200,000	-0,013	0,090
-444,080	-98,488	0,004	-0,001
-443,065	124,658	0,064	0,058
-442,051	-200,000	0,024	-0,079
-441,036	555,601	-0,084	-0,145
-440,022	-200,000	0,023	-0,134
-439,007	124,349	0,007	-0,006
-437,992	33,010	0,058	-0,036
-436,978	673,997	0,050	0,093
-435,963	-200,000	-0,001	0,196
-434,949	365,592	-0,048	0,070
-433,934	72,644	-0,112	-0,084
-432,919	800,000	0,025	0,063
-431,905	747,009	-0,087	0,169
-430,890	-65,030	0,081	-0,023
-429,876	-57,226	0,136	0,043
-428,861	800,000	0,037	-0,074
-427,846	106,618	-0,065	0,056
-426,832	800,000	0,046	-0,138
-425,817	103,446	-0,087	0,073
-424,803	-200,000	0,000	-0,021
-423,788	687,019	-0,020	-0,037
-422,773	324,775	0,108	0,149
-421,759	340,778	-0,087	0,122
-420,744	-200,000	0,020	-0,140
-419,730	193,027	0,097	0,106
-418,715	-200,000	0,016	-0,082
-417,701	263,200	0,035	0,044
-416,686	-200,000	-0,013	-0,093
-415,671	800,000	0,064	0,140
-414,657	-161,881	0,036	0,001
-413,642	92,108	-0,070	-0,057
-412,628	11,802	-0,066	-0,037
-411,613	-48,176	-0,113	-0,039
-410,598	118,428	0,124	-0,110
-409,584	50,868	-0,106	0,072
-408,569	264,728	0,108	-0,135
-407,555	54,819	-0,026	-0,018
-406,540	-200,000	0,011	-0,122
-405,525	800,000	0,036	0,101
-404,511	101,257	-0,030	-0,025
-403,496	167,510	0,068	0,069
-402,482	-200,000	0,022	-0,108
-401,467	-26,006	0,122	-0,051
-400,452	-98,543	0,081	0,015
-399,438	104,404	-0,040	0,034
-398,423	48,687	0,004	0,003
-397,409	-200,000	0,000	-0,105
-396,394	284,775	0,031	-0,040
-395,379	-175,692	0,150	-0,003
-394,365	112,592	-0,057	-0,049
-393,350	41,578	0,075	0,049
-392,336	-11,035	0,037	-0,018
-391,321	28,914	0,049	0,030
-390,306	-200,000	0,007	-0,024
-389,292	800,000	-0,060	0,122
-388,277	-200,000	0,010	-0,041
-387,263	-200,000	-0,003	0,029
-386,248	503,941	0,064	0,106
-385,233	391,033	-0,045	0,067
-384,219	-200,000	0,029	0,146
-383,204	4,546	0,171	-0,090
-382,190	800,000	-0,037	-0,075
-381,175	105,966	0,078	-0,066
-380,160	-200,000	0,017	0,122
-379,146	-76,682	0,149	0,037
-378,131	375,718	-0,090	0,132
-377,117	-42,338	0,090	-0,033
-376,102	-5,104	-0,093	-0,046
-375,088	-76,128	-0,070	0,018
-374,073	-49,089	0,091	0,031
-373,058	271,615	0,039	0,050
-372,044	800,000	0,040	0,124
-371,029	-200,000	0,003	0,025
-370,015	304,897	0,084	-0,112
-369,000	-112,953	0,100	0,014
-367,985	-12,923	-0,037	-0,017
-366,971	187,456	-0,054	0,058
-365,956	800,000	0,014	0,031
-364,942	93,592	0,078	0,063
-363,927	100,161	0,037	0,030
-362,912	800,000	0,032	-0,098
-361,898	128,531	-0,035	-0,032
-360,883	-200,000	0,002	0,015
-359,869	185,503	-0,041	-0,044
-358,854	239,792	-0,023	0,028
-357,839	-200,000	-0,194	0,000
-356,825	-200,000	0,048	0,236
-355,810	-200,000	-0,012	0,072
-354,796	-10,504	-0,083	-0,039
-353,781	262,392	-0,029	0,036
-352,766	-101,719	-0,077	-0,013
-351,752	17,802	0,068	-0,039
-350,737	-141,169	0,067	0,005
-349,723	-33,427	-0,068	0,027
-348,708	-53,221	0,125	0,041
-347,693	-32,870	0,040	0,016
-346,679	-200,000	0,061	-0,197
-345,664	-11,627	-0,012	0,006
-344,650	354,767	0,065	0,093
-343,635	-200,000	0,018	0,101
-342,620	319,336	0,057	0,077
-341,606	-200,000	-0,033	0,154
-340,591	-200,000	0,009	-0,143
-339,577	-200,000	-0,033	-0,111
-338,562	-116,942	0,130	0,017
-337,548	800,000	0,035	0,085
-336,533	-89,231	-0,111	0,023
-335,518	27,150	-0,063	-0,038
-334,504	-200,000	-0,007	0,117
-333,489	-200,000	-0,015	0,089
-332,475	159,868	0,042	-0,042
-331,460	237,399	-0,060	0,071
-330,445	-200,000	0,017	0,075
-329,431	-136,174	0,150	-0,012
-328,416	800,000	0,014	0,035
-327,402	136,060	0,069	0,065
-326,387	-200,000	-0,005	-0,052
-325,372	-200,000	-0,055	-0,199
-324,358	800,000	-0,025	-0,067
-323,343	800,000	-0,039	0,077
-322,329	202,540	0,067	-0,074
-321,314	-200,000	0,009	0,123
-320,299	133,878	-0,092	0,085
-319,285	-200,000	0,000	0,082
-318,270	-144,819	-0,052	-0,003
-317,256	-169,049	0,024	0,001
-316,241	-31,448	0,045	-0,018
-315,226	-200,000	-0,024	0,175
-314,212	3,569	0,094	-0,049
-313,197	-200,000	-0,007	-0,066
-312,183	407,403	-0,033	-0,049
-311,168	800,000	0,024	-0,049
-310,153	-126,160	-0,151	0,016
-309,139	-98,979	-0,092	0,016
-308,124	398,685	-0,050	0,075
-307,110	28,673	-0,149	0,090
-306,095	-200,000	0,009	0,159
-305,080	-200,000	0,046	0,155
-304,066	407,785	-0,089	-0,134
-303,051	-200,000	0,056	-0,244
-302,037	93,275	0,078	-0,063
-301,022	-106,908	-0,020	0,003
-300,008	-200,000	-0,027	0,178
-298,993	482,117	-0,055	0,090
-297,978	800,000	0,036	0,112
-296,964	-200,000	0,038	0,128
-295,949	386,716	-0,049	0,073
-294,935	-164,204	-0,031	-0,001
-293,920	-200,000	-0,022	-0,075
-292,905	497,311	-0,038	-0,063
-291,891	800,000	0,059	0,145
-290,876	590,959	0,055	0,098
-289,862	697,080	-0,031	0,059
-288,847	-38,609	-0,127	-0,048
-287,832	-20,329	-0,122	-0,054
-286,818	-6,477	0,103	-0,050
-285,803	1,545	0,100	0,051
-284,789	364,818	0,090	-0,129
-283,774	-162,552	0,084	0,003
-282,759	475,743	-0,072	0,117
-281,745	-200,000	0,020	0,082
-280,730	31,196	0,120	-0,073
-279,716	-200,000	0,001	-0,040
-278,701	203,160	0,089	-0,099
-277,686	800,000	0,052	0,113
-276,672	482,539	0,068	0,110
-275,657	-200,000	-0,014	-0,055
-274,643	-200,000	0,006	-0,058
-273,628	555,420	0,058	-0,100
-272,613	800,000	-0,074	-0,168
-271,599	12,163	0,160	0,088
-270,584	23,703	0,052	0,031
-269,570	241,522	0,089	-0,107
-268,555	329,843	0,054	0,074
-267,540	-51,471	0,052	-0,017
-266,526	5,656	-0,052	-0,028
-265,511	-200,000	0,026	0,115
-264,497	-200,000	-0,004	0,090
-263,482	13,234	0,106	0,059
-262,467	152,363	0,097	-0,095
-261,453	-200,000	-0,001	-0,154
-260,438	338,108	-0,048	-0,067
-259,424	-49,735	-0,064	-0,022
-258,409	-123,468	0,069	-0,008
-257,395	362,158	-0,064	0,092
-256,380	377,525	-0,015	-0,021
-255,365	-66,314	0,096	-0,027
-254,351	43,354	-0,022	0,014
-253,336	-141,414	-0,118	0,008
-252,322	141,357	-0,091	-0,086
-251,307	-200,000	0,001	-0,039
-250,292	800,000	-0,043	0,096
-249,278	189,080	0,109	0,117
-248,263	-84,582	-0,073	0,016
-247,249	-200,000	-0,015	0,071
-246,234	-200,000	-0,011	-0,061
-245,219	192,402	-0,107	0,115
-244,205	3,548	-0,054	0,028
-243,190	-87,677	0,039	0,008
-242,176	56,827	-0,060	0,041
-241,161	-200,000	0,009	0,029
-240,146	21,992	-0,082	-0,047
-239,132	-118,267	0,079	-0,010
-238,117	-69,167	0,038	0,010
-237,103	181,151	-0,045	0,047
-236,088	-78,484	-0,150	0,036
-235,073	800,000	0,031	0,063
-234,059	800,000	0,074	0,167
-233,044	-28,857	0,073	0,030
-232,030	-104,874	-0,050	0,008
-231,015	-200,000	0,015	-0,051
-230,000	-118,101	-0,139	0,017
-228,986	-200,000	0,009	-0,061
-227,971	631,999	-0,024	0,044
-226,957	800,000	-0,011	0,025
-225,942	-200,000	0,008	0,089
-224,927	128,414	-0,064	0,058
-223,913	304,239	-0,009	0,012
-222,898	132,439	-0,106	0,097
-221,884	-200,000	0,023	-0,148
-220,869	110,615	-0,051	-0,043
-219,855	-200,000	0,000	-0,017
-218,840	-187,498	-0,072	-0,001
-217,825	510,089	0,067	0,112
-216,811	-110,849	-0,127	-0,018
-215,796	-153,048	-0,104	-0,005
-214,782	43,105	0,034	-0,022
-213,767	83,770	-0,060	-0,047
-212,752	73,935	0,069	-0,051
-211,738	-200,000	0,013	0,072
-210,723	-33,264	0,064	-0,025
-209,709	220,101	-0,136	-0,155
-208,694	-200,000	-0,004	-0,052
-207,679	-200,000	0,018	0,074
-206,665	-200,000	-0,012	0,037
-205,650	721,485	0,070	0,132
-204,636	618,089	0,104	0,187
-203,621	-200,000	-0,032	0,197
-202,606	-11,985	0,105	0,049
-201,592	-200,000	-0,027	-0,094
-200,577	-43,973	-0,064	-0,023
-199,563	325,136	0,052	-0,071
-198,548	353,527	0,020	0,028
-197,533	33,056	0,026	0,016
-196,519	-108,728	-0,076	-0,011
-195,504	-200,000	0,000	0,039
-194,490	71,104	-0,139	-0,102
-193,475	-39,990	-0,039	0,014
-192,460	800,000	0,062	-0,186
-191,446	-24,224	0,137	0,058
-190,431	421,757	-0,086	0,132
-189,417	342,289	0,107	0,149
-188,402	-70,929	0,126	-0,033
-187,387	685,498	0,039	-0,073
-186,373	800,000	0,046	-0,128
-185,358	659,974	-0,015	-0,028
-184,344	40,497	-0,039	0,025
-183,329	260,608	0,024	-0,030
-182,315	-106,086	0,141	-0,022
-181,300	800,000	0,016	0,044
-180,285	661,289	-0,039	0,073
-179,271	82,934	-0,032	-0,025
-178,256	-8,465	-0,011	0,005
-177,242	119,998	0,069	-0,061
-176,227	-25,834	0,020	0,008
-175,212	800,000	-0,020	-0,044
-174,198	-163,132	-0,025	0,001
-173,183	-57,853	0,127	0,039
-172,169	154,818	-0,070	-0,068
-171,154	-7,084	0,072	-0,035
-170,139	638,102	0,026	-0,047
-169,125	-153,429	-0,117	0,006
-168,110	-109,690	0,089	-0,013
-167,096	-99,103	0,086	0,015
-166,081	-64,203	-0,082	-0,023
-165,066	792,291	0,040	-0,079
-164,052	-200,000	0,004	-0,078
-163,037	800,000	-0,029	-0,068
-162,023	159,234	0,097	-0,096
-161,008	-169,131	0,041	0,001
-159,993	143,771	-0,063	0,060
-158,979	187,455	0,046	-0,049
-157,964	434,196	-0,091	-0,142
-156,950	-200,000	0,008	-0,072
-155,935	272,941	0,083	0,104
-154,920	189,369	-0,041	0,044
-153,906	800,000	0,065	-0,133
-152,891	609,010	-0,016	0,029
-151,877	800,000	-0,042	0,124
-150,862	-200,000	-0,011	-0,115
-149,847	-83,337	-0,101	-0,023
-148,833	15,184	0,056	0,031
-147,818	80,496	0,104	-0,080
-146,804	-114,869	0,169	0,023
-145,789	-200,000	0,011	-0,039
-144,775	-65,705	0,120	0,034
-143,760	165,498	-0,132	-0,132
-142,745	197,325	-0,104	-0,113
-141,731	485,620	0,042	0,067
-140,716	605,488	0,073	0,129
-139,702	800,000	-0,022	-0,060
-138,687	1,127	0,063	-0,032
-137,672	-48,410	-0,151	-0,051
-136,658	197,601	0,043	-0,047
-135,643	800,000	0,031	-0,094
-134,629	263,545	-0,047	-0,058
-133,614	19,667	0,053	-0,030
-132,599	50,552	-0,020	0,014
-131,585	-200,000	0,018	0,120
-130,570	93,414	-0,158	0,127
-129,556	-77,714	-0,152	-0,037
-128,541	-106,825	-0,160	-0,025
-127,526	800,000	0,013	0,030
-126,512	23,291	0,067	0,039
-125,497	82,083	0,105	-0,081
-124,483	-200,000	-0,020	-0,071
-123,468	-200,000	0,003	-0,057
-122,453	-200,000	-0,013	-0,066
-121,439	-43,585	-0,101	-0,036
-120,424	35,679	-0,117	0,073
-119,410	800,000	0,029	-0,070
-118,395	-127,705	0,028	-0,003
-117,380	-200,000	-0,008	-0,067
-116,366	176,434	-0,030	-0,030
-115,351	-200,000	-0,024	-0,098
-114,337	-120,416	0,103	0,012
-113,322	-200,000	0,016	-0,058
-112,307	11,078	0,068	-0,037
-111,293	800,000	0,021	-0,061
-110,278	-22,461	-0,059	0,025
-109,264	-72,135	-0,134	-0,035
-108,249	168,024	-0,018	-0,018
-107,234	-200,000	0,009	-0,051
-106,220	-200,000	0,006	-0,083
-105,205	-200,000	0,024	-0,079
-104,191	-200,000	0,002	-0,050
-103,176	-200,000	0,015	0,082
-102,162	23,462	0,038	0,022
-101,147	-79,637	-0,108	0,026
-100,132	270,064	0,047	-0,059
-99,118	-113,442	-0,058	-0,008
-98,103	-120,957	0,071	0,008
-97,089	65,299	0,113	0,081
-96,074	-143,892	-0,048	-0,003
-95,059	185,996	0,079	-0,083
-94,045	800,000	0,020	0,042
-93,030	163,633	-0,070	-0,070
-92,016	-96,834	0,134	-0,025
-91,001	206,522	-0,024	0,026
-89,986	-15,859	-0,024	-0,011
-88,972	573,570	-0,031	0,053
-87,957	206,178	0,045	0,050
-86,943	-200,000	-0,004	-0,172
-85,928	-86,625	-0,136	0,029
-84,913	54,690	-0,040	-0,027
-83,899	780,182	0,033	0,063
-82,884	-190,056	0,082	0,001
-81,870	1,666	0,065	0,033
-80,855	-135,119	0,037	0,003
-79,840	-200,000	-0,022	0,136
-78,826	173,317	0,057	0,058
-77,811	35,405	-0,088	-0,054
-76,797	-200,000	-0,005	-0,112
-75,782	-14,444	0,119	-0,054
-74,767	-22,029	-0,054	0,023
-73,753	-76,646	-0,065	-0,016
-72,738	110,254	0,059	-0,050
-71,724	-71,255	-0,139	-0,037
-70,709	85,883	-0,067	-0,053
-69,694	-5,730	0,061	-0,030
-68,680	104,409	0,041	-0,034
-67,665	16,388	-0,028	-0,016
-66,651	-200,000	0,000	0,046
-65,636	-200,000	0,022	-0,086
-64,622	-88,341	-0,060	-0,013
-63,607	-73,176	-0,114	-0,029
-62,592	118,299	-0,033	0,029
-61,578	-143,347	0,061	0,004
-60,563	149,142	0,031	-0,030
-59,549	800,000	-0,065	0,147
-58,534	-41,859	-1,500	-0,541
-57,519	447,037	-1,494	-2,333
-56,505	-200,000	-0,414	-4,342
-55,490	240,824	0,859	1,016
-54,476	800,000	4,794	11,398
-53,461	-200,000	18,351	293,473
-52,446	800,000	728,721	2240,788
-51,432	556,132	1643,101	2810,862
-50,417	78,622	1663,352	1256,814
-49,403	22,347	1537,113	886,355
-48,388	16,281	1460,474	812,830
-47,373	17,770	1450,562	814,443
-46,359	17,013	1440,615	805,213
-45,344	14,577	1436,097	791,051
-44,330	14,492	1434,115	789,522
-43,315	14,470	1432,428	788,458
-42,300	14,479	1430,727	787,531
-41,286	14,533	1429,619	787,149
-40,271	14,509	1428,398	786,331
-39,257	14,461	1427,215	785,418
-38,242	14,513	1425,850	784,881
-37,227	14,556	1424,731	784,441
-36,213	14,559	1423,328	783,651
-35,198	14,547	1422,155	782,918
-34,184	14,583	1421,140	782,498
-33,169	14,503	1419,921	781,419
-32,154	14,557	1418,936	781,099
-31,140	14,558	1417,519	780,292
-30,125	14,529	1416,581	779,606
-29,111	14,555	1415,380	779,039
-28,096	14,537	1414,282	778,319
-27,082	14,468	1413,263	777,405
-26,067	14,463	1412,118	776,718
-25,052	14,478	1411,151	776,228
-24,038	14,422	1410,090	775,349
-23,023	14,435	1409,145	774,859
-22,009	14,433	1407,986	774,183
-20,994	14,414	1407,225	773,646
-19,979	14,401	1406,332	773,064
-18,965	14,382	1405,230	772,340
-17,950	14,418	1404,265	771,946
-16,936	14,408	1403,307	771,340
-15,921	14,329	1402,270	770,374
-14,906	14,339	1401,556	769,995
-13,892	14,419	1400,276	769,634
-12,877	14,377	1399,620	769,047
-11,863	14,350	1398,874	768,482
-10,848	14,330	1397,826	767,785
-9,833	14,280	1396,876	766,999
-8,819	14,276	1396,002	766,469
-7,804	14,266	1395,015	765,850
-6,790	14,253	1393,995	765,202
-5,775	14,295	1392,953	764,794
-4,760	14,259	1392,170	764,168
-3,746	14,242	1391,455	763,665
-2,731	14,244	1390,534	763,139
-1,717	14,246	1389,608	762,609
-0,702	14,311	1387,713	761,836
0,313	18,235	1306,478	735,324
1,327	34,615	704,565	434,368
2,342	53,418	124,029	83,942
3,356	6,468	16,580	8,680
4,371	5,713	3,160	1,646
5,386	-4,877	0,519	0,252
6,400	-200,000	0,028	0,158
7,415	-32,564	-0,279	-0,109
8,429	800,000	-0,101	-0,240
9,444	5,719	-0,348	-0,181
10,459	12,078	-0,260	-0,141
11,473	28,852	-0,325	-0,194
12,488	-121,216	-0,154	-0,018
13,502	188,188	-0,224	-0,237
14,517	41,938	-0,367	-0,235
15,531	87,120	-0,283	-0,221
16,546	66,911	-0,349	-0,250
17,561	84,400	-0,310	-0,239
18,575	212,158	-0,220	-0,245
19,590	-72,938	-0,357	-0,092
20,604	87,781	-0,160	0,125
21,619	83,828	-0,385	-0,296
22,634	83,065	-0,458	-0,352
23,648	55,527	-0,573	-0,391
24,663	37,005	-0,432	-0,269
25,677	-10,116	-0,340	-0,159
26,692	138,520	-0,311	-0,288
27,707	128,225	-0,253	-0,227
28,721	33,349	-0,392	-0,240
29,736	24,329	-0,328	-0,191
30,750	9,885	-0,428	-0,229
31,765	-12,597	-0,415	-0,190
32,780	-16,197	-0,349	-0,156
33,794	58,311	-0,380	-0,262
34,809	87,046	-0,361	-0,281
35,823	74,984	-0,477	-0,354
36,838	5,436	-0,427	-0,221
37,853	206,654	-0,267	-0,293
38,867	233,800	-0,206	-0,239
39,882	80,389	-0,363	-0,275
40,896	59,420	-0,355	-0,246
41,911	90,387	-0,365	-0,288
42,926	248,950	-0,279	-0,333
43,940	126,307	-0,299	-0,266
44,955	85,913	-0,356	-0,276
45,969	202,969	-0,267	-0,291
46,984	108,193	-0,268	-0,225
47,999	171,310	-0,189	-0,191
49,013	-71,715	-0,302	-0,079
50,028	81,722	-0,232	-0,176
51,042	79,551	-0,320	-0,242
52,057	67,325	-0,311	-0,223
53,071	-60,597	-0,276	-0,082
54,086	52,532	-0,299	-0,201
55,101	-85,209	-0,395	-0,086
56,115	800,000	-0,124	-0,331
57,130	50,315	-0,412	-0,274
58,144	88,397	-0,321	-0,251
59,159	149,579	-0,305	-0,291
60,174	35,181	-0,424	-0,261
61,188	34,616	-0,235	-0,144
62,203	39,745	-0,244	-0,154
63,217	83,398	-0,220	-0,168
64,232	112,942	-0,256	-0,218
65,247	179,551	-0,254	-0,262
66,261	120,884	-0,328	-0,286
67,276	670,848	-0,216	-0,396
68,290	-41,368	-0,272	-0,098
69,305	96,943	-0,343	-0,276
70,320	186,159	-0,278	-0,291
71,334	107,488	-0,239	-0,200
72,349	96,522	-0,202	-0,162
73,363	144,812	-0,351	-0,329
74,378	119,222	-0,338	-0,294
75,393	54,646	-0,300	-0,203
76,407	7,900	-0,246	-0,129
77,422	-41,315	-0,347	-0,125
78,436	56,825	-0,246	-0,168
79,451	131,690	-0,201	-0,181
80,466	105,465	-0,385	-0,319
81,480	54,792	-0,440	-0,298
82,495	-22,788	-0,362	-0,153
83,509	32,662	-0,351	-0,213
84,524	55,053	-0,215	-0,146
85,539	56,280	-0,253	-0,172
86,553	347,388	-0,259	-0,359
87,568	101,530	-0,378	-0,309
88,582	83,232	-0,270	-0,206
89,597	-28,964	-0,346	-0,139
90,611	-47,195	-0,342	-0,116
91,626	112,391	-0,311	-0,264
92,641	76,025	-0,273	-0,202
93,655	-17,661	-0,296	-0,130
94,670	152,034	-0,191	-0,183
95,684	38,010	-0,322	-0,200
96,699	8,137	-0,309	-0,162
97,714	-127,695	-0,378	-0,038
98,728	-170,959	-0,214	-0,005
99,743	-61,175	-0,180	-0,053
100,757	186,540	-0,233	-0,243
101,772	53,839	-0,271	-0,182
102,787	-25,443	-0,229	-0,094
103,801	71,476	-0,291	-0,212
104,816	120,824	-0,293	-0,255
105,830	33,488	-0,351	-0,213
106,845	38,127	-0,280	-0,174
107,860	93,670	-0,309	-0,245
108,874	599,483	-0,150	-0,262
109,889	194,836	-0,234	-0,249
110,903	98,199	-0,246	-0,198
111,918	162,176	-0,247	-0,243
112,933	6,489	-0,261	-0,135
113,947	-86,784	-0,129	-0,027
114,962	-54,536	-0,368	-0,116
115,976	-9,730	-0,317	-0,147
116,991	51,487	-0,397	-0,263
118,006	-3,499	-0,308	-0,149
119,020	212,592	-0,210	-0,233
120,035	726,105	-0,148	-0,278
121,049	0,818	-0,245	-0,122
122,064	-150,356	-0,328	-0,017
123,079	87,138	-0,240	-0,185
124,093	-14,776	-0,290	-0,130
125,108	800,000	-0,096	-0,217
126,122	248,413	-0,229	-0,272
127,137	17,354	-0,280	-0,155
128,151	-62,106	-0,163	0,047
129,166	-47,740	-0,171	-0,058
130,181	-60,154	-0,246	-0,073
131,195	-3,100	-0,222	-0,108
132,210	20,401	-0,311	-0,175
133,224	130,403	-0,242	-0,217
134,239	230,096	-0,208	-0,238
135,254	7,759	-0,212	-0,110
136,268	-45,220	-0,267	0,092
137,283	63,231	-0,209	-0,146
138,297	205,856	-0,245	-0,267
139,312	-38,611	-0,308	-0,113
140,327	82,583	-0,225	-0,171
141,341	-63,496	-0,309	-0,088
142,356	12,800	-0,272	-0,147
143,370	-72,344	-0,289	-0,074
144,385	7,720	-0,234	-0,122
145,400	-2,734	-0,289	-0,141
146,414	173,973	-0,289	-0,291
147,429	-83,501	-0,274	-0,061
148,443	-42,473	-0,289	-0,102
149,458	-3,581	-0,307	-0,148
150,473	17,105	-0,188	-0,104
151,487	47,049	-0,222	-0,144
152,502	9,193	-0,313	-0,165
153,516	123,750	-0,313	-0,274
154,531	149,878	-0,243	-0,230
155,546	-90,711	-0,420	-0,084
156,560	-35,917	-0,291	-0,109
157,575	340,041	-0,149	-0,204
158,589	-24,402	-0,249	-0,103
159,604	4,301	-0,156	-0,079
160,619	242,128	-0,152	-0,177
161,633	302,299	-0,213	-0,275
162,648	-14,633	-0,288	-0,129
163,662	-20,383	-0,265	-0,113
164,677	13,410	-0,333	-0,180
165,692	72,720	-0,228	-0,166
166,706	184,767	-0,216	-0,224
167,721	-1,889	-0,289	-0,141
168,735	72,479	-0,236	-0,171
169,750	59,429	-0,281	-0,193
170,764	79,882	-0,266	-0,199
171,779	-200,000	-0,037	-0,184
172,794	-139,641	-0,305	-0,022
173,808	139,463	-0,142	-0,131
174,823	136,807	-0,326	-0,297
175,837	140,103	-0,193	-0,177
176,852	279,403	-0,222	-0,276
177,867	29,027	-0,238	-0,140
178,881	-32,945	-0,221	-0,085
179,896	24,801	-0,226	-0,130
180,910	-32,322	-0,233	-0,090
181,925	200,437	-0,204	-0,219
182,940	158,106	-0,216	-0,209
183,954	107,293	-0,231	-0,191
184,969	295,608	-0,134	-0,171
185,983	541,613	-0,169	-0,281
186,998	333,022	-0,115	-0,156
188,013	-77,376	-0,247	-0,059
189,027	612,024	-0,150	-0,263
190,042	87,678	-0,252	-0,194
191,056	330,282	-0,193	-0,259
192,071	9,641	-0,258	-0,136
193,086	145,710	-0,172	-0,160
194,100	77,750	-0,130	-0,096
195,115	-2,127	-0,387	-0,188
196,129	-39,733	-0,298	-0,108
197,144	64,669	-0,249	-0,174
198,159	107,187	-0,241	-0,199
199,173	154,933	-0,150	-0,144
200,188	-135,107	-0,292	-0,024
201,202	-26,639	-0,212	-0,086
202,217	-35,440	-0,215	-0,081
203,232	216,181	-0,206	-0,228
204,246	-18,343	-0,142	-0,061
205,261	-122,980	-0,310	-0,034
206,275	412,117	-0,115	-0,171
207,290	118,257	-0,153	-0,131
208,304	-31,602	-0,201	-0,078
209,319	629,390	-0,127	-0,224
210,334	-47,076	-0,164	-0,055
211,348	48,261	-0,244	-0,158
212,363	189,802	-0,157	-0,163
213,377	-141,935	-0,265	-0,018
214,392	33,491	-0,134	-0,081
215,407	-126,514	-0,143	0,015
216,421	-56,993	-0,196	-0,060
217,436	-11,027	-0,194	-0,088
218,450	83,650	-0,260	-0,196
219,465	-20,546	-0,273	-0,116
220,480	55,656	-0,191	-0,128
221,494	-189,905	-0,225	0,002
222,509	-67,080	-0,142	0,039
223,523	-200,000	-0,057	-0,215
224,538	-20,276	-0,220	-0,093
225,553	399,784	-0,106	-0,154
226,567	163,569	-0,262	-0,255
227,582	71,521	-0,267	-0,192
228,596	201,965	-0,178	-0,190
229,611	12,502	-0,125	-0,066
230,626	104,314	-0,123	-0,100
231,640	-80,815	-0,255	-0,058
232,655	215,126	-0,221	-0,244
233,669	57,145	-0,081	-0,054
234,684	282,519	-0,142	-0,177
235,699	130,160	-0,177	-0,157
236,713	331,675	-0,124	-0,166
237,728	20,087	-0,130	-0,072
238,742	-200,000	-0,018	-0,311
239,757	-65,440	-0,192	-0,053
240,772	457,758	-0,170	-0,263
241,786	26,023	-0,267	-0,154
242,801	121,391	-0,120	-0,103
243,815	39,583	-0,173	-0,107
244,830	267,626	-0,153	-0,186
245,844	-43,225	-0,178	-0,062
246,859	369,829	-0,139	-0,195
247,874	94,432	-0,326	-0,256
248,888	800,000	-0,098	-0,263
249,903	800,000	-0,063	-0,149
250,917	-27,477	-0,250	-0,100
251,932	415,149	-0,131	-0,194
252,947	125,877	-0,167	-0,146
253,961	130,813	-0,130	-0,115
254,976	-20,029	-0,184	-0,078
255,990	-105,280	-0,217	-0,034
257,005	168,576	-0,197	-0,194
258,020	198,047	-0,202	-0,214
259,034	11,835	-0,137	-0,072
260,049	220,417	-0,186	-0,206
261,063	320,764	-0,192	-0,253
262,078	168,936	-0,222	-0,219
263,093	86,705	-0,157	-0,119
264,107	-26,681	-0,241	-0,097
265,122	-14,321	-0,107	0,047
266,136	-116,073	-0,117	0,015
267,151	-15,111	-0,203	-0,090
268,166	-59,554	-0,198	-0,058
269,180	37,166	-0,188	-0,115
270,195	-171,234	-0,333	-0,008
271,209	294,685	-0,095	-0,121
272,224	267,029	-0,063	-0,077
273,239	513,642	-0,133	-0,215
274,253	150,899	-0,231	-0,217
275,268	-97,100	-0,111	-0,020
276,282	-0,817	-0,223	-0,108
277,297	800,000	-0,102	-0,248
278,312	61,698	-0,226	-0,155
279,326	-200,000	0,006	-0,161
280,341	-137,982	-0,215	0,016
281,355	352,810	-0,148	-0,203
282,370	-88,716	-0,179	-0,036
283,384	-60,957	-0,214	-0,062
284,399	156,244	-0,143	-0,136
285,414	-165,225	-0,303	0,009
286,428	50,351	-0,261	-0,170
287,443	56,768	-0,131	0,088
288,457	-40,751	-0,238	-0,085
289,472	426,523	-0,122	-0,183
290,487	375,728	-0,114	-0,161
291,501	394,595	-0,148	-0,214
292,516	350,309	-0,103	-0,141
293,530	-200,000	0,020	-0,128
294,545	166,028	-0,089	-0,087
295,560	800,000	-0,021	-0,043
296,574	61,438	-0,251	-0,172
297,589	90,131	-0,268	-0,207
298,603	300,507	-0,174	-0,222
299,618	0,341	-0,130	-0,064
300,633	1,000	-0,222	-0,109
301,647	-40,487	-0,241	-0,086
302,662	113,709	-0,169	-0,141
303,676	15,760	-0,197	-0,106
304,691	380,545	-0,104	-0,147
305,706	146,912	-0,070	-0,065
306,720	-3,633	-0,273	-0,130
307,735	41,551	-0,182	-0,113
308,749	800,000	-0,062	-0,161
309,764	198,398	-0,050	-0,053
310,779	237,333	-0,143	-0,164
311,793	-13,264	-0,186	-0,083
312,808	105,125	-0,169	-0,137
313,822	430,888	-0,096	-0,143
314,837	-70,574	-0,090	0,023
315,852	23,427	-0,178	-0,100
316,866	-29,559	-0,073	-0,029
317,881	15,234	-0,055	0,030
318,895	538,758	-0,101	-0,165
319,910	34,724	-0,175	-0,105
320,925	19,261	-0,176	-0,097
321,939	-17,558	-0,276	-0,119
322,954	-76,625	-0,164	-0,039
323,968	-143,847	-0,144	-0,009
324,983	104,948	-0,138	0,112
325,997	669,313	-0,064	-0,114
327,012	35,527	-0,171	-0,103
328,027	144,987	-0,239	-0,219
329,041	800,000	-0,080	-0,179
330,056	373,788	-0,074	-0,103
331,070	401,248	-0,119	-0,172
332,085	223,035	-0,087	-0,097
333,100	-111,770	-0,170	0,023
334,114	-119,826	-0,209	-0,024
335,129	198,534	-0,204	-0,214
336,143	-51,455	-0,195	-0,062
337,158	-21,337	-0,230	-0,096
338,173	497,654	0,021	-0,034
339,187	242,782	-0,039	-0,045
340,202	0,356	-0,171	-0,083
341,216	71,070	-0,143	-0,102
342,231	78,311	-0,076	-0,056
343,246	-200,000	-0,029	-0,250
344,260	-13,081	-0,166	-0,074
345,275	176,275	-0,108	-0,108
346,289	800,000	-0,023	-0,060
347,304	-200,000	-0,020	-0,225
348,319	-200,000	-0,039	-0,177
349,333	185,057	-0,195	-0,199
350,348	16,872	-0,149	-0,081
351,362	211,422	-0,120	-0,130
352,377	134,804	-0,103	-0,092
353,392	-200,000	-0,049	-0,178
354,406	465,165	-0,027	-0,041
355,421	209,434	1313,569	1412,677
356,435	161,190	1474,173	1413,189
