DTS Sentinel unit serial number:	SN410029Multiplexer serial number:	ORYXHardware model number:	OX2-SRSoftware version number:	ORYX F/W v4,00 Oryx Data Collector v3.7.2.0data status	okinstallation	B3 Nyhavnadifferential loss correction	single-endedforward channel	channel 1reverse channel	N/Adate	2023/12/04time	12:07:30forward acquisition time	300,00reverse acquisition time	0,00gamma	499,1914k internal	0,3202k external	0,3202temperature offset calibration	1,0000default loss term (dB/km)	0,3820temperature slope calibration	1,0000multiplexer offset coefficient	1,0000multiplexer slope coefficient	1,0000fibre end	0,00T internal ref (°C)	14,31T ext. ref 1 (°C)	-0,03T ext. ref 2 (°C)	-0,04length (m)	temperature (°C)	Stokes	anti-Stokes-744,400	800,000	-0,127	-0,295
-743,385	-200,000	-0,079	0,277
-742,371	-53,107	-0,204	-0,068
-741,356	800,000	0,094	0,295
-740,342	-0,896	-0,247	-0,127
-739,327	800,000	0,077	0,185
-738,312	202,014	-0,231	-0,259
-737,298	-200,000	-0,057	0,352
-736,283	658,898	-0,127	-0,239
-735,269	-200,000	-0,072	0,239
-734,254	328,072	-0,124	-0,174
-733,239	180,808	-0,091	0,097
-732,225	-144,989	-0,042	-0,003
-731,210	146,256	0,112	0,109
-730,196	756,769	-0,023	0,045
-729,181	-200,000	0,009	-0,126
-728,167	367,344	-0,006	-0,009
-727,152	-105,612	-0,072	0,012
-726,137	27,158	-0,073	0,045
-725,123	800,000	-0,037	-0,083
-724,108	-109,120	-0,095	-0,014
-723,094	-200,000	-0,009	0,031
-722,079	-158,133	0,032	-0,001
-721,064	38,405	-0,118	-0,076
-720,050	-200,000	0,008	-0,106
-719,035	-200,000	0,015	-0,094
-718,021	-83,212	-0,038	-0,009
-717,006	79,150	0,059	-0,046
-715,991	-138,974	-0,203	-0,016
-714,977	800,000	-0,063	0,163
-713,962	277,686	-0,026	-0,034
-712,948	103,524	-0,087	-0,075
-711,933	-200,000	0,004	0,085
-710,918	-173,669	-0,141	0,003
-709,904	800,000	0,062	-0,145
-708,889	362,595	-0,081	-0,118
-707,875	-23,513	-0,132	-0,057
-706,860	539,097	0,038	0,065
-705,845	-1,836	0,103	0,053
-704,831	755,565	-0,012	-0,024
-703,816	533,943	0,036	-0,061
-702,802	-200,000	-0,000	0,004
-701,787	242,572	-0,038	-0,047
-700,772	-131,651	-0,078	-0,007
-699,758	119,020	0,078	0,070
-698,743	800,000	-0,012	-0,031
-697,729	-170,112	-0,065	-0,002
-696,714	336,388	-0,020	0,028
-695,699	-200,000	0,026	-0,176
-694,685	800,000	0,045	-0,109
-693,670	138,831	0,123	-0,118
-692,656	-118,252	0,133	-0,017
-691,641	-173,537	0,105	0,002
-690,627	30,551	-0,114	-0,071
-689,612	800,000	0,022	-0,068
-688,597	-22,867	-0,183	0,080
-687,583	235,800	-0,154	-0,185
-686,568	141,087	0,034	-0,032
-685,554	217,871	-0,029	0,034
-684,539	-200,000	-0,024	0,124
-683,524	-43,269	-0,042	-0,015
-682,510	-200,000	0,003	-0,104
-681,495	8,503	-0,129	0,070
-680,481	-196,216	-0,183	-0,001
-679,466	202,507	-0,062	-0,069
-678,451	-200,000	0,045	-0,152
-677,437	800,000	0,057	0,151
-676,422	329,971	0,060	0,084
-675,408	-114,707	0,120	0,016
-674,393	-24,026	-0,177	0,076
-673,378	800,000	-0,051	0,132
-672,364	-7,678	0,061	-0,030
-671,349	-200,000	-0,004	0,086
-670,335	800,000	0,013	-0,027
-669,320	-165,213	0,147	0,005
-668,305	655,805	0,042	-0,078
-667,291	-23,431	0,070	-0,030
-666,276	-200,000	0,005	-0,075
-665,262	800,000	-0,051	-0,106
-664,247	516,525	-0,059	-0,101
-663,232	-200,000	0,003	0,067
-662,218	155,791	-0,064	0,064
-661,203	800,000	0,043	-0,103
-660,189	-159,830	-0,184	0,007
-659,174	-140,954	-0,019	0,001
-658,159	-200,000	-0,007	-0,068
-657,145	800,000	0,036	-0,106
-656,130	-200,000	0,016	-0,067
-655,116	-200,000	-0,001	-0,114
-654,101	311,950	-0,067	0,091
-653,086	-146,073	-0,170	-0,011
-652,072	-103,627	0,095	-0,016
-651,057	-48,638	-0,068	0,024
-650,043	94,073	0,099	-0,081
-649,028	-200,000	0,012	0,056
-648,014	-137,121	0,116	0,009
-646,999	546,541	0,088	0,152
-645,984	800,000	-0,008	0,026
-644,970	800,000	0,031	-0,075
-643,955	-116,204	-0,042	-0,006
-642,941	283,899	-0,089	-0,116
-641,926	412,554	-0,034	0,053
-640,911	-91,471	0,038	0,008
-639,897	-51,366	0,101	0,034
-638,882	22,823	0,132	0,078
-637,868	99,915	-0,063	0,053
-636,853	700,925	-0,041	-0,079
-635,838	13,989	0,061	-0,034
-634,824	-49,997	-0,114	0,039
-633,809	800,000	0,031	-0,064
-632,795	125,509	0,076	-0,070
-631,780	800,000	0,064	-0,188
-630,765	-200,000	-0,016	0,086
-629,751	262,382	0,003	0,004
-628,736	-200,000	-0,010	-0,072
-627,722	-61,189	0,112	0,034
-626,707	206,362	0,088	0,099
-625,692	800,000	0,012	0,034
-624,678	-200,000	0,015	0,099
-623,663	800,000	-0,009	-0,023
-622,649	528,723	-0,066	-0,113
-621,634	86,609	0,120	-0,096
-620,619	-157,494	-0,074	-0,003
-619,605	-38,950	0,015	-0,006
-618,590	77,831	0,069	-0,053
-617,576	-3,120	-0,099	0,050
-616,561	-143,796	-0,073	-0,005
-615,546	-200,000	0,020	0,123
-614,532	134,811	-0,083	-0,078
-613,517	-200,000	-0,003	0,034
-612,503	-200,000	-0,014	0,111
-611,488	-200,000	-0,014	-0,096
-610,474	180,171	-0,061	0,065
-609,459	800,000	-0,024	0,058
-608,444	-50,993	-0,097	0,033
-607,430	-200,000	-0,005	-0,110
-606,415	70,511	-0,079	0,059
-605,401	800,000	-0,005	0,016
-604,386	528,342	0,084	-0,144
-603,371	-200,000	0,006	-0,056
-602,357	800,000	0,039	-0,079
-601,342	630,682	0,049	-0,091
-600,328	800,000	-0,038	-0,084
-599,313	800,000	-0,022	-0,068
-598,298	-110,988	0,053	0,008
-597,284	800,000	0,003	-0,008
-596,269	68,818	-0,033	0,025
-595,255	-181,843	-0,094	0,001
-594,240	200,102	-0,058	-0,064
-593,225	70,981	-0,065	-0,048
-592,211	410,541	0,089	-0,137
-591,196	-118,468	-0,067	-0,008
-590,182	583,565	0,073	0,131
-589,167	-127,610	0,118	-0,012
-588,152	800,000	0,050	0,129
-587,138	800,000	0,026	0,075
-586,123	-28,550	-0,010	0,004
-585,109	-200,000	0,010	-0,064
-584,094	800,000	0,022	-0,069
-583,079	15,862	0,110	0,062
-582,065	-46,708	0,083	-0,029
-581,050	-98,643	-0,053	0,010
-580,036	291,963	-0,065	-0,086
-579,021	-128,274	-0,175	0,018
-578,006	262,293	-0,057	-0,072
-576,992	151,784	-0,123	-0,121
-575,977	-200,000	0,003	-0,022
-574,963	682,538	0,091	-0,172
-573,948	-200,000	-0,008	0,119
-572,934	-200,000	0,008	0,063
-571,919	-200,000	-0,003	0,088
-570,904	119,268	-0,040	0,036
-569,890	-53,664	0,079	0,026
-568,875	324,765	-0,036	0,049
-567,861	260,842	-0,054	0,067
-566,846	298,662	0,041	0,055
-565,831	800,000	-0,038	-0,100
-564,817	-157,180	-0,087	0,004
-563,802	800,000	-0,055	0,161
-562,788	800,000	-0,017	0,051
-561,773	168,686	-0,117	-0,121
-560,758	-114,365	0,009	-0,001
-559,744	-92,144	-0,019	0,004
-558,729	-200,000	0,006	0,033
-557,715	-113,396	-0,105	-0,015
-556,700	-18,487	-0,182	-0,082
-555,685	-43,489	0,032	-0,011
-554,671	-200,000	0,048	-0,000
-553,656	-63,658	-0,096	-0,028
-552,642	-28,239	-0,086	-0,036
-551,627	-200,000	-0,003	0,099
-550,612	-100,257	-0,093	-0,017
-549,598	-49,145	-0,173	-0,059
-548,583	-200,000	0,004	-0,042
-547,569	-18,564	-0,059	0,026
-546,554	268,783	0,042	0,053
-545,539	800,000	0,045	0,100
-544,525	-200,000	0,005	0,077
-543,510	129,191	-0,050	-0,046
-542,496	-157,314	0,108	0,005
-541,481	-200,000	-0,019	-0,168
-540,466	-200,000	-0,026	-0,155
-539,452	-200,000	0,028	-0,171
-538,437	531,298	0,018	0,031
-537,423	-12,538	-0,110	0,052
-536,408	-7,267	0,139	-0,068
-535,393	-200,000	-0,052	-0,208
-534,379	433,145	-0,045	-0,071
-533,364	800,000	-0,022	0,056
-532,350	-200,000	-0,011	0,062
-531,335	-96,124	0,088	-0,017
-530,321	155,403	0,048	0,048
-529,306	-48,292	0,070	0,024
-528,291	800,000	0,029	-0,072
-527,277	-200,000	0,027	-0,108
-526,262	173,880	0,055	-0,057
-525,248	800,000	-0,023	0,072
-524,233	800,000	0,018	0,051
-523,218	-200,000	0,001	-0,094
-522,204	-94,382	-0,047	-0,009
-521,189	475,006	-0,085	-0,139
-520,175	-200,000	0,006	-0,026
-519,160	-200,000	-0,001	-0,019
-518,145	136,546	0,072	-0,068
-517,131	30,350	0,105	-0,064
-516,116	60,931	0,047	0,033
-515,102	34,610	-0,095	0,060
-514,087	-26,914	0,063	0,026
-513,072	-60,400	-0,228	-0,070
-512,058	-200,000	-0,000	0,058
-511,043	569,232	0,029	0,051
-510,029	800,000	0,047	0,125
-509,014	-200,000	-0,014	0,154
-507,999	-200,000	0,003	0,162
-506,985	-200,000	0,022	0,189
-505,970	116,581	-0,049	-0,043
-504,956	-99,756	0,041	0,007
-503,941	-200,000	0,004	-0,063
-502,926	223,044	0,093	0,109
-501,912	123,561	0,063	0,057
-500,897	-24,491	0,109	-0,047
-499,883	131,454	0,015	0,014
-498,868	400,258	0,048	-0,072
-497,853	800,000	-0,048	-0,125
-496,839	-200,000	-0,029	0,165
-495,824	254,050	0,029	-0,036
-494,810	-31,343	0,164	0,066
-493,795	-142,859	0,056	0,004
-492,781	-63,129	0,207	0,061
-491,766	-101,896	-0,097	0,017
-490,751	-200,000	0,020	-0,196
-489,737	-200,000	-0,014	0,113
-488,722	538,038	0,033	0,057
-487,708	-192,447	-0,128	0,001
-486,693	179,843	0,056	0,059
-485,678	800,000	-0,043	0,126
-484,664	-200,000	-0,000	0,034
-483,649	-200,000	-0,006	-0,044
-482,635	-200,000	0,014	0,085
-481,620	-57,894	-0,048	0,015
-480,605	356,495	0,051	-0,073
-479,591	-200,000	-0,031	0,105
-478,576	-8,650	0,097	0,047
-477,562	60,729	0,073	-0,052
-476,547	19,113	-0,066	-0,038
-475,532	-28,745	0,113	-0,046
-474,518	-200,000	0,027	0,109
-473,503	253,240	0,098	-0,121
-472,489	-200,000	-0,023	0,086
-471,474	-200,000	0,023	0,184
-470,459	36,087	-0,069	0,044
-469,445	276,661	0,020	0,026
-468,430	-200,000	0,015	0,104
-467,416	800,000	-0,044	0,089
-466,401	-200,000	-0,014	0,055
-465,386	-120,308	0,136	0,016
-464,372	-79,964	-0,101	0,024
-463,357	-67,714	-0,131	-0,037
-462,343	133,922	-0,043	0,040
-461,328	-119,210	-0,069	0,009
-460,313	497,948	-0,030	0,050
-459,299	11,674	0,144	0,079
-458,284	-200,000	0,022	0,104
-457,270	370,795	0,087	-0,127
-456,255	800,000	-0,024	-0,057
-455,241	-200,000	-0,032	-0,195
-454,226	-47,321	-0,044	-0,015
-453,211	202,118	-0,066	0,074
-452,197	-200,000	-0,012	-0,117
-451,182	-7,966	0,103	0,050
-450,168	-115,750	0,060	0,008
-449,153	-33,458	-0,047	-0,019
-448,138	402,715	0,024	0,037
-447,124	151,484	-0,083	-0,081
-446,109	800,000	-0,033	-0,101
-445,095	-3,530	-0,078	-0,039
-444,080	-90,107	-0,051	0,011
-443,065	-200,000	-0,025	-0,136
-442,051	-173,550	0,047	-0,001
-441,036	387,078	0,040	-0,060
-440,022	800,000	0,046	-0,097
-439,007	327,455	-0,099	-0,137
-437,992	14,228	-0,018	0,010
-436,978	-43,345	-0,112	0,040
-435,963	199,953	-0,111	0,122
-434,949	-17,889	0,039	-0,018
-433,934	-200,000	0,016	-0,095
-432,919	-88,850	-0,049	0,010
-431,905	634,527	0,080	0,147
-430,890	50,523	-0,084	0,057
-429,876	121,472	0,099	0,089
-428,861	-107,439	-0,168	-0,026
-427,846	-95,361	0,150	0,029
-426,832	-200,000	0,014	0,209
-425,817	-62,523	-0,116	-0,034
-424,803	262,592	-0,111	0,139
-423,788	512,746	0,060	0,102
-422,773	110,985	0,093	0,081
-421,759	173,056	0,040	-0,041
-420,744	87,289	-0,030	0,023
-419,730	-200,000	0,037	-0,121
-418,715	-200,000	-0,002	-0,050
-417,701	498,838	-0,026	-0,043
-416,686	-95,221	0,074	-0,014
-415,671	-65,891	0,092	0,026
-414,657	800,000	-0,015	0,036
-413,642	-200,000	0,008	-0,068
-412,628	-98,600	-0,119	0,022
-411,613	800,000	0,067	-0,166
-410,598	-84,235	-0,064	-0,014
-409,584	-183,392	0,091	-0,001
-408,569	397,078	-0,025	0,038
-407,555	135,298	0,074	-0,069
-406,540	-200,000	-0,001	0,095
-405,525	-200,000	0,033	0,118
-404,511	8,014	0,050	0,027
-403,496	-12,507	-0,054	-0,025
-402,482	195,484	-0,060	-0,066
-401,467	0,300	0,044	-0,022
-400,452	204,030	0,064	-0,071
-399,438	17,085	0,176	0,100
-398,423	-99,573	-0,055	-0,010
-397,409	-200,000	-0,035	-0,113
-396,394	800,000	-0,025	-0,051
-395,379	21,223	-0,038	0,022
-394,365	800,000	0,043	0,114
-393,350	800,000	0,004	-0,013
-392,336	-200,000	-0,020	0,160
-391,321	-200,000	0,011	-0,100
-390,306	-38,269	0,043	-0,016
-389,292	704,414	-0,028	-0,052
-388,277	-16,635	0,061	0,028
-387,263	224,206	0,031	0,036
-386,248	184,006	-0,021	-0,022
-385,233	-49,257	0,051	0,017
-384,219	-27,947	-0,045	0,018
-383,204	-22,477	0,022	0,009
-382,190	330,163	-0,074	-0,102
-381,175	800,000	-0,011	-0,023
-380,160	-57,185	0,028	0,009
-379,146	555,846	0,028	0,049
-378,131	-115,480	0,111	0,015
-377,117	-200,000	0,009	0,042
-376,102	61,332	0,050	-0,036
-375,088	-79,600	-0,072	0,017
-374,073	98,078	-0,077	0,063
-373,058	607,384	-0,081	-0,145
-372,044	16,318	0,175	0,099
-371,029	-26,220	0,033	-0,014
-370,015	-200,000	-0,016	-0,165
-369,000	694,762	-0,048	-0,091
-367,985	222,363	0,131	-0,151
-366,971	302,386	-0,022	-0,029
-365,956	38,077	0,016	0,010
-364,942	228,114	-0,045	0,053
-363,927	800,000	-0,041	0,120
-362,912	-200,000	-0,001	0,054
-361,898	-86,468	0,079	0,017
-360,883	26,500	-0,089	-0,053
-359,869	311,535	-0,107	-0,144
-358,854	-74,974	0,063	-0,016
-357,839	-200,000	-0,013	0,129
-356,825	-200,000	-0,007	-0,081
-355,810	800,000	0,055	0,113
-354,796	79,809	-0,051	0,039
-353,781	-160,128	-0,107	0,004
-352,766	126,514	-0,038	0,035
-351,752	624,000	0,039	-0,070
-350,737	792,618	-0,067	0,132
-349,723	-200,000	0,009	0,398
-348,708	-47,929	-0,143	0,049
-347,693	-200,000	-0,019	0,177
-346,679	528,634	0,041	-0,070
-345,664	800,000	0,046	-0,119
-344,650	250,383	0,080	-0,098
-343,635	176,082	-0,034	0,035
-342,620	359,477	0,074	0,107
-341,606	800,000	-0,026	0,080
-340,591	-200,000	-0,002	0,059
-339,577	-200,000	0,049	-0,202
-338,562	320,116	-0,065	-0,089
-337,548	45,661	-0,058	-0,038
-336,533	-200,000	-0,010	-0,079
-335,518	-129,441	0,128	0,013
-334,504	-200,000	-0,003	-0,031
-333,489	2,645	-0,138	0,071
-332,475	6,428	-0,079	-0,042
-331,460	520,311	0,010	-0,016
-330,445	-54,340	-0,098	-0,032
-329,431	-136,224	0,211	-0,017
-328,416	705,365	-0,044	-0,084
-327,402	-68,710	0,054	-0,015
-326,387	-30,295	0,008	0,003
-325,372	604,750	-0,030	-0,054
-324,358	67,095	-0,077	-0,056
-323,343	-200,000	-0,003	-0,135
-322,329	-200,000	0,000	-0,018
-321,314	297,197	0,052	0,068
-320,299	-81,236	0,151	-0,035
-319,285	-200,000	-0,008	-0,061
-318,270	-200,000	0,001	0,023
-317,256	335,810	0,009	0,013
-316,241	-132,026	-0,046	0,004
-315,226	-200,000	0,005	0,086
-314,212	-139,293	0,098	0,007
-313,197	-200,000	0,002	-0,046
-312,183	80,276	0,114	0,087
-311,168	800,000	-0,040	-0,124
-310,153	221,954	0,017	0,019
-309,139	800,000	0,028	-0,082
-308,124	-119,927	-0,037	0,005
-307,110	35,873	0,056	0,035
-306,095	82,568	0,134	0,104
-305,080	-63,548	0,028	0,008
-304,066	89,840	-0,017	0,013
-303,051	564,360	-0,054	-0,094
-302,037	27,428	-0,053	-0,032
-301,022	-200,000	0,003	-0,151
-300,008	-200,000	0,015	0,084
-298,993	139,259	0,096	0,090
-297,978	-9,328	0,098	-0,047
-296,964	-61,153	0,130	-0,039
-295,949	17,460	0,089	-0,050
-294,935	-200,000	-0,006	-0,028
-293,920	106,244	-0,037	0,031
-292,905	800,000	0,057	-0,119
-291,891	800,000	-0,045	0,103
-290,876	-145,155	-0,024	-0,002
-289,862	9,967	-0,149	-0,081
-288,847	440,737	0,006	0,010
-287,832	307,907	-0,069	-0,092
-286,818	-47,626	-0,075	-0,026
-285,803	144,056	-0,111	0,105
-284,789	-82,681	0,079	0,018
-283,774	-93,728	-0,092	-0,018
-282,759	252,628	-0,035	-0,043
-281,745	-200,000	-0,010	0,034
-280,730	737,404	0,063	-0,121
-279,716	311,351	0,018	-0,025
-278,701	26,698	-0,096	0,057
-277,686	72,396	0,030	0,022
-276,672	800,000	0,020	-0,042
-275,657	167,516	-0,059	-0,060
-274,643	354,210	0,005	0,007
-273,628	-129,804	0,081	0,008
-272,613	800,000	0,025	-0,057
-271,599	-64,092	0,045	-0,013
-270,584	-200,000	0,019	0,179
-269,570	132,096	0,087	0,080
-268,555	1,105	-0,105	-0,054
-267,540	135,925	-0,040	-0,037
-266,526	-58,235	-0,089	-0,027
-265,511	-200,000	-0,020	-0,090
-264,497	-200,000	0,032	0,149
-263,482	800,000	0,056	0,114
-262,467	-200,000	-0,023	0,102
-261,453	229,922	-0,084	0,098
-260,438	35,369	-0,058	0,036
-259,424	398,474	-0,030	-0,045
-258,409	286,389	-0,079	-0,102
-257,395	-134,458	-0,017	-0,001
-256,380	-176,216	0,061	-0,001
-255,365	475,790	-0,027	-0,043
-254,351	537,508	0,104	0,178
-253,336	-20,044	-0,038	0,017
-252,322	78,199	-0,022	0,017
-251,307	96,751	0,037	0,030
-250,292	-200,000	0,009	0,051
-249,278	-200,000	-0,010	0,108
-248,263	325,992	0,087	0,119
-247,249	-200,000	-0,010	0,043
-246,234	51,790	0,039	0,026
-245,219	59,455	-0,097	-0,068
-244,205	245,888	0,043	-0,051
-243,190	40,881	-0,039	0,025
-242,176	-200,000	-0,003	-0,096
-241,161	800,000	0,076	0,160
-240,146	-200,000	0,005	0,027
-239,132	-69,038	-0,025	-0,007
-238,117	-200,000	0,025	0,115
-237,103	800,000	0,078	-0,184
-236,088	-200,000	0,043	-0,139
-235,073	-200,000	0,027	0,102
-234,059	-200,000	0,007	0,185
-233,044	385,615	-0,099	0,146
-232,030	-48,841	-0,078	0,026
-231,015	386,528	0,040	-0,060
-230,000	-200,000	0,017	0,080
-228,986	-38,027	-0,059	0,022
-227,971	-123,963	0,181	-0,020
-226,957	-200,000	-0,001	0,066
-225,942	77,368	-0,043	-0,033
-224,927	800,000	-0,082	-0,169
-223,913	-28,691	-0,122	-0,050
-222,898	455,316	-0,073	0,116
-221,884	-84,403	0,116	0,026
-220,869	-143,858	0,029	0,002
-219,855	-25,261	0,078	0,033
-218,840	4,486	0,032	0,017
-217,825	-52,233	-0,088	-0,029
-216,811	30,375	-0,071	-0,043
-215,796	-52,501	-0,113	0,037
-214,782	79,917	-0,069	-0,053
-213,767	800,000	-0,028	-0,089
-212,752	14,896	0,068	-0,038
-211,738	-200,000	-0,006	0,028
-210,723	89,704	0,097	0,077
-209,709	-200,000	-0,012	-0,150
-208,694	-14,341	-0,127	-0,058
-207,679	-200,000	0,012	0,078
-206,665	80,181	0,100	0,077
-205,650	165,149	-0,053	-0,053
-204,636	737,121	-0,024	-0,047
-203,621	-200,000	0,012	0,045
-202,606	507,889	0,057	-0,094
-201,592	-88,012	-0,117	-0,025
-200,577	-200,000	-0,027	0,093
-199,563	-86,416	-0,088	-0,019
-198,548	-144,462	0,096	0,006
-197,533	-190,675	-0,135	-0,001
-196,519	261,247	0,066	0,081
-195,504	-200,000	0,164	0,000
-194,490	-17,231	-0,162	-0,072
-193,475	-200,000	-0,020	-0,078
-192,460	268,243	0,022	0,028
-191,446	800,000	0,033	0,096
-190,431	-200,000	-0,019	0,070
-189,417	-73,303	-0,035	-0,009
-188,402	161,964	-0,025	-0,025
-187,387	129,100	0,032	-0,029
-186,373	-34,182	0,070	-0,027
-185,358	-111,181	-0,046	-0,007
-184,344	-51,952	0,030	0,010
-183,329	-49,765	-0,020	-0,007
-182,315	800,000	0,047	0,098
-181,300	-71,646	-0,039	0,010
-180,285	-200,000	-0,023	-0,085
-179,271	-153,367	-0,100	-0,005
-178,256	273,470	0,073	0,093
-177,242	-123,004	0,051	0,006
-176,227	86,809	0,134	-0,105
-175,212	-110,866	0,161	-0,023
-174,198	-200,000	-0,000	0,005
-173,183	75,972	0,112	-0,084
-172,169	800,000	0,052	-0,114
-171,154	-18,717	-0,066	-0,029
-170,139	140,102	-0,045	0,043
-169,125	-200,000	0,025	0,106
-168,110	336,218	-0,020	-0,027
-167,096	800,000	-0,036	-0,098
-166,081	-151,147	0,040	-0,002
-165,066	50,141	0,076	-0,051
-164,052	-200,000	-0,011	0,035
-163,037	65,974	0,034	-0,024
-162,023	38,451	0,053	0,034
-161,008	-200,000	-0,018	0,104
-159,993	174,770	-0,071	-0,073
-158,979	175,727	-0,109	-0,112
-157,964	-106,118	-0,071	-0,011
-156,950	134,654	0,033	-0,030
-155,935	365,521	0,080	-0,114
-154,920	69,038	-0,120	-0,087
-153,906	40,105	0,058	-0,037
-152,891	332,769	-0,156	0,215
-151,877	-38,306	-0,015	0,006
-150,862	148,436	-0,045	-0,044
-149,847	-2,174	0,118	-0,059
-148,833	-200,000	0,027	0,105
-147,818	117,539	0,145	0,127
-146,804	154,158	0,061	0,059
-145,789	8,097	0,140	0,074
-144,775	800,000	-0,053	0,124
-143,760	-200,000	-0,024	-0,120
-142,745	-37,230	-0,152	-0,058
-141,731	800,000	-0,028	-0,065
-140,716	-122,268	0,085	0,010
-139,702	-103,108	0,133	0,022
-138,687	386,250	-0,053	0,078
-137,672	-200,000	-0,023	-0,183
-136,658	314,543	-0,043	0,057
-135,643	-132,500	-0,045	0,004
-134,629	-135,872	-0,267	-0,022
-133,614	89,588	0,096	0,076
-132,599	-37,144	0,109	-0,041
-131,585	800,000	0,026	0,060
-130,570	99,035	0,105	0,086
-129,556	28,560	0,014	0,008
-128,541	-200,000	-0,022	-0,079
-127,526	800,000	0,045	-0,126
-126,512	-107,561	0,109	-0,017
-125,497	231,139	0,158	0,184
-124,483	-115,283	-0,168	0,022
-123,468	34,664	0,097	-0,060
-122,453	46,486	-0,055	-0,036
-121,439	52,228	-0,051	0,034
-120,424	-200,000	0,006	-0,105
-119,410	800,000	0,025	-0,049
-118,395	-89,295	0,114	0,024
-117,380	-107,936	0,044	0,007
-116,366	800,000	-0,031	-0,094
-115,351	-52,602	0,032	0,011
-114,337	-200,000	0,007	-0,036
-113,322	-200,000	0,025	0,123
-112,307	-114,885	-0,070	0,009
-111,293	394,523	0,084	0,124
-110,278	84,783	0,050	0,039
-109,264	439,398	-0,126	0,195
-108,249	-160,801	-0,122	0,005
-107,234	393,339	0,005	-0,007
-106,220	-200,000	-0,005	0,041
-105,205	-76,132	0,090	0,022
-104,191	-10,391	-0,044	0,020
-103,176	-200,000	0,001	0,092
-102,162	-200,000	-0,045	0,194
-101,147	800,000	0,035	-0,083
-100,132	108,279	-0,043	-0,037
-99,118	800,000	0,084	-0,170
-98,103	603,330	-0,079	-0,139
-97,089	65,443	0,085	-0,061
-96,074	-200,000	-0,001	0,015
-95,059	104,731	-0,129	0,108
-94,045	-81,426	0,076	0,018
-93,030	-200,000	0,021	-0,098
-92,016	800,000	-0,050	-0,155
-91,001	-200,000	0,002	-0,102
-89,986	-120,530	-0,024	0,003
-88,972	258,632	0,056	-0,069
-87,957	-91,503	-0,060	-0,012
-86,943	-111,958	-0,106	-0,015
-85,928	140,996	-0,089	-0,084
-84,913	-200,000	0,051	-0,190
-83,899	42,813	-0,111	-0,071
-82,884	800,000	0,009	0,020
-81,870	176,218	0,097	0,100
-80,855	-17,135	0,172	-0,076
-79,840	102,349	0,009	-0,007
-78,826	800,000	-0,074	-0,154
-77,811	33,825	-0,046	0,028
-76,797	-55,529	0,138	-0,043
-75,782	-107,916	-0,072	-0,011
-74,767	-76,523	0,132	0,033
-73,753	35,734	0,051	-0,031
-72,738	-200,000	-0,012	0,096
-71,724	405,177	-0,051	-0,077
-70,709	35,765	-0,041	-0,026
-69,694	-200,000	-0,015	0,102
-68,680	-200,000	0,033	-0,119
-67,665	77,965	0,022	-0,016
-66,651	-200,000	-0,021	0,125
-65,636	-52,279	-0,040	0,013
-64,622	-200,000	0,025	-0,087
-63,607	-76,034	-0,119	-0,030
-62,592	800,000	-0,035	-0,086
-61,578	-73,350	0,047	0,012
-60,563	800,000	0,021	-0,047
-59,549	-200,000	0,010	0,102
-58,534	-28,672	-1,618	-0,656
-57,519	537,924	-1,309	-2,211
-56,505	-200,000	-0,692	-4,562
-55,490	278,692	0,944	1,194
-54,476	800,000	4,641	11,055
-53,461	-200,000	18,550	298,558
-52,446	800,000	732,736	2263,026
-51,432	559,760	1648,692	2828,696
-50,417	78,763	1667,886	1261,343
-49,403	22,231	1541,183	888,383
-48,388	16,224	1464,057	814,800
-47,373	17,723	1454,093	816,449
-46,359	16,977	1444,276	807,331
-45,344	14,420	1439,791	792,577
-44,330	14,377	1437,753	791,216
-43,315	14,384	1436,062	790,286
-42,300	14,326	1434,515	789,129
-41,286	14,430	1433,205	788,872
-40,271	14,412	1431,885	788,026
-39,257	14,340	1430,771	787,043
-38,242	14,415	1429,503	786,668
-37,227	14,412	1428,237	785,928
-36,213	14,405	1426,893	785,122
-35,198	14,443	1425,599	784,561
-34,184	14,416	1424,851	783,991
-33,169	14,383	1423,558	783,093
-32,154	14,453	1422,394	782,749
-31,140	14,439	1421,035	781,904
-30,125	14,417	1420,201	781,311
-29,111	14,468	1418,805	780,752
-28,096	14,382	1417,898	779,819
-27,082	14,369	1416,720	779,078
-26,067	14,352	1415,537	778,314
-25,052	14,339	1414,593	777,704
-24,038	14,368	1413,571	777,250
-23,023	14,324	1412,811	776,595
-22,009	14,329	1411,690	775,971
-20,994	14,294	1410,827	775,302
-19,979	14,306	1409,864	774,799
-18,965	14,266	1408,920	774,062
-17,950	14,275	1407,986	773,557
-16,936	14,290	1407,049	773,085
-15,921	14,260	1405,933	772,300
-14,906	14,233	1405,078	771,672
-13,892	14,238	1404,115	771,137
-12,877	14,238	1403,314	770,665
-11,863	14,205	1402,449	770,005
-10,848	14,248	1401,425	769,613
-9,833	14,181	1400,504	768,766
-8,819	14,179	1399,725	768,301
-7,804	14,137	1398,936	767,642
-6,790	14,187	1397,633	767,127
-5,775	14,168	1396,640	766,463
-4,760	14,125	1395,676	765,705
-3,746	14,103	1394,917	765,156
-2,731	14,113	1394,149	764,751
-1,717	14,117	1393,227	764,231
-0,702	14,114	1391,354	763,160
0,313	18,064	1309,670	736,605
1,327	34,409	705,875	434,835
2,342	52,874	124,118	83,814
3,356	4,329	16,563	8,555
4,371	-8,474	3,317	1,571
5,386	83,258	0,553	0,425
6,400	-200,000	-0,046	0,216
7,415	19,575	-0,294	-0,167
8,429	75,333	-0,246	-0,183
9,444	29,345	-0,353	-0,212
10,459	133,677	-0,303	-0,277
11,473	110,352	-0,285	-0,242
12,488	142,359	-0,196	-0,184
13,502	-110,843	-0,330	-0,048
14,517	-9,931	-0,362	-0,169
15,531	55,426	-0,408	-0,278
16,546	122,195	-0,432	-0,381
17,561	51,930	-0,316	-0,212
18,575	47,315	-0,203	-0,134
19,590	111,926	-0,321	-0,273
20,604	46,319	-0,244	-0,159
21,619	32,101	-0,420	-0,255
22,634	136,924	-0,398	-0,367
23,648	145,715	-0,365	-0,345
24,663	167,514	-0,322	-0,323
25,677	74,600	-0,437	-0,324
26,692	91,336	-0,270	-0,214
27,707	77,505	-0,287	-0,215
28,721	-13,705	-0,374	-0,170
29,736	188,498	-0,418	-0,441
30,750	218,940	-0,318	-0,360
31,765	-24,995	-0,422	-0,176
32,780	87,266	-0,354	-0,276
33,794	228,607	-0,292	-0,336
34,809	52,558	-0,336	-0,226
35,823	146,807	-0,318	-0,301
36,838	5,988	-0,503	-0,262
37,853	112,974	-0,394	-0,337
38,867	353,137	-0,249	-0,349
39,882	-15,353	-0,306	-0,137
40,896	-44,812	-0,266	-0,093
41,911	91,853	-0,431	-0,341
42,926	232,587	-0,320	-0,371
43,940	151,929	-0,437	-0,420
44,955	222,237	-0,236	-0,268
45,969	31,075	-0,358	-0,216
46,984	114,572	-0,285	-0,244
47,999	115,406	-0,303	-0,261
49,013	-54,631	-0,409	-0,130
50,028	36,606	-0,207	-0,128
51,042	62,953	-0,419	-0,295
52,057	45,909	-0,261	-0,170
53,071	24,432	-0,338	-0,196
54,086	218,475	-0,252	-0,284
55,101	-34,507	-0,366	-0,140
56,115	-78,595	-0,247	-0,059
57,130	-16,766	-0,268	-0,119
58,144	325,974	-0,267	-0,360
59,159	171,493	-0,346	-0,350
60,174	56,207	-0,431	-0,294
61,188	91,863	-0,272	-0,215
62,203	11,048	-0,334	-0,179
63,217	57,336	-0,203	-0,139
64,232	19,480	-0,300	-0,169
65,247	-20,517	-0,277	-0,119
66,261	98,177	-0,263	-0,213
67,276	83,043	-0,258	-0,197
68,290	187,534	-0,257	-0,270
69,305	-53,606	-0,287	-0,092
70,320	-53,583	-0,321	-0,103
71,334	110,986	-0,227	-0,192
72,349	50,801	-0,377	-0,250
73,363	-71,071	-0,398	-0,104
74,378	85,336	-0,376	-0,290
75,393	259,721	-0,250	-0,303
76,407	-128,113	-0,231	-0,023
77,422	140,736	-0,285	-0,264
78,436	-18,783	-0,369	-0,161
79,451	244,717	-0,248	-0,293
80,466	332,565	-0,278	-0,378
81,480	330,693	-0,197	-0,268
82,495	-25,043	-0,312	-0,129
83,509	-81,566	-0,244	-0,056
84,524	-20,487	-0,312	-0,134
85,539	70,388	-0,326	-0,236
86,553	-84,508	-0,218	-0,048
87,568	292,378	-0,241	-0,308
88,582	229,777	-0,271	-0,312
89,597	38,515	-0,321	-0,200
90,611	-5,415	-0,261	-0,125
91,626	205,185	-0,226	-0,246
92,641	160,731	-0,177	-0,174
93,655	-28,036	-0,248	-0,100
94,670	-24,596	-0,335	-0,139
95,684	83,659	-0,358	-0,273
96,699	404,564	-0,258	-0,382
97,714	54,929	-0,371	-0,251
98,728	-3,442	-0,223	-0,108
99,743	5,768	-0,286	-0,148
100,757	38,029	-0,140	-0,087
101,772	56,229	-0,244	-0,166
102,787	-34,738	-0,341	-0,130
103,801	-56,402	-0,152	-0,047
104,816	340,254	-0,217	-0,297
105,830	93,571	-0,224	-0,178
106,845	-51,533	-0,369	-0,120
107,860	-119,909	-0,235	-0,028
108,874	126,538	-0,383	-0,339
109,889	285,129	-0,214	-0,270
110,903	-26,741	-0,377	-0,154
111,918	14,090	-0,193	-0,105
112,933	-128,567	-0,322	-0,032
113,947	563,484	-0,148	-0,253
114,962	-59,482	-0,402	-0,120
115,976	193,743	-0,213	-0,226
116,991	105,175	-0,218	-0,180
118,006	130,093	-0,294	-0,263
119,020	113,104	-0,301	-0,256
120,035	219,969	-0,204	-0,229
121,049	5,034	-0,348	-0,179
122,064	40,247	-0,221	-0,139
123,079	221,493	-0,111	-0,125
124,093	231,453	-0,215	-0,247
125,108	25,109	-0,190	-0,110
126,122	-15,949	-0,241	-0,107
127,137	379,208	-0,136	-0,196
128,151	221,265	-0,170	-0,191
129,166	84,938	-0,225	-0,172
130,181	209,410	-0,212	-0,233
131,195	326,415	-0,088	-0,118
132,210	449,463	-0,276	-0,427
133,224	512,750	-0,219	-0,359
134,239	43,601	-0,242	-0,155
135,254	63,688	-0,217	-0,152
136,268	-8,192	-0,241	-0,113
137,283	800,000	-0,101	-0,248
138,297	-57,202	-0,352	-0,108
139,312	142,967	-0,295	-0,274
140,327	-26,942	-0,286	-0,116
141,341	202,384	-0,240	-0,260
142,356	53,500	-0,262	-0,176
143,370	722,321	-0,122	-0,228
144,385	65,686	-0,270	-0,191
145,400	102,070	-0,310	-0,252
146,414	477,861	-0,127	-0,201
147,429	85,514	-0,215	-0,165
148,443	-70,057	-0,174	-0,046
149,458	208,806	-0,212	-0,232
150,473	98,527	-0,165	-0,133
151,487	30,011	-0,154	-0,091
152,502	137,965	-0,291	-0,267
153,516	12,060	-0,246	-0,132
154,531	264,730	-0,166	-0,203
155,546	24,091	-0,307	-0,176
156,560	460,022	-0,146	-0,228
157,575	-82,944	-0,223	-0,050
158,589	15,423	-0,232	-0,126
159,604	278,885	-0,148	-0,185
160,619	123,793	-0,184	-0,161
161,633	800,000	-0,093	-0,224
162,648	125,984	-0,224	-0,197
163,662	-38,869	-0,235	-0,086
164,677	83,501	-0,281	-0,213
165,692	-44,698	-0,114	-0,039
166,706	4,028	-0,356	-0,181
167,721	53,385	-0,237	-0,158
168,735	64,842	-0,210	-0,147
169,750	-23,539	-0,242	-0,101
170,764	130,086	-0,128	-0,114
171,779	19,600	-0,235	-0,131
172,794	254,310	-0,175	-0,208
173,808	27,343	-0,191	-0,112
174,823	-135,220	-0,264	-0,022
175,837	-44,244	-0,210	-0,073
176,852	27,195	-0,193	-0,112
177,867	6,654	-0,191	-0,098
178,881	-57,244	-0,197	-0,060
179,896	193,078	-0,043	-0,045
180,910	162,198	-0,193	-0,188
181,925	109,723	-0,285	-0,238
182,940	185,923	-0,277	-0,287
183,954	-200,000	-0,038	-0,221
184,969	323,290	-0,095	-0,127
185,983	800,000	-0,087	-0,209
186,998	305,810	-0,140	-0,181
188,013	226,285	-0,146	0,165
189,027	22,159	-0,195	-0,110
190,042	742,455	-0,147	-0,277
191,056	117,493	-0,299	-0,256
192,071	675,213	-0,102	-0,186
193,086	800,000	-0,073	-0,214
194,100	178,336	-0,089	-0,091
195,115	41,762	-0,207	-0,130
196,129	278,492	-0,197	-0,244
197,144	197,846	-0,214	-0,228
198,159	800,000	-0,082	-0,163
199,173	390,510	-0,099	-0,143
200,188	113,253	-0,145	-0,122
201,202	-150,879	-0,196	0,010
202,217	-29,650	-0,067	-0,026
203,232	800,000	-0,016	-0,031
204,246	-28,385	-0,069	-0,028
205,261	231,710	-0,099	-0,112
206,275	31,745	-0,209	-0,125
207,290	13,859	-0,187	-0,101
208,304	-191,001	-0,180	0,001
209,319	-70,145	-0,295	-0,077
210,334	12,034	-0,228	-0,121
211,348	88,547	-0,201	-0,155
212,363	100,196	-0,218	-0,175
213,377	113,114	-0,200	-0,168
214,392	191,682	-0,097	-0,101
215,407	190,598	-0,129	-0,134
216,421	80,394	-0,257	-0,192
217,436	96,938	-0,187	-0,149
218,450	90,880	-0,179	-0,139
219,465	341,791	-0,187	-0,254
220,480	119,483	-0,182	-0,156
221,494	126,511	-0,103	-0,090
222,509	213,067	-0,105	-0,115
223,523	-6,848	-0,215	-0,101
224,538	-64,502	-0,227	-0,064
225,553	620,354	-0,085	-0,149
226,567	-185,585	-0,245	-0,003
227,582	-186,511	-0,194	-0,002
228,596	414,220	-0,098	-0,144
229,611	-94,507	-0,197	0,037
230,626	369,440	-0,147	-0,207
231,640	-11,128	-0,254	-0,116
232,655	96,516	-0,134	-0,106
233,669	-128,933	-0,177	-0,017
234,684	38,319	-0,170	-0,105
235,699	213,535	-0,230	-0,253
236,713	72,420	-0,139	-0,100
237,728	-68,691	-0,244	-0,065
238,742	-15,958	-0,224	-0,098
239,757	268,075	-0,120	-0,146
240,772	84,792	-0,269	-0,204
241,786	391,176	-0,149	-0,214
242,801	-66,643	-0,259	-0,071
243,815	218,731	-0,093	-0,103
244,830	51,092	-0,169	-0,111
245,844	98,212	-0,227	-0,181
246,859	86,199	-0,205	-0,156
247,874	40,731	-0,193	-0,120
248,888	43,005	-0,160	-0,101
249,903	-62,309	-0,183	-0,052
250,917	198,124	-0,119	-0,126
251,932	-106,901	-0,148	0,022
252,947	118,081	-0,113	-0,097
253,961	216,679	-0,178	-0,196
254,976	800,000	-0,126	-0,265
255,990	309,680	-0,178	-0,231
257,005	203,855	-0,168	-0,180
258,020	498,989	-0,137	-0,219
259,034	111,867	-0,185	-0,154
260,049	264,874	-0,123	-0,148
261,063	-19,942	-0,256	-0,109
262,078	189,860	-0,159	-0,165
263,093	-93,865	-0,200	-0,038
264,107	-200,000	0,016	-0,137
265,122	95,692	-0,196	-0,154
266,136	56,327	-0,185	-0,124
267,151	-39,482	-0,150	-0,054
268,166	41,128	-0,227	-0,141
269,180	-27,196	-0,192	-0,077
270,195	261,068	-0,209	-0,250
271,209	452,212	-0,170	-0,260
272,224	-40,897	-0,150	-0,053
273,239	-156,272	-0,094	-0,004
274,253	31,137	-0,186	-0,110
275,268	101,935	-0,202	-0,163
276,282	120,765	-0,174	-0,150
277,297	-67,107	-0,066	-0,018
278,312	-15,204	-0,108	-0,048
279,326	-200,000	-0,005	-0,048
280,341	180,296	-0,091	-0,092
281,355	-53,160	-0,168	-0,053
282,370	405,679	-0,170	-0,248
283,384	800,000	-0,085	-0,175
284,399	355,689	-0,183	-0,252
285,414	800,000	-0,036	-0,110
286,428	-3,826	-0,253	-0,121
287,443	0,377	-0,185	-0,091
288,457	664,308	-0,094	-0,168
289,472	-17,388	-0,160	-0,069
290,487	800,000	-0,114	-0,254
291,501	5,979	-0,118	-0,060
292,516	800,000	-0,100	-0,195
293,530	400,700	-0,104	-0,150
294,545	-76,057	-0,142	-0,034
295,560	356,661	-0,112	-0,154
296,574	146,869	-0,125	0,116
297,589	-22,014	-0,243	-0,101
298,603	-70,656	-0,173	-0,045
299,618	19,463	-0,192	-0,106
300,633	-67,492	-0,188	-0,050
301,647	67,831	-0,239	-0,168
302,662	216,581	-0,118	-0,129
303,676	45,474	-0,160	-0,102
304,691	-97,187	-0,133	0,024
305,706	-60,441	-0,199	-0,058
306,720	100,650	-0,160	-0,128
307,735	17,993	-0,143	-0,078
308,749	-175,603	-0,141	0,003
309,764	111,612	-0,085	-0,071
310,779	657,220	-0,050	-0,088
311,793	-192,578	-0,161	-0,001
312,808	131,293	-0,233	-0,206
313,822	800,000	-0,178	-0,340
314,837	48,108	-0,136	-0,087
315,852	-58,231	-0,163	-0,049
316,866	-200,000	-0,020	-0,134
317,881	572,682	-0,107	-0,180
318,895	-200,000	-0,015	-0,116
319,910	-200,000	-0,070	-0,238
320,925	140,401	-0,081	-0,073
321,939	81,750	-0,191	-0,142
322,954	-109,585	-0,036	0,005
323,968	42,277	-0,100	-0,062
324,983	-135,487	-0,225	-0,018
325,997	48,136	-0,123	-0,079
327,012	-46,336	-0,272	-0,091
328,027	-142,496	-0,155	-0,010
329,041	0,503	-0,128	-0,062
330,056	129,697	-0,033	-0,029
331,070	8,429	-0,138	-0,071
332,085	-200,000	0,020	-0,097
333,100	376,722	-0,159	-0,224
334,114	13,024	-0,281	-0,149
335,129	134,425	-0,103	-0,091
336,143	480,487	0,026	0,040
337,158	-200,000	-0,065	-0,215
338,173	-139,027	-0,079	0,006
339,187	-58,566	-0,108	-0,032
340,202	425,219	-0,095	-0,140
341,216	800,000	-0,074	-0,156
342,231	-5,089	-0,106	-0,050
343,246	800,000	-0,011	-0,033
344,260	-142,229	-0,127	0,009
345,275	-200,000	-0,051	-0,188
346,289	102,385	-0,087	-0,070
347,304	26,747	-0,154	-0,088
348,319	-200,000	-0,065	-0,215
349,333	106,146	-0,115	-0,093
350,348	228,893	-0,086	-0,096
351,362	-200,000	-0,044	-0,202
352,377	360,347	-0,097	-0,134
353,392	84,101	-0,063	-0,047
354,406	800,000	0,030	-0,059
355,421	209,090	1316,320	1415,024
356,435	160,916	1477,218	1415,516
