DTS Sentinel unit serial number:	SN410029Multiplexer serial number:	ORYXHardware model number:	OX2-SRSoftware version number:	ORYX F/W v4,00 Oryx Data Collector v3.7.2.0data status	okinstallation	B3 Nyhavnadifferential loss correction	single-endedforward channel	channel 1reverse channel	N/Adate	2023/11/30time	07:32:30forward acquisition time	300,00reverse acquisition time	0,00gamma	499,1914k internal	0,3210k external	0,3210temperature offset calibration	1,0000default loss term (dB/km)	0,3820temperature slope calibration	1,0000multiplexer offset coefficient	1,0000multiplexer slope coefficient	1,0000fibre end	0,00T internal ref (°C)	9,99T ext. ref 1 (°C)	-5,71T ext. ref 2 (°C)	-5,79length (m)	temperature (°C)	Stokes	anti-Stokes-744,400	800,000	-0,137	-0,307
-743,385	-200,000	0,029	0,148
-742,371	133,413	-0,136	-0,128
-741,356	800,000	-0,095	0,246
-740,342	257,603	-0,136	-0,170
-739,327	-200,000	-0,044	0,257
-738,312	206,412	-0,269	-0,304
-737,298	-200,000	-0,024	0,082
-736,283	9,382	-0,307	-0,168
-735,269	-200,000	-0,052	0,330
-734,254	586,969	-0,086	-0,154
-733,239	-184,818	-0,199	0,002
-732,225	-200,000	-0,033	-0,204
-731,210	800,000	0,070	0,171
-730,196	-132,971	-0,104	-0,009
-729,181	-64,038	0,085	-0,025
-728,167	-37,152	0,100	0,039
-727,152	-96,000	-0,212	-0,041
-726,137	606,938	-0,074	-0,134
-725,123	244,600	-0,070	0,086
-724,108	316,781	-0,047	-0,064
-723,094	102,058	-0,060	-0,051
-722,079	-200,000	-0,020	-0,117
-721,064	-200,000	-0,004	-0,048
-720,050	-123,198	-0,015	0,002
-719,035	-142,308	-0,148	-0,010
-718,021	708,288	-0,022	-0,042
-717,006	-13,407	-0,154	-0,072
-715,991	100,208	-0,080	-0,067
-714,977	144,101	-0,059	0,057
-713,962	24,776	-0,016	-0,010
-712,948	24,147	0,084	-0,050
-711,933	54,307	0,061	0,043
-710,918	137,927	0,078	0,074
-709,904	231,194	-0,002	0,002
-708,889	15,866	-0,133	-0,076
-707,875	-50,785	0,107	-0,036
-706,860	36,794	0,036	-0,023
-705,845	800,000	0,044	-0,096
-704,831	308,212	0,054	0,073
-703,816	26,072	0,055	-0,033
-702,802	53,578	0,092	-0,064
-701,787	-31,138	0,067	0,027
-700,772	-14,407	-0,125	0,058
-699,758	-116,088	0,104	-0,014
-698,743	-144,230	-0,043	-0,003
-697,729	-200,000	-0,035	0,193
-696,714	-27,708	0,028	0,012
-695,699	-149,391	0,091	-0,005
-694,685	735,464	-0,119	-0,232
-693,670	304,239	-0,066	0,089
-692,656	-200,000	-0,030	-0,126
-691,641	-98,969	0,118	0,021
-690,627	-200,000	-0,008	0,026
-689,612	49,953	0,129	0,088
-688,597	33,089	0,084	0,052
-687,583	-200,000	-0,013	0,062
-686,568	278,649	-0,092	-0,119
-685,554	-200,000	0,004	-0,055
-684,539	-37,357	0,123	0,047
-683,524	-65,667	0,078	-0,022
-682,510	-200,000	-0,011	-0,105
-681,495	-163,602	-0,206	0,007
-680,481	-200,000	-0,021	-0,101
-679,466	3,857	-0,050	-0,026
-678,451	220,660	-0,129	-0,150
-677,437	0,716	-0,049	-0,025
-676,422	-200,000	0,001	-0,015
-675,408	-89,429	-0,062	-0,013
-674,393	123,654	0,092	-0,084
-673,378	-200,000	-0,013	-0,093
-672,364	-200,000	0,008	0,028
-671,349	193,946	-0,082	-0,090
-670,335	264,087	-0,048	0,061
-669,320	1,982	0,172	0,089
-668,305	134,089	0,017	-0,016
-667,291	800,000	-0,039	-0,096
-666,276	-25,572	-0,054	0,023
-665,262	-114,339	-0,131	-0,018
-664,247	542,490	0,025	-0,043
-663,232	-23,473	0,038	-0,017
-662,218	93,606	0,086	-0,070
-661,203	142,279	-0,060	-0,057
-660,189	41,514	-0,094	-0,062
-659,174	-0,285	-0,048	0,025
-658,159	-200,000	0,007	-0,107
-657,145	-200,000	0,020	-0,148
-656,130	338,649	-0,036	-0,051
-655,116	24,189	0,117	0,070
-654,101	431,100	-0,055	0,087
-653,086	-200,000	-0,007	0,055
-652,072	-200,000	0,005	-0,123
-651,057	-200,000	-0,016	-0,078
-650,043	-54,264	-0,108	-0,035
-649,028	-66,039	-0,086	0,025
-648,014	60,012	0,101	0,072
-646,999	3,131	0,058	0,030
-645,984	-177,727	-0,106	0,002
-644,970	800,000	-0,019	-0,054
-643,955	-116,726	-0,120	-0,016
-642,941	397,292	-0,052	-0,079
-641,926	-200,000	0,003	0,017
-640,911	39,873	-0,081	-0,052
-639,897	-29,496	-0,092	0,038
-638,882	173,245	-0,048	-0,050
-637,868	-75,752	-0,129	-0,033
-636,853	800,000	0,011	-0,024
-635,838	-200,000	-0,029	0,107
-634,824	-200,000	0,029	-0,220
-633,809	-200,000	-0,009	0,043
-632,795	-200,000	0,010	0,096
-631,780	-200,000	0,003	-0,115
-630,765	-137,190	0,047	-0,004
-629,751	800,000	-0,024	-0,051
-628,736	-200,000	0,023	-0,104
-627,722	-200,000	-0,018	0,142
-626,707	26,550	-0,039	0,023
-625,692	-32,789	0,085	0,034
-624,678	-134,075	-0,090	0,008
-623,663	284,037	0,085	0,110
-622,649	434,257	-0,023	0,036
-621,634	86,665	-0,116	0,093
-620,619	625,196	0,097	0,177
-619,605	-22,497	-0,058	0,025
-618,590	-200,000	0,009	-0,041
-617,576	52,654	-0,132	0,091
-616,561	-200,000	-0,028	0,000
-615,546	-200,000	0,006	-0,087
-614,532	73,098	-0,147	-0,111
-613,517	4,909	0,097	-0,051
-612,503	461,808	-0,012	0,020
-611,488	-200,000	0,024	-0,107
-610,474	800,000	0,017	-0,047
-609,459	-130,451	-0,077	0,007
-608,444	556,802	-0,048	0,084
-607,430	76,768	-0,108	-0,083
-606,415	-200,000	-0,012	-0,039
-605,401	-93,425	0,211	0,042
-604,386	-200,000	-0,010	0,036
-603,371	-78,691	0,102	-0,025
-602,357	800,000	-0,024	0,062
-601,342	628,293	-0,080	-0,146
-600,328	-38,764	0,078	-0,030
-599,313	74,895	-0,041	-0,031
-598,298	-200,000	-0,016	0,057
-597,284	-200,000	-0,021	-0,106
-596,269	-200,000	-0,108	0,000
-595,255	165,621	-0,111	0,113
-594,240	-200,000	0,004	0,040
-593,225	-200,000	-0,035	-0,118
-592,211	50,306	-0,060	-0,041
-591,196	122,498	-0,027	0,025
-590,182	31,765	-0,084	0,052
-589,167	-200,000	0,047	-0,164
-588,152	-200,000	0,008	0,041
-587,138	-200,000	0,014	-0,075
-586,123	498,601	0,065	-0,108
-585,109	109,566	-0,012	-0,011
-584,094	-200,000	0,006	-0,118
-583,079	147,016	0,063	0,061
-582,065	-114,713	0,080	-0,011
-581,050	-142,631	-0,048	0,003
-580,036	81,973	-0,053	0,041
-579,021	610,209	0,030	-0,054
-578,006	141,140	0,055	-0,053
-576,992	331,862	0,024	0,033
-575,977	415,863	0,082	0,126
-574,963	-200,000	0,009	0,066
-573,948	179,649	0,073	-0,077
-572,934	-4,833	0,095	0,047
-571,919	-100,633	0,041	0,007
-570,904	515,518	0,020	0,035
-569,890	24,892	0,081	0,048
-568,875	-200,000	0,006	-0,031
-567,861	-200,000	0,006	-0,059
-566,846	40,684	0,136	0,088
-565,831	-60,365	-0,162	0,049
-564,817	800,000	0,065	-0,156
-563,802	83,518	-0,093	-0,073
-562,788	32,198	0,077	-0,048
-561,773	-200,000	-0,013	0,110
-560,758	-11,310	0,035	0,017
-559,744	61,053	0,083	-0,059
-558,729	-174,335	0,041	0,001
-557,715	-200,000	0,005	0,017
-556,700	-162,459	-0,044	-0,002
-555,685	-61,819	-0,047	-0,014
-554,671	800,000	-0,007	0,014
-553,656	86,000	0,110	-0,087
-552,642	229,826	-0,056	-0,065
-551,627	-35,212	-0,161	-0,063
-550,612	-62,655	-0,175	-0,052
-549,598	-200,000	-0,004	-0,103
-548,583	-200,000	0,037	-0,196
-547,569	-80,420	0,114	-0,027
-546,554	-117,481	0,074	0,010
-545,539	575,759	0,011	-0,020
-544,525	325,302	0,068	0,093
-543,510	-0,241	-0,116	-0,059
-542,496	-24,820	-0,159	-0,068
-541,481	123,453	-0,059	-0,053
-540,466	364,215	-0,061	-0,088
-539,452	-8,864	0,047	-0,022
-538,437	-36,843	0,082	0,031
-537,423	-57,327	0,037	0,012
-536,408	69,090	-0,158	0,117
-535,393	79,881	-0,055	-0,042
-534,379	-200,000	-0,005	-0,083
-533,364	58,577	0,070	-0,050
-532,350	-200,000	0,031	-0,173
-531,335	800,000	0,009	0,024
-530,321	-18,122	0,066	0,030
-529,306	258,103	0,063	0,079
-528,291	-30,709	0,124	-0,050
-527,277	375,511	0,073	-0,107
-526,262	155,427	0,125	-0,124
-525,248	-200,000	0,011	-0,191
-524,233	-200,000	0,012	-0,104
-523,218	-18,543	0,130	-0,058
-522,204	324,565	-0,078	-0,108
-521,189	-28,327	-0,049	0,020
-520,175	800,000	-0,010	-0,023
-519,160	-157,434	-0,059	0,002
-518,145	80,984	0,069	-0,054
-517,131	240,523	-0,034	-0,040
-516,116	60,259	0,083	0,059
-515,102	-77,420	-0,046	0,011
-514,087	-159,141	0,047	-0,002
-513,072	800,000	0,008	-0,023
-512,058	794,198	-0,036	-0,072
-511,043	-200,000	0,002	0,054
-510,029	-200,000	0,012	0,062
-509,014	377,051	-0,104	0,153
-507,999	81,474	-0,085	0,066
-506,985	-163,444	0,184	0,006
-505,970	320,583	-0,030	0,041
-504,956	800,000	-0,067	-0,144
-503,941	-200,000	0,011	-0,131
-502,926	-18,809	0,025	0,011
-501,912	-200,000	-0,004	-0,020
-500,897	135,987	0,017	-0,016
-499,883	149,816	-0,048	-0,047
-498,868	-200,000	0,003	0,131
-497,853	-189,809	-0,023	0,000
-496,839	800,000	-0,029	0,084
-495,824	-96,398	0,018	0,003
-494,810	-79,370	0,083	-0,020
-493,795	-110,702	-0,133	-0,019
-492,781	-200,000	-0,013	-0,050
-491,766	69,687	-0,072	-0,053
-490,751	30,139	0,048	-0,029
-489,737	-200,000	0,015	0,127
-488,722	-154,150	0,084	0,004
-487,708	486,660	-0,046	0,075
-486,693	-9,601	0,047	-0,022
-485,678	82,769	-0,063	-0,049
-484,664	-200,000	0,009	0,091
-483,649	-42,405	-0,056	-0,020
-482,635	-200,000	-0,001	-0,088
-481,620	46,145	0,056	-0,037
-480,605	578,494	-0,102	0,179
-479,591	-113,053	-0,107	-0,015
-478,576	156,951	-0,064	-0,063
-477,562	-8,675	0,069	-0,033
-476,547	168,286	-0,066	0,067
-475,532	-200,000	-0,015	0,088
-474,518	532,133	0,064	0,109
-473,503	-200,000	0,026	0,104
-472,489	-200,000	0,012	0,109
-471,474	-191,490	0,128	-0,001
-470,459	171,346	0,032	-0,033
-469,445	98,095	-0,102	-0,084
-468,430	-200,000	-0,001	0,046
-467,416	277,491	0,073	0,093
-466,401	326,913	0,041	0,057
-465,386	-200,000	0,003	0,090
-464,372	-200,000	0,012	-0,061
-463,357	-200,000	0,004	-0,065
-462,343	-200,000	-0,013	0,090
-461,328	66,867	0,099	-0,072
-460,313	-200,000	-0,033	-0,167
-459,299	800,000	-0,032	0,069
-458,284	113,071	0,119	0,103
-457,270	349,875	-0,050	-0,071
-456,255	199,012	0,096	-0,106
-455,241	90,090	0,045	0,036
-454,226	39,583	0,099	-0,063
-453,211	-141,631	-0,086	0,006
-452,197	-146,992	-0,052	0,003
-451,182	-12,673	0,046	0,021
-450,168	26,983	-0,070	0,042
-449,153	-23,001	0,086	-0,037
-448,138	116,356	0,082	-0,072
-447,124	-200,000	-0,022	-0,195
-446,109	-137,936	0,081	0,006
-445,095	800,000	0,011	-0,035
-444,080	800,000	-0,014	0,037
-443,065	800,000	0,072	0,148
-442,051	-200,000	0,009	-0,049
-441,036	152,211	0,038	0,038
-440,022	-200,000	0,009	0,068
-439,007	222,096	-0,113	0,131
-437,992	-97,794	0,099	0,018
-436,978	-200,000	-0,004	-0,025
-435,963	-200,000	-0,005	0,080
-434,949	-134,119	-0,108	0,009
-433,934	198,451	0,079	-0,086
-432,919	800,000	-0,035	0,091
-431,905	376,518	0,067	0,099
-430,890	-200,000	0,010	0,033
-429,876	-126,508	-0,081	0,009
-428,861	800,000	-0,056	0,134
-427,846	-200,000	-0,022	0,139
-426,832	-200,000	0,001	0,061
-425,817	-200,000	-0,051	-0,173
-424,803	303,571	-0,107	0,143
-423,788	-200,000	0,005	0,030
-422,773	-21,008	-0,066	0,029
-421,759	305,408	-0,098	0,131
-420,744	-138,330	-0,128	0,010
-419,730	737,015	0,077	-0,148
-418,715	24,441	-0,067	0,040
-417,701	-200,000	0,001	0,017
-416,686	500,488	-0,028	0,046
-415,671	-31,876	0,068	0,027
-414,657	336,335	0,051	-0,072
-413,642	-200,000	-0,006	0,033
-412,628	11,807	-0,054	-0,029
-411,613	-15,513	-0,010	0,004
-410,598	-200,000	-0,011	-0,100
-409,584	-200,000	-0,022	0,117
-408,569	344,770	-0,021	-0,030
-407,555	215,374	-0,020	-0,023
-406,540	24,541	0,034	0,020
-405,525	800,000	0,040	-0,108
-404,511	-200,000	-0,021	0,095
-403,496	231,507	-0,073	0,086
-402,482	189,575	0,122	-0,131
-401,467	-92,328	-0,191	-0,038
-400,452	-52,051	0,200	-0,066
-399,438	-200,000	-0,002	-0,132
-398,423	-200,000	-0,017	-0,081
-397,409	347,915	0,070	0,100
-396,394	78,992	0,037	0,028
-395,379	-129,025	-0,059	-0,006
-394,365	39,586	0,090	0,058
-393,350	103,726	0,067	0,056
-392,336	-200,000	0,017	0,200
-391,321	-200,000	0,003	0,043
-390,306	-200,000	0,009	0,037
-389,292	33,092	-0,059	0,036
-388,277	85,608	0,058	-0,046
-387,263	-31,458	0,137	0,055
-386,248	-200,000	0,009	0,133
-385,233	511,232	0,033	-0,055
-384,219	-155,859	-0,039	-0,002
-383,204	-82,318	-0,153	-0,035
-382,190	98,624	-0,064	-0,052
-381,175	-200,000	-0,020	0,066
-380,160	-87,505	0,161	0,035
-379,146	-200,000	0,000	-0,114
-378,131	-196,449	0,099	-0,000
-377,117	-5,723	-0,132	0,064
-376,102	51,720	-0,016	-0,011
-375,088	-91,226	-0,025	-0,005
-374,073	49,792	0,086	0,058
-373,058	-200,000	0,000	0,063
-372,044	29,618	0,160	0,097
-371,029	-200,000	0,000	-0,046
-370,015	626,368	-0,116	-0,211
-369,000	-200,000	-0,003	-0,021
-367,985	-24,654	-0,065	0,028
-366,971	-87,995	-0,069	0,015
-365,956	104,562	0,075	0,063
-364,942	85,883	-0,080	0,063
-363,927	-92,934	0,111	0,022
-362,912	647,934	-0,017	-0,032
-361,898	-200,000	0,046	-0,187
-360,883	-200,000	0,039	0,131
-359,869	-200,000	0,011	0,049
-358,854	-200,000	0,010	0,035
-357,839	-53,474	0,010	0,003
-356,825	-28,715	0,079	0,033
-355,810	6,451	0,062	0,033
-354,796	-200,000	-0,017	0,134
-353,781	800,000	-0,017	-0,049
-352,766	-54,136	-0,070	-0,022
-351,752	71,153	-0,101	0,075
-350,737	-200,000	-0,003	0,039
-349,723	78,188	-0,077	0,058
-348,708	288,586	-0,088	0,115
-347,693	104,163	0,104	0,087
-346,679	-177,155	-0,137	0,002
-345,664	227,744	-0,072	-0,084
-344,650	800,000	0,039	0,089
-343,635	367,811	0,022	-0,033
-342,620	23,277	0,150	-0,088
-341,606	-200,000	-0,008	0,243
-340,591	-200,000	0,003	0,103
-339,577	285,926	0,028	-0,036
-338,562	759,225	-0,020	0,038
-337,548	-6,831	0,107	-0,052
-336,533	78,232	0,092	-0,070
-335,518	64,040	0,120	0,086
-334,504	-62,695	0,039	0,011
-333,489	-200,000	-0,016	0,062
-332,475	-200,000	0,013	-0,165
-331,460	-200,000	0,019	-0,061
-330,445	99,994	-0,064	-0,053
-329,431	132,557	0,080	-0,074
-328,416	-109,786	0,154	0,023
-327,402	570,542	-0,039	-0,068
-326,387	-1,600	0,051	-0,025
-325,372	234,211	-0,118	-0,139
-324,358	800,000	-0,051	0,130
-323,343	-200,000	0,008	0,053
-322,329	-158,802	0,173	0,007
-321,314	58,084	-0,013	-0,009
-320,299	800,000	0,051	0,110
-319,285	-70,964	0,101	-0,027
-318,270	146,455	-0,055	0,052
-317,256	-42,784	-0,064	0,023
-316,241	324,173	0,011	0,015
-315,226	-36,099	-0,044	0,017
-314,212	-75,473	0,101	0,025
-313,197	544,240	-0,014	-0,024
-312,183	-54,165	-0,116	0,037
-311,168	-57,871	-0,112	0,035
-310,153	-114,534	0,031	0,004
-309,139	800,000	-0,041	-0,092
-308,124	-200,000	0,021	-0,099
-307,110	-200,000	0,021	0,072
-306,095	72,184	0,152	0,113
-305,080	-38,614	-0,027	0,010
-304,066	-200,000	0,006	-0,038
-303,051	-36,800	0,039	-0,015
-302,037	800,000	-0,033	-0,084
-301,022	178,748	0,014	0,014
-300,008	442,354	-0,065	-0,102
-298,993	-27,203	0,087	0,036
-297,978	-200,000	-0,006	-0,053
-296,964	800,000	-0,077	-0,199
-295,949	-200,000	0,000	-0,023
-294,935	-121,342	-0,208	-0,024
-293,920	1,014	0,075	-0,038
-292,905	-71,682	0,099	0,026
-291,891	239,182	-0,080	0,095
-290,876	-200,000	-0,001	0,153
-289,862	206,577	-0,059	-0,066
-288,847	-85,579	-0,137	-0,030
-287,832	-200,000	-0,010	-0,050
-286,818	-43,055	0,090	0,032
-285,803	-26,995	-0,052	-0,021
-284,789	59,573	0,077	0,054
-283,774	-200,000	0,016	0,138
-282,759	-114,270	-0,047	-0,006
-281,745	800,000	0,031	-0,072
-280,730	-200,000	0,018	-0,186
-279,716	-125,434	0,076	0,008
-278,701	800,000	0,071	0,145
-277,686	172,136	0,067	0,068
-276,672	-156,591	0,049	0,002
-275,657	639,487	-0,058	0,105
-274,643	236,709	-0,078	0,092
-273,628	384,763	-0,067	-0,099
-272,613	800,000	0,016	0,039
-271,599	800,000	0,039	0,106
-270,584	68,469	0,072	0,053
-269,570	110,411	0,071	0,060
-268,555	94,767	0,071	0,057
-267,540	800,000	0,023	-0,061
-266,526	121,210	-0,053	0,047
-265,511	-200,000	-0,030	-0,197
-264,497	130,588	0,063	-0,057
-263,482	506,463	-0,049	0,080
-262,467	89,236	0,102	-0,081
-261,453	-168,558	0,098	0,003
-260,438	10,099	0,084	-0,045
-259,424	-200,000	-0,001	0,125
-258,409	407,615	-0,073	0,110
-257,395	-157,651	0,078	-0,003
-256,380	-39,371	0,112	0,042
-255,365	-93,402	-0,094	0,018
-254,351	-200,000	0,004	0,083
-253,336	-35,006	-0,154	0,060
-252,322	46,339	-0,076	-0,050
-251,307	-116,454	-0,126	-0,016
-250,292	5,716	0,105	-0,055
-249,278	75,618	-0,030	0,023
-248,263	133,248	0,125	-0,115
-247,249	-114,446	0,083	-0,011
-246,234	41,187	0,123	-0,079
-245,219	-200,000	-0,020	-0,089
-244,205	80,689	-0,100	-0,076
-243,190	154,502	0,103	0,100
-242,176	116,166	0,161	0,140
-241,161	-77,786	0,113	0,027
-240,146	-157,496	-0,082	0,003
-239,132	354,586	0,035	-0,050
-238,117	-75,089	-0,159	-0,040
-237,103	86,351	-0,046	-0,036
-236,088	18,988	-0,150	0,085
-235,073	-200,000	-0,030	0,109
-234,059	94,170	0,116	0,093
-233,044	9,778	0,162	-0,087
-232,030	-200,000	0,005	-0,075
-231,015	-200,000	-0,003	0,012
-230,000	218,146	-0,139	0,158
-228,986	183,443	-0,037	0,039
-227,971	283,451	0,078	0,100
-226,957	800,000	0,068	0,186
-225,942	800,000	-0,035	0,099
-224,927	57,970	-0,071	-0,049
-223,913	-200,000	-0,005	-0,034
-222,898	-200,000	-0,003	-0,065
-221,884	-200,000	-0,015	-0,094
-220,869	22,731	0,094	-0,055
-219,855	-200,000	-0,027	0,103
-218,840	243,001	0,021	0,026
-217,825	-200,000	-0,018	0,115
-216,811	751,644	-0,035	0,067
-215,796	605,913	0,032	-0,056
-214,782	-200,000	0,018	-0,102
-213,767	594,554	-0,025	-0,045
-212,752	-200,000	-0,006	-0,183
-211,738	-200,000	-0,007	-0,076
-210,723	727,496	-0,030	-0,057
-209,709	111,799	-0,153	-0,131
-208,694	115,012	0,027	-0,024
-207,679	-200,000	-0,007	-0,031
-206,665	488,216	-0,047	0,076
-205,650	128,850	-0,042	0,038
-204,636	724,114	0,036	0,069
-203,621	800,000	0,070	0,187
-202,606	800,000	0,050	0,121
-201,592	-53,366	-0,134	-0,043
-200,577	-200,000	-0,016	-0,112
-199,563	1,961	-0,049	0,025
-198,548	-200,000	-0,023	0,103
-197,533	-200,000	0,026	0,140
-196,519	235,818	-0,066	0,078
-195,504	292,033	0,013	0,016
-194,490	-52,313	0,006	-0,002
-193,475	14,234	0,008	-0,004
-192,460	-200,000	0,012	0,063
-191,446	800,000	0,021	0,064
-190,431	351,711	-0,103	-0,145
-189,417	187,953	-0,046	0,049
-188,402	431,579	-0,071	-0,109
-187,387	-59,190	-0,176	-0,053
-186,373	357,148	0,041	-0,058
-185,358	-84,200	-0,047	-0,010
-184,344	150,811	0,018	-0,017
-183,329	362,995	0,035	-0,050
-182,315	185,634	-0,090	0,095
-181,300	-54,249	-0,082	-0,026
-180,285	21,595	0,229	-0,132
-179,271	578,376	-0,062	-0,108
-178,256	127,096	-0,114	0,103
-177,242	-200,000	0,006	0,120
-176,227	-76,656	0,056	0,014
-175,212	485,138	0,047	-0,076
-174,198	-129,357	-0,038	0,004
-173,183	-48,866	-0,115	0,039
-172,169	-100,643	-0,141	-0,024
-171,154	113,026	0,105	-0,090
-170,139	477,503	-0,073	-0,117
-169,125	-200,000	-0,001	-0,008
-168,110	-200,000	0,025	0,139
-167,096	800,000	0,019	-0,041
-166,081	800,000	-0,031	-0,091
-165,066	764,724	-0,047	-0,090
-164,052	276,873	-0,008	-0,010
-163,037	-64,090	0,136	0,039
-162,023	-143,091	-0,136	-0,009
-161,008	-114,926	-0,089	-0,012
-159,993	254,719	0,020	0,025
-158,979	62,779	0,111	-0,078
-157,964	-200,000	0,008	-0,036
-156,950	-13,543	0,058	-0,026
-155,935	-200,000	-0,021	-0,099
-154,920	90,808	0,108	0,086
-153,906	-200,000	-0,015	-0,093
-152,891	413,844	-0,040	-0,060
-151,877	221,229	0,055	-0,063
-150,862	-200,000	0,016	-0,132
-149,847	-200,000	-0,044	-0,144
-148,833	694,219	-0,054	0,101
-147,818	-8,511	0,144	0,068
-146,804	-200,000	0,005	0,027
-145,789	383,793	0,023	-0,033
-144,775	-138,063	-0,173	0,013
-143,760	-200,000	-0,031	0,103
-142,745	458,964	-0,027	0,043
-141,731	-200,000	-0,011	-0,061
-140,716	53,706	-0,013	-0,009
-139,702	16,227	-0,088	0,049
-138,687	17,599	-0,046	0,026
-137,672	175,722	-0,076	0,078
-136,658	-200,000	0,006	-0,040
-135,643	-200,000	0,021	-0,107
-134,629	10,317	0,110	-0,059
-133,614	-97,674	-0,059	-0,011
-132,599	-1,045	0,044	-0,022
-131,585	-70,363	0,038	0,010
-130,570	-65,607	0,138	-0,039
-129,556	-88,340	0,082	0,017
-128,541	800,000	-0,028	-0,066
-127,526	-105,554	0,090	-0,014
-126,512	800,000	0,007	0,014
-125,497	800,000	0,026	0,057
-124,483	-200,000	-0,001	0,131
-123,468	-11,112	-0,006	0,003
-122,453	790,677	-0,026	-0,052
-121,439	-58,505	-0,135	0,041
-120,424	114,403	0,072	0,062
-119,410	-200,000	-0,000	-0,084
-118,395	800,000	-0,007	-0,020
-117,380	-48,799	0,142	-0,048
-116,366	-200,000	-0,030	-0,155
-115,351	-200,000	0,004	-0,130
-114,337	800,000	-0,050	-0,120
-113,322	800,000	0,045	-0,091
-112,307	150,962	-0,030	-0,029
-111,293	800,000	0,047	0,093
-110,278	-200,000	-0,007	-0,048
-109,264	-200,000	0,027	-0,109
-108,249	24,066	-0,102	-0,060
-107,234	800,000	-0,056	0,117
-106,220	-200,000	-0,023	-0,096
-105,205	-45,499	-0,091	-0,032
-104,191	38,553	0,074	0,047
-103,176	-104,263	-0,072	0,012
-102,162	160,774	-0,050	-0,049
-101,147	15,749	-0,077	0,043
-100,132	226,772	0,052	-0,060
-99,118	-61,559	-0,043	0,013
-98,103	219,215	-0,121	-0,137
-97,089	-95,073	-0,071	-0,013
-96,074	-200,000	0,032	0,135
-95,059	-135,605	-0,145	-0,012
-94,045	-50,701	-0,117	0,039
-93,030	93,274	0,055	0,044
-92,016	-200,000	0,032	-0,105
-91,001	-117,555	0,123	0,016
-89,986	-118,096	-0,078	0,010
-88,972	-109,268	0,077	0,011
-87,957	-135,358	-0,099	-0,008
-86,943	35,962	-0,137	0,085
-85,928	56,497	-0,174	-0,120
-84,913	29,794	-0,109	-0,066
-83,899	-40,605	0,079	-0,029
-82,884	-2,250	-0,084	0,042
-81,870	-200,000	-0,012	0,038
-80,855	-136,750	0,124	-0,010
-79,840	-200,000	0,007	-0,135
-78,826	-111,565	0,062	-0,009
-77,811	269,217	0,067	-0,084
-76,797	-2,045	0,007	0,003
-75,782	800,000	-0,014	0,029
-74,767	375,152	0,041	0,059
-73,753	56,801	-0,072	0,049
-72,738	17,981	0,100	0,056
-71,724	36,463	0,076	0,047
-70,709	276,772	-0,085	-0,107
-69,694	-200,000	-0,015	0,149
-68,680	127,905	0,057	0,051
-67,665	-200,000	0,011	-0,067
-66,651	800,000	0,037	0,101
-65,636	800,000	-0,042	0,103
-64,622	-25,607	0,131	-0,054
-63,607	128,902	-0,092	-0,083
-62,592	-200,000	-0,025	-0,132
-61,578	800,000	-0,023	0,066
-60,563	126,702	0,170	0,152
-59,549	88,930	-0,061	-0,048
-58,534	43,491	-2,045	-1,318
-57,519	424,150	-1,228	-1,871
-56,505	-200,000	-0,376	-4,468
-55,490	363,219	0,977	1,389
-54,476	800,000	5,098	11,249
-53,461	-200,000	21,558	344,717
-52,446	800,000	762,537	2368,341
-51,432	558,624	1664,991	2847,184
-50,417	73,307	1661,830	1225,928
-49,403	17,890	1535,415	860,870
-48,388	11,812	1458,992	788,603
-47,373	19,647	1450,427	821,566
-46,359	15,317	1439,434	794,708
-45,344	10,097	1435,360	767,555
-44,330	10,022	1433,522	766,179
-43,315	10,039	1431,620	765,216
-42,300	10,020	1429,945	764,200
-41,286	10,070	1428,599	763,685
-40,271	9,985	1427,526	762,681
-39,257	10,019	1426,147	762,075
-38,242	10,105	1425,004	761,842
-37,227	10,078	1424,000	761,144
-36,213	10,074	1422,718	760,411
-35,198	10,064	1421,614	759,742
-34,184	10,109	1420,581	759,376
-33,169	10,044	1419,257	758,328
-32,154	10,079	1418,235	757,918
-31,140	10,038	1416,792	756,923
-30,125	10,110	1415,881	756,745
-29,111	10,088	1414,645	755,950
-28,096	10,070	1413,601	755,282
-27,082	10,025	1412,325	754,357
-26,067	10,009	1411,391	753,754
-25,052	9,995	1410,387	753,124
-24,038	10,077	1409,197	752,839
-23,023	10,029	1408,398	752,157
-22,009	10,019	1407,287	751,487
-20,994	9,998	1406,234	750,798
-19,979	9,974	1405,426	750,223
-18,965	9,994	1404,313	749,692
-17,950	10,019	1403,542	749,372
-16,936	9,946	1402,735	748,570
-15,921	9,955	1401,730	748,044
-14,906	9,907	1401,006	747,405
-13,892	9,992	1399,675	747,061
-12,877	9,926	1399,180	746,459
-11,863	9,928	1398,076	745,849
-10,848	9,908	1397,227	745,275
-9,833	9,913	1396,300	744,775
-8,819	9,821	1395,667	743,980
-7,804	9,823	1394,695	743,444
-6,790	9,865	1393,617	743,034
-5,775	9,827	1392,749	742,365
-4,760	9,864	1391,553	741,870
-3,746	9,864	1390,386	741,215
-2,731	9,798	1390,119	740,740
-1,717	9,800	1388,995	740,120
-0,702	9,801	1387,068	739,071
0,313	13,945	1299,749	711,481
1,327	30,324	689,678	414,636
2,342	47,294	119,306	78,248
3,356	0,732	16,455	8,281
4,371	6,994	3,520	1,845
5,386	13,384	1,016	0,554
6,400	800,000	0,253	0,551
7,415	93,697	-0,078	-0,063
8,429	135,475	-0,198	-0,182
9,444	25,963	-0,361	-0,211
10,459	86,761	-0,217	-0,168
11,473	-35,652	-0,381	-0,145
12,488	-16,341	-0,344	-0,153
13,502	-27,729	-0,320	-0,130
14,517	139,108	-0,182	-0,169
15,531	15,712	-0,358	-0,198
16,546	16,535	-0,328	-0,182
17,561	123,362	-0,305	-0,269
18,575	249,185	-0,139	-0,166
19,590	45,628	-0,286	-0,186
20,604	-125,662	-0,239	-0,025
21,619	-42,747	-0,444	-0,158
22,634	-74,804	-0,474	-0,119
23,648	52,244	-0,531	-0,356
24,663	129,428	-0,413	-0,371
25,677	9,437	-0,441	-0,234
26,692	129,495	-0,223	-0,201
27,707	-24,722	-0,197	-0,082
28,721	3,800	-0,398	-0,204
29,736	172,153	-0,365	-0,369
30,750	17,631	-0,455	-0,254
31,765	152,553	-0,219	-0,211
32,780	33,300	-0,273	-0,166
33,794	124,467	-0,306	-0,271
34,809	44,250	-0,324	-0,209
35,823	127,557	-0,282	-0,252
36,838	140,610	-0,379	-0,352
37,853	282,800	-0,233	-0,294
38,867	44,406	-0,426	-0,274
39,882	-25,582	-0,408	-0,169
40,896	24,505	-0,367	-0,213
41,911	283,275	-0,232	-0,294
42,926	5,099	-0,371	-0,191
43,940	28,082	-0,322	-0,190
44,955	142,130	-0,271	-0,253
45,969	247,682	-0,330	-0,392
46,984	350,938	-0,218	-0,303
47,999	-29,759	-0,318	-0,127
49,013	45,441	-0,308	-0,200
50,028	204,877	-0,318	-0,347
51,042	39,247	-0,308	-0,193
52,057	27,040	-0,376	-0,221
53,071	211,492	-0,320	-0,354
54,086	265,208	-0,268	-0,329
55,101	74,116	-0,376	-0,277
56,115	47,718	-0,204	-0,134
57,130	123,363	-0,245	-0,216
58,144	83,645	-0,305	-0,233
59,159	-41,616	-0,277	-0,100
60,174	43,610	-0,361	-0,231
61,188	86,668	-0,311	-0,240
62,203	52,954	-0,337	-0,226
63,217	35,785	-0,257	-0,158
64,232	98,761	-0,305	-0,247
65,247	159,569	-0,204	-0,199
66,261	-5,943	-0,333	-0,159
67,276	95,910	-0,370	-0,296
68,290	122,184	-0,265	-0,232
69,305	39,767	-0,330	-0,207
70,320	182,785	-0,196	-0,203
71,334	-74,352	-0,302	-0,076
72,349	54,511	-0,362	-0,244
73,363	162,095	-0,293	-0,288
74,378	13,855	-0,393	-0,214
75,393	34,547	-0,298	-0,182
76,407	13,182	-0,398	-0,216
77,422	193,541	-0,223	-0,237
78,436	-126,112	-0,220	-0,023
79,451	59,198	-0,269	-0,186
80,466	-55,386	-0,327	-0,102
81,480	171,237	-0,322	-0,324
82,495	97,721	-0,382	-0,308
83,509	205,420	-0,185	-0,201
84,524	-94,332	-0,197	-0,037
85,539	120,295	-0,202	-0,176
86,553	-64,083	-0,303	-0,086
87,568	336,623	-0,221	-0,301
88,582	108,931	-0,231	-0,193
89,597	99,267	-0,256	-0,207
90,611	-56,999	-0,395	-0,121
91,626	90,699	-0,277	-0,217
92,641	43,306	-0,214	-0,136
93,655	-75,292	-0,302	-0,075
94,670	-20,196	-0,314	-0,135
95,684	272,822	-0,260	-0,322
96,699	-108,056	-0,372	-0,056
97,714	-10,328	-0,335	-0,155
98,728	-34,773	-0,302	-0,115
99,743	206,382	-0,184	-0,201
100,757	-43,888	-0,341	-0,119
101,772	218,908	-0,187	-0,209
102,787	-13,086	-0,379	-0,172
103,801	-60,449	-0,448	-0,132
104,816	-56,342	-0,222	-0,068
105,830	-74,525	-0,337	-0,084
106,845	70,579	-0,154	-0,111
107,860	23,511	-0,334	-0,192
108,874	-59,929	-0,380	-0,113
109,889	8,182	-0,268	-0,140
110,903	61,368	-0,138	-0,095
111,918	403,038	-0,182	-0,268
112,933	190,170	-0,217	-0,228
113,947	649,603	-0,138	-0,248
114,962	44,809	-0,235	-0,151
115,976	182,514	-0,252	-0,260
116,991	166,797	-0,247	-0,245
118,006	77,197	-0,328	-0,243
119,020	35,529	-0,206	-0,126
120,035	-135,084	-0,250	-0,021
121,049	-113,129	-0,298	-0,041
122,064	74,565	-0,141	-0,103
123,079	422,672	-0,201	-0,302
124,093	-5,850	-0,243	-0,116
125,108	-153,859	-0,259	-0,012
126,122	100,455	-0,216	-0,175
127,137	-51,701	-0,164	0,053
128,151	193,283	-0,248	-0,262
129,166	-87,612	-0,162	-0,034
130,181	51,479	-0,203	-0,134
131,195	-9,243	-0,309	-0,144
132,210	79,637	-0,279	-0,209
133,224	-17,535	-0,229	-0,100
134,239	119,894	-0,208	-0,180
135,254	8,317	-0,252	-0,131
136,268	399,946	-0,147	-0,216
137,283	-16,489	-0,205	-0,090
138,297	102,013	-0,329	-0,268
139,312	610,494	-0,158	-0,276
140,327	52,119	-0,351	-0,233
141,341	36,384	-0,309	-0,189
142,356	-8,243	-0,292	-0,136
143,370	130,148	-0,264	-0,236
144,385	-24,504	-0,196	-0,081
145,400	189,771	-0,277	-0,289
146,414	64,624	-0,279	-0,196
147,429	96,179	-0,314	-0,250
148,443	288,344	-0,223	-0,282
149,458	-200,000	-0,071	-0,261
150,473	750,117	-0,081	-0,154
151,487	290,076	-0,106	-0,134
152,502	306,690	-0,138	-0,179
153,516	90,599	-0,298	-0,232
154,531	48,101	-0,297	-0,193
155,546	-63,624	-0,167	-0,047
156,560	-145,888	-0,133	0,008
157,575	7,802	-0,220	-0,114
158,589	80,542	-0,264	-0,198
159,604	93,432	-0,292	-0,230
160,619	-16,597	-0,179	-0,079
161,633	308,100	-0,115	-0,150
162,648	-64,150	-0,419	-0,118
163,662	98,537	-0,195	-0,156
164,677	571,861	-0,128	-0,218
165,692	101,175	-0,241	-0,195
166,706	13,228	-0,232	-0,125
167,721	340,097	-0,131	-0,178
168,735	247,286	-0,224	-0,264
169,750	-29,141	-0,349	-0,138
170,764	102,608	-0,260	-0,212
171,779	-110,175	-0,173	-0,025
172,794	740,597	-0,116	-0,218
173,808	149,792	-0,180	-0,170
174,823	-42,002	-0,215	-0,076
175,837	-74,290	-0,251	-0,062
176,852	-12,826	-0,306	-0,138
177,867	800,000	-0,155	-0,309
178,881	-200,000	-0,057	-0,228
179,896	117,519	-0,200	-0,171
180,910	123,859	-0,258	-0,225
181,925	110,659	-0,254	-0,212
182,940	219,201	-0,176	-0,196
183,954	44,505	-0,170	-0,108
184,969	25,423	-0,166	-0,096
185,983	381,833	-0,174	-0,249
186,998	79,032	-0,132	-0,098
188,013	206,467	-0,107	-0,115
189,027	28,139	-0,215	-0,126
190,042	120,636	-0,186	-0,160
191,056	68,412	-0,299	-0,212
192,071	110,564	-0,167	-0,140
193,086	-20,403	-0,169	-0,072
194,100	35,174	-0,112	-0,068
195,115	-143,019	-0,244	0,016
196,129	94,669	-0,230	-0,181
197,144	169,030	-0,115	-0,114
198,159	30,347	-0,206	-0,122
199,173	82,862	-0,245	-0,184
200,188	-55,278	-0,172	0,053
201,202	-106,259	-0,255	-0,039
202,217	24,178	-0,146	0,083
203,232	27,143	-0,206	-0,120
204,246	698,515	-0,199	-0,365
205,261	69,276	-0,308	-0,220
206,275	69,949	-0,222	-0,159
207,290	520,632	-0,115	-0,187
208,304	27,443	-0,189	-0,110
209,319	47,864	-0,247	-0,159
210,334	165,183	-0,234	-0,229
211,348	-12,009	-0,346	-0,157
212,363	614,685	-0,114	-0,198
213,377	57,227	-0,226	-0,152
214,392	315,995	-0,149	-0,195
215,407	44,646	-0,140	-0,089
216,421	189,828	-0,165	-0,171
217,436	43,678	-0,339	-0,214
218,450	59,938	-0,193	-0,132
219,465	800,000	-0,085	-0,241
220,480	306,007	-0,098	-0,126
221,494	40,362	-0,154	-0,096
222,509	88,479	-0,181	-0,139
223,523	-160,330	-0,271	-0,010
224,538	-200,000	-0,048	-0,209
225,553	27,629	-0,088	-0,051
226,567	-82,612	-0,260	-0,058
227,582	70,446	-0,272	-0,194
228,596	-171,543	-0,136	-0,003
229,611	153,645	-0,261	-0,247
230,626	-42,413	-0,197	-0,069
231,640	792,589	-0,099	-0,189
232,655	-29,764	-0,238	-0,093
233,669	-36,233	-0,284	-0,105
234,684	22,853	-0,203	-0,115
235,699	-6,810	-0,284	-0,133
236,713	-66,721	-0,243	-0,066
237,728	-200,000	-0,062	-0,205
238,742	253,126	-0,185	-0,219
239,757	-97,735	-0,244	-0,043
240,772	237,983	-0,186	-0,213
241,786	197,524	-0,220	-0,232
242,801	93,000	-0,182	-0,142
243,815	227,613	-0,173	-0,195
244,830	332,271	-0,124	-0,165
245,844	61,361	-0,262	-0,179
246,859	108,177	-0,176	-0,145
247,874	95,991	-0,304	-0,239
248,888	384,237	-0,128	-0,182
249,903	388,117	-0,081	-0,116
250,917	55,840	-0,147	-0,098
251,932	676,097	-0,123	-0,221
252,947	105,356	-0,168	-0,137
253,961	29,936	-0,244	-0,143
254,976	-50,175	-0,201	-0,065
255,990	102,073	-0,189	-0,152
257,005	12,725	-0,188	-0,100
258,020	10,981	-0,161	-0,084
259,034	74,470	-0,166	-0,120
260,049	45,601	-0,213	-0,135
261,063	-33,012	-0,190	-0,072
262,078	6,165	-0,288	-0,147
263,093	9,225	-0,225	-0,117
264,107	-58,638	-0,171	-0,051
265,122	478,103	-0,040	-0,063
266,136	68,697	-0,109	-0,077
267,151	258,140	-0,177	-0,210
268,166	603,342	-0,104	-0,179
269,180	-31,164	-0,179	-0,069
270,195	-59,099	-0,147	0,043
271,209	-45,123	-0,276	-0,094
272,224	107,907	-0,087	-0,071
273,239	-129,970	-0,116	-0,011
274,253	71,006	-0,138	-0,098
275,268	75,380	-0,226	-0,164
276,282	256,096	-0,148	-0,175
277,297	-84,942	-0,273	-0,059
278,312	800,000	-0,054	-0,142
279,326	-77,217	-0,125	-0,030
280,341	-200,000	-0,032	-0,115
281,355	-160,484	-0,229	0,008
282,370	687,747	-0,110	-0,199
283,384	-45,344	-0,201	-0,068
284,399	70,710	-0,170	-0,121
285,414	6,425	-0,095	-0,048
286,428	129,036	-0,193	-0,169
287,443	-1,153	-0,236	-0,115
288,457	85,477	-0,107	0,081
289,472	-44,344	-0,165	-0,056
290,487	-8,076	-0,097	-0,045
291,501	628,653	-0,107	-0,186
292,516	117,506	-0,246	-0,208
293,530	15,724	-0,081	-0,044
294,545	38,287	-0,208	-0,127
295,560	179,268	-0,114	-0,115
296,574	-200,000	0,009	-0,077
297,589	22,707	-0,070	-0,039
298,603	218,514	-0,140	-0,154
299,618	-28,050	-0,287	-0,114
300,633	-2,687	-0,251	-0,120
301,647	130,473	-0,042	-0,037
302,662	170,440	-0,087	-0,085
303,676	78,947	-0,084	-0,062
304,691	-72,993	-0,341	0,085
305,706	-200,000	-0,002	-0,138
306,720	-200,000	-0,011	-0,113
307,735	164,006	-0,128	-0,124
308,749	178,935	-0,084	-0,084
309,764	113,758	-0,162	-0,135
310,779	80,705	-0,210	-0,155
311,793	114,438	-0,153	-0,128
312,808	800,000	-0,104	-0,237
313,822	136,889	-0,143	-0,128
314,837	-68,390	-0,075	-0,020
315,852	465,076	-0,078	-0,120
316,866	12,745	-0,028	-0,015
317,881	-56,946	-0,238	-0,072
318,895	714,799	-0,117	-0,213
319,910	193,043	-0,165	-0,171
320,925	696,659	-0,103	-0,187
321,939	-200,000	0,042	-0,176
322,954	-113,056	-0,109	0,015
323,968	-67,454	-0,112	0,030
324,983	67,760	-0,137	-0,096
325,997	-200,000	0,039	-0,136
327,012	270,665	-0,168	-0,202
328,027	118,073	-0,188	-0,159
329,041	-36,048	-0,204	-0,075
330,056	568,782	-0,045	0,075
331,070	94,236	-0,056	0,043
332,085	-200,000	-0,028	-0,104
333,100	58,106	-0,126	-0,085
334,114	118,305	-0,233	-0,197
335,129	259,235	-0,174	-0,206
336,143	-200,000	0,006	-0,128
337,158	74,417	-0,122	-0,088
338,173	-200,000	-0,001	0,033
339,187	-30,406	-0,163	-0,063
340,202	800,000	-0,121	-0,253
341,216	-200,000	-0,016	-0,090
342,231	-76,939	-0,188	-0,045
343,246	738,900	-0,130	-0,239
344,260	99,829	-0,129	-0,102
345,275	-67,852	-0,099	0,026
346,289	-42,350	-0,042	-0,015
347,304	118,043	-0,263	-0,221
348,319	-88,605	-0,258	-0,052
349,333	-6,490	-0,206	-0,096
350,348	-79,406	-0,186	-0,043
351,362	-86,839	-0,056	-0,012
352,377	-11,379	-0,177	-0,079
353,392	135,593	-0,087	-0,078
354,406	-7,762	-0,175	-0,080
355,421	206,900	1310,923	1399,074
356,435	159,142	1471,150	1399,553
