DTS Sentinel unit serial number:	SN410029Multiplexer serial number:	ORYXHardware model number:	OX2-SRSoftware version number:	ORYX F/W v4,00 Oryx Data Collector v3.7.2.0data status	okinstallation	B3 Nyhavnadifferential loss correction	single-endedforward channel	channel 1reverse channel	N/Adate	2023/12/04time	22:22:30forward acquisition time	300,00reverse acquisition time	0,00gamma	499,1914k internal	0,3200k external	0,3200temperature offset calibration	1,0000default loss term (dB/km)	0,3820temperature slope calibration	1,0000multiplexer offset coefficient	1,0000multiplexer slope coefficient	1,0000fibre end	0,00T internal ref (°C)	14,51T ext. ref 1 (°C)	-0,67T ext. ref 2 (°C)	-0,68length (m)	temperature (°C)	Stokes	anti-Stokes-744,400	800,000	-0,173	-0,418
-743,385	800,000	-0,065	0,157
-742,371	424,079	-0,197	-0,310
-741,356	637,001	0,067	0,124
-740,342	32,985	-0,302	-0,190
-739,327	-200,000	-0,009	0,262
-738,312	139,435	-0,275	-0,263
-737,298	-200,000	0,087	0,405
-736,283	99,845	-0,155	-0,130
-735,269	-200,000	-0,000	0,356
-734,254	108,091	-0,213	-0,185
-733,239	-67,399	-0,359	0,102
-732,225	435,072	-0,134	-0,212
-731,210	19,722	0,051	0,030
-730,196	-86,761	-0,116	-0,026
-729,181	215,191	0,014	-0,017
-728,167	800,000	-0,046	0,108
-727,152	800,000	0,028	0,083
-726,137	334,815	-0,108	-0,152
-725,123	-60,210	-0,148	0,046
-724,108	-65,091	-0,072	-0,021
-723,094	-50,905	-0,111	-0,038
-722,079	-200,000	0,008	-0,067
-721,064	191,096	-0,092	-0,101
-720,050	-200,000	-0,009	0,168
-719,035	-3,276	-0,049	0,025
-718,021	-87,988	-0,152	0,033
-717,006	-200,000	-0,016	-0,183
-715,991	-91,028	-0,047	-0,010
-714,977	-200,000	-0,057	-0,191
-713,962	800,000	0,046	0,106
-712,948	754,587	-0,041	0,081
-711,933	298,325	-0,018	-0,024
-710,918	-200,000	-0,059	-0,216
-709,904	-73,801	-0,056	-0,015
-708,889	-28,164	0,130	-0,054
-707,875	39,436	0,052	-0,033
-706,860	-200,000	0,043	0,275
-705,845	-200,000	-0,003	-0,066
-704,831	24,538	0,099	0,059
-703,816	-22,402	0,118	-0,052
-702,802	-76,912	-0,150	0,038
-701,787	319,659	-0,120	-0,165
-700,772	800,000	-0,010	-0,027
-699,758	374,170	-0,102	-0,151
-698,743	-119,224	0,124	0,016
-697,729	199,903	0,040	-0,044
-696,714	224,066	-0,006	-0,007
-695,699	-39,373	-0,179	-0,068
-694,685	-200,000	0,027	-0,138
-693,670	653,283	-0,070	-0,132
-692,656	-94,671	-0,089	0,017
-691,641	560,582	0,050	-0,089
-690,627	-17,176	-0,090	0,041
-689,612	54,794	-0,107	0,075
-688,597	694,200	0,016	0,030
-687,583	4,782	-0,060	-0,032
-686,568	124,863	-0,105	0,096
-685,554	-200,000	-0,025	-0,091
-684,539	-20,962	-0,073	-0,032
-683,524	-131,881	0,132	-0,012
-682,510	-200,000	-0,018	0,085
-681,495	60,850	-0,089	0,064
-680,481	-57,566	-0,101	-0,032
-679,466	-4,277	0,087	-0,044
-678,451	-70,604	0,025	-0,007
-677,437	318,337	0,017	-0,024
-676,422	377,993	0,081	-0,120
-675,408	145,413	-0,026	0,025
-674,393	-157,910	0,128	0,005
-673,378	346,628	-0,087	-0,124
-672,364	336,177	-0,107	-0,152
-671,349	-30,247	-0,155	-0,064
-670,335	0,501	0,074	0,038
-669,320	589,244	0,072	0,130
-668,305	106,147	0,034	0,029
-667,291	284,289	-0,044	-0,057
-666,276	727,109	-0,035	0,067
-665,262	800,000	-0,073	-0,221
-664,247	-81,715	0,105	0,025
-663,232	204,712	0,064	0,072
-662,218	47,539	0,027	-0,018
-661,203	54,523	-0,031	0,021
-660,189	544,354	0,034	-0,060
-659,174	800,000	0,023	-0,059
-658,159	-200,000	-0,033	-0,163
-657,145	800,000	-0,079	-0,249
-656,130	-200,000	0,003	0,039
-655,116	-200,000	-0,002	-0,066
-654,101	-200,000	0,019	-0,130
-653,086	363,730	0,045	-0,065
-652,072	-29,650	0,088	0,036
-651,057	-200,000	-0,002	-0,057
-650,043	31,226	0,095	0,059
-649,028	83,616	0,057	0,045
-648,014	55,014	0,108	-0,076
-646,999	329,293	0,036	0,050
-645,984	217,431	-0,012	0,014
-644,970	800,000	-0,006	-0,017
-643,955	18,013	-0,089	-0,052
-642,941	-200,000	-0,025	-0,166
-641,926	-200,000	-0,012	-0,102
-640,911	123,856	-0,086	-0,078
-639,897	1,034	0,063	0,033
-638,882	-200,000	0,014	0,131
-637,868	612,740	0,015	0,027
-636,853	-200,000	0,007	0,110
-635,838	112,421	0,032	-0,028
-634,824	626,813	-0,084	-0,155
-633,809	-200,000	0,003	0,070
-632,795	-81,567	-0,037	0,009
-631,780	-200,000	0,022	0,082
-630,765	-139,687	-0,101	-0,008
-629,751	107,996	0,023	0,020
-628,736	-38,164	-0,037	-0,014
-627,722	-107,674	-0,097	0,015
-626,707	-191,838	-0,078	-0,001
-625,692	486,195	0,061	0,101
-624,678	215,560	0,052	-0,060
-623,663	160,825	-0,053	-0,053
-622,649	-200,000	0,007	-0,059
-621,634	800,000	-0,013	0,034
-620,619	-40,559	-0,135	-0,050
-619,605	293,002	0,037	-0,048
-618,590	574,023	0,089	0,158
-617,576	105,862	-0,031	-0,026
-616,561	800,000	-0,006	-0,013
-615,546	153,663	0,026	0,026
-614,532	-43,523	0,007	-0,002
-613,517	-162,004	-0,055	-0,002
-612,503	-200,000	0,009	-0,099
-611,488	200,284	0,091	-0,101
-610,474	800,000	-0,008	-0,018
-609,459	218,533	0,141	0,163
-608,444	-200,000	-0,029	-0,119
-607,430	800,000	-0,040	0,089
-606,415	75,782	-0,084	0,064
-605,401	800,000	0,082	0,203
-604,386	-200,000	0,027	0,236
-603,371	-200,000	0,018	-0,067
-602,357	-8,839	0,084	-0,041
-601,342	-200,000	0,008	0,112
-600,328	471,415	-0,078	0,128
-599,313	-184,954	-0,109	-0,001
-598,298	-66,793	-0,047	0,013
-597,284	182,884	0,057	0,061
-596,269	800,000	-0,025	0,070
-595,255	272,103	0,071	0,091
-594,240	-200,000	0,007	0,030
-593,225	-200,000	0,003	-0,052
-592,211	-119,400	-0,100	-0,012
-591,196	800,000	0,023	-0,069
-590,182	-200,000	-0,010	-0,074
-589,167	-28,063	-0,058	-0,024
-588,152	-200,000	-0,033	0,134
-587,138	-140,958	-0,111	-0,008
-586,123	198,074	-0,118	0,130
-585,109	-26,658	0,075	-0,032
-584,094	284,608	-0,028	0,037
-583,079	-2,996	-0,110	-0,055
-582,065	65,514	0,106	0,077
-581,050	-200,000	-0,033	0,188
-580,036	-96,783	0,085	0,016
-579,021	-81,276	0,118	0,028
-578,006	66,043	0,024	-0,018
-576,992	-200,000	0,001	0,024
-575,977	800,000	0,030	-0,093
-574,963	134,812	0,052	-0,049
-573,948	374,668	0,041	-0,060
-572,934	-118,814	-0,089	-0,011
-571,919	-123,576	-0,108	-0,012
-570,904	-200,000	-0,009	-0,062
-569,890	-93,406	-0,082	-0,016
-568,875	-200,000	-0,045	-0,217
-567,861	302,471	-0,100	0,135
-566,846	800,000	0,014	0,037
-565,831	800,000	-0,048	0,144
-564,817	-66,922	-0,180	-0,051
-563,802	468,944	-0,070	-0,114
-562,788	157,208	-0,112	-0,112
-561,773	21,473	0,096	0,056
-560,758	-178,641	-0,095	-0,002
-559,744	-200,000	0,022	0,179
-558,729	-200,000	0,014	0,061
-557,715	14,352	0,102	-0,057
-556,700	170,983	-0,037	0,038
-555,685	-200,000	-0,016	0,149
-554,671	-200,000	-0,015	-0,086
-553,656	654,849	-0,021	0,039
-552,642	-200,000	0,008	0,038
-551,627	-200,000	0,021	0,131
-550,612	81,836	-0,033	-0,026
-549,598	-33,667	-0,076	0,030
-548,583	-200,000	0,011	-0,040
-547,569	800,000	-0,041	-0,122
-546,554	277,778	0,012	0,016
-545,539	283,826	-0,064	-0,083
-544,525	252,606	-0,027	-0,034
-543,510	57,137	0,073	0,051
-542,496	613,180	-0,068	-0,124
-541,481	-200,000	-0,023	-0,119
-540,466	800,000	-0,024	-0,061
-539,452	238,070	-0,064	-0,077
-538,437	23,311	-0,067	0,040
-537,423	-165,893	-0,164	0,005
-536,408	7,440	0,144	-0,077
-535,393	25,540	-0,067	0,040
-534,379	-126,402	-0,107	0,011
-533,364	412,310	0,035	0,053
-532,350	800,000	0,030	0,092
-531,335	800,000	0,036	-0,102
-530,321	122,633	0,070	0,063
-529,306	165,646	-0,109	0,111
-528,291	800,000	-0,029	0,069
-527,277	17,831	-0,151	-0,086
-526,262	800,000	0,075	0,153
-525,248	53,580	0,110	-0,076
-524,233	392,520	-0,056	0,084
-523,218	144,842	-0,021	0,020
-522,204	570,880	0,014	0,025
-521,189	-54,330	-0,178	-0,058
-520,175	-100,252	-0,081	0,014
-519,160	-51,495	0,087	-0,029
-518,145	357,858	0,078	0,112
-517,131	97,042	0,105	-0,087
-516,116	800,000	0,047	0,100
-515,102	90,445	0,099	-0,080
-514,087	147,109	-0,075	0,073
-513,072	-61,747	-0,063	0,019
-512,058	96,205	-0,181	0,149
-511,043	-200,000	0,014	-0,129
-510,029	800,000	-0,039	0,098
-509,014	-200,000	-0,014	0,096
-507,999	-107,777	-0,057	0,009
-506,985	761,270	-0,053	0,103
-505,970	63,564	0,041	-0,030
-504,956	358,957	-0,091	-0,131
-503,941	-0,780	-0,072	-0,037
-502,926	17,312	-0,087	0,049
-501,912	-163,731	0,046	-0,002
-500,897	-12,009	-0,089	0,042
-499,883	800,000	-0,049	0,127
-498,868	258,388	-0,013	-0,016
-497,853	125,039	0,122	-0,110
-496,839	800,000	-0,011	-0,024
-495,824	-136,498	0,151	-0,012
-494,810	7,634	-0,075	0,040
-493,795	713,450	0,058	0,112
-492,781	582,771	0,022	-0,039
-491,766	119,204	-0,065	-0,058
-490,751	800,000	-0,055	-0,139
-489,737	115,748	-0,076	0,067
-488,722	565,508	0,048	0,084
-487,708	-92,924	0,020	0,004
-486,693	76,705	0,112	0,085
-485,678	87,732	-0,133	-0,106
-484,664	739,690	-0,031	-0,060
-483,649	-200,000	-0,017	-0,097
-482,635	-178,035	0,071	-0,001
-481,620	-200,000	0,011	-0,160
-480,605	68,283	0,093	0,069
-479,591	-200,000	-0,010	0,128
-478,576	-25,023	0,147	0,062
-477,562	-26,431	-0,114	0,048
-476,547	55,260	-0,180	-0,125
-475,532	-38,134	-0,029	-0,011
-474,518	-55,594	0,148	0,047
-473,503	464,116	-0,045	0,073
-472,489	253,377	-0,087	0,107
-471,474	-102,386	0,104	0,018
-470,459	37,966	-0,171	-0,109
-469,445	800,000	-0,071	-0,183
-468,430	155,140	-0,055	-0,054
-467,416	225,233	0,014	0,016
-466,401	395,825	0,019	0,029
-465,386	725,939	-0,022	0,043
-464,372	295,368	-0,003	0,004
-463,357	800,000	0,029	0,084
-462,343	-200,000	-0,002	-0,107
-461,328	-18,846	-0,176	0,079
-460,313	800,000	-0,037	-0,081
-459,299	-5,097	-0,055	0,027
-458,284	-96,096	0,105	-0,020
-457,270	-1,076	-0,032	0,016
-456,255	26,437	-0,118	-0,071
-455,241	379,957	0,096	-0,142
-454,226	-200,000	-0,016	-0,122
-453,211	-81,605	0,110	0,026
-452,197	-200,000	-0,002	-0,042
-451,182	-200,000	-0,005	0,172
-450,168	-119,685	0,033	-0,004
-449,153	-148,270	-0,073	-0,004
-448,138	13,434	-0,036	-0,020
-447,124	185,961	0,062	-0,067
-446,109	93,516	-0,071	0,058
-445,095	-28,341	0,086	0,036
-444,080	-58,813	-0,027	-0,008
-443,065	-200,000	0,034	0,134
-442,051	-200,000	0,008	-0,032
-441,036	-44,663	-0,115	0,041
-440,022	-200,000	0,009	-0,094
-439,007	-200,000	0,006	-0,020
-437,992	56,326	0,046	0,032
-436,978	337,675	0,086	0,120
-435,963	582,637	0,002	-0,003
-434,949	-200,000	-0,008	-0,095
-433,934	-146,053	-0,009	-0,001
-432,919	-200,000	0,007	-0,116
-431,905	800,000	-0,044	-0,103
-430,890	-200,000	-0,016	-0,050
-429,876	-200,000	-0,030	0,119
-428,861	55,183	-0,053	-0,037
-427,846	217,716	0,087	-0,100
-426,832	-200,000	0,002	-0,203
-425,817	-200,000	0,018	-0,085
-424,803	83,904	-0,043	-0,034
-423,788	610,329	0,061	-0,109
-422,773	-120,173	0,113	0,014
-421,759	413,291	0,076	0,117
-420,744	-200,000	0,005	0,102
-419,730	148,919	-0,114	0,111
-418,715	-164,580	0,033	0,001
-417,701	800,000	0,045	0,120
-416,686	348,339	-0,063	0,090
-415,671	-200,000	0,024	0,277
-414,657	266,935	-0,105	-0,132
-413,642	257,035	0,025	0,030
-412,628	-157,663	0,060	-0,003
-411,613	-200,000	-0,010	0,086
-410,598	132,810	-0,096	-0,089
-409,584	-160,701	-0,069	0,003
-408,569	40,004	0,153	0,098
-407,555	-15,390	-0,031	-0,014
-406,540	-116,337	-0,121	0,016
-405,525	-110,138	0,110	-0,016
-404,511	182,394	-0,020	-0,021
-403,496	-6,593	-0,016	-0,008
-402,482	-88,914	0,195	0,041
-401,467	800,000	0,030	0,082
-400,452	-50,095	0,097	0,033
-399,438	-132,121	0,267	0,025
-398,423	-200,000	-0,000	-0,075
-397,409	-103,163	-0,066	-0,011
-396,394	800,000	0,022	-0,053
-395,379	119,537	-0,140	0,124
-394,365	-155,907	0,009	0,000
-393,350	-200,000	-0,023	0,086
-392,336	-117,142	0,028	0,004
-391,321	365,718	0,043	-0,063
-390,306	496,145	-0,073	0,120
-389,292	-200,000	0,036	-0,216
-388,277	-127,813	-0,111	0,011
-387,263	-28,100	0,047	0,020
-386,248	-28,672	0,083	-0,034
-385,233	242,664	-0,139	-0,168
-384,219	-200,000	0,019	-0,065
-383,204	-40,853	0,063	0,023
-382,190	-112,807	-0,073	0,010
-381,175	88,597	-0,106	-0,085
-380,160	-87,187	0,214	0,046
-379,146	-55,018	-0,141	0,045
-378,131	21,606	-0,085	-0,049
-377,117	185,896	0,062	-0,066
-376,102	-148,524	-0,131	-0,008
-375,088	-24,230	-0,058	0,025
-374,073	-105,001	0,100	-0,016
-373,058	259,512	-0,104	-0,128
-372,044	100,400	0,090	-0,075
-371,029	416,664	0,047	0,071
-370,015	-200,000	-0,007	0,047
-369,000	47,752	0,116	-0,077
-367,985	302,435	-0,066	-0,088
-366,971	-200,000	0,021	-0,067
-365,956	290,552	0,049	-0,064
-364,942	-200,000	-0,014	0,062
-363,927	-200,000	0,018	-0,078
-362,912	-171,783	0,038	-0,001
-361,898	379,289	0,020	0,030
-360,883	29,008	0,109	0,066
-359,869	118,694	0,023	-0,020
-358,854	-200,000	0,004	-0,015
-357,839	-17,752	0,081	0,036
-356,825	-7,031	-0,031	-0,015
-355,810	800,000	0,011	-0,023
-354,796	-87,976	-0,089	0,019
-353,781	-200,000	-0,020	-0,094
-352,766	225,942	0,042	0,049
-351,752	215,736	0,047	0,053
-350,737	-118,300	-0,124	0,016
-349,723	121,257	-0,064	-0,057
-348,708	-200,000	-0,006	0,179
-347,693	-21,184	-0,105	-0,046
-346,679	382,834	-0,058	-0,086
-345,664	30,175	0,052	-0,032
-344,650	212,193	-0,018	0,020
-343,635	337,619	-0,021	0,029
-342,620	-111,898	0,069	0,010
-341,606	287,232	-0,060	0,078
-340,591	53,128	0,029	0,020
-339,577	-157,660	-0,108	0,005
-338,562	14,927	-0,051	-0,028
-337,548	154,044	0,046	-0,045
-336,533	-200,000	-0,024	0,133
-335,518	-113,234	-0,056	0,008
-334,504	-61,635	0,100	0,030
-333,489	99,261	0,079	0,065
-332,475	-41,446	0,142	-0,052
-331,460	245,130	0,069	-0,083
-330,445	-28,708	-0,119	0,049
-329,431	-200,000	-0,007	0,104
-328,416	-123,894	0,085	-0,010
-327,402	30,854	0,103	-0,063
-326,387	376,957	0,103	-0,152
-325,372	171,097	-0,053	0,055
-324,358	155,751	-0,071	-0,070
-323,343	411,489	-0,055	0,084
-322,329	800,000	0,038	0,095
-321,314	439,036	0,068	-0,106
-320,299	-146,440	-0,046	-0,003
-319,285	-200,000	0,044	-0,186
-318,270	-200,000	-0,024	-0,133
-317,256	-49,319	0,098	-0,033
-316,241	57,716	0,060	0,042
-315,226	301,588	0,057	-0,076
-314,212	55,808	-0,054	0,037
-313,197	185,713	0,074	0,079
-312,183	-115,237	0,055	0,007
-311,168	223,291	-0,044	0,051
-310,153	47,955	0,034	-0,022
-309,139	-122,361	-0,197	0,023
-308,124	-113,497	0,043	0,006
-307,110	-200,000	0,003	0,023
-306,095	46,080	0,073	-0,048
-305,080	1,102	0,075	0,038
-304,066	-200,000	-0,019	0,089
-303,051	800,000	-0,055	-0,169
-302,037	580,677	0,038	-0,067
-301,022	-70,720	0,058	0,015
-300,008	327,411	0,031	0,043
-298,993	-122,341	-0,075	0,009
-297,978	-94,004	0,112	0,022
-296,964	-200,000	0,003	-0,091
-295,949	41,074	-0,082	0,053
-294,935	-37,232	-0,018	0,007
-293,920	800,000	0,044	0,112
-292,905	800,000	0,051	0,109
-291,891	800,000	-0,025	0,051
-290,876	399,193	0,014	-0,021
-289,862	36,201	0,094	-0,059
-288,847	-116,231	-0,065	-0,009
-287,832	-200,000	0,018	0,068
-286,818	-200,000	-0,033	-0,159
-285,803	-114,451	-0,052	0,007
-284,789	-200,000	0,031	0,188
-283,774	-163,219	0,074	-0,002
-282,759	268,194	-0,006	-0,008
-281,745	-200,000	-0,013	-0,052
-280,730	800,000	0,026	-0,075
-279,716	-200,000	0,002	-0,115
-278,701	93,683	0,067	-0,054
-277,686	-121,512	0,053	0,006
-276,672	297,018	-0,050	0,066
-275,657	-118,791	-0,048	0,006
-274,643	194,525	-0,045	-0,048
-273,628	-121,266	-0,107	0,013
-272,613	451,585	0,058	-0,092
-271,599	-159,765	0,120	-0,005
-270,584	32,343	0,110	-0,068
-269,570	-123,641	0,079	0,009
-268,555	81,748	-0,130	-0,100
-267,540	-200,000	0,012	-0,065
-266,526	-96,158	0,088	-0,017
-265,511	-64,925	-0,175	0,050
-264,497	197,139	0,104	0,113
-263,482	35,036	0,155	0,096
-262,467	-101,952	0,105	-0,018
-261,453	-200,000	0,002	0,042
-260,438	-200,000	-0,007	0,064
-259,424	-39,870	0,052	-0,019
-258,409	-200,000	-0,006	0,062
-257,395	800,000	-0,022	-0,065
-256,380	-37,266	0,216	-0,082
-255,365	144,477	0,175	0,167
-254,351	613,996	-0,018	0,033
-253,336	211,639	-0,078	0,088
-252,322	-19,745	-0,059	-0,026
-251,307	363,661	-0,042	-0,060
-250,292	720,342	-0,067	0,127
-249,278	-84,678	0,134	-0,030
-248,263	-200,000	0,007	0,028
-247,249	800,000	0,067	0,186
-246,234	546,071	0,022	-0,038
-245,219	319,407	0,085	-0,116
-244,205	373,243	-0,057	0,083
-243,190	-200,000	0,028	-0,120
-242,176	67,823	0,109	0,079
-241,161	284,985	0,030	-0,039
-240,146	273,011	0,105	0,132
-239,132	-95,507	0,162	-0,031
-238,117	-140,367	-0,119	0,009
-237,103	395,124	0,052	-0,077
-236,088	500,713	0,036	-0,059
-235,073	12,253	-0,117	-0,064
-234,059	-200,000	0,010	0,103
-233,044	-200,000	0,004	0,029
-232,030	4,715	-0,063	-0,033
-231,015	19,499	-0,034	-0,019
-230,000	-200,000	0,006	0,036
-228,986	-200,000	-0,010	-0,056
-227,971	283,073	0,047	0,061
-226,957	-140,916	-0,085	0,006
-225,942	-50,406	0,130	-0,043
-224,927	1,942	-0,069	-0,035
-223,913	17,636	-0,067	-0,038
-222,898	-200,000	0,018	-0,108
-221,884	131,176	0,090	-0,083
-220,869	-80,844	0,073	0,017
-219,855	84,825	0,040	-0,031
-218,840	268,754	-0,044	-0,055
-217,825	91,167	0,090	-0,072
-216,811	800,000	-0,067	-0,135
-215,796	209,206	-0,046	-0,051
-214,782	-0,828	-0,090	-0,045
-213,767	-95,813	0,102	0,019
-212,752	-102,205	-0,080	-0,013
-211,738	-127,772	0,074	0,008
-210,723	-200,000	-0,003	-0,079
-209,709	800,000	0,009	-0,020
-208,694	246,853	-0,046	-0,056
-207,679	293,900	-0,053	-0,069
-206,665	36,169	-0,033	-0,020
-205,650	800,000	-0,033	0,089
-204,636	-200,000	0,000	0,122
-203,621	252,440	0,123	0,150
-202,606	800,000	0,032	0,066
-201,592	7,977	-0,113	-0,060
-200,577	51,539	0,049	-0,033
-199,563	-21,639	0,038	-0,016
-198,548	342,777	-0,069	0,096
-197,533	3,452	0,159	0,082
-196,519	-29,872	0,102	0,041
-195,504	-200,000	-0,027	-0,108
-194,490	-151,543	-0,010	0,001
-193,475	-35,049	-0,188	0,073
-192,460	190,004	0,035	0,038
-191,446	-200,000	0,013	-0,069
-190,431	-96,106	-0,096	0,018
-189,417	113,252	0,040	-0,034
-188,402	-200,000	-0,026	-0,100
-187,387	-200,000	0,013	-0,099
-186,373	-92,129	0,045	-0,009
-185,358	-200,000	-0,009	-0,049
-184,344	-200,000	-0,019	0,101
-183,329	-5,065	0,056	-0,027
-182,315	-200,000	0,050	0,168
-181,300	-105,576	-0,064	0,010
-180,285	-200,000	-0,001	0,085
-179,271	800,000	-0,057	-0,120
-178,256	-64,593	0,077	0,022
-177,242	-200,000	-0,030	-0,118
-176,227	-103,296	0,230	-0,038
-175,212	749,279	0,023	0,045
-174,198	800,000	0,037	0,078
-173,183	103,094	-0,103	-0,086
-172,169	91,677	0,043	-0,035
-171,154	278,672	-0,063	-0,080
-170,139	-200,000	-0,020	-0,067
-169,125	-200,000	0,002	-0,074
-168,110	25,683	0,132	-0,078
-167,096	463,053	-0,072	0,114
-166,081	-200,000	-0,005	0,017
-165,066	-179,196	-0,145	0,002
-164,052	23,594	0,163	-0,095
-163,037	-59,228	-0,086	-0,026
-162,023	-39,467	0,048	-0,018
-161,008	800,000	0,075	0,181
-159,993	14,741	0,142	0,079
-158,979	-17,331	-0,086	-0,038
-157,964	800,000	-0,025	-0,052
-156,950	-200,000	0,007	0,049
-155,935	3,595	0,022	-0,011
-154,920	190,651	-0,050	0,054
-153,906	-163,163	-0,080	-0,003
-152,891	-121,536	0,105	-0,012
-151,877	385,444	-0,010	0,014
-150,862	800,000	-0,031	-0,093
-149,847	160,830	-0,127	-0,126
-148,833	20,471	0,068	-0,039
-147,818	-96,618	0,102	-0,019
-146,804	-200,000	-0,021	0,109
-145,789	66,384	0,093	0,067
-144,775	125,011	0,153	0,137
-143,760	519,281	-0,026	-0,043
-142,745	133,866	-0,119	-0,110
-141,731	-200,000	-0,008	0,128
-140,716	55,410	0,107	-0,074
-139,702	78,746	0,076	0,058
-138,687	800,000	0,015	-0,040
-137,672	-125,137	-0,036	0,004
-136,658	34,715	0,002	0,001
-135,643	-200,000	-0,006	-0,080
-134,629	800,000	0,055	0,113
-133,614	69,720	0,023	0,017
-132,599	-129,718	0,119	-0,011
-131,585	-119,661	0,052	0,006
-130,570	-200,000	-0,005	0,054
-129,556	523,212	-0,030	0,050
-128,541	-99,927	0,045	-0,008
-127,526	-70,875	0,034	-0,009
-126,512	109,000	-0,055	-0,047
-125,497	56,478	-0,024	-0,017
-124,483	-191,933	-0,125	0,001
-123,468	-200,000	0,007	-0,133
-122,453	-200,000	0,004	-0,095
-121,439	400,010	0,005	0,008
-120,424	-50,867	-0,134	-0,044
-119,410	376,922	0,117	0,170
-118,395	-200,000	0,008	0,182
-117,380	184,722	-0,033	0,035
-116,366	95,171	0,112	-0,091
-115,351	665,217	0,059	-0,109
-114,337	-200,000	-0,008	-0,090
-113,322	554,723	-0,029	-0,049
-112,307	-200,000	-0,002	-0,044
-111,293	800,000	-0,059	0,134
-110,278	209,059	0,048	0,053
-109,264	-200,000	-0,007	0,239
-108,249	-62,186	-0,106	0,031
-107,234	157,279	-0,060	-0,059
-106,220	-200,000	0,048	-0,188
-105,205	75,358	0,124	0,093
-104,191	-200,000	0,015	0,103
-103,176	-61,950	0,006	-0,002
-102,162	14,640	-0,054	0,030
-101,147	19,899	0,024	0,014
-100,132	253,099	-0,030	0,036
-99,118	-154,675	0,040	0,002
-98,103	-68,296	0,135	-0,037
-97,089	-7,374	0,008	0,004
-96,074	800,000	0,017	0,035
-95,059	800,000	0,044	0,113
-94,045	-165,309	0,061	-0,002
-93,030	-94,764	-0,134	0,026
-92,016	121,068	-0,089	-0,079
-91,001	224,826	0,053	-0,061
-89,986	800,000	0,022	0,068
-88,972	105,369	0,049	0,041
-87,957	220,340	0,114	-0,130
-86,943	-200,000	-0,001	0,040
-85,928	290,782	-0,107	0,138
-84,913	-37,424	-0,100	0,038
-83,899	-200,000	-0,009	-0,076
-82,884	-84,178	0,119	0,027
-81,870	800,000	-0,012	-0,025
-80,855	475,214	0,017	-0,028
-79,840	90,185	0,054	-0,043
-78,826	-137,899	-0,190	0,015
-77,811	17,739	0,059	-0,033
-76,797	228,742	-0,111	-0,129
-75,782	-200,000	0,005	0,025
-74,767	-82,106	0,091	-0,021
-73,753	567,518	-0,055	0,095
-72,738	110,255	-0,119	0,101
-71,724	374,269	-0,079	-0,115
-70,709	-74,654	-0,127	-0,032
-69,694	22,929	0,124	0,072
-68,680	-32,105	-0,059	0,023
-67,665	-200,000	-0,002	0,033
-66,651	800,000	0,019	-0,054
-65,636	716,089	-0,075	-0,142
-64,622	471,939	-0,034	-0,055
-63,607	-71,282	0,132	-0,035
-62,592	-200,000	0,006	-0,105
-61,578	-126,181	0,143	-0,015
-60,563	199,889	0,057	0,062
-59,549	800,000	0,031	0,070
-58,534	-62,239	-1,601	-0,469
-57,519	353,161	-1,512	-2,130
-56,505	-200,000	-0,607	-4,597
-55,490	168,454	0,948	0,957
-54,476	800,000	4,865	11,326
-53,461	-200,000	18,419	297,034
-52,446	800,000	731,757	2257,698
-51,432	558,685	1648,216	2827,430
-50,417	78,876	1668,206	1262,939
-49,403	22,461	1541,329	890,183
-48,388	16,350	1464,529	816,179
-47,373	17,811	1454,552	817,632
-46,359	17,019	1444,563	808,194
-45,344	14,679	1439,989	794,414
-44,330	14,596	1438,108	792,944
-43,315	14,638	1436,110	792,014
-42,300	14,593	1434,868	791,085
-41,286	14,641	1433,730	790,653
-40,271	14,547	1432,643	789,576
-39,257	14,546	1431,208	788,748
-38,242	14,627	1429,913	788,386
-37,227	14,623	1428,746	787,695
-36,213	14,664	1427,096	786,945
-35,198	14,656	1426,124	786,342
-34,184	14,635	1425,270	785,740
-33,169	14,626	1423,785	784,850
-32,154	14,565	1423,160	784,184
-31,140	14,626	1421,526	783,541
-30,125	14,634	1420,466	782,964
-29,111	14,650	1419,165	782,291
-28,096	14,587	1418,173	781,417
-27,082	14,551	1417,174	780,665
-26,067	14,523	1416,040	779,878
-25,052	14,514	1414,915	779,183
-24,038	14,507	1413,923	778,575
-23,023	14,534	1413,079	778,204
-22,009	14,493	1412,027	777,401
-20,994	14,500	1411,161	776,928
-19,979	14,536	1410,095	776,477
-18,965	14,454	1409,457	775,711
-17,950	14,485	1408,362	775,224
-16,936	14,501	1407,243	774,651
-15,921	14,475	1406,104	773,874
-14,906	14,460	1405,310	773,336
-13,892	14,454	1404,289	772,716
-12,877	14,477	1403,332	772,266
-11,863	14,431	1402,831	771,743
-10,848	14,429	1401,781	771,127
-9,833	14,390	1401,027	770,499
-8,819	14,349	1400,099	769,768
-7,804	14,348	1399,158	769,218
-6,790	14,346	1398,096	768,592
-5,775	14,377	1397,016	768,112
-4,760	14,395	1396,004	767,610
-3,746	14,301	1395,392	766,806
-2,731	14,361	1394,486	766,554
-1,717	14,316	1393,563	765,808
-0,702	14,366	1391,657	764,964
0,313	18,139	1310,166	737,660
1,327	34,475	705,975	435,315
2,342	52,494	124,170	83,750
3,356	0,791	16,663	8,415
4,371	16,985	2,979	1,666
5,386	42,169	0,593	0,380
6,400	-200,000	0,050	0,306
7,415	171,903	-0,121	-0,123
8,429	114,415	-0,289	-0,249
9,444	48,008	-0,364	-0,240
10,459	98,756	-0,299	-0,244
11,473	21,500	-0,198	-0,114
12,488	-61,269	-0,217	-0,064
13,502	-20,022	-0,409	-0,178
14,517	-137,746	-0,402	-0,031
15,531	-18,084	-0,568	-0,250
16,546	74,829	-0,323	-0,240
17,561	547,359	-0,232	-0,394
18,575	-63,462	-0,275	-0,079
19,590	-20,880	-0,309	-0,133
20,604	8,589	-0,234	-0,124
21,619	27,203	-0,494	-0,292
22,634	179,845	-0,442	-0,458
23,648	-4,301	-0,473	-0,230
24,663	69,634	-0,359	-0,261
25,677	50,310	-0,458	-0,305
26,692	-32,562	-0,299	-0,117
27,707	-32,663	-0,460	-0,180
28,721	-90,405	-0,391	-0,079
29,736	53,627	-0,361	-0,244
30,750	205,609	-0,357	-0,392
31,765	98,210	-0,430	-0,350
32,780	13,338	-0,344	-0,188
33,794	8,220	-0,419	-0,221
34,809	65,336	-0,321	-0,229
35,823	68,955	-0,344	-0,249
36,838	44,076	-0,474	-0,306
37,853	62,278	-0,385	-0,270
38,867	88,713	-0,328	-0,257
39,882	-10,520	-0,344	-0,160
40,896	16,591	-0,512	-0,284
41,911	16,225	-0,323	-0,179
42,926	41,868	-0,380	-0,243
43,940	118,032	-0,372	-0,324
44,955	15,150	-0,345	-0,190
45,969	158,758	-0,357	-0,350
46,984	190,713	-0,322	-0,342
47,999	-22,389	-0,280	-0,119
49,013	-19,834	-0,230	-0,100
50,028	-60,494	-0,355	-0,106
51,042	-36,259	-0,372	-0,141
52,057	144,654	-0,296	-0,279
53,071	138,477	-0,295	-0,273
54,086	93,271	-0,283	-0,226
55,101	-5,437	-0,358	-0,172
56,115	16,175	-0,383	-0,212
57,130	-65,129	-0,379	-0,107
58,144	-21,832	-0,358	-0,153
59,159	41,460	-0,365	-0,232
60,174	115,312	-0,322	-0,277
61,188	78,433	-0,422	-0,317
62,203	-25,560	-0,375	-0,155
63,217	-5,755	-0,354	-0,170
64,232	50,875	-0,353	-0,235
65,247	83,005	-0,333	-0,255
66,261	99,227	-0,295	-0,240
67,276	-13,034	-0,388	-0,177
68,290	132,837	-0,382	-0,347
69,305	164,890	-0,315	-0,313
70,320	-1,470	-0,226	-0,112
71,334	60,783	-0,280	-0,195
72,349	35,432	-0,384	-0,237
73,363	37,935	-0,371	-0,232
74,378	0,215	-0,464	-0,232
75,393	79,857	-0,335	-0,253
76,407	10,875	-0,186	-0,100
77,422	16,862	-0,262	-0,146
78,436	148,961	-0,249	-0,237
79,451	10,846	-0,380	-0,203
80,466	31,903	-0,386	-0,233
81,480	-57,010	-0,315	-0,097
82,495	-62,000	-0,471	-0,137
83,509	10,646	-0,298	-0,159
84,524	27,341	-0,299	-0,176
85,539	-36,114	-0,292	-0,110
86,553	-18,997	-0,338	-0,147
87,568	45,945	-0,255	-0,165
88,582	-61,754	-0,276	-0,081
89,597	361,585	-0,302	-0,427
90,611	59,280	-0,277	-0,191
91,626	73,389	-0,196	-0,144
92,641	75,643	-0,250	-0,185
93,655	132,253	-0,199	-0,180
94,670	13,577	-0,256	-0,139
95,684	118,713	-0,266	-0,230
96,699	94,095	-0,453	-0,361
97,714	-43,067	-0,289	-0,102
98,728	-99,793	-0,176	0,031
99,743	209,130	-0,198	-0,218
100,757	-23,862	-0,244	-0,102
101,772	11,990	-0,270	-0,145
102,787	536,315	-0,172	-0,288
103,801	-5,624	-0,337	-0,161
104,816	-125,718	-0,191	-0,020
105,830	-46,963	-0,156	-0,053
106,845	52,189	-0,213	-0,142
107,860	78,851	-0,283	-0,212
108,874	-54,631	-0,232	-0,073
109,889	47,204	-0,328	-0,214
110,903	104,869	-0,237	-0,196
111,918	24,960	-0,327	-0,190
112,933	-62,072	-0,259	-0,075
113,947	320,980	-0,188	-0,251
114,962	171,828	-0,245	-0,247
115,976	82,978	-0,229	-0,174
116,991	223,490	-0,266	-0,301
118,006	128,692	-0,319	-0,285
119,020	238,439	-0,206	-0,240
120,035	158,348	-0,201	-0,195
121,049	-118,537	-0,367	-0,045
122,064	473,096	-0,167	-0,264
123,079	-36,986	-0,142	-0,053
124,093	90,877	-0,225	-0,177
125,108	325,405	-0,171	-0,230
126,122	105,827	-0,323	-0,267
127,137	107,572	-0,219	-0,182
128,151	800,000	-0,070	-0,157
129,166	81,806	-0,216	-0,163
130,181	67,385	-0,258	-0,184
131,195	65,194	-0,297	-0,210
132,210	-65,220	-0,372	-0,104
133,224	-40,469	-0,272	-0,098
134,239	23,368	-0,257	-0,147
135,254	8,948	-0,281	-0,148
136,268	264,726	-0,119	-0,145
137,283	175,868	-0,208	-0,212
138,297	-10,009	-0,471	-0,218
139,312	7,027	-0,391	-0,203
140,327	-87,178	-0,208	0,044
141,341	489,039	-0,184	-0,295
142,356	31,174	-0,223	-0,133
143,370	-78,107	-0,192	-0,046
144,385	259,377	-0,212	-0,257
145,400	224,624	-0,319	-0,361
146,414	212,952	-0,230	-0,254
147,429	185,390	-0,297	-0,308
148,443	19,849	-0,344	-0,193
149,458	159,705	-0,177	-0,172
150,473	141,483	-0,221	-0,204
151,487	-44,759	-0,267	-0,093
152,502	-18,020	-0,177	-0,077
153,516	-40,150	-0,398	-0,144
154,531	270,278	-0,187	-0,230
155,546	88,594	-0,278	-0,215
156,560	251,015	-0,154	-0,184
157,575	175,761	-0,226	-0,229
158,589	-66,845	-0,299	-0,082
159,604	117,578	-0,254	-0,218
160,619	17,762	-0,371	-0,205
161,633	55,649	-0,296	-0,200
162,648	-66,940	-0,392	-0,107
163,662	151,478	-0,187	-0,178
164,677	-75,568	-0,150	0,037
165,692	-83,144	-0,252	-0,056
166,706	-102,539	-0,312	-0,052
167,721	800,000	-0,154	-0,303
168,735	75,698	-0,253	-0,186
169,750	-10,576	-0,325	-0,150
170,764	-96,268	-0,132	-0,024
171,779	-150,829	-0,198	-0,010
172,794	-22,178	-0,244	-0,103
173,808	184,566	-0,208	-0,215
174,823	-200,000	-0,058	-0,325
175,837	315,222	-0,124	-0,163
176,852	497,038	-0,168	-0,271
177,867	2,874	-0,181	-0,091
178,881	-156,492	-0,175	-0,007
179,896	-84,002	-0,241	-0,053
180,910	-72,591	-0,242	-0,062
181,925	170,215	-0,233	-0,232
182,940	39,271	-0,308	-0,191
183,954	266,895	-0,154	-0,188
184,969	-67,980	-0,281	-0,076
185,983	37,870	-0,245	-0,151
186,998	15,786	-0,265	-0,145
188,013	22,229	-0,274	-0,156
189,027	-129,216	-0,203	-0,019
190,042	15,492	-0,248	-0,135
191,056	294,859	-0,115	-0,146
192,071	41,677	-0,188	-0,118
193,086	193,085	-0,207	-0,218
194,100	7,550	-0,174	-0,090
195,115	800,000	-0,095	-0,192
196,129	218,790	-0,126	-0,140
197,144	84,827	-0,252	-0,192
198,159	-109,332	-0,193	0,028
199,173	-84,487	-0,226	-0,049
200,188	305,523	-0,200	-0,259
201,202	192,642	-0,099	-0,104
202,217	-105,540	-0,134	-0,021
203,232	269,220	-0,135	-0,165
204,246	295,276	-0,154	-0,196
205,261	136,801	-0,159	-0,144
206,275	119,850	-0,207	-0,179
207,290	20,640	-0,336	-0,188
208,304	-5,727	-0,131	-0,062
209,319	78,569	-0,207	-0,154
210,334	312,188	-0,206	-0,270
211,348	146,056	-0,186	-0,174
212,363	92,430	-0,192	-0,151
213,377	312,935	-0,109	-0,143
214,392	238,988	-0,120	-0,138
215,407	762,247	-0,172	-0,325
216,421	212,940	-0,111	-0,122
217,436	-13,977	-0,257	-0,115
218,450	287,095	-0,172	-0,216
219,465	545,878	-0,205	-0,341
220,480	-66,318	-0,256	-0,070
221,494	146,628	-0,116	-0,108
222,509	-193,900	-0,196	-0,001
223,523	13,041	-0,217	-0,116
224,538	24,403	-0,362	-0,207
225,553	151,605	-0,305	-0,289
226,567	800,000	-0,072	-0,215
227,582	67,650	-0,164	-0,116
228,596	79,335	-0,199	-0,148
229,611	164,764	-0,145	-0,142
230,626	9,932	-0,148	-0,078
231,640	29,781	-0,162	-0,095
232,655	12,207	-0,276	-0,147
233,669	177,840	-0,136	-0,138
234,684	560,999	-0,135	-0,228
235,699	763,131	-0,127	-0,241
236,713	800,000	-0,087	-0,198
237,728	34,481	-0,121	-0,073
238,742	-92,673	-0,112	-0,022
239,757	-39,647	-0,163	-0,059
240,772	-14,323	-0,254	-0,113
241,786	-88,775	-0,312	0,064
242,801	0,142	-0,217	-0,107
243,815	295,163	-0,071	-0,090
244,830	-142,292	-0,335	-0,023
245,844	-66,760	-0,157	-0,043
246,859	227,289	-0,138	-0,156
247,874	15,661	-0,174	-0,095
248,888	800,000	-0,093	-0,250
249,903	-60,401	-0,225	-0,066
250,917	-7,899	-0,065	-0,030
251,932	-100,144	-0,268	-0,046
252,947	24,308	-0,154	-0,088
253,961	-200,000	0,039	-0,229
254,976	557,776	-0,176	-0,295
255,990	133,195	-0,161	-0,144
257,005	-50,248	-0,191	-0,062
258,020	367,913	-0,148	-0,207
259,034	173,678	-0,122	-0,122
260,049	800,000	-0,091	-0,190
261,063	464,408	-0,063	-0,098
262,078	-19,607	-0,196	-0,083
263,093	-109,892	-0,216	-0,031
264,107	800,000	-0,083	-0,209
265,122	37,519	-0,029	0,017
266,136	165,187	-0,249	-0,243
267,151	243,029	-0,058	0,067
268,166	40,869	-0,215	-0,134
269,180	714,208	-0,102	-0,187
270,195	203,107	-0,246	-0,264
271,209	182,180	-0,168	-0,171
272,224	34,779	-0,134	-0,081
273,239	-94,768	-0,189	-0,035
274,253	-9,830	-0,144	0,066
275,268	-64,631	-0,187	-0,052
276,282	50,756	-0,228	-0,149
277,297	358,578	-0,186	-0,257
278,312	-200,000	-0,022	-0,196
279,326	-200,000	-0,029	-0,095
280,341	170,559	-0,077	-0,076
281,355	-126,281	-0,209	0,021
282,370	-5,904	-0,114	-0,054
283,384	-84,258	-0,131	-0,028
284,399	-43,380	-0,349	-0,121
285,414	180,441	-0,195	-0,198
286,428	10,935	-0,239	-0,126
287,443	738,059	-0,088	-0,164
288,457	211,154	-0,129	-0,140
289,472	-33,692	-0,057	-0,022
290,487	-134,414	-0,227	-0,019
291,501	115,475	-0,153	-0,129
292,516	39,542	-0,192	-0,119
293,530	24,312	-0,148	-0,084
294,545	202,757	-0,142	-0,152
295,560	152,314	-0,174	-0,164
296,574	419,082	-0,104	-0,154
297,589	-88,823	-0,257	-0,052
298,603	33,293	-0,076	0,045
299,618	800,000	-0,077	-0,161
300,633	322,516	-0,133	-0,175
301,647	800,000	-0,058	-0,121
302,662	-168,491	-0,201	-0,005
303,676	-200,000	0,025	-0,097
304,691	29,821	-0,288	-0,169
305,706	-20,235	-0,212	-0,090
306,720	-70,168	-0,182	-0,047
307,735	44,287	-0,121	-0,076
308,749	18,542	-0,145	-0,079
309,764	-31,707	-0,092	-0,035
310,779	169,906	-0,084	-0,083
311,793	172,174	-0,118	-0,117
312,808	66,620	-0,156	-0,109
313,822	-41,202	-0,197	-0,069
314,837	240,940	-0,218	-0,251
315,852	362,641	-0,073	-0,102
316,866	73,631	-0,108	-0,078
317,881	-50,702	-0,147	-0,047
318,895	36,998	-0,158	-0,096
319,910	37,867	-0,228	-0,139
320,925	174,650	-0,155	-0,154
321,939	-82,035	-0,117	-0,026
322,954	399,988	-0,110	-0,159
323,968	553,405	-0,087	-0,145
324,983	88,900	-0,221	-0,169
325,997	117,340	-0,224	-0,189
327,012	161,411	-0,209	-0,202
328,027	800,000	-0,113	-0,251
329,041	236,655	-0,139	-0,158
330,056	284,750	-0,073	-0,090
331,070	-200,000	-0,035	-0,109
332,085	-38,889	-0,168	0,060
333,100	-161,921	-0,184	-0,006
334,114	-98,959	-0,120	0,021
335,129	-138,783	-0,095	-0,007
336,143	800,000	-0,027	-0,059
337,158	26,365	0,033	0,019
338,173	-39,230	-0,129	-0,046
339,187	-55,747	-0,140	-0,043
340,202	-156,959	-0,206	0,009
341,216	-174,446	-0,274	0,005
342,231	39,853	-0,233	-0,143
343,246	134,711	-0,232	-0,207
344,260	-39,664	-0,145	0,052
345,275	-180,829	-0,055	-0,001
346,289	-200,000	-0,003	0,026
347,304	116,599	-0,075	-0,063
348,319	557,484	-0,110	-0,183
349,333	88,889	-0,160	-0,122
350,348	545,724	-0,116	-0,192
351,362	-200,000	-0,002	-0,042
352,377	56,795	-0,057	-0,038
353,392	4,027	-0,084	0,042
354,406	217,651	-0,111	-0,122
355,421	207,666	1318,425	1413,819
356,435	159,754	1479,612	1414,311
