DTS Sentinel unit serial number:	SN410029Multiplexer serial number:	ORYXHardware model number:	OX2-SRSoftware version number:	ORYX F/W v4,00 Oryx Data Collector v3.7.2.0data status	okinstallation	B3 Nyhavnadifferential loss correction	single-endedforward channel	channel 1reverse channel	N/Adate	2023/11/30time	17:37:30forward acquisition time	300,00reverse acquisition time	0,00gamma	499,1914k internal	0,3203k external	0,3203temperature offset calibration	1,0000default loss term (dB/km)	0,3820temperature slope calibration	1,0000multiplexer offset coefficient	1,0000multiplexer slope coefficient	1,0000fibre end	0,00T internal ref (°C)	13,06T ext. ref 1 (°C)	-2,15T ext. ref 2 (°C)	-2,23length (m)	temperature (°C)	Stokes	anti-Stokes-744,400	461,226	-0,130	-0,212
-743,385	-200,000	-0,024	0,366
-742,371	424,727	-0,152	-0,239
-741,356	-200,000	0,007	0,242
-740,342	-200,000	-0,040	-0,151
-739,327	-200,000	-0,034	0,322
-738,312	354,697	-0,196	-0,284
-737,298	-200,000	-0,043	0,226
-736,283	397,847	-0,148	-0,225
-735,269	564,754	0,191	0,339
-734,254	65,178	-0,289	-0,212
-733,239	207,674	-0,133	0,151
-732,225	-78,269	-0,184	-0,046
-731,210	192,491	0,131	0,144
-730,196	-83,123	-0,177	0,041
-729,181	428,407	-0,055	0,087
-728,167	-200,000	-0,012	-0,049
-727,152	272,664	-0,090	-0,116
-726,137	713,215	0,056	-0,109
-725,123	800,000	-0,004	0,008
-724,108	-65,488	-0,135	-0,039
-723,094	440,658	0,047	-0,076
-722,079	-200,000	0,017	-0,099
-721,064	-154,072	0,094	0,005
-720,050	800,000	0,060	-0,123
-719,035	339,067	0,017	-0,024
-718,021	-15,023	-0,063	0,029
-717,006	-200,000	-0,029	-0,132
-715,991	-131,013	-0,218	-0,021
-714,977	-38,714	-0,093	-0,035
-713,962	85,933	-0,063	-0,050
-712,948	127,460	-0,051	0,047
-711,933	24,646	-0,057	0,034
-710,918	-47,590	0,077	-0,027
-709,904	-83,062	-0,029	-0,007
-708,889	-139,281	-0,086	0,007
-707,875	478,349	-0,061	-0,101
-706,860	-20,694	0,076	0,034
-705,845	-200,000	-0,014	0,127
-704,831	-200,000	0,010	0,068
-703,816	-100,834	-0,136	0,024
-702,802	-143,625	-0,119	0,008
-701,787	21,521	-0,166	-0,098
-700,772	432,969	-0,014	-0,022
-699,758	-200,000	0,026	0,124
-698,743	11,925	-0,130	-0,073
-697,729	221,346	-0,037	-0,043
-696,714	-142,020	0,053	-0,004
-695,699	-105,585	0,128	0,021
-694,685	585,838	-0,031	0,056
-693,670	285,602	-0,050	-0,065
-692,656	486,214	0,088	-0,145
-691,641	306,070	-0,062	0,084
-690,627	800,000	0,085	0,232
-689,612	51,590	0,134	-0,092
-688,597	-200,000	-0,014	-0,047
-687,583	-37,916	0,057	-0,022
-686,568	515,470	-0,039	0,066
-685,554	-56,470	0,061	-0,020
-684,539	800,000	-0,032	0,090
-683,524	-58,061	0,059	-0,019
-682,510	91,645	0,078	0,064
-681,495	-200,000	-0,004	-0,028
-680,481	800,000	-0,045	-0,099
-679,466	-200,000	-0,033	-0,195
-678,451	-113,042	-0,112	-0,016
-677,437	-200,000	0,006	0,020
-676,422	-121,743	0,093	0,011
-675,408	-200,000	0,016	-0,088
-674,393	-64,090	-0,186	-0,055
-673,378	-85,745	0,039	-0,009
-672,364	-150,730	-0,155	0,008
-671,349	-12,939	-0,089	-0,042
-670,335	800,000	-0,021	-0,051
-669,320	38,568	-0,044	-0,028
-668,305	150,787	0,067	0,066
-667,291	-104,458	-0,052	-0,009
-666,276	-200,000	0,003	-0,030
-665,262	609,734	-0,013	-0,023
-664,247	141,603	-0,104	-0,100
-663,232	800,000	0,012	0,031
-662,218	-200,000	0,011	-0,071
-661,203	207,879	0,032	0,037
-660,189	-200,000	-0,021	0,083
-659,174	-200,000	-0,030	0,100
-658,159	-157,228	-0,130	-0,006
-657,145	226,303	-0,048	-0,057
-656,130	-200,000	-0,005	-0,158
-655,116	547,121	-0,016	0,028
-654,101	567,211	0,055	0,097
-653,086	198,005	-0,008	0,009
-652,072	30,432	0,036	0,022
-651,057	-200,000	-0,006	0,094
-650,043	-137,947	-0,039	-0,003
-649,028	133,629	-0,029	-0,027
-648,014	-200,000	0,014	0,159
-646,999	375,508	0,100	0,148
-645,984	-86,975	-0,087	-0,019
-644,970	-40,706	0,124	0,046
-643,955	324,647	-0,033	0,046
-642,941	-150,716	0,061	-0,003
-641,926	-200,000	0,017	-0,060
-640,911	-200,000	-0,004	0,143
-639,897	-200,000	0,022	0,144
-638,882	-200,000	-0,009	0,107
-637,868	63,339	-0,097	-0,070
-636,853	732,828	0,047	-0,092
-635,838	-200,000	-0,012	-0,146
-634,824	35,854	-0,151	0,096
-633,809	-200,000	0,011	0,099
-632,795	-200,000	-0,009	0,028
-631,780	800,000	0,031	-0,086
-630,765	-131,962	-0,088	-0,008
-629,751	70,374	-0,041	0,030
-628,736	-26,540	-0,119	0,050
-627,722	-128,251	0,143	-0,015
-626,707	-200,000	0,023	-0,108
-625,692	-50,620	0,038	-0,013
-624,678	332,720	0,082	0,115
-623,663	683,667	-0,074	0,140
-622,649	800,000	0,030	0,091
-621,634	54,470	-0,090	-0,063
-620,619	382,149	0,031	0,046
-619,605	-200,000	-0,016	0,083
-618,590	-200,000	-0,011	0,132
-617,576	430,386	-0,007	-0,011
-616,561	264,815	-0,069	-0,087
-615,546	76,172	-0,064	0,049
-614,532	800,000	0,058	-0,130
-613,517	-22,559	-0,083	0,036
-612,503	-200,000	0,007	0,156
-611,488	-200,000	-0,003	0,014
-610,474	-200,000	-0,014	0,079
-609,459	-48,277	-0,013	0,005
-608,444	-200,000	-0,006	-0,024
-607,430	-200,000	0,004	-0,060
-606,415	-44,271	-0,114	-0,041
-605,401	440,656	0,048	0,076
-604,386	-200,000	0,025	0,120
-603,371	-52,367	0,001	-0,000
-602,357	-200,000	-0,001	0,025
-601,342	-142,157	-0,107	-0,008
-600,328	33,926	-0,094	-0,059
-599,313	193,258	0,131	0,143
-598,298	134,071	0,056	-0,053
-597,284	-200,000	-0,008	-0,052
-596,269	-166,415	0,187	-0,006
-595,255	58,528	0,060	-0,042
-594,240	40,956	-0,086	-0,056
-593,225	-200,000	-0,017	-0,081
-592,211	-126,034	-0,136	0,015
-591,196	71,080	0,075	-0,056
-590,182	-24,796	0,029	-0,012
-589,167	296,758	-0,027	0,036
-588,152	-35,669	-0,107	-0,042
-587,138	-200,000	-0,040	-0,142
-586,123	-200,000	-0,005	-0,059
-585,109	19,420	-0,112	-0,065
-584,094	358,442	0,054	-0,078
-583,079	800,000	0,027	-0,057
-582,065	-200,000	0,021	0,145
-581,050	-82,366	0,053	0,012
-580,036	195,185	-0,024	-0,027
-579,021	-200,000	0,018	-0,102
-578,006	-72,911	-0,135	-0,035
-576,992	40,517	0,045	0,029
-575,977	120,860	-0,095	0,086
-574,963	155,544	-0,113	0,112
-573,948	395,001	-0,035	0,053
-572,934	621,226	0,057	0,104
-571,919	-42,903	-0,042	-0,015
-570,904	-200,000	0,001	0,076
-569,890	-200,000	0,006	-0,040
-568,875	800,000	0,070	0,158
-567,861	-81,427	0,099	0,023
-566,846	-200,000	0,006	0,151
-565,831	-104,923	-0,087	-0,014
-564,817	-106,342	0,027	-0,004
-563,802	-200,000	0,020	-0,074
-562,788	161,588	-0,059	0,059
-561,773	107,086	0,110	-0,094
-560,758	211,943	-0,124	0,141
-559,744	177,047	0,126	0,132
-558,729	78,333	0,081	-0,063
-557,715	-127,828	0,100	-0,010
-556,700	-200,000	-0,028	-0,109
-555,685	-4,124	0,106	-0,053
-554,671	198,230	0,102	0,113
-553,656	-200,000	0,014	-0,099
-552,642	-115,942	-0,099	-0,013
-551,627	-200,000	0,003	0,155
-550,612	184,670	-0,015	0,016
-549,598	-200,000	-0,024	0,078
-548,583	-7,990	0,056	0,027
-547,569	584,167	0,056	0,099
-546,554	-38,733	0,044	0,017
-545,539	-122,107	-0,061	-0,007
-544,525	800,000	-0,044	0,108
-543,510	-0,303	0,041	-0,021
-542,496	-200,000	-0,038	-0,128
-541,481	-200,000	-0,007	0,066
-540,466	-128,401	-0,101	0,010
-539,452	279,611	0,087	-0,112
-538,437	184,281	0,046	0,049
-537,423	328,945	0,028	-0,039
-536,408	224,360	0,075	0,088
-535,393	414,228	-0,036	-0,056
-534,379	8,261	0,125	-0,068
-533,364	359,710	-0,024	-0,035
-532,350	52,776	0,089	-0,061
-531,335	-9,960	0,057	-0,027
-530,321	-43,523	0,052	0,019
-529,306	-71,578	-0,069	-0,019
-528,291	51,415	-0,156	-0,106
-527,277	-140,586	-0,183	-0,013
-526,262	-61,722	0,069	0,021
-525,248	169,294	0,104	0,108
-524,233	-200,000	-0,015	0,127
-523,218	738,843	0,043	-0,084
-522,204	-200,000	0,010	0,156
-521,189	-80,112	-0,064	0,015
-520,175	-159,857	-0,072	-0,003
-519,160	800,000	0,040	-0,083
-518,145	79,883	0,116	0,090
-517,131	26,063	0,178	-0,107
-516,116	-200,000	0,025	0,124
-515,102	-67,315	0,069	-0,019
-514,087	385,220	-0,087	-0,129
-513,072	800,000	0,087	-0,199
-512,058	800,000	-0,048	0,144
-511,043	148,127	0,103	0,100
-510,029	104,397	0,103	0,087
-509,014	-113,802	0,013	0,002
-507,999	401,404	-0,014	-0,021
-506,985	-67,793	-0,099	0,028
-505,970	-19,153	-0,175	-0,078
-504,956	-200,000	0,021	0,000
-503,941	-200,000	-0,010	-0,046
-502,926	-12,078	0,089	0,042
-501,912	-23,393	-0,055	-0,024
-500,897	179,402	0,131	0,138
-499,883	380,454	-0,059	0,087
-498,868	800,000	-0,055	-0,173
-497,853	-42,860	-0,095	-0,035
-496,839	800,000	0,032	0,095
-495,824	-200,000	0,006	0,092
-494,810	800,000	0,039	0,089
-493,795	250,275	0,021	0,026
-492,781	-200,000	-0,020	-0,134
-491,766	74,608	-0,085	-0,064
-490,751	-200,000	0,010	-0,090
-489,737	-125,707	-0,114	0,012
-488,722	592,960	-0,008	0,014
-487,708	-200,000	-0,005	0,072
-486,693	188,946	-0,084	0,090
-485,678	-41,929	-0,054	-0,020
-484,664	313,562	-0,100	-0,135
-483,649	-88,908	-0,147	0,031
-482,635	214,736	0,033	0,038
-481,620	104,572	0,158	-0,134
-480,605	-51,145	-0,091	0,030
-479,591	156,155	0,105	0,105
-478,576	207,479	-0,053	0,060
-477,562	18,941	-0,033	0,019
-476,547	-200,000	0,060	-0,252
-475,532	800,000	0,033	-0,096
-474,518	280,571	0,062	0,080
-473,503	-51,554	-0,120	-0,040
-472,489	-48,145	0,050	0,017
-471,474	110,348	0,046	0,040
-470,459	144,429	0,025	-0,024
-469,445	-77,913	0,047	0,012
-468,430	800,000	-0,047	0,121
-467,416	-26,053	0,165	0,070
-466,401	-109,786	0,086	-0,013
-465,386	800,000	-0,009	-0,023
-464,372	800,000	0,053	0,149
-463,357	444,578	-0,048	-0,076
-462,343	147,065	-0,040	-0,038
-461,328	800,000	-0,041	-0,092
-460,313	551,295	0,045	-0,078
-459,299	58,454	0,097	0,068
-458,284	-5,419	0,065	0,032
-457,270	15,786	0,112	0,063
-456,255	800,000	-0,045	-0,098
-455,241	81,982	0,046	-0,036
-454,226	-200,000	-0,008	0,028
-453,211	66,805	0,092	0,067
-452,197	800,000	0,031	-0,068
-451,182	-200,000	0,029	0,099
-450,168	-200,000	-0,007	0,060
-449,153	8,243	-0,043	-0,023
-448,138	-200,000	-0,012	0,057
-447,124	-30,476	-0,064	-0,026
-446,109	162,700	-0,143	-0,144
-445,095	-200,000	0,005	-0,073
-444,080	417,735	0,065	0,099
-443,065	-200,000	-0,037	-0,144
-442,051	-113,795	-0,063	-0,009
-441,036	-200,000	0,015	-0,089
-440,022	-59,583	-0,105	-0,032
-439,007	-200,000	0,040	-0,183
-437,992	224,596	-0,059	0,069
-436,978	-57,606	0,062	-0,019
-435,963	472,845	-0,033	0,054
-434,949	-200,000	0,004	-0,113
-433,934	800,000	0,034	0,105
-432,919	571,752	0,026	-0,045
-431,905	146,474	0,065	-0,063
-430,890	197,241	0,055	0,060
-429,876	98,880	0,044	0,037
-428,861	5,653	-0,046	-0,024
-427,846	652,983	-0,042	0,079
-426,832	-200,000	-0,018	0,103
-425,817	800,000	-0,021	-0,062
-424,803	800,000	0,024	-0,060
-423,788	800,000	0,041	-0,108
-422,773	800,000	-0,049	-0,107
-421,759	-143,939	-0,100	0,007
-420,744	-54,983	0,100	0,032
-419,730	244,815	0,039	-0,047
-418,715	800,000	-0,057	-0,156
-417,701	-37,352	0,060	0,023
-416,686	-61,999	0,086	-0,025
-415,671	-116,784	-0,077	0,010
-414,657	293,691	-0,079	0,103
-413,642	15,527	0,111	-0,062
-412,628	101,550	-0,129	0,107
-411,613	750,854	-0,026	-0,051
-410,598	49,381	-0,091	-0,062
-409,584	-75,806	0,024	0,006
-408,569	199,246	-0,047	0,052
-407,555	-200,000	-0,005	0,060
-406,540	457,057	-0,040	0,064
-405,525	-200,000	-0,006	0,075
-404,511	800,000	0,019	-0,059
-403,496	-108,264	0,021	-0,003
-402,482	-200,000	0,015	-0,055
-401,467	-200,000	-0,018	0,112
-400,452	-200,000	0,026	0,127
-399,438	-200,000	-0,005	-0,045
-398,423	800,000	0,050	-0,153
-397,409	-81,249	-0,074	0,017
-396,394	727,639	-0,051	-0,098
-395,379	701,639	-0,018	-0,034
-394,365	-56,566	0,117	0,037
-393,350	800,000	0,038	0,083
-392,336	129,201	0,038	-0,035
-391,321	800,000	0,033	-0,070
-390,306	800,000	0,038	-0,118
-389,292	216,480	-0,032	0,037
-388,277	-53,436	0,134	-0,044
-387,263	368,286	0,048	0,069
-386,248	-200,000	0,001	-0,006
-385,233	107,793	-0,083	0,071
-384,219	-44,899	0,025	-0,009
-383,204	-200,000	-0,030	-0,111
-382,190	-200,000	-0,040	-0,208
-381,175	-18,113	-0,022	-0,010
-380,160	-171,762	0,192	-0,004
-379,146	284,684	-0,039	0,051
-378,131	-58,826	-0,003	0,001
-377,117	-200,000	0,034	0,114
-376,102	-81,048	-0,071	-0,017
-375,088	-41,059	-0,083	-0,031
-374,073	-200,000	-0,004	0,076
-373,058	-200,000	0,016	-0,093
-372,044	-74,530	0,045	0,012
-371,029	432,357	0,079	0,123
-370,015	-57,899	0,011	0,003
-369,000	-200,000	0,028	-0,118
-367,985	80,032	0,129	-0,099
-366,971	99,600	-0,125	-0,103
-365,956	69,173	0,086	0,063
-364,942	-200,000	0,046	0,197
-363,927	-35,729	0,100	0,038
-362,912	-200,000	-0,009	-0,051
-361,898	-200,000	0,007	0,023
-360,883	243,593	0,089	-0,107
-359,869	187,563	0,107	-0,114
-358,854	474,778	-0,109	0,177
-357,839	673,313	0,070	0,130
-356,825	-200,000	0,019	0,076
-355,810	145,259	0,073	0,070
-354,796	-70,506	-0,132	-0,036
-353,781	-200,000	0,004	-0,055
-352,766	-200,000	0,000	-0,013
-351,752	-162,198	0,098	-0,003
-350,737	-200,000	0,020	0,067
-349,723	800,000	0,091	0,247
-348,708	35,832	-0,028	0,018
-347,693	-200,000	0,020	-0,072
-346,679	-200,000	-0,023	-0,163
-345,664	58,448	-0,086	-0,060
-344,650	295,881	-0,092	-0,121
-343,635	33,809	-0,073	-0,045
-342,620	-8,580	0,073	0,035
-341,606	-1,110	-0,075	0,038
-340,591	91,508	-0,037	-0,030
-339,577	-115,274	0,036	0,005
-338,562	-96,654	0,095	0,018
-337,548	-200,000	-0,003	0,063
-336,533	113,923	-0,037	-0,032
-335,518	16,433	0,038	-0,022
-334,504	-1,637	0,102	-0,051
-333,489	-55,907	0,139	0,044
-332,475	800,000	-0,012	0,028
-331,460	64,508	-0,114	-0,082
-330,445	94,750	-0,022	-0,018
-329,431	39,152	0,083	0,053
-328,416	-185,301	0,135	0,001
-327,402	317,110	-0,078	-0,106
-326,387	523,289	-0,017	0,028
-325,372	248,100	-0,126	-0,152
-324,358	-200,000	0,001	-0,071
-323,343	-200,000	-0,007	0,189
-322,329	303,489	0,045	0,060
-321,314	237,594	0,059	0,070
-320,299	-200,000	0,025	0,153
-319,285	-200,000	-0,004	0,159
-318,270	-200,000	0,006	-0,036
-317,256	800,000	-0,028	-0,060
-316,241	59,871	0,028	0,020
-315,226	800,000	-0,032	0,084
-314,212	800,000	-0,031	0,095
-313,197	212,246	0,100	0,113
-312,183	212,992	-0,047	-0,053
-311,168	27,204	-0,088	-0,053
-310,153	-200,000	-0,025	-0,138
-309,139	-200,000	0,030	-0,101
-308,124	343,448	0,052	-0,073
-307,110	-15,767	-0,090	0,041
-306,095	800,000	-0,098	0,194
-305,080	308,379	-0,070	0,094
-304,066	602,366	0,077	0,137
-303,051	-51,334	-0,122	-0,041
-302,037	-17,951	0,134	-0,060
-301,022	-180,504	-0,112	-0,002
-300,008	86,722	-0,034	-0,026
-298,993	29,125	-0,032	-0,019
-297,978	800,000	0,023	0,052
-296,964	91,938	-0,066	-0,053
-295,949	-92,080	0,103	-0,021
-294,935	-200,000	0,009	-0,066
-293,920	800,000	0,076	-0,166
-292,905	214,696	0,058	-0,065
-291,891	-200,000	0,016	-0,062
-290,876	-17,460	0,054	0,024
-289,862	85,694	-0,024	0,019
-288,847	800,000	0,014	0,036
-287,832	133,184	-0,087	0,080
-286,818	-63,891	0,041	0,012
-285,803	800,000	0,014	0,035
-284,789	-200,000	0,015	0,063
-283,774	10,419	-0,104	0,057
-282,759	-200,000	0,008	0,134
-281,745	-200,000	-0,024	-0,187
-280,730	180,575	-0,068	-0,071
-279,716	141,907	0,138	0,131
-278,701	800,000	0,032	0,099
-277,686	339,747	-0,104	0,145
-276,672	-62,035	-0,131	0,039
-275,657	-200,000	-0,002	-0,030
-274,643	-37,978	-0,078	-0,030
-273,628	33,389	-0,126	0,078
-272,613	73,041	0,070	-0,052
-271,599	-37,798	-0,065	0,024
-270,584	360,577	-0,042	0,061
-269,570	31,441	0,167	0,102
-268,555	-105,167	-0,054	0,009
-267,540	165,978	-0,071	0,072
-266,526	800,000	0,036	0,080
-265,511	293,792	0,031	-0,041
-264,497	25,529	0,086	0,051
-263,482	-167,013	0,176	0,005
-262,467	-112,330	0,054	0,008
-261,453	77,988	0,060	-0,046
-260,438	13,555	-0,030	-0,016
-259,424	-200,000	-0,034	-0,110
-258,409	800,000	0,068	-0,140
-257,395	-200,000	0,017	-0,085
-256,380	-107,968	0,076	-0,012
-255,365	101,800	0,092	0,076
-254,351	-5,590	-0,104	-0,051
-253,336	-55,370	-0,082	-0,026
-252,322	-200,000	-0,006	-0,087
-251,307	71,549	0,083	0,061
-250,292	90,944	-0,075	-0,060
-249,278	-48,780	-0,069	-0,023
-248,263	800,000	-0,029	0,083
-247,249	800,000	0,028	-0,066
-246,234	412,744	-0,052	-0,078
-245,219	-62,199	-0,142	-0,042
-244,205	800,000	0,033	-0,089
-243,190	69,662	-0,091	-0,067
-242,176	216,571	0,071	0,081
-241,161	800,000	-0,010	0,025
-240,146	-200,000	-0,012	-0,060
-239,132	144,514	-0,104	0,099
-238,117	800,000	0,027	-0,079
-237,103	-200,000	-0,004	-0,158
-236,088	-200,000	0,024	-0,078
-235,073	-52,106	0,123	0,041
-234,059	-34,006	0,058	0,023
-233,044	-112,088	-0,082	-0,012
-232,030	-200,000	-0,011	0,130
-231,015	-91,545	-0,054	-0,011
-230,000	-200,000	0,002	0,104
-228,986	223,730	-0,142	-0,164
-227,971	421,996	-0,015	-0,023
-226,957	-200,000	0,000	0,056
-225,942	800,000	0,051	0,144
-224,927	42,273	0,084	0,054
-223,913	-8,461	-0,132	-0,063
-222,898	-116,576	0,105	-0,014
-221,884	-51,470	0,145	-0,048
-220,869	-200,000	-0,030	0,138
-219,855	-80,437	0,128	-0,030
-218,840	-200,000	-0,018	0,113
-217,825	-48,439	0,023	-0,008
-216,811	-200,000	-0,007	-0,033
-215,796	800,000	0,063	-0,170
-214,782	720,885	-0,038	-0,072
-213,767	134,501	-0,148	0,136
-212,752	310,593	0,030	0,040
-211,738	800,000	0,029	0,074
-210,723	800,000	-0,039	0,082
-209,709	362,449	-0,060	0,086
-208,694	-65,175	-0,140	-0,040
-207,679	39,940	-0,170	0,109
-206,665	-106,121	0,135	0,021
-205,650	-84,034	-0,164	0,037
-204,636	326,807	-0,104	-0,143
-203,621	96,870	0,061	-0,050
-202,606	800,000	-0,064	-0,178
-201,592	-54,222	0,012	-0,004
-200,577	-200,000	0,016	-0,076
-199,563	-48,355	-0,228	-0,078
-198,548	800,000	-0,025	0,072
-197,533	800,000	-0,055	0,154
-196,519	-200,000	-0,016	-0,196
-195,504	-200,000	-0,002	-0,073
-194,490	-72,121	0,078	0,020
-193,475	-27,677	0,092	-0,038
-192,460	-200,000	-0,029	-0,189
-191,446	66,074	-0,156	-0,113
-190,431	-106,600	0,148	-0,023
-189,417	373,435	0,082	0,120
-188,402	270,275	-0,035	-0,044
-187,387	-200,000	0,008	-0,060
-186,373	550,126	-0,041	-0,071
-185,358	-104,525	-0,031	0,005
-184,344	-44,824	0,096	0,034
-183,329	-200,000	-0,041	0,164
-182,315	800,000	0,037	0,111
-181,300	-131,562	0,130	0,012
-180,285	-200,000	0,020	-0,147
-179,271	-200,000	-0,009	-0,141
-178,256	-200,000	-0,036	-0,127
-177,242	-139,021	0,051	0,004
-176,227	149,513	0,098	0,095
-175,212	-200,000	-0,038	-0,228
-174,198	18,483	0,038	-0,022
-173,183	2,726	-0,134	-0,069
-172,169	197,219	-0,127	-0,138
-171,154	-66,476	-0,083	-0,023
-170,139	800,000	0,035	0,106
-169,125	28,079	-0,051	-0,030
-168,110	800,000	-0,019	0,053
-167,096	-200,000	0,000	-0,061
-166,081	785,851	-0,084	-0,164
-165,066	-200,000	0,041	-0,139
-164,052	-200,000	-0,002	0,133
-163,037	499,335	0,060	-0,098
-162,023	-20,225	-0,113	0,049
-161,008	-200,000	0,007	-0,146
-159,993	84,316	-0,063	0,049
-158,979	800,000	-0,011	-0,025
-157,964	-200,000	-0,017	0,157
-156,950	232,383	-0,031	0,037
-155,935	-200,000	0,005	-0,140
-154,920	119,397	0,101	-0,089
-153,906	800,000	-0,017	-0,034
-152,891	219,522	0,157	0,179
-151,877	327,262	-0,042	0,058
-150,862	315,318	-0,060	0,080
-149,847	172,309	0,067	-0,068
-148,833	-56,670	-0,047	0,015
-147,818	123,064	0,057	0,051
-146,804	-200,000	0,010	-0,089
-145,789	-112,712	0,114	-0,016
-144,775	-88,263	-0,047	0,010
-143,760	-200,000	0,039	-0,127
-142,745	-0,325	-0,066	-0,033
-141,731	-50,020	-0,053	0,018
-140,716	-51,326	0,113	0,037
-139,702	-200,000	-0,024	0,086
-138,687	-200,000	0,034	0,115
-137,672	-200,000	-0,004	0,031
-136,658	79,242	-0,076	0,058
-135,643	-200,000	0,004	-0,181
-134,629	-200,000	-0,001	0,066
-133,614	-200,000	0,011	0,062
-132,599	-123,315	0,147	0,016
-131,585	-53,796	0,123	-0,039
-130,570	33,708	0,038	-0,024
-129,556	16,714	-0,120	-0,067
-128,541	284,208	-0,079	-0,101
-127,526	21,467	-0,091	0,052
-126,512	-81,063	0,083	0,019
-125,497	44,193	0,034	0,022
-124,483	-60,642	0,127	-0,038
-123,468	22,872	0,045	-0,026
-122,453	377,911	-0,126	-0,183
-121,439	290,819	0,061	-0,079
-120,424	800,000	-0,040	0,091
-119,410	800,000	-0,054	-0,113
-118,395	21,070	0,076	0,044
-117,380	-200,000	0,020	0,094
-116,366	192,003	-0,046	0,049
-115,351	233,223	-0,074	-0,087
-114,337	113,021	0,038	0,033
-113,322	-200,000	-0,014	-0,104
-112,307	239,903	-0,121	0,143
-111,293	-200,000	0,026	0,117
-110,278	93,887	0,069	-0,055
-109,264	15,886	0,073	-0,041
-108,249	800,000	-0,044	-0,122
-107,234	51,615	-0,076	0,051
-106,220	-68,340	0,093	0,025
-105,205	186,455	0,030	0,032
-104,191	716,818	0,009	0,018
-103,176	97,421	-0,098	0,080
-102,162	298,189	-0,074	0,097
-101,147	-200,000	-0,001	0,004
-100,132	-200,000	-0,045	-0,141
-99,118	138,609	0,082	-0,076
-98,103	800,000	-0,007	-0,021
-97,089	534,821	0,071	-0,120
-96,074	-200,000	0,056	-0,000
-95,059	-70,836	-0,148	0,039
-94,045	706,805	-0,074	-0,140
-93,030	-200,000	-0,001	-0,139
-92,016	-200,000	-0,007	-0,055
-91,001	800,000	0,022	-0,053
-89,986	773,895	-0,042	-0,081
-88,972	613,844	0,011	0,020
-87,957	-200,000	0,010	-0,036
-86,943	-129,453	0,114	0,011
-85,928	-200,000	-0,011	0,117
-84,913	-76,579	0,105	-0,026
-83,899	200,017	-0,060	0,066
-82,884	480,297	0,004	0,006
-81,870	-200,000	-0,002	0,064
-80,855	800,000	0,019	-0,056
-79,840	131,173	0,055	0,050
-78,826	-200,000	0,001	0,027
-77,811	-200,000	0,013	0,044
-76,797	800,000	-0,044	0,118
-75,782	294,482	0,053	0,068
-74,767	124,263	0,033	0,029
-73,753	800,000	0,016	-0,045
-72,738	-200,000	-0,035	0,115
-71,724	-61,503	-0,121	-0,036
-70,709	22,541	-0,066	0,038
-69,694	-81,943	0,041	-0,009
-68,680	-200,000	0,015	0,100
-67,665	580,731	0,063	0,111
-66,651	220,311	0,106	0,120
-65,636	-18,102	-0,163	-0,072
-64,622	394,428	-0,114	-0,169
-63,607	800,000	0,048	-0,131
-62,592	-200,000	0,002	-0,031
-61,578	181,459	-0,064	0,066
-60,563	-173,167	-0,043	0,001
-59,549	436,823	0,117	0,181
-58,534	1,297	-1,687	-0,855
-57,519	403,353	-1,381	-2,063
-56,505	-200,000	-0,447	-4,437
-55,490	313,690	0,900	1,201
-54,476	800,000	4,897	11,206
-53,461	-200,000	19,376	325,783
-52,446	-200,000	741,297	2337,738
-51,432	571,920	1652,031	2858,670
-50,417	77,709	1666,538	1254,830
-49,403	20,977	1539,914	881,183
-48,388	14,919	1462,214	807,354
-47,373	18,292	1452,845	818,396
-46,359	16,756	1442,647	805,278
-45,344	13,143	1438,077	785,441
-44,330	13,069	1436,187	784,027
-43,315	13,116	1434,338	783,209
-42,300	13,095	1432,905	782,295
-41,286	13,085	1431,643	781,526
-40,271	13,094	1430,321	780,817
-39,257	13,103	1428,974	780,094
-38,242	13,159	1427,517	779,533
-37,227	13,131	1426,498	778,815
-36,213	13,147	1425,090	778,092
-35,198	13,147	1423,894	777,408
-34,184	13,190	1422,913	777,041
-33,169	13,137	1421,575	776,031
-32,154	13,220	1420,452	775,780
-31,140	13,186	1419,390	775,005
-30,125	13,206	1418,293	774,474
-29,111	13,130	1417,209	773,492
-28,096	13,169	1416,083	773,031
-27,082	13,043	1415,091	771,864
-26,067	13,073	1414,043	771,404
-25,052	13,096	1412,974	770,897
-24,038	13,096	1411,820	770,236
-23,023	13,046	1410,940	769,493
-22,009	13,057	1409,895	768,943
-20,994	13,033	1408,946	768,282
-19,979	13,039	1408,141	767,840
-18,965	13,040	1407,238	767,326
-17,950	13,047	1406,189	766,753
-16,936	13,058	1405,297	766,289
-15,921	13,013	1404,230	765,466
-14,906	13,038	1403,200	764,990
-13,892	13,042	1402,305	764,493
-12,877	12,975	1401,705	763,820
-11,863	13,034	1400,512	763,414
-10,848	13,016	1399,680	762,849
-9,833	12,960	1398,850	762,106
-8,819	12,930	1398,094	761,526
-7,804	12,896	1397,302	760,906
-6,790	12,873	1396,412	760,282
-5,775	12,931	1394,902	759,702
-4,760	12,913	1393,936	759,058
-3,746	12,875	1393,298	758,508
-2,731	12,881	1392,456	758,046
-1,717	12,871	1391,579	757,491
-0,702	12,823	1389,830	756,291
0,313	16,785	1306,067	728,964
1,327	33,280	700,218	428,733
2,342	50,908	122,503	81,949
3,356	1,737	16,596	8,427
4,371	12,284	3,245	1,762
5,386	30,833	0,657	0,397
6,400	800,000	0,130	0,382
7,415	143,754	-0,149	-0,140
8,429	70,201	-0,248	-0,181
9,444	238,091	-0,250	-0,294
10,459	-56,111	-0,392	-0,123
11,473	39,064	-0,303	-0,191
12,488	-9,593	-0,249	-0,117
13,502	35,925	-0,307	-0,190
14,517	262,192	-0,220	-0,269
15,531	45,893	-0,414	-0,270
16,546	50,325	-0,402	-0,268
17,561	208,635	-0,298	-0,330
18,575	-87,551	-0,247	-0,052
19,590	422,752	-0,123	-0,186
20,604	-121,126	-0,232	-0,027
21,619	336,500	-0,244	-0,335
22,634	207,418	-0,404	-0,445
23,648	83,074	-0,521	-0,400
24,663	92,275	-0,476	-0,378
25,677	117,566	-0,339	-0,295
26,692	354,207	-0,228	-0,320
27,707	109,102	-0,414	-0,350
28,721	78,733	-0,410	-0,309
29,736	54,623	-0,438	-0,297
30,750	214,979	-0,316	-0,353
31,765	108,553	-0,431	-0,363
32,780	11,795	-0,324	-0,175
33,794	-3,765	-0,362	-0,177
34,809	-42,868	-0,504	-0,179
35,823	113,434	-0,368	-0,315
36,838	-57,343	-0,535	-0,165
37,853	127,437	-0,367	-0,328
38,867	109,652	-0,384	-0,325
39,882	98,787	-0,302	-0,246
40,896	55,873	-0,412	-0,281
41,911	-76,949	-0,274	-0,067
42,926	82,976	-0,398	-0,305
43,940	151,767	-0,285	-0,274
44,955	-1,010	-0,456	-0,226
45,969	-42,250	-0,449	-0,161
46,984	278,177	-0,273	-0,343
47,999	40,638	-0,408	-0,259
49,013	249,358	-0,200	-0,240
50,028	81,298	-0,332	-0,252
51,042	242,956	-0,230	-0,271
52,057	-29,949	-0,314	-0,125
53,071	38,160	-0,402	-0,251
54,086	162,753	-0,279	-0,276
55,101	110,826	-0,314	-0,266
56,115	150,835	-0,292	-0,279
57,130	68,802	-0,339	-0,245
58,144	102,711	-0,332	-0,274
59,159	-76,273	-0,537	-0,132
60,174	91,961	-0,365	-0,289
61,188	-107,025	-0,291	-0,045
62,203	72,830	-0,241	-0,177
63,217	55,561	-0,350	-0,238
64,232	199,369	-0,288	-0,311
65,247	127,829	-0,319	-0,285
66,261	76,425	-0,400	-0,297
67,276	172,380	-0,359	-0,364
68,290	35,832	-0,239	-0,147
69,305	-103,193	-0,287	-0,047
70,320	11,111	-0,321	-0,172
71,334	137,486	-0,252	-0,231
72,349	-15,782	-0,289	-0,129
73,363	-62,910	-0,435	-0,126
74,378	253,446	-0,251	-0,301
75,393	147,715	-0,310	-0,294
76,407	81,159	-0,295	-0,223
77,422	800,000	-0,081	-0,238
78,436	-50,011	-0,244	-0,081
79,451	158,553	-0,185	-0,181
80,466	172,523	-0,387	-0,391
81,480	83,720	-0,365	-0,280
82,495	266,338	-0,156	-0,191
83,509	-15,358	-0,307	-0,137
84,524	-29,545	-0,218	-0,087
85,539	34,124	-0,307	-0,187
86,553	147,591	-0,198	-0,188
87,568	20,075	-0,391	-0,221
88,582	-42,749	-0,236	-0,084
89,597	261,511	-0,208	-0,253
90,611	100,894	-0,147	-0,120
91,626	35,087	-0,200	-0,123
92,641	178,628	-0,208	-0,214
93,655	-183,211	-0,291	0,004
94,670	-49,937	-0,330	-0,109
95,684	25,236	-0,367	-0,213
96,699	-16,299	-0,340	-0,151
97,714	296,463	-0,150	-0,194
98,728	-46,678	-0,316	-0,108
99,743	101,671	-0,246	-0,201
100,757	41,496	-0,283	-0,179
101,772	35,815	-0,371	-0,228
102,787	-38,393	-0,334	-0,123
103,801	166,626	-0,296	-0,294
104,816	406,934	-0,235	-0,348
105,830	-165,029	-0,136	0,004
106,845	287,745	-0,126	-0,160
107,860	-82,048	-0,251	-0,057
108,874	111,148	-0,244	-0,206
109,889	69,838	-0,378	-0,273
110,903	1,682	-0,277	-0,139
111,918	-4,476	-0,282	-0,136
112,933	17,032	-0,228	-0,126
113,947	38,412	-0,203	-0,126
114,962	92,371	-0,166	-0,131
115,976	130,422	-0,301	-0,270
116,991	78,310	-0,339	-0,253
118,006	582,060	-0,150	-0,258
119,020	125,971	-0,266	-0,236
120,035	-5,734	-0,147	-0,070
121,049	51,525	-0,211	-0,140
122,064	47,271	-0,217	-0,141
123,079	-6,003	-0,281	-0,134
124,093	-32,589	-0,188	-0,073
125,108	1,986	-0,396	-0,199
126,122	108,615	-0,265	-0,221
127,137	189,154	-0,171	-0,179
128,151	751,167	-0,184	-0,349
129,166	-69,251	-0,295	-0,079
130,181	-94,021	-0,238	-0,045
131,195	139,842	-0,264	-0,243
132,210	226,441	-0,252	-0,286
133,224	406,472	-0,101	-0,149
134,239	-33,401	-0,244	-0,094
135,254	100,697	-0,237	-0,192
136,268	-7,712	-0,255	-0,120
137,283	265,898	-0,194	-0,237
138,297	15,759	-0,186	-0,102
139,312	95,647	-0,187	-0,149
140,327	74,861	-0,249	-0,183
141,341	-58,230	-0,176	-0,053
142,356	61,448	-0,149	-0,103
143,370	-149,126	-0,261	-0,014
144,385	-1,370	-0,206	-0,101
145,400	42,253	-0,311	-0,197
146,414	131,300	-0,178	-0,160
147,429	123,874	-0,241	-0,211
148,443	-2,601	-0,143	-0,070
149,458	87,646	-0,214	-0,166
150,473	237,569	-0,133	-0,155
151,487	-41,390	-0,254	-0,091
152,502	520,905	-0,099	-0,163
153,516	18,781	-0,214	-0,119
154,531	132,577	-0,233	-0,210
155,546	52,466	-0,303	-0,201
156,560	459,658	-0,131	-0,203
157,575	-189,177	-0,095	0,001
158,589	27,307	-0,309	-0,181
159,604	3,626	-0,276	-0,140
160,619	136,548	-0,229	-0,209
161,633	100,415	-0,297	-0,240
162,648	213,353	-0,235	-0,259
163,662	667,318	-0,067	-0,121
164,677	69,315	-0,170	-0,122
165,692	-47,765	-0,243	-0,082
166,706	126,691	-0,175	-0,154
167,721	61,635	-0,141	-0,098
168,735	169,881	-0,166	-0,165
169,750	800,000	-0,155	-0,332
170,764	353,981	-0,188	-0,260
171,779	53,288	-0,214	-0,143
172,794	-104,143	-0,256	-0,041
173,808	317,938	-0,191	-0,252
174,823	24,291	-0,303	-0,174
175,837	194,569	-0,185	-0,196
176,852	84,343	-0,153	-0,117
177,867	619,731	-0,080	-0,141
178,881	-45,013	-0,250	-0,086
179,896	269,758	-0,209	-0,256
180,910	463,982	-0,137	-0,214
181,925	240,838	-0,186	-0,217
182,940	0,193	-0,293	-0,145
183,954	52,811	-0,219	-0,145
184,969	-13,496	-0,274	-0,123
185,983	47,947	-0,181	-0,117
186,998	170,788	-0,156	-0,155
188,013	42,265	-0,220	-0,139
189,027	219,476	-0,271	-0,302
190,042	40,709	-0,276	-0,173
191,056	800,000	-0,138	-0,306
192,071	72,266	-0,247	-0,179
193,086	194,095	-0,153	-0,161
194,100	142,695	-0,120	-0,111
195,115	-20,610	-0,206	-0,088
196,129	-200,000	-0,219	-0,000
197,144	-5,353	-0,345	-0,164
198,159	800,000	-0,131	-0,267
199,173	198,479	-0,140	-0,149
200,188	-88,242	-0,091	-0,019
201,202	-140,947	-0,173	0,012
202,217	135,419	-0,149	-0,135
203,232	512,607	-0,156	-0,253
204,246	-65,187	-0,233	-0,065
205,261	-82,904	-0,184	-0,041
206,275	-10,374	-0,373	-0,171
207,290	-35,651	-0,104	-0,039
208,304	-89,963	-0,125	-0,025
209,319	145,067	-0,195	-0,181
210,334	53,153	-0,196	-0,130
211,348	255,077	-0,214	-0,255
212,363	453,700	-0,152	-0,234
213,377	273,086	-0,127	-0,156
214,392	672,160	-0,167	-0,302
215,407	-20,558	-0,166	-0,071
216,421	-68,245	-0,161	0,043
217,436	411,718	-0,100	-0,148
218,450	234,479	-0,099	-0,113
219,465	-68,303	-0,226	-0,060
220,480	-13,635	-0,288	-0,129
221,494	92,343	-0,130	-0,101
222,509	5,528	-0,193	-0,099
223,523	77,937	-0,133	-0,098
224,538	161,069	-0,226	-0,220
225,553	124,410	-0,187	-0,163
226,567	285,994	-0,161	-0,201
227,582	84,891	-0,214	-0,162
228,596	140,973	-0,189	-0,174
229,611	264,118	-0,134	-0,162
230,626	58,219	-0,168	-0,114
231,640	800,000	-0,065	-0,146
232,655	270,397	-0,167	-0,203
233,669	576,598	-0,086	-0,147
234,684	-108,438	-0,303	-0,045
235,699	143,742	-0,154	-0,142
236,713	-111,047	-0,157	-0,022
237,728	-121,333	-0,137	-0,016
238,742	125,315	-0,137	-0,119
239,757	50,882	-0,217	-0,142
240,772	794,504	-0,071	-0,136
241,786	252,831	-0,195	-0,231
242,801	93,271	-0,230	-0,180
243,815	96,058	-0,123	-0,097
244,830	154,336	-0,105	-0,100
245,844	-92,576	-0,115	-0,022
246,859	97,708	-0,156	-0,124
247,874	296,089	-0,151	-0,192
248,888	-26,069	-0,171	-0,069
249,903	168,524	-0,142	-0,141
250,917	208,571	-0,102	-0,110
251,932	110,295	-0,263	-0,218
252,947	-42,815	-0,116	-0,041
253,961	290,176	-0,225	-0,283
254,976	375,155	-0,180	-0,255
255,990	196,972	-0,160	-0,169
257,005	800,000	-0,047	-0,102
258,020	44,990	-0,122	-0,077
259,034	-74,573	-0,158	-0,039
260,049	117,359	-0,102	-0,087
261,063	-131,595	-0,266	-0,024
262,078	77,852	-0,192	-0,141
263,093	89,066	-0,197	-0,152
264,107	1,358	-0,243	-0,120
265,122	457,215	-0,062	-0,095
266,136	146,639	-0,111	-0,103
267,151	186,798	-0,177	-0,182
268,166	104,717	-0,157	-0,127
269,180	732,922	-0,149	-0,276
270,195	196,884	-0,168	-0,177
271,209	442,486	-0,171	-0,260
272,224	-106,819	-0,176	-0,027
273,239	-200,000	0,001	0,108
274,253	-172,928	-0,224	0,005
275,268	347,379	-0,100	-0,137
276,282	-89,656	-0,209	-0,042
277,297	151,048	-0,174	-0,163
278,312	116,201	-0,190	-0,161
279,326	189,327	-0,058	-0,060
280,341	119,647	-0,154	-0,131
281,355	-123,831	-0,301	-0,032
282,370	-49,139	-0,134	-0,044
283,384	186,287	-0,142	-0,146
284,399	131,423	-0,179	-0,158
285,414	228,092	-0,079	-0,089
286,428	-200,000	-0,013	-0,070
287,443	17,821	-0,153	-0,084
288,457	508,105	-0,110	-0,177
289,472	-22,751	-0,253	0,105
290,487	55,635	-0,168	-0,112
291,501	507,870	-0,106	-0,170
292,516	387,565	-0,153	-0,219
293,530	21,223	-0,092	-0,051
294,545	800,000	-0,085	-0,250
295,560	66,441	-0,130	-0,091
296,574	-1,247	-0,186	-0,090
297,589	54,211	-0,125	-0,083
298,603	177,540	-0,125	-0,125
299,618	800,000	-0,092	-0,245
300,633	-153,242	-0,204	0,010
301,647	35,125	-0,156	-0,094
302,662	59,080	-0,173	-0,117
303,676	49,718	-0,178	-0,115
304,691	-44,006	-0,202	-0,069
305,706	65,046	-0,204	-0,142
306,720	-32,387	-0,121	-0,046
307,735	32,907	-0,135	-0,080
308,749	40,143	-0,078	-0,048
309,764	266,679	-0,152	-0,184
310,779	607,330	-0,037	-0,063
311,793	64,964	-0,135	-0,094
312,808	162,968	-0,255	-0,246
313,822	210,544	-0,126	-0,137
314,837	322,747	-0,071	-0,093
315,852	-106,175	-0,129	0,020
316,866	-198,199	-0,068	0,000
317,881	-46,873	-0,076	0,025
318,895	49,787	-0,162	-0,105
319,910	661,433	-0,066	-0,117
320,925	50,411	-0,204	-0,133
321,939	-104,621	-0,173	-0,027
322,954	-41,523	-0,196	-0,069
323,968	-112,979	-0,162	-0,022
324,983	52,229	-0,153	-0,100
325,997	-79,675	-0,164	-0,038
327,012	165,084	-0,241	-0,234
328,027	267,334	-0,083	-0,100
329,041	-75,268	-0,145	-0,035
330,056	-87,177	-0,149	-0,031
331,070	220,207	-0,025	0,028
332,085	58,953	-0,029	-0,020
333,100	-56,162	-0,128	0,039
334,114	800,000	-0,070	-0,149
335,129	-29,198	-0,168	-0,066
336,143	-17,659	-0,226	-0,097
337,158	-4,534	-0,121	-0,057
338,173	231,023	-0,074	-0,083
339,187	800,000	0,044	-0,094
340,202	359,823	-0,050	-0,069
341,216	27,410	-0,147	-0,085
342,231	96,400	-0,109	-0,086
343,246	-6,948	-0,123	-0,057
344,260	396,368	-0,044	-0,064
345,275	481,721	-0,094	-0,146
346,289	-200,000	0,044	-0,236
347,304	549,710	-0,092	-0,153
348,319	-200,000	-0,052	-0,175
349,333	314,176	-0,133	-0,172
350,348	800,000	-0,065	-0,154
351,362	800,000	-0,048	0,096
352,377	136,649	-0,063	-0,056
353,392	346,311	-0,062	-0,084
354,406	25,246	-0,113	-0,064
355,421	206,811	1311,419	1402,695
356,435	159,066	1471,745	1403,198
