DTS Sentinel unit serial number:	SN410029Multiplexer serial number:	ORYXHardware model number:	OX2-SRSoftware version number:	ORYX F/W v4,00 Oryx Data Collector v3.7.2.0data status	okinstallation	B3 Nyhavnadifferential loss correction	single-endedforward channel	channel 1reverse channel	N/Adate	2023/12/03time	20:07:30forward acquisition time	300,00reverse acquisition time	0,00gamma	499,1914k internal	0,3198k external	0,3198temperature offset calibration	1,0000default loss term (dB/km)	0,3820temperature slope calibration	1,0000multiplexer offset coefficient	1,0000multiplexer slope coefficient	1,0000fibre end	0,00T internal ref (°C)	14,07T ext. ref 1 (°C)	-1,26T ext. ref 2 (°C)	-1,28length (m)	temperature (°C)	Stokes	anti-Stokes-744,400	31,789	-0,265	-0,165
-743,385	-200,000	0,038	0,372
-742,371	150,439	-0,219	-0,216
-741,356	-200,000	0,031	0,350
-740,342	129,668	-0,131	-0,122
-739,327	-200,000	0,077	0,311
-738,312	333,825	-0,189	-0,267
-737,298	800,000	-0,077	0,237
-736,283	161,035	-0,121	-0,123
-735,269	-200,000	-0,044	0,271
-734,254	54,193	-0,267	-0,187
-733,239	-1,725	-0,159	0,081
-732,225	800,000	-0,055	-0,122
-731,210	700,859	-0,042	0,081
-730,196	795,894	-0,033	-0,067
-729,181	-200,000	0,003	-0,024
-728,167	800,000	0,042	-0,100
-727,152	-1,515	-0,079	0,040
-726,137	800,000	-0,020	-0,064
-725,123	-164,628	-0,047	0,002
-724,108	142,122	0,096	-0,093
-723,094	-200,000	0,054	-0,208
-722,079	177,777	-0,091	0,097
-721,064	187,173	-0,028	0,031
-720,050	-200,000	0,040	0,131
-719,035	800,000	0,025	0,055
-718,021	-109,980	-0,180	-0,027
-717,006	80,223	-0,013	-0,010
-715,991	-103,615	-0,079	0,013
-714,977	800,000	0,050	-0,144
-713,962	350,863	-0,026	0,038
-712,948	800,000	0,053	0,146
-711,933	599,807	-0,046	-0,084
-710,918	594,181	-0,058	-0,105
-709,904	-71,596	-0,032	0,009
-708,889	-180,374	-0,065	-0,001
-707,875	-200,000	0,004	-0,109
-706,860	-120,518	0,044	0,005
-705,845	-152,777	-0,073	-0,004
-704,831	196,937	0,030	-0,033
-703,816	29,038	0,131	-0,080
-702,802	160,262	0,082	0,084
-701,787	-75,606	-0,040	-0,010
-700,772	-200,000	0,007	-0,133
-699,758	135,594	-0,106	-0,101
-698,743	303,841	0,061	-0,083
-697,729	-8,818	-0,103	0,050
-696,714	-18,134	-0,048	-0,022
-695,699	-148,594	-0,095	0,006
-694,685	600,584	-0,017	-0,031
-693,670	187,816	-0,045	0,049
-692,656	27,352	-0,028	-0,017
-691,641	-200,000	-0,009	0,078
-690,627	182,128	-0,029	0,031
-689,612	-111,533	0,065	0,010
-688,597	-112,396	-0,077	-0,011
-687,583	-200,000	0,026	-0,125
-686,568	-71,943	0,031	0,008
-685,554	-200,000	-0,001	0,037
-684,539	-95,252	-0,128	-0,025
-683,524	-200,000	-0,019	0,063
-682,510	104,603	0,104	0,089
-681,495	-166,456	-0,031	-0,001
-680,481	-200,000	0,007	-0,095
-679,466	-74,604	-0,127	-0,033
-678,451	293,239	-0,057	-0,076
-677,437	368,648	0,036	0,053
-676,422	38,810	-0,016	-0,011
-675,408	113,118	-0,084	0,074
-674,393	101,864	-0,077	0,065
-673,378	-36,665	-0,097	0,038
-672,364	-47,667	-0,091	0,032
-671,349	-140,555	-0,227	0,017
-670,335	-78,594	0,123	-0,030
-669,320	800,000	0,040	0,085
-668,305	78,252	0,028	0,022
-667,291	-200,000	-0,009	-0,060
-666,276	800,000	0,011	-0,023
-665,262	43,142	-0,071	0,047
-664,247	209,123	-0,007	-0,008
-663,232	46,891	-0,022	0,015
-662,218	-38,339	0,077	0,029
-661,203	-200,000	-0,002	0,051
-660,189	542,999	-0,071	0,123
-659,174	-64,166	0,058	-0,017
-658,159	-134,363	-0,156	-0,014
-657,145	22,437	0,036	0,021
-656,130	800,000	-0,032	-0,089
-655,116	4,443	0,065	-0,035
-654,101	234,253	-0,125	-0,149
-653,086	302,526	-0,043	0,058
-652,072	-199,134	-0,082	-0,000
-651,057	110,167	-0,129	-0,112
-650,043	-6,212	-0,088	0,043
-649,028	-200,000	-0,036	-0,190
-648,014	-200,000	0,007	0,040
-646,999	-112,440	0,118	0,017
-645,984	-19,982	-0,094	0,042
-644,970	-200,000	0,021	0,104
-643,955	-200,000	-0,027	-0,145
-642,941	-107,220	-0,155	-0,025
-641,926	-165,319	-0,193	-0,006
-640,911	127,649	0,111	-0,102
-639,897	352,318	0,081	0,117
-638,882	28,239	0,048	0,029
-637,868	-26,128	-0,112	-0,047
-636,853	800,000	0,054	-0,137
-635,838	-200,000	-0,028	-0,169
-634,824	800,000	0,025	0,068
-633,809	57,407	0,048	0,034
-632,795	-28,239	-0,063	-0,026
-631,780	-103,072	0,062	0,011
-630,765	800,000	-0,026	0,074
-629,751	-200,000	-0,010	-0,058
-628,736	35,863	0,026	-0,017
-627,722	-200,000	0,009	0,078
-626,707	800,000	0,026	-0,067
-625,692	-200,000	0,010	-0,098
-624,678	191,554	-0,045	0,049
-623,663	-200,000	-0,010	-0,095
-622,649	10,113	-0,135	-0,074
-621,634	-35,436	-0,097	-0,038
-620,619	782,587	-0,012	-0,024
-619,605	259,003	0,063	0,079
-618,590	242,792	-0,069	0,084
-617,576	192,183	-0,076	-0,083
-616,561	-42,784	0,039	0,014
-615,546	-200,000	0,039	0,146
-614,532	208,076	-0,052	0,059
-613,517	800,000	-0,021	0,051
-612,503	648,514	0,072	0,134
-611,488	-52,599	-0,054	-0,018
-610,474	-5,314	0,150	0,074
-609,459	-200,000	0,039	0,128
-608,444	158,763	-0,113	0,114
-607,430	-61,952	-0,056	0,017
-606,415	800,000	-0,007	-0,018
-605,401	313,868	-0,053	-0,072
-604,386	-200,000	0,001	-0,006
-603,371	470,870	-0,020	-0,033
-602,357	671,726	-0,028	-0,052
-601,342	-46,131	-0,095	-0,034
-600,328	-200,000	0,021	-0,135
-599,313	-61,364	-0,082	-0,025
-598,298	-200,000	-0,033	0,121
-597,284	800,000	0,034	-0,079
-596,269	-109,923	0,148	-0,022
-595,255	17,716	0,016	0,009
-594,240	800,000	-0,030	-0,087
-593,225	315,792	-0,053	0,072
-592,211	-200,000	-0,020	-0,069
-591,196	800,000	-0,035	0,100
-590,182	708,614	0,038	0,072
-589,167	-170,366	0,066	0,002
-588,152	-22,247	0,002	0,001
-587,138	74,178	-0,040	0,030
-586,123	532,388	-0,064	-0,109
-585,109	800,000	-0,047	-0,144
-584,094	178,166	-0,095	-0,100
-583,079	297,744	-0,091	0,122
-582,065	246,410	0,127	0,155
-581,050	-145,453	0,078	0,005
-580,036	15,657	-0,121	0,069
-579,021	800,000	0,014	-0,040
-578,006	0,680	-0,138	-0,071
-576,992	-46,179	-0,152	0,054
-575,977	752,093	0,058	-0,113
-574,963	-86,493	0,108	-0,024
-573,948	800,000	-0,012	0,037
-572,934	-119,883	-0,104	-0,013
-571,919	101,631	-0,056	-0,047
-570,904	-1,378	-0,112	-0,057
-569,890	21,811	-0,102	0,060
-568,875	422,274	0,102	0,158
-567,861	264,537	0,085	0,107
-566,846	-94,066	0,079	0,015
-565,831	-57,916	-0,078	0,025
-564,817	-9,318	0,083	0,040
-563,802	-61,714	-0,076	-0,023
-562,788	54,610	-0,065	-0,045
-561,773	-116,396	0,105	0,014
-560,758	11,729	0,089	0,049
-559,744	-70,194	-0,022	-0,006
-558,729	99,248	-0,033	-0,027
-557,715	513,604	0,018	0,030
-556,700	-67,621	-0,074	-0,021
-555,685	800,000	-0,038	0,115
-554,671	-200,000	0,007	0,136
-553,656	-200,000	0,027	0,124
-552,642	-200,000	-0,007	0,199
-551,627	-94,455	0,067	-0,013
-550,612	-200,000	0,023	-0,209
-549,598	-200,000	0,000	0,022
-548,583	424,264	0,016	-0,024
-547,569	134,073	-0,117	-0,109
-546,554	-200,000	0,000	0,100
-545,539	56,211	0,199	0,139
-544,525	-200,000	-0,006	-0,119
-543,510	-43,751	0,066	-0,024
-542,496	241,004	-0,082	-0,099
-541,481	507,806	-0,104	-0,175
-540,466	-111,332	-0,011	0,002
-539,452	-45,228	0,052	0,019
-538,437	-57,928	0,152	0,048
-537,423	33,696	-0,037	0,023
-536,408	-200,000	-0,015	-0,191
-535,393	-200,000	0,026	-0,203
-534,379	211,681	0,035	-0,040
-533,364	-20,159	-0,081	-0,036
-532,350	225,458	0,009	0,010
-531,335	-5,403	-0,079	0,039
-530,321	467,278	-0,070	0,114
-529,306	73,932	0,025	-0,019
-528,291	-200,000	0,019	-0,181
-527,277	-98,286	-0,070	0,013
-526,262	-200,000	-0,029	-0,113
-525,248	152,048	-0,059	-0,058
-524,233	800,000	0,016	0,043
-523,218	-47,305	-0,125	-0,044
-522,204	154,010	0,090	0,089
-521,189	325,858	0,031	-0,043
-520,175	-66,880	-0,055	0,016
-519,160	16,980	0,077	0,044
-518,145	-200,000	-0,043	0,144
-517,131	55,904	0,122	-0,085
-516,116	-154,552	0,007	0,000
-515,102	-64,616	0,114	0,033
-514,087	620,918	0,034	-0,062
-513,072	800,000	0,010	0,030
-512,058	253,696	-0,067	0,083
-511,043	120,989	-0,062	0,056
-510,029	200,376	0,028	0,032
-509,014	522,694	-0,098	0,167
-507,999	36,702	0,128	0,081
-506,985	459,248	-0,103	-0,167
-505,970	800,000	-0,060	-0,151
-504,956	-85,331	0,050	-0,011
-503,941	800,000	0,089	0,187
-502,926	84,886	0,107	0,085
-501,912	6,430	-0,053	0,028
-500,897	-24,421	-0,070	-0,030
-499,883	-120,215	-0,061	-0,007
-498,868	232,440	0,049	-0,058
-497,853	444,588	0,014	0,023
-496,839	48,624	-0,109	-0,073
-495,824	-83,891	0,069	-0,016
-494,810	-111,998	-0,028	0,004
-493,795	-89,185	0,097	0,020
-492,781	-200,000	0,014	-0,055
-491,766	800,000	-0,044	-0,132
-490,751	229,502	-0,068	-0,080
-489,737	54,956	0,065	-0,045
-488,722	-159,203	0,093	0,004
-487,708	385,620	0,038	-0,056
-486,693	-30,369	-0,035	-0,014
-485,678	120,085	0,079	-0,070
-484,664	141,303	-0,075	-0,072
-483,649	79,567	-0,025	-0,019
-482,635	794,547	0,037	0,073
-481,620	-16,083	-0,119	0,054
-480,605	-200,000	0,001	0,099
-479,591	-92,733	-0,055	0,011
-478,576	-69,901	0,072	-0,020
-477,562	-200,000	0,023	-0,076
-476,547	85,676	-0,089	-0,070
-475,532	154,131	-0,086	-0,085
-474,518	-163,248	0,072	-0,002
-473,503	-28,705	0,008	-0,003
-472,489	-200,000	0,006	0,051
-471,474	430,056	0,037	-0,057
-470,459	241,778	-0,063	-0,076
-469,445	-39,974	-0,084	-0,032
-468,430	-4,839	0,128	0,063
-467,416	800,000	0,039	-0,102
-466,401	-200,000	0,023	-0,091
-465,386	54,885	0,153	0,106
-464,372	405,973	0,008	0,013
-463,357	800,000	-0,034	-0,082
-462,343	-49,424	0,049	0,017
-461,328	129,191	0,031	-0,029
-460,313	14,586	-0,119	0,067
-459,299	30,393	-0,080	0,049
-458,284	153,510	0,063	0,062
-457,270	-200,000	-0,024	0,094
-456,255	-200,000	-0,001	0,089
-455,241	800,000	-0,023	-0,070
-454,226	800,000	-0,061	-0,122
-453,211	-42,360	0,137	-0,050
-452,197	588,003	0,080	0,142
-451,182	102,934	0,011	0,009
-450,168	-200,000	0,009	0,031
-449,153	219,757	0,017	0,019
-448,138	-200,000	-0,003	-0,091
-447,124	204,727	0,047	0,052
-446,109	79,429	0,041	-0,032
-445,095	32,127	-0,090	0,056
-444,080	272,920	0,087	0,110
-443,065	648,831	0,053	-0,098
-442,051	57,882	0,079	-0,055
-441,036	666,405	0,056	-0,104
-440,022	17,957	-0,013	-0,008
-439,007	800,000	0,036	-0,082
-437,992	62,635	0,105	0,075
-436,978	-162,562	0,069	0,002
-435,963	800,000	-0,035	0,091
-434,949	800,000	-0,024	-0,069
-433,934	-35,399	-0,051	0,020
-432,919	-186,529	0,034	0,000
-431,905	218,179	0,043	-0,050
-430,890	-51,118	-0,031	0,010
-429,876	221,457	0,011	0,013
-428,861	9,994	0,162	-0,088
-427,846	649,715	-0,067	-0,125
-426,832	202,162	0,010	-0,012
-425,817	20,721	-0,119	-0,069
-424,803	-82,337	-0,111	0,026
-423,788	-142,196	0,133	-0,009
-422,773	2,531	0,069	-0,036
-421,759	-80,603	-0,073	0,017
-420,744	800,000	-0,055	-0,110
-419,730	-200,000	0,023	-0,232
-418,715	-200,000	-0,001	-0,046
-417,701	-200,000	0,010	-0,076
-416,686	-200,000	-0,002	0,108
-415,671	-118,114	0,134	-0,017
-414,657	96,271	0,142	0,117
-413,642	800,000	-0,020	-0,047
-412,628	139,656	0,118	-0,112
-411,613	-126,677	-0,025	-0,003
-410,598	-200,000	-0,001	-0,062
-409,584	-200,000	-0,005	0,128
-408,569	705,537	0,081	0,154
-407,555	381,774	0,091	0,134
-406,540	-200,000	0,002	-0,136
-405,525	-131,656	0,030	0,003
-404,511	-89,653	-0,090	0,019
-403,496	486,936	0,062	-0,103
-402,482	-68,339	-0,184	0,051
-401,467	-123,958	0,188	-0,021
-400,452	-90,210	0,105	0,022
-399,438	-135,466	0,057	-0,005
-398,423	124,838	-0,102	-0,092
-397,409	-19,640	-0,076	-0,034
-396,394	442,417	0,073	0,115
-395,379	-109,290	-0,085	-0,013
-394,365	76,603	0,060	0,045
-393,350	477,276	0,020	-0,032
-392,336	-151,811	0,205	0,011
-391,321	349,136	0,049	-0,069
-390,306	-132,641	-0,124	-0,011
-389,292	89,436	0,067	-0,054
-388,277	-200,000	0,009	0,057
-387,263	380,829	-0,040	-0,059
-386,248	480,237	0,038	0,062
-385,233	-54,471	-0,148	0,048
-384,219	198,327	0,051	0,056
-383,204	12,559	-0,067	-0,037
-382,190	315,193	0,057	0,077
-381,175	53,068	0,076	0,052
-380,160	800,000	-0,034	-0,081
-379,146	-200,000	-0,031	0,127
-378,131	339,049	0,035	0,049
-377,117	225,586	-0,060	-0,070
-376,102	-89,629	-0,036	-0,008
-375,088	-44,389	0,060	-0,022
-374,073	-200,000	0,023	-0,167
-373,058	-43,312	0,095	-0,034
-372,044	-39,308	0,030	-0,011
-371,029	800,000	0,047	0,114
-370,015	-200,000	-0,017	-0,060
-369,000	-18,997	0,029	0,013
-367,985	-200,000	0,014	0,064
-366,971	800,000	-0,062	-0,132
-365,956	-200,000	-0,041	0,148
-364,942	31,592	0,005	-0,003
-363,927	67,426	-0,077	0,057
-362,912	-138,044	-0,095	0,008
-361,898	601,124	0,046	0,082
-360,883	37,332	-0,117	0,074
-359,869	800,000	0,031	-0,097
-358,854	-91,343	-0,143	0,029
-357,839	-9,701	-0,100	0,048
-356,825	-53,295	-0,119	0,039
-355,810	800,000	0,057	0,136
-354,796	156,476	-0,093	0,092
-353,781	549,991	0,089	0,154
-352,766	-72,096	-0,093	-0,025
-351,752	237,742	0,070	-0,084
-350,737	-21,682	0,092	0,040
-349,723	795,669	-0,043	0,086
-348,708	800,000	-0,012	-0,029
-347,693	-200,000	-0,037	-0,128
-346,679	-200,000	-0,040	-0,184
-345,664	60,850	0,089	0,063
-344,650	183,131	-0,054	-0,057
-343,635	800,000	-0,015	0,044
-342,620	-142,719	0,223	-0,015
-341,606	-46,336	-0,146	0,051
-340,591	317,086	0,081	0,111
-339,577	235,250	-0,057	-0,068
-338,562	800,000	0,026	-0,055
-337,548	207,016	0,014	0,016
-336,533	-200,000	0,034	0,114
-335,518	-40,768	0,031	0,012
-334,504	430,459	0,093	0,145
-333,489	-200,000	0,003	0,159
-332,475	220,542	-0,087	0,100
-331,460	4,691	-0,116	0,061
-330,445	-44,045	-0,124	0,044
-329,431	-119,461	-0,080	0,010
-328,416	-77,269	-0,085	-0,021
-327,402	-18,651	0,085	0,038
-326,387	42,444	0,014	0,009
-325,372	-70,646	-0,198	-0,053
-324,358	44,025	0,064	-0,042
-323,343	-45,817	0,082	0,029
-322,329	-41,975	0,127	0,046
-321,314	800,000	0,013	-0,032
-320,299	91,512	0,082	0,066
-319,285	-200,000	0,009	0,141
-318,270	-79,826	-0,216	0,052
-317,256	79,912	-0,051	0,039
-316,241	-52,971	-0,051	0,017
-315,226	-123,429	0,023	0,003
-314,212	141,410	0,081	0,077
-313,197	649,608	0,077	0,142
-312,183	-67,072	-0,036	-0,010
-311,168	112,086	-0,017	-0,014
-310,153	-6,535	-0,037	0,018
-309,139	-69,536	-0,097	0,026
-308,124	800,000	-0,044	0,109
-307,110	673,054	-0,049	-0,092
-306,095	-200,000	0,018	0,089
-305,080	-45,997	-0,095	0,033
-304,066	-200,000	-0,015	-0,054
-303,051	-132,433	0,038	0,003
-302,037	-175,824	0,037	0,001
-301,022	-64,345	0,055	0,016
-300,008	800,000	-0,017	0,040
-298,993	-162,188	0,199	-0,007
-297,978	-200,000	-0,101	0,000
-296,964	800,000	0,017	0,046
-295,949	-200,000	0,013	-0,046
-294,935	67,877	-0,058	0,043
-293,920	15,996	0,010	0,006
-292,905	28,070	-0,041	-0,024
-291,891	-135,752	0,145	0,012
-290,876	-147,227	-0,168	0,010
-289,862	-96,477	-0,115	0,022
-288,847	95,964	-0,022	0,018
-287,832	-147,295	0,022	0,001
-286,818	737,858	0,051	-0,098
-285,803	552,669	0,021	-0,036
-284,789	129,203	-0,116	0,106
-283,774	146,108	0,056	0,054
-282,759	-19,647	-0,045	-0,020
-281,745	-147,457	-0,130	-0,008
-280,730	7,705	0,128	0,068
-279,716	-200,000	0,026	-0,084
-278,701	-200,000	0,009	-0,044
-277,686	206,373	0,078	0,087
-276,672	-200,000	0,016	0,157
-275,657	148,967	-0,122	0,118
-274,643	186,631	-0,081	-0,086
-273,628	-89,294	-0,072	0,015
-272,613	217,409	0,025	-0,029
-271,599	-200,000	0,002	-0,070
-270,584	-200,000	0,004	-0,081
-269,570	199,215	0,037	-0,041
-268,555	800,000	-0,033	0,066
-267,540	-161,835	0,144	0,005
-266,526	494,711	-0,048	0,079
-265,511	19,831	-0,112	-0,064
-264,497	141,150	0,093	0,088
-263,482	-89,673	0,167	0,035
-262,467	300,293	0,047	-0,062
-261,453	482,149	-0,073	-0,120
-260,438	-65,652	0,104	-0,030
-259,424	-200,000	-0,006	0,048
-258,409	800,000	0,004	0,009
-257,395	-138,622	0,139	0,011
-256,380	-200,000	0,028	-0,089
-255,365	800,000	-0,079	0,164
-254,351	109,341	0,066	-0,056
-253,336	403,597	0,061	-0,092
-252,322	-200,000	0,054	-0,182
-251,307	163,161	-0,101	-0,101
-250,292	333,720	0,074	-0,102
-249,278	-16,178	0,127	0,057
-248,263	-200,000	0,025	0,084
-247,249	173,192	0,086	0,089
-246,234	-200,000	0,001	-0,077
-245,219	230,783	-0,073	-0,086
-244,205	9,778	-0,007	0,004
-243,190	-71,148	0,137	0,036
-242,176	391,314	-0,070	0,104
-241,161	800,000	0,005	0,014
-240,146	381,875	0,075	0,110
-239,132	393,431	0,029	0,043
-238,117	-51,304	-0,120	-0,040
-237,103	800,000	-0,049	-0,108
-236,088	196,150	0,094	0,102
-235,073	189,566	0,047	0,050
-234,059	-64,522	0,095	0,027
-233,044	147,035	-0,148	0,142
-232,030	-90,546	0,079	-0,016
-231,015	-200,000	0,059	0,000
-230,000	37,764	-0,076	-0,048
-228,986	-92,498	-0,067	-0,013
-227,971	64,254	-0,021	-0,015
-226,957	267,118	0,030	-0,037
-225,942	-44,529	0,027	0,010
-224,927	-101,375	0,056	0,010
-223,913	111,127	-0,018	-0,016
-222,898	675,594	-0,065	-0,121
-221,884	194,609	0,022	0,024
-220,869	800,000	-0,046	-0,105
-219,855	-184,518	0,085	-0,001
-218,840	248,836	0,029	-0,035
-217,825	-157,253	-0,021	0,001
-216,811	800,000	0,017	-0,048
-215,796	8,855	0,146	0,078
-214,782	56,098	-0,028	-0,020
-213,767	-200,000	0,034	-0,111
-212,752	612,525	0,025	-0,045
-211,738	33,215	-0,094	-0,058
-210,723	-34,688	-0,085	0,033
-209,709	-200,000	-0,012	0,106
-208,694	-200,000	-0,045	-0,153
-207,679	-54,798	-0,076	0,024
-206,665	393,895	-0,035	0,052
-205,650	401,043	-0,023	-0,034
-204,636	-89,796	0,052	-0,011
-203,621	26,088	-0,065	0,039
-202,606	666,245	0,036	0,067
-201,592	-17,043	-0,128	-0,057
-200,577	38,510	0,084	0,053
-199,563	-86,178	0,070	0,015
-198,548	800,000	0,029	-0,060
-197,533	113,180	-0,088	-0,076
-196,519	254,974	-0,081	0,099
-195,504	118,346	-0,140	-0,123
-194,490	-200,000	0,084	0,000
-193,475	-49,997	-0,205	0,069
-192,460	-64,819	0,063	-0,018
-191,446	216,905	0,054	0,061
-190,431	800,000	0,006	0,016
-189,417	697,923	-0,030	-0,056
-188,402	-146,868	0,028	-0,002
-187,387	800,000	-0,059	-0,129
-186,373	740,334	0,043	-0,083
-185,358	-25,290	0,055	-0,023
-184,344	-111,250	-0,047	0,007
-183,329	-108,246	-0,069	-0,010
-182,315	323,937	-0,031	-0,042
-181,300	161,518	-0,062	0,061
-180,285	-200,000	-0,010	-0,105
-179,271	325,026	0,056	-0,076
-178,256	771,136	0,024	-0,046
-177,242	126,514	0,095	-0,085
-176,227	601,041	0,024	0,043
-175,212	-105,596	-0,127	-0,020
-174,198	-173,827	-0,181	-0,004
-173,183	234,601	0,073	-0,086
-172,169	800,000	-0,019	0,050
-171,154	-200,000	0,007	-0,027
-170,139	-15,593	0,046	0,021
-169,125	-123,448	0,064	-0,007
-168,110	800,000	0,017	0,046
-167,096	-200,000	0,011	-0,072
-166,081	-36,004	-0,025	-0,009
-165,066	249,389	0,050	0,061
-164,052	176,560	0,040	-0,042
-163,037	49,328	0,073	-0,049
-162,023	800,000	-0,023	-0,051
-161,008	-44,372	0,057	-0,020
-159,993	-83,200	-0,090	0,020
-158,979	241,863	0,010	0,011
-157,964	-200,000	-0,039	0,124
-156,950	-200,000	0,004	0,047
-155,935	-200,000	-0,012	0,083
-154,920	800,000	0,046	0,127
-153,906	-100,490	0,216	0,038
-152,891	800,000	-0,006	-0,015
-151,877	800,000	0,082	-0,177
-150,862	-19,035	-0,062	0,027
-149,847	259,446	-0,058	-0,072
-148,833	196,268	0,066	-0,072
-147,818	800,000	0,022	0,061
-146,804	575,200	0,064	0,112
-145,789	107,920	0,071	-0,060
-144,775	-1,368	-0,098	0,049
-143,760	-134,772	-0,064	0,005
-142,745	-19,026	-0,130	0,057
-141,731	85,374	0,084	-0,066
-140,716	-200,000	-0,014	0,159
-139,702	85,503	-0,053	0,042
-138,687	-200,000	-0,004	-0,048
-137,672	-3,142	-0,053	0,026
-136,658	94,989	-0,045	-0,036
-135,643	-200,000	0,004	-0,109
-134,629	-200,000	0,021	0,090
-133,614	800,000	0,057	0,143
-132,599	-54,644	0,140	0,045
-131,585	-83,109	0,108	0,025
-130,570	-88,778	0,114	-0,024
-129,556	109,506	-0,084	-0,072
-128,541	800,000	-0,021	0,043
-127,526	-156,776	0,059	0,003
-126,512	414,008	-0,025	0,037
-125,497	-200,000	0,001	0,097
-124,483	158,233	-0,070	-0,069
-123,468	87,768	0,098	0,077
-122,453	-87,306	0,057	0,012
-121,439	-65,701	-0,058	0,016
-120,424	254,888	0,035	0,043
-119,410	172,750	0,023	-0,024
-118,395	-90,322	-0,070	-0,014
-117,380	-84,157	0,122	-0,027
-116,366	147,235	0,068	-0,065
-115,351	800,000	0,047	-0,095
-114,337	-97,466	0,104	-0,019
-113,322	800,000	0,045	0,118
-112,307	486,586	0,059	-0,096
-111,293	159,245	-0,076	0,075
-110,278	-200,000	0,005	-0,047
-109,264	-200,000	-0,005	-0,069
-108,249	-10,946	-0,130	-0,061
-107,234	-53,378	-0,022	-0,007
-106,220	30,034	-0,145	-0,087
-105,205	800,000	-0,052	0,123
-104,191	-200,000	0,008	-0,115
-103,176	26,361	0,111	0,065
-102,162	622,184	-0,022	0,040
-101,147	5,664	0,139	0,073
-100,132	-59,070	-0,133	-0,041
-99,118	-200,000	-0,004	-0,130
-98,103	49,147	0,051	0,034
-97,089	249,748	-0,053	0,064
-96,074	-56,330	0,114	0,036
-95,059	-200,000	-0,050	0,254
-94,045	537,592	-0,024	0,041
-93,030	148,598	0,098	0,094
-92,016	-200,000	-0,011	-0,070
-91,001	800,000	-0,030	-0,065
-89,986	13,464	0,062	0,034
-88,972	-200,000	0,013	0,191
-87,957	49,575	0,015	-0,010
-86,943	-200,000	0,006	0,144
-85,928	-200,000	-0,009	-0,112
-84,913	-200,000	0,007	0,089
-83,899	800,000	0,007	0,017
-82,884	800,000	-0,007	0,019
-81,870	-156,728	0,093	0,004
-80,855	-200,000	0,007	0,165
-79,840	43,726	-0,024	0,015
-78,826	-200,000	-0,007	-0,045
-77,811	-32,245	-0,166	0,066
-76,797	-75,363	-0,089	0,022
-75,782	444,127	0,129	0,202
-74,767	329,730	0,070	0,096
-73,753	491,313	0,068	0,110
-72,738	49,848	0,069	0,046
-71,724	167,627	0,033	-0,033
-70,709	81,128	-0,066	0,051
-69,694	-83,566	-0,131	0,029
-68,680	286,891	0,167	0,214
-67,665	1,415	0,133	0,068
-66,651	279,019	-0,054	0,068
-65,636	254,504	0,102	0,124
-64,622	800,000	0,023	-0,048
-63,607	800,000	-0,075	-0,175
-62,592	-174,220	0,132	-0,003
-61,578	-200,000	-0,000	0,018
-60,563	-200,000	0,002	0,010
-59,549	800,000	-0,059	0,153
-58,534	-13,756	-1,459	-0,666
-57,519	333,669	-1,445	-1,986
-56,505	-200,000	-0,547	-4,477
-55,490	199,071	1,028	1,117
-54,476	800,000	4,730	11,082
-53,461	-200,000	18,856	308,110
-52,446	800,000	737,605	2303,455
-51,432	569,547	1654,266	2861,818
-50,417	79,021	1670,790	1266,503
-49,403	22,036	1543,401	889,828
-48,388	15,930	1466,379	815,724
-47,373	17,901	1456,299	819,614
-46,359	16,930	1446,518	809,417
-45,344	14,191	1441,816	793,630
-44,330	14,118	1439,838	792,156
-43,315	14,109	1438,347	791,265
-42,300	14,102	1436,690	790,285
-41,286	14,178	1435,293	789,851
-40,271	14,107	1434,144	788,846
-39,257	14,144	1432,718	788,208
-38,242	14,141	1431,476	787,480
-37,227	14,165	1430,499	787,025
-36,213	14,171	1429,019	786,208
-35,198	14,187	1427,823	785,596
-34,184	14,176	1427,027	785,072
-33,169	14,145	1425,580	784,097
-32,154	14,166	1424,510	783,581
-31,140	14,171	1423,264	782,886
-30,125	14,186	1422,285	782,385
-29,111	14,234	1420,892	781,818
-28,096	14,143	1419,835	780,776
-27,082	14,077	1418,838	779,887
-26,067	14,132	1417,781	779,531
-25,052	14,082	1416,709	778,675
-24,038	14,071	1415,751	778,066
-23,023	14,074	1414,608	777,423
-22,009	14,055	1413,423	776,652
-20,994	14,026	1412,880	776,186
-19,979	14,045	1411,793	775,646
-18,965	14,002	1411,067	775,013
-17,950	14,083	1409,978	774,764
-16,936	14,019	1409,178	773,993
-15,921	14,006	1407,973	773,243
-14,906	14,015	1407,179	772,819
-13,892	14,017	1406,186	772,251
-12,877	14,003	1405,280	771,654
-11,863	14,026	1404,299	771,193
-10,848	13,957	1403,439	770,370
-9,833	13,950	1402,694	769,896
-8,819	13,932	1401,787	769,286
-7,804	13,902	1400,912	768,633
-6,790	13,920	1399,629	767,982
-5,775	13,944	1398,753	767,585
-4,760	13,929	1397,672	766,893
-3,746	13,892	1396,840	766,231
-2,731	13,878	1396,306	765,843
-1,717	13,880	1395,364	765,305
-0,702	13,881	1393,563	764,291
0,313	17,630	1311,463	736,687
1,327	33,884	706,116	434,345
2,342	52,003	124,117	83,579
3,356	2,773	16,591	8,494
4,371	9,974	3,114	1,669
5,386	-14,890	0,583	0,264
6,400	800,000	0,077	0,206
7,415	58,305	-0,280	-0,194
8,429	-155,570	-0,387	-0,017
9,444	129,006	-0,252	-0,227
10,459	25,473	-0,329	-0,193
11,473	174,723	-0,307	-0,314
12,488	-25,921	-0,357	-0,148
13,502	23,105	-0,319	-0,185
14,517	89,057	-0,283	-0,223
15,531	98,831	-0,331	-0,270
16,546	224,476	-0,323	-0,369
17,561	135,564	-0,378	-0,348
18,575	-84,414	-0,245	-0,054
19,590	-15,162	-0,278	-0,125
20,604	-105,645	-0,410	-0,065
21,619	60,092	-0,454	-0,317
22,634	119,737	-0,480	-0,421
23,648	67,298	-0,446	-0,321
24,663	-16,889	-0,488	-0,217
25,677	-9,254	-0,308	-0,145
26,692	-15,496	-0,437	-0,196
27,707	178,407	-0,262	-0,271
28,721	48,846	-0,402	-0,266
29,736	58,811	-0,444	-0,308
30,750	79,926	-0,443	-0,336
31,765	285,343	-0,224	-0,286
32,780	9,237	-0,390	-0,208
33,794	17,785	-0,419	-0,235
34,809	150,010	-0,271	-0,260
35,823	5,521	-0,297	-0,155
36,838	17,110	-0,386	-0,216
37,853	217,568	-0,343	-0,386
38,867	148,168	-0,427	-0,407
39,882	57,987	-0,353	-0,243
40,896	248,525	-0,170	-0,204
41,911	76,508	-0,371	-0,277
42,926	149,962	-0,272	-0,260
43,940	319,233	-0,273	-0,365
44,955	40,041	-0,455	-0,288
45,969	-43,387	-0,403	-0,143
46,984	-131,109	-0,464	-0,043
47,999	38,146	-0,279	-0,175
49,013	503,998	-0,207	-0,339
50,028	-66,797	-0,464	-0,128
51,042	91,991	-0,283	-0,225
52,057	120,551	-0,222	-0,194
53,071	69,688	-0,287	-0,208
54,086	217,782	-0,319	-0,359
55,101	183,105	-0,309	-0,322
56,115	152,216	-0,354	-0,340
57,130	-49,057	-0,350	-0,117
58,144	71,962	-0,308	-0,226
59,159	215,975	-0,285	-0,320
60,174	20,303	-0,427	-0,243
61,188	40,086	-0,312	-0,197
62,203	149,934	-0,310	-0,296
63,217	33,579	-0,293	-0,179
64,232	-31,191	-0,358	-0,141
65,247	-58,145	-0,346	-0,105
66,261	9,712	-0,347	-0,185
67,276	54,335	-0,272	-0,184
68,290	43,213	-0,365	-0,234
69,305	39,446	-0,208	-0,131
70,320	203,864	-0,174	-0,190
71,334	-69,195	-0,334	-0,090
72,349	49,908	-0,456	-0,302
73,363	-16,717	-0,440	-0,195
74,378	-11,535	-0,295	-0,136
75,393	107,879	-0,281	-0,235
76,407	59,871	-0,164	-0,114
77,422	-31,495	-0,262	-0,103
78,436	-29,292	-0,256	-0,103
79,451	-35,511	-0,337	-0,128
80,466	38,432	-0,339	-0,212
81,480	75,781	-0,221	-0,164
82,495	131,407	-0,293	-0,265
83,509	-36,194	-0,293	-0,111
84,524	72,647	-0,245	-0,180
85,539	65,121	-0,295	-0,209
86,553	-50,300	-0,369	-0,122
87,568	37,284	-0,242	-0,150
88,582	85,818	-0,231	-0,178
89,597	87,439	-0,291	-0,226
90,611	178,521	-0,259	-0,266
91,626	176,059	-0,229	-0,234
92,641	99,905	-0,216	-0,176
93,655	19,530	-0,319	-0,180
94,670	99,320	-0,281	-0,228
95,684	57,699	-0,358	-0,246
96,699	89,686	-0,223	-0,175
97,714	129,608	-0,241	-0,217
98,728	-107,407	-0,215	-0,033
99,743	350,002	-0,138	-0,192
100,757	384,537	-0,166	-0,240
101,772	142,930	-0,292	-0,272
102,787	99,366	-0,318	-0,258
103,801	139,044	-0,216	-0,199
104,816	10,271	-0,286	-0,152
105,830	-62,650	-0,252	-0,073
106,845	131,842	-0,153	-0,138
107,860	-26,267	-0,246	-0,101
108,874	-62,106	-0,300	-0,087
109,889	364,487	-0,141	-0,200
110,903	47,579	-0,234	-0,153
111,918	98,221	-0,222	-0,179
112,933	34,954	-0,256	-0,157
113,947	38,526	-0,284	-0,177
114,962	54,428	-0,238	-0,160
115,976	7,186	-0,255	-0,133
116,991	65,643	-0,329	-0,234
118,006	-15,351	-0,294	-0,131
119,020	131,726	-0,158	-0,142
120,035	22,164	-0,236	-0,135
121,049	149,934	-0,181	-0,172
122,064	-105,092	-0,237	-0,038
123,079	54,283	-0,208	-0,140
124,093	-46,570	-0,320	-0,109
125,108	-24,794	-0,294	-0,122
126,122	74,558	-0,257	-0,189
127,137	113,927	-0,256	-0,218
128,151	77,426	-0,173	-0,129
129,166	3,845	-0,270	-0,138
130,181	800,000	-0,155	-0,352
131,195	232,936	-0,190	-0,219
132,210	407,337	-0,196	-0,291
133,224	153,867	-0,186	-0,179
134,239	800,000	-0,083	-0,234
135,254	-48,283	-0,193	-0,065
136,268	154,360	-0,228	-0,219
137,283	480,776	-0,188	-0,299
138,297	4,576	-0,358	-0,183
139,312	-51,001	-0,230	-0,075
140,327	323,996	-0,175	-0,234
141,341	55,523	-0,161	-0,109
142,356	-43,081	-0,122	-0,043
143,370	-65,391	-0,188	-0,053
144,385	72,264	-0,216	-0,157
145,400	164,960	-0,196	-0,193
146,414	104,750	-0,167	-0,138
147,429	294,065	-0,158	-0,202
148,443	107,285	-0,227	-0,188
149,458	55,539	-0,159	-0,107
150,473	112,015	-0,272	-0,230
151,487	102,159	-0,131	-0,107
152,502	70,647	-0,148	-0,107
153,516	61,340	-0,215	-0,149
154,531	-22,475	-0,205	-0,086
155,546	346,863	-0,228	-0,315
156,560	174,891	-0,172	-0,174
157,575	-36,266	-0,242	-0,091
158,589	-26,371	-0,134	-0,055
159,604	-51,601	-0,126	-0,041
160,619	151,023	-0,317	-0,301
161,633	96,454	-0,273	-0,218
162,648	148,006	-0,235	-0,221
163,662	72,660	-0,275	-0,200
164,677	-33,981	-0,305	-0,116
165,692	800,000	-0,066	-0,198
166,706	2,101	-0,332	-0,167
167,721	344,902	-0,196	-0,269
168,735	74,726	-0,306	-0,224
169,750	13,151	-0,233	-0,126
170,764	64,732	-0,196	-0,138
171,779	-200,000	0,038	-0,124
172,794	110,943	-0,191	-0,161
173,808	-41,215	-0,271	-0,097
174,823	26,772	-0,249	-0,145
175,837	135,104	-0,216	-0,196
176,852	-97,586	-0,202	-0,036
177,867	-55,688	-0,282	-0,088
178,881	108,294	-0,137	-0,114
179,896	-125,170	-0,257	-0,027
180,910	115,337	-0,351	-0,299
181,925	75,378	-0,235	-0,172
182,940	59,474	-0,183	-0,126
183,954	95,456	-0,235	-0,186
184,969	-82,406	-0,327	-0,073
185,983	114,710	-0,281	-0,238
186,998	46,839	-0,195	-0,126
188,013	6,193	-0,163	-0,084
189,027	43,666	-0,147	-0,094
190,042	57,468	-0,225	-0,153
191,056	311,716	-0,211	-0,276
192,071	49,992	-0,247	-0,162
193,086	-200,000	0,023	-0,210
194,100	151,189	-0,180	-0,171
195,115	34,140	-0,249	-0,151
196,129	29,924	-0,260	-0,154
197,144	23,437	-0,164	-0,094
198,159	171,283	-0,220	-0,220
199,173	225,806	-0,107	-0,121
200,188	399,078	-0,153	-0,224
201,202	21,432	-0,168	-0,095
202,217	800,000	-0,072	-0,165
203,232	-96,207	-0,234	-0,043
204,246	94,987	-0,144	-0,114
205,261	235,982	-0,208	-0,240
206,275	444,674	-0,126	-0,194
207,290	-148,538	-0,101	0,006
208,304	34,582	-0,271	-0,164
209,319	-123,031	-0,189	0,021
210,334	325,206	-0,146	-0,195
211,348	144,805	-0,225	-0,210
212,363	9,146	-0,271	-0,142
213,377	569,391	-0,104	-0,177
214,392	-122,100	-0,104	0,012
215,407	-45,657	-0,033	0,011
216,421	55,180	-0,186	-0,124
217,436	-103,805	-0,131	-0,021
218,450	18,205	-0,253	-0,140
219,465	-19,755	-0,187	-0,080
220,480	800,000	-0,065	-0,152
221,494	401,871	-0,056	-0,082
222,509	177,076	-0,199	-0,201
223,523	277,481	-0,158	-0,196
224,538	497,130	-0,129	-0,207
225,553	177,551	-0,175	-0,177
226,567	92,039	-0,322	-0,252
227,582	313,159	-0,201	-0,263
228,596	218,461	-0,164	-0,182
229,611	332,900	-0,059	-0,080
230,626	149,818	-0,189	-0,178
231,640	226,975	-0,133	-0,150
232,655	-21,586	-0,181	-0,076
233,669	800,000	-0,167	-0,384
234,684	345,065	-0,109	-0,149
235,699	-2,569	-0,141	-0,068
236,713	326,838	-0,118	-0,158
237,728	-47,776	-0,219	-0,073
238,742	800,000	-0,138	-0,270
239,757	-143,599	-0,273	0,018
240,772	116,439	-0,233	-0,198
241,786	396,433	-0,134	-0,194
242,801	403,812	-0,089	-0,130
243,815	-90,596	-0,156	-0,031
244,830	128,068	-0,127	-0,112
245,844	519,122	-0,138	-0,225
246,859	70,979	-0,035	-0,025
247,874	315,866	-0,178	-0,234
248,888	84,799	-0,204	-0,155
249,903	21,658	-0,314	-0,176
250,917	-52,733	-0,133	-0,042
251,932	-24,514	-0,185	-0,076
252,947	118,789	-0,202	-0,172
253,961	216,510	-0,198	-0,218
254,976	12,831	-0,258	-0,138
255,990	-136,474	-0,225	-0,018
257,005	317,032	-0,107	-0,140
258,020	800,000	-0,072	-0,163
259,034	263,500	-0,198	-0,238
260,049	311,467	-0,140	-0,182
261,063	-130,728	-0,232	-0,021
262,078	-200,000	-0,052	-0,172
263,093	130,588	-0,156	-0,138
264,107	20,968	-0,215	-0,120
265,122	-144,973	-0,161	-0,010
266,136	-118,844	-0,265	-0,032
267,151	-200,000	-0,001	-0,200
268,166	-47,896	-0,182	-0,061
269,180	-200,000	-0,027	-0,123
270,195	685,138	-0,087	-0,157
271,209	-109,389	-0,168	-0,024
272,224	-200,000	0,000	0,040
273,239	20,573	-0,109	-0,061
274,253	750,364	-0,096	-0,180
275,268	192,949	-0,201	-0,210
276,282	-0,058	-0,263	-0,129
277,297	800,000	-0,104	-0,218
278,312	165,483	-0,243	-0,238
279,326	-86,133	-0,092	-0,019
280,341	-74,696	-0,062	-0,015
281,355	-134,653	-0,077	-0,006
282,370	-14,812	-0,171	-0,075
283,384	230,153	-0,238	-0,269
284,399	95,975	-0,191	-0,151
285,414	72,381	-0,229	-0,165
286,428	-22,764	-0,189	0,079
287,443	-74,856	-0,189	-0,047
288,457	109,202	-0,052	-0,043
289,472	-104,205	-0,171	0,027
290,487	1,247	-0,200	-0,099
291,501	2,890	-0,199	-0,099
292,516	-158,427	-0,219	-0,009
293,530	-29,075	-0,271	-0,107
294,545	667,312	-0,059	-0,106
295,560	91,909	-0,152	-0,118
296,574	244,927	-0,205	-0,238
297,589	312,549	-0,094	-0,122
298,603	-200,000	-0,045	-0,147
299,618	800,000	-0,084	-0,179
300,633	800,000	-0,094	-0,206
301,647	84,566	-0,053	-0,040
302,662	208,433	-0,172	-0,186
303,676	-200,000	-0,056	-0,223
304,691	-52,786	-0,174	-0,055
305,706	-37,394	-0,194	-0,071
306,720	26,945	-0,217	-0,125
307,735	684,468	-0,118	-0,213
308,749	157,898	-0,127	-0,121
309,764	-200,000	-0,009	0,133
310,779	-86,594	-0,060	-0,012
311,793	-58,864	-0,202	-0,060
312,808	70,426	-0,111	-0,079
313,822	-200,000	-0,049	-0,230
314,837	186,068	-0,218	-0,224
315,852	800,000	-0,038	-0,108
316,866	-36,733	-0,225	-0,083
317,881	-97,469	-0,171	0,030
318,895	-10,927	-0,219	-0,099
319,910	164,628	-0,106	-0,103
320,925	364,381	-0,159	-0,221
321,939	-11,474	-0,190	-0,086
322,954	-139,362	-0,268	-0,019
323,968	-108,653	-0,039	-0,006
324,983	-60,360	-0,094	-0,027
325,997	95,380	-0,188	-0,147
327,012	800,000	-0,064	-0,187
328,027	-140,497	-0,012	-0,001
329,041	-151,992	-0,159	-0,008
330,056	800,000	0,059	-0,155
331,070	-200,000	-0,005	-0,211
332,085	-173,417	-0,089	-0,002
333,100	-69,019	-0,248	0,065
334,114	-39,209	-0,314	-0,113
335,129	162,398	-0,130	-0,126
336,143	209,583	-0,104	-0,113
337,158	61,536	-0,181	-0,123
338,173	800,000	-0,004	0,009
339,187	-118,381	-0,183	0,022
340,202	-182,223	-0,174	0,002
341,216	226,002	-0,239	-0,267
342,231	255,654	-0,163	-0,192
343,246	-87,762	-0,224	-0,046
344,260	397,206	-0,071	-0,102
345,275	56,529	-0,118	-0,079
346,289	-200,000	-0,007	-0,166
347,304	-64,532	-0,183	-0,051
348,319	800,000	-0,035	0,069
349,333	417,411	-0,052	-0,077
350,348	-164,453	-0,080	-0,002
351,362	210,037	-0,124	-0,134
352,377	-97,128	-0,110	0,020
353,392	-200,000	0,005	0,022
354,406	-78,925	-0,251	-0,058
355,421	208,380	1314,414	1412,663
356,435	160,328	1475,130	1413,155
