DTS Sentinel unit serial number:	SN410029Multiplexer serial number:	ORYXHardware model number:	OX2-SRSoftware version number:	ORYX F/W v4,00 Oryx Data Collector v3.7.2.0data status	okinstallation	B3 Nyhavnadifferential loss correction	single-endedforward channel	channel 1reverse channel	N/Adate	2023/12/02time	02:02:30forward acquisition time	300,00reverse acquisition time	0,00gamma	499,1914k internal	0,3195k external	0,3195temperature offset calibration	1,0000default loss term (dB/km)	0,3820temperature slope calibration	1,0000multiplexer offset coefficient	1,0000multiplexer slope coefficient	1,0000fibre end	0,00T internal ref (°C)	16,61T ext. ref 1 (°C)	1,88T ext. ref 2 (°C)	1,87length (m)	temperature (°C)	Stokes	anti-Stokes-744,400	293,062	-0,205	-0,273
-743,385	-200,000	0,009	0,358
-742,371	168,859	-0,241	-0,250
-741,356	-200,000	0,093	0,365
-740,342	43,803	-0,288	-0,192
-739,327	-200,000	0,012	0,335
-738,312	269,418	-0,244	-0,313
-737,298	-200,000	-0,027	0,306
-736,283	-65,473	-0,229	-0,067
-735,269	-200,000	0,011	0,344
-734,254	381,829	-0,163	-0,245
-733,239	281,320	-0,118	0,154
-732,225	534,020	-0,154	-0,268
-731,210	-200,000	-0,004	0,073
-730,196	53,881	-0,042	-0,030
-729,181	210,190	-0,091	-0,104
-728,167	454,306	-0,018	-0,029
-727,152	-200,000	0,038	0,168
-726,137	-200,000	-0,026	-0,091
-725,123	800,000	-0,041	-0,089
-724,108	778,285	-0,009	0,017
-723,094	64,136	-0,114	-0,084
-722,079	-8,090	-0,046	-0,022
-721,064	-90,222	0,076	0,016
-720,050	-66,362	0,139	-0,040
-719,035	-131,814	0,072	-0,007
-718,021	42,426	-0,030	0,020
-717,006	43,028	0,054	0,036
-715,991	800,000	-0,070	-0,177
-714,977	303,349	-0,020	-0,028
-713,962	545,917	0,096	0,168
-712,948	382,836	0,069	0,103
-711,933	-147,414	0,118	-0,007
-710,918	800,000	-0,019	-0,045
-709,904	-33,348	-0,089	0,036
-708,889	330,082	-0,101	-0,142
-707,875	-134,383	0,145	0,013
-706,860	-200,000	-0,031	-0,182
-705,845	11,518	0,086	-0,048
-704,831	-85,326	0,034	-0,008
-703,816	800,000	-0,034	-0,098
-702,802	-87,384	-0,087	-0,019
-701,787	397,951	0,030	-0,045
-700,772	-30,590	-0,112	-0,046
-699,758	414,158	0,078	-0,121
-698,743	-200,000	0,012	0,082
-697,729	27,417	0,098	-0,060
-696,714	74,398	-0,056	-0,042
-695,699	800,000	0,034	0,093
-694,685	800,000	-0,074	-0,163
-693,670	-200,000	-0,001	0,111
-692,656	-154,916	0,091	-0,004
-691,641	-125,259	0,045	0,005
-690,627	-200,000	0,006	-0,172
-689,612	208,184	0,073	0,083
-688,597	234,864	-0,032	-0,038
-687,583	-200,000	0,001	-0,070
-686,568	800,000	-0,066	-0,187
-685,554	163,810	-0,063	-0,065
-684,539	-86,315	0,053	-0,012
-683,524	800,000	-0,034	0,074
-682,510	209,817	-0,027	0,031
-681,495	-122,246	-0,037	0,004
-680,481	618,564	0,011	-0,019
-679,466	230,921	0,039	-0,047
-678,451	46,723	-0,052	-0,035
-677,437	298,191	-0,111	-0,149
-676,422	48,792	-0,053	-0,036
-675,408	-200,000	-0,004	-0,029
-674,393	148,441	-0,004	0,004
-673,378	-78,288	0,119	0,030
-672,364	-194,251	-0,083	0,000
-671,349	33,470	0,041	0,026
-670,335	-96,296	0,175	-0,033
-669,320	-109,757	-0,103	0,016
-668,305	457,394	0,004	-0,006
-667,291	71,193	-0,072	0,054
-666,276	43,898	-0,100	-0,066
-665,262	133,484	-0,158	-0,148
-664,247	-200,000	0,044	-0,170
-663,232	-111,277	-0,025	0,004
-662,218	37,442	0,165	-0,106
-661,203	-200,000	0,013	0,147
-660,189	-123,020	-0,046	-0,005
-659,174	-46,950	-0,102	0,036
-658,159	101,325	0,020	0,017
-657,145	-174,904	0,063	0,001
-656,130	-106,393	-0,123	0,020
-655,116	132,815	0,080	0,075
-654,101	800,000	0,024	0,069
-653,086	194,459	0,098	0,108
-652,072	282,480	-0,063	-0,082
-651,057	-129,328	-0,092	0,009
-650,043	-104,128	-0,117	-0,020
-649,028	84,679	0,158	-0,126
-648,014	-124,813	0,085	0,009
-646,999	335,686	0,047	-0,067
-645,984	679,060	0,068	0,129
-644,970	800,000	0,058	0,164
-643,955	-77,374	-0,034	-0,009
-642,941	-171,661	0,044	0,001
-641,926	-200,000	0,009	-0,041
-640,911	131,566	0,125	0,117
-639,897	123,559	0,026	0,024
-638,882	88,856	0,061	0,049
-637,868	1,794	-0,081	-0,042
-636,853	-200,000	-0,001	-0,107
-635,838	377,308	0,050	-0,074
-634,824	197,858	-0,078	-0,086
-633,809	-92,143	0,067	0,014
-632,795	-146,709	0,240	-0,015
-631,780	47,471	-0,055	0,037
-630,765	214,271	-0,065	-0,075
-629,751	-10,814	0,113	-0,054
-628,736	-29,788	-0,045	-0,019
-627,722	800,000	0,034	0,071
-626,707	-200,000	-0,008	0,075
-625,692	-109,770	0,106	0,016
-624,678	-123,530	-0,072	0,008
-623,663	190,569	0,047	-0,051
-622,649	49,207	-0,041	-0,028
-621,634	800,000	-0,038	-0,084
-620,619	-101,175	0,075	0,013
-619,605	-54,035	-0,091	-0,030
-618,590	-55,489	0,054	-0,018
-617,576	365,449	0,076	0,112
-616,561	469,276	-0,061	0,100
-615,546	800,000	0,030	-0,092
-614,532	-200,000	0,004	-0,068
-613,517	164,181	-0,037	-0,037
-612,503	-128,740	-0,049	0,005
-611,488	-117,488	0,026	-0,003
-610,474	-200,000	-0,013	0,066
-609,459	141,674	-0,013	0,012
-608,444	-35,382	-0,079	0,031
-607,430	-165,263	0,033	-0,001
-606,415	29,984	-0,124	-0,076
-605,401	-8,711	-0,036	0,017
-604,386	-200,000	-0,010	-0,087
-603,371	-120,100	-0,052	-0,006
-602,357	689,778	-0,056	0,107
-601,342	45,754	-0,096	-0,064
-600,328	201,201	0,022	-0,024
-599,313	-200,000	-0,009	-0,031
-598,298	800,000	0,053	-0,117
-597,284	800,000	-0,023	-0,061
-596,269	48,351	0,065	-0,044
-595,255	800,000	0,041	0,118
-594,240	-4,994	-0,200	-0,100
-593,225	-42,609	0,089	-0,033
-592,211	70,533	-0,036	-0,027
-591,196	-90,996	-0,104	0,021
-590,182	-200,000	-0,007	-0,052
-589,167	-200,000	-0,010	-0,078
-588,152	-200,000	-0,003	-0,103
-587,138	-200,000	0,014	-0,135
-586,123	503,092	0,092	-0,155
-585,109	-200,000	-0,012	0,082
-584,094	-89,024	-0,015	-0,003
-583,079	269,825	-0,061	0,077
-582,065	-200,000	-0,003	-0,015
-581,050	-191,677	0,083	0,001
-580,036	56,747	0,100	-0,070
-579,021	536,433	-0,081	-0,140
-578,006	-96,139	-0,126	-0,024
-576,992	-123,629	-0,080	-0,009
-575,977	4,305	0,111	0,059
-574,963	214,295	0,051	-0,058
-573,948	276,704	-0,128	0,165
-572,934	800,000	-0,038	0,085
-571,919	42,510	-0,094	-0,062
-570,904	-32,974	-0,035	0,014
-569,890	431,938	0,011	-0,018
-568,875	-42,080	-0,105	0,039
-567,861	-13,007	0,050	0,023
-566,846	53,071	0,039	0,027
-565,831	160,871	-0,039	-0,039
-564,817	-200,000	-0,014	-0,142
-563,802	-185,065	-0,073	-0,001
-562,788	-9,601	0,115	0,055
-561,773	-30,260	-0,055	0,022
-560,758	-200,000	-0,012	-0,065
-559,744	2,395	-0,076	0,040
-558,729	291,168	-0,071	-0,094
-557,715	-130,027	-0,077	-0,008
-556,700	-85,921	0,233	-0,052
-555,685	611,198	-0,035	0,063
-554,671	800,000	-0,003	0,010
-553,656	62,617	0,051	0,037
-552,642	-61,984	0,070	-0,021
-551,627	-200,000	0,001	0,134
-550,612	-32,910	-0,115	-0,046
-549,598	686,879	-0,072	0,137
-548,583	-86,929	-0,079	0,017
-547,569	38,602	0,101	0,065
-546,554	72,070	-0,060	0,045
-545,539	93,376	0,109	0,089
-544,525	-45,438	-0,061	0,022
-543,510	-132,469	-0,175	0,016
-542,496	43,167	0,037	-0,024
-541,481	7,604	-0,026	-0,014
-540,466	800,000	0,032	0,090
-539,452	221,637	-0,047	-0,055
-538,437	-164,673	0,089	0,003
-537,423	697,849	0,040	0,077
-536,408	-200,000	-0,025	0,142
-535,393	160,273	0,022	0,023
-534,379	174,299	0,009	-0,009
-533,364	-28,273	-0,025	-0,010
-532,350	177,240	-0,053	0,056
-531,335	87,878	-0,038	-0,031
-530,321	-200,000	-0,012	0,194
-529,306	800,000	0,022	0,046
-528,291	53,444	-0,078	0,054
-527,277	-41,887	-0,052	-0,019
-526,262	-81,498	-0,095	0,022
-525,248	-200,000	0,014	-0,108
-524,233	-126,619	0,044	-0,005
-523,218	-200,000	0,008	0,073
-522,204	-54,880	0,026	0,008
-521,189	252,084	-0,074	0,091
-520,175	800,000	0,026	-0,056
-519,160	-200,000	0,001	-0,154
-518,145	-85,318	0,186	-0,042
-517,131	212,035	-0,059	0,067
-516,116	-200,000	0,014	0,074
-515,102	446,824	-0,057	0,092
-514,087	-200,000	-0,000	-0,110
-513,072	-200,000	-0,067	-0,220
-512,058	-125,892	-0,055	-0,006
-511,043	800,000	-0,031	0,092
-510,029	311,751	-0,029	0,039
-509,014	49,533	0,114	0,077
-507,999	800,000	-0,018	0,039
-506,985	-182,437	-0,071	0,001
-505,970	285,911	-0,080	-0,105
-504,956	-159,534	-0,144	0,006
-503,941	109,924	-0,050	-0,044
-502,926	452,849	-0,029	0,047
-501,912	251,838	0,077	0,094
-500,897	800,000	-0,030	-0,065
-499,883	25,697	0,072	0,043
-498,868	122,833	0,047	-0,043
-497,853	-200,000	0,022	-0,098
-496,839	91,274	0,053	-0,043
-495,824	-172,985	-0,003	0,000
-494,810	-51,099	0,113	0,038
-493,795	179,802	0,106	0,112
-492,781	290,564	0,025	0,033
-491,766	800,000	-0,050	-0,130
-490,751	448,309	-0,077	-0,123
-489,737	532,657	0,036	-0,062
-488,722	241,116	0,068	0,082
-487,708	11,138	0,087	-0,048
-486,693	800,000	0,022	0,066
-485,678	-185,339	0,104	0,001
-484,664	800,000	-0,078	-0,166
-483,649	88,053	-0,145	-0,116
-482,635	57,879	-0,098	-0,069
-481,620	-21,595	0,051	-0,022
-480,605	323,448	0,060	0,083
-479,591	-200,000	-0,005	0,021
-478,576	-200,000	-0,037	0,160
-477,562	57,245	0,025	-0,017
-476,547	-91,220	-0,067	-0,014
-475,532	768,266	-0,022	0,043
-474,518	186,206	0,055	-0,059
-473,503	-200,000	-0,019	0,134
-472,489	48,381	0,029	-0,019
-471,474	-200,000	0,016	-0,123
-470,459	64,641	-0,109	-0,079
-469,445	54,195	-0,028	0,019
-468,430	152,901	0,041	0,040
-467,416	-29,270	0,090	0,037
-466,401	727,396	-0,029	0,056
-465,386	310,565	-0,153	0,207
-464,372	67,249	0,136	0,100
-463,357	-128,447	-0,072	-0,007
-462,343	-200,000	-0,004	-0,175
-461,328	800,000	-0,031	-0,081
-460,313	-84,244	-0,040	0,009
-459,299	14,778	0,081	-0,046
-458,284	108,869	0,032	-0,028
-457,270	-111,432	-0,056	0,008
-456,255	-138,765	-0,133	-0,010
-455,241	-0,120	0,110	0,056
-454,226	88,155	-0,055	0,044
-453,211	800,000	-0,010	-0,026
-452,197	-55,237	0,173	0,056
-451,182	800,000	0,070	0,208
-450,168	33,150	-0,107	-0,067
-449,153	-200,000	0,005	0,065
-448,138	-200,000	-0,003	-0,110
-447,124	-78,349	0,036	0,009
-446,109	-200,000	0,012	-0,152
-445,095	479,371	-0,041	-0,067
-444,080	-200,000	0,008	-0,027
-443,065	-131,143	0,093	-0,009
-442,051	295,275	-0,080	-0,106
-441,036	-200,000	0,007	0,051
-440,022	-200,000	-0,020	0,077
-439,007	84,749	-0,044	-0,035
-437,992	-2,067	0,144	-0,072
-436,978	-99,249	0,105	0,019
-435,963	329,691	0,083	0,115
-434,949	-35,331	-0,205	0,080
-433,934	40,971	0,065	-0,042
-432,919	-34,490	-0,067	0,026
-431,905	156,247	0,074	0,074
-430,890	178,718	-0,086	0,091
-429,876	69,414	-0,069	-0,051
-428,861	-200,000	0,011	-0,056
-427,846	800,000	-0,038	0,106
-426,832	233,978	-0,080	-0,095
-425,817	359,587	-0,066	-0,096
-424,803	-108,018	0,077	0,012
-423,788	315,644	-0,032	0,043
-422,773	582,792	0,026	-0,047
-421,759	-3,935	0,168	-0,084
-420,744	-200,000	-0,024	0,096
-419,730	398,683	-0,096	-0,145
-418,715	800,000	0,006	-0,016
-417,701	-75,853	-0,071	0,018
-416,686	-23,006	0,045	-0,019
-415,671	800,000	0,027	0,078
-414,657	800,000	0,044	0,102
-413,642	-105,648	0,077	-0,012
-412,628	-42,372	0,051	-0,019
-411,613	453,550	-0,021	-0,034
-410,598	97,076	-0,030	-0,025
-409,584	-200,000	-0,002	-0,005
-408,569	521,606	0,048	0,082
-407,555	-94,486	0,100	-0,019
-406,540	-200,000	-0,014	0,060
-405,525	-68,775	-0,068	-0,019
-404,511	-53,812	-0,141	-0,046
-403,496	-130,830	-0,066	0,006
-402,482	165,616	0,028	-0,029
-401,467	-24,982	0,058	0,025
-400,452	-200,000	-0,040	0,209
-399,438	800,000	0,035	0,078
-398,423	800,000	0,035	-0,090
-397,409	800,000	0,018	0,055
-396,394	-200,000	0,007	-0,074
-395,379	246,854	0,032	0,038
-394,365	-200,000	0,004	-0,076
-393,350	-74,700	-0,130	-0,033
-392,336	-200,000	0,035	0,135
-391,321	800,000	-0,017	0,033
-390,306	116,710	-0,116	0,102
-389,292	650,867	0,017	-0,032
-388,277	234,416	-0,102	0,121
-387,263	51,748	0,117	0,080
-386,248	-200,000	0,002	0,084
-385,233	-122,175	-0,027	-0,003
-384,219	-27,223	-0,038	0,016
-383,204	800,000	-0,032	-0,075
-382,190	-61,552	0,039	-0,012
-381,175	-141,008	-0,129	-0,009
-380,160	118,442	0,011	0,010
-379,146	-155,375	0,065	-0,003
-378,131	-131,496	0,077	0,007
-377,117	-200,000	0,030	-0,117
-376,102	-200,000	0,011	-0,138
-375,088	29,397	-0,081	-0,050
-374,073	220,517	-0,061	-0,070
-373,058	-135,010	0,037	0,003
-372,044	-200,000	0,003	0,024
-371,029	83,090	0,093	0,073
-370,015	-200,000	-0,012	-0,143
-369,000	-110,895	-0,071	0,010
-367,985	-77,584	-0,057	0,014
-366,971	-200,000	0,014	-0,111
-365,956	-91,022	0,153	-0,031
-364,942	210,846	-0,064	0,072
-363,927	119,279	0,116	0,103
-362,912	202,237	0,066	0,073
-361,898	11,653	-0,092	-0,051
-360,883	-200,000	-0,009	0,157
-359,869	-144,069	0,041	0,003
-358,854	7,026	-0,096	-0,051
-357,839	-109,306	0,017	0,003
-356,825	113,060	0,021	-0,018
-355,810	-148,122	0,152	0,009
-354,796	45,751	-0,077	-0,051
-353,781	-200,000	-0,015	-0,101
-352,766	247,999	-0,086	0,104
-351,752	-200,000	0,012	0,110
-350,737	-200,000	0,001	0,052
-349,723	800,000	-0,018	-0,036
-348,708	340,557	-0,038	-0,054
-347,693	-200,000	0,013	-0,069
-346,679	800,000	0,035	0,097
-345,664	79,265	0,139	0,107
-344,650	-2,979	0,045	0,022
-343,635	-200,000	0,004	0,096
-342,620	-200,000	-0,013	0,118
-341,606	195,776	-0,044	0,048
-340,591	-25,581	0,070	-0,029
-339,577	-200,000	0,008	-0,040
-338,562	159,486	0,018	0,018
-337,548	106,452	-0,075	0,064
-336,533	259,469	-0,020	0,025
-335,518	39,765	-0,124	0,080
-334,504	692,842	0,018	0,035
-333,489	290,102	0,066	-0,087
-332,475	210,869	-0,060	-0,067
-331,460	-200,000	0,006	0,098
-330,445	-88,057	0,052	-0,011
-329,431	-153,160	0,150	-0,007
-328,416	-152,594	0,106	0,005
-327,402	-65,654	0,131	-0,037
-326,387	240,341	0,110	-0,131
-325,372	245,171	-0,062	-0,075
-324,358	800,000	-0,014	-0,041
-323,343	780,686	-0,072	-0,143
-322,329	-200,000	-0,033	0,107
-321,314	-84,069	0,052	0,012
-320,299	-200,000	0,023	0,117
-319,285	429,371	-0,092	0,143
-318,270	94,579	0,063	0,052
-317,256	-98,645	-0,047	-0,008
-316,241	464,598	-0,105	-0,168
-315,226	-200,000	-0,002	-0,041
-314,212	122,866	0,123	-0,110
-313,197	-200,000	-0,003	0,027
-312,183	281,814	0,071	-0,091
-311,168	-62,724	-0,061	-0,018
-310,153	445,054	-0,025	0,039
-309,139	-16,323	-0,073	0,033
-308,124	61,256	0,085	-0,061
-307,110	-58,452	0,090	-0,028
-306,095	-200,000	-0,004	0,160
-305,080	-200,000	-0,020	-0,128
-304,066	123,650	-0,059	-0,053
-303,051	627,545	-0,044	-0,080
-302,037	-200,000	0,025	0,097
-301,022	-200,000	-0,013	-0,046
-300,008	45,195	0,029	-0,019
-298,993	800,000	0,013	0,027
-297,978	-105,917	-0,097	0,016
-296,964	19,678	-0,020	0,011
-295,949	800,000	0,031	-0,080
-294,935	800,000	-0,036	-0,113
-293,920	-16,852	0,100	-0,045
-292,905	356,444	0,065	-0,093
-291,891	12,741	-0,057	0,032
-290,876	16,969	0,046	0,026
-289,862	800,000	0,011	-0,028
-288,847	86,758	-0,111	-0,088
-287,832	-200,000	0,035	-0,142
-286,818	-200,000	-0,008	0,079
-285,803	-3,010	0,022	-0,011
-284,789	-200,000	-0,002	-0,010
-283,774	215,061	-0,041	0,047
-282,759	800,000	0,029	-0,058
-281,745	-200,000	-0,007	-0,024
-280,730	2,597	-0,168	0,087
-279,716	-113,969	0,078	0,011
-278,701	800,000	0,015	-0,039
-277,686	-200,000	0,021	0,115
-276,672	-200,000	-0,013	-0,117
-275,657	-200,000	-0,018	-0,073
-274,643	-105,249	0,079	-0,013
-273,628	-107,757	-0,093	0,014
-272,613	-200,000	-0,010	0,094
-271,599	-177,977	0,120	0,002
-270,584	-28,102	0,093	0,038
-269,570	-189,789	0,130	0,001
-268,555	-200,000	-0,001	0,082
-267,540	309,102	0,013	-0,018
-266,526	655,292	0,055	0,102
-265,511	194,121	-0,099	0,108
-264,497	-125,568	0,011	-0,001
-263,482	-61,653	0,032	0,009
-262,467	-29,212	0,079	-0,032
-261,453	149,870	0,069	0,067
-260,438	-71,282	0,059	0,016
-259,424	800,000	-0,047	0,126
-258,409	800,000	0,029	-0,077
-257,395	-6,126	-0,054	0,026
-256,380	-200,000	-0,010	-0,070
-255,365	55,415	0,026	0,018
-254,351	82,356	-0,059	0,046
-253,336	175,533	0,080	-0,083
-252,322	-41,324	0,052	-0,019
-251,307	800,000	0,057	-0,121
-250,292	-200,000	0,007	-0,125
-249,278	-200,000	-0,001	0,060
-248,263	212,456	0,050	0,056
-247,249	-200,000	-0,026	0,125
-246,234	800,000	-0,035	-0,074
-245,219	87,789	-0,084	0,067
-244,205	-200,000	0,003	0,023
-243,190	355,029	-0,074	-0,106
-242,176	-107,745	0,117	0,018
-241,161	209,331	0,081	0,091
-240,146	800,000	0,026	0,055
-239,132	200,689	0,058	0,064
-238,117	-15,227	0,040	0,018
-237,103	-165,694	-0,048	0,001
-236,088	-87,344	0,077	0,017
-235,073	59,577	0,031	0,022
-234,059	403,228	0,023	-0,035
-233,044	-101,186	0,179	0,031
-232,030	123,926	-0,093	0,084
-231,015	310,096	-0,082	-0,109
-230,000	-79,629	-0,078	0,019
-228,986	142,262	-0,043	-0,041
-227,971	-0,292	-0,033	0,017
-226,957	71,759	0,055	0,041
-225,942	-130,757	-0,148	-0,014
-224,927	800,000	-0,017	0,037
-223,913	-200,000	0,055	-0,180
-222,898	-200,000	-0,036	-0,147
-221,884	14,910	0,096	-0,054
-220,869	78,809	0,026	-0,020
-219,855	302,709	0,028	0,037
-218,840	-58,497	0,112	-0,034
-217,825	-86,482	-0,086	0,019
-216,811	739,068	-0,033	0,064
-215,796	401,713	0,025	0,037
-214,782	-86,026	-0,085	-0,019
-213,767	403,353	-0,032	-0,048
-212,752	-10,065	0,092	0,043
-211,738	-106,544	0,087	-0,014
-210,723	-200,000	0,006	0,075
-209,709	-82,311	-0,067	0,015
-208,694	-200,000	-0,024	-0,119
-207,679	462,723	0,010	-0,016
-206,665	-71,682	-0,111	-0,029
-205,650	359,638	-0,048	0,069
-204,636	624,122	0,057	0,103
-203,621	-200,000	0,011	0,115
-202,606	-200,000	-0,024	-0,159
-201,592	55,236	-0,033	0,022
-200,577	-200,000	-0,005	-0,059
-199,563	171,712	0,032	-0,033
-198,548	177,850	0,143	0,149
-197,533	334,118	0,036	0,049
-196,519	-200,000	-0,011	-0,041
-195,504	18,544	0,042	0,024
-194,490	184,288	-0,124	-0,131
-193,475	24,384	-0,108	-0,064
-192,460	249,781	0,082	0,099
-191,446	227,718	-0,032	-0,037
-190,431	-43,136	-0,110	0,039
-189,417	621,665	0,042	-0,075
-188,402	-200,000	0,012	0,049
-187,387	-200,000	-0,002	-0,115
-186,373	800,000	0,028	-0,061
-185,358	238,142	-0,087	-0,104
-184,344	561,449	0,025	0,044
-183,329	800,000	-0,037	0,112
-182,315	-73,154	0,129	-0,034
-181,300	103,574	0,122	-0,102
-180,285	800,000	-0,056	0,141
-179,271	-104,138	-0,160	-0,026
-178,256	5,902	-0,114	0,060
-177,242	-51,185	0,050	0,017
-176,227	-110,315	0,042	-0,006
-175,212	-36,929	-0,056	0,021
-174,198	1,448	-0,034	0,017
-173,183	326,267	-0,067	0,092
-172,169	351,183	-0,085	0,120
-171,154	124,833	-0,077	-0,070
-170,139	800,000	0,042	-0,106
-169,125	-98,170	-0,107	0,019
-168,110	341,362	0,059	0,083
-167,096	-59,968	-0,092	0,028
-166,081	-200,000	0,007	-0,044
-165,066	800,000	-0,017	-0,035
-164,052	54,227	0,028	-0,019
-163,037	800,000	-0,013	-0,026
-162,023	800,000	0,063	0,190
-161,008	44,364	0,031	0,020
-159,993	-114,251	0,079	-0,011
-158,979	252,067	0,057	-0,069
-157,964	166,675	-0,052	-0,052
-156,950	50,072	-0,056	0,038
-155,935	-200,000	-0,006	-0,051
-154,920	-27,352	0,067	-0,028
-153,906	365,681	-0,085	-0,123
-152,891	-200,000	-0,013	0,133
-151,877	800,000	-0,019	-0,054
-150,862	-160,514	-0,086	-0,003
-149,847	540,606	0,091	-0,154
-148,833	-200,000	-0,015	-0,086
-147,818	75,824	0,009	-0,007
-146,804	191,337	0,051	0,055
-145,789	112,667	-0,069	-0,060
-144,775	-76,405	-0,123	0,030
-143,760	-200,000	0,004	-0,101
-142,745	-39,430	-0,055	0,020
-141,731	800,000	0,031	0,093
-140,716	800,000	-0,038	0,096
-139,702	41,986	0,099	0,064
-138,687	-149,787	-0,166	0,009
-137,672	40,416	0,074	-0,048
-136,658	-200,000	-0,026	-0,153
-135,643	685,996	-0,076	-0,143
-134,629	-100,536	0,067	0,012
-133,614	-200,000	0,030	-0,181
-132,599	-200,000	-0,034	-0,160
-131,585	61,760	0,071	0,050
-130,570	-200,000	-0,006	-0,046
-129,556	-200,000	0,003	-0,052
-128,541	42,763	-0,122	-0,079
-127,526	-36,955	0,085	0,032
-126,512	-42,441	0,029	-0,010
-125,497	-59,694	-0,075	0,023
-124,483	800,000	0,034	-0,087
-123,468	484,681	-0,041	0,066
-122,453	24,614	-0,079	0,046
-121,439	-200,000	0,007	0,023
-120,424	-12,907	-0,108	-0,050
-119,410	654,006	0,050	0,091
-118,395	97,138	0,038	0,031
-117,380	164,427	0,091	0,092
-116,366	-123,552	-0,156	-0,017
-115,351	-200,000	0,020	-0,093
-114,337	800,000	-0,014	0,037
-113,322	-107,818	0,055	-0,008
-112,307	-200,000	0,014	-0,088
-111,293	102,058	0,038	0,031
-110,278	107,574	0,055	0,047
-109,264	-20,486	-0,125	0,054
-108,249	-200,000	0,005	-0,026
-107,234	-165,935	-0,049	0,001
-106,220	-47,300	-0,130	0,045
-105,205	349,110	-0,023	-0,032
-104,191	135,433	-0,058	0,054
-103,176	101,664	0,117	-0,097
-102,162	-200,000	0,003	-0,033
-101,147	-44,059	0,049	-0,017
-100,132	800,000	0,017	0,036
-99,118	-81,836	0,049	-0,011
-98,103	-200,000	-0,003	0,051
-97,089	106,564	0,134	0,113
-96,074	-50,673	0,064	-0,021
-95,059	800,000	-0,066	-0,193
-94,045	-200,000	0,005	-0,079
-93,030	-57,388	0,049	-0,015
-92,016	780,689	0,077	-0,150
-91,001	-200,000	0,006	0,063
-89,986	148,389	0,063	-0,060
-88,972	-15,354	0,087	-0,039
-87,957	255,712	-0,119	-0,145
-86,943	43,802	0,023	-0,015
-85,928	-139,330	0,058	-0,004
-84,913	8,458	-0,092	0,049
-83,899	2,640	-0,114	0,058
-82,884	624,655	-0,068	0,123
-81,870	45,591	0,101	-0,066
-80,855	-200,000	-0,015	0,141
-79,840	302,351	-0,099	0,130
-78,826	-90,809	-0,164	-0,033
-77,811	-37,763	-0,066	0,025
-76,797	246,895	-0,031	-0,038
-75,782	230,240	0,065	-0,076
-74,767	155,774	0,113	0,111
-73,753	108,967	0,062	-0,052
-72,738	754,413	-0,060	0,116
-71,724	481,026	-0,046	-0,074
-70,709	-200,000	-0,042	-0,141
-69,694	800,000	0,010	0,029
-68,680	-200,000	0,010	-0,123
-67,665	800,000	0,010	-0,031
-66,651	413,002	0,030	-0,046
-65,636	-4,924	-0,067	-0,033
-64,622	-81,230	0,112	0,026
-63,607	67,325	-0,085	-0,062
-62,592	103,848	-0,034	-0,028
-61,578	616,568	0,108	0,192
-60,563	-153,290	-0,025	-0,001
-59,549	800,000	-0,019	0,044
-58,534	-115,254	-1,300	-0,173
-57,519	331,214	-1,605	-2,201
-56,505	-200,000	-0,495	-4,505
-55,490	84,755	0,987	0,766
-54,476	800,000	4,630	11,177
-53,461	-200,000	17,255	269,265
-52,446	800,000	714,821	2181,151
-51,432	551,755	1629,909	2786,918
-50,417	81,401	1656,079	1268,736
-49,403	24,448	1530,132	895,327
-48,388	18,414	1453,598	821,496
-47,373	18,569	1443,101	816,271
-46,359	18,307	1433,827	809,747
-45,344	16,735	1429,120	799,596
-44,330	16,649	1427,483	798,237
-43,315	16,687	1425,689	797,384
-42,300	16,727	1423,941	796,567
-41,286	16,763	1422,912	796,126
-40,271	16,680	1421,607	794,972
-39,257	16,637	1420,288	794,003
-38,242	16,710	1418,880	793,527
-37,227	16,710	1417,638	792,801
-36,213	16,702	1416,519	792,108
-35,198	16,678	1415,404	791,340
-34,184	16,678	1414,491	790,797
-33,169	16,690	1413,036	790,007
-32,154	16,701	1412,288	789,610
-31,140	16,734	1410,691	788,842
-30,125	16,727	1409,915	788,343
-29,111	16,754	1408,330	787,551
-28,096	16,721	1407,417	786,856
-27,082	16,686	1406,216	785,988
-26,067	16,678	1404,818	785,137
-25,052	16,681	1403,892	784,603
-24,038	16,616	1403,028	783,786
-23,023	16,609	1402,080	783,196
-22,009	16,574	1401,116	782,463
-20,994	16,586	1400,232	781,991
-19,979	16,591	1399,384	781,513
-18,965	16,562	1398,400	780,796
-17,950	16,564	1397,283	780,149
-16,936	16,575	1396,314	779,630
-15,921	16,533	1395,150	778,756
-14,906	16,552	1394,215	778,288
-13,892	16,524	1393,461	777,707
-12,877	16,541	1392,418	777,173
-11,863	16,520	1391,589	776,582
-10,848	16,535	1390,650	776,100
-9,833	16,521	1389,737	775,493
-8,819	16,498	1388,765	774,815
-7,804	16,487	1387,774	774,180
-6,790	16,445	1386,894	773,465
-5,775	16,441	1385,746	772,774
-4,760	16,433	1385,203	772,406
-3,746	16,424	1384,259	771,808
-2,731	16,406	1383,360	771,193
-1,717	16,425	1382,270	770,642
-0,702	16,399	1380,548	769,531
0,313	20,201	1302,492	743,548
1,327	36,684	708,264	442,595
2,342	57,046	125,801	86,818
3,356	1,340	16,600	8,428
4,371	-7,051	3,131	1,501
5,386	9,570	0,517	0,277
6,400	185,672	-0,113	0,120
7,415	70,475	-0,237	-0,173
8,429	-84,966	-0,294	-0,065
9,444	154,847	-0,313	-0,305
10,459	24,594	-0,268	-0,157
11,473	-139,525	-0,166	0,012
12,488	151,102	-0,352	-0,339
13,502	11,083	-0,398	-0,215
14,517	22,677	-0,242	-0,140
15,531	75,507	-0,402	-0,300
16,546	180,133	-0,285	-0,297
17,561	290,609	-0,269	-0,347
18,575	352,082	-0,090	-0,126
19,590	-28,056	-0,379	-0,154
20,604	140,933	-0,131	-0,122
21,619	-67,769	-0,504	-0,139
22,634	103,868	-0,427	-0,355
23,648	80,704	-0,425	-0,324
24,663	216,134	-0,347	-0,391
25,677	17,828	-0,365	-0,205
26,692	188,811	-0,226	-0,240
27,707	34,899	-0,396	-0,245
28,721	-9,298	-0,478	-0,225
29,736	47,795	-0,435	-0,287
30,750	185,076	-0,329	-0,345
31,765	27,155	-0,428	-0,254
32,780	60,974	-0,391	-0,274
33,794	156,516	-0,277	-0,271
34,809	227,337	-0,242	-0,279
35,823	44,666	-0,358	-0,232
36,838	153,444	-0,345	-0,334
37,853	135,008	-0,326	-0,299
38,867	132,362	-0,415	-0,378
39,882	65,283	-0,338	-0,241
40,896	378,384	-0,215	-0,311
41,911	155,734	-0,295	-0,287
42,926	314,802	-0,281	-0,375
43,940	-1,527	-0,385	-0,191
44,955	302,540	-0,307	-0,403
45,969	162,943	-0,305	-0,303
46,984	138,956	-0,273	-0,253
47,999	101,886	-0,338	-0,278
49,013	127,250	-0,323	-0,289
50,028	36,303	-0,340	-0,211
51,042	11,210	-0,392	-0,211
52,057	30,964	-0,457	-0,276
53,071	162,919	-0,298	-0,296
54,086	57,037	-0,398	-0,274
55,101	702,642	-0,134	-0,250
56,115	119,012	-0,239	-0,209
57,130	82,172	-0,397	-0,304
58,144	-55,034	-0,384	-0,121
59,159	254,138	-0,318	-0,384
60,174	75,399	-0,491	-0,365
61,188	29,107	-0,379	-0,226
62,203	0,328	-0,382	-0,192
63,217	29,830	-0,302	-0,181
64,232	-57,288	-0,323	-0,099
65,247	96,041	-0,351	-0,283
66,261	172,613	-0,271	-0,275
67,276	118,280	-0,340	-0,296
68,290	176,112	-0,288	-0,295
69,305	152,183	-0,303	-0,292
70,320	24,502	-0,339	-0,197
71,334	594,913	-0,145	-0,254
72,349	117,483	-0,349	-0,302
73,363	98,992	-0,330	-0,269
74,378	117,331	-0,407	-0,352
75,393	151,684	-0,234	-0,225
76,407	99,318	-0,235	-0,191
77,422	261,455	-0,184	-0,225
78,436	37,590	-0,330	-0,206
79,451	4,159	-0,211	-0,109
80,466	146,485	-0,296	-0,280
81,480	22,236	-0,397	-0,228
82,495	134,839	-0,339	-0,309
83,509	-104,085	-0,229	-0,037
84,524	-19,190	-0,358	-0,156
85,539	-71,938	-0,223	-0,058
86,553	112,339	-0,276	-0,235
87,568	11,546	-0,448	-0,241
88,582	30,251	-0,372	-0,223
89,597	96,168	-0,337	-0,271
90,611	97,663	-0,216	-0,174
91,626	-30,136	-0,266	-0,106
92,641	-40,722	-0,370	-0,134
93,655	149,728	-0,259	-0,247
94,670	54,419	-0,244	-0,165
95,684	139,909	-0,242	-0,224
96,699	-67,826	-0,346	-0,094
97,714	-175,137	-0,303	-0,006
98,728	228,785	-0,219	-0,251
99,743	467,456	-0,171	-0,271
100,757	16,860	-0,237	-0,131
101,772	204,137	-0,217	-0,237
102,787	421,606	-0,152	-0,230
103,801	765,298	-0,156	-0,298
104,816	-5,727	-0,305	-0,146
105,830	277,370	-0,170	-0,213
106,845	323,701	-0,252	-0,339
107,860	27,266	-0,196	-0,115
108,874	172,713	-0,138	-0,139
109,889	-24,616	-0,272	-0,113
110,903	123,389	-0,258	-0,227
111,918	254,747	-0,137	-0,165
112,933	271,058	-0,151	-0,187
113,947	301,069	-0,124	-0,161
114,962	-102,557	-0,324	-0,054
115,976	114,978	-0,319	-0,273
116,991	-76,051	-0,344	-0,085
118,006	83,997	-0,342	-0,262
119,020	-20,497	-0,228	-0,098
120,035	-27,544	-0,312	-0,126
121,049	-1,889	-0,217	-0,107
122,064	-79,412	-0,270	-0,064
123,079	69,564	-0,288	-0,208
124,093	52,658	-0,321	-0,215
125,108	800,000	-0,147	-0,336
126,122	86,051	-0,364	-0,281
127,137	45,927	-0,216	-0,140
128,151	-70,573	-0,245	-0,065
129,166	172,332	-0,173	-0,175
130,181	191,309	-0,245	-0,259
131,195	108,568	-0,311	-0,260
132,210	82,951	-0,249	-0,189
133,224	119,957	-0,278	-0,242
134,239	353,698	-0,222	-0,310
135,254	88,887	-0,243	-0,189
136,268	48,237	-0,232	-0,152
137,283	-62,656	-0,298	-0,086
138,297	146,834	-0,258	-0,243
139,312	100,269	-0,245	-0,199
140,327	182,317	-0,209	-0,216
141,341	264,905	-0,202	-0,247
142,356	168,372	-0,188	-0,188
143,370	-51,520	-0,334	-0,109
144,385	435,367	-0,201	-0,306
145,400	25,969	-0,267	-0,155
146,414	183,942	-0,317	-0,329
147,429	129,802	-0,295	-0,264
148,443	800,000	-0,177	-0,355
149,458	560,035	-0,173	-0,294
150,473	64,736	-0,186	-0,131
151,487	-58,276	-0,293	-0,089
152,502	-15,980	-0,252	-0,112
153,516	94,191	-0,292	-0,232
154,531	87,440	-0,344	-0,266
155,546	132,753	-0,213	-0,192
156,560	-58,870	-0,121	0,036
157,575	449,434	-0,066	-0,103
158,589	439,239	-0,148	-0,227
159,604	32,263	-0,211	-0,127
160,619	281,037	-0,220	-0,276
161,633	288,335	-0,224	-0,285
162,648	40,158	-0,339	-0,213
163,662	-104,124	-0,251	-0,040
164,677	-71,339	-0,298	-0,077
165,692	89,323	-0,276	-0,215
166,706	-46,422	-0,272	-0,093
167,721	-7,919	-0,333	-0,156
168,735	158,447	-0,200	-0,194
169,750	-23,332	-0,240	-0,100
170,764	6,792	-0,203	-0,105
171,779	-147,945	-0,192	-0,011
172,794	36,658	-0,218	-0,134
173,808	66,794	-0,272	-0,193
174,823	190,127	-0,246	-0,258
175,837	156,322	-0,250	-0,241
176,852	284,851	-0,153	-0,193
177,867	96,735	-0,207	-0,166
178,881	71,907	-0,151	-0,110
179,896	218,880	-0,159	-0,178
180,910	-50,833	-0,220	-0,072
181,925	2,168	-0,219	-0,110
182,940	-123,562	-0,333	-0,036
183,954	58,181	-0,206	-0,140
184,969	263,199	-0,124	-0,150
185,983	-111,927	-0,209	-0,029
186,998	206,967	-0,228	-0,249
188,013	-99,974	-0,237	-0,041
189,027	61,990	-0,279	-0,194
190,042	649,347	-0,151	-0,271
191,056	213,307	-0,166	-0,183
192,071	74,240	-0,220	-0,161
193,086	170,033	-0,127	-0,127
194,100	238,000	-0,148	-0,171
195,115	45,707	-0,265	-0,170
196,129	66,897	-0,264	-0,187
197,144	32,061	-0,259	-0,155
198,159	-3,137	-0,397	-0,192
199,173	4,429	-0,286	-0,145
200,188	51,355	-0,308	-0,204
201,202	119,647	-0,201	-0,174
202,217	38,531	-0,195	-0,121
203,232	278,952	-0,140	-0,175
204,246	164,282	-0,320	-0,315
205,261	16,757	-0,225	-0,124
206,275	183,360	-0,216	-0,223
207,290	11,960	-0,126	-0,067
208,304	400,847	-0,080	-0,117
209,319	-69,565	-0,263	-0,070
210,334	-7,648	-0,265	-0,124
211,348	-39,269	-0,209	-0,076
212,363	279,965	-0,073	-0,091
213,377	57,417	-0,290	-0,197
214,392	-200,000	-0,055	-0,295
215,407	-200,000	-0,039	-0,190
216,421	-19,881	-0,281	-0,120
217,436	-105,877	-0,172	-0,027
218,450	212,550	-0,227	-0,249
219,465	236,345	-0,137	-0,158
220,480	-5,827	-0,168	-0,080
221,494	373,228	-0,149	-0,212
222,509	28,025	-0,180	-0,105
223,523	360,349	-0,156	-0,217
224,538	167,448	-0,190	-0,188
225,553	25,172	-0,262	-0,151
226,567	25,577	-0,217	-0,125
227,582	135,585	-0,191	-0,173
228,596	246,046	-0,218	-0,255
229,611	171,409	-0,138	-0,138
230,626	-193,482	-0,211	0,001
231,640	-71,558	-0,216	-0,056
232,655	-15,924	-0,208	-0,092
233,669	198,391	-0,079	-0,084
234,684	129,763	-0,133	-0,118
235,699	314,249	-0,126	-0,165
236,713	-114,040	-0,154	-0,020
237,728	294,271	-0,095	-0,120
238,742	137,946	-0,135	-0,123
239,757	161,890	-0,160	-0,156
240,772	-56,393	-0,157	-0,048
241,786	-35,707	-0,239	-0,089
242,801	198,105	-0,145	-0,154
243,815	-0,266	-0,199	-0,098
244,830	-79,130	-0,214	-0,050
245,844	-200,000	0,020	-0,213
246,859	-17,550	-0,298	-0,130
247,874	221,691	-0,239	-0,267
248,888	7,032	-0,247	-0,127
249,903	96,846	-0,164	-0,130
250,917	187,203	-0,142	-0,147
251,932	-109,101	-0,173	-0,025
252,947	40,704	-0,229	-0,143
253,961	3,405	-0,224	-0,113
254,976	-166,935	-0,196	-0,005
255,990	89,349	-0,167	-0,129
257,005	205,032	-0,165	-0,178
258,020	182,491	-0,110	-0,112
259,034	12,168	-0,180	-0,096
260,049	262,899	-0,230	-0,277
261,063	64,941	-0,195	-0,136
262,078	14,357	-0,230	-0,124
263,093	93,330	-0,154	-0,120
264,107	800,000	-0,146	-0,291
265,122	415,478	-0,022	-0,032
266,136	-200,000	-0,038	-0,118
267,151	-110,378	-0,160	0,023
268,166	33,820	-0,211	-0,127
269,180	-38,161	-0,261	-0,095
270,195	800,000	-0,123	-0,243
271,209	60,116	-0,176	-0,120
272,224	176,462	-0,103	-0,104
273,239	-14,196	-0,169	-0,075
274,253	69,825	-0,139	-0,099
275,268	-17,762	-0,156	-0,068
276,282	252,142	-0,134	-0,158
277,297	-200,000	-0,039	-0,119
278,312	-200,000	-0,039	-0,352
279,326	-144,082	-0,109	-0,007
280,341	727,440	-0,041	-0,076
281,355	117,275	-0,217	-0,185
282,370	65,100	-0,175	-0,122
283,384	314,801	-0,172	-0,224
284,399	244,375	-0,148	-0,172
285,414	160,463	-0,164	-0,158
286,428	-200,000	-0,075	-0,243
287,443	-171,929	-0,297	-0,007
288,457	-109,045	-0,229	0,033
289,472	243,946	-0,061	-0,071
290,487	146,093	-0,259	-0,240
291,501	134,951	-0,240	-0,216
292,516	61,442	-0,084	-0,058
293,530	99,994	-0,277	-0,221
294,545	207,890	-0,131	-0,141
295,560	-48,821	-0,124	-0,041
296,574	79,666	-0,181	-0,134
297,589	-110,425	-0,166	0,024
298,603	68,886	-0,153	-0,109
299,618	322,028	-0,111	-0,146
300,633	130,232	-0,102	-0,090
301,647	-67,153	-0,205	-0,055
302,662	43,980	-0,135	-0,085
303,676	679,343	-0,138	-0,248
304,691	612,321	-0,123	-0,214
305,706	544,380	-0,127	-0,210
306,720	368,275	-0,132	-0,184
307,735	274,033	-0,096	-0,118
308,749	-200,000	0,005	-0,031
309,764	-64,013	-0,120	-0,034
310,779	-200,000	-0,001	-0,010
311,793	-56,029	-0,189	-0,058
312,808	800,000	-0,081	-0,202
313,822	416,017	-0,089	-0,132
314,837	107,865	-0,182	-0,150
315,852	-167,917	-0,205	0,005
316,866	-200,000	-0,018	-0,183
317,881	-105,467	-0,221	-0,034
318,895	-103,441	-0,152	-0,024
319,910	-96,047	-0,088	-0,016
320,925	800,000	-0,051	-0,125
321,939	182,155	-0,254	-0,258
322,954	-105,866	-0,139	-0,021
323,968	-200,000	0,008	0,111
324,983	428,845	-0,033	-0,049
325,997	-6,554	-0,128	-0,060
327,012	88,798	-0,140	-0,107
328,027	326,594	-0,117	-0,155
329,041	-47,936	-0,149	-0,049
330,056	619,209	-0,078	-0,135
331,070	543,366	-0,019	0,031
332,085	355,891	-0,089	-0,122
333,100	61,907	-0,196	-0,135
334,114	100,905	-0,175	-0,140
335,129	138,511	-0,186	-0,168
336,143	121,735	-0,120	-0,103
337,158	360,734	-0,104	-0,144
338,173	-200,000	-0,031	-0,164
339,187	89,339	-0,020	0,015
340,202	-109,251	-0,102	0,015
341,216	26,016	-0,118	-0,067
342,231	-30,930	-0,291	-0,112
343,246	-156,311	-0,149	0,006
344,260	800,000	-0,116	-0,265
345,275	61,349	-0,045	0,031
346,289	-200,000	-0,019	0,068
347,304	-49,667	-0,188	-0,061
348,319	20,587	-0,185	-0,103
349,333	87,467	-0,168	0,128
350,348	135,291	-0,089	-0,080
351,362	338,780	-0,039	-0,053
352,377	0,045	-0,097	-0,047
353,392	800,000	-0,033	-0,092
354,406	-99,953	-0,167	0,028
355,421	210,531	1313,999	1420,287
356,435	162,078	1474,677	1420,824
