DTS Sentinel unit serial number:	SN410029Multiplexer serial number:	ORYXHardware model number:	OX2-SRSoftware version number:	ORYX F/W v4,00 Oryx Data Collector v3.7.2.0data status	okinstallation	B3 Nyhavnadifferential loss correction	single-endedforward channel	channel 1reverse channel	N/Adate	2023/12/02time	20:27:30forward acquisition time	300,00reverse acquisition time	0,00gamma	499,1914k internal	0,3201k external	0,3201temperature offset calibration	1,0000default loss term (dB/km)	0,3820temperature slope calibration	1,0000multiplexer offset coefficient	1,0000multiplexer slope coefficient	1,0000fibre end	0,00T internal ref (°C)	13,28T ext. ref 1 (°C)	-1,80T ext. ref 2 (°C)	-1,82length (m)	temperature (°C)	Stokes	anti-Stokes-744,400	112,766	-0,260	-0,229
-743,385	-200,000	-0,039	0,290
-742,371	156,608	-0,208	-0,210
-741,356	800,000	0,083	0,216
-740,342	174,139	-0,200	-0,210
-739,327	327,398	0,160	0,224
-738,312	82,789	-0,202	-0,160
-737,298	-200,000	-0,005	0,272
-736,283	800,000	-0,106	-0,293
-735,269	-200,000	0,056	0,414
-734,254	234,212	-0,247	-0,296
-733,239	11,382	-0,168	0,093
-732,225	344,157	-0,198	-0,284
-731,210	406,552	0,150	0,232
-730,196	-159,619	0,051	0,002
-729,181	-126,110	-0,209	0,023
-728,167	205,834	-0,129	-0,146
-727,152	781,925	-0,023	0,046
-726,137	-108,855	-0,040	-0,006
-725,123	-180,230	-0,103	-0,002
-724,108	800,000	0,051	-0,125
-723,094	9,085	-0,085	-0,047
-722,079	-200,000	0,010	-0,112
-721,064	48,367	-0,124	-0,084
-720,050	800,000	-0,059	0,122
-719,035	180,310	-0,054	-0,058
-718,021	-43,670	-0,076	0,028
-717,006	789,172	-0,066	-0,132
-715,991	194,734	-0,130	-0,144
-714,977	446,981	-0,051	-0,082
-713,962	434,547	-0,026	0,041
-712,948	501,873	0,080	-0,134
-711,933	621,016	0,042	-0,078
-710,918	-22,314	0,038	0,017
-709,904	114,944	0,021	-0,019
-708,889	800,000	0,043	0,108
-707,875	-43,342	-0,145	0,053
-706,860	146,795	0,011	-0,011
-705,845	-135,968	0,023	0,002
-704,831	498,454	-0,004	-0,007
-703,816	-56,976	0,091	0,029
-702,802	-200,000	-0,007	0,038
-701,787	492,725	0,046	-0,076
-700,772	800,000	-0,079	-0,206
-699,758	-200,000	-0,006	-0,097
-698,743	366,994	0,023	0,035
-697,729	-94,966	0,104	-0,020
-696,714	227,311	-0,060	-0,071
-695,699	67,755	-0,045	-0,033
-694,685	654,996	-0,056	-0,105
-693,670	138,424	0,027	-0,026
-692,656	-200,000	-0,021	-0,074
-691,641	-136,647	0,098	0,008
-690,627	-200,000	0,006	0,103
-689,612	156,548	-0,039	-0,039
-688,597	160,441	-0,099	0,101
-687,583	12,782	-0,063	-0,035
-686,568	800,000	-0,031	0,067
-685,554	-200,000	0,006	0,027
-684,539	40,911	-0,077	0,050
-683,524	-75,532	0,079	0,020
-682,510	-2,691	0,037	0,019
-681,495	210,263	0,092	-0,105
-680,481	429,042	-0,057	-0,090
-679,466	-117,334	-0,124	0,016
-678,451	410,084	0,074	0,115
-677,437	-200,000	-0,021	0,134
-676,422	-50,569	0,058	0,020
-675,408	800,000	-0,058	-0,179
-674,393	266,504	-0,097	0,123
-673,378	263,030	-0,026	-0,033
-672,364	329,446	0,034	0,048
-671,349	-200,000	-0,008	-0,039
-670,335	19,573	-0,021	0,012
-669,320	296,257	-0,017	0,023
-668,305	-106,041	-0,116	-0,019
-667,291	-182,725	-0,040	0,001
-666,276	37,661	0,041	0,027
-665,262	-80,978	-0,073	-0,017
-664,247	488,196	-0,029	0,048
-663,232	-200,000	-0,023	-0,076
-662,218	-200,000	-0,007	-0,060
-661,203	14,132	-0,127	0,071
-660,189	-98,617	0,065	0,012
-659,174	-200,000	0,006	-0,060
-658,159	-200,000	-0,005	-0,078
-657,145	-86,333	-0,062	-0,014
-656,130	546,906	0,068	0,118
-655,116	-147,353	0,041	-0,003
-654,101	800,000	-0,037	-0,110
-653,086	-85,472	-0,033	0,007
-652,072	-46,639	0,032	0,011
-651,057	-187,627	-0,084	-0,001
-650,043	800,000	-0,032	-0,090
-649,028	-200,000	0,020	-0,105
-648,014	207,396	0,093	-0,105
-646,999	-18,868	0,098	-0,044
-645,984	800,000	-0,041	-0,084
-644,970	-120,526	-0,042	0,005
-643,955	-200,000	0,032	-0,225
-642,941	-200,000	-0,021	-0,096
-641,926	-140,569	-0,043	0,003
-640,911	321,337	0,076	0,104
-639,897	453,640	0,047	0,075
-638,882	28,136	0,025	-0,015
-637,868	800,000	-0,046	-0,111
-636,853	196,673	0,057	-0,063
-635,838	-122,219	-0,090	0,011
-634,824	50,288	-0,089	0,061
-633,809	192,098	0,134	-0,147
-632,795	173,283	-0,016	0,016
-631,780	800,000	0,037	0,098
-630,765	1,408	-0,112	0,058
-629,751	800,000	-0,029	0,063
-628,736	5,805	0,063	-0,034
-627,722	-104,066	-0,031	0,005
-626,707	-104,028	-0,056	-0,009
-625,692	-64,374	0,064	0,019
-624,678	41,812	-0,046	-0,030
-623,663	761,647	0,058	0,114
-622,649	217,302	0,039	-0,045
-621,634	111,678	-0,102	-0,089
-620,619	-138,751	0,043	-0,003
-619,605	-200,000	0,028	-0,150
-618,590	-200,000	0,015	-0,099
-617,576	370,157	-0,055	0,081
-616,561	-200,000	0,005	-0,075
-615,546	-188,529	-0,084	0,001
-614,532	36,985	0,017	-0,011
-613,517	-200,000	-0,023	0,088
-612,503	800,000	0,039	0,108
-611,488	271,126	0,028	-0,036
-610,474	-200,000	0,031	0,101
-609,459	38,106	0,049	0,031
-608,444	-186,956	-0,119	0,001
-607,430	-105,957	-0,019	0,003
-606,415	-61,182	-0,063	0,019
-605,401	-93,394	0,096	0,019
-604,386	-192,302	0,069	-0,000
-603,371	800,000	-0,002	-0,006
-602,357	292,220	-0,072	-0,096
-601,342	-200,000	-0,029	-0,144
-600,328	266,862	0,059	-0,075
-599,313	-200,000	0,002	-0,049
-598,298	-200,000	-0,001	-0,088
-597,284	-25,561	0,083	0,035
-596,269	-136,726	0,075	-0,006
-595,255	448,295	0,036	0,057
-594,240	-200,000	0,039	-0,148
-593,225	48,091	-0,020	0,013
-592,211	152,712	-0,057	-0,056
-591,196	-200,000	0,010	-0,053
-590,182	455,172	0,046	-0,073
-589,167	111,959	0,147	0,129
-588,152	-200,000	0,028	0,109
-587,138	-200,000	0,008	-0,048
-586,123	-57,179	0,113	-0,036
-585,109	31,515	-0,192	-0,119
-584,094	-47,279	-0,025	-0,009
-583,079	-88,328	-0,126	0,027
-582,065	-20,881	-0,087	0,038
-581,050	63,723	0,044	0,032
-580,036	172,725	0,070	0,073
-579,021	40,150	-0,100	0,065
-578,006	-97,815	-0,060	0,011
-576,992	-44,166	-0,073	-0,026
-575,977	324,261	-0,013	0,019
-574,963	-88,221	0,050	0,011
-573,948	42,619	-0,025	0,016
-572,934	140,473	0,068	0,065
-571,919	-47,598	-0,082	-0,029
-570,904	-200,000	0,008	-0,075
-569,890	-104,141	-0,147	0,024
-568,875	-200,000	-0,025	-0,089
-567,861	-200,000	-0,007	0,076
-566,846	-200,000	-0,002	0,208
-565,831	-20,106	-0,106	0,047
-564,817	-159,845	0,077	0,003
-563,802	800,000	0,017	-0,047
-562,788	-97,978	-0,135	-0,025
-561,773	-74,716	-0,070	0,018
-560,758	-200,000	0,017	-0,073
-559,744	-88,323	-0,120	0,026
-558,729	330,501	0,024	0,033
-557,715	-110,097	-0,155	-0,023
-556,700	182,734	0,079	-0,084
-555,685	-200,000	0,011	-0,107
-554,671	-113,224	0,104	-0,015
-553,656	800,000	-0,060	-0,136
-552,642	800,000	-0,069	-0,151
-551,627	-50,901	0,071	-0,024
-550,612	800,000	0,046	0,144
-549,598	-12,785	-0,058	-0,027
-548,583	-57,901	-0,140	-0,044
-547,569	-12,289	0,111	-0,052
-546,554	403,718	0,035	0,054
-545,539	-78,644	-0,012	-0,003
-544,525	88,111	-0,101	0,081
-543,510	-86,632	-0,046	-0,010
-542,496	92,788	-0,090	0,073
-541,481	-97,353	-0,020	-0,004
-540,466	691,919	0,069	-0,131
-539,452	148,195	0,110	0,107
-538,437	342,107	0,042	0,060
-537,423	769,809	-0,106	0,210
-536,408	-200,000	0,031	-0,120
-535,393	-20,217	-0,118	-0,052
-534,379	98,472	-0,057	-0,047
-533,364	800,000	-0,028	0,067
-532,350	7,875	0,094	0,051
-531,335	583,982	-0,041	0,073
-530,321	-200,000	-0,003	-0,049
-529,306	-200,000	-0,001	0,047
-528,291	175,571	-0,038	-0,040
-527,277	-200,000	-0,001	-0,142
-526,262	4,223	0,089	-0,047
-525,248	45,503	-0,126	-0,084
-524,233	71,513	-0,030	0,022
-523,218	347,535	0,012	0,017
-522,204	-200,000	-0,014	0,061
-521,189	-48,773	-0,034	0,012
-520,175	351,293	-0,114	-0,163
-519,160	-125,020	-0,053	-0,006
-518,145	614,062	-0,103	0,187
-517,131	-171,921	0,229	0,005
-516,116	-200,000	0,016	0,180
-515,102	-81,192	-0,079	0,019
-514,087	-200,000	0,011	-0,050
-513,072	-62,620	-0,103	0,031
-512,058	-9,584	-0,190	-0,091
-511,043	800,000	-0,059	-0,172
-510,029	-22,591	-0,015	0,007
-509,014	-200,000	0,004	0,038
-507,999	273,051	0,016	-0,020
-506,985	-200,000	-0,033	0,106
-505,970	800,000	-0,030	0,064
-504,956	67,184	0,047	-0,034
-503,941	3,921	-0,004	-0,002
-502,926	297,602	0,045	0,059
-501,912	-6,185	0,131	-0,064
-500,897	-10,908	0,070	-0,033
-499,883	54,399	-0,058	0,040
-498,868	-200,000	-0,070	0,000
-497,853	800,000	-0,025	0,070
-496,839	-55,363	-0,017	-0,005
-495,824	-112,957	0,048	0,007
-494,810	800,000	0,035	-0,075
-493,795	-200,000	-0,013	0,137
-492,781	70,515	0,076	0,056
-491,766	-121,454	-0,163	0,019
-490,751	488,510	0,020	-0,033
-489,737	6,046	-0,059	-0,031
-488,722	688,480	-0,060	0,113
-487,708	-200,000	0,004	-0,021
-486,693	706,066	0,054	-0,104
-485,678	-200,000	-0,015	0,125
-484,664	-68,853	-0,218	-0,060
-483,649	81,915	-0,040	0,032
-482,635	-136,897	0,055	-0,004
-481,620	16,871	0,073	0,041
-480,605	83,279	-0,027	0,021
-479,591	789,374	0,028	0,055
-478,576	-200,000	-0,033	0,144
-477,562	304,137	-0,106	-0,142
-476,547	-106,267	-0,132	0,021
-475,532	-44,072	0,100	-0,036
-474,518	13,262	0,106	0,059
-473,503	800,000	-0,045	0,113
-472,489	262,190	-0,049	0,061
-471,474	224,618	-0,072	-0,084
-470,459	-200,000	-0,031	-0,127
-469,445	-28,477	-0,063	0,026
-468,430	151,185	-0,096	-0,094
-467,416	-134,079	0,061	-0,005
-466,401	-200,000	-0,005	0,061
-465,386	-200,000	-0,032	0,159
-464,372	-115,922	0,067	0,009
-463,357	800,000	-0,043	-0,131
-462,343	61,808	-0,042	-0,030
-461,328	72,686	0,036	-0,027
-460,313	-115,247	0,040	0,005
-459,299	-200,000	0,033	-0,106
-458,284	240,120	0,066	0,079
-457,270	-200,000	0,009	0,135
-456,255	-200,000	-0,024	0,085
-455,241	96,599	-0,119	0,098
-454,226	73,018	-0,047	-0,035
-453,211	800,000	-0,013	-0,037
-452,197	27,210	0,030	-0,018
-451,182	-200,000	0,000	0,053
-450,168	73,105	-0,071	0,054
-449,153	1,405	-0,011	0,006
-448,138	-200,000	0,007	0,051
-447,124	-2,131	0,051	0,026
-446,109	-58,866	-0,110	-0,034
-445,095	800,000	-0,034	0,072
-444,080	-200,000	-0,000	-0,070
-443,065	-200,000	0,007	-0,027
-442,051	613,080	0,044	-0,079
-441,036	25,482	-0,152	-0,091
-440,022	-39,096	-0,065	-0,025
-439,007	-200,000	0,019	-0,072
-437,992	-4,595	-0,087	-0,043
-436,978	-10,396	0,058	0,027
-435,963	-112,094	0,068	-0,010
-434,949	112,006	0,086	-0,075
-433,934	-22,538	0,148	0,064
-432,919	-45,036	-0,227	0,081
-431,905	481,544	-0,024	0,039
-430,890	-200,000	0,035	-0,150
-429,876	13,083	-0,086	-0,048
-428,861	-33,407	0,068	-0,027
-427,846	-45,206	-0,024	-0,009
-426,832	800,000	-0,061	-0,151
-425,817	84,548	0,053	-0,042
-424,803	99,608	-0,054	0,044
-423,788	-14,478	-0,038	0,017
-422,773	-200,000	0,000	0,057
-421,759	145,053	-0,054	0,052
-420,744	800,000	-0,037	0,075
-419,730	-157,836	0,055	-0,002
-418,715	618,478	-0,069	-0,124
-417,701	-200,000	0,007	-0,052
-416,686	28,495	0,124	0,075
-415,671	190,831	0,093	0,101
-414,657	-34,295	0,130	0,051
-413,642	-91,158	0,091	-0,018
-412,628	-200,000	-0,005	-0,045
-411,613	-62,582	0,056	0,016
-410,598	-200,000	0,019	-0,225
-409,584	54,528	-0,113	-0,078
-408,569	-200,000	-0,009	-0,093
-407,555	-99,000	0,082	-0,015
-406,540	-30,997	-0,052	0,021
-405,525	800,000	-0,036	-0,091
-404,511	-97,899	0,158	0,029
-403,496	174,068	0,106	-0,110
-402,482	800,000	-0,037	-0,074
-401,467	-54,936	0,195	-0,063
-400,452	-54,014	0,068	0,022
-399,438	-69,395	-0,081	-0,022
-398,423	-200,000	-0,012	-0,083
-397,409	54,123	-0,140	-0,097
-396,394	757,382	-0,094	-0,183
-395,379	203,413	-0,049	-0,054
-394,365	202,066	-0,056	-0,062
-393,350	429,001	0,048	0,075
-392,336	79,526	0,011	0,008
-391,321	-200,000	0,012	-0,090
-390,306	239,274	0,033	-0,040
-389,292	-124,029	-0,119	-0,013
-388,277	38,619	-0,095	-0,060
-387,263	86,258	0,085	0,067
-386,248	-92,079	0,067	-0,013
-385,233	-94,924	-0,126	0,024
-384,219	-200,000	-0,002	0,099
-383,204	-200,000	-0,004	-0,027
-382,190	800,000	-0,008	-0,016
-381,175	75,519	0,077	0,058
-380,160	223,666	-0,086	0,099
-379,146	-200,000	-0,000	0,135
-378,131	103,171	0,037	-0,031
-377,117	800,000	0,035	0,078
-376,102	-20,257	0,015	-0,006
-375,088	-41,550	-0,106	-0,039
-374,073	-200,000	0,040	-0,150
-373,058	22,139	0,045	0,026
-372,044	64,551	0,043	0,031
-371,029	290,584	0,068	0,089
-370,015	396,807	0,043	0,065
-369,000	-100,336	-0,109	-0,019
-367,985	226,909	-0,005	0,006
-366,971	-145,266	0,055	-0,003
-365,956	0,258	0,083	0,042
-364,942	-33,529	0,039	0,016
-363,927	-91,679	0,125	-0,025
-362,912	440,091	0,015	0,024
-361,898	29,769	0,100	0,061
-360,883	2,868	-0,114	-0,059
-359,869	95,764	0,019	0,016
-358,854	-36,890	-0,084	-0,032
-357,839	353,632	-0,032	-0,045
-356,825	137,752	0,057	0,053
-355,810	-200,000	0,034	0,190
-354,796	63,178	-0,061	-0,044
-353,781	800,000	0,033	-0,077
-352,766	800,000	0,023	0,055
-351,752	88,998	-0,113	-0,090
-350,737	-200,000	-0,003	-0,065
-349,723	-200,000	0,010	-0,070
-348,708	166,655	0,085	0,086
-347,693	94,345	-0,090	0,074
-346,679	800,000	-0,056	0,111
-345,664	7,232	0,021	-0,011
-344,650	-200,000	0,017	-0,115
-343,635	-200,000	0,013	0,262
-342,620	-55,591	0,195	-0,062
-341,606	800,000	0,022	-0,058
-340,591	-200,000	0,010	-0,161
-339,577	99,918	-0,037	-0,031
-338,562	-114,020	-0,048	-0,007
-337,548	-65,817	-0,117	-0,033
-336,533	-200,000	0,001	-0,066
-335,518	229,701	-0,027	0,031
-334,504	-200,000	-0,003	0,056
-333,489	41,712	-0,169	-0,110
-332,475	-200,000	-0,004	0,013
-331,460	177,536	-0,061	-0,063
-330,445	-200,000	-0,013	0,041
-329,431	-36,850	0,105	0,040
-328,416	-200,000	0,004	-0,086
-327,402	-93,267	-0,031	0,006
-326,387	-200,000	-0,009	0,032
-325,372	92,788	-0,032	0,026
-324,358	191,969	0,091	0,099
-323,343	120,308	-0,137	-0,121
-322,329	80,984	0,054	-0,042
-321,314	800,000	0,052	0,107
-320,299	800,000	0,034	0,100
-319,285	322,340	0,039	0,053
-318,270	-200,000	-0,041	0,136
-317,256	800,000	-0,082	0,189
-316,241	-200,000	-0,015	-0,075
-315,226	41,880	0,046	0,030
-314,212	-169,802	0,189	-0,005
-313,197	-166,899	0,087	-0,003
-312,183	-11,505	0,105	0,049
-311,168	701,888	0,049	-0,093
-310,153	-90,516	-0,152	-0,031
-309,139	-200,000	-0,008	-0,064
-308,124	445,893	0,114	0,179
-307,110	-12,256	0,139	0,065
-306,095	264,235	0,065	0,081
-305,080	-200,000	0,043	0,167
-304,066	-200,000	0,003	0,066
-303,051	800,000	0,021	0,066
-302,037	800,000	-0,007	-0,020
-301,022	50,909	0,075	0,051
-300,008	-109,740	0,083	-0,012
-298,993	599,369	0,075	0,133
-297,978	-98,578	0,113	0,020
-296,964	-133,894	-0,048	-0,004
-295,949	-118,518	0,072	0,009
-294,935	358,430	-0,027	0,038
-293,920	-200,000	0,003	-0,049
-292,905	94,036	0,085	-0,069
-291,891	-142,277	0,088	0,006
-290,876	-136,028	0,045	0,004
-289,862	217,063	0,065	0,074
-288,847	-91,132	-0,018	0,004
-287,832	-0,128	-0,073	-0,037
-286,818	-200,000	-0,008	0,059
-285,803	-73,178	0,012	0,003
-284,789	-109,727	0,047	-0,007
-283,774	-6,295	0,074	0,036
-282,759	79,880	0,056	0,043
-281,745	161,803	-0,111	-0,111
-280,730	304,512	-0,027	-0,037
-279,716	-200,000	-0,008	0,106
-278,701	504,732	0,035	-0,057
-277,686	619,599	0,038	0,069
-276,672	41,642	-0,004	0,003
-275,657	-200,000	-0,011	0,104
-274,643	140,546	-0,058	0,055
-273,628	472,891	-0,061	-0,098
-272,613	-200,000	-0,010	0,086
-271,599	-14,675	-0,015	-0,007
-270,584	-58,795	0,067	0,021
-269,570	100,055	0,061	0,050
-268,555	384,852	-0,011	-0,017
-267,540	9,382	0,083	-0,045
-266,526	-77,845	0,060	-0,015
-265,511	-40,833	-0,086	-0,031
-264,497	151,379	-0,046	0,044
-263,482	434,168	0,056	-0,087
-262,467	-144,144	0,104	-0,007
-261,453	186,799	-0,060	0,063
-260,438	413,038	0,100	-0,152
-259,424	-39,887	-0,047	-0,017
-258,409	31,237	0,079	0,048
-257,395	800,000	0,022	-0,046
-256,380	534,033	-0,020	0,034
-255,365	800,000	0,041	0,081
-254,351	-200,000	0,026	0,137
-253,336	208,724	0,036	0,041
-252,322	641,336	-0,024	0,044
-251,307	14,998	0,080	-0,045
-250,292	-58,025	0,062	-0,019
-249,278	-82,626	-0,048	0,011
-248,263	61,150	0,048	-0,034
-247,249	800,000	-0,044	0,125
-246,234	392,075	0,098	0,145
-245,219	800,000	0,027	0,084
-244,205	95,967	0,084	-0,068
-243,190	-200,000	0,011	0,093
-242,176	159,023	-0,063	0,063
-241,161	-7,293	0,048	-0,023
-240,146	-200,000	0,031	0,133
-239,132	-69,535	0,123	0,033
-238,117	-200,000	-0,013	-0,113
-237,103	426,799	-0,021	-0,033
-236,088	17,100	0,043	-0,024
-235,073	-22,252	-0,032	-0,014
-234,059	-164,145	-0,091	-0,003
-233,044	800,000	0,073	0,170
-232,030	-62,824	-0,084	-0,025
-231,015	-200,000	0,006	0,024
-230,000	32,683	-0,130	-0,080
-228,986	-23,443	0,036	0,015
-227,971	-200,000	0,029	0,132
-226,957	7,279	0,128	0,068
-225,942	244,675	0,058	0,069
-224,927	280,567	-0,055	0,070
-223,913	700,897	0,041	-0,078
-222,898	-10,807	0,108	-0,051
-221,884	800,000	-0,026	-0,057
-220,869	30,100	-0,138	-0,084
-219,855	328,544	0,053	0,073
-218,840	40,595	0,085	0,054
-217,825	-68,373	0,066	0,018
-216,811	800,000	0,054	0,116
-215,796	800,000	0,044	-0,128
-214,782	-200,000	0,018	-0,106
-213,767	-200,000	-0,013	0,049
-212,752	800,000	-0,041	0,116
-211,738	800,000	-0,067	-0,157
-210,723	-200,000	-0,032	0,115
-209,709	518,203	0,039	-0,065
-208,694	800,000	-0,052	-0,146
-207,679	800,000	-0,010	-0,023
-206,665	610,559	-0,088	-0,157
-205,650	30,272	0,108	0,066
-204,636	-200,000	0,013	0,075
-203,621	-13,574	-0,089	0,041
-202,606	-200,000	0,032	0,124
-201,592	101,763	-0,117	0,097
-200,577	800,000	-0,044	-0,103
-199,563	28,653	-0,090	0,054
-198,548	-103,814	0,195	0,032
-197,533	326,851	0,066	0,091
-196,519	-200,000	0,015	0,078
-195,504	-39,433	0,045	0,017
-194,490	-106,681	-0,048	-0,008
-193,475	52,878	-0,100	-0,068
-192,460	238,208	-0,069	-0,082
-191,446	505,521	0,020	-0,034
-190,431	800,000	0,035	0,095
-189,417	-200,000	0,008	0,038
-188,402	-31,460	0,101	-0,040
-187,387	-200,000	0,033	-0,157
-186,373	-200,000	0,007	-0,058
-185,358	17,094	-0,091	0,051
-184,344	-13,315	0,036	0,016
-183,329	-200,000	0,018	-0,154
-182,315	-47,786	0,103	0,035
-181,300	77,173	0,012	0,009
-180,285	-200,000	-0,003	-0,183
-179,271	467,145	0,078	-0,124
-178,256	65,727	-0,079	0,057
-177,242	-184,814	-0,070	-0,001
-176,227	39,362	-0,012	0,007
-175,212	-3,439	0,043	-0,021
-174,198	800,000	-0,047	-0,103
-173,183	-133,226	0,102	0,009
-172,169	-200,000	-0,013	-0,093
-171,154	61,870	0,138	0,097
-170,139	298,376	0,006	-0,008
-169,125	-168,480	0,070	-0,002
-168,110	800,000	-0,049	0,143
-167,096	122,871	-0,070	0,063
-166,081	800,000	-0,031	-0,070
-165,066	-200,000	0,011	0,080
-164,052	-41,372	-0,107	-0,039
-163,037	233,391	0,028	-0,033
-162,023	-19,168	0,037	-0,016
-161,008	1,570	-0,096	-0,049
-159,993	-142,232	0,105	-0,007
-158,979	-120,181	0,033	-0,004
-157,964	27,100	-0,158	-0,094
-156,950	36,430	-0,053	0,033
-155,935	-200,000	-0,002	-0,113
-154,920	81,546	-0,084	0,065
-153,906	-200,000	-0,008	0,028
-152,891	-17,175	-0,078	-0,035
-151,877	16,769	-0,148	-0,083
-150,862	615,923	-0,053	-0,095
-149,847	23,863	0,036	0,021
-148,833	800,000	0,049	-0,118
-147,818	145,615	0,042	-0,040
-146,804	129,663	-0,051	-0,046
-145,789	-126,510	0,059	-0,006
-144,775	-54,305	-0,099	0,032
-143,760	-136,917	-0,105	-0,008
-142,745	800,000	-0,032	-0,079
-141,731	52,453	0,088	0,060
-140,716	187,285	0,031	-0,033
-139,702	361,317	0,041	0,059
-138,687	800,000	-0,002	-0,006
-137,672	800,000	0,067	-0,179
-136,658	-200,000	0,013	-0,218
-135,643	-88,995	-0,228	-0,048
-134,629	66,843	-0,134	-0,097
-133,614	736,931	0,026	0,050
-132,599	696,165	0,052	-0,098
-131,585	-200,000	0,008	-0,050
-130,570	800,000	-0,020	0,052
-129,556	-123,101	-0,039	0,004
-128,541	20,872	-0,039	-0,022
-127,526	800,000	0,036	0,088
-126,512	-77,269	-0,135	0,033
-125,497	-69,417	0,117	-0,032
-124,483	-200,000	-0,024	-0,103
-123,468	-200,000	0,002	-0,074
-122,453	-82,339	0,046	-0,011
-121,439	-23,099	0,127	0,054
-120,424	-200,000	-0,000	-0,075
-119,410	-8,481	0,099	0,047
-118,395	-31,500	0,038	0,015
-117,380	219,174	-0,043	-0,049
-116,366	-200,000	-0,021	-0,205
-115,351	108,474	-0,059	-0,050
-114,337	70,175	-0,072	-0,053
-113,322	-39,134	0,042	-0,015
-112,307	322,873	-0,033	-0,045
-111,293	-200,000	0,046	0,156
-110,278	-62,278	-0,106	0,031
-109,264	119,935	0,017	0,015
-108,249	800,000	0,049	0,113
-107,234	56,410	-0,103	0,071
-106,220	-200,000	0,021	-0,144
-105,205	-200,000	-0,007	-0,033
-104,191	-49,575	-0,044	-0,015
-103,176	-200,000	-0,014	-0,054
-102,162	262,656	-0,012	-0,015
-101,147	-200,000	0,005	0,142
-100,132	70,927	-0,009	-0,007
-99,118	-169,125	-0,080	-0,002
-98,103	288,277	-0,092	-0,118
-97,089	800,000	-0,009	0,019
-96,074	-60,150	0,109	0,033
-95,059	-200,000	-0,024	0,183
-94,045	-21,434	0,059	0,025
-93,030	85,744	0,079	0,062
-92,016	142,041	-0,086	-0,081
-91,001	385,077	0,011	-0,017
-89,986	-102,323	-0,046	-0,008
-88,972	-166,590	0,154	-0,004
-87,957	318,625	0,109	0,147
-86,943	85,549	0,104	-0,081
-85,928	-200,000	-0,053	-0,188
-84,913	-200,000	-0,017	-0,073
-83,899	800,000	0,095	-0,190
-82,884	71,142	0,059	0,043
-81,870	800,000	-0,040	0,101
-80,855	-43,497	0,112	0,040
-79,840	800,000	-0,013	0,037
-78,826	-200,000	0,001	0,080
-77,811	15,122	-0,059	-0,033
-76,797	235,203	0,032	-0,037
-75,782	800,000	0,035	0,070
-74,767	357,384	0,053	-0,075
-73,753	-131,432	-0,204	-0,019
-72,738	-200,000	-0,004	0,124
-71,724	-200,000	-0,015	-0,071
-70,709	800,000	0,031	-0,067
-69,694	-200,000	-0,010	0,094
-68,680	-200,000	-0,002	-0,123
-67,665	19,578	0,130	0,074
-66,651	-42,251	0,032	-0,012
-65,636	-141,998	-0,163	0,011
-64,622	800,000	-0,088	-0,190
-63,607	193,489	-0,065	-0,069
-62,592	720,820	-0,050	-0,095
-61,578	-76,530	0,156	-0,038
-60,563	-141,460	-0,084	-0,006
-59,549	-200,000	0,025	0,097
-58,534	-3,922	-1,655	-0,811
-57,519	445,350	-1,355	-2,116
-56,505	-200,000	-0,420	-4,527
-55,490	241,269	0,913	1,082
-54,476	800,000	4,968	11,424
-53,461	-200,000	19,368	321,366
-52,446	-200,000	741,650	2335,286
-51,432	571,876	1656,054	2867,444
-50,417	78,141	1671,032	1261,256
-49,403	21,263	1543,911	885,513
-48,388	15,139	1466,393	811,270
-47,373	17,938	1456,952	819,546
-46,359	16,665	1446,657	807,616
-45,344	13,394	1441,998	789,313
-44,330	13,293	1440,034	787,719
-43,315	13,336	1438,297	786,944
-42,300	13,303	1436,680	785,872
-41,286	13,315	1435,380	785,186
-40,271	13,329	1433,954	784,441
-39,257	13,344	1432,580	783,732
-38,242	13,338	1431,370	783,007
-37,227	13,358	1430,403	782,544
-36,213	13,383	1428,922	781,820
-35,198	13,352	1427,675	780,962
-34,184	13,405	1426,820	780,715
-33,169	13,328	1425,492	779,593
-32,154	13,403	1424,341	779,285
-31,140	13,367	1423,216	778,469
-30,125	13,390	1422,020	777,891
-29,111	13,458	1420,858	777,549
-28,096	13,344	1419,889	776,449
-27,082	13,335	1418,759	775,756
-26,067	13,292	1417,590	774,885
-25,052	13,316	1416,482	774,360
-24,038	13,291	1415,336	773,585
-23,023	13,284	1414,442	773,036
-22,009	13,294	1413,407	772,482
-20,994	13,300	1412,685	772,088
-19,979	13,269	1411,765	771,409
-18,965	13,269	1410,683	770,785
-17,950	13,267	1409,719	770,219
-16,936	13,274	1408,752	769,693
-15,921	13,213	1407,819	768,869
-14,906	13,243	1406,851	768,447
-13,892	13,220	1405,980	767,834
-12,877	13,153	1405,319	767,131
-11,863	13,224	1404,190	766,816
-10,848	13,213	1403,232	766,213
-9,833	13,174	1402,480	765,590
-8,819	13,101	1401,462	764,663
-7,804	13,131	1400,706	764,357
-6,790	13,138	1399,544	763,727
-5,775	13,128	1398,657	763,168
-4,760	13,134	1397,641	762,610
-3,746	13,065	1396,829	761,816
-2,731	13,124	1395,749	761,470
-1,717	13,083	1395,065	760,876
-0,702	13,069	1393,132	759,729
0,313	16,988	1309,930	732,489
1,327	33,247	703,325	430,846
2,342	51,273	123,174	82,596
3,356	1,256	16,729	8,474
4,371	-5,724	3,192	1,542
5,386	-11,288	0,662	0,307
6,400	-200,000	0,049	0,175
7,415	-154,896	-0,227	-0,010
8,429	89,541	-0,265	-0,209
9,444	-70,200	-0,347	-0,093
10,459	-67,032	-0,341	-0,094
11,473	-78,689	-0,296	-0,071
12,488	-116,839	-0,234	-0,030
13,502	93,225	-0,217	-0,173
14,517	81,014	-0,309	-0,235
15,531	21,088	-0,354	-0,203
16,546	84,615	-0,412	-0,319
17,561	247,822	-0,281	-0,337
18,575	30,922	-0,247	-0,149
19,590	279,367	-0,201	-0,254
20,604	-27,196	-0,368	-0,151
21,619	158,248	-0,339	-0,332
22,634	135,882	-0,416	-0,383
23,648	8,374	-0,529	-0,280
24,663	133,721	-0,336	-0,307
25,677	-110,653	-0,310	-0,045
26,692	237,178	-0,287	-0,336
27,707	159,256	-0,267	-0,262
28,721	59,720	-0,380	-0,264
29,736	144,139	-0,266	-0,250
30,750	335,518	-0,295	-0,405
31,765	252,319	-0,318	-0,384
32,780	78,628	-0,294	-0,221
33,794	-6,995	-0,436	-0,208
34,809	41,446	-0,374	-0,238
35,823	29,440	-0,355	-0,212
36,838	6,408	-0,437	-0,228
37,853	121,103	-0,339	-0,297
38,867	29,762	-0,396	-0,237
39,882	30,899	-0,382	-0,230
40,896	54,798	-0,262	-0,178
41,911	165,186	-0,291	-0,290
42,926	-3,546	-0,443	-0,217
43,940	114,492	-0,355	-0,305
44,955	14,240	-0,405	-0,222
45,969	230,098	-0,325	-0,375
46,984	44,642	-0,329	-0,213
47,999	86,483	-0,337	-0,262
49,013	31,406	-0,351	-0,212
50,028	-22,705	-0,472	-0,200
51,042	85,937	-0,336	-0,260
52,057	232,257	-0,368	-0,426
53,071	72,215	-0,423	-0,310
54,086	183,782	-0,220	-0,229
55,101	88,801	-0,281	-0,220
56,115	75,003	-0,335	-0,249
57,130	138,084	-0,322	-0,297
58,144	3,175	-0,373	-0,191
59,159	6,479	-0,571	-0,298
60,174	201,262	-0,347	-0,376
61,188	23,483	-0,433	-0,250
62,203	31,050	-0,374	-0,225
63,217	58,397	-0,284	-0,196
64,232	-4,602	-0,374	-0,181
65,247	130,213	-0,264	-0,238
66,261	59,120	-0,368	-0,255
67,276	238,918	-0,257	-0,301
68,290	66,166	-0,344	-0,246
69,305	63,737	-0,232	-0,164
70,320	7,031	-0,399	-0,208
71,334	-94,660	-0,431	-0,082
72,349	48,193	-0,237	-0,155
73,363	13,123	-0,291	-0,158
74,378	36,930	-0,407	-0,253
75,393	305,625	-0,218	-0,285
76,407	65,715	-0,364	-0,259
77,422	162,685	-0,154	-0,152
78,436	121,164	-0,225	-0,197
79,451	-23,168	-0,299	-0,126
80,466	51,720	-0,491	-0,328
81,480	-0,504	-0,394	-0,196
82,495	-8,809	-0,327	-0,154
83,509	66,861	-0,165	-0,118
84,524	-66,557	-0,204	0,057
85,539	77,757	-0,166	-0,124
86,553	101,203	-0,193	-0,157
87,568	-63,694	-0,215	-0,061
88,582	-19,364	-0,450	-0,195
89,597	142,716	-0,262	-0,245
90,611	141,198	-0,224	-0,209
91,626	-32,897	-0,420	-0,163
92,641	-11,742	-0,317	-0,146
93,655	193,141	-0,162	-0,172
94,670	88,417	-0,275	-0,214
95,684	13,491	-0,349	-0,189
96,699	324,589	-0,208	-0,280
97,714	145,341	-0,253	-0,238
98,728	-56,704	-0,271	-0,083
99,743	99,588	-0,239	-0,194
100,757	13,625	-0,316	-0,172
101,772	106,108	-0,336	-0,279
102,787	-30,844	-0,315	-0,124
103,801	-15,760	-0,429	-0,191
104,816	-21,258	-0,393	-0,168
105,830	19,777	-0,320	-0,180
106,845	212,066	-0,166	-0,184
107,860	128,203	-0,256	-0,229
108,874	114,757	-0,216	-0,185
109,889	151,627	-0,208	-0,198
110,903	162,826	-0,141	-0,139
111,918	575,941	-0,132	-0,227
112,933	800,000	-0,069	-0,212
113,947	116,767	-0,243	-0,209
114,962	145,234	-0,206	-0,193
115,976	213,811	-0,239	-0,265
116,991	207,212	-0,221	-0,241
118,006	57,331	-0,284	-0,194
119,020	-200,000	-0,293	0,001
120,035	119,597	-0,182	-0,157
121,049	26,906	-0,294	-0,172
122,064	-38,132	-0,188	-0,070
123,079	-38,345	-0,347	-0,128
124,093	49,238	-0,234	-0,154
125,108	102,666	-0,262	-0,214
126,122	-41,602	-0,242	-0,086
127,137	-49,900	-0,112	-0,037
128,151	220,018	-0,129	-0,145
129,166	-14,611	-0,273	-0,122
130,181	113,560	-0,243	-0,207
131,195	107,808	-0,308	-0,257
132,210	70,781	-0,292	-0,212
133,224	457,492	-0,208	-0,324
134,239	267,571	-0,228	-0,279
135,254	-70,308	-0,350	-0,092
136,268	-54,025	-0,349	-0,110
137,283	-99,953	-0,349	-0,060
138,297	104,491	-0,233	-0,192
139,312	178,541	-0,280	-0,286
140,327	122,366	-0,311	-0,272
141,341	323,155	-0,243	-0,324
142,356	12,474	-0,237	-0,128
143,370	-34,178	-0,293	-0,112
144,385	119,651	-0,299	-0,259
145,400	56,827	-0,308	-0,209
146,414	800,000	-0,150	-0,339
147,429	28,271	-0,374	-0,220
148,443	144,400	-0,269	-0,251
149,458	375,830	-0,235	-0,336
150,473	-75,317	-0,276	-0,068
151,487	472,500	-0,252	-0,398
152,502	-124,941	-0,270	-0,029
153,516	-1,952	-0,310	-0,152
154,531	138,403	-0,237	-0,217
155,546	-49,375	-0,265	-0,088
156,560	23,400	-0,188	-0,108
157,575	169,951	-0,243	-0,242
158,589	80,322	-0,185	-0,139
159,604	119,308	-0,208	-0,180
160,619	201,334	-0,200	-0,215
161,633	-4,473	-0,340	-0,163
162,648	171,090	-0,230	-0,231
163,662	332,747	-0,133	-0,180
164,677	416,796	-0,176	-0,263
165,692	46,425	-0,194	-0,126
166,706	85,416	-0,312	-0,239
167,721	254,991	-0,200	-0,239
168,735	111,199	-0,256	-0,215
169,750	6,813	-0,207	-0,107
170,764	98,050	-0,163	-0,131
171,779	-16,424	-0,209	-0,092
172,794	-49,495	-0,154	-0,051
173,808	402,804	-0,164	-0,241
174,823	640,668	-0,211	-0,376
175,837	426,471	-0,227	-0,342
176,852	37,370	-0,253	-0,156
177,867	63,987	-0,291	-0,204
178,881	417,645	-0,124	-0,185
179,896	486,954	-0,135	-0,215
180,910	800,000	-0,093	-0,197
181,925	-127,455	-0,189	-0,019
182,940	212,936	-0,224	-0,247
183,954	170,986	-0,230	-0,230
184,969	26,987	-0,128	-0,075
185,983	163,059	-0,206	-0,201
186,998	-50,963	-0,153	-0,050
188,013	800,000	-0,063	-0,153
189,027	99,451	-0,166	-0,134
190,042	220,855	-0,214	-0,239
191,056	-23,953	-0,199	-0,082
192,071	100,949	-0,201	-0,162
193,086	-66,506	-0,176	0,048
194,100	17,651	-0,217	-0,120
195,115	800,000	-0,106	-0,207
196,129	90,592	-0,182	-0,142
197,144	260,081	-0,158	-0,190
198,159	448,719	-0,123	-0,189
199,173	290,482	-0,148	-0,187
200,188	57,975	-0,173	-0,118
201,202	494,638	-0,111	-0,178
202,217	246,963	-0,170	-0,200
203,232	-75,861	-0,167	-0,041
204,246	17,278	-0,264	-0,145
205,261	7,759	-0,232	-0,120
206,275	184,913	-0,195	-0,201
207,290	310,194	-0,150	-0,196
208,304	74,687	-0,142	-0,104
209,319	429,116	-0,134	-0,202
210,334	107,726	-0,197	-0,163
211,348	161,208	-0,228	-0,221
212,363	800,000	-0,148	-0,332
213,377	381,356	-0,190	-0,272
214,392	170,041	-0,174	-0,173
215,407	-102,539	-0,332	-0,055
216,421	77,831	-0,257	-0,190
217,436	268,109	-0,170	-0,208
218,450	528,615	-0,167	-0,275
219,465	75,863	-0,233	-0,171
220,480	475,746	-0,133	-0,210
221,494	0,533	-0,230	-0,114
222,509	548,068	-0,139	-0,233
223,523	167,197	-0,144	-0,142
224,538	-194,004	-0,177	-0,001
225,553	179,814	-0,127	-0,129
226,567	93,096	-0,191	-0,149
227,582	-146,648	-0,232	-0,014
228,596	-55,770	-0,123	0,038
229,611	183,412	-0,241	-0,248
230,626	28,186	-0,209	-0,122
231,640	57,155	-0,249	-0,168
232,655	165,681	-0,281	-0,276
233,669	-135,417	-0,207	-0,017
234,684	-200,000	-0,029	-0,144
235,699	51,372	-0,139	-0,091
236,713	129,436	-0,124	-0,110
237,728	208,255	-0,135	-0,146
238,742	316,551	-0,185	-0,243
239,757	84,081	-0,257	-0,194
240,772	119,218	-0,198	-0,170
241,786	72,013	-0,211	-0,152
242,801	-153,006	-0,165	-0,008
243,815	64,060	-0,139	-0,097
244,830	-12,636	-0,227	-0,102
245,844	94,810	-0,224	-0,176
246,859	-31,360	-0,194	-0,075
247,874	204,268	-0,156	-0,168
248,888	565,668	-0,174	-0,293
249,903	244,398	-0,057	-0,066
250,917	-112,611	-0,151	-0,021
251,932	140,316	-0,181	-0,165
252,947	175,018	-0,165	-0,165
253,961	800,000	-0,159	-0,344
254,976	14,056	-0,205	-0,110
255,990	36,053	-0,219	-0,133
257,005	-105,103	-0,226	-0,035
258,020	-25,853	-0,151	-0,061
259,034	-42,309	-0,124	-0,043
260,049	214,811	-0,164	-0,180
261,063	-200,000	-0,055	-0,200
262,078	-164,691	-0,154	0,005
263,093	800,000	-0,079	-0,184
264,107	105,524	-0,193	-0,157
265,122	71,462	-0,197	-0,141
266,136	175,733	-0,149	-0,150
267,151	162,587	-0,135	-0,131
268,166	-129,263	-0,228	-0,022
269,180	237,085	-0,055	-0,064
270,195	127,816	-0,244	-0,214
271,209	41,739	-0,179	-0,112
272,224	-200,000	-0,035	-0,153
273,239	314,657	-0,059	-0,077
274,253	-200,000	-0,052	-0,184
275,268	236,508	-0,179	-0,205
276,282	-149,446	-0,223	-0,012
277,297	297,324	-0,223	-0,283
278,312	-200,000	-0,130	0,000
279,326	-76,744	-0,125	-0,030
280,341	-98,637	-0,151	-0,026
281,355	250,409	-0,093	-0,110
282,370	5,446	-0,168	-0,086
283,384	52,102	-0,223	-0,146
284,399	115,921	-0,214	-0,181
285,414	139,715	-0,137	-0,125
286,428	800,000	-0,101	-0,291
287,443	98,304	-0,193	-0,153
288,457	-33,426	-0,106	-0,040
289,472	116,611	-0,183	-0,155
290,487	-35,866	-0,138	-0,051
291,501	206,456	-0,191	-0,205
292,516	-79,368	-0,207	-0,048
293,530	35,465	-0,067	-0,040
294,545	-10,828	-0,170	0,077
295,560	146,612	-0,129	-0,119
296,574	-7,333	-0,209	-0,097
297,589	-11,661	-0,226	-0,102
298,603	156,318	-0,225	-0,214
299,618	-121,841	-0,116	0,013
300,633	181,664	-0,149	-0,151
301,647	-56,302	-0,126	-0,038
302,662	-10,227	-0,111	-0,051
303,676	105,952	-0,187	-0,153
304,691	800,000	-0,097	-0,186
305,706	-8,401	-0,141	-0,065
306,720	459,160	-0,170	-0,261
307,735	667,539	-0,102	-0,182
308,749	175,807	-0,060	-0,060
309,764	-129,391	-0,052	0,005
310,779	-200,000	-0,012	-0,089
311,793	-115,854	-0,339	-0,043
312,808	-51,627	-0,179	-0,057
313,822	-17,540	-0,142	-0,061
314,837	-3,499	-0,196	-0,094
315,852	-3,720	-0,145	-0,069
316,866	24,038	-0,163	-0,093
317,881	-83,926	-0,055	0,012
318,895	378,514	-0,221	-0,311
319,910	1,028	-0,135	-0,066
320,925	181,222	-0,174	-0,176
321,939	-40,957	-0,139	-0,049
322,954	-40,697	-0,126	-0,045
323,968	-110,245	-0,209	-0,030
324,983	-141,289	-0,190	-0,013
325,997	44,281	-0,157	-0,099
327,012	800,000	-0,080	-0,159
328,027	-200,000	-0,041	-0,213
329,041	279,500	-0,167	-0,206
330,056	800,000	-0,094	-0,184
331,070	-106,762	-0,087	-0,013
332,085	213,743	-0,105	-0,115
333,100	-74,039	-0,228	-0,056
334,114	800,000	-0,077	-0,197
335,129	-2,200	-0,269	-0,130
336,143	-156,350	-0,085	-0,004
337,158	-162,481	-0,182	-0,006
338,173	-113,635	-0,121	-0,016
339,187	96,437	-0,068	0,053
340,202	-30,133	-0,251	-0,098
341,216	57,007	-0,227	-0,152
342,231	455,731	-0,095	-0,146
343,246	-63,343	-0,083	-0,023
344,260	266,569	-0,138	-0,166
345,275	418,388	-0,128	-0,188
346,289	-200,000	-0,012	-0,147
347,304	-43,396	-0,140	-0,048
348,319	-83,474	-0,136	-0,030
349,333	245,806	-0,163	-0,189
350,348	-21,937	-0,129	-0,054
351,362	800,000	-0,041	-0,102
352,377	-200,000	0,006	-0,102
353,392	-16,874	-0,141	-0,061
354,406	-200,000	-0,047	-0,158
355,421	208,778	1312,772	1411,048
356,435	160,661	1473,242	1411,536
