DTS Sentinel unit serial number:	SN410029Multiplexer serial number:	ORYXHardware model number:	OX2-SRSoftware version number:	ORYX F/W v4,00 Oryx Data Collector v3.7.2.0data status	okinstallation	B3 Nyhavnadifferential loss correction	single-endedforward channel	channel 1reverse channel	N/Adate	2023/11/29time	17:12:30forward acquisition time	300,00reverse acquisition time	0,00gamma	499,1914k internal	0,3209k external	0,3209temperature offset calibration	1,0000default loss term (dB/km)	0,3820temperature slope calibration	1,0000multiplexer offset coefficient	1,0000multiplexer slope coefficient	1,0000fibre end	0,00T internal ref (°C)	11,37T ext. ref 1 (°C)	-3,84T ext. ref 2 (°C)	-3,98length (m)	temperature (°C)	Stokes	anti-Stokes-744,400	395,021	-0,207	-0,314
-743,385	-200,000	0,024	0,385
-742,371	73,133	-0,157	-0,119
-741,356	-200,000	-0,001	0,310
-740,342	560,038	-0,104	-0,184
-739,327	-200,000	0,070	0,385
-738,312	800,000	-0,114	-0,275
-737,298	-200,000	0,021	0,232
-736,283	23,669	-0,118	-0,070
-735,269	-200,000	-0,012	0,284
-734,254	180,070	-0,153	-0,163
-733,239	92,344	-0,137	0,112
-732,225	-200,000	-0,044	-0,183
-731,210	270,175	0,086	0,109
-730,196	-104,808	-0,170	0,028
-729,181	540,861	0,039	-0,068
-728,167	184,257	0,040	-0,043
-727,152	-200,000	-0,033	-0,161
-726,137	246,905	-0,065	0,079
-725,123	-155,520	-0,090	-0,004
-724,108	-105,155	-0,064	0,010
-723,094	158,493	-0,129	-0,130
-722,079	-65,152	-0,130	-0,038
-721,064	-105,681	-0,128	0,021
-720,050	-92,523	-0,062	0,013
-719,035	800,000	0,021	0,056
-718,021	57,352	-0,148	-0,104
-717,006	696,870	-0,043	-0,082
-715,991	-10,534	-0,119	-0,057
-714,977	800,000	0,022	-0,069
-713,962	-200,000	-0,002	-0,027
-712,948	93,728	0,023	0,019
-711,933	560,711	0,067	0,117
-710,918	-200,000	0,014	-0,051
-709,904	80,519	0,032	-0,025
-708,889	-41,464	0,078	-0,029
-707,875	-71,493	-0,100	0,027
-706,860	271,661	0,030	-0,038
-705,845	-51,361	-0,090	0,030
-704,831	82,852	-0,036	0,028
-703,816	-200,000	0,010	-0,039
-702,802	58,164	-0,188	-0,133
-701,787	20,256	-0,129	-0,075
-700,772	-32,273	0,152	0,061
-699,758	756,820	0,043	0,086
-698,743	11,094	0,020	-0,011
-697,729	-52,112	0,057	0,019
-696,714	-62,262	-0,168	0,050
-695,699	-101,036	-0,083	0,015
-694,685	-14,997	-0,037	-0,017
-693,670	-200,000	-0,023	-0,136
-692,656	-200,000	0,022	0,128
-691,641	17,409	-0,111	0,064
-690,627	120,936	-0,099	-0,089
-689,612	-200,000	0,013	-0,172
-688,597	-52,771	0,061	0,020
-687,583	-155,020	-0,203	-0,009
-686,568	-155,872	-0,121	0,005
-685,554	-15,386	-0,047	0,022
-684,539	800,000	-0,017	0,038
-683,524	61,404	-0,073	-0,052
-682,510	-200,000	-0,039	-0,185
-681,495	468,667	0,014	-0,022
-680,481	-65,790	-0,094	-0,027
-679,466	-90,804	0,088	-0,018
-678,451	181,228	-0,047	-0,050
-677,437	-75,394	-0,081	0,021
-676,422	800,000	-0,031	0,087
-675,408	60,950	-0,021	-0,015
-674,393	-2,285	-0,144	0,073
-673,378	3,550	0,093	-0,049
-672,364	-115,473	-0,017	0,002
-671,349	-92,437	-0,093	-0,019
-670,335	-123,087	-0,095	-0,011
-669,320	358,413	0,014	-0,020
-668,305	158,975	0,086	0,086
-667,291	224,152	-0,016	-0,019
-666,276	-200,000	-0,005	0,057
-665,262	-63,133	-0,154	-0,046
-664,247	-200,000	0,005	-0,051
-663,232	-200,000	-0,038	-0,188
-662,218	694,967	-0,045	0,086
-661,203	-200,000	0,013	0,087
-660,189	720,031	0,047	-0,091
-659,174	455,828	0,067	-0,108
-658,159	800,000	-0,035	-0,109
-657,145	67,067	0,004	0,003
-656,130	-5,683	0,125	0,062
-655,116	279,463	0,037	-0,047
-654,101	-200,000	-0,000	-0,039
-653,086	-200,000	-0,024	-0,108
-652,072	-200,000	-0,003	0,038
-651,057	150,239	-0,082	-0,081
-650,043	212,136	-0,116	-0,132
-649,028	-84,607	-0,080	0,018
-648,014	-20,596	0,082	0,036
-646,999	185,069	-0,045	0,048
-645,984	-200,000	0,006	-0,019
-644,970	85,838	-0,073	0,058
-643,955	-187,447	-0,105	-0,001
-642,941	-104,707	-0,112	-0,018
-641,926	800,000	0,104	0,216
-640,911	-51,994	0,082	-0,027
-639,897	411,624	-0,087	0,134
-638,882	800,000	0,026	0,072
-637,868	-123,766	-0,140	0,016
-636,853	11,197	-0,068	-0,038
-635,838	312,938	-0,020	0,028
-634,824	21,418	-0,051	0,030
-633,809	56,523	0,072	0,051
-632,795	800,000	0,047	-0,139
-631,780	-200,000	-0,011	0,052
-630,765	-44,802	-0,059	0,021
-629,751	-200,000	0,014	-0,168
-628,736	-200,000	-0,037	-0,130
-627,722	800,000	0,033	-0,067
-626,707	43,057	0,103	0,068
-625,692	800,000	-0,038	-0,109
-624,678	-135,361	0,125	0,011
-623,663	58,286	-0,013	0,009
-622,649	9,565	-0,096	-0,052
-621,634	-94,259	-0,096	-0,019
-620,619	-88,305	0,088	0,019
-619,605	167,250	0,069	0,071
-618,590	40,163	-0,036	0,024
-617,576	-200,000	0,018	-0,087
-616,561	-144,543	-0,120	-0,008
-615,546	-200,000	-0,014	-0,046
-614,532	-65,239	-0,089	-0,026
-613,517	356,079	0,037	-0,053
-612,503	98,896	-0,036	0,030
-611,488	-200,000	-0,011	0,038
-610,474	-92,688	0,088	-0,018
-609,459	25,946	-0,098	-0,059
-608,444	-41,139	-0,082	-0,030
-607,430	-200,000	-0,012	-0,257
-606,415	300,403	-0,083	-0,111
-605,401	-88,380	-0,121	-0,026
-604,386	-26,065	0,059	0,025
-603,371	7,310	0,159	0,085
-602,357	33,823	-0,129	0,081
-601,342	-135,605	0,046	-0,004
-600,328	800,000	0,022	0,064
-599,313	-14,964	-0,094	0,043
-598,298	-94,372	-0,030	-0,006
-597,284	-200,000	0,026	-0,091
-596,269	600,100	0,082	0,147
-595,255	-200,000	0,030	0,107
-594,240	99,508	-0,145	0,121
-593,225	7,820	0,107	0,057
-592,211	800,000	-0,023	0,055
-591,196	-200,000	-0,007	0,057
-590,182	800,000	-0,023	-0,047
-589,167	-200,000	-0,016	0,207
-588,152	-99,417	-0,045	-0,008
-587,138	-10,030	-0,049	0,023
-586,123	167,655	-0,104	-0,107
-585,109	-200,000	0,016	-0,055
-584,094	97,529	0,075	-0,062
-583,079	-200,000	-0,006	-0,045
-582,065	-111,943	0,183	0,026
-581,050	-144,037	-0,063	-0,004
-580,036	252,450	0,071	0,087
-579,021	-200,000	-0,018	-0,158
-578,006	-200,000	-0,013	-0,102
-576,992	449,237	0,045	-0,072
-575,977	718,766	0,060	0,115
-574,963	390,168	-0,020	0,030
-573,948	-200,000	0,019	-0,079
-572,934	57,517	-0,144	-0,101
-571,919	800,000	-0,039	-0,104
-570,904	-60,987	-0,187	0,056
-569,890	-66,554	0,054	0,015
-568,875	170,870	-0,055	-0,057
-567,861	-31,356	0,098	-0,040
-566,846	-159,177	0,215	-0,009
-565,831	800,000	-0,075	0,155
-564,817	-12,395	-0,069	-0,032
-563,802	-95,079	-0,062	-0,012
-562,788	-200,000	-0,014	0,050
-561,773	-200,000	0,019	0,095
-560,758	800,000	0,048	0,114
-559,744	100,401	-0,098	0,082
-558,729	-200,000	-0,011	-0,040
-557,715	124,351	-0,097	0,088
-556,700	113,069	0,078	-0,068
-555,685	-107,669	-0,112	-0,017
-554,671	-105,001	0,118	-0,019
-553,656	745,913	-0,014	-0,027
-552,642	-17,844	-0,019	-0,009
-551,627	-78,082	0,152	0,037
-550,612	692,775	0,013	-0,025
-549,598	-88,117	-0,002	-0,000
-548,583	-121,070	0,068	-0,008
-547,569	-134,368	0,172	-0,015
-546,554	-200,000	0,013	0,092
-545,539	580,181	0,044	-0,077
-544,525	-200,000	0,037	0,172
-543,510	268,442	0,097	-0,123
-542,496	88,074	-0,073	0,058
-541,481	800,000	0,062	-0,151
-540,466	39,330	-0,109	-0,070
-539,452	262,163	-0,041	0,051
-538,437	-37,697	-0,031	0,012
-537,423	-40,242	-0,078	0,029
-536,408	-42,896	0,166	-0,060
-535,393	-21,589	0,117	-0,051
-534,379	-99,393	-0,138	-0,025
-533,364	800,000	-0,021	-0,064
-532,350	-200,000	-0,009	-0,044
-531,335	800,000	0,065	0,186
-530,321	-200,000	-0,018	-0,082
-529,306	-200,000	-0,030	-0,173
-528,291	205,829	-0,046	0,051
-527,277	800,000	0,021	-0,046
-526,262	356,074	-0,040	0,058
-525,248	130,002	0,071	-0,066
-524,233	-63,517	0,070	0,021
-523,218	-96,952	0,115	0,022
-522,204	-113,562	-0,077	-0,011
-521,189	148,725	-0,035	-0,034
-520,175	17,683	-0,100	0,057
-519,160	-200,000	0,016	-0,080
-518,145	-20,592	0,123	0,054
-517,131	516,583	-0,043	0,072
-516,116	22,508	-0,033	-0,019
-515,102	800,000	-0,050	-0,123
-514,087	-9,920	-0,093	-0,045
-513,072	-71,537	-0,056	0,015
-512,058	16,024	-0,130	0,073
-511,043	-47,980	0,096	-0,033
-510,029	544,502	-0,015	0,026
-509,014	411,533	-0,096	0,147
-507,999	198,738	0,060	0,066
-506,985	800,000	-0,046	-0,125
-505,970	88,551	0,131	-0,104
-504,956	-14,926	-0,067	0,031
-503,941	60,626	-0,033	-0,023
-502,926	-74,559	-0,016	0,004
-501,912	36,666	0,021	-0,013
-500,897	-95,897	0,105	-0,020
-499,883	800,000	-0,048	-0,108
-498,868	550,236	0,082	-0,141
-497,853	6,783	0,124	0,066
-496,839	-80,403	-0,069	-0,016
-495,824	-72,369	0,069	-0,018
-494,810	-200,000	0,005	0,031
-493,795	624,163	-0,040	0,073
-492,781	62,831	0,062	-0,044
-491,766	5,036	-0,063	0,033
-490,751	-19,772	-0,097	-0,043
-489,737	-62,919	-0,014	-0,004
-488,722	-10,135	0,032	-0,015
-487,708	-200,000	0,023	0,126
-486,693	-54,919	-0,070	0,023
-485,678	-200,000	-0,001	-0,027
-484,664	-200,000	-0,023	0,135
-483,649	800,000	-0,031	-0,097
-482,635	-200,000	0,000	0,088
-481,620	-200,000	0,011	0,147
-480,605	-200,000	-0,003	0,123
-479,591	202,159	0,041	-0,045
-478,576	69,150	0,038	-0,028
-477,562	220,203	0,098	-0,113
-476,547	-149,727	-0,068	-0,004
-475,532	-200,000	-0,011	0,095
-474,518	-129,766	0,183	-0,018
-473,503	364,622	-0,047	0,068
-472,489	-67,072	0,034	0,010
-471,474	440,902	0,056	-0,088
-470,459	2,565	-0,055	-0,029
-469,445	-32,908	0,166	0,066
-468,430	193,033	-0,047	0,051
-467,416	-200,000	-0,003	0,024
-466,401	800,000	0,073	0,145
-465,386	-44,782	0,091	0,032
-464,372	1,022	0,113	0,058
-463,357	-64,603	-0,069	0,020
-462,343	132,640	0,038	0,035
-461,328	800,000	-0,056	-0,126
-460,313	-96,151	0,075	-0,014
-459,299	59,467	0,093	0,066
-458,284	-200,000	0,013	0,058
-457,270	-70,936	0,073	-0,020
-456,255	55,092	0,040	0,027
-455,241	163,909	0,042	-0,042
-454,226	-200,000	0,020	-0,082
-453,211	-200,000	-0,006	0,085
-452,197	800,000	-0,019	0,052
-451,182	52,486	-0,065	0,044
-450,168	381,537	0,067	0,099
-449,153	-17,919	-0,075	0,034
-448,138	205,997	-0,052	0,058
-447,124	800,000	0,006	0,014
-446,109	391,968	0,053	-0,079
-445,095	-136,862	-0,134	0,011
-444,080	-21,436	0,154	0,067
-443,065	2,721	-0,016	-0,008
-442,051	108,695	0,045	0,039
-441,036	-200,000	0,009	-0,116
-440,022	800,000	0,028	-0,087
-439,007	-62,622	-0,062	0,018
-437,992	26,509	-0,029	0,018
-436,978	800,000	0,038	-0,082
-435,963	37,833	-0,073	0,046
-434,949	526,799	0,022	-0,037
-433,934	-200,000	-0,002	-0,154
-432,919	-116,499	-0,129	0,017
-431,905	15,065	0,106	-0,059
-430,890	-200,000	-0,009	0,137
-429,876	800,000	0,034	0,093
-428,861	-200,000	0,006	0,148
-427,846	-181,782	0,095	-0,001
-426,832	800,000	0,035	-0,099
-425,817	230,009	-0,045	0,052
-424,803	-26,315	0,030	0,013
-423,788	96,512	0,080	-0,066
-422,773	-144,186	0,169	-0,011
-421,759	800,000	-0,046	0,101
-420,744	-200,000	-0,012	0,052
-419,730	-46,418	-0,093	-0,032
-418,715	-54,362	0,089	0,029
-417,701	743,579	-0,027	0,053
-416,686	-25,335	0,069	-0,029
-415,671	800,000	0,030	0,070
-414,657	294,132	0,079	0,104
-413,642	-117,228	-0,134	0,017
-412,628	-200,000	0,017	-0,055
-411,613	-13,704	-0,120	0,056
-410,598	200,832	-0,012	-0,013
-409,584	800,000	-0,021	-0,050
-408,569	372,925	0,048	-0,070
-407,555	-200,000	0,025	0,149
-406,540	800,000	0,042	0,105
-405,525	564,336	-0,023	-0,041
-404,511	800,000	-0,028	-0,069
-403,496	221,329	-0,016	-0,019
-402,482	-200,000	0,006	-0,176
-401,467	-146,938	0,104	0,006
-400,452	416,303	0,063	-0,096
-399,438	-132,427	-0,033	0,003
-398,423	598,614	-0,040	0,072
-397,409	-133,118	-0,091	0,008
-396,394	-108,462	-0,053	-0,008
-395,379	-169,211	-0,128	-0,003
-394,365	237,860	-0,006	0,007
-393,350	-200,000	0,011	0,138
-392,336	-174,267	0,182	-0,004
-391,321	-32,149	-0,018	-0,007
-390,306	231,960	-0,028	0,032
-389,292	96,512	-0,105	-0,086
-388,277	412,102	0,022	-0,034
-387,263	-179,916	-0,052	0,001
-386,248	135,244	0,081	0,075
-385,233	72,029	-0,041	0,031
-384,219	29,445	0,057	0,035
-383,204	160,931	-0,069	-0,069
-382,190	-159,445	0,008	0,000
-381,175	212,056	0,076	-0,086
-380,160	800,000	-0,033	0,068
-379,146	37,882	0,168	0,107
-378,131	-200,000	-0,005	0,065
-377,117	-152,064	-0,095	-0,005
-376,102	-102,008	-0,073	0,013
-375,088	800,000	-0,036	-0,095
-374,073	161,198	-0,056	-0,056
-373,058	-70,145	0,175	-0,047
-372,044	-125,304	-0,117	0,013
-371,029	-148,363	0,041	-0,002
-370,015	-200,000	0,015	0,089
-369,000	374,041	0,022	-0,031
-367,985	794,072	-0,032	-0,063
-366,971	75,465	-0,045	0,034
-365,956	-135,440	-0,022	0,002
-364,942	76,626	-0,098	-0,074
-363,927	800,000	0,023	0,064
-362,912	800,000	0,011	0,030
-361,898	-76,256	-0,188	0,047
-360,883	-172,359	0,020	0,000
-359,869	800,000	0,043	-0,122
-358,854	800,000	0,016	0,051
-357,839	800,000	0,015	-0,038
-356,825	54,133	-0,015	0,010
-355,810	-200,000	-0,006	0,072
-354,796	38,477	-0,153	-0,097
-353,781	4,838	-0,042	-0,022
-352,766	-136,521	0,053	-0,004
-351,752	282,809	0,095	-0,122
-350,737	130,942	0,104	0,096
-349,723	46,196	-0,105	-0,070
-348,708	-0,680	-0,051	0,026
-347,693	303,397	-0,058	0,077
-346,679	800,000	0,060	-0,125
-345,664	88,326	0,036	-0,028
-344,650	-58,492	-0,086	-0,027
-343,635	118,385	-0,086	-0,076
-342,620	67,806	0,059	0,043
-341,606	138,623	0,072	0,067
-340,591	134,103	-0,041	0,038
-339,577	-112,177	-0,075	-0,011
-338,562	-200,000	-0,012	0,047
-337,548	73,843	-0,089	0,067
-336,533	39,429	0,070	0,045
-335,518	-200,000	0,001	0,031
-334,504	-200,000	-0,049	-0,183
-333,489	-10,690	0,031	-0,014
-332,475	420,612	-0,045	-0,069
-331,460	-88,633	0,051	0,011
-330,445	488,104	-0,067	0,110
-329,431	175,586	0,107	0,111
-328,416	-200,000	-0,010	0,047
-327,402	-200,000	0,021	0,224
-326,387	325,510	-0,061	0,084
-325,372	431,430	0,009	-0,013
-324,358	-200,000	0,029	0,113
-323,343	21,454	0,089	0,051
-322,329	800,000	-0,030	0,080
-321,314	-94,925	0,093	0,018
-320,299	744,919	0,033	-0,064
-319,285	148,005	0,035	-0,033
-318,270	161,831	0,038	0,038
-317,256	89,741	0,115	-0,092
-316,241	696,691	-0,054	-0,102
-315,226	-200,000	0,002	-0,022
-314,212	-65,430	0,142	0,041
-313,197	313,504	-0,051	-0,069
-312,183	223,583	-0,074	0,085
-311,168	-200,000	-0,008	-0,069
-310,153	-122,682	0,082	0,009
-309,139	172,147	-0,058	-0,060
-308,124	-200,000	0,001	0,071
-307,110	574,437	0,057	-0,099
-306,095	-112,803	-0,060	-0,008
-305,080	-133,626	0,047	-0,004
-304,066	-200,000	-0,025	-0,099
-303,051	-86,088	-0,134	-0,029
-302,037	-200,000	0,005	-0,091
-301,022	612,914	0,075	0,135
-300,008	72,138	0,037	-0,027
-298,993	-52,008	0,050	-0,016
-297,978	-200,000	-0,005	0,108
-296,964	-19,708	-0,050	-0,022
-295,949	681,755	0,006	-0,012
-294,935	187,213	0,056	-0,059
-293,920	-108,890	0,087	0,013
-292,905	800,000	0,057	0,120
-291,891	-38,477	-0,074	0,028
-290,876	93,758	-0,095	-0,077
-289,862	800,000	0,013	-0,037
-288,847	15,669	-0,171	-0,096
-287,832	584,274	-0,040	-0,071
-286,818	-75,880	0,117	0,029
-285,803	-200,000	0,006	0,023
-284,789	100,380	0,132	-0,109
-283,774	26,360	0,081	0,048
-282,759	310,343	-0,080	-0,107
-281,745	-200,000	-0,035	-0,163
-280,730	508,729	0,064	-0,107
-279,716	-50,371	0,089	-0,030
-278,701	39,720	-0,103	0,066
-277,686	100,927	-0,072	0,060
-276,672	-200,000	0,004	0,073
-275,657	351,087	-0,049	-0,069
-274,643	641,057	-0,010	-0,018
-273,628	739,395	0,031	-0,059
-272,613	-180,720	-0,158	0,002
-271,599	-200,000	0,009	0,132
-270,584	-200,000	0,001	0,154
-269,570	189,742	-0,091	0,097
-268,555	351,163	0,147	0,207
-267,540	-104,881	-0,063	-0,010
-266,526	-125,715	-0,106	0,011
-265,511	-200,000	-0,003	0,071
-264,497	-108,401	0,087	0,013
-263,482	64,928	0,050	0,036
-262,467	237,578	-0,081	0,096
-261,453	110,655	0,087	-0,074
-260,438	0,236	-0,075	0,038
-259,424	800,000	0,024	-0,075
-258,409	-13,189	0,037	-0,017
-257,395	800,000	-0,047	0,115
-256,380	-20,215	0,060	0,026
-255,365	-200,000	0,015	-0,074
-254,351	-95,386	0,095	-0,018
-253,336	-3,972	-0,101	-0,050
-252,322	-48,414	-0,156	-0,053
-251,307	-200,000	-0,003	-0,061
-250,292	-200,000	0,005	-0,046
-249,278	178,873	0,073	0,076
-248,263	97,630	-0,077	0,063
-247,249	800,000	-0,020	0,043
-246,234	-200,000	-0,012	0,111
-245,219	800,000	-0,023	0,062
-244,205	16,225	-0,061	-0,034
-243,190	-155,401	0,110	0,005
-242,176	259,115	-0,036	-0,044
-241,161	142,655	0,060	-0,057
-240,146	-164,132	0,094	-0,003
-239,132	-146,302	0,125	0,008
-238,117	-118,746	-0,077	-0,010
-237,103	-200,000	-0,043	0,147
-236,088	101,039	0,099	-0,082
-235,073	304,951	0,068	-0,091
-234,059	-200,000	0,007	0,033
-233,044	-200,000	0,006	0,109
-232,030	-200,000	-0,024	-0,087
-231,015	88,652	-0,046	-0,036
-230,000	260,391	0,075	-0,092
-228,986	800,000	0,062	0,150
-227,971	-23,638	-0,076	-0,032
-226,957	-200,000	0,028	0,243
-225,942	-110,811	-0,100	0,014
-224,927	40,487	-0,043	0,027
-223,913	800,000	0,017	0,044
-222,898	-35,227	-0,270	-0,104
-221,884	31,401	-0,069	-0,042
-220,869	59,212	0,094	-0,066
-219,855	-125,764	0,056	-0,006
-218,840	398,393	-0,055	0,082
-217,825	303,521	0,005	0,006
-216,811	99,486	-0,036	-0,030
-215,796	303,158	0,067	0,089
-214,782	-28,569	0,053	-0,022
-213,767	411,839	-0,018	0,028
-212,752	108,310	0,033	0,028
-211,738	-25,636	0,170	0,071
-210,723	800,000	-0,024	0,049
-209,709	-200,000	0,002	-0,041
-208,694	-123,244	-0,159	-0,018
-207,679	40,496	0,029	-0,018
-206,665	-118,081	0,038	-0,005
-205,650	-43,851	0,018	0,007
-204,636	30,141	0,091	-0,055
-203,621	167,187	-0,067	0,068
-202,606	-6,419	-0,091	-0,044
-201,592	-200,000	-0,008	-0,084
-200,577	-200,000	-0,023	-0,161
-199,563	800,000	0,029	0,090
-198,548	116,026	0,061	0,053
-197,533	271,481	0,018	-0,022
-196,519	-159,390	0,117	0,005
-195,504	800,000	0,010	-0,024
-194,490	-200,000	0,020	-0,177
-193,475	-200,000	-0,022	0,090
-192,460	329,720	0,033	-0,045
-191,446	281,389	-0,048	0,062
-190,431	51,563	0,086	-0,058
-189,417	-137,157	0,163	-0,013
-188,402	-57,631	0,164	-0,051
-187,387	363,285	-0,092	-0,132
-186,373	-21,506	-0,032	-0,014
-185,358	637,839	-0,022	-0,040
-184,344	-200,000	0,013	0,106
-183,329	800,000	-0,068	-0,139
-182,315	26,162	0,073	0,043
-181,300	306,291	-0,052	0,068
-180,285	277,435	0,075	-0,095
-179,271	-200,000	0,012	-0,072
-178,256	-76,242	-0,167	-0,042
-177,242	14,285	0,161	-0,089
-176,227	-110,898	0,221	0,032
-175,212	-64,754	-0,089	0,025
-174,198	-200,000	0,005	-0,063
-173,183	101,419	-0,088	-0,073
-172,169	144,766	-0,137	-0,130
-171,154	169,670	0,058	0,059
-170,139	62,801	-0,110	-0,078
-169,125	-83,880	-0,029	0,006
-168,110	800,000	0,028	0,060
-167,096	344,963	-0,068	-0,094
-166,081	215,682	-0,142	-0,160
-165,066	-200,000	-0,020	-0,117
-164,052	-200,000	0,023	-0,094
-163,037	800,000	0,036	0,098
-162,023	442,689	0,073	-0,114
-161,008	12,979	0,150	-0,082
-159,993	70,542	-0,178	0,130
-158,979	800,000	-0,048	0,099
-157,964	-75,095	-0,046	0,012
-156,950	23,187	-0,091	-0,053
-155,935	800,000	0,046	-0,098
-154,920	360,416	-0,067	-0,095
-153,906	37,464	-0,026	0,016
-152,891	-99,907	0,082	0,014
-151,877	452,704	-0,015	0,023
-150,862	412,993	-0,097	-0,146
-149,847	800,000	-0,013	0,032
-148,833	-200,000	-0,003	0,108
-147,818	-123,387	0,067	-0,007
-146,804	11,843	0,032	-0,017
-145,789	800,000	-0,009	-0,027
-144,775	800,000	-0,042	-0,094
-143,760	-32,704	0,115	0,045
-142,745	-83,447	0,026	-0,006
-141,731	-77,212	-0,040	-0,010
-140,716	-200,000	0,001	-0,132
-139,702	-70,794	0,094	0,025
-138,687	364,507	0,027	0,039
-137,672	-200,000	0,021	0,173
-136,658	3,254	-0,072	0,037
-135,643	-200,000	0,033	0,120
-134,629	435,069	-0,025	0,038
-133,614	192,804	-0,042	-0,045
-132,599	-27,220	0,103	-0,042
-131,585	-200,000	0,007	-0,092
-130,570	-200,000	-0,024	0,145
-129,556	800,000	0,083	-0,177
-128,541	422,168	-0,114	-0,174
-127,526	-90,220	0,134	-0,027
-126,512	5,147	-0,082	0,043
-125,497	293,324	0,103	0,134
-124,483	-152,665	0,035	-0,002
-123,468	111,121	0,082	-0,070
-122,453	-92,824	-0,138	-0,027
-121,439	165,624	-0,022	0,022
-120,424	508,569	-0,028	0,046
-119,410	276,837	0,036	-0,046
-118,395	-88,980	0,044	0,009
-117,380	139,472	-0,138	0,129
-116,366	-200,000	0,017	-0,075
-115,351	800,000	-0,083	0,166
-114,337	-200,000	-0,013	0,048
-113,322	-114,844	0,075	0,010
-112,307	-84,646	-0,120	-0,027
-111,293	-123,331	0,220	0,025
-110,278	800,000	0,030	0,076
-109,264	800,000	-0,019	0,048
-108,249	44,548	-0,069	-0,045
-107,234	800,000	-0,047	-0,107
-106,220	169,964	-0,024	0,024
-105,205	-200,000	-0,003	0,040
-104,191	-200,000	0,031	0,101
-103,176	-200,000	0,008	0,053
-102,162	16,908	0,083	-0,046
-101,147	-76,111	0,099	0,025
-100,132	-12,987	0,144	0,066
-99,118	419,617	-0,065	-0,098
-98,103	-200,000	-0,006	0,019
-97,089	-200,000	0,018	-0,196
-96,074	-85,056	0,043	0,009
-95,059	-37,437	0,077	0,029
-94,045	-62,330	-0,105	-0,031
-93,030	-200,000	-0,018	-0,123
-92,016	6,198	-0,086	-0,045
-91,001	-56,731	0,049	0,015
-89,986	-200,000	0,016	-0,078
-88,972	1,561	-0,036	-0,018
-87,957	9,298	0,127	-0,068
-86,943	-9,003	0,072	-0,034
-85,928	14,926	-0,106	0,058
-84,913	800,000	-0,066	0,140
-83,899	24,836	-0,088	0,051
-82,884	800,000	0,055	0,118
-81,870	800,000	0,059	0,130
-80,855	-175,334	-0,039	-0,001
-79,840	-200,000	0,019	0,112
-78,826	439,287	0,036	0,056
-77,811	71,606	-0,088	0,065
-76,797	412,839	0,043	-0,065
-75,782	-200,000	-0,022	0,077
-74,767	800,000	0,103	0,281
-73,753	-61,632	0,089	-0,026
-72,738	543,025	-0,069	-0,116
-71,724	-47,835	-0,059	0,020
-70,709	800,000	-0,041	-0,116
-69,694	-155,755	0,056	-0,003
-68,680	800,000	-0,051	0,105
-67,665	633,922	0,006	0,010
-66,651	-200,000	0,013	0,046
-65,636	100,807	-0,103	-0,085
-64,622	-24,436	-0,090	-0,038
-63,607	800,000	0,007	-0,018
-62,592	-200,000	-0,001	-0,042
-61,578	-51,570	0,075	-0,024
-60,563	98,754	0,098	0,080
-59,549	-200,000	-0,032	0,240
-58,534	18,915	-1,941	-1,096
-57,519	500,936	-1,342	-2,196
-56,505	-200,000	-0,365	-4,375
-55,490	487,865	0,766	1,239
-54,476	800,000	5,158	11,267
-53,461	-200,000	20,456	327,520
-52,446	800,000	752,762	2313,776
-51,432	551,154	1658,160	2821,259
-50,417	74,026	1663,642	1231,424
-49,403	19,246	1536,857	868,910
-48,388	13,222	1459,695	796,140
-47,373	18,811	1450,236	817,785
-46,359	16,141	1439,639	799,068
-45,344	11,443	1435,597	774,417
-44,330	11,451	1433,306	773,189
-43,315	11,403	1431,680	772,050
-42,300	11,477	1429,832	771,379
-41,286	11,424	1428,805	770,543
-40,271	11,395	1427,413	769,621
-39,257	11,405	1426,138	768,950
-38,242	11,433	1425,037	768,459
-37,227	11,427	1423,718	767,687
-36,213	11,446	1422,461	767,071
-35,198	11,462	1421,372	766,526
-34,184	11,510	1420,443	766,225
-33,169	11,411	1419,212	765,061
-32,154	11,495	1417,944	764,746
-31,140	11,521	1416,676	764,153
-30,125	11,504	1415,915	763,633
-29,111	11,498	1414,778	762,960
-28,096	11,467	1413,648	762,175
-27,082	11,420	1412,445	761,273
-26,067	11,398	1411,436	760,596
-25,052	11,429	1410,012	759,947
-24,038	11,399	1409,360	759,424
-23,023	11,389	1408,458	758,859
-22,009	11,405	1407,166	758,207
-20,994	11,370	1406,239	757,516
-19,979	11,360	1405,480	757,029
-18,965	11,335	1404,285	756,238
-17,950	11,358	1403,510	755,901
-16,936	11,310	1403,001	755,370
-15,921	11,297	1401,717	754,589
-14,906	11,347	1400,703	754,249
-13,892	11,382	1399,689	753,835
-12,877	11,291	1399,205	753,120
-11,863	11,309	1398,096	752,579
-10,848	11,288	1397,364	752,054
-9,833	11,234	1396,257	751,179
-8,819	11,226	1395,530	750,720
-7,804	11,184	1394,742	750,076
-6,790	11,232	1393,616	749,659
-5,775	11,252	1392,515	749,133
-4,760	11,271	1391,451	748,614
-3,746	11,242	1390,666	748,030
-2,731	11,229	1389,889	747,525
-1,717	11,173	1389,014	746,766
-0,702	11,184	1387,285	745,857
0,313	15,177	1301,656	718,125
1,327	31,400	694,106	419,899
2,342	48,082	120,637	79,456
3,356	3,542	16,372	8,396
4,371	0,978	3,477	1,753
5,386	28,418	0,824	0,490
6,400	-200,000	0,108	0,550
7,415	162,336	-0,172	-0,170
8,429	-58,823	-0,411	-0,125
9,444	103,094	-0,330	-0,272
10,459	-35,388	-0,238	-0,091
11,473	137,128	-0,259	-0,239
12,488	177,186	-0,217	-0,223
13,502	34,651	-0,349	-0,215
14,517	429,407	-0,254	-0,389
15,531	40,522	-0,375	-0,238
16,546	205,282	-0,326	-0,357
17,561	431,377	-0,217	-0,333
18,575	-200,000	-0,260	0,000
19,590	113,616	-0,227	-0,195
20,604	7,427	-0,269	-0,141
21,619	71,091	-0,445	-0,325
22,634	221,396	-0,345	-0,391
23,648	11,964	-0,509	-0,275
24,663	26,737	-0,386	-0,227
25,677	-71,443	-0,292	-0,076
26,692	-61,964	-0,439	-0,128
27,707	25,207	-0,264	-0,154
28,721	62,407	-0,363	-0,255
29,736	57,904	-0,514	-0,353
30,750	120,333	-0,332	-0,290
31,765	138,124	-0,377	-0,348
32,780	151,771	-0,344	-0,330
33,794	32,723	-0,424	-0,257
34,809	85,277	-0,283	-0,219
35,823	184,418	-0,323	-0,337
36,838	103,689	-0,429	-0,354
37,853	9,198	-0,419	-0,222
38,867	-23,255	-0,361	-0,152
39,882	-1,745	-0,307	-0,152
40,896	194,194	-0,262	-0,280
41,911	82,866	-0,342	-0,262
42,926	-1,087	-0,521	-0,258
43,940	29,904	-0,459	-0,274
44,955	203,429	-0,307	-0,334
45,969	13,344	-0,383	-0,208
46,984	18,161	-0,352	-0,197
47,999	134,249	-0,350	-0,319
49,013	195,497	-0,248	-0,266
50,028	25,196	-0,277	-0,161
51,042	48,433	-0,357	-0,235
52,057	1,327	-0,404	-0,203
53,071	70,382	-0,292	-0,212
54,086	81,605	-0,326	-0,248
55,101	101,614	-0,292	-0,239
56,115	-58,343	-0,405	-0,123
57,130	101,706	-0,344	-0,281
58,144	122,034	-0,306	-0,268
59,159	139,925	-0,369	-0,342
60,174	4,935	-0,380	-0,196
61,188	40,467	-0,327	-0,206
62,203	-43,909	-0,371	-0,130
63,217	14,896	-0,297	-0,163
64,232	125,435	-0,289	-0,256
65,247	220,904	-0,316	-0,357
66,261	-16,965	-0,328	-0,145
67,276	51,115	-0,310	-0,206
68,290	-76,321	-0,424	-0,104
69,305	170,889	-0,222	-0,223
70,320	800,000	-0,152	-0,357
71,334	293,815	-0,312	-0,401
72,349	407,427	-0,221	-0,328
73,363	62,136	-0,307	-0,215
74,378	-44,038	-0,341	-0,119
75,393	13,835	-0,208	-0,113
76,407	-70,082	-0,295	-0,078
77,422	46,784	-0,365	-0,237
78,436	-26,941	-0,407	-0,166
79,451	365,179	-0,175	-0,248
80,466	14,195	-0,246	-0,134
81,480	39,330	-0,401	-0,251
82,495	64,252	-0,324	-0,228
83,509	4,269	-0,308	-0,158
84,524	71,788	-0,207	-0,151
85,539	604,215	-0,136	-0,237
86,553	-10,264	-0,295	-0,137
87,568	23,153	-0,283	-0,163
88,582	75,682	-0,293	-0,216
89,597	-30,966	-0,380	-0,150
90,611	21,384	-0,191	-0,109
91,626	187,773	-0,263	-0,275
92,641	66,821	-0,169	-0,121
93,655	-70,333	-0,260	-0,068
94,670	44,684	-0,331	-0,212
95,684	88,789	-0,295	-0,230
96,699	235,953	-0,192	-0,223
97,714	101,603	-0,143	-0,117
98,728	322,078	-0,179	-0,239
99,743	-27,152	-0,358	-0,145
100,757	188,939	-0,200	-0,210
101,772	25,479	-0,240	-0,139
102,787	78,594	-0,245	-0,183
103,801	-94,485	-0,346	-0,065
104,816	18,847	-0,272	-0,152
105,830	-33,758	-0,319	-0,122
106,845	88,167	-0,197	-0,152
107,860	-73,757	-0,313	-0,079
108,874	-107,763	-0,347	-0,052
109,889	127,066	-0,317	-0,281
110,903	232,318	-0,285	-0,327
111,918	-17,862	-0,288	-0,126
112,933	18,804	-0,225	-0,126
113,947	-7,442	-0,289	-0,136
114,962	-61,662	-0,187	-0,054
115,976	-132,194	-0,244	0,022
116,991	-34,805	-0,373	-0,142
118,006	84,110	-0,338	-0,258
119,020	800,000	-0,076	-0,187
120,035	-44,602	-0,326	-0,113
121,049	-134,466	-0,173	0,015
122,064	29,713	-0,179	-0,106
123,079	72,366	-0,157	-0,114
124,093	88,288	-0,263	-0,204
125,108	113,719	-0,251	-0,213
126,122	107,731	-0,349	-0,290
127,137	-72,420	-0,203	-0,052
128,151	85,586	-0,124	-0,095
129,166	150,349	-0,130	-0,123
130,181	150,427	-0,272	-0,258
131,195	280,801	-0,220	-0,276
132,210	21,478	-0,294	-0,166
133,224	145,844	-0,377	-0,353
134,239	800,000	-0,118	-0,326
135,254	82,457	-0,153	-0,115
136,268	258,994	-0,160	-0,192
137,283	90,293	-0,257	-0,201
138,297	8,415	-0,227	-0,118
139,312	55,008	-0,344	-0,232
140,327	31,352	-0,231	-0,138
141,341	53,101	-0,250	-0,167
142,356	-33,057	-0,237	-0,091
143,370	-8,191	-0,375	-0,175
144,385	1,961	-0,218	-0,109
145,400	41,924	-0,245	-0,155
146,414	252,277	-0,180	-0,214
147,429	499,695	-0,197	-0,318
148,443	149,038	-0,227	-0,214
149,458	229,818	-0,253	-0,289
150,473	-132,717	-0,314	-0,028
151,487	-16,078	-0,318	-0,140
152,502	278,889	-0,276	-0,344
153,516	116,847	-0,272	-0,232
154,531	463,724	-0,226	-0,354
155,546	247,995	-0,215	-0,254
156,560	-45,349	-0,279	-0,096
157,575	-12,356	-0,230	-0,104
158,589	-30,979	-0,224	-0,088
159,604	139,553	-0,258	-0,236
160,619	10,995	-0,243	-0,129
161,633	223,605	-0,208	-0,234
162,648	49,459	-0,261	-0,171
163,662	-5,559	-0,207	-0,099
164,677	46,848	-0,211	-0,136
165,692	-167,760	-0,225	-0,006
166,706	38,462	-0,138	-0,086
167,721	-57,796	-0,199	-0,060
168,735	345,211	-0,206	-0,282
169,750	246,783	-0,164	-0,193
170,764	81,848	-0,293	-0,220
171,779	100,447	-0,200	-0,161
172,794	-49,667	-0,146	0,048
173,808	800,000	-0,093	-0,254
174,823	-102,020	-0,451	-0,075
175,837	-27,097	-0,209	-0,084
176,852	-36,991	-0,232	-0,086
177,867	11,362	-0,264	-0,140
178,881	36,029	-0,208	-0,127
179,896	38,550	-0,112	-0,069
180,910	-12,219	-0,268	-0,121
181,925	21,526	-0,240	-0,135
182,940	2,583	-0,397	-0,199
183,954	800,000	-0,104	-0,222
184,969	240,056	-0,244	-0,283
185,983	800,000	-0,053	-0,158
186,998	447,344	-0,123	-0,189
188,013	8,651	-0,298	-0,155
189,027	58,199	-0,199	-0,135
190,042	800,000	-0,116	-0,237
191,056	118,586	-0,256	-0,219
192,071	-35,914	-0,183	-0,068
193,086	434,260	-0,090	-0,135
194,100	395,164	-0,147	-0,213
195,115	56,421	-0,164	-0,110
196,129	-17,459	-0,195	-0,085
197,144	143,420	-0,085	-0,078
198,159	71,623	-0,205	-0,148
199,173	-84,481	-0,133	-0,029
200,188	-67,470	-0,184	-0,050
201,202	24,329	-0,173	-0,099
202,217	-158,047	-0,268	-0,011
203,232	86,453	-0,327	-0,250
204,246	90,285	-0,163	-0,126
205,261	800,000	-0,110	-0,280
206,275	-24,658	-0,130	0,053
207,290	320,886	-0,138	-0,183
208,304	712,980	-0,094	-0,173
209,319	800,000	-0,156	-0,301
210,334	104,882	-0,284	-0,232
211,348	800,000	-0,095	-0,208
212,363	228,070	-0,133	-0,150
213,377	800,000	-0,129	-0,334
214,392	-49,199	-0,166	-0,055
215,407	727,681	-0,087	-0,162
216,421	-52,995	-0,206	-0,065
217,436	-32,046	-0,317	-0,122
218,450	-200,000	-0,051	-0,157
219,465	-61,806	-0,281	-0,081
220,480	-22,658	-0,182	-0,076
221,494	-19,147	-0,273	-0,117
222,509	318,806	-0,145	-0,191
223,523	99,891	-0,213	-0,171
224,538	56,898	-0,222	-0,150
225,553	545,531	-0,081	-0,134
226,567	78,231	-0,109	-0,081
227,582	87,574	-0,149	-0,114
228,596	341,459	-0,070	-0,095
229,611	42,860	-0,173	-0,109
230,626	-49,997	-0,118	-0,038
231,640	-10,614	-0,227	-0,103
232,655	91,800	-0,207	-0,161
233,669	271,834	-0,257	-0,314
234,684	94,178	-0,197	-0,155
235,699	530,328	-0,171	-0,281
236,713	455,346	-0,096	-0,148
237,728	68,108	-0,195	-0,138
238,742	-200,000	0,001	-0,061
239,757	800,000	-0,079	-0,220
240,772	150,790	-0,185	-0,174
241,786	-84,835	-0,234	-0,050
242,801	54,275	-0,150	-0,100
243,815	-14,883	-0,216	-0,096
244,830	273,634	-0,203	-0,249
245,844	-38,093	-0,074	-0,027
246,859	139,707	-0,172	-0,156
247,874	244,516	-0,143	-0,166
248,888	-8,413	-0,299	-0,138
249,903	-89,600	-0,196	-0,039
250,917	508,466	-0,041	-0,066
251,932	152,303	-0,063	-0,059
252,947	368,621	-0,064	-0,090
253,961	-200,000	0,025	-0,196
254,976	800,000	-0,099	-0,261
255,990	186,976	-0,163	-0,168
257,005	169,011	-0,167	-0,164
258,020	111,169	-0,105	-0,087
259,034	-4,374	-0,135	-0,064
260,049	800,000	-0,107	-0,243
261,063	396,905	-0,111	-0,161
262,078	-141,145	-0,303	-0,021
263,093	7,643	-0,215	-0,110
264,107	-11,117	-0,194	-0,088
265,122	-200,000	-0,059	-0,241
266,136	40,908	-0,176	-0,109
267,151	-119,148	-0,282	-0,034
268,166	-57,577	-0,240	-0,072
269,180	205,018	-0,141	-0,151
270,195	181,619	-0,106	-0,107
271,209	133,463	-0,192	-0,172
272,224	-200,000	-0,045	-0,208
273,239	155,558	-0,099	-0,094
274,253	113,655	-0,190	-0,159
275,268	-197,659	-0,260	0,001
276,282	80,975	-0,156	-0,116
277,297	89,964	-0,154	-0,118
278,312	-89,806	-0,130	-0,026
279,326	-46,876	-0,057	0,019
280,341	800,000	-0,048	-0,118
281,355	45,631	-0,179	-0,114
282,370	800,000	-0,104	-0,287
283,384	83,079	-0,165	-0,124
284,399	-80,295	-0,170	-0,039
285,414	84,412	-0,119	-0,089
286,428	-98,904	-0,169	-0,029
287,443	-69,146	-0,115	-0,030
288,457	67,304	-0,166	-0,116
289,472	125,261	-0,180	-0,156
290,487	204,989	-0,122	-0,130
291,501	-3,280	-0,210	-0,101
292,516	185,725	-0,254	-0,260
293,530	388,832	-0,085	-0,121
294,545	-71,896	-0,234	-0,059
295,560	-34,753	-0,134	0,050
296,574	29,896	-0,115	-0,067
297,589	448,546	-0,152	-0,231
298,603	219,547	-0,108	-0,119
299,618	152,102	-0,063	-0,059
300,633	-4,940	-0,150	0,071
301,647	-98,434	-0,198	-0,034
302,662	-39,204	-0,167	0,060
303,676	9,944	-0,061	-0,032
304,691	51,404	-0,116	-0,075
305,706	343,409	-0,207	-0,280
306,720	102,657	-0,120	-0,097
307,735	97,369	-0,116	-0,092
308,749	-200,000	-0,039	-0,221
309,764	67,433	-0,166	-0,116
310,779	-114,149	-0,210	0,028
311,793	86,192	-0,178	-0,135
312,808	71,102	-0,253	-0,180
313,822	125,375	-0,162	-0,141
314,837	112,544	-0,150	-0,125
315,852	436,136	-0,104	-0,156
316,866	559,413	-0,054	-0,090
317,881	67,065	-0,118	-0,082
318,895	21,691	-0,182	-0,102
319,910	-153,279	-0,117	0,005
320,925	19,399	-0,295	-0,162
321,939	459,241	-0,136	-0,209
322,954	-38,550	-0,064	-0,023
323,968	30,031	-0,213	-0,124
324,983	-86,263	-0,198	-0,042
325,997	-122,234	-0,116	0,013
327,012	-146,545	-0,147	-0,009
328,027	-62,912	-0,088	-0,025
329,041	223,776	-0,060	-0,066
330,056	-40,494	-0,163	-0,058
331,070	-86,928	-0,156	-0,032
332,085	800,000	-0,028	-0,074
333,100	800,000	-0,057	-0,140
334,114	333,737	-0,161	-0,215
335,129	271,426	-0,120	-0,146
336,143	58,620	-0,152	-0,102
337,158	257,593	-0,076	-0,089
338,173	-200,000	0,002	0,016
339,187	57,984	-0,123	-0,082
340,202	65,321	-0,145	-0,100
341,216	42,505	-0,149	-0,093
342,231	-167,885	-0,197	-0,005
343,246	256,582	-0,047	-0,055
344,260	-102,492	-0,095	-0,015
345,275	-50,650	-0,101	0,032
346,289	246,353	-0,121	0,140
347,304	-21,572	-0,189	-0,078
348,319	-42,821	-0,272	-0,094
349,333	-164,159	-0,135	-0,004
350,348	800,000	-0,065	-0,125
351,362	-110,385	-0,097	0,014
352,377	239,895	-0,096	-0,110
353,392	155,104	-0,115	-0,108
354,406	93,078	-0,085	-0,066
355,421	206,967	1308,415	1397,163
356,435	159,198	1468,348	1397,662
