DTS Sentinel unit serial number:	SN410029Multiplexer serial number:	ORYXHardware model number:	OX2-SRSoftware version number:	ORYX F/W v4,00 Oryx Data Collector v3.7.2.0data status	okinstallation	B3 Nyhavnadifferential loss correction	single-endedforward channel	channel 1reverse channel	N/Adate	2023/12/04time	05:37:30forward acquisition time	300,00reverse acquisition time	0,00gamma	499,1914k internal	0,3205k external	0,3205temperature offset calibration	1,0000default loss term (dB/km)	0,3820temperature slope calibration	1,0000multiplexer offset coefficient	1,0000multiplexer slope coefficient	1,0000fibre end	0,00T internal ref (°C)	12,01T ext. ref 1 (°C)	-2,88T ext. ref 2 (°C)	-2,91length (m)	temperature (°C)	Stokes	anti-Stokes-744,400	135,615	-0,242	-0,229
-743,385	-200,000	0,021	0,320
-742,371	385,474	-0,110	-0,166
-741,356	-200,000	0,038	0,367
-740,342	50,034	-0,319	-0,218
-739,327	-200,000	0,010	0,197
-738,312	266,038	-0,205	-0,260
-737,298	84,143	-0,109	0,087
-736,283	442,887	-0,108	-0,173
-735,269	800,000	-0,037	0,102
-734,254	800,000	-0,134	-0,353
-733,239	-61,377	-0,173	0,052
-732,225	-200,000	-0,052	-0,271
-731,210	-42,006	0,153	0,057
-730,196	800,000	-0,017	-0,037
-729,181	149,367	-0,034	-0,034
-728,167	-200,000	0,004	-0,155
-727,152	-200,000	-0,011	-0,125
-726,137	92,445	-0,056	0,046
-725,123	248,671	-0,040	-0,049
-724,108	-31,745	-0,132	-0,054
-723,094	-200,000	-0,007	-0,050
-722,079	-200,000	-0,029	-0,095
-721,064	254,680	0,041	-0,051
-720,050	-51,162	-0,050	0,017
-719,035	-6,295	-0,024	0,012
-718,021	-200,000	-0,031	-0,109
-717,006	157,202	-0,043	-0,043
-715,991	113,143	0,010	-0,009
-714,977	316,941	-0,035	-0,047
-713,962	-200,000	0,008	-0,078
-712,948	295,349	-0,044	0,058
-711,933	334,307	0,040	-0,056
-710,918	85,290	-0,054	-0,043
-709,904	-9,307	0,168	0,081
-708,889	800,000	-0,032	0,071
-707,875	34,609	-0,080	0,051
-706,860	241,425	-0,055	-0,067
-705,845	582,925	0,042	0,075
-704,831	785,345	0,064	0,129
-703,816	167,333	0,025	-0,025
-702,802	79,534	-0,097	-0,075
-701,787	800,000	-0,015	-0,044
-700,772	239,413	-0,188	-0,227
-699,758	800,000	-0,041	-0,096
-698,743	-200,000	-0,047	-0,169
-697,729	664,607	0,058	-0,110
-696,714	441,917	-0,030	0,047
-695,699	328,293	0,070	-0,098
-694,685	-200,000	-0,011	-0,080
-693,670	-178,884	-0,075	-0,001
-692,656	-20,624	0,104	-0,046
-691,641	-182,766	-0,024	0,000
-690,627	69,859	0,060	0,044
-689,612	800,000	-0,074	-0,186
-688,597	98,626	0,126	-0,106
-687,583	46,846	-0,023	-0,015
-686,568	138,299	-0,014	-0,013
-685,554	25,087	-0,131	-0,079
-684,539	100,890	0,048	-0,041
-683,524	-92,262	-0,104	0,021
-682,510	-200,000	0,013	0,106
-681,495	-130,103	0,093	0,009
-680,481	-77,758	-0,122	0,030
-679,466	76,689	-0,097	-0,074
-678,451	-200,000	0,032	-0,195
-677,437	-200,000	0,025	-0,179
-676,422	-50,630	-0,049	-0,017
-675,408	800,000	-0,052	0,121
-674,393	-200,000	-0,002	-0,119
-673,378	-200,000	-0,012	-0,070
-672,364	222,246	-0,062	-0,073
-671,349	-200,000	-0,005	-0,160
-670,335	-200,000	0,007	-0,027
-669,320	-200,000	0,010	-0,044
-668,305	800,000	-0,019	-0,043
-667,291	125,578	0,112	-0,102
-666,276	-200,000	-0,009	-0,064
-665,262	-128,958	-0,139	0,014
-664,247	74,450	-0,066	-0,050
-663,232	-145,207	-0,105	0,007
-662,218	-200,000	-0,009	0,036
-661,203	110,623	0,022	-0,020
-660,189	800,000	-0,021	0,051
-659,174	-200,000	0,007	0,089
-658,159	265,513	-0,050	-0,064
-657,145	195,061	-0,039	-0,043
-656,130	-122,479	-0,077	0,009
-655,116	-200,000	-0,016	0,050
-654,101	201,013	-0,068	0,076
-653,086	279,698	0,104	-0,135
-652,072	411,329	0,095	-0,146
-651,057	-200,000	0,023	-0,135
-650,043	45,912	-0,078	-0,052
-649,028	194,171	-0,108	-0,119
-648,014	20,788	0,006	0,004
-646,999	800,000	-0,036	-0,099
-645,984	107,339	-0,145	0,125
-644,970	19,916	-0,055	-0,032
-643,955	439,159	0,014	-0,022
-642,941	55,854	-0,195	-0,137
-641,926	-120,027	0,043	-0,005
-640,911	-101,824	-0,167	0,029
-639,897	-92,783	0,193	0,039
-638,882	489,754	0,049	0,081
-637,868	800,000	0,036	-0,084
-636,853	-42,853	-0,090	-0,033
-635,838	42,185	0,167	0,109
-634,824	56,894	-0,075	0,053
-633,809	-200,000	-0,010	0,065
-632,795	-68,092	0,109	0,030
-631,780	28,561	-0,107	-0,065
-630,765	53,123	-0,112	0,077
-629,751	383,885	0,073	0,109
-628,736	-200,000	-0,007	-0,047
-627,722	-121,747	-0,192	0,023
-626,707	-31,390	-0,103	0,042
-625,692	146,386	0,104	0,101
-624,678	-39,586	0,034	-0,013
-623,663	-81,363	-0,134	0,032
-622,649	24,955	-0,113	-0,067
-621,634	-50,536	0,020	-0,007
-620,619	39,348	0,057	-0,037
-619,605	-200,000	0,013	-0,101
-618,590	601,961	0,055	-0,098
-617,576	175,817	-0,153	0,160
-616,561	800,000	0,035	0,093
-615,546	274,977	0,081	0,103
-614,532	-66,001	-0,036	0,010
-613,517	-200,000	0,007	-0,073
-612,503	693,955	0,058	0,110
-611,488	-36,176	-0,060	0,023
-610,474	321,652	-0,029	0,040
-609,459	-5,877	-0,060	-0,030
-608,444	800,000	-0,074	-0,198
-607,430	576,786	-0,050	-0,088
-606,415	605,884	-0,009	0,016
-605,401	-200,000	-0,017	-0,098
-604,386	-83,994	0,116	-0,026
-603,371	-75,391	-0,037	0,009
-602,357	394,370	-0,031	-0,047
-601,342	-200,000	-0,026	-0,151
-600,328	285,299	-0,026	-0,034
-599,313	800,000	-0,022	0,054
-598,298	66,687	0,156	-0,114
-597,284	168,922	-0,032	0,033
-596,269	800,000	-0,025	0,068
-595,255	425,115	-0,042	0,065
-594,240	-33,579	0,068	0,027
-593,225	-200,000	0,000	-0,088
-592,211	246,351	-0,023	0,028
-591,196	-200,000	-0,003	-0,072
-590,182	-200,000	0,032	-0,103
-589,167	208,848	-0,036	0,041
-588,152	314,222	0,045	0,061
-587,138	87,685	-0,076	0,060
-586,123	175,801	0,043	-0,045
-585,109	314,656	-0,028	-0,039
-584,094	-200,000	-0,033	-0,230
-583,079	-200,000	0,027	0,141
-582,065	-87,301	0,108	0,024
-581,050	-160,833	-0,027	-0,001
-580,036	-72,410	0,047	0,013
-579,021	-21,925	0,099	-0,043
-578,006	800,000	0,023	-0,048
-576,992	-168,199	-0,096	-0,003
-575,977	-200,000	-0,011	0,083
-574,963	800,000	0,036	0,086
-573,948	-85,739	-0,009	0,002
-572,934	425,526	-0,033	0,051
-571,919	800,000	0,017	-0,041
-570,904	585,807	0,018	0,032
-569,890	781,299	-0,085	-0,168
-568,875	800,000	0,017	0,050
-567,861	94,514	-0,084	0,069
-566,846	800,000	0,035	0,081
-565,831	-141,335	-0,021	0,001
-564,817	92,716	0,035	-0,028
-563,802	-200,000	0,008	-0,030
-562,788	89,165	0,070	-0,056
-561,773	-69,827	0,021	-0,006
-560,758	168,709	0,106	0,109
-559,744	285,345	0,101	0,132
-558,729	-200,000	-0,002	-0,056
-557,715	191,381	-0,128	0,139
-556,700	-200,000	-0,038	-0,176
-555,685	28,586	-0,018	-0,011
-554,671	131,436	-0,008	0,008
-553,656	-72,640	-0,051	0,013
-552,642	-200,000	0,010	0,228
-551,627	-18,713	0,085	0,038
-550,612	-200,000	0,006	-0,089
-549,598	371,694	0,061	-0,090
-548,583	-165,516	-0,125	0,004
-547,569	-200,000	0,143	0,000
-546,554	-136,788	0,189	-0,015
-545,539	106,645	0,010	-0,009
-544,525	57,422	0,128	-0,090
-543,510	41,341	-0,110	0,072
-542,496	263,698	-0,070	-0,088
-541,481	-99,155	-0,137	0,025
-540,466	550,039	0,033	-0,057
-539,452	-187,250	-0,081	-0,001
-538,437	319,181	-0,069	-0,095
-537,423	800,000	0,010	-0,021
-536,408	-200,000	-0,004	-0,044
-535,393	800,000	-0,024	-0,053
-534,379	-200,000	0,061	-0,196
-533,364	-97,348	-0,108	-0,020
-532,350	477,085	0,043	0,071
-531,335	800,000	0,041	-0,088
-530,321	38,740	0,035	-0,022
-529,306	-10,763	-0,083	0,039
-528,291	-36,048	-0,063	0,024
-527,277	-90,853	0,012	0,002
-526,262	28,122	0,133	-0,081
-525,248	24,681	0,032	-0,019
-524,233	-200,000	0,043	0,176
-523,218	563,815	-0,080	0,140
-522,204	-200,000	-0,017	0,071
-521,189	-47,520	0,117	-0,041
-520,175	367,411	0,021	-0,030
-519,160	13,614	-0,087	0,049
-518,145	10,802	0,026	-0,014
-517,131	322,750	0,067	0,092
-516,116	-12,695	0,100	0,047
-515,102	-200,000	0,010	-0,159
-514,087	-52,978	-0,060	-0,020
-513,072	29,078	-0,109	-0,067
-512,058	-188,197	0,027	-0,000
-511,043	114,515	0,042	-0,037
-510,029	-118,622	0,078	0,010
-509,014	269,390	-0,033	0,042
-507,999	-200,000	0,010	0,197
-506,985	-23,163	-0,069	-0,030
-505,970	-63,643	-0,028	-0,008
-504,956	-26,318	0,071	0,030
-503,941	800,000	-0,021	0,045
-502,926	-200,000	0,023	0,127
-501,912	50,711	-0,100	0,068
-500,897	347,967	0,089	-0,127
-499,883	-103,906	-0,099	0,016
-498,868	800,000	0,046	-0,104
-497,853	-200,000	-0,028	-0,110
-496,839	-200,000	0,017	0,053
-495,824	-71,353	0,125	0,033
-494,810	800,000	0,007	0,015
-493,795	800,000	-0,025	-0,059
-492,781	333,187	-0,054	0,075
-491,766	184,662	-0,083	-0,089
-490,751	378,663	-0,076	-0,112
-489,737	-200,000	-0,005	-0,047
-488,722	345,959	0,069	0,098
-487,708	191,865	-0,051	0,055
-486,693	-200,000	-0,017	-0,078
-485,678	-35,651	-0,067	-0,026
-484,664	-200,000	-0,001	0,072
-483,649	800,000	-0,054	-0,118
-482,635	-200,000	-0,028	-0,097
-481,620	-75,179	0,101	0,026
-480,605	195,476	0,070	-0,077
-479,591	-200,000	0,004	0,083
-478,576	111,208	-0,059	-0,051
-477,562	-200,000	-0,032	-0,152
-476,547	55,545	-0,103	-0,071
-475,532	-46,768	0,124	0,043
-474,518	317,530	0,094	-0,128
-473,503	212,738	0,034	0,038
-472,489	-200,000	-0,005	0,054
-471,474	171,382	-0,103	-0,106
-470,459	403,292	0,043	0,065
-469,445	672,895	0,035	-0,066
-468,430	-200,000	-0,027	-0,142
-467,416	800,000	-0,059	0,127
-466,401	66,080	0,126	0,092
-465,386	133,062	-0,039	0,036
-464,372	715,040	-0,035	0,067
-463,357	6,192	0,159	-0,085
-462,343	428,721	-0,069	-0,108
-461,328	800,000	-0,031	0,070
-460,313	67,764	0,091	0,067
-459,299	57,325	-0,059	0,042
-458,284	-200,000	0,002	0,051
-457,270	-83,496	-0,082	0,019
-456,255	-200,000	0,041	-0,157
-455,241	401,664	-0,053	0,080
-454,226	27,755	-0,078	0,047
-453,211	800,000	-0,009	-0,023
-452,197	116,749	0,034	-0,030
-451,182	-200,000	-0,017	-0,103
-450,168	490,276	0,028	0,046
-449,153	-47,464	-0,084	-0,029
-448,138	-47,029	-0,046	-0,016
-447,124	-21,194	-0,034	-0,015
-446,109	31,834	0,110	-0,068
-445,095	124,455	-0,108	0,097
-444,080	-54,548	0,103	0,033
-443,065	800,000	-0,038	0,083
-442,051	2,121	-0,067	0,034
-441,036	-23,478	-0,050	0,022
-440,022	800,000	0,036	0,094
-439,007	800,000	-0,050	-0,134
-437,992	-1,826	0,182	-0,092
-436,978	-200,000	-0,002	-0,123
-435,963	63,796	0,038	0,027
-434,949	800,000	0,076	0,179
-433,934	-200,000	0,021	-0,084
-432,919	33,903	-0,077	0,048
-431,905	-90,455	-0,105	-0,022
-430,890	-101,902	0,115	0,020
-429,876	800,000	-0,079	0,215
-428,861	137,253	0,046	-0,043
-427,846	-200,000	0,005	-0,116
-426,832	403,193	0,020	0,030
-425,817	448,115	0,028	-0,044
-424,803	738,516	-0,044	-0,084
-423,788	800,000	0,048	0,149
-422,773	-200,000	-0,007	0,115
-421,759	800,000	-0,024	0,068
-420,744	244,673	-0,133	0,161
-419,730	101,713	0,115	-0,096
-418,715	-89,651	0,083	-0,017
-417,701	-200,000	0,025	-0,091
-416,686	-200,000	-0,026	0,102
-415,671	-200,000	-0,003	0,222
-414,657	-74,807	0,115	0,029
-413,642	-88,214	0,114	0,024
-412,628	110,153	0,028	0,024
-411,613	-33,303	-0,135	0,053
-410,598	800,000	-0,052	-0,111
-409,584	-200,000	0,036	-0,158
-408,569	-50,412	0,103	-0,035
-407,555	800,000	-0,005	0,015
-406,540	800,000	0,071	0,157
-405,525	245,370	-0,029	-0,035
-404,511	-200,000	-0,003	-0,014
-403,496	-200,000	-0,005	0,061
-402,482	485,461	-0,077	-0,126
-401,467	384,884	-0,012	0,018
-400,452	65,665	0,095	0,069
-399,438	0,484	0,039	0,020
-398,423	-0,357	-0,100	0,051
-397,409	139,380	0,029	0,027
-396,394	-200,000	0,022	-0,119
-395,379	-200,000	-0,004	-0,150
-394,365	520,801	0,056	-0,094
-393,350	-141,230	0,111	0,008
-392,336	800,000	0,042	-0,103
-391,321	-200,000	-0,020	0,075
-390,306	39,313	-0,111	0,071
-389,292	-158,569	0,155	-0,006
-388,277	800,000	0,076	-0,196
-387,263	583,398	-0,044	-0,077
-386,248	-200,000	0,025	0,093
-385,233	60,414	0,058	-0,041
-384,219	-200,000	0,005	-0,034
-383,204	800,000	0,026	0,060
-382,190	552,947	-0,030	-0,052
-381,175	222,798	-0,117	-0,135
-380,160	606,641	0,108	-0,194
-379,146	-72,729	0,035	-0,009
-378,131	-200,000	0,003	0,072
-377,117	-111,214	0,143	-0,021
-376,102	-200,000	0,015	0,056
-375,088	-200,000	-0,044	0,144
-374,073	-103,560	0,094	0,016
-373,058	-98,246	-0,033	-0,006
-372,044	743,730	-0,034	-0,066
-371,029	492,303	-0,074	0,122
-370,015	-200,000	-0,037	-0,160
-369,000	-200,000	-0,007	-0,031
-367,985	-162,260	-0,126	0,004
-366,971	-20,641	-0,171	-0,075
-365,956	410,583	0,017	0,026
-364,942	-200,000	0,001	0,048
-363,927	131,432	0,042	-0,039
-362,912	307,189	-0,096	0,128
-361,898	285,701	-0,074	0,096
-360,883	-44,907	0,011	0,004
-359,869	-79,409	-0,128	-0,031
-358,854	-129,858	0,194	0,019
-357,839	800,000	-0,038	0,084
-356,825	-144,688	0,090	-0,006
-355,810	-200,000	0,030	0,247
-354,796	-200,000	-0,008	0,113
-353,781	-95,897	-0,111	0,021
-352,766	212,395	-0,141	-0,159
-351,752	69,812	0,127	-0,093
-350,737	40,976	-0,069	0,044
-349,723	-200,000	0,009	0,055
-348,708	514,027	-0,045	0,075
-347,693	119,495	0,060	0,053
-346,679	-40,324	-0,062	0,023
-345,664	725,766	0,041	-0,078
-344,650	44,865	-0,009	-0,006
-343,635	-200,000	-0,022	-0,138
-342,620	283,464	-0,042	-0,054
-341,606	800,000	0,009	0,019
-340,591	142,631	-0,124	0,117
-339,577	127,554	0,046	-0,042
-338,562	354,001	0,010	-0,014
-337,548	800,000	-0,044	-0,100
-336,533	-192,900	0,152	0,001
-335,518	800,000	0,035	0,093
-334,504	4,284	0,090	0,047
-333,489	573,816	0,052	0,091
-332,475	-200,000	0,001	-0,012
-331,460	710,521	-0,033	0,062
-330,445	124,512	-0,191	0,172
-329,431	624,302	0,092	-0,167
-328,416	-49,570	0,103	-0,035
-327,402	83,471	-0,161	0,125
-326,387	-20,846	-0,099	0,043
-325,372	589,504	0,033	-0,058
-324,358	144,488	-0,068	-0,065
-323,343	52,319	-0,077	-0,053
-322,329	-13,070	0,030	-0,014
-321,314	-200,000	-0,011	-0,108
-320,299	-200,000	-0,016	0,163
-319,285	287,998	0,077	0,100
-318,270	800,000	-0,050	-0,110
-317,256	800,000	-0,015	0,037
-316,241	-109,202	0,155	0,023
-315,226	-191,899	0,099	-0,001
-314,212	-28,094	-0,177	-0,073
-313,197	6,082	0,053	-0,028
-312,183	557,495	0,031	-0,053
-311,168	653,580	0,023	0,042
-310,153	-200,000	0,016	-0,150
-309,139	-120,185	0,058	-0,007
-308,124	-96,259	0,057	0,011
-307,110	61,708	0,032	0,023
-306,095	-200,000	0,006	0,091
-305,080	210,477	-0,055	0,061
-304,066	-200,000	0,027	0,126
-303,051	33,592	0,082	0,051
-302,037	800,000	-0,047	-0,103
-301,022	69,561	-0,058	0,043
-300,008	77,285	0,084	0,064
-298,993	336,987	0,086	0,119
-297,978	-38,049	0,053	-0,020
-296,964	-200,000	-0,005	0,043
-295,949	271,425	-0,076	-0,096
-294,935	431,972	0,066	-0,103
-293,920	55,817	-0,035	0,024
-292,905	38,409	0,087	0,055
-291,891	-200,000	0,019	0,101
-290,876	134,944	-0,077	-0,072
-289,862	-38,351	0,139	-0,052
-288,847	3,445	-0,121	-0,063
-287,832	-200,000	0,165	-0,000
-286,818	140,846	0,088	-0,083
-285,803	-200,000	-0,046	-0,147
-284,789	-200,000	0,008	0,175
-283,774	800,000	0,060	0,162
-282,759	30,118	0,120	0,073
-281,745	-57,016	-0,095	0,030
-280,730	800,000	0,015	-0,037
-279,716	-200,000	-0,002	0,157
-278,701	-3,768	-0,101	0,050
-277,686	-200,000	0,075	0,240
-276,672	-69,662	0,173	-0,047
-275,657	122,843	-0,090	0,080
-274,643	-200,000	-0,005	-0,133
-273,628	-116,577	-0,026	-0,003
-272,613	-200,000	-0,032	-0,163
-271,599	228,005	0,052	0,061
-270,584	75,483	0,048	-0,036
-269,570	32,847	0,050	0,031
-268,555	-200,000	0,048	0,158
-267,540	1,167	0,073	0,037
-266,526	-200,000	0,025	-0,101
-265,511	512,833	-0,069	-0,115
-264,497	694,611	-0,055	-0,104
-263,482	-200,000	0,003	0,033
-262,467	-16,502	0,107	-0,048
-261,453	-200,000	0,001	-0,021
-260,438	-37,058	0,037	-0,014
-259,424	800,000	-0,053	-0,148
-258,409	14,630	-0,176	-0,098
-257,395	-200,000	0,025	-0,086
-256,380	-200,000	-0,008	-0,052
-255,365	-200,000	0,074	0,246
-254,351	800,000	-0,039	0,099
-253,336	-200,000	0,003	0,013
-252,322	192,726	-0,048	-0,052
-251,307	-200,000	-0,000	0,025
-250,292	800,000	-0,079	0,161
-249,278	-44,077	0,087	0,031
-248,263	384,717	-0,063	-0,093
-247,249	55,798	0,109	-0,075
-246,234	491,377	-0,064	-0,105
-245,219	-84,448	-0,119	0,027
-244,205	-12,733	-0,061	-0,028
-243,190	800,000	-0,008	-0,022
-242,176	-162,077	0,035	-0,001
-241,161	800,000	-0,028	0,055
-240,146	-200,000	-0,002	0,040
-239,132	478,233	-0,101	-0,163
-238,117	-40,027	-0,018	0,007
-237,103	169,668	-0,078	-0,080
-236,088	-200,000	0,011	-0,147
-235,073	-200,000	-0,007	-0,037
-234,059	-92,162	0,083	0,017
-233,044	789,099	0,068	-0,133
-232,030	4,584	-0,049	0,026
-231,015	48,258	0,126	-0,084
-230,000	800,000	0,019	0,039
-228,986	297,922	-0,018	0,024
-227,971	138,534	-0,053	0,049
-226,957	-200,000	0,006	0,105
-225,942	-69,801	-0,004	0,001
-224,927	365,401	-0,073	-0,104
-223,913	195,420	-0,062	0,067
-222,898	-200,000	-0,033	0,161
-221,884	-80,381	-0,108	-0,025
-220,869	233,116	0,024	-0,028
-219,855	133,163	-0,082	0,075
-218,840	103,137	-0,121	-0,101
-217,825	-33,204	0,045	0,018
-216,811	-200,000	-0,008	0,064
-215,796	264,666	-0,070	-0,087
-214,782	39,175	0,100	0,064
-213,767	800,000	-0,062	0,145
-212,752	-67,218	0,098	-0,027
-211,738	266,798	-0,017	0,021
-210,723	67,604	-0,057	0,041
-209,709	800,000	-0,026	0,056
-208,694	-73,519	-0,084	-0,022
-207,679	282,491	0,079	-0,101
-206,665	800,000	0,021	0,045
-205,650	-200,000	-0,015	0,054
-204,636	-200,000	-0,008	0,092
-203,621	368,700	0,058	0,084
-202,606	-200,000	-0,036	-0,144
-201,592	800,000	-0,062	-0,126
-200,577	800,000	-0,029	0,058
-199,563	6,832	0,186	0,098
-198,548	100,090	0,084	0,069
-197,533	739,080	0,019	-0,037
-196,519	-123,665	0,035	0,004
-195,504	-67,456	-0,026	-0,007
-194,490	65,288	0,108	0,078
-193,475	-172,114	-0,073	-0,002
-192,460	-200,000	-0,034	-0,125
-191,446	-11,992	0,117	0,054
-190,431	-200,000	-0,018	0,062
-189,417	-200,000	0,002	-0,055
-188,402	-25,275	-0,091	0,038
-187,387	-174,188	0,103	-0,002
-186,373	670,439	0,022	-0,041
-185,358	226,730	-0,107	-0,123
-184,344	258,379	0,045	-0,055
-183,329	173,970	0,084	0,087
-182,315	-43,372	0,119	0,043
-181,300	800,000	0,026	0,055
-180,285	-19,961	-0,051	0,022
-179,271	88,209	0,046	-0,037
-178,256	270,590	-0,024	-0,030
-177,242	44,617	0,057	-0,037
-176,227	-70,158	0,054	0,014
-175,212	-200,000	0,021	0,086
-174,198	-52,666	0,125	-0,041
-173,183	800,000	-0,037	-0,111
-172,169	291,541	0,028	0,037
-171,154	125,851	-0,052	-0,047
-170,139	-117,067	0,074	0,009
-169,125	24,556	0,108	0,063
-168,110	-63,461	0,039	0,011
-167,096	-200,000	-0,038	-0,139
-166,081	13,836	-0,065	0,036
-165,066	-106,684	0,102	-0,016
-164,052	-53,508	-0,029	0,009
-163,037	112,970	0,054	-0,047
-162,023	-36,728	0,053	0,020
-161,008	540,186	-0,093	0,158
-159,993	-144,820	-0,074	-0,005
-158,979	-139,797	-0,032	-0,002
-157,964	800,000	-0,082	-0,170
-156,950	-56,562	-0,027	0,008
-155,935	181,121	-0,092	0,097
-154,920	-130,443	-0,065	-0,006
-153,906	475,964	-0,040	0,064
-152,891	-103,102	-0,056	0,009
-151,877	168,091	-0,079	0,080
-150,862	273,541	-0,149	-0,188
-149,847	-200,000	0,026	-0,174
-148,833	70,439	-0,042	0,030
-147,818	241,364	0,066	0,078
-146,804	129,932	0,056	0,051
-145,789	-9,598	-0,073	-0,034
-144,775	-200,000	0,010	0,063
-143,760	-39,056	-0,145	-0,054
-142,745	800,000	-0,022	-0,054
-141,731	152,315	0,052	-0,050
-140,716	800,000	0,038	0,080
-139,702	-200,000	-0,002	0,018
-138,687	60,971	-0,102	0,072
-137,672	27,195	0,116	0,069
-136,658	-62,185	-0,170	0,050
-135,643	-109,113	0,105	-0,016
-134,629	800,000	-0,053	0,145
-133,614	316,816	-0,042	0,057
-132,599	538,901	0,060	0,101
-131,585	107,307	-0,034	-0,029
-130,570	-104,316	0,124	0,020
-129,556	231,240	-0,050	-0,058
-128,541	-154,591	-0,105	-0,005
-127,526	-114,683	-0,018	0,002
-126,512	800,000	0,038	0,081
-125,497	153,400	-0,079	0,077
-124,483	722,909	-0,084	0,158
-123,468	-200,000	-0,014	-0,078
-122,453	-133,186	-0,047	0,004
-121,439	142,745	-0,215	-0,203
-120,424	-159,159	0,090	0,004
-119,410	-200,000	0,007	-0,093
-118,395	-200,000	0,032	0,143
-117,380	800,000	0,027	0,059
-116,366	48,008	0,075	-0,050
-115,351	435,119	-0,016	-0,025
-114,337	127,312	-0,077	-0,069
-113,322	-200,000	-0,006	0,021
-112,307	800,000	0,072	-0,170
-111,293	145,334	0,076	-0,072
-110,278	651,809	0,047	0,086
-109,264	-200,000	0,043	0,165
-108,249	800,000	-0,021	0,042
-107,234	-45,395	0,151	-0,053
-106,220	-200,000	-0,021	-0,140
-105,205	-200,000	-0,002	-0,167
-104,191	319,829	0,072	-0,097
-103,176	629,752	-0,022	0,040
-102,162	-137,126	0,008	0,001
-101,147	-62,374	-0,083	0,024
-100,132	780,437	-0,104	-0,202
-99,118	-104,979	-0,036	0,006
-98,103	22,272	-0,034	0,019
-97,089	800,000	0,043	-0,106
-96,074	12,656	0,110	0,060
-95,059	481,023	0,017	-0,027
-94,045	40,972	0,058	-0,037
-93,030	75,497	0,073	-0,054
-92,016	-200,000	0,042	-0,137
-91,001	40,914	-0,144	0,092
-89,986	-57,689	0,127	-0,039
-88,972	800,000	-0,014	0,040
-87,957	-200,000	-0,001	-0,063
-86,943	-200,000	-0,012	0,134
-85,928	-200,000	0,018	-0,096
-84,913	6,320	-0,076	-0,040
-83,899	-200,000	0,008	-0,077
-82,884	16,548	0,068	-0,038
-81,870	800,000	0,029	-0,072
-80,855	461,618	-0,043	0,068
-79,840	293,227	-0,023	-0,030
-78,826	-200,000	-0,058	0,246
-77,811	800,000	-0,042	-0,108
-76,797	800,000	0,018	0,035
-75,782	154,855	0,086	-0,083
-74,767	30,056	0,091	0,055
-73,753	-200,000	0,013	0,108
-72,738	73,120	0,101	-0,075
-71,724	292,497	0,049	-0,064
-70,709	-200,000	-0,010	-0,136
-69,694	732,158	-0,075	-0,143
-68,680	237,882	0,071	-0,083
-67,665	-37,346	0,091	0,034
-66,651	-33,814	-0,130	0,050
-65,636	-9,578	-0,135	-0,063
-64,622	314,419	0,039	-0,052
-63,607	800,000	-0,028	0,073
-62,592	-200,000	0,001	-0,054
-61,578	800,000	-0,042	-0,089
-60,563	205,094	0,028	0,031
-59,549	415,234	0,069	0,104
-58,534	1,086	-1,789	-0,905
-57,519	511,053	-1,212	-2,002
-56,505	-200,000	-0,638	-4,648
-55,490	327,736	1,138	1,548
-54,476	800,000	4,924	11,310
-53,461	-200,000	20,229	324,909
-52,446	800,000	752,573	2311,901
-51,432	548,540	1663,353	2827,795
-50,417	74,732	1671,716	1242,399
-49,403	19,862	1544,720	877,469
-48,388	13,817	1467,319	804,087
-47,373	18,475	1457,396	821,119
-46,359	16,356	1446,998	805,078
-45,344	12,119	1442,783	782,405
-44,330	12,054	1440,741	780,953
-43,315	12,063	1439,012	780,031
-42,300	12,049	1437,304	779,006
-41,286	12,056	1436,069	778,342
-40,271	12,050	1434,655	777,514
-39,257	12,070	1433,380	776,885
-38,242	12,084	1432,153	776,259
-37,227	12,087	1431,196	775,722
-36,213	12,087	1429,674	774,868
-35,198	12,100	1428,606	774,319
-34,184	12,130	1427,630	773,903
-33,169	12,052	1426,230	772,742
-32,154	12,139	1425,008	772,464
-31,140	12,091	1423,880	771,591
-30,125	12,165	1422,647	771,243
-29,111	12,119	1421,699	770,483
-28,096	12,117	1420,421	769,749
-27,082	12,042	1419,340	768,778
-26,067	12,006	1418,494	768,120
-25,052	12,053	1417,271	767,651
-24,038	12,047	1416,295	767,061
-23,023	12,023	1415,455	766,462
-22,009	12,043	1414,084	765,787
-20,994	12,017	1413,208	765,157
-19,979	11,975	1412,555	764,578
-18,965	11,976	1411,460	763,960
-17,950	11,991	1410,524	763,491
-16,936	11,997	1409,533	762,955
-15,921	11,937	1408,698	762,190
-14,906	11,963	1407,633	761,706
-13,892	11,948	1406,912	761,215
-12,877	11,944	1406,062	760,707
-11,863	11,942	1405,124	760,160
-10,848	11,945	1404,031	759,551
-9,833	11,907	1403,121	758,852
-8,819	11,817	1402,580	758,108
-7,804	11,813	1401,715	757,592
-6,790	11,861	1400,386	757,071
-5,775	11,874	1399,389	756,559
-4,760	11,870	1398,440	755,999
-3,746	11,840	1397,627	755,389
-2,731	11,841	1396,884	754,965
-1,717	11,812	1396,029	754,336
-0,702	11,828	1394,005	753,286
0,313	15,787	1308,943	725,599
1,327	32,034	699,810	425,268
2,342	49,920	121,951	81,125
3,356	2,630	16,594	8,468
4,371	7,849	3,213	1,696
5,386	-40,161	0,596	0,218
6,400	-200,000	0,078	0,414
7,415	580,861	-0,108	-0,188
8,429	177,243	-0,192	-0,197
9,444	-77,252	-0,259	-0,063
10,459	-79,609	-0,323	-0,076
11,473	88,682	-0,210	-0,165
12,488	90,872	-0,264	-0,209
13,502	-79,646	-0,370	-0,087
14,517	196,607	-0,258	-0,278
15,531	-48,312	-0,409	-0,138
16,546	141,140	-0,307	-0,287
17,561	203,790	-0,281	-0,307
18,575	142,398	-0,153	-0,143
19,590	156,761	-0,228	-0,222
20,604	-146,691	-0,339	0,020
21,619	97,310	-0,442	-0,358
22,634	106,162	-0,383	-0,320
23,648	85,927	-0,535	-0,415
24,663	206,101	-0,334	-0,367
25,677	87,479	-0,333	-0,260
26,692	168,427	-0,281	-0,282
27,707	142,219	-0,277	-0,259
28,721	28,603	-0,359	-0,214
29,736	20,252	-0,330	-0,187
30,750	-30,872	-0,450	-0,178
31,765	189,676	-0,402	-0,426
32,780	103,192	-0,314	-0,260
33,794	111,914	-0,285	-0,242
34,809	-38,061	-0,399	-0,148
35,823	133,173	-0,345	-0,314
36,838	162,033	-0,279	-0,276
37,853	135,012	-0,446	-0,408
38,867	29,681	-0,502	-0,300
39,882	200,263	-0,288	-0,312
40,896	139,522	-0,317	-0,294
41,911	134,252	-0,329	-0,300
42,926	-1,251	-0,384	-0,190
43,940	281,839	-0,189	-0,239
44,955	126,100	-0,278	-0,248
45,969	163,042	-0,288	-0,285
46,984	52,247	-0,392	-0,263
47,999	-82,562	-0,393	-0,089
49,013	230,295	-0,186	-0,215
50,028	45,146	-0,417	-0,270
51,042	95,809	-0,280	-0,225
52,057	119,712	-0,323	-0,281
53,071	23,616	-0,382	-0,220
54,086	157,460	-0,300	-0,292
55,101	-43,656	-0,385	-0,136
56,115	154,872	-0,338	-0,327
57,130	113,748	-0,296	-0,253
58,144	89,638	-0,321	-0,252
59,159	181,293	-0,264	-0,274
60,174	158,570	-0,366	-0,357
61,188	210,614	-0,259	-0,286
62,203	207,133	-0,318	-0,349
63,217	190,636	-0,235	-0,249
64,232	49,032	-0,306	-0,202
65,247	216,110	-0,220	-0,246
66,261	82,319	-0,374	-0,285
67,276	88,144	-0,373	-0,290
68,290	-61,785	-0,362	-0,106
69,305	108,873	-0,260	-0,219
70,320	42,305	-0,331	-0,211
71,334	22,871	-0,347	-0,199
72,349	100,415	-0,296	-0,241
73,363	7,754	-0,280	-0,147
74,378	12,468	-0,338	-0,182
75,393	-21,232	-0,411	-0,175
76,407	446,187	-0,201	-0,312
77,422	88,347	-0,308	-0,240
78,436	-4,584	-0,290	-0,140
79,451	-0,821	-0,292	-0,145
80,466	103,342	-0,324	-0,266
81,480	78,328	-0,312	-0,233
82,495	-130,410	-0,449	-0,042
83,509	83,571	-0,175	-0,134
84,524	-45,830	-0,233	-0,080
85,539	171,321	-0,215	-0,217
86,553	3,328	-0,312	-0,159
87,568	75,448	-0,244	-0,180
88,582	176,084	-0,195	-0,199
89,597	800,000	-0,130	-0,259
90,611	0,713	-0,346	-0,173
91,626	278,496	-0,136	-0,171
92,641	-52,327	-0,236	-0,076
93,655	53,632	-0,275	-0,184
94,670	444,091	-0,165	-0,254
95,684	-37,345	-0,396	-0,148
96,699	59,384	-0,329	-0,227
97,714	268,929	-0,210	-0,259
98,728	-25,041	-0,344	-0,142
99,743	-145,181	-0,240	-0,015
100,757	2,435	-0,325	-0,164
101,772	-137,603	-0,316	0,025
102,787	262,807	-0,195	-0,238
103,801	28,514	-0,391	-0,231
104,816	277,706	-0,273	-0,341
105,830	64,390	-0,254	-0,179
106,845	-40,104	-0,288	-0,105
107,860	268,035	-0,202	-0,248
108,874	800,000	-0,118	-0,281
109,889	62,029	-0,260	-0,181
110,903	31,524	-0,318	-0,191
111,918	-34,443	-0,267	-0,102
112,933	365,715	-0,215	-0,303
113,947	-36,131	-0,259	-0,098
114,962	105,967	-0,321	-0,265
115,976	800,000	-0,139	-0,269
116,991	53,229	-0,204	-0,137
118,006	191,068	-0,198	-0,208
119,020	13,475	-0,268	-0,145
120,035	82,623	-0,118	-0,090
121,049	-131,235	-0,176	-0,016
122,064	-51,866	-0,227	-0,073
123,079	151,898	-0,211	-0,201
124,093	142,175	-0,333	-0,309
125,108	800,000	-0,133	-0,297
126,122	210,184	-0,247	-0,271
127,137	172,318	-0,258	-0,260
128,151	182,848	-0,176	-0,182
129,166	128,304	-0,172	-0,153
130,181	73,380	-0,126	-0,092
131,195	216,730	-0,250	-0,278
132,210	152,269	-0,211	-0,202
133,224	195,160	-0,229	-0,244
134,239	201,223	-0,290	-0,312
135,254	-16,190	-0,189	0,084
136,268	233,127	-0,111	-0,128
137,283	800,000	-0,113	-0,273
138,297	107,831	-0,277	-0,230
139,312	122,058	-0,206	-0,179
140,327	-50,240	-0,378	-0,124
141,341	-14,436	-0,218	-0,098
142,356	228,116	-0,263	-0,300
143,370	175,976	-0,241	-0,244
144,385	40,339	-0,260	-0,163
145,400	278,264	-0,230	-0,286
146,414	57,988	-0,378	-0,258
147,429	-3,335	-0,313	-0,151
148,443	259,797	-0,041	-0,049
149,458	-139,548	-0,195	-0,014
150,473	-12,337	-0,217	-0,099
151,487	172,491	-0,254	-0,255
152,502	1,014	-0,289	-0,144
153,516	122,469	-0,231	-0,201
154,531	-58,784	-0,309	-0,093
155,546	119,728	-0,191	-0,165
156,560	178,896	-0,157	-0,160
157,575	-21,283	-0,205	-0,087
158,589	-33,953	-0,258	-0,098
159,604	255,057	-0,241	-0,288
160,619	-53,436	-0,321	-0,102
161,633	51,871	-0,320	-0,212
162,648	8,481	-0,257	-0,134
163,662	101,261	-0,204	-0,165
164,677	321,888	-0,154	-0,204
165,692	222,737	-0,175	-0,197
166,706	-51,971	-0,300	-0,097
167,721	53,000	-0,323	-0,215
168,735	627,024	-0,113	-0,199
169,750	246,064	-0,175	-0,206
170,764	-8,158	-0,300	-0,140
171,779	18,314	-0,146	-0,081
172,794	-42,281	-0,333	-0,118
173,808	13,419	-0,232	-0,125
174,823	-82,262	-0,165	-0,037
175,837	155,466	-0,209	-0,200
176,852	45,782	-0,295	-0,189
177,867	-1,291	-0,175	-0,086
178,881	317,080	-0,206	-0,272
179,896	-89,428	-0,268	-0,054
180,910	129,261	-0,251	-0,223
181,925	319,151	-0,165	-0,218
182,940	110,846	-0,232	-0,194
183,954	179,721	-0,286	-0,292
184,969	508,591	-0,177	-0,287
185,983	139,335	-0,126	-0,115
186,998	234,545	-0,199	-0,228
188,013	114,146	-0,226	-0,191
189,027	167,628	-0,277	-0,274
190,042	648,479	-0,169	-0,301
191,056	533,169	-0,139	-0,230
192,071	-79,691	-0,272	-0,063
193,086	57,799	-0,103	-0,070
194,100	-2,676	-0,108	-0,052
195,115	141,405	-0,193	-0,178
196,129	388,858	-0,128	-0,185
197,144	-85,286	-0,259	-0,056
198,159	566,393	-0,207	-0,350
199,173	597,220	-0,072	-0,124
200,188	37,686	-0,182	-0,112
201,202	103,349	-0,190	-0,155
202,217	153,585	-0,133	-0,127
203,232	47,194	-0,251	-0,162
204,246	458,516	-0,114	-0,177
205,261	304,971	-0,201	-0,259
206,275	-28,755	-0,301	-0,120
207,290	389,775	-0,111	-0,160
208,304	-82,380	-0,104	-0,023
209,319	-91,746	-0,236	0,046
210,334	-112,028	-0,240	-0,033
211,348	50,802	-0,249	-0,163
212,363	41,154	-0,222	-0,139
213,377	44,408	-0,281	-0,179
214,392	95,850	-0,149	-0,118
215,407	56,920	-0,234	-0,158
216,421	-33,963	-0,196	-0,074
217,436	35,373	-0,356	-0,216
218,450	23,266	-0,275	-0,156
219,465	118,423	-0,208	-0,178
220,480	146,521	-0,095	-0,088
221,494	-18,547	-0,156	-0,067
222,509	-75,576	-0,070	-0,017
223,523	-73,858	-0,321	0,080
224,538	82,297	-0,247	-0,185
225,553	134,939	-0,307	-0,276
226,567	275,534	-0,153	-0,189
227,582	54,922	-0,289	-0,193
228,596	143,104	-0,160	-0,148
229,611	281,706	-0,092	-0,114
230,626	37,506	-0,183	-0,112
231,640	-71,890	-0,289	-0,074
232,655	223,728	-0,197	-0,220
233,669	589,410	-0,145	-0,249
234,684	-73,731	-0,222	-0,056
235,699	116,378	-0,180	-0,153
236,713	257,084	-0,162	-0,194
237,728	-56,846	-0,239	-0,073
238,742	400,168	-0,136	-0,197
239,757	9,490	-0,237	-0,124
240,772	55,221	-0,247	-0,165
241,786	166,785	-0,237	-0,233
242,801	314,433	-0,102	-0,133
243,815	-200,000	-0,036	-0,181
244,830	-13,152	-0,139	-0,062
245,844	186,862	-0,092	-0,095
246,859	-42,524	-0,288	-0,101
247,874	-22,059	-0,267	-0,112
248,888	-120,678	-0,194	-0,022
249,903	-60,825	-0,130	-0,038
250,917	488,066	-0,144	-0,229
251,932	-4,737	-0,129	-0,061
252,947	88,214	-0,198	-0,152
253,961	193,238	-0,149	-0,156
254,976	-14,973	-0,129	-0,057
255,990	200,049	-0,172	-0,182
257,005	107,337	-0,149	-0,123
258,020	800,000	-0,102	-0,214
259,034	-145,391	-0,146	0,009
260,049	800,000	-0,100	-0,209
261,063	33,699	-0,301	-0,180
262,078	55,901	-0,175	-0,117
263,093	650,784	-0,136	-0,241
264,107	170,645	-0,152	-0,151
265,122	106,638	-0,127	-0,104
266,136	171,773	-0,178	-0,177
267,151	-74,672	-0,244	-0,060
268,166	45,438	-0,205	-0,131
269,180	301,964	-0,113	-0,145
270,195	149,898	-0,199	-0,186
271,209	-12,303	-0,215	-0,097
272,224	116,093	-0,172	-0,145
273,239	-141,297	-0,152	-0,010
274,253	287,406	-0,095	-0,118
275,268	-200,000	-0,020	-0,090
276,282	192,617	-0,079	-0,083
277,297	-29,925	-0,258	-0,101
278,312	800,000	-0,050	-0,110
279,326	-56,903	-0,155	-0,047
280,341	-31,623	-0,098	-0,038
281,355	-44,058	-0,173	-0,060
282,370	233,087	-0,094	-0,107
283,384	258,190	-0,110	-0,131
284,399	438,312	-0,087	-0,131
285,414	441,967	-0,164	-0,249
286,428	144,896	-0,226	-0,208
287,443	106,289	-0,095	-0,077
288,457	72,129	-0,086	-0,062
289,472	-112,624	-0,228	-0,031
290,487	41,706	-0,175	-0,109
291,501	-200,000	-0,021	-0,184
292,516	-89,346	-0,148	-0,030
293,530	800,000	-0,037	-0,080
294,545	272,521	-0,072	-0,088
295,560	2,893	-0,188	-0,094
296,574	86,387	-0,205	-0,155
297,589	167,391	-0,187	-0,183
298,603	221,830	-0,201	-0,222
299,618	-169,818	-0,101	0,002
300,633	255,386	-0,137	-0,162
301,647	-87,719	-0,162	0,033
302,662	87,351	-0,162	-0,123
303,676	385,120	-0,087	-0,124
304,691	766,439	-0,113	-0,212
305,706	-4,581	-0,194	-0,092
306,720	148,102	-0,088	-0,082
307,735	-56,260	-0,157	0,048
308,749	-110,809	-0,139	-0,020
309,764	33,023	-0,136	-0,081
310,779	-141,644	-0,149	-0,010
311,793	-52,313	-0,184	-0,058
312,808	15,987	-0,247	-0,133
313,822	253,772	-0,164	-0,193
314,837	194,634	-0,162	-0,169
315,852	661,140	-0,055	-0,098
316,866	-21,022	-0,217	-0,091
317,881	-119,030	-0,131	-0,016
318,895	245,931	-0,167	-0,194
319,910	464,529	-0,129	-0,199
320,925	800,000	-0,070	-0,172
321,939	-71,418	-0,205	-0,052
322,954	129,215	-0,110	-0,096
323,968	58,228	-0,187	-0,125
324,983	-110,602	-0,170	0,024
325,997	5,305	-0,166	-0,084
327,012	-91,401	-0,194	0,038
328,027	585,840	-0,103	-0,175
329,041	-200,000	-0,018	-0,104
330,056	-103,148	-0,149	-0,024
331,070	-75,834	-0,157	-0,038
332,085	-58,329	-0,202	-0,060
333,100	198,481	-0,079	-0,083
334,114	-16,671	-0,175	-0,076
335,129	-131,250	-0,119	-0,011
336,143	-119,609	-0,113	0,013
337,158	800,000	0,034	-0,083
338,173	-13,272	-0,081	-0,036
339,187	-50,966	-0,176	-0,056
340,202	-8,256	-0,207	-0,095
341,216	290,696	-0,093	-0,116
342,231	56,484	-0,159	-0,106
343,246	800,000	-0,027	-0,079
344,260	800,000	-0,090	-0,213
345,275	1,344	-0,117	-0,058
346,289	249,002	-0,162	-0,188
347,304	51,252	-0,132	-0,086
348,319	-145,609	-0,109	-0,007
349,333	-200,000	-0,045	-0,204
350,348	298,448	-0,083	-0,104
351,362	800,000	-0,045	-0,094
352,377	-200,000	-0,003	0,091
353,392	537,857	-0,089	0,145
354,406	-200,000	-0,033	-0,190
355,421	208,601	1315,941	1411,736
356,435	160,518	1476,783	1412,208
