DTS Sentinel unit serial number:	SN410029Multiplexer serial number:	ORYXHardware model number:	OX2-SRSoftware version number:	ORYX F/W v4,00 Oryx Data Collector v3.7.2.0data status	okinstallation	B3 Nyhavnadifferential loss correction	single-endedforward channel	channel 1reverse channel	N/Adate	2023/11/30time	09:17:30forward acquisition time	300,00reverse acquisition time	0,00gamma	499,1914k internal	0,3211k external	0,3211temperature offset calibration	1,0000default loss term (dB/km)	0,3820temperature slope calibration	1,0000multiplexer offset coefficient	1,0000multiplexer slope coefficient	1,0000fibre end	0,00T internal ref (°C)	9,51T ext. ref 1 (°C)	-5,59T ext. ref 2 (°C)	-5,69length (m)	temperature (°C)	Stokes	anti-Stokes-744,400	462,773	-0,177	-0,287
-743,385	-200,000	0,037	0,259
-742,371	-200,000	-0,037	-0,324
-741,356	-200,000	-0,000	0,187
-740,342	363,662	-0,123	-0,180
-739,327	-200,000	-0,064	0,313
-738,312	500,566	-0,152	-0,255
-737,298	-200,000	-0,015	0,177
-736,283	659,355	-0,165	-0,309
-735,269	-200,000	0,047	0,218
-734,254	239,804	-0,143	-0,172
-733,239	-165,063	-0,200	0,006
-732,225	296,591	-0,120	-0,159
-731,210	20,663	-0,040	0,023
-730,196	165,422	-0,104	-0,107
-729,181	-200,000	-0,025	-0,147
-728,167	-200,000	-0,008	-0,036
-727,152	800,000	0,042	0,104
-726,137	-79,662	-0,072	0,017
-725,123	22,192	-0,018	-0,011
-724,108	-64,668	-0,038	0,011
-723,094	-120,261	-0,160	0,020
-722,079	-200,000	-0,008	0,090
-721,064	11,634	0,111	0,062
-720,050	8,400	-0,073	-0,040
-719,035	-200,000	-0,018	-0,076
-718,021	-18,401	-0,064	-0,029
-717,006	247,235	-0,049	-0,060
-715,991	-200,000	-0,007	0,023
-714,977	174,627	0,084	-0,089
-713,962	800,000	-0,017	0,045
-712,948	225,126	0,066	0,077
-711,933	-133,678	-0,121	0,011
-710,918	600,082	-0,026	-0,047
-709,904	-20,068	-0,087	-0,038
-708,889	-42,198	-0,163	-0,060
-707,875	131,318	-0,090	-0,084
-706,860	-200,000	-0,003	-0,090
-705,845	0,638	0,175	-0,090
-704,831	-200,000	-0,002	0,024
-703,816	-124,516	-0,086	0,010
-702,802	-200,000	0,000	-0,166
-701,787	8,769	-0,152	-0,082
-700,772	247,685	0,043	0,053
-699,758	-125,040	-0,102	-0,011
-698,743	-108,575	0,098	-0,015
-697,729	-200,000	0,004	0,137
-696,714	-70,824	-0,134	0,036
-695,699	175,064	0,005	-0,005
-694,685	138,657	-0,075	-0,071
-693,670	-97,580	-0,182	-0,034
-692,656	-200,000	0,001	-0,136
-691,641	50,835	0,138	-0,095
-690,627	-200,000	0,004	0,027
-689,612	98,981	-0,188	0,157
-688,597	620,227	-0,013	-0,024
-687,583	307,171	-0,093	-0,126
-686,568	-118,219	0,084	0,011
-685,554	800,000	-0,024	-0,055
-684,539	310,467	0,038	0,052
-683,524	-32,545	-0,084	-0,034
-682,510	-200,000	0,056	0,203
-681,495	218,449	0,048	-0,055
-680,481	800,000	0,030	-0,062
-679,466	-93,190	-0,107	0,021
-678,451	749,950	-0,035	-0,068
-677,437	549,598	-0,075	0,131
-676,422	-200,000	0,027	0,118
-675,408	-200,000	-0,005	0,094
-674,393	-169,619	-0,158	0,004
-673,378	189,413	0,046	-0,050
-672,364	27,785	-0,072	-0,044
-671,349	-180,929	-0,063	-0,001
-670,335	-200,000	0,009	-0,137
-669,320	-200,000	0,030	0,097
-668,305	-147,373	-0,051	0,003
-667,291	257,040	0,098	-0,123
-666,276	-182,442	-0,079	-0,001
-665,262	348,495	0,017	-0,025
-664,247	726,728	-0,042	0,082
-663,232	36,884	-0,060	0,038
-662,218	-29,708	-0,052	0,021
-661,203	800,000	-0,017	0,036
-660,189	800,000	0,031	-0,074
-659,174	-200,000	0,005	0,055
-658,159	-200,000	-0,004	0,030
-657,145	470,074	0,063	-0,102
-656,130	-200,000	0,011	0,142
-655,116	213,754	-0,029	0,033
-654,101	-78,923	-0,090	-0,022
-653,086	-11,664	0,071	0,033
-652,072	-200,000	0,029	-0,099
-651,057	800,000	-0,006	0,016
-650,043	-200,000	0,002	0,063
-649,028	-123,670	0,039	-0,004
-648,014	-200,000	0,040	-0,139
-646,999	-107,221	0,101	0,016
-645,984	162,039	-0,075	-0,076
-644,970	800,000	0,045	-0,107
-643,955	489,629	-0,110	-0,182
-642,941	-200,000	-0,010	-0,189
-641,926	-200,000	-0,017	-0,114
-640,911	103,620	0,017	0,015
-639,897	-42,832	0,065	-0,024
-638,882	-76,978	-0,088	0,022
-637,868	-200,000	-0,006	0,062
-636,853	92,324	-0,065	-0,053
-635,838	-19,269	-0,041	-0,018
-634,824	800,000	-0,081	-0,185
-633,809	-149,898	-0,108	0,006
-632,795	-200,000	-0,003	-0,142
-631,780	-200,000	0,003	0,026
-630,765	800,000	-0,028	-0,074
-629,751	-200,000	-0,021	-0,134
-628,736	-92,964	-0,021	0,004
-627,722	-200,000	-0,059	-0,201
-626,707	-200,000	-0,032	-0,110
-625,692	-19,907	-0,078	0,035
-624,678	-200,000	-0,006	0,128
-623,663	153,712	-0,124	-0,123
-622,649	-200,000	-0,046	-0,172
-621,634	58,360	0,083	0,059
-620,619	158,227	-0,087	-0,087
-619,605	-200,000	0,012	-0,060
-618,590	529,993	-0,026	-0,045
-617,576	800,000	-0,014	0,043
-616,561	800,000	0,031	0,063
-615,546	605,637	0,004	0,007
-614,532	35,635	0,042	-0,027
-613,517	-200,000	0,009	-0,110
-612,503	-200,000	0,010	-0,181
-611,488	-67,211	-0,122	-0,034
-610,474	-15,382	0,051	-0,023
-609,459	800,000	-0,039	0,103
-608,444	300,928	0,025	-0,034
-607,430	-200,000	-0,010	-0,146
-606,415	800,000	-0,053	0,113
-605,401	-34,246	-0,122	0,048
-604,386	260,171	-0,108	0,135
-603,371	-135,854	-0,113	0,009
-602,357	-106,242	0,014	-0,002
-601,342	2,609	-0,164	0,085
-600,328	-3,800	-0,073	-0,036
-599,313	-161,989	0,062	0,002
-598,298	-19,124	0,144	-0,064
-597,284	-162,473	0,168	0,006
-596,269	203,839	0,099	0,111
-595,255	800,000	0,057	-0,161
-594,240	-200,000	-0,004	-0,092
-593,225	-159,124	0,069	0,003
-592,211	350,248	0,015	-0,021
-591,196	-71,941	-0,082	-0,022
-590,182	800,000	0,022	0,065
-589,167	-200,000	0,009	0,138
-588,152	793,900	-0,052	0,103
-587,138	226,467	-0,044	-0,052
-586,123	206,182	-0,086	-0,097
-585,109	12,559	0,078	0,043
-584,094	-14,287	-0,045	-0,021
-583,079	-200,000	-0,011	-0,090
-582,065	11,754	0,134	0,074
-581,050	-33,966	0,065	-0,026
-580,036	-118,683	-0,113	-0,014
-579,021	-200,000	0,009	-0,034
-578,006	800,000	-0,019	-0,056
-576,992	-96,287	-0,131	-0,025
-575,977	-200,000	0,027	0,185
-574,963	-130,455	-0,044	-0,004
-573,948	212,407	0,017	-0,019
-572,934	159,062	0,062	-0,063
-571,919	-117,885	-0,155	0,020
-570,904	185,165	-0,072	-0,077
-569,890	-72,117	-0,030	-0,008
-568,875	9,143	-0,030	0,016
-567,861	-143,984	0,077	0,005
-566,846	800,000	0,069	0,173
-565,831	-79,099	-0,089	0,022
-564,817	-88,673	0,061	-0,013
-563,802	171,970	0,089	-0,092
-562,788	73,826	-0,008	0,006
-561,773	-27,623	0,045	-0,019
-560,758	800,000	-0,059	0,155
-559,744	-200,000	0,008	0,028
-558,729	109,783	0,071	0,061
-557,715	411,695	0,011	0,016
-556,700	800,000	-0,040	-0,097
-555,685	26,900	-0,038	0,023
-554,671	-200,000	0,007	-0,044
-553,656	89,078	-0,076	-0,061
-552,642	257,947	-0,040	0,050
-551,627	-63,851	-0,110	0,032
-550,612	-200,000	0,012	0,107
-549,598	-149,656	-0,074	-0,004
-548,583	800,000	-0,050	-0,113
-547,569	800,000	0,044	0,131
-546,554	509,118	-0,058	0,097
-545,539	-141,453	0,142	-0,010
-544,525	184,985	0,081	0,086
-543,510	-134,818	-0,220	-0,019
-542,496	393,856	-0,044	-0,066
-541,481	312,544	0,051	-0,069
-540,466	150,879	0,045	-0,044
-539,452	59,256	-0,089	0,063
-538,437	343,539	0,089	0,126
-537,423	-42,066	-0,133	0,049
-536,408	-200,000	-0,011	0,044
-535,393	93,558	0,013	-0,011
-534,379	-14,495	-0,066	-0,030
-533,364	369,853	0,053	-0,077
-532,350	-200,000	0,010	0,090
-531,335	39,114	-0,009	0,005
-530,321	-129,356	-0,044	-0,004
-529,306	-200,000	0,036	-0,158
-528,291	-200,000	0,009	-0,048
-527,277	20,947	-0,216	-0,126
-526,262	-116,514	-0,012	-0,002
-525,248	-200,000	-0,017	-0,095
-524,233	-200,000	-0,001	0,042
-523,218	108,619	-0,104	-0,090
-522,204	-138,135	0,043	0,003
-521,189	-5,818	-0,025	-0,012
-520,175	298,312	-0,012	-0,016
-519,160	-64,781	0,050	-0,014
-518,145	-64,373	-0,004	0,001
-517,131	-4,173	-0,034	-0,017
-516,116	800,000	-0,033	0,071
-515,102	-200,000	-0,005	-0,142
-514,087	-200,000	0,013	0,134
-513,072	-77,803	0,104	-0,026
-512,058	-47,438	-0,028	0,010
-511,043	-200,000	-0,009	0,145
-510,029	-120,044	-0,175	0,021
-509,014	143,801	0,024	0,023
-507,999	43,015	0,086	0,057
-506,985	800,000	-0,031	-0,084
-505,970	407,130	0,045	0,068
-504,956	-200,000	-0,011	-0,061
-503,941	210,539	-0,051	0,058
-502,926	-87,708	0,085	0,018
-501,912	-2,058	0,122	0,061
-500,897	176,216	0,023	-0,024
-499,883	-200,000	0,036	-0,125
-498,868	61,316	0,028	0,020
-497,853	-100,595	-0,085	-0,015
-496,839	-200,000	-0,001	-0,009
-495,824	-40,398	-0,071	0,026
-494,810	-200,000	-0,005	0,077
-493,795	-200,000	0,044	0,155
-492,781	-7,725	-0,128	0,062
-491,766	-7,929	0,132	-0,064
-490,751	-49,038	-0,119	-0,041
-489,737	82,876	0,147	-0,114
-488,722	-200,000	0,025	0,094
-487,708	573,844	0,028	0,049
-486,693	-100,656	-0,114	-0,020
-485,678	-134,565	0,028	0,002
-484,664	800,000	0,070	-0,176
-483,649	471,654	-0,066	-0,107
-482,635	8,826	0,051	0,028
-481,620	-28,911	0,020	0,008
-480,605	-100,460	0,081	-0,014
-479,591	-144,768	-0,077	-0,005
-478,576	-200,000	-0,009	-0,051
-477,562	-21,078	-0,118	0,052
-476,547	800,000	0,045	-0,140
-475,532	-87,750	-0,191	0,041
-474,518	121,779	0,095	0,085
-473,503	-134,862	-0,096	0,008
-472,489	-71,701	0,089	0,024
-471,474	-200,000	0,018	-0,175
-470,459	141,869	0,023	0,022
-469,445	139,681	0,083	-0,078
-468,430	158,453	-0,094	0,093
-467,416	218,274	0,077	0,088
-466,401	205,332	0,018	0,021
-465,386	369,653	0,025	0,037
-464,372	-200,000	-0,016	-0,074
-463,357	117,273	-0,098	-0,086
-462,343	800,000	0,012	-0,029
-461,328	-200,000	0,015	-0,118
-460,313	532,000	0,038	0,065
-459,299	-144,530	0,047	-0,003
-458,284	-200,000	-0,001	-0,034
-457,270	-24,146	0,082	0,035
-456,255	311,432	-0,065	0,088
-455,241	800,000	-0,050	-0,136
-454,226	-200,000	0,001	-0,134
-453,211	-200,000	0,020	-0,091
-452,197	356,801	0,030	0,043
-451,182	39,686	0,038	0,024
-450,168	-111,650	0,091	-0,013
-449,153	-126,983	0,093	-0,010
-448,138	-90,651	-0,124	-0,025
-447,124	-114,300	-0,200	0,027
-446,109	-200,000	0,001	-0,008
-445,095	133,496	0,047	0,044
-444,080	-200,000	-0,007	0,142
-443,065	248,564	-0,038	-0,046
-442,051	800,000	-0,008	-0,024
-441,036	365,809	-0,081	-0,118
-440,022	-72,212	0,037	0,010
-439,007	-108,458	0,052	-0,008
-437,992	800,000	0,021	0,061
-436,978	-39,476	0,113	-0,042
-435,963	-46,235	-0,077	-0,027
-434,949	-80,265	0,109	0,026
-433,934	239,727	-0,059	-0,071
-432,919	800,000	-0,015	-0,031
-431,905	-200,000	-0,017	-0,097
-430,890	399,254	0,019	0,028
-429,876	23,565	-0,064	0,037
-428,861	141,470	0,120	0,113
-427,846	-200,000	-0,015	0,056
-426,832	-61,771	0,085	0,025
-425,817	800,000	0,029	0,079
-424,803	-145,181	0,087	-0,006
-423,788	-200,000	0,036	-0,183
-422,773	-57,684	0,098	-0,031
-421,759	800,000	-0,009	0,020
-420,744	-148,884	0,113	-0,006
-419,730	472,679	-0,033	0,053
-418,715	-86,387	-0,078	0,017
-417,701	-103,944	-0,080	0,013
-416,686	-200,000	-0,001	0,022
-415,671	-200,000	0,023	0,079
-414,657	-200,000	-0,022	0,112
-413,642	800,000	-0,075	0,221
-412,628	4,203	0,078	-0,041
-411,613	-200,000	0,027	-0,172
-410,598	738,788	-0,007	-0,014
-409,584	176,261	-0,029	0,030
-408,569	-125,843	0,069	0,007
-407,555	-84,506	0,023	-0,005
-406,540	514,366	0,067	0,112
-405,525	193,114	0,018	0,019
-404,511	-37,809	0,006	-0,002
-403,496	800,000	-0,039	0,093
-402,482	-175,967	-0,096	-0,002
-401,467	-77,446	0,220	-0,054
-400,452	261,847	-0,018	-0,022
-399,438	342,753	0,028	-0,039
-398,423	-125,522	-0,100	-0,011
-397,409	38,439	-0,044	-0,028
-396,394	800,000	0,048	-0,110
-395,379	-92,654	0,091	0,018
-394,365	-200,000	0,015	0,101
-393,350	311,354	0,160	0,215
-392,336	298,954	0,115	0,151
-391,321	598,320	-0,038	-0,067
-390,306	792,798	-0,012	0,025
-389,292	-99,096	0,028	0,005
-388,277	-26,425	0,036	0,015
-387,263	-27,821	0,086	-0,036
-386,248	-200,000	0,004	-0,029
-385,233	81,395	0,085	-0,066
-384,219	-200,000	-0,004	0,053
-383,204	-126,887	0,009	0,001
-382,190	-24,853	-0,177	0,075
-381,175	-144,592	-0,047	-0,003
-380,160	339,009	0,084	0,118
-379,146	758,776	0,058	0,113
-378,131	800,000	-0,022	-0,059
-377,117	-200,000	-0,002	0,075
-376,102	484,487	-0,061	-0,100
-375,088	-200,000	0,028	-0,155
-374,073	15,172	-0,116	-0,065
-373,058	-10,764	-0,139	0,066
-372,044	800,000	0,021	0,065
-371,029	-93,331	-0,015	0,003
-370,015	210,212	0,124	0,139
-369,000	601,295	0,013	-0,023
-367,985	473,267	-0,084	0,135
-366,971	-90,205	0,078	0,016
-365,956	-200,000	0,012	0,087
-364,942	187,535	-0,060	0,065
-363,927	-24,679	0,080	0,034
-362,912	800,000	-0,031	-0,071
-361,898	-200,000	-0,013	-0,070
-360,883	-85,523	0,091	0,020
-359,869	-65,512	-0,089	-0,025
-358,854	-102,926	0,065	-0,011
-357,839	318,636	0,008	-0,010
-356,825	-200,000	0,001	0,042
-355,810	-200,000	0,039	0,158
-354,796	-89,776	0,034	-0,007
-353,781	-4,193	-0,086	0,043
-352,766	-161,308	-0,222	0,008
-351,752	345,208	-0,036	-0,050
-350,737	-141,519	-0,069	-0,005
-349,723	-101,709	-0,017	0,003
-348,708	96,365	0,037	0,030
-347,693	352,945	-0,083	0,118
-346,679	-200,000	0,013	-0,205
-345,664	-100,151	-0,150	0,026
-344,650	680,643	0,038	0,072
-343,635	800,000	0,004	0,010
-342,620	-165,841	0,030	-0,001
-341,606	-200,000	0,015	0,074
-340,591	800,000	-0,018	-0,054
-339,577	800,000	-0,034	0,106
-338,562	-200,000	-0,005	-0,132
-337,548	-200,000	-0,032	0,109
-336,533	-200,000	0,032	0,131
-335,518	-116,317	0,150	-0,020
-334,504	-200,000	0,001	0,024
-333,489	-95,074	0,021	0,004
-332,475	-121,909	-0,119	0,014
-331,460	211,195	-0,064	-0,071
-330,445	-164,727	0,032	-0,001
-329,431	-192,398	-0,091	-0,001
-328,416	-99,769	-0,085	-0,015
-327,402	-200,000	-0,005	-0,026
-326,387	-67,393	0,121	0,034
-325,372	37,945	0,111	0,070
-324,358	375,260	-0,087	-0,128
-323,343	230,262	0,095	-0,111
-322,329	135,727	-0,052	0,048
-321,314	86,071	-0,057	0,045
-320,299	-115,879	0,133	-0,018
-319,285	-27,867	-0,162	-0,067
-318,270	764,786	0,042	-0,081
-317,256	334,182	0,080	-0,110
-316,241	800,000	0,008	0,015
-315,226	-25,168	0,170	0,072
-314,212	-64,361	-0,124	-0,036
-313,197	-200,000	-0,014	0,078
-312,183	13,146	0,079	0,043
-311,168	-148,210	-0,230	0,013
-310,153	338,595	0,025	-0,034
-309,139	83,600	-0,051	0,039
-308,124	-106,344	0,113	0,018
-307,110	521,594	-0,033	-0,055
-306,095	-200,000	0,001	0,103
-305,080	-28,707	0,150	0,061
-304,066	-100,600	-0,179	0,031
-303,051	-165,863	0,085	0,003
-302,037	-176,922	-0,020	-0,000
-301,022	-200,000	-0,003	0,045
-300,008	-62,805	0,183	0,054
-298,993	48,640	-0,051	-0,034
-297,978	800,000	0,039	0,089
-296,964	-200,000	0,005	-0,048
-295,949	29,069	-0,067	0,041
-294,935	-44,527	-0,050	0,018
-293,920	54,163	0,142	0,097
-292,905	-200,000	0,008	0,031
-291,891	145,614	0,108	0,103
-290,876	-200,000	-0,006	0,034
-289,862	-200,000	0,019	-0,099
-288,847	800,000	-0,020	-0,044
-287,832	-74,277	-0,063	0,016
-286,818	101,754	-0,061	0,051
-285,803	800,000	0,055	0,120
-284,789	-35,582	-0,070	-0,027
-283,774	199,373	0,002	0,002
-282,759	-11,145	-0,080	-0,037
-281,745	27,385	-0,095	0,057
-280,730	-60,798	0,084	-0,025
-279,716	800,000	0,056	0,117
-278,701	263,333	0,013	-0,016
-277,686	-56,274	0,008	-0,003
-276,672	612,902	0,082	0,146
-275,657	624,248	0,037	-0,068
-274,643	137,776	-0,024	-0,023
-273,628	0,509	-0,049	-0,025
-272,613	403,442	0,016	0,024
-271,599	368,895	-0,056	-0,080
-270,584	-77,420	0,168	0,041
-269,570	800,000	-0,006	0,012
-268,555	-200,000	-0,004	0,047
-267,540	197,388	0,062	-0,067
-266,526	111,896	0,084	-0,073
-265,511	118,026	0,028	0,025
-264,497	71,690	-0,057	-0,042
-263,482	-200,000	0,131	0,000
-262,467	-15,736	-0,123	0,055
-261,453	-200,000	-0,018	0,120
-260,438	-142,768	-0,124	0,008
-259,424	-200,000	-0,001	-0,031
-258,409	800,000	-0,058	0,122
-257,395	-143,881	0,107	-0,007
-256,380	84,260	0,040	-0,031
-255,365	-19,674	0,032	-0,014
-254,351	-115,203	-0,075	0,010
-253,336	-200,000	0,024	0,097
-252,322	-196,231	-0,057	0,000
-251,307	448,302	-0,046	0,072
-250,292	-97,679	0,048	-0,009
-249,278	-162,117	-0,143	-0,005
-248,263	47,568	0,050	-0,033
-247,249	800,000	0,069	0,151
-246,234	-200,000	0,014	0,093
-245,219	645,569	0,017	0,030
-244,205	-109,125	-0,013	-0,002
-243,190	768,097	0,025	0,049
-242,176	-88,064	0,177	-0,038
-241,161	-36,472	-0,044	-0,017
-240,146	-124,954	-0,064	-0,007
-239,132	800,000	-0,035	-0,105
-238,117	-200,000	-0,037	-0,160
-237,103	674,003	-0,055	-0,102
-236,088	465,882	0,050	0,081
-235,073	664,972	-0,049	-0,091
-234,059	27,515	0,035	0,021
-233,044	-18,699	0,082	0,036
-232,030	-61,654	0,100	-0,030
-231,015	71,139	-0,083	-0,061
-230,000	800,000	-0,022	0,044
-228,986	452,297	0,091	0,143
-227,971	-124,472	-0,065	0,007
-226,957	-200,000	-0,000	-0,058
-225,942	324,528	0,098	0,134
-224,927	108,562	-0,101	0,086
-223,913	-57,447	-0,085	-0,026
-222,898	800,000	0,044	-0,088
-221,884	36,132	0,120	-0,075
-220,869	-36,039	-0,044	-0,017
-219,855	800,000	0,033	0,092
-218,840	800,000	0,028	0,055
-217,825	262,824	-0,017	0,021
-216,811	-33,943	-0,104	-0,041
-215,796	-200,000	-0,010	-0,082
-214,782	-200,000	0,001	-0,008
-213,767	-23,155	0,096	-0,041
-212,752	-200,000	-0,008	-0,085
-211,738	800,000	-0,061	0,130
-210,723	59,136	-0,121	0,084
-209,709	-94,697	0,022	-0,004
-208,694	28,028	-0,201	0,120
-207,679	800,000	-0,058	-0,174
-206,665	-71,673	0,152	0,040
-205,650	-8,211	0,192	-0,092
-204,636	85,831	0,067	0,052
-203,621	331,380	-0,074	-0,102
-202,606	155,414	-0,087	-0,085
-201,592	402,572	-0,015	0,023
-200,577	-60,043	0,126	0,038
-199,563	321,956	-0,027	-0,037
-198,548	363,949	0,055	-0,079
-197,533	-12,813	0,211	-0,097
-196,519	274,465	0,050	-0,063
-195,504	493,335	0,061	-0,099
-194,490	-120,846	-0,040	0,005
-193,475	226,522	0,083	0,096
-192,460	-77,593	-0,059	0,014
-191,446	-200,000	0,053	-0,169
-190,431	-98,513	-0,101	0,018
-189,417	-200,000	0,002	0,122
-188,402	555,354	0,047	0,081
-187,387	-200,000	-0,007	-0,055
-186,373	-11,272	0,131	-0,061
-185,358	15,771	0,069	-0,039
-184,344	454,443	0,042	0,067
-183,329	290,506	0,046	0,059
-182,315	-200,000	-0,002	0,180
-181,300	800,000	-0,040	-0,111
-180,285	800,000	-0,050	0,108
-179,271	45,337	-0,069	-0,045
-178,256	-28,087	0,059	0,024
-177,242	115,420	-0,053	-0,046
-176,227	204,313	0,146	0,160
-175,212	-200,000	0,008	-0,065
-174,198	800,000	0,034	-0,094
-173,183	-106,451	-0,131	-0,021
-172,169	-95,861	-0,121	-0,023
-171,154	15,617	0,050	0,028
-170,139	800,000	0,020	-0,059
-169,125	-13,141	-0,048	0,022
-168,110	163,151	0,043	0,043
-167,096	-200,000	0,028	0,129
-166,081	39,010	0,154	-0,097
-165,066	132,230	0,080	-0,073
-164,052	74,604	0,109	0,081
-163,037	65,390	0,075	0,053
-162,023	88,267	-0,117	0,092
-161,008	-56,673	0,062	0,019
-159,993	800,000	0,019	0,050
-158,979	-28,127	-0,053	-0,021
-157,964	800,000	0,005	0,013
-156,950	-200,000	0,012	-0,068
-155,935	42,913	-0,030	-0,019
-154,920	800,000	-0,016	-0,048
-153,906	201,216	0,036	0,039
-152,891	130,417	0,040	0,036
-151,877	-32,786	-0,097	-0,038
-150,862	-200,000	-0,046	-0,149
-149,847	-101,914	-0,231	0,039
-148,833	800,000	0,008	-0,017
-147,818	319,711	0,026	0,036
-146,804	290,975	-0,106	0,137
-145,789	-200,000	-0,007	0,148
-144,775	800,000	-0,053	0,131
-143,760	-200,000	0,030	0,148
-142,745	100,275	-0,065	0,053
-141,731	800,000	0,019	0,058
-140,716	189,312	0,049	0,052
-139,702	-39,400	0,078	-0,029
-138,687	-132,176	0,029	0,003
-137,672	800,000	-0,031	-0,092
-136,658	-200,000	-0,008	-0,138
-135,643	-163,828	0,077	-0,003
-134,629	-30,170	0,164	-0,066
-133,614	279,579	0,108	0,136
-132,599	-3,938	0,114	0,056
-131,585	225,034	0,057	-0,066
-130,570	292,932	-0,028	0,037
-129,556	-0,028	-0,120	-0,060
-128,541	-81,242	0,127	-0,029
-127,526	101,808	0,030	0,025
-126,512	93,203	0,047	-0,038
-125,497	800,000	-0,026	0,056
-124,483	-58,595	0,060	0,018
-123,468	800,000	-0,030	-0,079
-122,453	164,169	-0,005	0,005
-121,439	439,012	0,114	-0,177
-120,424	800,000	-0,027	0,070
-119,410	-200,000	-0,019	0,101
-118,395	256,771	-0,063	0,077
-117,380	-200,000	0,014	0,052
-116,366	-91,489	0,024	0,005
-115,351	-16,725	-0,062	-0,028
-114,337	800,000	-0,029	-0,071
-113,322	69,972	0,045	-0,033
-112,307	-200,000	0,007	0,107
-111,293	-44,468	0,056	-0,020
-110,278	182,365	-0,044	-0,046
-109,264	-167,399	-0,077	0,002
-108,249	-200,000	-0,006	0,081
-107,234	-200,000	-0,007	-0,026
-106,220	-200,000	-0,046	-0,178
-105,205	494,886	0,073	0,120
-104,191	173,753	0,085	0,087
-103,176	-200,000	0,026	0,163
-102,162	-54,783	0,050	-0,016
-101,147	182,418	-0,106	0,110
-100,132	-105,586	0,073	0,012
-99,118	-15,589	-0,052	0,023
-98,103	700,238	-0,041	-0,077
-97,089	147,860	0,111	-0,106
-96,074	-128,681	-0,035	-0,003
-95,059	-200,000	0,012	0,038
-94,045	13,433	-0,044	-0,024
-93,030	-93,509	-0,054	0,010
-92,016	205,248	0,125	0,138
-91,001	-131,767	-0,126	0,012
-89,986	-19,676	0,019	0,008
-88,972	-200,000	0,028	-0,138
-87,957	225,295	0,087	0,099
-86,943	-200,000	0,034	-0,165
-85,928	800,000	-0,064	-0,142
-84,913	237,508	-0,057	-0,067
-83,899	800,000	-0,040	-0,089
-82,884	91,176	0,108	0,086
-81,870	-15,488	0,084	-0,038
-80,855	-51,694	-0,133	0,043
-79,840	36,396	0,191	0,119
-78,826	186,425	-0,072	-0,076
-77,811	-12,426	-0,037	-0,017
-76,797	222,932	-0,070	0,080
-75,782	104,123	0,063	0,052
-74,767	-200,000	-0,018	0,095
-73,753	-200,000	-0,007	-0,029
-72,738	-200,000	0,014	-0,070
-71,724	-200,000	-0,015	-0,072
-70,709	-48,719	-0,156	-0,053
-69,694	367,263	-0,038	0,054
-68,680	148,681	0,054	-0,052
-67,665	-119,428	0,012	0,001
-66,651	-68,345	-0,072	-0,020
-65,636	0,607	0,074	-0,037
-64,622	85,003	0,105	-0,081
-63,607	291,669	-0,060	-0,078
-62,592	-200,000	-0,004	-0,063
-61,578	-132,498	0,189	-0,017
-60,563	529,215	-0,045	0,075
-59,549	-200,000	0,028	0,127
-58,534	49,631	-1,987	-1,319
-57,519	550,871	-1,133	-1,927
-56,505	-200,000	-0,427	-4,366
-55,490	531,001	0,951	1,593
-54,476	800,000	5,140	11,165
-53,461	-200,000	21,735	344,487
-52,446	800,000	763,363	2343,851
-51,432	546,954	1662,656	2818,416
-50,417	71,574	1659,029	1214,768
-49,403	17,314	1532,613	856,197
-48,388	11,323	1456,397	784,665
-47,373	19,455	1447,764	818,965
-46,359	14,888	1436,713	790,996
-45,344	9,637	1432,656	763,753
-44,330	9,594	1430,837	762,547
-43,315	9,522	1429,192	761,299
-42,300	9,525	1427,434	760,343
-41,286	9,560	1426,332	759,895
-40,271	9,562	1424,992	759,159
-39,257	9,541	1423,815	758,405
-38,242	9,578	1422,637	757,921
-37,227	9,548	1421,729	757,266
-36,213	9,585	1420,150	756,569
-35,198	9,615	1418,963	756,046
-34,184	9,659	1418,039	755,731
-33,169	9,546	1416,824	754,524
-32,154	9,620	1415,772	754,279
-31,140	9,610	1414,528	753,541
-30,125	9,662	1413,326	753,115
-29,111	9,617	1412,124	752,232
-28,096	9,646	1410,816	751,642
-27,082	9,517	1409,881	750,512
-26,067	9,574	1408,575	750,050
-25,052	9,548	1407,767	749,471
-24,038	9,574	1406,739	749,015
-23,023	9,487	1405,955	748,162
-22,009	9,511	1404,968	747,720
-20,994	9,537	1403,891	747,238
-19,979	9,521	1402,973	746,643
-18,965	9,531	1401,971	746,128
-17,950	9,479	1401,137	745,411
-16,936	9,475	1400,080	744,801
-15,921	9,402	1399,262	743,997
-14,906	9,476	1398,243	743,771
-13,892	9,457	1397,244	743,119
-12,877	9,444	1396,556	742,664
-11,863	9,391	1396,002	742,096
-10,848	9,413	1394,674	741,463
-9,833	9,357	1394,019	740,823
-8,819	9,350	1393,148	740,298
-7,804	9,354	1391,964	739,661
-6,790	9,362	1391,212	739,268
-5,775	9,373	1389,879	738,580
-4,760	9,386	1388,964	738,127
-3,746	9,406	1388,009	737,682
-2,731	9,359	1387,235	737,025
-1,717	9,380	1386,251	736,570
-0,702	9,347	1384,629	735,527
0,313	13,367	1296,890	707,279
1,327	29,437	687,696	411,368
2,342	45,700	118,807	77,300
3,356	3,541	16,477	8,445
4,371	11,986	3,573	1,931
5,386	-13,892	1,288	0,585
6,400	800,000	0,273	0,624
7,415	72,323	-0,235	-0,173
8,429	-121,911	-0,131	-0,015
9,444	101,513	-0,249	-0,205
10,459	83,793	-0,302	-0,232
11,473	85,315	-0,202	-0,156
12,488	35,855	-0,355	-0,220
13,502	-25,152	-0,345	-0,143
14,517	-70,855	-0,324	-0,085
15,531	121,488	-0,345	-0,303
16,546	61,155	-0,359	-0,251
17,561	61,535	-0,477	-0,334
18,575	-107,121	-0,286	-0,044
19,590	52,016	-0,166	-0,111
20,604	-98,572	-0,186	0,033
21,619	18,580	-0,442	-0,248
22,634	35,369	-0,445	-0,274
23,648	174,818	-0,391	-0,398
24,663	207,623	-0,292	-0,322
25,677	132,161	-0,309	-0,280
26,692	333,372	-0,211	-0,288
27,707	15,179	-0,316	-0,174
28,721	-1,378	-0,434	-0,215
29,736	33,032	-0,376	-0,228
30,750	120,856	-0,407	-0,356
31,765	39,846	-0,360	-0,227
32,780	41,181	-0,364	-0,231
33,794	-24,642	-0,325	-0,135
34,809	46,886	-0,479	-0,313
35,823	-96,440	-0,311	-0,057
36,838	41,155	-0,407	-0,258
37,853	52,356	-0,396	-0,265
38,867	161,466	-0,310	-0,305
39,882	86,085	-0,435	-0,336
40,896	10,400	-0,373	-0,199
41,911	7,952	-0,412	-0,216
42,926	77,786	-0,433	-0,324
43,940	119,132	-0,320	-0,278
44,955	175,415	-0,267	-0,272
45,969	149,924	-0,352	-0,335
46,984	22,033	-0,377	-0,216
47,999	45,308	-0,332	-0,215
49,013	260,891	-0,309	-0,376
50,028	33,870	-0,211	-0,128
51,042	72,366	-0,297	-0,217
52,057	166,189	-0,335	-0,333
53,071	-53,419	-0,324	-0,104
54,086	669,690	-0,144	-0,263
55,101	-43,752	-0,446	-0,157
56,115	10,355	-0,359	-0,191
57,130	143,303	-0,273	-0,255
58,144	418,906	-0,201	-0,303
59,159	203,726	-0,309	-0,336
60,174	205,107	-0,190	-0,208
61,188	73,675	-0,350	-0,257
62,203	2,094	-0,329	-0,166
63,217	199,937	-0,255	-0,275
64,232	-89,004	-0,290	-0,060
65,247	-51,870	-0,405	-0,131
66,261	338,294	-0,227	-0,311
67,276	59,706	-0,196	-0,135
68,290	-11,120	-0,228	-0,105
69,305	-90,729	-0,352	-0,071
70,320	84,341	-0,186	-0,142
71,334	112,982	-0,289	-0,246
72,349	21,442	-0,326	-0,185
73,363	-35,789	-0,421	-0,159
74,378	46,839	-0,397	-0,258
75,393	51,645	-0,311	-0,207
76,407	-22,798	-0,235	-0,099
77,422	-7,633	-0,288	-0,136
78,436	-88,476	-0,440	-0,091
79,451	-30,409	-0,312	-0,124
80,466	-13,909	-0,241	-0,109
81,480	36,212	-0,311	-0,192
82,495	65,005	-0,278	-0,197
83,509	75,089	-0,284	-0,209
84,524	-42,971	-0,267	-0,094
85,539	180,935	-0,301	-0,310
86,553	27,525	-0,333	-0,195
87,568	54,761	-0,261	-0,176
88,582	106,398	-0,306	-0,254
89,597	24,355	-0,346	-0,199
90,611	52,431	-0,369	-0,246
91,626	55,939	-0,337	-0,228
92,641	-91,106	-0,340	-0,068
93,655	-16,248	-0,374	-0,165
94,670	-20,071	-0,246	-0,106
95,684	77,865	-0,287	-0,214
96,699	275,765	-0,201	-0,250
97,714	-67,682	-0,234	-0,064
98,728	-189,704	-0,326	-0,003
99,743	156,519	-0,228	-0,220
100,757	20,558	-0,324	-0,183
101,772	25,764	-0,407	-0,236
102,787	54,630	-0,273	-0,183
103,801	171,584	-0,208	-0,209
104,816	70,572	-0,153	-0,111
105,830	-105,933	-0,154	-0,024
106,845	17,952	-0,344	-0,191
107,860	60,568	-0,178	-0,123
108,874	-114,306	-0,391	-0,052
109,889	83,855	-0,276	-0,211
110,903	24,902	-0,361	-0,208
111,918	132,619	-0,240	-0,216
112,933	-96,727	-0,300	-0,055
113,947	270,518	-0,224	-0,275
114,962	-167,310	-0,182	0,005
115,976	-62,048	-0,242	-0,070
116,991	223,984	-0,193	-0,218
118,006	127,629	-0,254	-0,225
119,020	156,476	-0,193	-0,186
120,035	311,077	-0,241	-0,316
121,049	-186,217	-0,235	0,002
122,064	268,919	-0,214	-0,263
123,079	6,565	-0,179	-0,093
124,093	52,963	-0,288	-0,192
125,108	29,832	-0,404	-0,240
126,122	-19,570	-0,202	-0,087
127,137	15,241	-0,200	-0,109
128,151	157,962	-0,136	-0,132
129,166	800,000	-0,144	-0,289
130,181	35,532	-0,179	-0,109
131,195	-35,927	-0,200	-0,075
132,210	-48,445	-0,389	-0,130
133,224	21,164	-0,223	-0,126
134,239	278,231	-0,188	-0,234
135,254	392,444	-0,175	-0,254
136,268	-106,292	-0,207	-0,032
137,283	-9,745	-0,237	-0,110
138,297	98,472	-0,245	-0,197
139,312	115,678	-0,243	-0,207
140,327	18,461	-0,269	-0,149
141,341	109,173	-0,250	-0,209
142,356	-10,924	-0,170	-0,078
143,370	114,209	-0,293	-0,249
144,385	-200,000	-0,071	-0,269
145,400	-62,734	-0,265	-0,076
146,414	-9,335	-0,291	-0,135
147,429	-11,365	-0,235	-0,107
148,443	4,024	-0,253	-0,128
149,458	-37,623	-0,101	-0,037
150,473	5,188	-0,195	-0,100
151,487	-26,589	-0,234	-0,095
152,502	16,013	-0,219	-0,120
153,516	-62,369	-0,428	-0,123
154,531	389,900	-0,173	-0,251
155,546	-41,654	-0,288	-0,102
156,560	87,173	-0,215	-0,165
157,575	-36,187	-0,236	-0,088
158,589	270,485	-0,149	-0,182
159,604	-107,474	-0,170	-0,026
160,619	69,193	-0,334	-0,239
161,633	225,888	-0,158	-0,178
162,648	-62,128	-0,298	-0,086
163,662	-62,398	-0,235	-0,068
164,677	-53,890	-0,186	-0,059
165,692	35,701	-0,391	-0,238
166,706	-101,847	-0,251	-0,042
167,721	174,080	-0,208	-0,209
168,735	88,072	-0,205	-0,158
169,750	42,626	-0,246	-0,156
170,764	348,067	-0,215	-0,295
171,779	141,792	-0,082	-0,076
172,794	-38,605	-0,148	-0,054
173,808	97,824	-0,138	-0,110
174,823	33,038	-0,314	-0,188
175,837	183,736	-0,235	-0,241
176,852	195,352	-0,222	-0,235
177,867	54,183	-0,231	-0,154
178,881	195,183	-0,153	-0,161
179,896	-153,539	-0,175	0,008
180,910	-42,566	-0,223	-0,078
181,925	-113,410	-0,274	-0,037
182,940	45,446	-0,158	-0,101
183,954	89,486	-0,173	-0,134
184,969	210,067	-0,197	-0,215
185,983	171,516	-0,229	-0,228
186,998	193,853	-0,124	-0,130
188,013	-24,479	-0,299	-0,123
189,027	154,909	-0,110	-0,105
190,042	21,660	-0,239	-0,135
191,056	-106,788	-0,230	-0,035
192,071	25,540	-0,260	-0,150
193,086	83,075	-0,237	-0,178
194,100	44,325	-0,236	-0,150
195,115	127,020	-0,220	-0,194
196,129	-200,000	-0,183	-0,000
197,144	162,739	-0,191	-0,186
198,159	204,114	-0,203	-0,219
199,173	-87,104	-0,255	-0,053
200,188	152,559	-0,104	-0,099
201,202	487,038	-0,124	-0,196
202,217	10,817	-0,183	-0,097
203,232	-106,443	-0,280	0,043
204,246	342,232	-0,238	-0,324
205,261	170,725	-0,165	-0,164
206,275	84,926	-0,166	-0,126
207,290	800,000	-0,038	-0,095
208,304	-34,557	-0,089	0,034
209,319	-131,059	-0,202	-0,018
210,334	254,580	-0,081	-0,097
211,348	261,615	-0,100	-0,120
212,363	134,898	-0,282	-0,254
213,377	33,082	-0,229	-0,137
214,392	318,389	-0,093	-0,122
215,407	211,311	-0,040	-0,043
216,421	-200,000	0,001	0,018
217,436	221,296	-0,196	-0,219
218,450	59,179	-0,272	-0,185
219,465	72,674	-0,232	-0,167
220,480	208,902	-0,164	-0,178
221,494	312,150	-0,176	-0,229
222,509	-102,817	-0,089	-0,015
223,523	-58,821	-0,210	-0,062
224,538	376,414	-0,144	-0,204
225,553	122,133	-0,299	-0,258
226,567	234,960	-0,253	-0,290
227,582	152,539	-0,217	-0,205
228,596	21,682	-0,172	-0,096
229,611	15,673	-0,152	-0,082
230,626	-38,849	-0,190	-0,069
231,640	320,322	-0,168	-0,222
232,655	198,911	-0,215	-0,228
233,669	-9,393	-0,206	-0,095
234,684	44,598	-0,159	-0,101
235,699	-35,997	-0,237	-0,088
236,713	276,792	-0,093	-0,114
237,728	-56,987	-0,267	-0,081
238,742	386,819	-0,144	-0,206
239,757	393,687	-0,123	-0,178
240,772	-2,520	-0,243	-0,117
241,786	-52,061	-0,219	-0,070
242,801	402,653	-0,115	-0,167
243,815	432,666	-0,171	-0,256
244,830	24,600	-0,152	-0,087
245,844	3,297	-0,093	-0,046
246,859	-64,375	-0,287	-0,080
247,874	-3,067	-0,205	-0,098
248,888	-7,382	-0,335	-0,156
249,903	3,835	-0,224	-0,113
250,917	189,558	-0,109	-0,113
251,932	3,638	-0,100	0,050
252,947	30,399	-0,166	-0,097
253,961	198,387	-0,147	-0,155
254,976	67,572	-0,203	-0,143
255,990	-183,772	-0,135	-0,002
257,005	182,426	-0,180	-0,183
258,020	-134,696	-0,216	-0,018
259,034	800,000	-0,033	-0,075
260,049	-21,606	-0,105	-0,044
261,063	-16,708	-0,215	-0,093
262,078	114,975	-0,202	-0,170
263,093	249,061	-0,173	-0,202
264,107	354,115	-0,165	-0,227
265,122	-200,000	-0,005	-0,030
266,136	164,146	-0,110	-0,107
267,151	378,158	-0,070	-0,099
268,166	97,277	-0,170	-0,134
269,180	180,567	-0,173	-0,175
270,195	53,793	-0,197	-0,130
271,209	113,525	-0,292	-0,245
272,224	800,000	-0,114	-0,223
273,239	479,026	-0,060	-0,094
274,253	8,259	-0,163	-0,084
275,268	68,522	-0,154	-0,109
276,282	-0,290	-0,246	-0,120
277,297	-82,662	-0,254	-0,056
278,312	23,825	-0,189	-0,107
279,326	98,631	-0,076	-0,061
280,341	-6,579	-0,098	0,046
281,355	-34,408	-0,210	-0,079
282,370	-107,371	-0,171	-0,026
283,384	-36,035	-0,196	-0,073
284,399	800,000	-0,077	-0,163
285,414	21,327	-0,117	0,065
286,428	-89,389	-0,128	-0,026
287,443	290,333	-0,099	-0,124
288,457	-172,739	-0,178	0,004
289,472	2,063	-0,116	0,058
290,487	345,223	-0,173	-0,234
291,501	-63,285	-0,191	-0,054
292,516	800,000	-0,074	-0,224
293,530	-74,958	-0,108	-0,026
294,545	4,733	-0,180	-0,091
295,560	74,599	-0,030	0,022
296,574	79,186	-0,113	-0,083
297,589	-8,880	-0,275	-0,126
298,603	72,998	-0,135	-0,096
299,618	-175,959	-0,185	-0,003
300,633	299,715	-0,088	-0,111
301,647	40,440	-0,265	-0,163
302,662	4,030	-0,040	-0,020
303,676	387,041	-0,148	-0,210
304,691	-68,340	-0,142	0,038
305,706	77,498	-0,103	-0,075
306,720	323,644	-0,070	-0,092
307,735	800,000	-0,078	-0,223
308,749	-200,000	0,012	-0,183
309,764	33,611	-0,134	-0,080
310,779	-113,326	-0,192	-0,026
311,793	-200,000	-0,003	-0,010
312,808	-75,082	-0,245	0,060
313,822	386,725	-0,146	-0,207
314,837	350,002	-0,076	-0,103
315,852	-200,000	-0,053	-0,219
316,866	-125,414	-0,139	-0,014
317,881	-200,000	-0,025	-0,164
318,895	800,000	-0,058	-0,119
319,910	-149,486	-0,209	0,011
320,925	300,597	-0,154	-0,195
321,939	605,798	-0,167	-0,286
322,954	-200,000	-0,013	0,089
323,968	-76,495	-0,035	0,008
324,983	439,078	-0,103	-0,154
325,997	180,623	-0,067	-0,068
327,012	5,731	-0,229	-0,116
328,027	-16,656	-0,225	-0,097
329,041	153,690	-0,132	-0,124
330,056	-200,000	-0,026	-0,129
331,070	-148,086	-0,182	-0,010
332,085	-104,931	-0,102	0,016
333,100	191,599	-0,081	-0,084
334,114	-148,597	-0,103	-0,006
335,129	113,451	-0,094	-0,078
336,143	-200,000	-0,032	-0,143
337,158	579,218	-0,026	-0,044
338,173	800,000	0,048	-0,093
339,187	-200,000	0,007	-0,208
340,202	-16,074	-0,133	0,058
341,216	245,658	-0,224	-0,258
342,231	150,450	-0,166	-0,155
343,246	-51,985	-0,097	-0,031
344,260	-200,000	0,004	-0,144
345,275	96,369	-0,036	-0,028
346,289	551,067	-0,079	-0,129
347,304	-58,915	-0,240	-0,070
348,319	-20,132	-0,126	-0,053
349,333	-48,045	-0,201	-0,066
350,348	-116,733	-0,182	0,023
351,362	353,295	-0,114	-0,156
352,377	800,000	0,025	-0,049
353,392	-13,590	-0,170	-0,075
354,406	66,077	-0,141	-0,098
355,421	206,285	1309,509	1395,408
356,435	158,637	1469,569	1395,868
