DTS Sentinel unit serial number:	SN410029Multiplexer serial number:	ORYXHardware model number:	OX2-SRSoftware version number:	ORYX F/W v4,00 Oryx Data Collector v3.7.2.0data status	okinstallation	B3 Nyhavnadifferential loss correction	single-endedforward channel	channel 1reverse channel	N/Adate	2023/11/29time	10:22:30forward acquisition time	300,00reverse acquisition time	0,00gamma	499,1914k internal	0,3212k external	0,3212temperature offset calibration	1,0000default loss term (dB/km)	0,3820temperature slope calibration	1,0000multiplexer offset coefficient	1,0000multiplexer slope coefficient	1,0000fibre end	0,00T internal ref (°C)	9,38T ext. ref 1 (°C)	-5,58T ext. ref 2 (°C)	-5,72length (m)	temperature (°C)	Stokes	anti-Stokes-744,400	97,465	-0,156	-0,130
-743,385	-200,000	-0,015	0,257
-742,371	800,000	-0,058	0,124
-741,356	-200,000	0,020	0,213
-740,342	405,084	-0,088	-0,135
-739,327	-200,000	0,068	0,378
-738,312	107,796	-0,302	-0,260
-737,298	-200,000	0,040	0,173
-736,283	730,475	-0,136	-0,265
-735,269	-200,000	-0,085	0,368
-734,254	82,999	-0,146	-0,115
-733,239	-83,647	-0,186	0,043
-732,225	191,723	-0,091	-0,099
-731,210	-114,731	0,089	0,012
-730,196	-200,000	-0,018	0,085
-729,181	800,000	0,024	0,050
-728,167	-56,835	-0,081	-0,026
-727,152	365,928	-0,048	-0,070
-726,137	-48,031	-0,111	0,039
-725,123	23,017	-0,150	-0,089
-724,108	-144,758	-0,056	0,004
-723,094	-13,760	-0,030	-0,014
-722,079	-127,458	-0,128	-0,013
-721,064	-200,000	0,008	0,141
-720,050	398,446	-0,082	0,125
-719,035	-200,000	-0,018	0,077
-718,021	36,181	-0,109	-0,069
-717,006	-200,000	-0,020	-0,220
-715,991	23,137	-0,159	-0,094
-714,977	-200,000	0,010	-0,120
-713,962	321,698	0,057	-0,078
-712,948	800,000	-0,017	-0,051
-711,933	800,000	0,074	-0,164
-710,918	148,152	-0,058	0,056
-709,904	-200,000	-0,010	-0,138
-708,889	532,992	-0,097	-0,166
-707,875	772,276	0,067	-0,133
-706,860	-200,000	-0,002	-0,059
-705,845	-200,000	0,006	-0,031
-704,831	417,476	-0,097	0,150
-703,816	205,748	0,050	-0,056
-702,802	-15,387	0,178	-0,082
-701,787	109,170	-0,019	-0,017
-700,772	-200,000	-0,006	0,029
-699,758	-28,255	0,061	-0,025
-698,743	-146,473	0,092	-0,006
-697,729	-153,211	0,086	-0,004
-696,714	56,548	-0,074	-0,052
-695,699	-132,148	-0,008	-0,001
-694,685	27,054	0,039	0,023
-693,670	-200,000	0,001	-0,206
-692,656	-200,000	0,002	0,040
-691,641	23,327	-0,047	0,028
-690,627	48,385	0,034	-0,023
-689,612	-200,000	0,009	0,047
-688,597	800,000	-0,027	-0,065
-687,583	-33,708	-0,062	0,024
-686,568	-28,874	0,109	-0,045
-685,554	-200,000	-0,016	-0,109
-684,539	800,000	-0,014	0,031
-683,524	-200,000	0,023	0,169
-682,510	-200,000	-0,022	0,185
-681,495	-90,733	-0,104	0,022
-680,481	9,178	-0,252	-0,137
-679,466	-200,000	0,000	-0,032
-678,451	21,551	-0,082	-0,048
-677,437	-68,533	-0,096	0,027
-676,422	125,352	0,070	-0,064
-675,408	-200,000	-0,041	-0,132
-674,393	-200,000	0,003	0,056
-673,378	17,853	-0,129	0,074
-672,364	-200,000	-0,007	-0,278
-671,349	-200,000	-0,017	-0,106
-670,335	800,000	0,011	-0,026
-669,320	-56,197	-0,069	-0,022
-668,305	83,239	0,131	0,103
-667,291	-161,504	-0,137	0,005
-666,276	681,797	-0,029	0,055
-665,262	-200,000	0,022	0,076
-664,247	-199,091	0,108	-0,000
-663,232	-6,852	-0,104	0,051
-662,218	56,092	0,045	-0,031
-661,203	-200,000	0,003	0,145
-660,189	47,321	-0,063	0,042
-659,174	74,445	-0,069	-0,053
-658,159	553,169	0,024	-0,042
-657,145	-79,743	-0,094	0,023
-656,130	2,349	-0,073	-0,038
-655,116	800,000	-0,018	-0,040
-654,101	98,935	0,042	0,035
-653,086	-200,000	0,020	-0,081
-652,072	800,000	-0,041	-0,102
-651,057	381,814	0,030	0,045
-650,043	-33,918	-0,048	0,019
-649,028	-45,095	-0,086	0,031
-648,014	-66,684	0,090	-0,025
-646,999	118,615	0,096	0,085
-645,984	-68,481	-0,050	-0,014
-644,970	-81,540	-0,034	0,008
-643,955	-104,114	0,008	-0,001
-642,941	-5,649	-0,183	-0,090
-641,926	-92,300	0,108	0,022
-640,911	62,377	-0,072	-0,052
-639,897	-200,000	0,004	0,156
-638,882	800,000	0,016	-0,036
-637,868	387,586	-0,047	-0,070
-636,853	-199,379	0,035	0,000
-635,838	248,172	-0,041	-0,050
-634,824	-135,731	-0,118	0,010
-633,809	247,411	0,090	-0,110
-632,795	581,533	0,098	-0,174
-631,780	386,879	-0,043	0,064
-630,765	-94,890	-0,109	0,021
-629,751	34,940	-0,024	0,015
-628,736	-200,000	-0,021	-0,072
-627,722	800,000	0,031	0,089
-626,707	-113,240	0,071	0,010
-625,692	-100,453	0,040	0,007
-624,678	92,454	-0,059	0,048
-623,663	525,109	0,046	-0,078
-622,649	800,000	-0,010	0,022
-621,634	-200,000	0,005	-0,037
-620,619	800,000	-0,046	-0,135
-619,605	-27,186	0,115	0,048
-618,590	-57,543	-0,117	-0,037
-617,576	800,000	-0,018	0,036
-616,561	-28,532	0,143	0,059
-615,546	11,046	-0,201	-0,110
-614,532	51,770	-0,146	-0,100
-613,517	-48,787	-0,053	-0,018
-612,503	107,882	-0,043	0,037
-611,488	-200,000	0,007	0,030
-610,474	179,846	0,012	-0,013
-609,459	800,000	-0,003	0,008
-608,444	-37,110	0,080	-0,031
-607,430	-26,560	-0,094	-0,040
-606,415	544,989	-0,078	-0,134
-605,401	-71,692	-0,037	0,010
-604,386	-35,084	-0,234	0,091
-603,371	152,970	0,075	0,074
-602,357	-63,356	-0,018	-0,005
-601,342	469,857	0,067	0,109
-600,328	-100,976	-0,112	0,020
-599,313	158,428	-0,051	-0,051
-598,298	-69,792	0,083	0,023
-597,284	155,770	0,094	0,094
-596,269	90,358	0,068	-0,055
-595,255	719,299	-0,041	-0,079
-594,240	-200,000	0,039	0,139
-593,225	104,204	-0,159	-0,135
-592,211	800,000	0,026	-0,061
-591,196	411,577	-0,115	-0,176
-590,182	158,644	0,044	-0,044
-589,167	319,585	0,034	0,047
-588,152	291,888	-0,121	-0,159
-587,138	-200,000	-0,011	0,052
-586,123	-103,816	-0,154	-0,026
-585,109	-7,920	0,104	-0,050
-584,094	800,000	0,023	0,064
-583,079	800,000	0,014	-0,037
-582,065	-9,115	0,008	0,004
-581,050	83,701	-0,045	-0,036
-580,036	224,239	0,075	0,087
-579,021	-147,013	-0,231	-0,014
-578,006	-200,000	0,014	-0,086
-576,992	-38,042	-0,140	-0,053
-575,977	-200,000	0,021	0,076
-574,963	-200,000	0,011	0,080
-573,948	-96,199	0,083	-0,016
-572,934	127,447	-0,100	0,091
-571,919	181,960	-0,069	-0,073
-570,904	28,483	-0,088	0,053
-569,890	215,164	-0,079	0,091
-568,875	291,966	0,055	-0,072
-567,861	-200,000	-0,013	-0,050
-566,846	-200,000	0,010	-0,033
-565,831	-19,282	0,066	0,029
-564,817	283,731	-0,008	-0,010
-563,802	253,624	-0,047	0,058
-562,788	800,000	-0,044	-0,107
-561,773	187,067	0,062	-0,067
-560,758	-200,000	0,016	0,086
-559,744	345,435	0,081	-0,115
-558,729	-173,082	-0,039	-0,001
-557,715	800,000	-0,011	-0,033
-556,700	-74,735	-0,055	0,014
-555,685	11,213	0,070	0,039
-554,671	800,000	0,047	-0,102
-553,656	38,479	-0,102	0,065
-552,642	-200,000	0,013	0,077
-551,627	349,033	-0,025	0,035
-550,612	-200,000	-0,029	-0,098
-549,598	349,042	-0,032	-0,046
-548,583	75,405	0,131	-0,100
-547,569	-21,253	0,095	0,041
-546,554	103,052	-0,065	0,054
-545,539	-17,356	0,088	0,040
-544,525	-200,000	0,008	-0,091
-543,510	214,909	-0,068	-0,078
-542,496	800,000	-0,026	-0,069
-541,481	-200,000	-0,017	-0,075
-540,466	257,265	-0,074	-0,092
-539,452	-84,781	0,108	-0,024
-538,437	39,735	0,032	-0,020
-537,423	96,482	0,080	0,066
-536,408	211,121	-0,068	0,077
-535,393	-200,000	-0,006	0,065
-534,379	-100,875	0,064	0,011
-533,364	14,195	0,111	0,062
-532,350	-200,000	-0,002	0,105
-531,335	116,847	0,088	0,078
-530,321	-18,302	-0,033	-0,015
-529,306	369,403	0,034	-0,049
-528,291	44,423	-0,086	-0,057
-527,277	45,879	-0,022	-0,015
-526,262	735,443	-0,061	-0,117
-525,248	-119,165	0,138	-0,017
-524,233	-200,000	0,019	0,174
-523,218	254,867	-0,062	0,076
-522,204	57,654	0,052	-0,037
-521,189	800,000	-0,070	-0,172
-520,175	-200,000	0,010	-0,064
-519,160	207,477	-0,084	-0,094
-518,145	-200,000	-0,016	0,139
-517,131	800,000	0,008	0,018
-516,116	-45,554	-0,058	-0,020
-515,102	-45,960	-0,049	-0,017
-514,087	42,380	-0,045	-0,029
-513,072	800,000	-0,042	-0,113
-512,058	-200,000	-0,015	0,050
-511,043	575,039	0,077	0,136
-510,029	-184,234	-0,030	0,000
-509,014	-200,000	-0,002	0,092
-507,999	56,756	0,131	-0,091
-506,985	123,418	-0,106	-0,096
-505,970	158,286	0,033	-0,033
-504,956	800,000	0,014	0,042
-503,941	129,058	0,118	-0,108
-502,926	73,300	0,015	-0,011
-501,912	-22,602	0,083	-0,036
-500,897	800,000	-0,075	0,152
-499,883	-200,000	-0,010	0,073
-498,868	662,570	-0,040	0,074
-497,853	92,872	0,057	0,046
-496,839	-142,330	-0,062	0,004
-495,824	-200,000	-0,003	0,053
-494,810	200,231	0,075	-0,083
-493,795	109,595	-0,089	0,076
-492,781	91,722	-0,058	0,047
-491,766	-62,146	-0,131	-0,039
-490,751	46,382	-0,044	0,029
-489,737	800,000	0,037	0,081
-488,722	-25,174	-0,027	-0,011
-487,708	-200,000	-0,002	0,047
-486,693	617,677	-0,059	0,107
-485,678	800,000	0,016	0,036
-484,664	131,759	-0,116	0,107
-483,649	800,000	0,015	0,031
-482,635	196,148	0,046	-0,050
-481,620	741,943	0,069	0,134
-480,605	-23,235	0,129	0,056
-479,591	21,461	-0,039	0,023
-478,576	-86,836	-0,083	-0,018
-477,562	-200,000	0,000	0,087
-476,547	81,686	-0,088	-0,068
-475,532	227,487	0,067	-0,079
-474,518	109,262	-0,010	-0,008
-473,503	800,000	0,071	0,175
-472,489	-200,000	-0,049	0,174
-471,474	-186,683	-0,052	-0,001
-470,459	2,399	0,060	-0,031
-469,445	368,385	-0,115	-0,167
-468,430	58,490	0,096	-0,068
-467,416	-58,339	-0,143	-0,044
-466,401	-200,000	0,004	-0,070
-465,386	-15,175	0,085	-0,039
-464,372	364,493	0,038	0,056
-463,357	184,906	-0,111	-0,118
-462,343	101,445	0,046	-0,039
-461,328	-154,131	0,143	0,007
-460,313	123,422	-0,066	-0,059
-459,299	263,986	0,028	-0,035
-458,284	344,491	-0,061	0,086
-457,270	140,311	0,080	-0,076
-456,255	-200,000	0,005	0,023
-455,241	-116,810	-0,206	0,027
-454,226	61,887	-0,050	-0,035
-453,211	-200,000	0,025	0,127
-452,197	-163,577	0,064	-0,002
-451,182	-200,000	0,005	0,058
-450,168	800,000	0,018	0,042
-449,153	800,000	0,047	0,130
-448,138	120,121	-0,093	-0,083
-447,124	800,000	-0,012	-0,031
-446,109	800,000	-0,033	-0,086
-445,095	-200,000	-0,035	0,170
-444,080	-32,736	-0,027	-0,011
-443,065	778,565	0,014	0,027
-442,051	800,000	0,032	-0,084
-441,036	-141,474	-0,174	0,012
-440,022	75,760	-0,089	0,067
-439,007	-186,311	0,030	-0,000
-437,992	-70,544	0,087	-0,024
-436,978	-24,645	-0,047	0,020
-435,963	153,189	0,090	0,088
-434,949	-53,432	0,066	-0,022
-433,934	-111,360	0,179	-0,026
-432,919	800,000	0,059	-0,121
-431,905	97,724	0,091	0,075
-430,890	54,365	0,127	0,087
-429,876	162,067	-0,122	0,122
-428,861	-103,284	0,101	0,017
-427,846	164,277	-0,079	-0,080
-426,832	-21,606	0,158	-0,068
-425,817	100,640	0,015	0,013
-424,803	-200,000	0,006	-0,032
-423,788	800,000	0,020	0,041
-422,773	91,840	-0,061	0,049
-421,759	64,363	-0,021	0,015
-420,744	-22,461	0,077	-0,033
-419,730	-68,384	-0,042	0,011
-418,715	800,000	-0,001	0,003
-417,701	-200,000	0,002	-0,096
-416,686	-47,024	0,155	0,054
-415,671	121,035	-0,045	-0,040
-414,657	155,623	-0,095	0,094
-413,642	9,464	-0,129	0,070
-412,628	-200,000	0,011	0,048
-411,613	-92,778	-0,049	-0,010
-410,598	800,000	0,042	0,112
-409,584	-90,856	0,083	0,017
-408,569	1,545	0,114	-0,058
-407,555	-21,613	0,109	0,047
-406,540	62,718	0,136	-0,097
-405,525	367,478	-0,104	-0,151
-404,511	-200,000	0,008	-0,157
-403,496	-200,000	0,033	-0,188
-402,482	-200,000	0,000	-0,060
-401,467	389,956	0,046	0,068
-400,452	-26,551	0,115	0,048
-399,438	-200,000	0,027	0,086
-398,423	-93,515	-0,034	0,007
-397,409	-125,084	-0,072	0,008
-396,394	131,016	-0,152	0,139
-395,379	-120,734	0,167	-0,020
-394,365	-14,045	0,133	0,061
-393,350	356,756	-0,031	-0,045
-392,336	211,112	0,075	-0,085
-391,321	83,209	-0,069	0,053
-390,306	-200,000	0,032	-0,112
-389,292	-71,080	-0,060	-0,016
-388,277	-200,000	-0,010	0,176
-387,263	-17,085	0,115	0,052
-386,248	264,383	0,065	0,080
-385,233	800,000	-0,003	0,006
-384,219	-93,734	-0,019	0,004
-383,204	652,174	-0,021	-0,039
-382,190	-44,644	0,059	-0,021
-381,175	-200,000	-0,006	0,116
-380,160	-200,000	0,009	0,171
-379,146	77,329	0,079	-0,060
-378,131	31,401	-0,042	0,026
-377,117	5,855	0,093	0,049
-376,102	587,549	-0,092	-0,163
-375,088	350,293	-0,045	0,064
-374,073	-200,000	0,022	0,000
-373,058	-13,873	-0,106	0,049
-372,044	65,171	0,115	-0,083
-371,029	-143,326	0,056	-0,004
-370,015	222,788	0,091	-0,104
-369,000	-200,000	-0,004	-0,102
-367,985	629,904	0,020	-0,037
-366,971	54,525	-0,051	-0,035
-365,956	-200,000	0,010	-0,051
-364,942	48,867	0,113	-0,075
-363,927	-200,000	0,003	0,013
-362,912	118,778	0,058	-0,051
-361,898	113,244	0,094	0,081
-360,883	-200,000	0,003	-0,032
-359,869	361,954	-0,059	0,085
-358,854	252,610	0,114	0,139
-357,839	800,000	0,038	0,078
-356,825	-200,000	-0,008	-0,052
-355,810	125,493	-0,028	-0,025
-354,796	47,530	-0,083	0,055
-353,781	246,994	-0,042	-0,051
-352,766	-140,483	0,031	0,002
-351,752	-125,751	0,111	-0,012
-350,737	-23,575	0,067	-0,029
-349,723	-9,052	-0,031	-0,015
-348,708	800,000	-0,027	0,067
-347,693	669,988	0,052	0,096
-346,679	800,000	0,009	-0,021
-345,664	-200,000	-0,006	-0,047
-344,650	10,488	0,059	0,032
-343,635	-200,000	0,043	0,156
-342,620	4,941	-0,029	0,015
-341,606	-62,260	-0,103	-0,031
-340,591	-65,630	-0,104	0,030
-339,577	762,728	0,052	0,101
-338,562	2,126	-0,059	-0,030
-337,548	-88,118	0,136	0,029
-336,533	800,000	0,019	0,059
-335,518	145,611	-0,051	-0,048
-334,504	-60,515	0,167	0,050
-333,489	-200,000	0,013	0,066
-332,475	93,487	-0,115	-0,093
-331,460	800,000	-0,014	0,029
-330,445	-72,566	0,100	0,026
-329,431	-102,626	-0,172	-0,029
-328,416	497,213	-0,051	0,084
-327,402	318,045	0,040	-0,055
-326,387	-76,574	-0,069	0,017
-325,372	43,378	-0,053	0,034
-324,358	-200,000	-0,018	-0,110
-323,343	498,337	0,065	-0,108
-322,329	-200,000	-0,009	0,031
-321,314	30,066	0,067	0,041
-320,299	-66,720	-0,134	0,038
-319,285	-38,752	0,102	0,038
-318,270	104,786	0,075	0,063
-317,256	-45,032	0,091	-0,032
-316,241	-64,699	-0,023	0,006
-315,226	565,353	0,024	0,041
-314,212	-133,608	-0,092	0,008
-313,197	19,924	0,097	0,055
-312,183	-115,213	-0,028	0,004
-311,168	800,000	0,054	-0,116
-310,153	-55,434	0,157	-0,050
-309,139	184,719	-0,098	-0,104
-308,124	179,019	0,060	0,062
-307,110	-200,000	0,013	0,074
-306,095	800,000	0,034	0,095
-305,080	125,695	-0,032	0,029
-304,066	-75,703	0,087	0,022
-303,051	268,872	-0,005	0,006
-302,037	45,862	-0,048	-0,032
-301,022	-54,396	-0,069	0,022
-300,008	-11,380	0,118	0,055
-298,993	-68,175	0,112	0,031
-297,978	800,000	0,016	0,039
-296,964	609,969	-0,066	-0,119
-295,949	-170,819	-0,144	-0,003
-294,935	163,994	-0,127	-0,128
-293,920	800,000	-0,011	-0,021
-292,905	31,781	0,093	-0,057
-291,891	82,678	0,052	-0,040
-290,876	212,834	0,076	-0,085
-289,862	156,295	-0,051	-0,050
-288,847	-200,000	-0,009	-0,226
-287,832	-200,000	0,013	0,071
-286,818	763,531	0,005	-0,010
-285,803	-135,770	0,135	0,011
-284,789	-53,567	-0,043	0,014
-283,774	34,954	-0,069	-0,043
-282,759	-200,000	0,026	0,087
-281,745	64,143	-0,128	0,091
-280,730	194,963	-0,053	0,057
-279,716	-7,437	0,095	0,046
-278,701	-200,000	-0,003	0,017
-277,686	-110,563	0,015	0,002
-276,672	268,809	0,041	0,051
-275,657	800,000	0,026	0,076
-274,643	47,291	-0,083	-0,055
-273,628	-37,535	0,073	0,028
-272,613	800,000	0,016	-0,039
-271,599	-200,000	-0,030	-0,111
-270,584	196,221	0,028	-0,031
-269,570	-28,116	0,153	0,063
-268,555	273,507	-0,068	0,086
-267,540	677,103	-0,036	-0,067
-266,526	558,318	0,096	-0,165
-265,511	-38,811	-0,145	-0,054
-264,497	75,373	0,022	-0,016
-263,482	-200,000	-0,015	-0,049
-262,467	2,988	-0,029	-0,015
-261,453	-200,000	0,001	0,088
-260,438	-25,281	0,024	-0,010
-259,424	-200,000	-0,022	0,129
-258,409	350,328	-0,060	0,085
-257,395	-88,492	0,204	0,043
-256,380	800,000	0,063	0,152
-255,365	-200,000	0,022	0,092
-254,351	128,732	-0,107	-0,097
-253,336	800,000	-0,008	-0,022
-252,322	-33,937	-0,086	-0,034
-251,307	167,835	0,049	-0,050
-250,292	203,366	-0,039	-0,043
-249,278	-200,000	0,012	-0,039
-248,263	-120,819	0,161	0,019
-247,249	597,702	-0,033	-0,058
-246,234	-200,000	-0,019	-0,085
-245,219	-200,000	-0,005	0,059
-244,205	-200,000	-0,002	-0,055
-243,190	143,357	0,147	-0,139
-242,176	-116,038	0,026	-0,003
-241,161	265,171	0,067	0,083
-240,146	-44,695	0,035	0,012
-239,132	530,344	-0,055	-0,092
-238,117	-152,213	-0,083	-0,004
-237,103	572,125	0,020	0,035
-236,088	-40,611	0,044	-0,016
-235,073	800,000	0,053	-0,108
-234,059	334,835	-0,058	0,080
-233,044	-35,240	0,060	0,023
-232,030	-79,991	0,056	-0,013
-231,015	-200,000	0,005	-0,087
-230,000	-200,000	-0,039	-0,166
-228,986	-159,233	-0,078	0,003
-227,971	-18,445	-0,030	-0,013
-226,957	-200,000	0,006	0,157
-225,942	173,499	-0,054	0,056
-224,927	-134,979	-0,060	0,005
-223,913	-38,617	-0,060	-0,023
-222,898	42,261	-0,073	-0,047
-221,884	149,019	-0,086	0,083
-220,869	112,218	0,147	0,127
-219,855	361,730	0,019	0,026
-218,840	-84,576	0,162	0,036
-217,825	192,975	-0,083	0,089
-216,811	199,360	-0,053	-0,058
-215,796	40,733	-0,216	-0,138
-214,782	59,790	0,112	0,079
-213,767	9,737	-0,016	-0,009
-212,752	-200,000	0,018	0,070
-211,738	-200,000	0,026	0,103
-210,723	-200,000	-0,036	0,114
-209,709	-57,700	-0,079	0,024
-208,694	-200,000	0,018	-0,185
-207,679	175,899	0,033	0,034
-206,665	305,379	-0,135	-0,178
-205,650	132,862	0,104	0,095
-204,636	800,000	0,049	-0,135
-203,621	-200,000	-0,012	-0,048
-202,606	101,163	-0,093	-0,077
-201,592	800,000	0,032	-0,088
-200,577	-68,108	0,042	0,012
-199,563	800,000	-0,016	0,041
-198,548	-200,000	-0,016	0,178
-197,533	251,380	0,086	0,104
-196,519	-183,428	-0,043	-0,001
-195,504	-161,220	-0,083	-0,003
-194,490	-84,535	0,080	0,018
-193,475	432,107	-0,022	-0,034
-192,460	12,778	-0,056	-0,030
-191,446	85,395	-0,131	0,102
-190,431	-200,000	-0,010	-0,044
-189,417	-200,000	-0,014	0,099
-188,402	800,000	0,026	0,076
-187,387	-120,108	0,177	-0,021
-186,373	174,896	0,107	-0,110
-185,358	800,000	0,017	-0,038
-184,344	-58,030	-0,020	0,006
-183,329	58,453	0,123	0,085
-182,315	-26,556	0,056	0,023
-181,300	20,484	-0,047	0,027
-180,285	800,000	-0,039	-0,119
-179,271	139,057	-0,061	0,057
-178,256	-100,627	0,055	-0,010
-177,242	434,859	-0,019	-0,030
-176,227	618,908	-0,026	-0,047
-175,212	-16,389	-0,082	-0,037
-174,198	478,060	-0,074	0,119
-173,183	305,206	0,032	-0,042
-172,169	368,303	-0,065	-0,093
-171,154	-71,544	-0,104	0,027
-170,139	-110,103	-0,124	-0,018
-169,125	-200,000	-0,001	-0,087
-168,110	91,644	-0,027	-0,021
-167,096	800,000	-0,040	-0,084
-166,081	67,726	-0,118	0,085
-165,066	-200,000	-0,009	0,111
-164,052	-165,910	0,157	0,005
-163,037	-38,356	0,070	0,026
-162,023	2,677	-0,045	-0,023
-161,008	-13,117	0,066	0,030
-159,993	800,000	0,011	-0,030
-158,979	-5,240	-0,073	-0,035
-157,964	118,729	0,064	-0,056
-156,950	-200,000	-0,020	-0,174
-155,935	-79,688	-0,064	0,015
-154,920	-42,448	-0,068	-0,024
-153,906	256,252	0,073	0,089
-152,891	-200,000	0,020	0,113
-151,877	192,936	0,029	-0,032
-150,862	4,856	0,104	0,054
-149,847	197,895	-0,080	-0,087
-148,833	115,992	0,070	0,061
-147,818	800,000	0,046	0,109
-146,804	800,000	0,063	0,157
-145,789	214,920	0,099	0,111
-144,775	-136,256	-0,032	0,003
-143,760	31,996	-0,042	-0,025
-142,745	800,000	0,026	0,077
-141,731	-127,117	-0,029	-0,003
-140,716	724,693	-0,033	0,063
-139,702	266,653	0,018	0,023
-138,687	-32,906	0,125	0,049
-137,672	-200,000	0,023	0,093
-136,658	11,315	-0,119	-0,064
-135,643	728,853	-0,058	0,110
-134,629	38,538	-0,146	-0,092
-133,614	-200,000	-0,006	-0,066
-132,599	29,159	0,111	-0,066
-131,585	549,612	0,080	0,137
-130,570	102,034	-0,129	0,107
-129,556	800,000	0,004	-0,009
-128,541	357,763	0,055	-0,077
-127,526	-26,967	0,066	-0,027
-126,512	-200,000	0,002	0,084
-125,497	683,326	0,086	0,159
-124,483	-200,000	-0,022	0,156
-123,468	-200,000	0,045	0,168
-122,453	463,763	-0,034	0,054
-121,439	410,575	-0,050	-0,075
-120,424	800,000	-0,031	-0,097
-119,410	-72,361	0,081	-0,021
-118,395	724,069	0,041	0,077
-117,380	282,026	-0,076	0,097
-116,366	-200,000	0,023	-0,096
-115,351	800,000	-0,015	0,029
-114,337	800,000	0,041	-0,096
-113,322	-120,866	-0,058	-0,007
-112,307	-200,000	0,036	0,172
-111,293	58,976	0,049	0,034
-110,278	800,000	0,056	-0,155
-109,264	-200,000	0,018	-0,169
-108,249	-170,009	-0,032	0,001
-107,234	73,017	-0,051	0,037
-106,220	800,000	-0,012	-0,027
-105,205	800,000	-0,038	0,106
-104,191	47,187	-0,115	0,076
-103,176	-17,099	0,049	0,022
-102,162	460,252	0,055	0,087
-101,147	-200,000	-0,006	-0,069
-100,132	-24,288	0,131	-0,055
-99,118	800,000	-0,010	-0,019
-98,103	421,768	-0,052	-0,079
-97,089	789,236	0,084	0,164
-96,074	-136,229	0,155	-0,013
-95,059	-200,000	0,013	0,070
-94,045	-200,000	-0,039	0,125
-93,030	800,000	-0,019	-0,039
-92,016	800,000	-0,024	0,050
-91,001	156,775	-0,097	-0,095
-89,986	-200,000	-0,008	0,059
-88,972	164,861	0,062	0,062
-87,957	-200,000	-0,029	0,104
-86,943	-66,451	-0,079	-0,022
-85,928	138,777	0,029	0,027
-84,913	-200,000	-0,012	-0,108
-83,899	-200,000	-0,008	0,105
-82,884	-197,901	-0,074	-0,000
-81,870	-42,413	-0,048	0,017
-80,855	12,721	-0,066	0,036
-79,840	349,411	0,063	-0,088
-78,826	492,368	-0,023	-0,037
-77,811	729,168	0,038	-0,071
-76,797	110,878	0,080	0,068
-75,782	-57,651	-0,056	-0,017
-74,767	-200,000	-0,013	-0,064
-73,753	800,000	-0,015	0,042
-72,738	-68,002	0,013	-0,003
-71,724	800,000	0,024	0,066
-70,709	-168,290	-0,061	0,002
-69,694	169,756	-0,038	-0,038
-68,680	418,235	0,048	-0,073
-67,665	-52,867	0,075	0,024
-66,651	-32,114	0,044	-0,017
-65,636	557,352	0,037	0,063
-64,622	111,735	0,030	-0,026
-63,607	800,000	-0,036	-0,070
-62,592	344,426	0,063	-0,088
-61,578	800,000	-0,028	-0,064
-60,563	137,512	0,108	0,100
-59,549	800,000	-0,055	0,163
-58,534	61,805	-1,945	-1,366
-57,519	502,414	-1,058	-1,732
-56,505	-200,000	-0,285	-4,406
-55,490	402,371	0,959	1,426
-54,476	800,000	5,284	11,419
-53,461	-200,000	21,664	342,012
-52,446	800,000	762,997	2337,985
-51,432	546,258	1660,795	2813,064
-50,417	71,104	1656,930	1210,514
-49,403	17,144	1530,535	853,954
-48,388	11,187	1454,411	782,734
-47,373	19,269	1445,994	816,863
-46,359	14,682	1434,989	788,858
-45,344	9,524	1430,751	761,997
-44,330	9,402	1429,107	760,511
-43,315	9,451	1427,349	759,780
-42,300	9,435	1425,556	758,716
-41,286	9,448	1424,407	758,140
-40,271	9,425	1423,081	757,292
-39,257	9,453	1421,851	756,741
-38,242	9,436	1420,736	756,039
-37,227	9,440	1419,671	755,459
-36,213	9,438	1418,438	754,763
-35,198	9,457	1417,324	754,232
-34,184	9,473	1416,334	753,750
-33,169	9,435	1414,780	752,711
-32,154	9,494	1413,872	752,478
-31,140	9,431	1412,570	751,460
-30,125	9,477	1411,526	751,089
-29,111	9,474	1410,255	750,369
-28,096	9,438	1409,210	749,615
-27,082	9,409	1408,028	748,822
-26,067	9,402	1407,068	748,248
-25,052	9,435	1405,936	747,770
-24,038	9,472	1404,801	747,309
-23,023	9,379	1404,245	746,550
-22,009	9,460	1402,998	746,236
-20,994	9,407	1401,984	745,418
-19,979	9,417	1401,063	744,945
-18,965	9,403	1400,128	744,353
-17,950	9,393	1399,204	743,786
-16,936	9,343	1398,428	743,112
-15,921	9,305	1397,284	742,298
-14,906	9,332	1396,382	741,916
-13,892	9,403	1395,365	741,676
-12,877	9,383	1394,596	741,147
-11,863	9,311	1393,918	740,421
-10,848	9,292	1392,948	739,786
-9,833	9,322	1391,844	739,312
-8,819	9,218	1391,446	738,591
-7,804	9,240	1390,365	738,087
-6,790	9,225	1389,264	737,405
-5,775	9,220	1388,163	736,767
-4,760	9,219	1387,186	736,217
-3,746	9,228	1386,298	735,756
-2,731	9,260	1385,375	735,384
-1,717	9,290	1384,419	734,985
-0,702	9,208	1382,982	733,819
0,313	13,408	1295,059	706,272
1,327	29,753	685,995	410,949
2,342	46,012	118,302	77,070
3,356	0,514	16,650	8,362
4,371	9,914	3,589	1,915
5,386	-1,226	1,104	0,548
6,400	800,000	0,262	0,694
7,415	-17,857	-0,325	-0,143
8,429	85,519	-0,169	-0,131
9,444	-0,672	-0,201	-0,100
10,459	-96,614	-0,305	-0,056
11,473	-10,630	-0,230	-0,107
12,488	-141,011	-0,261	-0,019
13,502	-48,279	-0,317	-0,107
14,517	132,336	-0,292	-0,265
15,531	-44,675	-0,403	-0,141
16,546	-21,036	-0,353	-0,151
17,561	-2,554	-0,314	-0,155
18,575	-55,075	-0,108	-0,034
19,590	-72,972	-0,233	-0,060
20,604	36,186	-0,180	-0,112
21,619	126,795	-0,390	-0,348
22,634	153,246	-0,524	-0,505
23,648	182,267	-0,446	-0,463
24,663	124,857	-0,390	-0,346
25,677	117,334	-0,308	-0,266
26,692	407,138	-0,201	-0,299
27,707	95,589	-0,319	-0,256
28,721	114,224	-0,392	-0,335
29,736	168,762	-0,247	-0,248
30,750	38,432	-0,519	-0,325
31,765	183,452	-0,349	-0,364
32,780	-7,462	-0,370	-0,176
33,794	103,473	-0,160	-0,132
34,809	-53,698	-0,335	-0,107
35,823	17,356	-0,308	-0,171
36,838	82,139	-0,473	-0,360
37,853	221,424	-0,400	-0,452
38,867	19,564	-0,391	-0,221
39,882	80,193	-0,323	-0,244
40,896	-93,975	-0,403	-0,077
41,911	159,462	-0,290	-0,284
42,926	125,283	-0,301	-0,267
43,940	187,792	-0,254	-0,267
44,955	44,643	-0,356	-0,230
45,969	143,909	-0,302	-0,283
46,984	52,092	-0,211	-0,141
47,999	137,955	-0,304	-0,279
49,013	106,924	-0,295	-0,246
50,028	21,181	-0,318	-0,181
51,042	-14,774	-0,445	-0,200
52,057	220,450	-0,270	-0,304
53,071	99,275	-0,358	-0,290
54,086	21,053	-0,306	-0,174
55,101	27,191	-0,360	-0,212
56,115	-114,298	-0,303	-0,040
57,130	91,941	-0,347	-0,274
58,144	-28,639	-0,383	-0,154
59,159	-0,882	-0,345	-0,171
60,174	-37,738	-0,424	-0,157
61,188	16,252	-0,228	-0,126
62,203	-15,951	-0,323	-0,143
63,217	106,801	-0,272	-0,226
64,232	16,156	-0,315	-0,174
65,247	36,830	-0,395	-0,244
66,261	-20,491	-0,384	-0,165
67,276	440,590	-0,245	-0,377
68,290	53,450	-0,355	-0,239
69,305	28,692	-0,328	-0,194
70,320	541,721	-0,243	-0,408
71,334	-58,600	-0,347	-0,105
72,349	-50,790	-0,351	-0,115
73,363	-4,316	-0,291	-0,141
74,378	85,402	-0,197	-0,152
75,393	93,814	-0,379	-0,301
76,407	1,088	-0,298	-0,149
77,422	94,141	-0,330	-0,262
78,436	-22,398	-0,154	-0,065
79,451	535,058	-0,126	-0,210
80,466	67,849	-0,334	-0,239
81,480	-64,666	-0,308	-0,087
82,495	318,034	-0,160	-0,212
83,509	249,711	-0,268	-0,319
84,524	48,763	-0,321	-0,211
85,539	48,087	-0,259	-0,169
86,553	-128,916	-0,326	-0,032
87,568	-27,017	-0,294	-0,119
88,582	116,841	-0,318	-0,273
89,597	53,181	-0,288	-0,192
90,611	-60,397	-0,195	-0,058
91,626	142,896	-0,222	-0,207
92,641	-62,794	-0,252	-0,073
93,655	-83,880	-0,334	-0,074
94,670	123,508	-0,226	-0,198
95,684	197,940	-0,224	-0,240
96,699	212,568	-0,233	-0,258
97,714	11,001	-0,234	-0,125
98,728	18,910	-0,307	-0,171
99,743	75,262	-0,158	-0,116
100,757	59,113	-0,356	-0,245
101,772	2,872	-0,285	-0,144
102,787	40,970	-0,202	-0,128
103,801	266,540	-0,213	-0,261
104,816	88,249	-0,265	-0,205
105,830	258,482	-0,201	-0,242
106,845	-80,418	-0,258	-0,060
107,860	118,932	-0,211	-0,182
108,874	53,923	-0,232	-0,156
109,889	124,749	-0,267	-0,235
110,903	0,927	-0,453	-0,226
111,918	91,885	-0,283	-0,223
112,933	119,769	-0,156	-0,135
113,947	50,449	-0,250	-0,165
114,962	-3,206	-0,363	-0,176
115,976	105,654	-0,266	-0,219
116,991	-0,913	-0,253	-0,125
118,006	-15,885	-0,274	-0,121
119,020	-8,611	-0,290	-0,135
120,035	380,564	-0,167	-0,240
121,049	-143,523	-0,234	-0,015
122,064	18,723	-0,290	-0,162
123,079	9,382	-0,192	-0,101
124,093	187,072	-0,161	-0,168
125,108	434,994	-0,211	-0,321
126,122	120,477	-0,271	-0,235
127,137	72,278	-0,188	-0,136
128,151	54,219	-0,117	-0,078
129,166	-75,017	-0,287	-0,071
130,181	187,123	-0,297	-0,309
131,195	61,679	-0,328	-0,228
132,210	-31,514	-0,311	-0,121
133,224	112,239	-0,210	-0,177
134,239	-131,575	-0,219	-0,020
135,254	-27,462	-0,181	-0,073
136,268	0,029	-0,267	-0,132
137,283	-36,608	-0,189	-0,070
138,297	93,679	-0,195	-0,154
139,312	93,235	-0,282	-0,222
140,327	46,528	-0,306	-0,198
141,341	244,230	-0,173	-0,202
142,356	-60,631	-0,288	-0,085
143,370	111,024	-0,292	-0,244
144,385	-112,571	-0,260	-0,036
145,400	170,664	-0,201	-0,200
146,414	34,639	-0,211	-0,128
147,429	28,371	-0,254	-0,149
148,443	-41,850	-0,154	-0,055
149,458	275,898	-0,180	-0,223
150,473	108,912	-0,239	-0,199
151,487	470,413	-0,206	-0,324
152,502	-23,852	-0,350	-0,145
153,516	800,000	-0,142	-0,316
154,531	144,354	-0,246	-0,229
155,546	41,237	-0,270	-0,169
156,560	252,283	-0,237	-0,282
157,575	6,164	-0,219	-0,112
158,589	-44,162	-0,225	-0,078
159,604	83,307	-0,239	-0,181
160,619	327,748	-0,194	-0,260
161,633	130,401	-0,270	-0,241
162,648	800,000	-0,124	-0,260
163,662	233,549	-0,220	-0,252
164,677	642,753	-0,068	-0,121
165,692	3,004	-0,155	-0,078
166,706	-29,758	-0,371	-0,146
167,721	-38,684	-0,260	-0,095
168,735	127,286	-0,236	-0,208
169,750	27,941	-0,215	-0,125
170,764	328,150	-0,129	-0,173
171,779	203,990	-0,241	-0,259
172,794	144,212	-0,116	-0,108
173,808	-139,910	-0,354	0,026
174,823	13,288	-0,343	-0,184
175,837	-36,771	-0,237	-0,088
176,852	800,000	-0,100	-0,242
177,867	82,725	-0,168	-0,127
178,881	106,319	-0,091	-0,075
179,896	64,934	-0,156	-0,109
180,910	-5,709	-0,221	-0,105
181,925	158,667	-0,182	-0,176
182,940	97,301	-0,223	-0,177
183,954	352,044	-0,200	-0,276
184,969	56,437	-0,190	-0,128
185,983	17,880	-0,199	-0,110
186,998	97,458	-0,205	-0,163
188,013	313,738	-0,130	-0,171
189,027	245,430	-0,175	-0,205
190,042	26,306	-0,313	-0,181
191,056	4,041	-0,170	-0,086
192,071	-0,058	-0,231	-0,113
193,086	96,607	-0,296	-0,235
194,100	-34,238	-0,307	-0,116
195,115	286,810	-0,178	-0,224
196,129	258,320	-0,143	-0,171
197,144	69,115	-0,211	-0,150
198,159	93,768	-0,217	-0,170
199,173	285,859	-0,178	-0,223
200,188	-157,929	-0,271	-0,011
201,202	74,926	-0,168	-0,122
202,217	320,774	-0,214	-0,283
203,232	165,275	-0,193	-0,189
204,246	150,959	-0,123	-0,116
205,261	272,813	-0,175	-0,214
206,275	800,000	-0,106	-0,241
207,290	197,418	-0,135	-0,143
208,304	-31,633	-0,209	-0,081
209,319	-140,803	-0,218	-0,015
210,334	12,737	-0,203	-0,108
211,348	410,726	-0,163	-0,241
212,363	-25,060	-0,195	-0,080
213,377	128,673	-0,175	-0,155
214,392	64,630	-0,135	-0,094
215,407	-45,558	-0,169	-0,057
216,421	285,777	-0,203	-0,254
217,436	58,702	-0,275	-0,186
218,450	302,060	-0,176	-0,226
219,465	149,845	-0,194	-0,182
220,480	115,702	-0,158	-0,134
221,494	15,386	-0,172	-0,093
222,509	-50,152	-0,136	-0,044
223,523	-32,613	-0,119	-0,045
224,538	-36,537	-0,162	-0,060
225,553	800,000	-0,149	-0,285
226,567	49,637	-0,139	-0,091
227,582	434,595	-0,163	-0,245
228,596	260,571	-0,246	-0,295
229,611	97,004	-0,139	-0,110
230,626	-25,798	-0,113	-0,046
231,640	102,662	-0,187	-0,151
232,655	-75,407	-0,153	-0,037
233,669	17,792	-0,273	-0,150
234,684	195,632	-0,166	-0,174
235,699	-103,667	-0,297	-0,048
236,713	-11,730	-0,109	-0,049
237,728	-61,428	-0,184	-0,053
238,742	800,000	-0,060	-0,168
239,757	298,121	-0,168	-0,213
240,772	43,788	-0,194	-0,122
241,786	-69,041	-0,137	-0,036
242,801	-200,000	-0,002	-0,019
243,815	-167,545	-0,117	0,003
244,830	287,041	-0,117	-0,146
245,844	42,726	-0,108	-0,068
246,859	23,183	-0,251	-0,142
247,874	33,261	-0,308	-0,184
248,888	800,000	-0,114	-0,250
249,903	23,754	-0,194	-0,110
250,917	86,690	-0,048	-0,037
251,932	-161,544	-0,305	0,011
252,947	800,000	-0,078	-0,200
253,961	-200,000	-0,043	-0,150
254,976	-158,633	-0,137	0,005
255,990	203,229	-0,075	-0,080
257,005	-200,000	-0,028	-0,096
258,020	-66,594	-0,037	-0,010
259,034	42,085	-0,244	-0,152
260,049	-42,957	-0,212	-0,074
261,063	-87,221	-0,291	-0,060
262,078	97,547	-0,301	-0,238
263,093	149,882	-0,163	-0,152
264,107	233,462	-0,085	-0,096
265,122	0,525	-0,107	0,053
266,136	123,574	-0,146	-0,126
267,151	800,000	-0,056	-0,108
268,166	332,030	-0,204	-0,272
269,180	157,561	-0,221	-0,211
270,195	-94,521	-0,167	-0,031
271,209	269,200	-0,183	-0,221
272,224	-200,000	-0,018	-0,124
273,239	9,763	-0,158	-0,082
274,253	-200,000	-0,066	-0,244
275,268	212,521	-0,080	-0,087
276,282	130,677	-0,254	-0,224
277,297	190,522	-0,123	-0,128
278,312	538,189	-0,181	-0,297
279,326	-157,170	-0,184	-0,008
280,341	10,788	-0,087	0,046
281,355	-49,479	-0,317	-0,103
282,370	209,630	-0,143	-0,154
283,384	-22,765	-0,164	-0,068
284,399	8,785	-0,117	-0,060
285,414	800,000	-0,057	-0,112
286,428	72,642	-0,175	-0,126
287,443	-200,000	-0,060	-0,206
288,457	-159,831	-0,233	-0,009
289,472	800,000	-0,113	-0,307
290,487	66,766	-0,132	-0,092
291,501	31,082	-0,112	-0,066
292,516	-1,370	-0,234	-0,113
293,530	174,214	-0,128	-0,127
294,545	169,179	-0,121	-0,119
295,560	-14,280	0,095	0,042
296,574	-177,156	-0,066	0,001
297,589	381,471	-0,130	-0,183
298,603	80,837	-0,079	-0,059
299,618	-52,788	-0,226	-0,071
300,633	96,114	-0,195	-0,153
301,647	616,637	-0,055	-0,095
302,662	-200,000	-0,036	-0,206
303,676	-117,721	-0,144	-0,018
304,691	57,780	-0,187	-0,126
305,706	160,192	-0,103	-0,099
306,720	478,534	-0,018	-0,028
307,735	-127,389	-0,152	-0,015
308,749	-70,195	-0,145	0,037
309,764	-200,000	0,034	-0,225
310,779	-200,000	0,015	-0,072
311,793	-91,596	-0,224	-0,043
312,808	-23,839	-0,253	-0,103
313,822	194,511	-0,085	-0,089
314,837	63,554	-0,044	-0,030
315,852	349,685	-0,166	0,226
316,866	21,695	-0,082	0,046
317,881	-19,271	-0,108	-0,046
318,895	273,256	-0,142	-0,172
319,910	-74,843	-0,108	-0,026
320,925	9,225	-0,241	-0,125
321,939	77,020	-0,232	-0,168
322,954	23,789	-0,090	0,051
323,968	-3,185	-0,102	-0,048
324,983	-200,000	-0,114	-0,000
325,997	-200,000	-0,049	-0,176
327,012	8,129	-0,174	-0,089
328,027	-21,726	-0,209	-0,087
329,041	202,182	-0,154	-0,163
330,056	-106,200	-0,131	-0,020
331,070	-200,000	-0,020	-0,150
332,085	-200,000	-0,024	-0,245
333,100	716,074	-0,104	-0,189
334,114	-200,000	-0,106	0,000
335,129	84,404	-0,142	-0,106
336,143	293,425	-0,125	-0,157
337,158	483,263	-0,099	-0,155
338,173	99,197	-0,184	-0,146
339,187	33,121	-0,149	-0,088
340,202	122,772	-0,160	-0,137
341,216	-200,000	-0,017	-0,059
342,231	-45,360	-0,167	-0,056
343,246	-119,530	-0,225	0,026
344,260	-73,464	-0,153	-0,038
345,275	-200,000	0,010	-0,136
346,289	64,992	-0,117	0,081
347,304	-24,014	-0,203	-0,082
348,319	81,297	-0,092	-0,068
349,333	200,870	-0,191	-0,202
350,348	11,036	-0,138	-0,072
351,362	50,131	-0,169	-0,109
352,377	218,470	-0,063	-0,069
353,392	215,169	-0,107	-0,116
354,406	325,040	-0,121	-0,159
355,421	209,614	1305,275	1400,548
356,435	161,339	1464,818	1401,024
