DTS Sentinel unit serial number:	SN410029Multiplexer serial number:	ORYXHardware model number:	OX2-SRSoftware version number:	ORYX F/W v4,00 Oryx Data Collector v3.7.2.0data status	okinstallation	B3 Nyhavnadifferential loss correction	single-endedforward channel	channel 1reverse channel	N/Adate	2023/11/30time	15:47:30forward acquisition time	300,00reverse acquisition time	0,00gamma	499,1914k internal	0,3206k external	0,3206temperature offset calibration	1,0000default loss term (dB/km)	0,3820temperature slope calibration	1,0000multiplexer offset coefficient	1,0000multiplexer slope coefficient	1,0000fibre end	0,00T internal ref (°C)	12,57T ext. ref 1 (°C)	-1,71T ext. ref 2 (°C)	-1,75length (m)	temperature (°C)	Stokes	anti-Stokes-744,400	303,069	-0,189	-0,255
-743,385	-200,000	0,023	0,314
-742,371	800,000	-0,166	-0,334
-741,356	-200,000	0,044	0,324
-740,342	3,410	-0,224	-0,118
-739,327	701,606	-0,116	0,223
-738,312	-200,000	-0,072	-0,282
-737,298	-200,000	-0,009	0,300
-736,283	800,000	-0,117	-0,279
-735,269	-200,000	0,033	0,402
-734,254	78,236	-0,197	-0,153
-733,239	-59,238	-0,239	0,074
-732,225	-200,000	-0,066	-0,291
-731,210	118,613	0,138	0,124
-730,196	-200,000	-0,013	0,109
-729,181	-200,000	0,008	0,049
-728,167	-200,000	-0,007	0,112
-727,152	800,000	-0,027	-0,081
-726,137	32,567	-0,129	0,081
-725,123	199,428	-0,117	-0,131
-724,108	127,019	-0,160	-0,147
-723,094	-98,710	-0,156	-0,029
-722,079	403,219	-0,157	-0,240
-721,064	261,580	-0,082	-0,103
-720,050	-47,126	-0,099	0,035
-719,035	300,467	-0,051	0,069
-718,021	410,136	-0,038	-0,059
-717,006	92,257	-0,018	0,015
-715,991	-200,000	0,021	-0,097
-714,977	800,000	0,014	-0,029
-713,962	-200,000	-0,015	-0,157
-712,948	132,166	0,068	-0,064
-711,933	99,249	0,063	-0,053
-710,918	120,296	-0,054	0,048
-709,904	-197,773	-0,056	-0,000
-708,889	-200,000	0,008	-0,077
-707,875	-200,000	0,001	-0,042
-706,860	-73,301	0,102	0,027
-705,845	800,000	-0,052	0,113
-704,831	-200,000	0,000	0,053
-703,816	258,770	-0,042	-0,053
-702,802	-200,000	-0,028	-0,102
-701,787	-72,979	-0,033	-0,009
-700,772	800,000	-0,036	0,079
-699,758	-108,283	-0,090	0,014
-698,743	195,362	-0,091	0,100
-697,729	465,100	-0,072	0,117
-696,714	-130,211	0,050	0,005
-695,699	-124,153	-0,049	0,005
-694,685	800,000	0,036	-0,085
-693,670	800,000	-0,039	-0,081
-692,656	800,000	0,028	-0,065
-691,641	500,279	-0,056	-0,093
-690,627	20,328	0,009	0,005
-689,612	-104,797	-0,174	0,029
-688,597	-124,113	-0,203	0,023
-687,583	-158,655	-0,044	0,002
-686,568	198,830	0,048	0,053
-685,554	-131,623	0,031	-0,003
-684,539	447,586	-0,031	0,050
-683,524	300,037	0,049	-0,065
-682,510	230,523	0,052	-0,061
-681,495	-118,506	-0,117	-0,015
-680,481	158,784	-0,070	0,071
-679,466	68,599	-0,070	0,052
-678,451	298,977	-0,056	0,074
-677,437	-32,228	0,110	0,044
-676,422	67,692	0,173	0,128
-675,408	7,351	0,045	0,024
-674,393	48,654	-0,064	-0,044
-673,378	-112,110	-0,116	-0,017
-672,364	-87,136	-0,093	0,020
-671,349	-161,620	-0,217	-0,008
-670,335	-147,824	0,073	0,004
-669,320	49,274	-0,057	-0,039
-668,305	-59,208	0,067	0,021
-667,291	791,849	0,029	-0,058
-666,276	-31,021	-0,156	0,064
-665,262	311,317	-0,099	-0,135
-664,247	-200,000	0,006	0,069
-663,232	-96,854	-0,093	-0,018
-662,218	-25,133	-0,057	-0,024
-661,203	-200,000	-0,026	0,093
-660,189	-200,000	-0,006	0,038
-659,174	41,419	-0,073	0,048
-658,159	-143,762	-0,102	-0,007
-657,145	800,000	0,019	-0,057
-656,130	800,000	0,039	0,079
-655,116	-97,951	-0,052	0,010
-654,101	-200,000	-0,016	0,180
-653,086	136,057	-0,013	0,012
-652,072	-200,000	-0,051	-0,165
-651,057	321,719	0,056	-0,077
-650,043	128,632	-0,182	-0,167
-649,028	-200,000	0,016	0,095
-648,014	-200,000	0,040	0,162
-646,999	233,924	-0,104	0,124
-645,984	471,600	0,046	0,075
-644,970	32,068	-0,055	0,034
-643,955	800,000	-0,028	-0,068
-642,941	343,636	-0,075	0,106
-641,926	-73,715	0,113	0,030
-640,911	-127,206	0,143	0,015
-639,897	220,962	0,077	-0,090
-638,882	33,133	0,096	-0,060
-637,868	-95,238	-0,120	-0,023
-636,853	541,496	-0,037	-0,063
-635,838	-200,000	-0,032	-0,204
-634,824	135,040	-0,057	0,053
-633,809	-200,000	-0,012	0,062
-632,795	157,404	-0,028	0,028
-631,780	750,537	0,078	-0,153
-630,765	-200,000	-0,001	0,072
-629,751	-64,841	-0,177	0,051
-628,736	398,983	0,066	-0,100
-627,722	120,058	0,061	-0,055
-626,707	-68,487	0,086	0,024
-625,692	-103,374	0,117	0,020
-624,678	131,688	-0,024	0,022
-623,663	-161,348	-0,074	0,003
-622,649	-131,552	-0,084	-0,008
-621,634	-200,000	-0,001	-0,045
-620,619	-44,166	-0,100	-0,036
-619,605	-165,907	0,097	0,003
-618,590	800,000	-0,020	-0,057
-617,576	-200,000	-0,001	0,088
-616,561	-112,380	-0,111	0,016
-615,546	57,864	-0,030	0,021
-614,532	26,698	-0,153	0,092
-613,517	108,957	-0,077	0,067
-612,503	-200,000	-0,023	-0,076
-611,488	-6,217	0,088	0,043
-610,474	-184,483	0,087	-0,001
-609,459	-200,000	-0,018	0,065
-608,444	-200,000	-0,044	-0,147
-607,430	-157,863	-0,071	-0,003
-606,415	30,774	-0,052	-0,032
-605,401	121,896	-0,038	-0,034
-604,386	-200,000	-0,007	-0,065
-603,371	-97,899	-0,082	-0,015
-602,357	-112,101	-0,093	0,013
-601,342	800,000	-0,026	-0,072
-600,328	656,965	-0,047	-0,087
-599,313	381,409	0,022	-0,032
-598,298	-38,971	-0,052	-0,020
-597,284	-83,607	0,027	0,006
-596,269	-40,454	0,035	-0,013
-595,255	120,941	0,042	0,038
-594,240	800,000	-0,077	-0,202
-593,225	23,265	-0,023	0,014
-592,211	1,009	-0,098	-0,051
-591,196	414,174	0,063	-0,098
-590,182	35,396	0,019	-0,012
-589,167	155,934	-0,023	-0,023
-588,152	66,664	-0,078	0,058
-587,138	-88,523	-0,198	0,042
-586,123	424,238	0,075	-0,117
-585,109	-200,000	-0,009	-0,071
-584,094	-87,340	-0,143	0,031
-583,079	800,000	0,015	0,041
-582,065	-200,000	0,011	-0,042
-581,050	-61,151	0,140	-0,042
-580,036	-200,000	-0,005	0,162
-579,021	63,504	-0,066	-0,048
-578,006	-200,000	-0,013	-0,095
-576,992	-200,000	0,006	0,100
-575,977	-21,232	0,135	0,059
-574,963	768,367	0,021	0,041
-573,948	800,000	-0,078	0,164
-572,934	260,385	-0,078	-0,097
-571,919	-105,256	-0,100	-0,016
-570,904	-200,000	0,023	-0,097
-569,890	-72,098	0,089	0,024
-568,875	800,000	0,067	-0,143
-567,861	-37,970	0,085	-0,032
-566,846	619,737	-0,097	0,176
-565,831	800,000	-0,039	0,119
-564,817	-94,891	-0,139	0,027
-563,802	800,000	-0,065	-0,136
-562,788	800,000	-0,047	0,138
-561,773	-114,384	0,030	-0,004
-560,758	356,314	-0,019	0,027
-559,744	-79,621	0,117	0,028
-558,729	800,000	0,088	0,187
-557,715	-56,682	0,151	-0,048
-556,700	162,655	-0,044	-0,045
-555,685	-200,000	0,002	-0,087
-554,671	-53,832	0,086	0,028
-553,656	-151,294	0,111	-0,006
-552,642	-200,000	0,014	0,081
-551,627	-200,000	0,030	-0,144
-550,612	101,391	0,046	0,038
-549,598	16,502	-0,129	-0,073
-548,583	55,671	-0,192	-0,134
-547,569	800,000	-0,050	-0,134
-546,554	75,635	-0,041	-0,032
-545,539	-31,851	0,089	-0,036
-544,525	70,747	-0,024	0,018
-543,510	-200,000	-0,007	0,059
-542,496	64,645	-0,044	-0,032
-541,481	800,000	-0,007	0,015
-540,466	-73,205	0,045	-0,012
-539,452	800,000	0,045	0,099
-538,437	108,919	0,034	0,030
-537,423	800,000	0,099	0,198
-536,408	82,673	0,029	0,022
-535,393	182,998	-0,057	-0,060
-534,379	62,680	-0,093	0,067
-533,364	490,492	-0,042	0,069
-532,350	-166,974	0,074	-0,002
-531,335	-200,000	0,015	0,075
-530,321	800,000	-0,017	0,052
-529,306	775,483	-0,035	0,069
-528,291	118,943	-0,109	0,097
-527,277	259,915	0,069	0,086
-526,262	199,637	-0,049	0,055
-525,248	-22,510	-0,036	0,016
-524,233	-200,000	0,005	-0,055
-523,218	-123,193	0,071	0,008
-522,204	95,897	0,134	-0,110
-521,189	-120,429	-0,091	0,011
-520,175	800,000	-0,090	0,184
-519,160	-200,000	-0,053	-0,000
-518,145	-47,890	0,058	0,020
-517,131	329,592	-0,042	-0,058
-516,116	455,583	0,070	0,112
-515,102	-74,192	-0,114	0,029
-514,087	-110,017	-0,052	0,008
-513,072	386,172	-0,038	-0,056
-512,058	32,147	-0,258	-0,160
-511,043	13,394	-0,143	-0,080
-510,029	-200,000	0,021	-0,088
-509,014	-153,298	0,114	-0,006
-507,999	84,241	0,127	0,100
-506,985	-73,873	-0,041	-0,011
-505,970	107,336	-0,059	-0,050
-504,956	-200,000	0,003	-0,044
-503,941	-200,000	-0,009	-0,081
-502,926	-200,000	0,002	0,008
-501,912	86,066	-0,044	0,035
-500,897	-186,986	-0,025	-0,000
-499,883	-97,667	0,068	0,013
-498,868	800,000	-0,032	-0,074
-497,853	800,000	-0,053	-0,121
-496,839	800,000	-0,019	0,050
-495,824	10,042	0,092	0,050
-494,810	51,119	0,021	0,014
-493,795	-26,247	0,072	-0,030
-492,781	-87,893	-0,092	-0,020
-491,766	793,719	0,016	-0,032
-490,751	-200,000	-0,017	-0,057
-489,737	800,000	0,068	0,142
-488,722	800,000	0,042	0,084
-487,708	-50,933	0,105	-0,035
-486,693	-44,120	-0,128	-0,046
-485,678	-100,733	0,090	0,016
-484,664	-92,034	-0,048	-0,010
-483,649	131,357	-0,059	-0,055
-482,635	4,809	0,079	-0,041
-481,620	-57,715	0,086	-0,027
-480,605	418,354	-0,055	-0,084
-479,591	-200,000	0,001	0,087
-478,576	265,284	0,050	0,063
-477,562	800,000	-0,078	-0,182
-476,547	-200,000	0,010	0,085
-475,532	19,405	0,125	-0,072
-474,518	-200,000	0,011	-0,084
-473,503	-200,000	-0,015	-0,095
-472,489	-200,000	0,012	0,050
-471,474	-3,923	-0,051	-0,026
-470,459	-200,000	-0,037	-0,139
-469,445	800,000	0,076	-0,176
-468,430	-6,199	0,025	-0,012
-467,416	-200,000	0,110	0,000
-466,401	293,232	-0,099	-0,130
-465,386	725,807	-0,097	0,187
-464,372	150,412	0,060	-0,058
-463,357	-86,133	-0,178	-0,039
-462,343	800,000	-0,012	0,029
-461,328	-1,654	0,067	-0,034
-460,313	2,371	-0,051	0,027
-459,299	-200,000	-0,006	0,216
-458,284	-72,940	0,066	-0,017
-457,270	284,149	0,026	0,034
-456,255	506,244	0,005	0,008
-455,241	-8,652	-0,153	-0,074
-454,226	-200,000	-0,014	-0,168
-453,211	-200,000	-0,018	0,094
-452,197	-200,000	-0,007	0,133
-451,182	-200,000	-0,017	0,155
-450,168	-102,545	-0,046	0,008
-449,153	264,647	-0,032	0,040
-448,138	-0,675	0,125	0,063
-447,124	-57,770	-0,019	-0,006
-446,109	-6,165	0,071	0,035
-445,095	317,951	-0,025	0,034
-444,080	-74,251	0,073	0,019
-443,065	324,749	0,095	-0,130
-442,051	800,000	0,028	-0,079
-441,036	-153,356	-0,114	-0,006
-440,022	-200,000	-0,003	-0,090
-439,007	-31,171	-0,022	0,009
-437,992	-200,000	0,006	-0,022
-436,978	-61,099	-0,135	0,041
-435,963	-50,207	0,104	-0,035
-434,949	80,482	0,078	0,060
-433,934	164,259	-0,099	-0,100
-432,919	17,004	0,057	-0,032
-431,905	-200,000	-0,010	-0,109
-430,890	97,110	0,089	-0,073
-429,876	-200,000	0,001	0,044
-428,861	-148,285	0,125	0,007
-427,846	-102,161	-0,133	0,023
-426,832	82,796	-0,020	-0,016
-425,817	73,271	-0,074	-0,055
-424,803	550,854	-0,043	0,073
-423,788	646,945	0,072	-0,132
-422,773	110,530	-0,026	0,023
-421,759	427,673	-0,056	-0,087
-420,744	-75,457	-0,051	-0,013
-419,730	70,202	-0,061	0,045
-418,715	-153,946	-0,079	0,004
-417,701	-200,000	0,009	-0,032
-416,686	152,382	0,097	-0,095
-415,671	-200,000	-0,004	0,137
-414,657	-200,000	0,001	0,106
-413,642	169,966	0,051	0,052
-412,628	26,373	-0,089	0,053
-411,613	310,690	0,041	-0,056
-410,598	-200,000	-0,020	-0,066
-409,584	-112,805	-0,028	0,004
-408,569	543,871	0,038	0,065
-407,555	475,733	-0,042	-0,068
-406,540	-19,011	0,093	-0,041
-405,525	-200,000	0,008	-0,107
-404,511	116,705	-0,077	-0,068
-403,496	134,524	-0,039	-0,036
-402,482	-75,376	0,130	-0,033
-401,467	115,288	0,080	0,070
-400,452	-200,000	-0,019	0,090
-399,438	-124,473	-0,092	-0,010
-398,423	-200,000	-0,017	0,064
-397,409	-200,000	0,033	0,135
-396,394	-200,000	0,008	-0,089
-395,379	-124,047	-0,086	-0,010
-394,365	444,645	0,071	0,111
-393,350	61,442	0,033	0,024
-392,336	-200,000	0,000	0,018
-391,321	145,095	-0,010	0,009
-390,306	-66,450	-0,068	-0,019
-389,292	-200,000	-0,022	-0,072
-388,277	93,930	-0,095	-0,077
-387,263	130,502	0,084	0,077
-386,248	39,323	0,105	0,067
-385,233	-16,734	-0,130	-0,058
-384,219	0,386	0,057	0,029
-383,204	-13,312	0,082	-0,038
-382,190	800,000	-0,052	-0,136
-381,175	-142,250	0,085	-0,006
-380,160	-200,000	-0,008	-0,024
-379,146	-45,670	-0,069	0,024
-378,131	61,888	0,039	0,028
-377,117	-197,131	0,030	-0,000
-376,102	-200,000	-0,027	0,087
-375,088	49,050	0,052	-0,035
-374,073	797,771	-0,045	0,089
-373,058	670,992	0,063	-0,118
-372,044	229,510	-0,065	-0,076
-371,029	-200,000	0,029	0,113
-370,015	-178,534	0,039	-0,001
-369,000	111,850	-0,124	-0,107
-367,985	249,142	-0,087	-0,106
-366,971	-200,000	0,007	0,062
-365,956	800,000	0,027	-0,058
-364,942	-200,000	0,046	0,166
-363,927	-200,000	0,009	0,205
-362,912	-1,282	-0,077	0,039
-361,898	-200,000	0,020	-0,088
-360,883	-98,459	0,208	0,038
-359,869	800,000	0,034	-0,076
-358,854	-121,192	0,045	0,005
-357,839	800,000	-0,012	-0,035
-356,825	158,683	-0,137	0,136
-355,810	800,000	-0,036	0,099
-354,796	-200,000	0,023	-0,140
-353,781	-200,000	0,006	-0,070
-352,766	22,010	-0,113	-0,066
-351,752	-60,577	0,161	-0,049
-350,737	800,000	0,009	0,025
-349,723	-200,000	-0,003	0,134
-348,708	-200,000	0,032	0,130
-347,693	-87,822	-0,103	-0,022
-346,679	182,446	0,062	-0,065
-345,664	187,572	0,041	0,044
-344,650	-200,000	0,016	-0,097
-343,635	-108,618	0,129	-0,020
-342,620	-70,978	0,015	-0,004
-341,606	-21,005	0,296	0,129
-340,591	-200,000	0,029	0,096
-339,577	771,781	-0,031	0,060
-338,562	-200,000	-0,034	0,170
-337,548	-10,919	-0,046	-0,021
-336,533	-200,000	-0,007	-0,045
-335,518	278,392	-0,082	0,105
-334,504	-60,169	0,110	0,033
-333,489	342,881	0,022	0,031
-332,475	200,739	-0,014	-0,015
-331,460	800,000	0,031	0,063
-330,445	63,341	-0,098	-0,070
-329,431	164,675	0,061	0,062
-328,416	-47,673	-0,051	-0,018
-327,402	-67,056	-0,063	0,018
-326,387	196,510	0,079	-0,086
-325,372	131,807	-0,021	-0,020
-324,358	800,000	-0,006	-0,014
-323,343	-200,000	-0,008	-0,025
-322,329	-200,000	-0,019	0,117
-321,314	-200,000	0,014	-0,112
-320,299	-116,960	0,131	-0,017
-319,285	323,880	-0,089	-0,122
-318,270	-65,502	-0,065	0,018
-317,256	-200,000	-0,009	-0,075
-316,241	-77,477	-0,042	0,010
-315,226	800,000	0,075	0,171
-314,212	-200,000	-0,012	0,072
-313,197	-71,416	0,232	0,061
-312,183	-66,879	-0,035	0,010
-311,168	175,633	0,058	-0,060
-310,153	-88,489	0,088	0,019
-309,139	-200,000	-0,156	0,000
-308,124	192,639	0,058	0,062
-307,110	-38,867	0,066	-0,025
-306,095	23,653	-0,062	0,036
-305,080	42,604	-0,099	0,064
-304,066	800,000	-0,027	-0,080
-303,051	-197,552	-0,056	0,000
-302,037	314,697	0,070	-0,094
-301,022	-200,000	0,009	-0,056
-300,008	-51,549	-0,036	0,012
-298,993	390,761	-0,088	0,131
-297,978	-200,000	0,008	-0,064
-296,964	-200,000	-0,007	0,127
-295,949	-200,000	0,014	0,106
-294,935	-95,011	-0,107	-0,020
-293,920	-36,990	0,152	0,058
-292,905	-82,225	0,152	-0,035
-291,891	800,000	0,066	0,160
-290,876	-23,862	0,094	-0,040
-289,862	800,000	-0,039	-0,088
-288,847	134,100	-0,086	-0,079
-287,832	-33,512	-0,081	0,032
-286,818	49,439	-0,020	-0,013
-285,803	142,384	0,059	0,056
-284,789	306,482	0,086	-0,114
-283,774	-103,528	-0,072	0,012
-282,759	-95,043	0,036	0,007
-281,745	-38,461	0,051	-0,019
-280,730	415,151	-0,031	0,048
-279,716	-200,000	-0,005	0,044
-278,701	-8,392	0,038	-0,018
-277,686	8,748	0,071	0,038
-276,672	-200,000	-0,002	0,043
-275,657	197,767	-0,081	-0,088
-274,643	800,000	-0,009	0,020
-273,628	95,403	0,036	-0,030
-272,613	222,103	0,114	-0,131
-271,599	-97,153	0,030	0,006
-270,584	665,894	0,071	0,132
-269,570	-126,063	0,083	-0,009
-268,555	298,408	0,085	-0,112
-267,540	20,954	-0,061	0,035
-266,526	-59,052	-0,042	0,013
-265,511	-200,000	0,025	0,078
-264,497	217,785	0,086	0,098
-263,482	800,000	0,070	0,166
-262,467	274,041	-0,051	-0,064
-261,453	-58,424	-0,054	-0,017
-260,438	-128,500	-0,075	0,007
-259,424	-81,424	0,103	-0,024
-258,409	131,764	-0,188	-0,173
-257,395	-200,000	-0,006	-0,110
-256,380	-88,394	-0,050	-0,010
-255,365	131,913	0,090	0,082
-254,351	140,400	-0,059	0,056
-253,336	-107,220	0,034	-0,005
-252,322	279,765	0,020	-0,026
-251,307	588,641	-0,045	0,078
-250,292	-78,945	0,064	0,015
-249,278	-97,376	0,063	-0,012
-248,263	11,715	0,092	-0,050
-247,249	689,466	-0,043	0,081
-246,234	-60,250	0,097	-0,029
-245,219	536,304	0,019	-0,032
-244,205	555,261	-0,105	-0,181
-243,190	800,000	0,035	0,077
-242,176	-200,000	0,026	0,142
-241,161	-30,644	0,165	0,066
-240,146	-200,000	0,026	-0,158
-239,132	-200,000	0,004	-0,048
-238,117	800,000	-0,070	-0,174
-237,103	-200,000	-0,003	0,073
-236,088	147,947	-0,085	-0,081
-235,073	387,978	0,024	-0,036
-234,059	-144,570	0,028	-0,002
-233,044	33,330	-0,040	-0,025
-232,030	118,557	0,069	0,061
-231,015	800,000	0,029	-0,083
-230,000	-111,338	-0,032	0,005
-228,986	-184,905	0,155	0,002
-227,971	-200,000	-0,009	-0,054
-226,957	5,271	-0,101	-0,053
-225,942	800,000	-0,024	0,063
-224,927	-74,875	0,085	0,021
-223,913	-115,069	-0,102	-0,014
-222,898	-171,742	-0,032	0,001
-221,884	-200,000	-0,026	-0,089
-220,869	-200,000	0,001	0,069
-219,855	-200,000	0,010	-0,052
-218,840	-200,000	0,002	0,025
-217,825	-91,850	-0,072	0,014
-216,811	800,000	-0,027	0,058
-215,796	-98,983	-0,207	-0,037
-214,782	-79,566	0,132	0,032
-213,767	228,388	0,070	-0,081
-212,752	488,198	0,024	0,039
-211,738	-200,000	0,004	0,215
-210,723	800,000	-0,076	0,220
-209,709	-200,000	-0,017	-0,067
-208,694	-53,138	-0,037	-0,012
-207,679	66,261	0,108	-0,078
-206,665	-200,000	-0,033	-0,123
-205,650	192,000	0,019	0,020
-204,636	-200,000	-0,016	0,118
-203,621	-107,377	0,118	-0,018
-202,606	-99,781	-0,043	0,008
-201,592	-86,419	-0,061	0,013
-200,577	-200,000	0,000	-0,002
-199,563	19,521	0,019	0,011
-198,548	69,311	0,018	-0,013
-197,533	-200,000	0,059	0,000
-196,519	279,442	-0,031	0,040
-195,504	-51,403	-0,158	0,052
-194,490	-200,000	-0,043	0,163
-193,475	-19,163	-0,066	-0,029
-192,460	17,969	0,097	0,055
-191,446	-77,871	-0,078	0,019
-190,431	-181,347	0,128	-0,002
-189,417	-10,334	0,099	0,046
-188,402	800,000	-0,057	-0,125
-187,387	-200,000	-0,010	-0,043
-186,373	-200,000	-0,003	-0,091
-185,358	125,347	-0,028	-0,025
-184,344	177,405	-0,064	0,067
-183,329	-59,853	0,048	-0,015
-182,315	-54,021	-0,121	0,039
-181,300	44,573	0,067	0,044
-180,285	97,776	0,122	-0,100
-179,271	404,685	-0,083	-0,124
-178,256	-200,000	-0,008	-0,073
-177,242	-200,000	-0,012	0,074
-176,227	800,000	0,029	-0,072
-175,212	800,000	-0,022	0,054
-174,198	38,317	-0,089	-0,056
-173,183	-56,183	0,090	-0,028
-172,169	158,149	0,069	-0,068
-171,154	-200,000	-0,007	0,035
-170,139	-7,598	0,073	0,035
-169,125	-57,007	0,118	-0,037
-168,110	323,043	0,056	-0,075
-167,096	163,020	0,111	0,111
-166,081	-62,518	-0,204	-0,060
-165,066	-200,000	-0,025	-0,102
-164,052	164,533	0,098	-0,098
-163,037	30,315	-0,065	-0,039
-162,023	68,357	0,094	0,068
-161,008	169,997	-0,071	0,072
-159,993	-200,000	0,010	0,093
-158,979	-149,548	0,054	-0,003
-157,964	-200,000	-0,047	-0,155
-156,950	-200,000	-0,010	-0,088
-155,935	-200,000	-0,019	0,154
-154,920	108,041	0,104	0,088
-153,906	582,212	0,047	0,082
-152,891	-200,000	-0,025	0,133
-151,877	-200,000	-0,007	0,069
-150,862	-200,000	0,027	-0,126
-149,847	-200,000	0,000	-0,038
-148,833	-36,867	0,060	-0,023
-147,818	-0,241	0,056	0,028
-146,804	678,033	-0,061	0,113
-145,789	29,624	0,069	0,042
-144,775	-8,967	-0,041	-0,019
-143,760	423,081	-0,051	-0,077
-142,745	-88,476	-0,047	-0,010
-141,731	154,176	0,059	-0,057
-140,716	-67,948	-0,056	-0,015
-139,702	5,652	0,019	0,010
-138,687	-200,000	-0,022	0,187
-137,672	86,262	-0,078	-0,061
-136,658	-73,154	-0,106	-0,027
-135,643	1,257	0,013	-0,007
-134,629	431,134	0,042	-0,064
-133,614	-200,000	0,018	0,143
-132,599	-154,847	0,103	-0,005
-131,585	362,997	-0,072	0,103
-130,570	736,463	0,070	-0,133
-129,556	35,981	-0,116	-0,072
-128,541	-200,000	0,003	-0,047
-127,526	28,317	-0,081	-0,048
-126,512	-21,088	0,109	0,047
-125,497	19,210	-0,028	-0,016
-124,483	379,844	-0,040	0,058
-123,468	723,730	0,018	0,034
-122,453	105,318	0,010	0,008
-121,439	-93,858	-0,089	0,017
-120,424	-149,716	0,017	-0,001
-119,410	-200,000	-0,019	0,080
-118,395	-148,069	0,050	-0,003
-117,380	56,916	0,032	-0,022
-116,366	9,459	-0,100	0,054
-115,351	-165,697	-0,152	-0,005
-114,337	-145,097	-0,058	-0,004
-113,322	279,896	0,071	0,090
-112,307	-200,000	0,016	-0,077
-111,293	-106,165	0,049	-0,008
-110,278	679,716	0,010	0,018
-109,264	-200,000	-0,019	-0,116
-108,249	-200,000	0,034	-0,118
-107,234	-73,789	0,012	0,003
-106,220	27,948	-0,131	-0,078
-105,205	179,304	-0,056	0,058
-104,191	38,622	0,070	-0,044
-103,176	-200,000	0,020	0,070
-102,162	79,822	-0,071	0,054
-101,147	-200,000	-0,024	-0,078
-100,132	136,735	-0,109	-0,101
-99,118	-123,611	-0,132	0,015
-98,103	-91,396	-0,014	0,003
-97,089	-200,000	-0,005	0,040
-96,074	4,116	0,079	0,041
-95,059	-39,521	0,125	-0,046
-94,045	-88,836	-0,115	-0,024
-93,030	164,780	0,120	-0,120
-92,016	345,856	-0,111	-0,154
-91,001	197,624	0,080	-0,086
-89,986	800,000	0,014	0,043
-88,972	-23,315	0,122	0,052
-87,957	-200,000	0,014	0,161
-86,943	62,276	0,062	-0,044
-85,928	-200,000	-0,020	-0,065
-84,913	217,404	-0,108	-0,121
-83,899	-200,000	-0,006	-0,045
-82,884	195,449	-0,113	0,122
-81,870	-1,670	0,064	0,032
-80,855	393,355	-0,083	-0,122
-79,840	62,023	-0,128	0,090
-78,826	-145,396	0,050	0,003
-77,811	-59,231	-0,071	-0,022
-76,797	-103,219	0,114	-0,019
-75,782	-125,615	0,173	-0,018
-74,767	-83,353	0,096	0,022
-73,753	-29,422	-0,058	-0,023
-72,738	-157,342	0,080	-0,003
-71,724	-95,820	0,066	-0,012
-70,709	89,980	-0,116	-0,091
-69,694	135,548	-0,141	-0,130
-68,680	-52,407	-0,032	0,010
-67,665	800,000	0,032	0,070
-66,651	688,140	-0,031	-0,057
-65,636	-200,000	-0,003	0,030
-64,622	-200,000	0,012	0,000
-63,607	800,000	-0,031	-0,096
-62,592	157,917	0,085	-0,084
-61,578	9,042	0,014	0,007
-60,563	108,556	0,093	0,079
-59,549	-20,506	0,080	-0,035
-58,534	1,877	-1,733	-0,881
-57,519	352,039	-1,466	-2,059
-56,505	-200,000	-0,365	-4,289
-55,490	347,321	0,816	1,139
-54,476	800,000	5,054	11,327
-53,461	-200,000	19,484	328,969
-52,446	-200,000	742,693	2335,077
-51,432	569,399	1651,967	2850,357
-50,417	76,934	1665,505	1248,728
-49,403	20,514	1538,986	877,327
-48,388	14,381	1461,449	803,428
-47,373	18,513	1451,552	817,829
-46,359	16,725	1441,209	803,440
-45,344	12,696	1436,765	781,726
-44,330	12,540	1435,073	780,030
-43,315	12,666	1433,149	779,549
-42,300	12,624	1431,442	778,394
-41,286	12,610	1430,275	777,661
-40,271	12,627	1428,860	776,942
-39,257	12,585	1427,671	776,064
-38,242	12,633	1426,400	775,572
-37,227	12,667	1425,094	774,988
-36,213	12,620	1423,828	774,051
-35,198	12,616	1422,843	773,463
-34,184	12,650	1421,987	773,130
-33,169	12,634	1420,391	772,154
-32,154	12,665	1419,486	771,777
-31,140	12,714	1418,203	771,282
-30,125	12,670	1417,165	770,480
-29,111	12,658	1416,089	769,808
-28,096	12,683	1414,753	769,166
-27,082	12,637	1413,479	768,228
-26,067	12,592	1412,887	767,662
-25,052	12,647	1411,681	767,236
-24,038	12,565	1410,809	766,350
-23,023	12,614	1409,500	765,834
-22,009	12,588	1408,456	765,118
-20,994	12,584	1407,669	764,640
-19,979	12,589	1406,797	764,161
-18,965	12,510	1406,029	763,340
-17,950	12,557	1404,841	762,885
-16,936	12,607	1403,945	762,604
-15,921	12,521	1403,164	761,747
-14,906	12,485	1402,164	761,007
-13,892	12,553	1401,076	760,702
-12,877	12,492	1400,493	760,072
-11,863	12,486	1399,712	759,591
-10,848	12,496	1398,537	758,971
-9,833	12,452	1397,834	758,355
-8,819	12,392	1396,785	757,478
-7,804	12,405	1395,894	757,022
-6,790	12,413	1394,975	756,531
-5,775	12,386	1394,009	755,853
-4,760	12,426	1392,626	755,259
-3,746	12,382	1392,074	754,724
-2,731	12,397	1391,155	754,266
-1,717	12,352	1390,302	753,564
-0,702	12,383	1388,433	752,667
0,313	16,218	1304,972	725,098
1,327	32,490	699,146	425,808
2,342	49,799	122,297	81,290
3,356	3,504	16,608	8,522
4,371	5,580	3,283	1,708
5,386	25,644	0,722	0,423
6,400	-200,000	0,022	0,301
7,415	88,358	-0,221	-0,173
8,429	90,957	-0,235	-0,186
9,444	108,407	-0,264	-0,222
10,459	-47,243	-0,339	-0,116
11,473	64,840	-0,231	-0,165
12,488	-64,822	-0,347	-0,099
13,502	453,429	-0,208	-0,327
14,517	-1,459	-0,371	-0,184
15,531	208,064	-0,304	-0,335
16,546	174,603	-0,296	-0,302
17,561	-8,400	-0,334	-0,158
18,575	-32,321	-0,245	-0,096
19,590	149,741	-0,278	-0,266
20,604	32,407	-0,208	-0,126
21,619	107,872	-0,327	-0,274
22,634	57,111	-0,503	-0,345
23,648	20,865	-0,395	-0,225
24,663	-38,620	-0,542	-0,201
25,677	188,547	-0,343	-0,362
26,692	38,580	-0,470	-0,295
27,707	51,593	-0,462	-0,309
28,721	-14,536	-0,367	-0,166
29,736	-19,639	-0,398	-0,173
30,750	134,430	-0,418	-0,382
31,765	33,706	-0,447	-0,273
32,780	18,259	-0,408	-0,229
33,794	53,038	-0,341	-0,230
34,809	-12,926	-0,267	-0,122
35,823	145,754	-0,332	-0,313
36,838	94,654	-0,424	-0,339
37,853	144,830	-0,320	-0,302
38,867	-1,646	-0,412	-0,204
39,882	124,417	-0,372	-0,330
40,896	-13,164	-0,348	-0,159
41,911	79,844	-0,330	-0,250
42,926	82,379	-0,354	-0,270
43,940	287,194	-0,279	-0,355
44,955	88,925	-0,402	-0,315
45,969	115,151	-0,449	-0,386
46,984	377,067	-0,173	-0,250
47,999	65,445	-0,288	-0,205
49,013	-13,791	-0,409	-0,185
50,028	27,343	-0,400	-0,236
51,042	159,383	-0,389	-0,381
52,057	413,735	-0,267	-0,400
53,071	44,200	-0,355	-0,228
54,086	93,543	-0,332	-0,264
55,101	157,684	-0,283	-0,276
56,115	180,695	-0,232	-0,240
57,130	75,291	-0,350	-0,259
58,144	-4,909	-0,345	-0,167
59,159	474,131	-0,216	-0,344
60,174	274,574	-0,230	-0,287
61,188	114,604	-0,299	-0,256
62,203	68,017	-0,283	-0,203
63,217	175,406	-0,210	-0,214
64,232	302,150	-0,182	-0,238
65,247	-19,025	-0,424	-0,184
66,261	84,568	-0,322	-0,248
67,276	42,571	-0,334	-0,213
68,290	166,872	-0,301	-0,300
69,305	85,705	-0,219	-0,169
70,320	-78,660	-0,259	-0,062
71,334	131,971	-0,290	-0,262
72,349	111,091	-0,253	-0,214
73,363	71,695	-0,430	-0,313
74,378	58,860	-0,227	-0,156
75,393	129,414	-0,287	-0,258
76,407	-118,713	-0,220	-0,027
77,422	51,396	-0,253	-0,169
78,436	-57,064	-0,237	-0,073
79,451	184,909	-0,235	-0,244
80,466	151,509	-0,340	-0,325
81,480	317,549	-0,277	-0,369
82,495	120,767	-0,261	-0,227
83,509	64,225	-0,288	-0,203
84,524	54,405	-0,347	-0,234
85,539	230,231	-0,160	-0,184
86,553	159,326	-0,272	-0,265
87,568	65,399	-0,218	-0,155
88,582	91,326	-0,338	-0,266
89,597	386,054	-0,192	-0,278
90,611	87,876	-0,313	-0,243
91,626	-8,893	-0,305	-0,143
92,641	121,957	-0,209	-0,183
93,655	-36,893	-0,386	-0,144
94,670	76,462	-0,301	-0,223
95,684	96,084	-0,265	-0,212
96,699	65,868	-0,266	-0,188
97,714	142,117	-0,275	-0,256
98,728	211,615	-0,255	-0,282
99,743	212,667	-0,199	-0,220
100,757	99,890	-0,311	-0,252
101,772	23,324	-0,267	-0,153
102,787	35,225	-0,333	-0,204
103,801	13,056	-0,367	-0,198
104,816	76,125	-0,301	-0,223
105,830	495,536	-0,062	-0,100
106,845	-107,447	-0,208	-0,032
107,860	40,567	-0,218	-0,137
108,874	34,943	-0,307	-0,188
109,889	-52,414	-0,417	-0,134
110,903	97,590	-0,327	-0,263
111,918	247,633	-0,147	-0,175
112,933	91,260	-0,164	-0,129
113,947	26,026	-0,314	-0,183
114,962	36,834	-0,277	-0,171
115,976	-11,453	-0,139	-0,064
116,991	40,141	-0,252	-0,158
118,006	103,840	-0,182	-0,150
119,020	84,107	-0,259	-0,198
120,035	-3,605	-0,267	-0,129
121,049	-54,306	-0,269	-0,085
122,064	8,287	-0,248	-0,130
123,079	44,054	-0,310	-0,198
124,093	248,662	-0,255	-0,302
125,108	206,831	-0,261	-0,284
126,122	87,166	-0,273	-0,210
127,137	64,190	-0,236	-0,165
128,151	-23,742	-0,215	-0,090
129,166	92,384	-0,185	-0,145
130,181	82,623	-0,195	-0,148
131,195	46,145	-0,265	-0,171
132,210	251,075	-0,216	-0,257
133,224	-21,468	-0,303	-0,129
134,239	-149,628	-0,315	-0,017
135,254	455,685	-0,188	-0,292
136,268	38,226	-0,249	-0,154
137,283	-61,748	-0,266	-0,077
138,297	211,168	-0,242	-0,266
139,312	-52,254	-0,273	-0,088
140,327	207,920	-0,238	-0,260
141,341	136,266	-0,231	-0,210
142,356	119,133	-0,200	-0,172
143,370	71,747	-0,230	-0,166
144,385	-42,544	-0,225	-0,079
145,400	800,000	-0,107	-0,241
146,414	51,151	-0,336	-0,222
147,429	800,000	-0,096	-0,260
148,443	-12,728	-0,180	-0,082
149,458	385,342	-0,112	-0,161
150,473	344,351	-0,150	-0,206
151,487	71,113	-0,263	-0,190
152,502	-200,000	-0,063	-0,211
153,516	217,435	-0,224	-0,249
154,531	164,073	-0,135	-0,132
155,546	51,290	-0,280	-0,185
156,560	-200,000	-0,043	-0,187
157,575	361,187	-0,178	-0,250
158,589	78,595	-0,167	-0,124
159,604	-33,470	-0,432	-0,166
160,619	211,299	-0,194	-0,213
161,633	533,976	-0,189	-0,313
162,648	-80,002	-0,260	-0,060
163,662	800,000	-0,095	-0,192
164,677	53,826	-0,246	-0,164
165,692	316,017	-0,132	-0,174
166,706	346,543	-0,186	-0,256
167,721	88,681	-0,286	-0,221
168,735	238,902	-0,278	-0,322
169,750	-16,953	-0,251	-0,110
170,764	183,917	-0,098	-0,101
171,779	-5,055	-0,176	-0,084
172,794	-65,407	-0,214	-0,059
173,808	-72,302	-0,262	-0,067
174,823	6,008	-0,236	-0,121
175,837	47,210	-0,264	-0,171
176,852	69,409	-0,303	-0,216
177,867	226,332	-0,180	-0,204
178,881	405,495	-0,155	-0,228
179,896	-52,585	-0,195	-0,062
180,910	64,296	-0,146	-0,102
181,925	69,301	-0,228	-0,163
182,940	168,532	-0,216	-0,214
183,954	-88,984	-0,195	-0,040
184,969	-97,630	-0,315	-0,056
185,983	25,302	-0,089	-0,051
186,998	-16,310	-0,261	-0,115
188,013	800,000	-0,195	-0,412
189,027	160,618	-0,216	-0,210
190,042	129,784	-0,256	-0,227
191,056	800,000	-0,126	-0,277
192,071	800,000	-0,064	-0,180
193,086	242,269	-0,164	-0,190
194,100	81,972	-0,185	-0,139
195,115	673,002	-0,131	-0,237
196,129	65,827	-0,251	-0,176
197,144	99,415	-0,224	-0,180
198,159	-36,662	-0,268	-0,099
199,173	800,000	-0,118	-0,230
200,188	244,114	-0,101	-0,117
201,202	-163,381	-0,076	0,002
202,217	3,291	-0,233	-0,117
203,232	61,996	-0,293	-0,202
204,246	344,177	-0,170	-0,232
205,261	184,874	-0,225	-0,231
206,275	800,000	-0,086	-0,233
207,290	82,296	-0,233	-0,175
208,304	65,788	-0,222	-0,156
209,319	17,596	-0,256	-0,141
210,334	128,090	-0,197	-0,174
211,348	97,104	-0,229	-0,182
212,363	-16,897	-0,293	-0,128
213,377	100,899	-0,148	-0,120
214,392	-25,354	-0,211	-0,086
215,407	-43,190	-0,206	-0,072
216,421	141,745	-0,188	-0,173
217,436	277,701	-0,143	-0,176
218,450	92,850	-0,217	-0,170
219,465	-23,145	-0,321	-0,134
220,480	109,610	-0,228	-0,189
221,494	104,752	-0,167	-0,136
222,509	-89,955	-0,210	-0,042
223,523	223,943	-0,110	-0,123
224,538	182,645	-0,085	-0,087
225,553	-31,458	-0,208	-0,080
226,567	29,647	-0,221	-0,130
227,582	128,733	-0,182	-0,161
228,596	-56,066	-0,183	-0,056
229,611	-200,000	-0,001	0,051
230,626	-161,759	-0,141	0,005
231,640	268,612	-0,146	-0,178
232,655	-127,240	-0,240	0,024
233,669	140,177	-0,191	-0,174
234,684	31,375	-0,223	-0,132
235,699	-94,458	-0,229	-0,043
236,713	247,514	-0,123	-0,144
237,728	6,900	-0,113	-0,058
238,742	-26,559	-0,132	-0,053
239,757	-10,826	-0,165	-0,075
240,772	296,410	-0,219	-0,278
241,786	67,711	-0,199	-0,141
242,801	73,133	-0,214	-0,155
243,815	201,426	-0,124	-0,133
244,830	-137,720	-0,132	0,010
245,844	89,832	-0,217	-0,167
246,859	268,574	-0,172	-0,209
247,874	-1,787	-0,359	-0,174
248,888	121,171	-0,247	-0,213
249,903	-55,539	-0,092	-0,028
250,917	-34,633	0,085	-0,032
251,932	-200,000	-0,031	-0,099
252,947	168,467	-0,136	-0,134
253,961	187,776	-0,186	-0,193
254,976	22,751	-0,193	-0,109
255,990	-14,614	-0,223	-0,099
257,005	286,624	-0,155	-0,193
258,020	-200,000	-0,053	-0,222
259,034	37,714	-0,211	-0,129
260,049	79,614	-0,159	-0,118
261,063	88,663	-0,159	-0,122
262,078	13,613	-0,243	-0,130
263,093	764,845	-0,064	-0,121
264,107	424,510	-0,120	-0,178
265,122	69,818	-0,245	-0,174
266,136	26,077	-0,278	-0,160
267,151	-6,069	-0,286	-0,135
268,166	-156,320	-0,152	0,006
269,180	248,190	-0,186	-0,218
270,195	79,985	-0,264	-0,196
271,209	-80,496	-0,248	-0,057
272,224	-104,003	-0,263	-0,042
273,239	216,666	-0,119	-0,131
274,253	-158,682	-0,147	0,006
275,268	-74,563	-0,344	-0,085
276,282	356,632	-0,159	-0,220
277,297	-168,372	-0,203	-0,005
278,312	-13,580	-0,147	-0,065
279,326	465,773	-0,116	-0,180
280,341	800,000	-0,053	-0,117
281,355	-98,940	-0,153	0,027
282,370	-39,639	-0,112	-0,040
283,384	68,179	-0,236	-0,166
284,399	-132,327	-0,076	0,007
285,414	49,839	-0,071	0,046
286,428	304,282	-0,091	-0,116
287,443	208,998	-0,150	-0,162
288,457	-153,633	-0,137	-0,006
289,472	100,942	-0,139	-0,111
290,487	115,691	-0,168	-0,141
291,501	44,526	-0,179	-0,113
292,516	201,991	-0,200	-0,212
293,530	358,164	-0,119	-0,165
294,545	-4,549	-0,166	0,078
295,560	169,798	-0,017	0,017
296,574	-35,633	-0,164	-0,061
297,589	4,239	-0,166	-0,083
298,603	768,418	-0,109	-0,205
299,618	3,103	-0,162	-0,081
300,633	-86,920	-0,128	0,027
301,647	732,678	-0,119	-0,221
302,662	-171,180	-0,243	-0,006
303,676	-36,809	-0,255	-0,094
304,691	-43,835	-0,198	-0,068
305,706	-0,282	-0,176	-0,086
306,720	-87,377	-0,318	-0,066
307,735	-59,113	-0,207	-0,061
308,749	301,432	-0,116	-0,148
309,764	30,680	-0,077	-0,045
310,779	-20,237	-0,201	-0,085
311,793	-7,624	-0,098	-0,045
312,808	265,268	-0,116	-0,140
313,822	167,824	-0,164	-0,161
314,837	187,846	-0,129	-0,133
315,852	-200,000	-0,058	-0,248
316,866	-200,000	-0,021	-0,107
317,881	170,088	-0,181	-0,178
318,895	417,734	-0,129	-0,190
319,910	458,902	-0,130	-0,199
320,925	34,427	-0,157	-0,094
321,939	-115,561	-0,223	-0,028
322,954	800,000	-0,123	-0,278
323,968	335,583	-0,027	-0,037
324,983	-200,000	0,005	-0,066
325,997	108,439	-0,100	-0,082
327,012	800,000	-0,053	-0,110
328,027	-95,851	-0,110	-0,020
329,041	153,069	-0,184	-0,173
330,056	-99,809	-0,114	-0,019
331,070	16,099	-0,095	0,051
332,085	-200,000	-0,026	0,117
333,100	128,886	-0,186	-0,163
334,114	488,937	-0,063	-0,099
335,129	66,149	-0,177	-0,123
336,143	-200,000	0,005	-0,129
337,158	-200,000	-0,030	0,107
338,173	-97,966	-0,091	0,016
339,187	89,584	-0,062	-0,048
340,202	-58,139	-0,090	0,027
341,216	126,645	-0,149	-0,130
342,231	-11,235	-0,079	-0,036
343,246	127,847	-0,123	-0,107
344,260	-200,000	0,002	-0,141
345,275	-42,214	-0,137	-0,048
346,289	280,206	-0,007	-0,008
347,304	523,802	-0,105	-0,169
348,319	200,736	-0,092	-0,097
349,333	-44,588	-0,161	0,055
350,348	106,157	-0,204	-0,165
351,362	-200,000	-0,014	-0,065
352,377	51,943	-0,128	-0,083
353,392	50,756	-0,047	-0,030
354,406	171,269	-0,147	-0,144
355,421	207,274	1312,229	1403,414
356,435	159,444	1472,646	1403,920
