DTS Sentinel unit serial number:	SN410029Multiplexer serial number:	ORYXHardware model number:	OX2-SRSoftware version number:	ORYX F/W v4,00 Oryx Data Collector v3.7.2.0data status	okinstallation	B3 Nyhavnadifferential loss correction	single-endedforward channel	channel 1reverse channel	N/Adate	2023/12/04time	00:27:30forward acquisition time	300,00reverse acquisition time	0,00gamma	499,1914k internal	0,3203k external	0,3203temperature offset calibration	1,0000default loss term (dB/km)	0,3820temperature slope calibration	1,0000multiplexer offset coefficient	1,0000multiplexer slope coefficient	1,0000fibre end	0,00T internal ref (°C)	12,66T ext. ref 1 (°C)	-2,61T ext. ref 2 (°C)	-2,64length (m)	temperature (°C)	Stokes	anti-Stokes-744,400	83,321	-0,339	-0,268
-743,385	-200,000	-0,058	0,327
-742,371	273,974	-0,113	-0,146
-741,356	-200,000	-0,002	0,404
-740,342	361,541	-0,130	-0,190
-739,327	800,000	0,097	0,252
-738,312	207,677	-0,181	-0,205
-737,298	800,000	-0,089	0,228
-736,283	-79,472	-0,281	-0,068
-735,269	-200,000	0,055	0,211
-734,254	236,664	-0,194	-0,234
-733,239	-86,286	-0,184	0,041
-732,225	-200,000	-0,018	-0,135
-731,210	-200,000	0,020	0,158
-730,196	-200,000	0,024	0,140
-729,181	68,950	-0,155	-0,116
-728,167	-200,000	-0,018	-0,111
-727,152	-78,787	0,040	-0,010
-726,137	-200,000	-0,035	0,219
-725,123	-200,000	0,011	-0,054
-724,108	65,681	-0,083	-0,061
-723,094	-110,422	-0,069	-0,010
-722,079	-1,406	0,022	0,011
-721,064	46,302	-0,036	-0,024
-720,050	668,151	-0,024	-0,044
-719,035	800,000	-0,039	0,090
-718,021	576,453	0,035	-0,063
-717,006	44,480	-0,105	0,070
-715,991	448,988	-0,095	-0,153
-714,977	-200,000	-0,016	-0,071
-713,962	-25,638	-0,066	-0,028
-712,948	800,000	-0,028	-0,061
-711,933	248,148	0,024	-0,029
-710,918	125,758	-0,034	0,031
-709,904	149,678	-0,043	0,042
-708,889	13,910	-0,134	-0,075
-707,875	46,084	0,103	-0,069
-706,860	143,564	-0,034	-0,033
-705,845	-200,000	-0,004	0,043
-704,831	-82,871	-0,041	-0,009
-703,816	-187,632	0,053	-0,000
-702,802	198,626	-0,060	0,066
-701,787	800,000	-0,026	-0,069
-700,772	501,171	0,041	-0,069
-699,758	655,743	0,026	0,049
-698,743	800,000	0,051	0,118
-697,729	-133,945	0,120	0,011
-696,714	-200,000	0,010	0,136
-695,699	54,122	-0,144	0,100
-694,685	800,000	-0,012	-0,036
-693,670	431,995	0,014	0,022
-692,656	-141,412	-0,146	-0,011
-691,641	40,993	0,110	0,072
-690,627	-89,835	0,115	-0,024
-689,612	-96,793	-0,118	-0,022
-688,597	800,000	0,022	0,070
-687,583	470,997	-0,080	-0,131
-686,568	800,000	-0,051	-0,117
-685,554	247,491	0,079	-0,097
-684,539	196,532	-0,043	-0,048
-683,524	-200,000	0,007	-0,024
-682,510	311,372	-0,050	0,068
-681,495	-133,958	0,150	0,013
-680,481	11,207	-0,072	-0,040
-679,466	-41,173	-0,143	0,053
-678,451	-156,345	-0,072	-0,003
-677,437	-200,000	-0,012	-0,065
-676,422	-200,000	0,000	-0,005
-675,408	159,778	0,011	0,011
-674,393	-6,955	0,085	0,042
-673,378	-64,141	0,119	-0,035
-672,364	190,378	0,018	0,020
-671,349	412,076	-0,043	-0,066
-670,335	323,677	-0,099	-0,137
-669,320	-200,000	0,026	-0,114
-668,305	-156,235	0,044	0,002
-667,291	-107,281	-0,061	-0,010
-666,276	-135,230	-0,088	0,008
-665,262	221,713	0,064	-0,075
-664,247	-200,000	0,008	0,098
-663,232	441,675	0,044	-0,070
-662,218	-106,045	0,068	0,011
-661,203	76,492	0,099	-0,076
-660,189	78,079	-0,089	-0,069
-659,174	-131,298	-0,177	0,017
-658,159	-78,087	-0,123	-0,030
-657,145	-120,699	-0,087	-0,011
-656,130	-55,982	0,205	0,066
-655,116	-200,000	-0,004	-0,047
-654,101	-109,175	-0,106	0,016
-653,086	-176,282	0,109	-0,002
-652,072	-4,156	-0,057	0,029
-651,057	-200,000	-0,011	-0,099
-650,043	101,840	0,046	-0,039
-649,028	118,471	0,091	-0,082
-648,014	144,504	-0,044	0,042
-646,999	272,594	-0,087	0,111
-645,984	31,495	0,059	0,036
-644,970	-200,000	0,025	-0,083
-643,955	800,000	-0,036	-0,073
-642,941	53,975	-0,089	-0,062
-641,926	123,603	0,045	-0,040
-640,911	75,243	0,033	0,025
-639,897	43,693	0,039	-0,025
-638,882	216,303	0,090	0,104
-637,868	-200,000	-0,030	-0,103
-636,853	508,856	-0,054	-0,090
-635,838	-45,524	-0,069	-0,025
-634,824	249,344	0,115	-0,141
-633,809	165,789	0,049	-0,050
-632,795	800,000	0,007	0,019
-631,780	114,256	0,010	0,009
-630,765	15,472	-0,137	-0,078
-629,751	-200,000	-0,013	-0,088
-628,736	383,360	-0,043	0,065
-627,722	-200,000	0,011	-0,088
-626,707	290,221	0,020	0,027
-625,692	268,849	-0,040	-0,051
-624,678	-23,512	-0,097	-0,042
-623,663	89,029	-0,082	-0,066
-622,649	313,503	0,029	0,040
-621,634	-123,762	-0,191	-0,022
-620,619	800,000	-0,028	-0,057
-619,605	-124,437	0,040	-0,004
-618,590	-200,000	0,015	-0,063
-617,576	47,524	0,091	0,061
-616,561	56,046	0,032	-0,022
-615,546	-200,000	0,008	-0,041
-614,532	132,324	-0,109	0,101
-613,517	13,702	-0,067	0,038
-612,503	-18,017	0,113	0,051
-611,488	342,905	0,029	-0,041
-610,474	108,581	0,020	-0,018
-609,459	19,315	-0,023	-0,013
-608,444	-104,947	0,090	-0,015
-607,430	-50,401	-0,035	0,012
-606,415	-59,897	-0,100	0,031
-605,401	146,816	-0,095	-0,092
-604,386	800,000	-0,017	-0,037
-603,371	150,133	-0,083	-0,081
-602,357	800,000	-0,059	-0,143
-601,342	-200,000	-0,023	0,076
-600,328	455,735	-0,029	-0,047
-599,313	376,411	-0,093	-0,137
-598,298	31,393	0,081	0,050
-597,284	34,143	-0,057	-0,036
-596,269	710,077	-0,023	0,044
-595,255	800,000	0,046	0,110
-594,240	-200,000	-0,005	-0,029
-593,225	14,134	0,112	0,063
-592,211	-118,515	-0,022	-0,003
-591,196	-200,000	-0,002	-0,006
-590,182	191,635	-0,053	-0,058
-589,167	800,000	-0,019	0,041
-588,152	43,459	0,012	0,008
-587,138	142,363	-0,054	0,051
-586,123	800,000	0,018	-0,043
-585,109	-101,478	0,074	-0,013
-584,094	-200,000	-0,012	-0,221
-583,079	363,410	0,051	0,075
-582,065	524,202	-0,063	0,107
-581,050	-78,202	0,100	0,025
-580,036	53,390	-0,033	-0,023
-579,021	800,000	-0,031	-0,097
-578,006	-60,866	-0,050	0,015
-576,992	800,000	-0,040	-0,083
-575,977	-200,000	-0,001	-0,014
-574,963	800,000	0,053	0,158
-573,948	-200,000	0,009	-0,059
-572,934	-76,746	0,053	-0,013
-571,919	246,411	-0,034	-0,042
-570,904	800,000	0,057	-0,120
-569,890	-171,066	0,119	0,003
-568,875	-200,000	0,008	-0,122
-567,861	-14,240	-0,051	-0,024
-566,846	800,000	-0,056	0,157
-565,831	177,318	-0,109	0,115
-564,817	-11,298	-0,150	0,071
-563,802	800,000	-0,055	-0,174
-562,788	185,274	0,081	-0,087
-561,773	800,000	0,034	0,068
-560,758	-200,000	-0,003	0,078
-559,744	30,382	0,044	0,027
-558,729	800,000	0,022	0,059
-557,715	-200,000	-0,017	0,066
-556,700	77,599	-0,022	0,017
-555,685	800,000	0,037	-0,076
-554,671	-200,000	-0,009	-0,044
-553,656	-200,000	-0,038	0,175
-552,642	-200,000	-0,008	0,037
-551,627	-31,692	-0,100	-0,040
-550,612	64,706	-0,082	-0,059
-549,598	-104,114	-0,159	0,026
-548,583	443,656	-0,034	-0,054
-547,569	800,000	-0,057	-0,114
-546,554	-2,064	0,090	0,045
-545,539	-200,000	0,020	0,190
-544,525	-77,235	0,126	-0,031
-543,510	74,052	-0,042	-0,032
-542,496	-44,357	0,113	0,041
-541,481	332,544	-0,064	-0,089
-540,466	800,000	-0,039	-0,105
-539,452	-156,492	0,047	0,002
-538,437	-7,471	0,129	0,063
-537,423	158,746	0,064	-0,064
-536,408	-200,000	-0,003	0,029
-535,393	581,716	-0,042	-0,074
-534,379	800,000	0,059	-0,130
-533,364	-82,704	-0,123	-0,028
-532,350	-200,000	-0,004	-0,068
-531,335	-85,754	0,136	-0,030
-530,321	800,000	0,035	-0,092
-529,306	110,387	0,060	0,052
-528,291	-3,412	0,107	-0,054
-527,277	-100,637	-0,034	-0,006
-526,262	800,000	-0,022	-0,064
-525,248	800,000	0,042	0,121
-524,233	-200,000	0,041	0,160
-523,218	105,423	0,086	0,073
-522,204	-28,885	-0,069	0,028
-521,189	-200,000	-0,020	0,083
-520,175	-20,122	0,080	-0,035
-519,160	-200,000	0,005	-0,027
-518,145	96,520	-0,051	-0,042
-517,131	275,418	0,046	-0,059
-516,116	-200,000	-0,020	-0,083
-515,102	800,000	0,065	-0,136
-514,087	145,214	0,118	-0,114
-513,072	800,000	-0,006	0,013
-512,058	800,000	-0,007	-0,017
-511,043	36,373	0,217	0,138
-510,029	-200,000	-0,017	0,073
-509,014	151,620	-0,043	0,042
-507,999	108,415	0,033	-0,028
-506,985	-113,592	-0,077	-0,011
-505,970	-7,092	-0,101	-0,049
-504,956	218,649	-0,029	0,033
-503,941	102,071	0,107	0,090
-502,926	49,848	0,088	-0,059
-501,912	589,973	0,022	0,039
-500,897	-200,000	0,007	-0,030
-499,883	-70,772	0,048	0,013
-498,868	-24,129	-0,220	0,094
-497,853	7,481	0,039	0,021
-496,839	-70,172	0,139	-0,038
-495,824	-200,000	0,008	0,107
-494,810	800,000	0,017	-0,050
-493,795	800,000	0,020	-0,049
-492,781	-51,267	-0,069	-0,023
-491,766	800,000	0,033	-0,069
-490,751	-105,352	-0,056	-0,009
-489,737	-39,383	0,003	-0,001
-488,722	51,365	0,019	0,013
-487,708	800,000	0,096	0,261
-486,693	494,220	0,044	-0,073
-485,678	-64,492	-0,122	0,035
-484,664	-70,490	-0,121	0,033
-483,649	-200,000	-0,015	-0,105
-482,635	349,318	-0,031	-0,045
-481,620	721,695	-0,018	-0,034
-480,605	-200,000	0,007	-0,108
-479,591	-200,000	0,010	-0,049
-478,576	800,000	0,033	-0,078
-477,562	3,192	-0,127	0,066
-476,547	-111,746	-0,083	-0,012
-475,532	-200,000	0,000	-0,047
-474,518	-46,418	0,208	0,073
-473,503	-200,000	-0,023	0,115
-472,489	313,027	-0,091	0,123
-471,474	-200,000	-0,016	0,056
-470,459	100,881	0,071	-0,059
-469,445	117,659	0,136	-0,121
-468,430	415,883	-0,035	0,054
-467,416	-200,000	-0,017	-0,094
-466,401	56,351	0,072	0,050
-465,386	800,000	0,054	0,115
-464,372	-200,000	0,010	0,063
-463,357	-122,720	0,125	0,014
-462,343	-200,000	-0,027	-0,102
-461,328	141,769	0,034	-0,033
-460,313	-200,000	-0,004	0,063
-459,299	800,000	-0,018	0,043
-458,284	800,000	0,046	0,129
-457,270	30,664	-0,117	-0,072
-456,255	-11,087	0,065	-0,031
-455,241	145,789	-0,091	-0,087
-454,226	-72,711	0,153	0,040
-453,211	307,001	0,057	-0,076
-452,197	315,712	-0,041	0,056
-451,182	232,262	-0,040	-0,047
-450,168	-200,000	0,010	0,090
-449,153	-200,000	0,014	-0,211
-448,138	229,553	-0,068	-0,080
-447,124	15,403	0,126	-0,071
-446,109	-200,000	0,042	-0,169
-445,095	-54,517	0,093	0,030
-444,080	-200,000	0,020	0,110
-443,065	-101,384	0,172	-0,030
-442,051	405,810	-0,068	0,104
-441,036	-200,000	-0,013	-0,065
-440,022	-87,281	-0,163	0,035
-439,007	54,631	-0,054	-0,037
-437,992	-200,000	-0,025	0,208
-436,978	442,332	-0,047	0,075
-435,963	316,591	-0,032	0,043
-434,949	101,821	-0,083	0,070
-433,934	-200,000	0,028	-0,102
-432,919	-200,000	0,030	0,123
-431,905	800,000	-0,025	-0,057
-430,890	263,366	-0,012	0,014
-429,876	54,570	-0,034	0,023
-428,861	302,949	0,049	0,065
-427,846	187,286	-0,070	-0,076
-426,832	111,280	-0,047	-0,040
-425,817	90,853	-0,164	-0,132
-424,803	-71,674	-0,068	-0,018
-423,788	671,970	-0,021	0,040
-422,773	-200,000	-0,002	0,060
-421,759	10,426	0,068	0,037
-420,744	34,378	-0,040	-0,025
-419,730	-73,248	-0,114	-0,030
-418,715	-200,000	0,005	0,045
-417,701	-200,000	-0,009	-0,049
-416,686	136,530	-0,074	0,069
-415,671	241,422	0,066	0,079
-414,657	776,229	-0,019	0,037
-413,642	200,183	-0,096	-0,106
-412,628	232,969	0,021	-0,025
-411,613	-47,990	-0,164	0,057
-410,598	-200,000	0,009	0,119
-409,584	-200,000	-0,020	-0,106
-408,569	-65,923	0,134	-0,038
-407,555	212,058	0,082	0,093
-406,540	-200,000	-0,006	0,056
-405,525	674,801	0,001	-0,002
-404,511	-200,000	-0,009	-0,115
-403,496	-200,000	-0,013	-0,090
-402,482	-120,723	-0,061	-0,007
-401,467	-108,499	0,005	-0,001
-400,452	-200,000	0,010	0,043
-399,438	455,189	0,027	-0,043
-398,423	752,022	0,071	-0,138
-397,409	26,817	-0,087	0,052
-396,394	165,552	-0,064	-0,065
-395,379	363,799	-0,061	0,088
-394,365	-200,000	0,023	0,088
-393,350	800,000	0,035	0,102
-392,336	-59,410	0,131	0,040
-391,321	-153,226	-0,054	-0,003
-390,306	-200,000	0,017	-0,068
-389,292	800,000	0,023	-0,054
-388,277	587,252	-0,117	0,207
-387,263	-7,874	0,089	0,043
-386,248	83,310	0,017	0,013
-385,233	580,908	-0,045	-0,079
-384,219	136,835	-0,077	-0,072
-383,204	-171,111	0,184	0,004
-382,190	-200,000	-0,025	0,090
-381,175	14,908	0,080	-0,045
-380,160	-14,827	-0,081	0,037
-379,146	800,000	-0,035	0,073
-378,131	-200,000	-0,050	0,182
-377,117	-70,580	0,120	-0,032
-376,102	649,611	0,032	0,060
-375,088	-200,000	0,004	-0,103
-374,073	522,726	0,055	-0,094
-373,058	-118,603	-0,160	0,020
-372,044	800,000	0,013	0,041
-371,029	-200,000	-0,002	0,055
-370,015	15,982	-0,048	0,027
-369,000	136,832	-0,016	0,015
-367,985	-24,053	0,079	-0,034
-366,971	-75,302	-0,177	0,045
-365,956	-200,000	0,016	0,102
-364,942	78,689	0,086	0,066
-363,927	409,715	0,051	0,077
-362,912	-173,428	-0,043	0,001
-361,898	366,276	-0,024	0,034
-360,883	-153,280	-0,162	-0,008
-359,869	604,492	-0,051	-0,091
-358,854	-200,000	-0,001	0,057
-357,839	-200,000	-0,005	0,122
-356,825	-61,429	-0,014	0,004
-355,810	-200,000	-0,003	0,015
-354,796	49,539	-0,045	0,030
-353,781	-200,000	-0,138	-0,000
-352,766	-200,000	0,013	0,062
-351,752	-104,462	0,111	-0,018
-350,737	-166,685	0,143	0,004
-349,723	297,201	0,088	0,116
-348,708	-200,000	0,007	0,040
-347,693	-8,955	0,035	0,017
-346,679	-38,326	0,065	-0,024
-345,664	709,367	-0,064	-0,121
-344,650	-200,000	-0,019	0,113
-343,635	-166,176	0,156	-0,005
-342,620	232,107	0,047	0,055
-341,606	-200,000	0,025	0,116
-340,591	-2,975	0,079	-0,039
-339,577	436,298	-0,060	-0,094
-338,562	800,000	0,076	-0,177
-337,548	21,998	0,114	-0,066
-336,533	-200,000	-0,015	0,060
-335,518	612,822	0,047	0,084
-334,504	-200,000	-0,027	0,095
-333,489	-31,565	-0,115	0,046
-332,475	124,473	-0,053	-0,048
-331,460	66,736	-0,176	-0,128
-330,445	-200,000	-0,001	-0,094
-329,431	54,533	0,041	0,028
-328,416	-200,000	0,058	0,191
-327,402	-200,000	0,036	0,191
-326,387	-55,759	0,086	0,027
-325,372	83,439	-0,145	0,113
-324,358	-113,510	-0,151	-0,021
-323,343	515,256	-0,081	0,136
-322,329	-66,863	0,100	-0,028
-321,314	-57,446	0,135	-0,042
-320,299	-159,347	0,053	0,002
-319,285	-53,042	0,096	0,031
-318,270	9,232	-0,059	0,032
-317,256	-45,891	-0,141	0,050
-316,241	-153,442	0,039	-0,002
-315,226	-102,325	-0,087	0,015
-314,212	138,567	0,093	0,088
-313,197	67,771	-0,067	0,049
-312,183	-25,947	-0,030	-0,012
-311,168	-26,849	0,066	-0,027
-310,153	-200,000	-0,003	-0,188
-309,139	-23,351	-0,038	-0,016
-308,124	-165,510	-0,012	0,000
-307,110	-29,236	0,089	-0,036
-306,095	-75,176	0,048	0,012
-305,080	-200,000	-0,017	-0,068
-304,066	112,528	-0,084	-0,072
-303,051	64,639	-0,033	-0,024
-302,037	-29,896	0,126	0,051
-301,022	-116,062	0,098	0,013
-300,008	-200,000	0,013	-0,058
-298,993	-111,585	0,174	-0,025
-297,978	-63,179	-0,217	-0,063
-296,964	3,611	-0,032	-0,017
-295,949	800,000	-0,026	-0,057
-294,935	-53,441	-0,129	-0,042
-293,920	-200,000	-0,018	-0,111
-292,905	81,384	0,037	-0,029
-291,891	800,000	-0,031	0,069
-290,876	-200,000	0,023	0,082
-289,862	800,000	0,053	0,118
-288,847	-200,000	0,004	0,116
-287,832	-195,767	-0,117	0,001
-286,818	380,903	0,023	0,034
-285,803	16,944	0,137	-0,078
-284,789	-2,313	0,107	-0,053
-283,774	-137,166	0,092	0,007
-282,759	-87,315	0,059	0,013
-281,745	112,774	0,113	-0,098
-280,730	8,755	-0,087	-0,047
-279,716	-123,424	0,119	-0,013
-278,701	283,444	-0,021	0,027
-277,686	632,102	0,072	0,131
-276,672	-103,881	0,070	-0,012
-275,657	-79,803	0,187	0,045
-274,643	800,000	-0,037	-0,105
-273,628	-28,237	-0,070	-0,029
-272,613	-200,000	-0,016	-0,103
-271,599	185,869	-0,023	-0,024
-270,584	-200,000	0,029	-0,108
-269,570	-168,796	-0,146	-0,004
-268,555	800,000	0,034	-0,068
-267,540	-137,207	-0,061	0,005
-266,526	28,108	0,073	-0,044
-265,511	249,617	-0,034	-0,041
-264,497	-70,196	0,140	0,038
-263,482	-200,000	0,018	-0,062
-262,467	-154,402	-0,124	0,006
-261,453	-118,696	0,167	0,021
-260,438	2,701	-0,155	-0,080
-259,424	-23,180	-0,059	0,025
-258,409	139,765	-0,097	0,092
-257,395	-58,920	0,110	-0,034
-256,380	384,399	-0,030	-0,045
-255,365	800,000	-0,022	-0,046
-254,351	483,400	-0,008	0,013
-253,336	-134,048	-0,046	0,004
-252,322	-172,517	0,029	-0,001
-251,307	462,591	0,068	-0,108
-250,292	-15,328	-0,094	0,043
-249,278	-200,000	-0,017	0,120
-248,263	-200,000	-0,005	-0,099
-247,249	157,429	0,051	0,050
-246,234	-200,000	0,008	0,082
-245,219	-200,000	-0,008	-0,063
-244,205	800,000	0,084	-0,180
-243,190	-86,929	-0,140	0,030
-242,176	-124,241	-0,098	-0,011
-241,161	800,000	0,016	0,049
-240,146	-120,648	0,019	0,002
-239,132	-200,000	-0,010	0,080
-238,117	-65,501	0,054	-0,015
-237,103	23,285	0,101	-0,059
-236,088	-200,000	0,012	-0,049
-235,073	-200,000	-0,004	-0,133
-234,059	201,161	-0,066	-0,072
-233,044	38,276	0,014	0,009
-232,030	-200,000	0,001	0,005
-231,015	-83,029	0,033	-0,007
-230,000	800,000	-0,014	0,030
-228,986	-110,751	-0,048	0,007
-227,971	-200,000	-0,015	0,056
-226,957	-29,228	0,160	-0,065
-225,942	123,730	-0,037	0,033
-224,927	526,653	0,030	-0,051
-223,913	800,000	-0,032	-0,069
-222,898	800,000	-0,074	-0,155
-221,884	-200,000	0,001	0,093
-220,869	21,783	0,058	0,034
-219,855	101,281	0,082	-0,068
-218,840	321,878	-0,029	0,040
-217,825	389,841	-0,067	-0,099
-216,811	55,773	-0,055	-0,038
-215,796	800,000	-0,070	-0,148
-214,782	-8,906	-0,066	-0,032
-213,767	-138,831	-0,110	0,008
-212,752	672,373	-0,066	0,122
-211,738	318,657	-0,108	0,145
-210,723	743,810	-0,031	0,060
-209,709	-3,778	-0,045	0,022
-208,694	-56,230	0,084	-0,026
-207,679	235,593	-0,019	0,022
-206,665	-96,631	-0,028	-0,005
-205,650	-20,595	0,162	-0,071
-204,636	52,051	0,029	0,020
-203,621	-200,000	-0,014	0,248
-202,606	-200,000	-0,026	0,112
-201,592	-200,000	-0,024	-0,087
-200,577	713,177	0,035	-0,066
-199,563	-200,000	0,036	0,122
-198,548	-200,000	0,018	-0,109
-197,533	-135,577	-0,101	-0,008
-196,519	111,359	0,197	0,169
-195,504	-200,000	-0,037	-0,119
-194,490	222,414	0,047	0,054
-193,475	800,000	-0,027	-0,063
-192,460	-169,315	-0,125	-0,003
-191,446	137,453	0,042	-0,039
-190,431	-200,000	-0,023	0,127
-189,417	523,033	0,047	0,079
-188,402	800,000	-0,026	0,076
-187,387	323,348	-0,070	0,095
-186,373	-25,810	-0,035	0,014
-185,358	-200,000	-0,007	0,111
-184,344	49,385	0,119	-0,079
-183,329	200,851	0,049	0,054
-182,315	564,850	-0,048	-0,084
-181,300	117,836	0,061	0,054
-180,285	-66,613	-0,083	0,023
-179,271	-200,000	0,025	-0,108
-178,256	94,075	-0,037	-0,030
-177,242	800,000	0,042	-0,091
-176,227	128,085	0,066	0,059
-175,212	500,471	0,005	-0,009
-174,198	188,202	0,024	0,025
-173,183	800,000	-0,023	0,055
-172,169	-32,285	0,085	-0,034
-171,154	92,660	-0,122	-0,098
-170,139	-145,419	0,155	-0,010
-169,125	176,972	0,075	0,077
-168,110	177,385	-0,116	0,120
-167,096	138,443	0,056	0,052
-166,081	-53,424	0,206	0,067
-165,066	-200,000	-0,002	-0,115
-164,052	465,337	-0,057	-0,091
-163,037	221,110	0,043	0,049
-162,023	800,000	0,023	-0,049
-161,008	-76,228	-0,059	0,015
-159,993	128,446	-0,061	0,055
-158,979	-200,000	0,005	0,108
-157,964	-134,680	-0,036	-0,003
-156,950	22,230	-0,056	0,033
-155,935	167,071	-0,012	-0,012
-154,920	126,329	-0,051	0,046
-153,906	714,325	0,055	0,104
-152,891	-200,000	-0,003	0,122
-151,877	108,157	0,003	-0,002
-150,862	800,000	0,031	-0,063
-149,847	267,622	-0,017	0,021
-148,833	-23,843	0,067	0,029
-147,818	29,218	0,067	0,040
-146,804	800,000	0,032	0,065
-145,789	-200,000	-0,031	-0,126
-144,775	-82,143	-0,021	-0,005
-143,760	170,179	-0,090	-0,092
-142,745	36,433	-0,126	-0,079
-141,731	-148,214	0,181	0,010
-140,716	74,899	0,049	-0,036
-139,702	105,145	0,078	0,065
-138,687	56,073	0,047	0,032
-137,672	800,000	-0,007	-0,016
-136,658	-137,883	0,161	-0,013
-135,643	769,189	-0,020	-0,038
-134,629	-108,344	-0,009	0,001
-133,614	-46,233	0,041	0,014
-132,599	21,515	0,118	0,068
-131,585	392,370	0,030	0,045
-130,570	-200,000	0,007	0,045
-129,556	-73,288	-0,142	-0,037
-128,541	-19,047	-0,073	0,032
-127,526	-200,000	-0,014	0,117
-126,512	-126,436	0,159	0,017
-125,497	-200,000	-0,016	0,068
-124,483	305,360	-0,052	0,068
-123,468	-200,000	-0,008	-0,077
-122,453	-200,000	0,007	-0,041
-121,439	-112,308	-0,050	-0,007
-120,424	13,907	-0,043	-0,023
-119,410	800,000	0,015	-0,033
-118,395	-200,000	-0,026	0,091
-117,380	-33,719	-0,033	0,013
-116,366	-32,160	-0,198	-0,078
-115,351	-94,602	0,033	-0,006
-114,337	202,991	0,016	0,017
-113,322	-200,000	0,005	-0,044
-112,307	-23,153	-0,160	0,068
-111,293	30,304	0,075	0,046
-110,278	75,222	0,059	-0,044
-109,264	-139,686	0,075	-0,006
-108,249	675,305	0,017	0,031
-107,234	13,295	0,129	-0,071
-106,220	-17,015	0,038	-0,017
-105,205	47,133	-0,046	0,030
-104,191	-200,000	-0,007	-0,069
-103,176	36,693	0,117	-0,073
-102,162	-200,000	-0,040	-0,134
-101,147	37,041	0,045	0,028
-100,132	800,000	-0,042	0,097
-99,118	169,031	-0,061	0,062
-98,103	290,238	0,037	0,048
-97,089	800,000	-0,062	0,137
-96,074	-135,126	0,126	-0,011
-95,059	-68,289	0,148	0,040
-94,045	800,000	-0,060	0,126
-93,030	800,000	-0,075	-0,187
-92,016	-43,598	0,076	-0,027
-91,001	162,572	0,057	-0,057
-89,986	43,170	-0,052	0,033
-88,972	-80,758	0,092	-0,021
-87,957	-200,000	0,010	-0,081
-86,943	204,173	0,062	0,068
-85,928	663,075	-0,050	0,092
-84,913	229,627	0,070	-0,081
-83,899	-10,631	0,090	0,042
-82,884	800,000	-0,019	0,050
-81,870	82,620	0,081	0,062
-80,855	538,946	0,061	-0,102
-79,840	-7,744	-0,116	0,055
-78,826	235,521	0,090	-0,105
-77,811	231,857	-0,018	-0,021
-76,797	80,975	0,120	-0,092
-75,782	-200,000	0,037	-0,184
-74,767	-130,776	0,192	0,018
-73,753	147,176	-0,021	0,020
-72,738	-84,301	0,180	0,040
-71,724	357,254	-0,040	-0,057
-70,709	-200,000	0,032	-0,168
-69,694	59,257	-0,074	0,052
-68,680	-84,242	0,078	0,017
-67,665	-200,000	0,049	-0,156
-66,651	153,003	0,086	0,083
-65,636	800,000	-0,054	-0,109
-64,622	800,000	0,057	-0,118
-63,607	259,172	0,019	-0,024
-62,592	227,019	0,082	-0,094
-61,578	570,263	-0,048	-0,084
-60,563	800,000	0,050	-0,152
-59,549	228,564	-0,076	0,087
-58,534	-12,167	-1,709	-0,789
-57,519	493,378	-1,259	-2,051
-56,505	-200,000	-0,517	-4,528
-55,490	226,540	0,967	1,112
-54,476	800,000	5,091	11,366
-53,461	-200,000	19,606	326,287
-52,446	800,000	747,128	2329,195
-51,432	561,746	1658,785	2849,408
-50,417	76,573	1671,498	1252,603
-49,403	20,599	1544,459	881,748
-48,388	14,459	1467,162	807,741
-47,373	18,178	1457,045	820,110
-46,359	16,489	1446,768	806,198
-45,344	12,798	1442,420	786,059
-44,330	12,706	1440,317	784,439
-43,315	12,701	1438,716	783,515
-42,300	12,725	1436,911	782,614
-41,286	12,666	1435,727	781,659
-40,271	12,721	1434,336	781,131
-39,257	12,697	1433,062	780,292
-38,242	12,719	1431,849	779,702
-37,227	12,702	1430,753	778,997
-36,213	12,784	1429,169	778,492
-35,198	12,715	1428,095	777,548
-34,184	12,804	1427,085	777,392
-33,169	12,709	1425,776	776,195
-32,154	12,741	1424,677	775,721
-31,140	12,792	1423,318	775,190
-30,125	12,809	1422,433	774,758
-29,111	12,793	1421,132	773,941
-28,096	12,786	1420,029	773,278
-27,082	12,732	1418,843	772,349
-26,067	12,688	1418,017	771,660
-25,052	12,709	1416,849	771,094
-24,038	12,677	1415,764	770,319
-23,023	12,742	1414,670	770,000
-22,009	12,706	1413,792	769,320
-20,994	12,677	1412,834	768,635
-19,979	12,598	1412,327	767,958
-18,965	12,638	1411,045	767,418
-17,950	12,597	1410,299	766,786
-16,936	12,622	1409,370	766,369
-15,921	12,604	1408,183	765,610
-14,906	12,607	1407,112	765,009
-13,892	12,588	1406,509	764,561
-12,877	12,573	1405,585	763,961
-11,863	12,583	1404,569	763,425
-10,848	12,608	1403,747	763,064
-9,833	12,593	1402,839	762,472
-8,819	12,548	1402,026	761,788
-7,804	12,473	1401,200	760,961
-6,790	12,529	1400,026	760,554
-5,775	12,523	1398,969	759,921
-4,760	12,509	1397,828	759,207
-3,746	12,507	1396,957	758,692
-2,731	12,523	1396,336	758,401
-1,717	12,477	1395,333	757,613
-0,702	12,461	1393,636	756,589
0,313	16,409	1309,331	729,060
1,327	32,834	701,411	428,390
2,342	50,660	122,508	81,846
3,356	2,123	16,603	8,451
4,371	4,272	3,258	1,682
5,386	-43,867	0,730	0,258
6,400	-200,000	0,025	0,320
7,415	52,358	-0,245	-0,165
8,429	-200,000	-0,011	-0,198
9,444	77,149	-0,321	-0,241
10,459	800,000	-0,085	-0,257
11,473	687,251	-0,184	-0,341
12,488	-29,672	-0,281	-0,113
13,502	-61,645	-0,319	-0,094
14,517	150,176	-0,260	-0,249
15,531	44,564	-0,327	-0,212
16,546	39,209	-0,323	-0,204
17,561	71,934	-0,406	-0,298
18,575	-19,384	-0,158	-0,069
19,590	224,196	-0,238	-0,271
20,604	-152,651	-0,231	-0,011
21,619	18,106	-0,453	-0,254
22,634	175,171	-0,429	-0,439
23,648	76,774	-0,372	-0,278
24,663	78,151	-0,398	-0,299
25,677	-90,372	-0,376	-0,076
26,692	87,198	-0,331	-0,258
27,707	151,746	-0,285	-0,274
28,721	-34,365	-0,327	-0,126
29,736	28,235	-0,321	-0,191
30,750	140,114	-0,470	-0,437
31,765	138,816	-0,395	-0,366
32,780	55,710	-0,456	-0,311
33,794	98,926	-0,411	-0,335
34,809	103,019	-0,304	-0,251
35,823	96,235	-0,398	-0,321
36,838	86,976	-0,426	-0,331
37,853	114,476	-0,452	-0,388
38,867	98,675	-0,347	-0,282
39,882	4,924	-0,394	-0,203
40,896	343,118	-0,240	-0,332
41,911	202,946	-0,343	-0,374
42,926	-32,505	-0,295	-0,115
43,940	37,576	-0,379	-0,237
44,955	120,089	-0,341	-0,298
45,969	41,693	-0,370	-0,236
46,984	56,287	-0,326	-0,223
47,999	64,945	-0,329	-0,233
49,013	167,074	-0,375	-0,375
50,028	70,312	-0,413	-0,300
51,042	122,754	-0,318	-0,280
52,057	114,814	-0,272	-0,233
53,071	-12,910	-0,322	-0,147
54,086	36,506	-0,272	-0,168
55,101	34,658	-0,265	-0,163
56,115	-26,957	-0,486	-0,199
57,130	-54,042	-0,330	-0,105
58,144	4,833	-0,273	-0,141
59,159	142,390	-0,313	-0,292
60,174	-28,235	-0,401	-0,162
61,188	235,409	-0,216	-0,252
62,203	-16,148	-0,284	-0,127
63,217	1,824	-0,363	-0,183
64,232	153,897	-0,227	-0,219
65,247	56,398	-0,384	-0,262
66,261	79,404	-0,430	-0,324
67,276	93,548	-0,437	-0,348
68,290	-20,005	-0,332	-0,144
69,305	122,041	-0,284	-0,250
70,320	4,644	-0,240	-0,123
71,334	-27,617	-0,345	-0,140
72,349	147,455	-0,227	-0,215
73,363	74,087	-0,376	-0,277
74,378	14,401	-0,359	-0,196
75,393	12,757	-0,370	-0,200
76,407	42,039	-0,305	-0,194
77,422	75,477	-0,296	-0,219
78,436	-36,904	-0,289	-0,108
79,451	-12,670	-0,404	-0,184
80,466	-61,773	-0,322	-0,094
81,480	45,954	-0,345	-0,224
82,495	-17,466	-0,416	-0,183
83,509	203,078	-0,135	-0,147
84,524	-95,085	-0,392	-0,074
85,539	-42,026	-0,238	-0,085
86,553	-153,196	-0,331	-0,016
87,568	-5,877	-0,338	-0,162
88,582	162,170	-0,298	-0,293
89,597	403,758	-0,219	-0,325
90,611	107,425	-0,273	-0,228
91,626	-23,163	-0,397	-0,167
92,641	79,534	-0,256	-0,192
93,655	-24,303	-0,227	-0,094
94,670	155,073	-0,246	-0,237
95,684	173,982	-0,319	-0,324
96,699	217,805	-0,186	-0,208
97,714	-73,316	-0,304	-0,077
98,728	56,994	-0,230	-0,157
99,743	-41,133	-0,263	-0,095
100,757	-118,442	-0,346	-0,042
101,772	54,622	-0,245	-0,165
102,787	-50,536	-0,199	-0,065
103,801	-19,022	-0,208	-0,090
104,816	67,272	-0,314	-0,224
105,830	73,159	-0,283	-0,207
106,845	124,778	-0,239	-0,211
107,860	203,614	-0,223	-0,242
108,874	321,111	-0,200	-0,267
109,889	149,789	-0,349	-0,331
110,903	-90,957	-0,365	-0,073
111,918	-30,181	-0,279	-0,110
112,933	66,671	-0,199	-0,141
113,947	-10,185	-0,244	-0,113
114,962	430,421	-0,206	-0,313
115,976	745,106	-0,135	-0,256
116,991	99,609	-0,358	-0,290
118,006	113,005	-0,253	-0,214
119,020	69,384	-0,225	-0,162
120,035	110,730	-0,148	-0,125
121,049	137,539	-0,200	-0,183
122,064	116,594	-0,163	-0,140
123,079	-30,637	-0,199	-0,078
124,093	133,039	-0,191	-0,173
125,108	237,988	-0,227	-0,264
126,122	541,400	-0,172	-0,288
127,137	425,846	-0,098	-0,148
128,151	90,524	-0,206	-0,161
129,166	144,474	-0,176	-0,164
130,181	92,001	-0,218	-0,172
131,195	-80,473	-0,341	-0,079
132,210	800,000	-0,142	-0,280
133,224	33,953	-0,273	-0,166
134,239	765,429	-0,190	-0,362
135,254	656,580	-0,140	-0,252
136,268	110,213	-0,212	-0,178
137,283	3,215	-0,100	-0,051
138,297	294,290	-0,244	-0,313
139,312	162,753	-0,278	-0,273
140,327	202,410	-0,285	-0,308
141,341	-35,446	-0,273	-0,103
142,356	481,153	-0,133	-0,211
143,370	15,637	-0,322	-0,176
144,385	-6,376	-0,263	-0,125
145,400	116,754	-0,054	-0,046
146,414	190,853	-0,151	-0,159
147,429	209,245	-0,267	-0,293
148,443	-32,424	-0,297	-0,115
149,458	210,543	-0,149	-0,163
150,473	10,856	-0,249	-0,132
151,487	231,304	-0,184	-0,210
152,502	209,374	-0,204	-0,224
153,516	123,370	-0,307	-0,268
154,531	28,998	-0,352	-0,208
155,546	-8,989	-0,273	-0,127
156,560	53,412	-0,322	-0,215
157,575	158,255	-0,204	-0,197
158,589	-12,250	-0,250	-0,114
159,604	28,540	-0,436	-0,257
160,619	249,857	-0,281	-0,333
161,633	126,314	-0,178	-0,157
162,648	-7,707	-0,304	-0,143
163,662	43,041	-0,189	-0,120
164,677	234,712	-0,169	-0,194
165,692	39,052	-0,154	-0,095
166,706	11,372	-0,220	-0,117
167,721	277,662	-0,171	-0,213
168,735	110,181	-0,216	-0,181
169,750	-10,361	-0,178	-0,082
170,764	410,115	-0,130	-0,192
171,779	-15,322	-0,099	-0,044
172,794	-129,270	-0,210	0,020
173,808	267,205	-0,140	-0,171
174,823	74,193	-0,263	-0,192
175,837	39,834	-0,123	-0,077
176,852	72,894	-0,250	-0,182
177,867	22,012	-0,216	-0,122
178,881	800,000	-0,115	-0,233
179,896	-65,064	-0,282	-0,079
180,910	29,512	-0,216	-0,128
181,925	146,613	-0,284	-0,265
182,940	60,541	-0,269	-0,185
183,954	-33,877	-0,325	-0,124
184,969	182,067	-0,090	-0,092
185,983	55,890	-0,277	-0,187
186,998	91,992	-0,158	-0,124
188,013	-50,676	-0,176	-0,057
189,027	178,830	-0,146	-0,148
190,042	88,789	-0,242	-0,187
191,056	5,279	-0,159	-0,081
192,071	139,785	-0,173	-0,159
193,086	-89,867	-0,194	-0,039
194,100	-200,000	-0,040	-0,137
195,115	456,958	-0,165	-0,255
196,129	194,074	-0,206	-0,217
197,144	-13,371	-0,252	-0,113
198,159	91,213	-0,214	-0,167
199,173	627,342	-0,103	-0,182
200,188	-9,229	-0,306	-0,141
201,202	-164,707	-0,199	-0,006
202,217	-89,061	-0,249	-0,051
203,232	40,312	-0,239	-0,149
204,246	-62,589	-0,158	0,045
205,261	76,589	-0,185	-0,136
206,275	211,464	-0,180	-0,197
207,290	201,627	-0,159	-0,171
208,304	495,593	-0,117	-0,187
209,319	-200,000	-0,032	-0,177
210,334	-82,858	-0,090	-0,020
211,348	198,869	-0,206	-0,219
212,363	43,814	-0,156	-0,099
213,377	-56,098	-0,120	0,037
214,392	270,910	-0,159	-0,195
215,407	-77,106	-0,134	-0,032
216,421	-132,620	-0,248	-0,022
217,436	12,403	-0,207	-0,110
218,450	62,461	-0,238	-0,165
219,465	498,241	-0,085	-0,136
220,480	-92,150	-0,100	0,019
221,494	40,254	-0,115	-0,072
222,509	-43,399	-0,135	-0,047
223,523	-56,258	-0,252	-0,077
224,538	48,654	-0,287	-0,186
225,553	-7,896	-0,214	-0,100
226,567	276,221	-0,253	-0,312
227,582	489,968	-0,200	-0,318
228,596	334,525	-0,105	-0,141
229,611	-99,327	-0,060	-0,010
230,626	38,124	-0,292	-0,180
231,640	29,098	-0,131	-0,077
232,655	65,607	-0,145	-0,102
233,669	800,000	-0,139	-0,304
234,684	295,052	-0,194	-0,247
235,699	-69,144	-0,170	-0,045
236,713	-14,237	-0,234	-0,104
237,728	98,408	-0,199	-0,159
238,742	199,299	-0,126	-0,134
239,757	78,159	-0,197	-0,146
240,772	230,181	-0,167	-0,189
241,786	35,351	-0,154	-0,093
242,801	36,830	-0,184	-0,112
243,815	93,064	-0,212	-0,165
244,830	18,421	-0,200	-0,110
245,844	133,289	-0,134	-0,120
246,859	52,403	-0,213	-0,141
247,874	96,197	-0,220	-0,174
248,888	346,705	-0,070	-0,096
249,903	-33,111	-0,152	-0,058
250,917	133,785	-0,224	-0,201
251,932	12,399	-0,203	-0,108
252,947	-186,229	-0,242	-0,002
253,961	75,068	-0,205	-0,149
254,976	800,000	-0,124	-0,329
255,990	147,577	-0,204	-0,190
257,005	169,552	-0,171	-0,169
258,020	199,688	-0,144	-0,153
259,034	2,089	-0,075	-0,037
260,049	10,851	-0,239	-0,126
261,063	262,057	-0,079	-0,095
262,078	-124,216	-0,145	-0,016
263,093	-74,414	-0,192	-0,048
264,107	180,721	-0,234	-0,237
265,122	-153,113	-0,134	-0,006
266,136	-107,059	-0,102	-0,015
267,151	7,413	-0,118	-0,061
268,166	176,851	-0,136	-0,136
269,180	-200,000	-0,220	-0,001
270,195	-27,250	-0,309	-0,124
271,209	-200,000	-0,031	-0,109
272,224	-62,697	-0,049	-0,014
273,239	166,031	-0,111	-0,108
274,253	164,293	-0,103	-0,100
275,268	-81,497	-0,224	-0,051
276,282	-78,985	-0,157	-0,037
277,297	16,943	-0,139	0,076
278,312	380,742	-0,112	-0,160
279,326	-20,792	-0,148	-0,062
280,341	132,497	-0,129	-0,115
281,355	-200,000	-0,019	-0,075
282,370	311,850	-0,121	-0,156
283,384	33,026	-0,143	-0,085
284,399	115,234	-0,295	-0,248
285,414	-85,690	-0,268	-0,057
286,428	76,324	-0,169	-0,123
287,443	309,016	-0,016	-0,021
288,457	50,856	-0,255	-0,167
289,472	-34,166	-0,095	-0,036
290,487	-200,000	-0,013	-0,130
291,501	438,369	-0,128	-0,193
292,516	163,119	-0,123	-0,119
293,530	-200,000	-0,019	-0,153
294,545	381,699	-0,089	-0,126
295,560	73,165	-0,038	-0,027
296,574	-51,509	-0,149	-0,048
297,589	-41,206	-0,243	-0,086
298,603	291,476	-0,115	-0,145
299,618	600,783	-0,133	-0,228
300,633	683,950	-0,012	-0,021
301,647	216,730	-0,014	-0,016
302,662	56,953	-0,154	0,104
303,676	-9,741	-0,032	0,015
304,691	9,416	-0,098	-0,051
305,706	386,000	-0,090	-0,129
306,720	35,652	-0,148	-0,089
307,735	-200,000	-0,028	-0,150
308,749	311,912	-0,082	-0,107
309,764	-46,352	-0,168	-0,056
310,779	325,194	-0,108	-0,142
311,793	44,103	-0,197	-0,124
312,808	33,935	-0,126	-0,075
313,822	800,000	-0,092	-0,203
314,837	800,000	0,018	-0,047
315,852	-16,909	-0,077	0,033
316,866	5,875	-0,111	-0,056
317,881	-14,193	-0,149	0,066
318,895	-52,565	-0,164	0,052
319,910	141,345	-0,130	-0,118
320,925	623,066	-0,069	-0,120
321,939	-200,000	-0,037	-0,164
322,954	327,470	-0,093	-0,123
323,968	-169,562	-0,133	0,003
324,983	185,690	-0,015	-0,015
325,997	-77,824	-0,261	-0,062
327,012	-79,376	-0,190	-0,044
328,027	-200,000	-0,020	-0,149
329,041	-200,000	0,050	-0,164
330,056	-186,410	-0,247	-0,002
331,070	35,567	-0,072	-0,043
332,085	-199,435	-0,158	0,001
333,100	92,274	-0,092	-0,071
334,114	118,342	-0,147	-0,125
335,129	26,779	-0,205	-0,117
336,143	800,000	-0,022	-0,052
337,158	173,466	-0,150	-0,148
338,173	86,351	-0,067	0,050
339,187	-159,466	-0,165	0,006
340,202	-200,000	-0,035	-0,132
341,216	36,770	-0,201	-0,122
342,231	-10,706	-0,208	-0,094
343,246	-16,155	-0,118	-0,051
344,260	-118,392	-0,144	0,017
345,275	54,101	-0,055	-0,036
346,289	-37,924	-0,113	0,041
347,304	-200,000	-0,096	0,000
348,319	32,155	-0,125	-0,074
349,333	-122,906	-0,077	-0,008
350,348	-139,063	-0,233	-0,017
351,362	-60,235	-0,196	-0,057
352,377	76,586	-0,105	-0,076
353,392	-24,806	-0,093	-0,038
354,406	-6,022	-0,116	-0,054
355,421	208,570	1312,126	1408,610
356,435	160,492	1472,512	1409,091
