DTS Sentinel unit serial number:	SN410029Multiplexer serial number:	ORYXHardware model number:	OX2-SRSoftware version number:	ORYX F/W v4,00 Oryx Data Collector v3.7.2.0data status	okinstallation	B3 Nyhavnadifferential loss correction	single-endedforward channel	channel 1reverse channel	N/Adate	2023/12/04time	13:17:30forward acquisition time	300,00reverse acquisition time	0,00gamma	499,1914k internal	0,3201k external	0,3201temperature offset calibration	1,0000default loss term (dB/km)	0,3820temperature slope calibration	1,0000multiplexer offset coefficient	1,0000multiplexer slope coefficient	1,0000fibre end	0,00T internal ref (°C)	14,81T ext. ref 1 (°C)	0,29T ext. ref 2 (°C)	0,28length (m)	temperature (°C)	Stokes	anti-Stokes-744,400	-200,000	-0,085	-0,287
-743,385	120,863	0,123	0,111
-742,371	800,000	-0,092	-0,223
-741,356	-200,000	-0,003	0,459
-740,342	553,796	-0,141	-0,248
-739,327	-200,000	0,084	0,324
-738,312	324,079	-0,104	-0,145
-737,298	-200,000	0,008	0,379
-736,283	173,108	-0,184	-0,193
-735,269	-200,000	-0,086	0,383
-734,254	-126,811	-0,164	0,017
-733,239	-129,170	-0,228	0,023
-732,225	313,750	-0,116	-0,160
-731,210	-54,223	0,164	0,054
-730,196	471,264	0,075	-0,124
-729,181	50,942	0,076	-0,052
-728,167	-14,945	0,056	-0,026
-727,152	-200,000	-0,004	0,027
-726,137	-14,493	-0,085	0,039
-725,123	-123,936	0,015	-0,002
-724,108	44,544	-0,076	-0,051
-723,094	22,834	-0,051	-0,030
-722,079	-200,000	0,012	-0,154
-721,064	-200,000	-0,025	0,109
-720,050	-95,153	-0,098	-0,019
-719,035	137,575	-0,072	0,069
-718,021	-142,542	-0,142	-0,010
-717,006	-200,000	-0,151	-0,000
-715,991	800,000	0,045	-0,092
-714,977	6,128	-0,155	0,083
-713,962	-200,000	-0,027	-0,097
-712,948	-200,000	-0,006	0,076
-711,933	-141,387	-0,083	-0,006
-710,918	134,792	-0,077	-0,073
-709,904	-190,191	-0,009	0,000
-708,889	270,155	-0,055	-0,070
-707,875	21,280	0,018	-0,011
-706,860	800,000	-0,013	-0,037
-705,845	800,000	-0,061	0,143
-704,831	529,470	0,050	-0,086
-703,816	117,803	0,065	0,058
-702,802	406,914	0,061	0,094
-701,787	533,649	-0,098	-0,169
-700,772	715,959	0,032	-0,062
-699,758	800,000	-0,043	-0,111
-698,743	49,976	0,058	-0,040
-697,729	299,365	-0,003	0,003
-696,714	800,000	0,021	-0,050
-695,699	-100,144	0,048	0,009
-694,685	77,767	-0,077	0,060
-693,670	800,000	-0,041	0,088
-692,656	800,000	-0,033	-0,098
-691,641	168,823	0,036	-0,038
-690,627	-200,000	0,014	0,056
-689,612	-200,000	-0,004	0,061
-688,597	-200,000	0,026	-0,128
-687,583	7,948	-0,142	-0,077
-686,568	251,704	0,092	-0,114
-685,554	189,330	-0,120	-0,130
-684,539	800,000	0,027	0,070
-683,524	-200,000	-0,003	0,091
-682,510	38,093	0,065	0,042
-681,495	800,000	0,045	0,124
-680,481	-126,666	-0,191	0,020
-679,466	-200,000	0,001	-0,038
-678,451	17,944	0,089	-0,051
-677,437	620,276	-0,044	-0,081
-676,422	459,873	0,091	0,148
-675,408	-200,000	-0,009	0,065
-674,393	-20,272	0,033	-0,015
-673,378	-200,000	0,007	-0,079
-672,364	-69,313	-0,218	-0,060
-671,349	244,884	0,059	0,072
-670,335	800,000	0,015	0,041
-669,320	800,000	0,019	0,044
-668,305	-200,000	0,004	-0,021
-667,291	6,854	-0,116	0,062
-666,276	1,411	0,038	0,020
-665,262	67,120	-0,075	0,055
-664,247	592,290	-0,111	-0,200
-663,232	-119,179	0,060	0,007
-662,218	-132,294	-0,138	-0,013
-661,203	77,398	0,082	-0,063
-660,189	-39,186	-0,093	0,035
-659,174	-67,659	-0,047	-0,013
-658,159	800,000	-0,046	0,106
-657,145	738,791	-0,027	0,053
-656,130	291,528	-0,017	-0,022
-655,116	133,544	0,087	-0,081
-654,101	-35,193	0,037	0,014
-653,086	382,049	0,042	0,063
-652,072	33,650	-0,064	-0,040
-651,057	38,406	-0,032	-0,021
-650,043	0,698	-0,034	0,018
-649,028	36,191	-0,135	0,086
-648,014	24,587	-0,087	-0,052
-646,999	-200,000	-0,020	0,157
-645,984	245,623	0,046	0,056
-644,970	85,783	-0,093	0,074
-643,955	58,200	-0,080	-0,057
-642,941	15,385	-0,059	0,034
-641,926	-73,275	-0,078	-0,021
-640,911	526,137	0,061	0,105
-639,897	89,549	0,076	0,061
-638,882	-87,319	0,185	0,040
-637,868	-0,067	-0,195	0,100
-636,853	-42,630	0,046	-0,017
-635,838	-73,345	-0,122	-0,032
-634,824	80,983	-0,112	0,087
-633,809	-136,655	0,118	-0,010
-632,795	-114,174	0,080	-0,011
-631,780	378,556	0,103	0,154
-630,765	-142,595	-0,013	-0,001
-629,751	800,000	-0,051	-0,121
-628,736	-46,614	-0,108	0,038
-627,722	47,372	-0,062	-0,042
-626,707	-200,000	-0,011	0,108
-625,692	279,645	0,067	0,087
-624,678	-141,217	-0,144	-0,010
-623,663	676,204	0,021	0,040
-622,649	-39,049	-0,113	-0,043
-621,634	-200,000	-0,033	-0,162
-620,619	-126,809	-0,038	0,004
-619,605	-200,000	-0,004	0,128
-618,590	-200,000	0,025	0,158
-617,576	800,000	-0,017	-0,038
-616,561	-200,000	0,010	0,131
-615,546	800,000	0,025	0,070
-614,532	67,698	-0,052	-0,038
-613,517	159,354	0,035	-0,035
-612,503	614,262	-0,060	-0,110
-611,488	324,885	-0,040	-0,055
-610,474	-29,638	0,130	-0,054
-609,459	-200,000	0,051	0,174
-608,444	321,703	-0,089	-0,122
-607,430	800,000	-0,040	-0,109
-606,415	-82,898	-0,141	0,033
-605,401	-200,000	-0,007	0,123
-604,386	800,000	-0,014	-0,028
-603,371	-200,000	-0,005	0,016
-602,357	800,000	-0,028	0,058
-601,342	-200,000	-0,001	0,014
-600,328	-153,357	0,031	0,002
-599,313	-200,000	-0,013	-0,116
-598,298	8,603	0,059	0,032
-597,284	800,000	-0,025	0,062
-596,269	256,683	-0,003	0,003
-595,255	-35,055	0,116	0,045
-594,240	800,000	-0,038	-0,103
-593,225	-38,334	-0,131	0,050
-592,211	328,614	-0,023	-0,031
-591,196	-127,180	0,048	0,005
-590,182	395,240	-0,043	-0,065
-589,167	-200,000	-0,009	-0,124
-588,152	-200,000	0,052	-0,175
-587,138	282,487	-0,045	-0,059
-586,123	-200,000	0,002	0,091
-585,109	-86,534	-0,114	-0,025
-584,094	4,604	0,093	-0,049
-583,079	-46,149	0,045	0,016
-582,065	45,770	-0,033	0,022
-581,050	-31,533	0,058	-0,024
-580,036	-200,000	-0,026	-0,150
-579,021	-140,770	0,101	-0,007
-578,006	800,000	-0,039	0,086
-576,992	-124,623	0,045	-0,005
-575,977	-200,000	-0,002	0,041
-574,963	-76,184	0,035	0,009
-573,948	19,183	0,132	-0,076
-572,934	103,893	-0,159	-0,135
-571,919	-21,020	-0,189	-0,083
-570,904	800,000	-0,047	-0,111
-569,890	-200,000	0,000	-0,059
-568,875	-126,257	0,113	-0,012
-567,861	-154,200	0,049	-0,002
-566,846	-200,000	-0,008	-0,076
-565,831	-200,000	-0,003	-0,054
-564,817	-169,492	0,104	-0,003
-563,802	376,701	0,025	-0,036
-562,788	-102,600	-0,123	0,021
-561,773	768,867	0,028	-0,055
-560,758	800,000	0,037	0,104
-559,744	81,443	0,060	-0,047
-558,729	147,992	-0,083	-0,081
-557,715	-132,714	-0,072	0,007
-556,700	-200,000	-0,020	0,082
-555,685	80,843	-0,102	-0,079
-554,671	800,000	0,035	-0,088
-553,656	438,213	0,034	0,054
-552,642	102,195	0,102	-0,086
-551,627	55,387	0,069	0,048
-550,612	-200,000	0,033	0,174
-549,598	-93,359	-0,126	-0,025
-548,583	-113,488	-0,032	-0,004
-547,569	222,462	-0,084	-0,098
-546,554	-52,353	0,124	-0,041
-545,539	7,547	0,130	0,070
-544,525	22,343	0,109	-0,064
-543,510	407,468	-0,034	-0,052
-542,496	-129,129	-0,077	0,008
-541,481	216,562	-0,033	0,038
-540,466	620,755	-0,041	0,075
-539,452	-176,798	0,129	0,002
-538,437	-200,000	-0,025	0,098
-537,423	-200,000	0,003	-0,010
-536,408	16,380	-0,084	-0,048
-535,393	-200,000	-0,019	-0,142
-534,379	-26,560	-0,043	-0,018
-533,364	-200,000	-0,009	-0,047
-532,350	471,939	0,073	0,119
-531,335	-200,000	0,013	0,063
-530,321	-95,067	-0,078	-0,015
-529,306	800,000	-0,090	-0,240
-528,291	216,182	-0,075	-0,087
-527,277	800,000	-0,039	-0,092
-526,262	800,000	-0,054	-0,154
-525,248	-33,707	0,115	-0,045
-524,233	95,022	-0,056	-0,046
-523,218	4,959	-0,016	0,008
-522,204	20,185	0,131	-0,076
-521,189	184,926	-0,091	-0,097
-520,175	-200,000	-0,009	0,059
-519,160	-159,642	0,062	-0,002
-518,145	72,339	0,063	-0,047
-517,131	800,000	0,015	0,038
-516,116	391,673	0,110	-0,166
-515,102	275,918	-0,023	-0,030
-514,087	-77,727	-0,206	-0,051
-513,072	113,063	-0,098	0,085
-512,058	16,607	0,069	0,039
-511,043	602,513	0,042	-0,075
-510,029	210,116	0,009	0,011
-509,014	18,314	-0,017	-0,010
-507,999	-189,482	0,065	-0,001
-506,985	-101,167	-0,159	-0,028
-505,970	34,457	-0,045	0,028
-504,956	258,446	-0,055	0,069
-503,941	-200,000	-0,015	-0,080
-502,926	-200,000	-0,008	-0,048
-501,912	260,956	0,038	0,048
-500,897	604,559	-0,024	0,043
-499,883	-12,769	-0,081	-0,038
-498,868	150,319	-0,104	-0,102
-497,853	-200,000	0,012	-0,119
-496,839	-121,579	-0,040	0,005
-495,824	-200,000	0,018	0,111
-494,810	-200,000	0,019	0,085
-493,795	172,571	-0,024	-0,025
-492,781	103,380	0,070	0,059
-491,766	-116,254	-0,164	0,022
-490,751	526,617	-0,076	-0,130
-489,737	17,568	0,027	-0,015
-488,722	-109,727	0,059	-0,009
-487,708	8,187	0,046	0,025
-486,693	27,103	-0,079	0,048
-485,678	-200,000	-0,032	-0,156
-484,664	800,000	0,008	0,023
-483,649	-200,000	0,012	-0,056
-482,635	116,616	0,067	0,059
-481,620	-200,000	-0,012	0,072
-480,605	-200,000	0,020	0,140
-479,591	-104,415	0,232	-0,038
-478,576	268,037	-0,103	0,130
-477,562	-200,000	0,015	-0,085
-476,547	-200,000	-0,033	-0,117
-475,532	-121,444	-0,056	0,007
-474,518	201,177	0,059	-0,066
-473,503	800,000	0,043	-0,088
-472,489	430,125	0,030	0,047
-471,474	-200,000	0,010	0,064
-470,459	751,967	-0,030	0,059
-469,445	-57,027	-0,059	0,018
-468,430	102,878	-0,067	0,057
-467,416	110,096	0,149	0,129
-466,401	121,032	-0,034	0,030
-465,386	800,000	-0,025	-0,053
-464,372	-114,606	0,085	-0,012
-463,357	-78,289	0,165	0,041
-462,343	800,000	0,050	-0,109
-461,328	85,555	-0,035	-0,027
-460,313	800,000	-0,049	0,145
-459,299	-200,000	-0,024	0,116
-458,284	-59,887	-0,023	-0,007
-457,270	-200,000	0,008	0,161
-456,255	800,000	-0,036	-0,075
-455,241	-200,000	-0,043	-0,138
-454,226	213,634	-0,112	-0,128
-453,211	-72,875	-0,032	0,008
-452,197	800,000	0,047	0,100
-451,182	103,170	0,157	0,132
-450,168	-200,000	-0,004	0,061
-449,153	800,000	0,026	-0,068
-448,138	-200,000	-0,011	-0,078
-447,124	165,946	-0,061	-0,062
-446,109	800,000	-0,050	0,121
-445,095	-200,000	0,027	-0,094
-444,080	63,278	0,197	-0,142
-443,065	390,065	0,036	0,054
-442,051	800,000	-0,032	0,079
-441,036	111,155	-0,107	0,093
-440,022	251,079	0,048	0,059
-439,007	-200,000	-0,063	0,210
-437,992	-200,000	-0,044	-0,161
-436,978	-200,000	-0,002	-0,108
-435,963	246,953	0,054	0,065
-434,949	-130,226	-0,078	0,008
-433,934	800,000	0,019	-0,039
-432,919	800,000	0,033	-0,088
-431,905	28,161	-0,171	0,104
-430,890	800,000	-0,022	-0,052
-429,876	-200,000	0,036	0,114
-428,861	628,852	-0,054	0,098
-427,846	-185,352	-0,026	-0,000
-426,832	-200,000	0,010	-0,036
-425,817	56,259	0,044	-0,031
-424,803	129,481	-0,053	-0,049
-423,788	-200,000	-0,014	0,058
-422,773	-200,000	-0,012	0,066
-421,759	248,791	0,087	0,106
-420,744	-38,373	0,082	-0,031
-419,730	26,159	-0,132	-0,079
-418,715	-63,375	0,029	0,009
-417,701	-200,000	0,007	-0,025
-416,686	97,925	-0,029	-0,024
-415,671	-140,113	0,117	0,009
-414,657	-200,000	-0,001	-0,019
-413,642	-11,074	0,014	-0,007
-412,628	-97,505	0,071	-0,013
-411,613	-200,000	0,001	0,011
-410,598	-17,056	-0,056	-0,025
-409,584	-200,000	-0,004	0,110
-408,569	-200,000	-0,011	-0,048
-407,555	-142,718	0,109	0,007
-406,540	800,000	-0,031	-0,089
-405,525	17,512	-0,018	0,010
-404,511	-80,980	-0,032	-0,008
-403,496	800,000	-0,028	-0,063
-402,482	297,019	-0,025	-0,034
-401,467	12,769	0,029	0,016
-400,452	281,083	-0,125	0,160
-399,438	209,249	0,036	-0,041
-398,423	470,327	-0,022	-0,036
-397,409	-200,000	0,023	-0,099
-396,394	-200,000	-0,024	-0,135
-395,379	9,752	0,008	0,004
-394,365	258,683	-0,025	0,031
-393,350	-74,151	0,114	0,029
-392,336	800,000	0,071	0,143
-391,321	-200,000	-0,001	-0,096
-390,306	-49,315	-0,036	-0,012
-389,292	164,431	-0,065	-0,065
-388,277	0,405	0,067	-0,034
-387,263	-74,488	0,219	0,056
-386,248	369,095	-0,043	0,062
-385,233	-5,091	0,029	-0,014
-384,219	-165,234	0,059	-0,002
-383,204	800,000	-0,046	-0,111
-382,190	1,660	0,017	0,009
-381,175	-99,511	-0,154	-0,027
-380,160	-23,133	0,073	0,032
-379,146	277,114	0,065	-0,082
-378,131	-200,000	0,036	0,114
-377,117	72,439	0,050	-0,038
-376,102	-89,841	-0,047	-0,010
-375,088	-200,000	-0,027	-0,133
-374,073	-200,000	-0,035	-0,153
-373,058	74,298	0,067	-0,050
-372,044	800,000	-0,017	0,044
-371,029	178,330	0,029	0,030
-370,015	37,854	-0,073	0,046
-369,000	-120,644	0,044	-0,005
-367,985	-49,903	-0,112	-0,038
-366,971	-41,725	-0,063	-0,023
-365,956	280,608	0,094	-0,121
-364,942	-114,825	0,072	0,010
-363,927	-149,888	0,120	0,007
-362,912	800,000	0,017	0,047
-361,898	-200,000	0,030	0,149
-360,883	800,000	-0,047	0,140
-359,869	70,432	-0,085	0,063
-358,854	-104,541	0,068	-0,011
-357,839	86,317	0,096	0,076
-356,825	54,185	-0,055	0,038
-355,810	274,593	0,128	0,162
-354,796	1,526	0,089	-0,046
-353,781	60,999	-0,070	0,050
-352,766	800,000	-0,012	-0,033
-351,752	-171,542	0,065	-0,001
-350,737	-200,000	0,238	-0,000
-349,723	405,047	0,051	0,077
-348,708	-24,545	0,062	-0,027
-347,693	-43,302	-0,118	0,043
-346,679	260,722	0,087	-0,108
-345,664	-70,903	-0,045	0,012
-344,650	-200,000	-0,001	0,021
-343,635	594,414	0,030	-0,053
-342,620	-43,319	0,066	0,024
-341,606	-63,094	0,092	0,027
-340,591	596,672	-0,012	0,021
-339,577	-200,000	0,028	-0,107
-338,562	-200,000	0,028	-0,095
-337,548	-159,681	0,084	0,003
-336,533	-200,000	0,006	-0,203
-335,518	151,959	-0,072	-0,070
-334,504	-200,000	-0,010	0,078
-333,489	386,945	-0,015	-0,023
-332,475	-27,958	-0,045	0,019
-331,460	466,828	-0,109	-0,175
-330,445	20,688	0,046	-0,026
-329,431	53,152	0,050	-0,035
-328,416	40,510	-0,103	-0,066
-327,402	245,302	0,064	-0,077
-326,387	-174,450	-0,222	0,004
-325,372	-68,901	0,057	0,016
-324,358	-200,000	-0,010	-0,095
-323,343	112,610	0,149	0,129
-322,329	-136,102	0,074	0,006
-321,314	192,973	-0,103	0,112
-320,299	-41,679	0,093	-0,034
-319,285	-61,047	-0,050	0,015
-318,270	-200,000	-0,012	-0,115
-317,256	-200,000	0,024	0,141
-316,241	-200,000	-0,002	0,086
-315,226	632,900	0,046	0,084
-314,212	-200,000	0,008	0,105
-313,197	206,589	-0,075	0,084
-312,183	175,333	-0,061	0,063
-311,168	145,969	-0,039	-0,037
-310,153	517,360	0,030	0,050
-309,139	800,000	-0,005	0,010
-308,124	-200,000	0,016	0,081
-307,110	4,629	0,084	-0,044
-306,095	581,118	-0,024	0,042
-305,080	-16,046	-0,043	0,019
-304,066	-200,000	-0,022	0,098
-303,051	-92,681	-0,133	0,026
-302,037	-200,000	-0,007	0,033
-301,022	-200,000	-0,010	0,034
-300,008	-200,000	-0,045	0,233
-298,993	800,000	-0,012	0,035
-297,978	342,022	-0,062	0,087
-296,964	130,841	0,015	0,014
-295,949	-200,000	-0,031	-0,098
-294,935	-200,000	-0,029	0,114
-293,920	-200,000	0,030	-0,158
-292,905	233,449	0,064	0,075
-291,891	800,000	0,066	-0,160
-290,876	131,754	0,068	-0,062
-289,862	-16,872	-0,103	0,046
-288,847	-200,000	0,046	-0,173
-287,832	-200,000	-0,035	-0,205
-286,818	-43,304	-0,026	-0,009
-285,803	25,134	0,098	0,058
-284,789	93,106	0,041	0,033
-283,774	6,854	0,180	0,095
-282,759	-66,593	-0,066	-0,019
-281,745	-42,596	0,110	-0,040
-280,730	393,380	-0,057	0,084
-279,716	-14,874	0,046	-0,021
-278,701	-160,721	-0,038	0,001
-277,686	800,000	-0,039	-0,116
-276,672	800,000	-0,050	0,142
-275,657	-177,237	-0,121	0,002
-274,643	-200,000	0,012	-0,064
-273,628	-143,333	-0,019	-0,001
-272,613	124,920	-0,014	-0,012
-271,599	23,984	0,037	-0,022
-270,584	-200,000	0,001	0,112
-269,570	311,953	0,063	0,084
-268,555	398,414	-0,033	-0,049
-267,540	-200,000	-0,003	-0,046
-266,526	96,656	-0,064	-0,052
-265,511	-78,437	-0,089	-0,022
-264,497	-200,000	-0,008	0,092
-263,482	-200,000	-0,003	0,075
-262,467	95,007	0,131	0,107
-261,453	-119,960	-0,123	0,015
-260,438	-200,000	0,006	0,101
-259,424	5,561	0,074	0,039
-258,409	149,611	-0,130	0,126
-257,395	-131,141	0,068	-0,006
-256,380	800,000	0,023	0,072
-255,365	-200,000	0,016	-0,108
-254,351	-68,988	0,079	0,022
-253,336	129,341	-0,059	-0,054
-252,322	-200,000	0,038	-0,146
-251,307	383,218	-0,121	-0,178
-250,292	800,000	0,039	-0,105
-249,278	236,331	0,064	-0,076
-248,263	105,574	0,026	-0,022
-247,249	3,969	0,004	-0,002
-246,234	285,575	-0,017	0,021
-245,219	800,000	-0,043	-0,128
-244,205	800,000	-0,061	-0,157
-243,190	-200,000	-0,031	0,188
-242,176	-180,980	0,092	-0,001
-241,161	-54,506	0,189	0,061
-240,146	800,000	0,060	0,146
-239,132	120,335	-0,026	-0,023
-238,117	-134,690	-0,069	-0,006
-237,103	645,577	0,072	-0,132
-236,088	800,000	0,062	0,127
-235,073	-138,628	0,064	-0,005
-234,059	-200,000	-0,009	-0,150
-233,044	-200,000	0,029	0,095
-232,030	30,988	-0,206	0,126
-231,015	708,413	0,037	-0,070
-230,000	749,289	0,055	-0,107
-228,986	-200,000	0,004	-0,123
-227,971	800,000	0,030	0,060
-226,957	-200,000	0,045	0,159
-225,942	2,019	0,052	-0,026
-224,927	-102,996	0,053	-0,009
-223,913	-79,855	-0,106	-0,025
-222,898	-31,524	0,127	-0,051
-221,884	37,053	0,070	-0,044
-220,869	647,663	0,029	0,053
-219,855	-103,688	-0,080	0,013
-218,840	-200,000	-0,025	0,092
-217,825	7,612	0,153	-0,081
-216,811	146,156	0,090	0,086
-215,796	-64,759	-0,070	-0,020
-214,782	254,715	-0,067	-0,082
-213,767	800,000	-0,014	0,038
-212,752	800,000	0,030	0,081
-211,738	-187,404	0,059	0,001
-210,723	800,000	-0,039	0,096
-209,709	-28,475	-0,033	-0,013
-208,694	120,239	0,033	0,029
-207,679	-94,523	-0,095	-0,018
-206,665	-69,426	0,126	-0,034
-205,650	800,000	-0,005	0,012
-204,636	30,652	0,147	0,089
-203,621	66,879	-0,143	0,103
-202,606	-200,000	-0,020	0,119
-201,592	-200,000	0,023	-0,094
-200,577	12,297	-0,091	0,050
-199,563	-97,285	0,059	-0,011
-198,548	-164,911	0,053	0,002
-197,533	143,370	0,115	0,109
-196,519	249,844	-0,101	0,122
-195,504	523,313	-0,083	-0,139
-194,490	-157,276	-0,118	0,005
-193,475	80,895	-0,080	0,061
-192,460	-200,000	-0,027	0,154
-191,446	108,604	0,088	0,075
-190,431	267,585	0,087	0,108
-189,417	-41,565	0,060	0,022
-188,402	351,287	-0,055	0,077
-187,387	800,000	-0,019	-0,051
-186,373	-158,429	-0,070	0,003
-185,358	-156,523	0,102	0,004
-184,344	-10,014	-0,106	0,050
-183,329	77,723	0,044	0,033
-182,315	-160,842	0,046	-0,002
-181,300	-200,000	-0,004	0,034
-180,285	-7,252	-0,089	-0,043
-179,271	800,000	-0,062	-0,149
-178,256	-200,000	0,017	-0,196
-177,242	-119,311	0,116	-0,014
-176,227	-68,700	0,036	-0,010
-175,212	226,506	0,068	0,079
-174,198	460,045	-0,057	0,091
-173,183	800,000	0,017	0,035
-172,169	130,977	0,047	-0,043
-171,154	-200,000	-0,021	-0,140
-170,139	546,678	0,054	0,093
-169,125	800,000	-0,069	-0,151
-168,110	-37,737	-0,063	-0,024
-167,096	-7,855	-0,051	-0,025
-166,081	800,000	0,063	0,171
-165,066	394,441	-0,085	-0,126
-164,052	-31,346	-0,086	-0,034
-163,037	757,200	-0,076	0,148
-162,023	-31,366	0,098	-0,039
-161,008	-63,498	0,101	-0,029
-159,993	800,000	-0,027	0,064
-158,979	-200,000	0,023	0,094
-157,964	785,865	-0,045	-0,088
-156,950	28,104	0,142	-0,085
-155,935	61,279	0,068	0,048
-154,920	502,725	0,077	-0,127
-153,906	-200,000	-0,050	0,172
-152,891	-55,262	-0,101	-0,032
-151,877	-24,147	-0,051	0,021
-150,862	800,000	-0,027	-0,058
-149,847	531,029	-0,033	0,055
-148,833	24,065	0,049	0,029
-147,818	-200,000	0,022	0,106
-146,804	415,688	-0,021	0,032
-145,789	115,926	0,077	-0,067
-144,775	709,285	0,073	-0,137
-143,760	-72,147	-0,058	-0,015
-142,745	800,000	0,049	-0,138
-141,731	205,299	0,056	0,062
-140,716	262,001	-0,082	0,102
-139,702	251,919	-0,052	-0,062
-138,687	-200,000	0,014	0,103
-137,672	1,252	-0,018	-0,009
-136,658	-200,000	0,016	-0,067
-135,643	-19,988	-0,053	-0,023
-134,629	132,645	0,051	-0,047
-133,614	-200,000	0,001	0,089
-132,599	29,232	0,108	0,065
-131,585	162,761	0,095	0,095
-130,570	153,776	0,011	-0,010
-129,556	14,753	-0,052	-0,029
-128,541	-144,885	-0,125	0,008
-127,526	-200,000	0,003	0,059
-126,512	-3,515	-0,009	0,004
-125,497	33,954	-0,113	0,070
-124,483	1,373	0,014	-0,007
-123,468	-66,405	0,046	0,013
-122,453	-200,000	-0,011	0,051
-121,439	279,476	-0,079	0,101
-120,424	-200,000	-0,004	0,029
-119,410	-38,799	0,070	-0,026
-118,395	260,048	-0,089	0,109
-117,380	800,000	0,027	0,076
-116,366	-80,991	0,064	-0,015
-115,351	-187,946	-0,128	-0,001
-114,337	-66,366	-0,118	-0,033
-113,322	-164,740	-0,098	0,003
-112,307	-200,000	-0,006	0,086
-111,293	-200,000	0,030	0,192
-110,278	-200,000	-0,017	0,084
-109,264	-200,000	0,002	-0,009
-108,249	134,991	-0,136	0,125
-107,234	-200,000	0,044	0,147
-106,220	412,537	0,077	0,117
-105,205	186,208	0,107	-0,113
-104,191	228,093	-0,053	-0,062
-103,176	17,641	0,038	0,021
-102,162	-106,735	0,128	-0,020
-101,147	592,879	-0,064	-0,112
-100,132	-4,764	0,020	-0,010
-99,118	6,117	-0,066	0,034
-98,103	-200,000	0,003	-0,019
-97,089	382,040	0,017	0,025
-96,074	25,538	0,070	-0,041
-95,059	24,131	0,051	0,030
-94,045	199,363	0,067	0,073
-93,030	112,850	-0,045	0,039
-92,016	-88,410	-0,048	-0,010
-91,001	-5,854	-0,019	0,009
-89,986	-156,643	-0,013	0,001
-88,972	-45,637	-0,039	0,014
-87,957	-98,353	0,157	-0,028
-86,943	-200,000	-0,034	0,118
-85,928	-115,146	-0,010	-0,001
-84,913	-200,000	0,011	0,034
-83,899	278,079	-0,080	0,101
-82,884	800,000	0,042	-0,114
-81,870	345,811	0,103	0,144
-80,855	-200,000	0,040	0,136
-79,840	-200,000	0,018	0,076
-78,826	-35,102	-0,190	-0,073
-77,811	-200,000	0,028	-0,107
-76,797	800,000	-0,031	0,093
-75,782	-200,000	-0,005	-0,048
-74,767	266,676	0,042	0,052
-73,753	-45,806	0,047	-0,016
-72,738	39,907	-0,026	0,016
-71,724	800,000	-0,030	-0,093
-70,709	329,227	-0,064	-0,087
-69,694	-200,000	0,007	-0,059
-68,680	15,330	-0,068	0,038
-67,665	40,100	-0,082	-0,052
-66,651	676,415	0,023	0,043
-65,636	-200,000	-0,005	-0,019
-64,622	800,000	0,030	0,077
-63,607	576,542	-0,028	0,049
-62,592	138,357	-0,162	-0,151
-61,578	-35,493	0,031	0,012
-60,563	-128,818	0,117	-0,012
-59,549	507,759	0,028	0,046
-58,534	-70,428	-1,365	-0,364
-57,519	385,418	-1,437	-2,104
-56,505	-200,000	-0,493	-4,566
-55,490	165,296	1,006	1,007
-54,476	800,000	4,785	11,118
-53,461	-200,000	18,360	290,203
-52,446	800,000	728,397	2236,901
-51,432	556,168	1644,339	2814,923
-50,417	79,119	1665,673	1261,931
-49,403	22,659	1539,483	889,892
-48,388	16,673	1462,547	816,432
-47,373	17,828	1452,493	816,346
-46,359	17,177	1442,848	807,783
-45,344	14,900	1438,473	794,429
-44,330	14,842	1436,496	793,028
-43,315	14,816	1434,719	791,894
-42,300	14,841	1433,233	791,160
-41,286	14,903	1431,965	790,724
-40,271	14,873	1430,756	789,881
-39,257	14,869	1429,645	789,220
-38,242	14,889	1428,112	788,434
-37,227	14,976	1426,753	788,066
-36,213	14,957	1425,679	787,350
-35,198	14,890	1424,612	786,413
-34,184	14,932	1423,679	786,066
-33,169	14,889	1422,279	785,061
-32,154	14,930	1421,311	784,685
-31,140	14,945	1419,804	783,896
-30,125	14,995	1418,741	783,511
-29,111	14,927	1417,701	782,587
-28,096	14,886	1416,584	781,745
-27,082	14,866	1415,388	780,961
-26,067	14,841	1414,257	780,190
-25,052	14,844	1413,215	779,597
-24,038	14,787	1412,348	778,821
-23,023	14,825	1411,302	778,392
-22,009	14,793	1410,159	777,578
-20,994	14,767	1409,518	777,073
-19,979	14,787	1408,505	776,579
-18,965	14,751	1407,491	775,818
-17,950	14,775	1406,672	775,449
-16,936	14,722	1405,752	774,663
-15,921	14,742	1404,383	773,971
-14,906	14,736	1403,573	773,466
-13,892	14,746	1402,663	772,984
-12,877	14,707	1402,109	772,463
-11,863	14,745	1401,100	772,055
-10,848	14,724	1399,926	771,281
-9,833	14,737	1399,015	770,809
-8,819	14,653	1398,456	770,080
-7,804	14,653	1397,359	769,443
-6,790	14,655	1396,234	768,803
-5,775	14,609	1395,200	767,989
-4,760	14,635	1394,439	767,659
-3,746	14,669	1393,672	767,366
-2,731	14,645	1392,670	766,674
-1,717	14,656	1391,796	766,211
-0,702	14,645	1390,015	765,152
0,313	18,348	1308,852	737,638
1,327	34,571	706,325	435,639
2,342	53,068	124,395	84,108
3,356	0,474	16,623	8,375
4,371	0,349	3,262	1,642
5,386	21,509	0,502	0,288
6,400	800,000	0,068	0,171
7,415	178,540	-0,157	-0,162
8,429	-45,850	-0,116	-0,040
9,444	27,942	-0,394	-0,235
10,459	-41,659	-0,370	-0,134
11,473	31,644	-0,263	-0,160
12,488	105,990	-0,221	-0,185
13,502	53,979	-0,329	-0,223
14,517	-120,615	-0,345	-0,041
15,531	58,783	-0,324	-0,225
16,546	64,035	-0,269	-0,191
17,561	120,203	-0,303	-0,266
18,575	36,201	-0,153	-0,095
19,590	70,743	-0,294	-0,215
20,604	34,675	-0,267	-0,164
21,619	135,123	-0,393	-0,360
22,634	-9,827	-0,442	-0,207
23,648	47,108	-0,374	-0,245
24,663	76,767	-0,374	-0,280
25,677	76,763	-0,350	-0,262
26,692	355,151	-0,235	-0,331
27,707	134,786	-0,310	-0,284
28,721	175,698	-0,397	-0,407
29,736	73,868	-0,390	-0,288
30,750	116,082	-0,441	-0,381
31,765	89,926	-0,315	-0,248
32,780	6,623	-0,320	-0,167
33,794	264,548	-0,237	-0,291
34,809	-51,261	-0,460	-0,151
35,823	54,927	-0,253	-0,172
36,838	-39,781	-0,400	-0,147
37,853	66,216	-0,407	-0,291
38,867	149,951	-0,303	-0,289
39,882	114,395	-0,407	-0,349
40,896	-18,190	-0,326	-0,143
41,911	15,328	-0,370	-0,204
42,926	-49,832	-0,327	-0,109
43,940	10,606	-0,322	-0,172
44,955	68,981	-0,336	-0,243
45,969	62,634	-0,330	-0,232
46,984	100,197	-0,295	-0,241
47,999	131,391	-0,241	-0,219
49,013	2,415	-0,325	-0,165
50,028	123,989	-0,370	-0,327
51,042	-76,993	-0,318	-0,078
52,057	108,880	-0,377	-0,318
53,071	-61,281	-0,384	-0,113
54,086	-19,685	-0,348	-0,151
55,101	181,925	-0,196	-0,203
56,115	-10,382	-0,375	-0,174
57,130	-60,465	-0,385	-0,114
58,144	63,871	-0,502	-0,355
59,159	269,124	-0,351	-0,435
60,174	142,440	-0,383	-0,358
61,188	-1,485	-0,326	-0,161
62,203	61,650	-0,337	-0,236
63,217	6,896	-0,393	-0,205
64,232	83,760	-0,285	-0,218
65,247	7,418	-0,367	-0,193
66,261	-58,258	-0,360	-0,110
67,276	70,547	-0,348	-0,253
68,290	-44,517	-0,406	-0,142
69,305	15,969	-0,328	-0,181
70,320	16,733	-0,313	-0,173
71,334	105,690	-0,292	-0,243
72,349	104,558	-0,236	-0,195
73,363	-0,318	-0,348	-0,173
74,378	243,429	-0,284	-0,335
75,393	280,004	-0,279	-0,351
76,407	-80,390	-0,332	-0,077
77,422	41,982	-0,288	-0,183
78,436	-9,198	-0,357	-0,167
79,451	114,698	-0,340	-0,291
80,466	-40,323	-0,267	-0,097
81,480	58,850	-0,385	-0,266
82,495	-50,226	-0,219	-0,072
83,509	89,289	-0,241	-0,189
84,524	-120,978	-0,243	-0,028
85,539	-51,220	-0,392	-0,128
86,553	79,321	-0,171	-0,129
87,568	119,731	-0,273	-0,238
88,582	109,133	-0,369	-0,310
89,597	79,721	-0,374	-0,281
90,611	85,472	-0,253	-0,195
91,626	-46,159	-0,174	-0,060
92,641	-18,843	-0,296	-0,129
93,655	-37,258	-0,414	-0,154
94,670	36,887	-0,182	-0,113
95,684	-21,935	-0,334	-0,142
96,699	2,076	-0,290	-0,146
97,714	227,677	-0,235	-0,269
98,728	9,162	-0,164	-0,087
99,743	196,114	-0,147	-0,157
100,757	32,501	-0,374	-0,226
101,772	226,519	-0,245	-0,280
102,787	61,444	-0,366	-0,255
103,801	54,386	-0,299	-0,202
104,816	166,096	-0,244	-0,242
105,830	31,849	-0,354	-0,214
106,845	-55,930	-0,246	-0,076
107,860	53,199	-0,186	-0,125
108,874	71,690	-0,249	-0,181
109,889	210,728	-0,253	-0,279
110,903	327,251	-0,169	-0,227
111,918	81,336	-0,244	-0,185
112,933	151,515	-0,245	-0,234
113,947	61,605	-0,188	-0,131
114,962	-19,761	-0,186	-0,080
115,976	14,074	-0,289	-0,157
116,991	176,450	-0,223	-0,228
118,006	34,610	-0,295	-0,180
119,020	46,327	-0,335	-0,217
120,035	162,193	-0,186	-0,183
121,049	109,417	-0,159	-0,133
122,064	-41,359	-0,215	-0,077
123,079	-45,735	-0,268	-0,092
124,093	-37,318	-0,358	-0,133
125,108	74,400	-0,398	-0,292
126,122	24,562	-0,323	-0,186
127,137	214,507	-0,264	-0,293
128,151	151,491	-0,262	-0,250
129,166	23,045	-0,148	-0,085
130,181	-59,662	-0,262	-0,078
131,195	125,295	-0,274	-0,242
132,210	196,694	-0,307	-0,328
133,224	-31,356	-0,215	-0,084
134,239	39,292	-0,222	-0,139
135,254	59,229	-0,152	-0,105
136,268	51,414	-0,342	-0,227
137,283	458,600	-0,140	-0,218
138,297	79,909	-0,206	-0,155
139,312	58,180	-0,368	-0,252
140,327	22,268	-0,343	-0,195
141,341	31,025	-0,287	-0,172
142,356	-17,716	-0,180	-0,078
143,370	344,863	-0,151	-0,208
144,385	140,239	-0,202	-0,186
145,400	-11,422	-0,110	-0,050
146,414	99,586	-0,302	-0,244
147,429	135,275	-0,323	-0,294
148,443	177,969	-0,198	-0,201
149,458	753,214	-0,147	-0,279
150,473	212,652	-0,149	-0,164
151,487	-2,509	-0,336	-0,164
152,502	17,130	-0,272	-0,150
153,516	-16,368	-0,316	-0,139
154,531	163,291	-0,271	-0,266
155,546	109,766	-0,237	-0,198
156,560	32,680	-0,386	-0,233
157,575	0,454	-0,191	-0,095
158,589	13,598	-0,253	-0,137
159,604	38,486	-0,278	-0,173
160,619	24,759	-0,235	-0,135
161,633	27,262	-0,125	-0,073
162,648	74,416	-0,139	-0,102
163,662	138,153	-0,210	-0,192
164,677	115,647	-0,185	-0,158
165,692	282,623	-0,105	-0,132
166,706	48,900	-0,343	-0,224
167,721	151,436	-0,229	-0,217
168,735	64,970	-0,260	-0,183
169,750	69,809	-0,217	-0,156
170,764	59,564	-0,265	-0,182
171,779	164,374	-0,239	-0,235
172,794	-149,127	-0,123	0,007
173,808	-114,112	-0,191	-0,025
174,823	104,939	-0,242	-0,199
175,837	-32,187	-0,283	-0,110
176,852	76,175	-0,217	-0,160
177,867	15,056	-0,153	-0,083
178,881	-200,000	-0,041	-0,180
179,896	58,724	-0,277	-0,189
180,910	28,817	-0,248	-0,146
181,925	7,846	-0,289	-0,151
182,940	148,675	-0,289	-0,272
183,954	-11,914	-0,314	-0,143
184,969	12,559	-0,158	-0,085
185,983	800,000	-0,121	-0,297
186,998	87,121	-0,204	-0,157
188,013	112,183	-0,252	-0,212
189,027	107,474	-0,265	-0,220
190,042	401,833	-0,190	-0,279
191,056	209,566	-0,134	-0,146
192,071	-165,256	-0,158	-0,005
193,086	-2,389	-0,190	-0,092
194,100	2,599	-0,214	-0,108
195,115	128,950	-0,259	-0,229
196,129	115,250	-0,059	-0,050
197,144	487,947	-0,118	-0,189
198,159	29,738	-0,305	-0,180
199,173	65,072	-0,244	-0,171
200,188	99,839	-0,114	-0,091
201,202	602,885	-0,141	-0,245
202,217	392,334	-0,094	-0,136
203,232	123,303	-0,125	-0,109
204,246	302,389	-0,163	-0,210
205,261	237,745	-0,193	-0,223
206,275	309,143	-0,222	-0,289
207,290	88,431	-0,170	-0,131
208,304	-200,000	-0,032	-0,174
209,319	255,742	-0,186	-0,222
210,334	88,035	-0,249	-0,192
211,348	55,294	-0,285	-0,191
212,363	-58,098	-0,283	-0,085
213,377	-117,775	-0,264	-0,033
214,392	372,576	-0,154	-0,218
215,407	-75,452	-0,241	-0,059
216,421	48,826	-0,248	-0,161
217,436	94,337	-0,183	-0,144
218,450	-25,817	-0,332	-0,135
219,465	125,696	-0,258	-0,226
220,480	69,407	-0,145	-0,104
221,494	115,585	-0,125	-0,106
222,509	15,241	-0,188	-0,102
223,523	-24,353	-0,194	-0,080
224,538	-26,956	-0,215	-0,087
225,553	148,533	-0,173	-0,162
226,567	538,858	-0,136	-0,226
227,582	-200,000	-0,051	-0,237
228,596	94,752	-0,254	-0,200
229,611	-200,000	-0,005	-0,213
230,626	29,377	-0,233	-0,137
231,640	117,693	-0,202	-0,173
232,655	199,787	-0,161	-0,172
233,669	-20,471	-0,260	-0,110
234,684	177,396	-0,168	-0,170
235,699	99,158	-0,195	-0,156
236,713	260,988	-0,169	-0,203
237,728	111,019	-0,179	-0,150
238,742	-15,682	-0,234	-0,103
239,757	23,081	-0,320	-0,182
240,772	800,000	-0,088	-0,212
241,786	81,118	-0,132	-0,099
242,801	-75,696	-0,139	0,034
243,815	686,046	-0,029	-0,053
244,830	800,000	-0,097	-0,234
245,844	96,415	-0,199	-0,158
246,859	-33,836	-0,204	-0,077
247,874	196,219	-0,175	-0,185
248,888	-2,973	-0,169	-0,081
249,903	94,145	-0,175	-0,138
250,917	-158,785	-0,103	-0,004
251,932	-70,829	-0,124	-0,032
252,947	57,628	-0,223	-0,151
253,961	-77,860	-0,237	-0,056
254,976	139,538	-0,156	-0,142
255,990	-62,428	-0,154	-0,044
257,005	34,068	-0,266	-0,160
258,020	252,719	-0,094	-0,111
259,034	-69,731	-0,120	-0,032
260,049	134,343	-0,176	-0,157
261,063	-89,548	-0,205	-0,041
262,078	733,393	-0,226	-0,420
263,093	13,420	-0,238	-0,127
264,107	71,296	-0,181	-0,130
265,122	800,000	-0,082	-0,159
266,136	287,221	-0,080	-0,100
267,151	-13,908	-0,179	-0,080
268,166	272,716	-0,188	-0,230
269,180	290,224	-0,228	-0,287
270,195	-153,748	-0,196	-0,009
271,209	124,437	-0,072	-0,063
272,224	102,550	-0,121	-0,098
273,239	-200,000	-0,034	-0,109
274,253	347,251	-0,097	-0,132
275,268	33,186	-0,232	-0,139
276,282	162,301	-0,191	-0,185
277,297	68,464	-0,312	-0,220
278,312	-30,271	-0,161	-0,063
279,326	-123,140	-0,132	0,014
280,341	29,629	-0,194	-0,114
281,355	142,680	-0,117	-0,108
282,370	125,121	-0,105	-0,092
283,384	296,849	-0,124	-0,157
284,399	800,000	-0,076	-0,161
285,414	149,498	-0,238	-0,223
286,428	115,978	-0,140	-0,119
287,443	-26,354	-0,047	0,019
288,457	-200,000	-0,063	-0,216
289,472	75,637	-0,221	-0,161
290,487	37,209	-0,221	-0,135
291,501	196,225	-0,177	-0,186
292,516	460,306	-0,096	-0,148
293,530	-12,318	-0,130	-0,059
294,545	-200,000	0,012	-0,068
295,560	800,000	0,012	-0,025
296,574	373,447	-0,096	-0,135
297,589	-128,795	-0,099	-0,009
298,603	708,704	-0,087	-0,159
299,618	131,737	-0,159	-0,141
300,633	-200,000	-0,042	-0,277
301,647	-76,536	-0,118	-0,028
302,662	201,033	-0,062	-0,066
303,676	-120,154	-0,219	-0,025
304,691	244,442	-0,076	-0,088
305,706	8,073	-0,144	-0,074
306,720	156,780	-0,201	-0,192
307,735	91,083	-0,208	-0,160
308,749	-49,390	-0,111	0,036
309,764	-19,086	-0,183	-0,078
310,779	-14,775	-0,139	-0,061
311,793	-147,809	-0,213	-0,012
312,808	-13,889	-0,251	-0,111
313,822	325,368	-0,106	-0,140
314,837	694,664	-0,154	-0,280
315,852	-44,577	-0,270	-0,092
316,866	-51,762	-0,116	-0,037
317,881	-37,611	-0,136	-0,050
318,895	-114,363	-0,096	-0,013
319,910	-200,000	-0,007	-0,233
320,925	-136,003	-0,186	-0,015
321,939	-46,440	-0,146	-0,049
322,954	318,155	-0,061	-0,080
323,968	0,493	-0,082	-0,040
324,983	-51,634	-0,123	-0,039
325,997	152,584	-0,121	-0,114
327,012	48,694	-0,180	-0,116
328,027	-98,450	-0,229	-0,040
329,041	-127,079	-0,157	0,016
330,056	341,581	-0,049	-0,066
331,070	-200,000	0,025	-0,087
332,085	-140,692	-0,083	-0,006
333,100	61,567	-0,183	-0,125
334,114	-75,646	-0,129	-0,031
335,129	-59,131	-0,261	-0,077
336,143	800,000	-0,075	-0,149
337,158	72,051	-0,060	-0,043
338,173	18,742	-0,084	-0,046
339,187	335,156	-0,110	-0,147
340,202	233,797	-0,106	-0,121
341,216	12,470	-0,192	-0,101
342,231	-200,000	-0,018	-0,214
343,246	-73,626	-0,149	-0,037
344,260	104,420	-0,197	-0,159
345,275	-152,730	-0,181	-0,009
346,289	-19,314	-0,112	-0,047
347,304	18,175	-0,116	-0,063
348,319	-15,048	-0,220	-0,097
349,333	24,754	-0,208	-0,118
350,348	164,982	0,065	-0,063
351,362	-53,956	-0,131	-0,041
352,377	561,694	-0,054	-0,091
353,392	-73,663	-0,158	-0,039
354,406	-15,246	-0,094	-0,041
355,421	208,975	1316,538	1415,417
356,435	160,816	1477,496	1415,915
