DTS Sentinel unit serial number:	SN410029Multiplexer serial number:	ORYXHardware model number:	OX2-SRSoftware version number:	ORYX F/W v4,00 Oryx Data Collector v3.7.2.0data status	okinstallation	B3 Nyhavnadifferential loss correction	single-endedforward channel	channel 1reverse channel	N/Adate	2023/12/04time	12:17:30forward acquisition time	300,00reverse acquisition time	0,00gamma	499,1914k internal	0,3203k external	0,3203temperature offset calibration	1,0000default loss term (dB/km)	0,3820temperature slope calibration	1,0000multiplexer offset coefficient	1,0000multiplexer slope coefficient	1,0000fibre end	0,00T internal ref (°C)	14,39T ext. ref 1 (°C)	0,09T ext. ref 2 (°C)	0,07length (m)	temperature (°C)	Stokes	anti-Stokes-744,400	82,538	-0,221	-0,174
-743,385	-200,000	0,007	0,351
-742,371	46,979	-0,282	-0,190
-741,356	-200,000	-0,028	0,280
-740,342	288,769	-0,170	-0,225
-739,327	800,000	0,077	0,231
-738,312	24,522	-0,285	-0,171
-737,298	-200,000	0,042	0,189
-736,283	105,409	-0,190	-0,163
-735,269	-200,000	-0,021	0,328
-734,254	99,187	-0,201	-0,169
-733,239	283,724	-0,223	0,292
-732,225	-200,000	-0,037	-0,176
-731,210	-5,072	0,109	0,054
-730,196	-161,895	0,045	-0,002
-729,181	107,747	-0,094	0,081
-728,167	-151,868	0,025	0,001
-727,152	154,184	-0,037	-0,037
-726,137	188,729	-0,064	-0,069
-725,123	-68,348	-0,161	-0,045
-724,108	-100,732	-0,030	-0,005
-723,094	800,000	-0,037	-0,091
-722,079	800,000	-0,057	-0,126
-721,064	93,548	0,064	-0,053
-720,050	-89,672	0,018	0,004
-719,035	-200,000	0,012	0,075
-718,021	800,000	-0,017	0,038
-717,006	-200,000	0,004	-0,086
-715,991	-200,000	-0,040	-0,177
-714,977	-200,000	-0,010	0,058
-713,962	-85,914	-0,127	-0,028
-712,948	-5,258	-0,014	-0,007
-711,933	800,000	-0,045	0,124
-710,918	488,999	0,047	-0,079
-709,904	-200,000	-0,020	-0,137
-708,889	28,291	-0,181	-0,111
-707,875	57,931	-0,038	-0,027
-706,860	261,862	0,095	0,120
-705,845	537,778	-0,038	-0,066
-704,831	-28,409	-0,089	-0,037
-703,816	209,594	-0,039	-0,044
-702,802	247,866	-0,068	0,084
-701,787	175,935	-0,117	-0,124
-700,772	800,000	-0,059	0,158
-699,758	800,000	0,037	-0,106
-698,743	274,163	0,083	-0,107
-697,729	-200,000	-0,008	0,098
-696,714	800,000	0,037	-0,117
-695,699	66,995	-0,120	-0,089
-694,685	214,526	0,059	0,068
-693,670	-150,507	-0,093	0,005
-692,656	274,994	0,034	-0,044
-691,641	-200,000	-0,001	0,018
-690,627	191,174	0,050	-0,055
-689,612	-13,870	-0,146	-0,068
-688,597	56,385	-0,080	0,056
-687,583	-200,000	0,029	-0,108
-686,568	389,849	-0,067	0,101
-685,554	-50,111	-0,120	-0,041
-684,539	80,216	0,049	0,038
-683,524	302,894	0,050	0,068
-682,510	-65,467	-0,105	-0,030
-681,495	336,324	-0,045	0,063
-680,481	214,564	-0,103	-0,118
-679,466	72,930	-0,086	-0,065
-678,451	-200,000	-0,023	0,169
-677,437	-200,000	-0,005	-0,048
-676,422	-139,751	0,195	-0,015
-675,408	-200,000	0,000	-0,045
-674,393	-95,912	-0,076	0,015
-673,378	800,000	-0,054	-0,117
-672,364	-179,797	0,084	0,001
-671,349	-113,707	-0,056	-0,008
-670,335	-112,953	-0,054	0,008
-669,320	800,000	0,029	0,075
-668,305	-200,000	0,020	-0,086
-667,291	259,216	0,053	-0,066
-666,276	214,658	0,014	0,016
-665,262	628,280	-0,042	0,077
-664,247	72,070	0,008	-0,006
-663,232	800,000	-0,028	-0,063
-662,218	-200,000	-0,044	0,152
-661,203	-200,000	-0,017	0,120
-660,189	800,000	-0,074	0,166
-659,174	-200,000	-0,008	-0,105
-658,159	533,077	-0,066	-0,114
-657,145	27,775	0,121	-0,073
-656,130	800,000	-0,014	0,035
-655,116	-200,000	0,122	0,000
-654,101	800,000	-0,068	0,169
-653,086	127,884	-0,112	-0,103
-652,072	-59,352	0,042	-0,013
-651,057	-200,000	0,058	-0,230
-650,043	800,000	0,028	0,071
-649,028	51,057	-0,029	0,020
-648,014	11,930	0,125	-0,069
-646,999	-200,000	-0,008	-0,033
-645,984	79,062	-0,074	0,057
-644,970	442,126	-0,053	-0,084
-643,955	224,271	-0,120	-0,141
-642,941	-6,582	-0,159	0,078
-641,926	147,911	0,052	0,051
-640,911	-200,000	-0,008	0,045
-639,897	-81,453	-0,086	-0,020
-638,882	-200,000	0,003	0,033
-637,868	800,000	0,018	-0,053
-636,853	800,000	-0,018	-0,053
-635,838	-200,000	-0,026	-0,100
-634,824	-200,000	-0,004	-0,050
-633,809	288,434	-0,061	-0,080
-632,795	141,189	0,043	-0,041
-631,780	-66,035	-0,118	0,034
-630,765	800,000	0,034	0,102
-629,751	304,335	-0,079	0,106
-628,736	-115,561	0,074	0,010
-627,722	-100,756	0,060	0,011
-626,707	25,425	0,109	0,065
-625,692	66,440	0,103	0,075
-624,678	-133,511	-0,167	-0,015
-623,663	-64,648	-0,110	-0,032
-622,649	-200,000	0,002	-0,094
-621,634	715,273	-0,010	0,018
-620,619	192,235	0,058	-0,064
-619,605	-200,000	0,039	-0,144
-618,590	-98,584	0,166	0,030
-617,576	-140,798	0,144	-0,011
-616,561	-200,000	-0,029	-0,183
-615,546	146,405	-0,084	-0,081
-614,532	-109,982	-0,084	-0,013
-613,517	134,531	-0,086	-0,081
-612,503	503,379	0,049	-0,082
-611,488	-200,000	-0,002	-0,009
-610,474	-180,931	0,113	0,002
-609,459	63,632	0,086	-0,062
-608,444	800,000	0,016	-0,042
-607,430	-200,000	-0,028	0,110
-606,415	-200,000	-0,010	-0,074
-605,401	377,047	0,030	-0,045
-604,386	-147,763	-0,099	0,006
-603,371	-102,593	0,191	0,033
-602,357	539,296	0,060	-0,104
-601,342	214,058	-0,092	0,106
-600,328	-200,000	-0,021	-0,106
-599,313	-90,938	-0,147	0,030
-598,298	-200,000	-0,018	-0,089
-597,284	704,831	0,047	-0,090
-596,269	-40,031	-0,052	0,019
-595,255	-153,375	-0,074	0,004
-594,240	129,092	-0,152	-0,140
-593,225	-145,424	0,104	0,007
-592,211	122,013	-0,093	0,084
-591,196	-200,000	0,021	-0,068
-590,182	-23,179	0,172	0,074
-589,167	800,000	0,063	0,136
-588,152	-162,994	-0,044	0,001
-587,138	800,000	-0,012	0,034
-586,123	-200,000	0,019	-0,177
-585,109	-200,000	0,005	-0,134
-584,094	-200,000	0,033	-0,170
-583,079	-200,000	-0,000	0,035
-582,065	136,129	0,078	-0,073
-581,050	-200,000	-0,011	-0,036
-580,036	373,615	0,004	0,006
-579,021	-200,000	0,020	-0,090
-578,006	120,779	-0,107	-0,096
-576,992	-85,417	-0,047	0,011
-575,977	800,000	-0,078	-0,197
-574,963	-109,351	-0,153	0,023
-573,948	341,834	-0,058	0,082
-572,934	618,630	-0,021	-0,039
-571,919	-172,661	-0,098	-0,002
-570,904	8,785	-0,070	0,038
-569,890	123,084	0,107	-0,097
-568,875	-187,188	-0,036	-0,000
-567,861	-200,000	-0,025	0,148
-566,846	109,233	0,072	-0,062
-565,831	-200,000	-0,019	-0,065
-564,817	-200,000	-0,011	-0,102
-563,802	455,824	-0,066	-0,106
-562,788	800,000	0,047	-0,095
-561,773	-52,116	-0,061	0,020
-560,758	18,730	0,154	0,089
-559,744	-200,000	0,013	0,160
-558,729	-200,000	-0,032	0,138
-557,715	344,483	-0,088	-0,125
-556,700	800,000	-0,026	-0,069
-555,685	673,721	-0,043	-0,082
-554,671	34,768	0,096	0,060
-553,656	32,357	-0,129	0,080
-552,642	461,345	0,077	0,124
-551,627	-43,026	0,069	-0,025
-550,612	-40,859	-0,052	0,019
-549,598	368,138	0,074	-0,109
-548,583	-200,000	0,001	-0,162
-547,569	245,250	-0,086	-0,104
-546,554	8,179	0,045	0,024
-545,539	-41,925	0,024	0,009
-544,525	-144,755	-0,071	0,005
-543,510	-24,350	-0,061	-0,026
-542,496	-200,000	-0,004	-0,127
-541,481	605,358	-0,070	-0,126
-540,466	-200,000	-0,037	-0,138
-539,452	-27,906	-0,127	0,053
-538,437	240,735	0,055	0,066
-537,423	800,000	-0,047	0,095
-536,408	800,000	0,041	0,090
-535,393	800,000	-0,008	-0,021
-534,379	-82,892	-0,144	0,033
-533,364	599,749	0,041	-0,073
-532,350	52,312	-0,107	0,073
-531,335	54,017	0,063	0,044
-530,321	151,847	0,053	0,052
-529,306	4,242	-0,006	0,003
-528,291	-95,831	0,085	-0,016
-527,277	635,612	-0,018	-0,033
-526,262	-200,000	-0,027	-0,123
-525,248	-200,000	-0,002	0,014
-524,233	-27,774	-0,028	0,012
-523,218	-200,000	-0,028	0,197
-522,204	-200,000	0,005	-0,024
-521,189	-36,089	-0,152	0,059
-520,175	27,080	-0,121	-0,073
-519,160	-122,947	0,061	0,007
-518,145	-27,274	-0,142	-0,059
-517,131	-57,634	0,032	-0,010
-516,116	773,980	-0,060	-0,119
-515,102	-13,376	-0,058	-0,027
-514,087	173,335	0,049	-0,051
-513,072	101,995	-0,030	-0,026
-512,058	-200,000	-0,012	-0,080
-511,043	41,571	-0,057	-0,037
-510,029	61,214	0,083	0,059
-509,014	45,463	0,104	0,069
-507,999	-200,000	-0,021	0,088
-506,985	-60,184	0,119	-0,036
-505,970	58,279	-0,097	-0,068
-504,956	87,303	0,050	-0,040
-503,941	-109,115	-0,107	0,016
-502,926	800,000	0,027	0,062
-501,912	-22,324	0,124	0,054
-500,897	-77,986	-0,121	0,030
-499,883	-19,418	0,011	-0,005
-498,868	27,090	-0,086	-0,052
-497,853	-169,791	-0,165	0,004
-496,839	-153,250	0,053	-0,003
-495,824	-200,000	0,009	0,130
-494,810	-26,793	0,153	0,064
-493,795	-60,700	0,166	0,050
-492,781	-200,000	-0,018	-0,063
-491,766	-200,000	0,041	0,134
-490,751	800,000	0,024	0,056
-489,737	-78,898	0,093	-0,023
-488,722	182,443	0,051	-0,054
-487,708	800,000	-0,043	0,104
-486,693	219,759	-0,094	0,108
-485,678	800,000	-0,013	0,042
-484,664	364,323	-0,037	-0,054
-483,649	-54,150	0,104	0,034
-482,635	374,549	-0,037	0,054
-481,620	800,000	-0,023	0,069
-480,605	-46,416	0,091	0,032
-479,591	93,377	-0,032	-0,026
-478,576	544,801	-0,068	0,118
-477,562	-100,053	-0,080	0,014
-476,547	304,166	0,085	-0,114
-475,532	166,338	-0,079	0,081
-474,518	-23,847	0,140	0,060
-473,503	-156,800	0,109	0,005
-472,489	-118,034	-0,082	0,010
-471,474	-200,000	0,009	-0,081
-470,459	-200,000	-0,003	-0,092
-469,445	-94,745	-0,020	0,004
-468,430	48,825	-0,095	0,064
-467,416	800,000	0,017	0,041
-466,401	-200,000	0,008	-0,082
-465,386	-156,428	0,042	-0,002
-464,372	-147,642	0,031	-0,002
-463,357	-63,466	-0,141	-0,041
-462,343	-64,156	0,094	-0,027
-461,328	-200,000	-0,000	0,020
-460,313	-88,420	-0,043	0,009
-459,299	-71,282	0,084	-0,022
-458,284	131,775	-0,015	0,014
-457,270	70,582	0,079	-0,059
-456,255	-62,320	0,064	-0,019
-455,241	-147,885	0,048	-0,003
-454,226	-124,875	-0,046	0,005
-453,211	-200,000	0,009	-0,122
-452,197	-200,000	0,011	-0,042
-451,182	-200,000	-0,020	0,122
-450,168	-109,940	-0,030	0,005
-449,153	307,268	0,019	0,025
-448,138	-200,000	-0,026	-0,098
-447,124	104,289	0,026	-0,022
-446,109	-200,000	0,010	-0,045
-445,095	-200,000	0,009	-0,083
-444,080	-200,000	-0,039	0,000
-443,065	-60,545	0,077	0,023
-442,051	2,496	-0,030	-0,015
-441,036	-121,021	0,061	0,007
-440,022	-110,890	-0,098	-0,014
-439,007	198,592	0,105	0,115
-437,992	80,022	0,015	-0,011
-436,978	89,012	0,041	0,033
-435,963	788,517	0,022	-0,044
-434,949	-200,000	0,004	0,024
-433,934	-200,000	-0,001	-0,102
-432,919	-64,081	0,100	0,029
-431,905	224,567	0,039	-0,045
-430,890	-74,513	-0,087	0,022
-429,876	316,964	0,051	0,070
-428,861	36,712	0,172	0,109
-427,846	-200,000	0,001	0,170
-426,832	474,808	-0,043	-0,070
-425,817	56,185	-0,084	-0,059
-424,803	-5,528	-0,080	0,039
-423,788	11,155	-0,027	-0,015
-422,773	160,130	0,065	0,065
-421,759	-200,000	-0,008	-0,039
-420,744	-200,000	-0,011	0,050
-419,730	-200,000	-0,007	0,047
-418,715	-175,603	-0,155	-0,003
-417,701	-110,163	0,119	0,018
-416,686	-87,034	-0,112	-0,024
-415,671	800,000	0,054	0,123
-414,657	204,682	-0,021	0,024
-413,642	453,237	-0,034	0,055
-412,628	697,128	0,063	-0,119
-411,613	-200,000	-0,057	-0,282
-410,598	164,978	-0,071	-0,072
-409,584	157,352	-0,049	-0,049
-408,569	-13,759	0,071	-0,033
-407,555	-13,392	-0,069	0,032
-406,540	-76,067	0,048	-0,012
-405,525	-2,489	0,019	-0,010
-404,511	800,000	-0,036	-0,086
-403,496	21,274	-0,072	-0,042
-402,482	773,587	-0,032	-0,062
-401,467	186,410	0,067	0,072
-400,452	-200,000	-0,002	-0,034
-399,438	17,859	0,131	-0,075
-398,423	-200,000	0,015	-0,076
-397,409	800,000	-0,028	0,063
-396,394	15,596	-0,105	-0,059
-395,379	-200,000	0,000	-0,060
-394,365	-200,000	0,004	-0,052
-393,350	-200,000	0,014	0,129
-392,336	-198,497	0,049	0,000
-391,321	80,612	-0,070	0,054
-390,306	-19,379	0,070	-0,031
-389,292	-36,946	-0,193	-0,074
-388,277	73,945	0,113	0,085
-387,263	-181,796	-0,090	-0,001
-386,248	279,631	0,054	-0,070
-385,233	-135,342	0,113	0,010
-384,219	91,067	0,060	0,048
-383,204	270,123	0,057	-0,072
-382,190	-95,424	-0,103	-0,020
-381,175	107,595	-0,031	-0,026
-380,160	152,287	0,077	0,075
-379,146	449,884	0,036	-0,058
-378,131	153,709	-0,039	0,038
-377,117	60,180	-0,055	-0,039
-376,102	-46,154	0,108	-0,038
-375,088	169,750	-0,139	-0,142
-374,073	211,874	-0,032	-0,037
-373,058	461,773	0,051	-0,081
-372,044	168,095	-0,111	-0,113
-371,029	28,409	0,049	0,029
-370,015	-200,000	0,011	0,165
-369,000	449,460	-0,007	-0,011
-367,985	800,000	-0,043	-0,103
-366,971	341,954	0,022	0,030
-365,956	-200,000	0,009	0,041
-364,942	26,596	0,118	0,070
-363,927	-80,638	-0,194	0,046
-362,912	-58,592	0,183	0,057
-361,898	-117,220	-0,092	-0,012
-360,883	270,384	-0,063	0,079
-359,869	800,000	0,045	0,138
-358,854	172,330	0,045	0,046
-357,839	68,816	0,019	-0,014
-356,825	800,000	-0,030	0,065
-355,810	-120,157	0,039	-0,005
-354,796	66,417	-0,061	-0,045
-353,781	-200,000	-0,006	0,099
-352,766	305,841	0,096	-0,128
-351,752	-200,000	-0,005	0,049
-350,737	800,000	0,023	-0,059
-349,723	685,476	0,060	0,113
-348,708	-200,000	-0,013	0,051
-347,693	312,121	0,136	-0,183
-346,679	-47,663	-0,056	0,019
-345,664	-85,735	-0,039	-0,009
-344,650	117,722	-0,019	-0,017
-343,635	800,000	0,010	0,027
-342,620	104,225	0,106	0,090
-341,606	-200,000	-0,011	-0,063
-340,591	-43,100	0,042	0,015
-339,577	56,791	-0,140	-0,097
-338,562	-135,250	-0,150	0,013
-337,548	-32,642	-0,025	-0,010
-336,533	-200,000	-0,003	0,027
-335,518	367,778	0,056	0,081
-334,504	800,000	0,020	-0,049
-333,489	41,934	-0,081	-0,053
-332,475	-110,146	-0,054	0,008
-331,460	800,000	0,032	-0,072
-330,445	119,937	0,042	0,037
-329,431	800,000	0,056	-0,127
-328,416	15,805	0,139	-0,078
-327,402	460,550	0,010	-0,015
-326,387	-200,000	-0,029	0,153
-325,372	800,000	0,056	-0,129
-324,358	402,926	0,060	0,091
-323,343	-83,740	0,131	-0,030
-322,329	-200,000	0,019	-0,075
-321,314	28,195	-0,034	-0,020
-320,299	800,000	-0,004	-0,012
-319,285	382,999	0,092	-0,136
-318,270	275,113	-0,034	-0,043
-317,256	-145,325	0,134	0,009
-316,241	57,626	-0,021	-0,015
-315,226	-90,657	-0,095	-0,019
-314,212	800,000	0,043	0,133
-313,197	800,000	0,015	0,045
-312,183	-160,720	0,137	-0,005
-311,168	-138,051	0,104	-0,008
-310,153	258,390	-0,099	-0,123
-309,139	717,720	0,038	0,073
-308,124	31,804	0,118	0,073
-307,110	368,816	-0,016	0,023
-306,095	-42,642	-0,103	-0,037
-305,080	67,604	-0,024	-0,017
-304,066	86,745	0,059	-0,046
-303,051	461,888	0,017	0,028
-302,037	-200,000	-0,010	-0,049
-301,022	3,526	0,117	0,061
-300,008	178,954	-0,158	0,165
-298,993	137,906	0,077	0,072
-297,978	427,728	0,041	0,063
-296,964	-44,960	-0,059	0,021
-295,949	30,057	0,068	-0,041
-294,935	-117,285	-0,052	-0,007
-293,920	800,000	-0,014	0,043
-292,905	-200,000	0,018	-0,105
-291,891	-200,000	0,017	0,071
-290,876	68,886	-0,145	0,106
-289,862	383,382	0,067	0,099
-288,847	-24,311	-0,055	-0,023
-287,832	-200,000	-0,002	-0,039
-286,818	-119,093	-0,022	-0,003
-285,803	216,262	-0,057	0,065
-284,789	-64,874	0,100	0,029
-283,774	-200,000	0,010	0,110
-282,759	-200,000	0,057	0,259
-281,745	265,261	-0,066	-0,083
-280,730	-200,000	-0,018	0,072
-279,716	196,344	0,099	0,108
-278,701	-59,732	0,125	-0,038
-277,686	19,915	0,227	0,130
-276,672	-200,000	0,018	-0,067
-275,657	-69,074	0,055	-0,015
-274,643	-3,803	-0,120	-0,059
-273,628	39,488	-0,056	-0,035
-272,613	164,243	-0,079	0,079
-271,599	-195,754	0,046	-0,000
-270,584	37,973	-0,072	-0,045
-269,570	131,562	0,084	0,077
-268,555	362,737	0,105	0,152
-267,540	332,955	-0,042	-0,058
-266,526	-200,000	-0,005	-0,080
-265,511	-130,118	-0,210	0,020
-264,497	54,905	-0,111	0,076
-263,482	179,916	-0,067	0,070
-262,467	165,422	-0,037	-0,037
-261,453	-114,544	0,055	0,007
-260,438	393,330	-0,018	0,027
-259,424	-70,167	-0,038	0,010
-258,409	36,079	-0,113	-0,071
-257,395	-35,917	0,042	-0,016
-256,380	-9,820	0,069	0,032
-255,365	-68,655	-0,063	-0,017
-254,351	800,000	-0,027	-0,083
-253,336	711,230	0,018	0,034
-252,322	-70,183	-0,116	0,031
-251,307	-200,000	0,022	0,111
-250,292	-98,911	0,130	0,023
-249,278	7,191	0,169	0,090
-248,263	-168,651	0,085	0,002
-247,249	12,466	0,049	0,027
-246,234	-161,580	-0,076	-0,003
-245,219	-26,244	-0,076	-0,032
-244,205	162,040	-0,068	0,068
-243,190	-41,543	0,091	-0,033
-242,176	-200,000	0,011	0,126
-241,161	158,344	0,084	0,083
-240,146	-98,693	0,074	0,013
-239,132	348,389	-0,047	0,067
-238,117	313,016	-0,084	-0,113
-237,103	800,000	-0,030	0,076
-236,088	421,784	-0,070	-0,107
-235,073	-200,000	0,013	-0,053
-234,059	-73,181	-0,062	0,016
-233,044	-22,641	-0,033	-0,014
-232,030	329,071	-0,020	0,027
-231,015	-112,883	-0,139	0,019
-230,000	-200,000	-0,014	-0,126
-228,986	-200,000	0,030	0,116
-227,971	-125,042	-0,104	0,011
-226,957	405,044	0,081	0,121
-225,942	35,617	0,029	0,018
-224,927	-200,000	-0,049	0,192
-223,913	-110,508	-0,026	0,004
-222,898	1,598	-0,095	0,049
-221,884	317,034	-0,055	-0,075
-220,869	800,000	0,074	0,207
-219,855	204,870	0,084	0,093
-218,840	96,814	-0,049	-0,040
-217,825	800,000	0,055	0,137
-216,811	800,000	-0,043	0,085
-215,796	-200,000	0,025	0,080
-214,782	149,936	0,092	-0,089
-213,767	-200,000	0,010	-0,096
-212,752	-69,815	0,043	0,012
-211,738	-162,084	0,164	-0,006
-210,723	193,487	-0,067	0,072
-209,709	-84,002	-0,108	-0,024
-208,694	244,009	-0,044	-0,052
-207,679	504,052	0,016	-0,027
-206,665	-64,333	0,044	-0,013
-205,650	142,123	-0,069	0,065
-204,636	92,852	0,129	0,103
-203,621	-18,261	-0,022	0,010
-202,606	-156,554	-0,018	-0,001
-201,592	123,765	-0,080	-0,071
-200,577	-78,957	-0,044	0,010
-199,563	-56,188	-0,100	0,032
-198,548	55,624	0,104	0,072
-197,533	25,249	-0,064	0,037
-196,519	-125,106	0,054	-0,006
-195,504	321,456	0,020	-0,027
-194,490	724,057	-0,056	-0,107
-193,475	-200,000	-0,004	-0,059
-192,460	-200,000	-0,019	-0,207
-191,446	-36,197	-0,107	0,041
-190,431	2,361	-0,055	-0,028
-189,417	84,764	0,070	0,055
-188,402	23,847	-0,100	0,058
-187,387	293,739	0,040	-0,052
-186,373	737,105	-0,037	-0,071
-185,358	-200,000	0,026	0,157
-184,344	-73,928	0,178	-0,046
-183,329	800,000	-0,035	0,101
-182,315	800,000	-0,013	-0,040
-181,300	-200,000	-0,004	0,089
-180,285	-130,110	-0,098	0,009
-179,271	800,000	0,039	-0,083
-178,256	800,000	-0,029	-0,080
-177,242	-120,677	-0,056	0,007
-176,227	197,739	0,059	0,064
-175,212	29,428	0,023	-0,014
-174,198	-200,000	0,009	0,141
-173,183	-200,000	0,002	-0,121
-172,169	619,962	-0,049	-0,088
-171,154	-200,000	-0,008	-0,069
-170,139	-171,222	0,065	-0,002
-169,125	-83,960	0,099	-0,022
-168,110	-91,181	0,051	-0,010
-167,096	-166,227	0,052	-0,002
-166,081	-3,029	-0,037	-0,018
-165,066	227,420	0,027	0,031
-164,052	-21,796	0,130	0,056
-163,037	170,215	0,054	0,055
-162,023	-154,147	0,178	-0,008
-161,008	-200,000	-0,018	0,111
-159,993	6,199	0,161	0,085
-158,979	-200,000	-0,005	0,046
-157,964	-94,639	-0,168	-0,032
-156,950	23,054	0,135	-0,079
-155,935	140,896	-0,081	0,076
-154,920	-21,926	0,020	0,009
-153,906	341,344	0,076	0,106
-152,891	-200,000	0,039	0,166
-151,877	422,949	-0,064	0,098
-150,862	800,000	0,009	0,023
-149,847	38,944	0,037	0,024
-148,833	-200,000	0,003	0,096
-147,818	-92,727	0,154	0,030
-146,804	-111,139	0,097	0,014
-145,789	16,484	0,052	0,029
-144,775	-200,000	-0,025	-0,148
-143,760	-200,000	0,024	-0,134
-142,745	112,999	0,052	-0,045
-141,731	40,946	0,055	0,035
-140,716	117,804	-0,145	-0,127
-139,702	704,898	0,053	-0,099
-138,687	671,819	-0,038	-0,070
-137,672	110,996	-0,064	0,055
-136,658	-150,761	-0,153	-0,008
-135,643	-200,000	0,022	-0,153
-134,629	-22,442	-0,118	-0,051
-133,614	145,886	0,095	0,090
-132,599	-200,000	-0,001	-0,055
-131,585	-200,000	-0,024	0,094
-130,570	68,621	-0,111	0,080
-129,556	38,159	-0,039	0,025
-128,541	387,269	-0,047	-0,069
-127,526	-98,738	-0,098	0,017
-126,512	27,602	0,138	0,082
-125,497	48,586	0,109	0,072
-124,483	-200,000	-0,015	-0,164
-123,468	800,000	-0,066	-0,139
-122,453	73,559	-0,018	0,013
-121,439	-131,494	0,005	0,000
-120,424	-171,780	-0,103	0,002
-119,410	561,677	0,032	0,054
-118,395	-22,428	0,168	-0,072
-117,380	381,484	0,068	0,099
-116,366	800,000	0,052	0,145
-115,351	-200,000	0,010	0,050
-114,337	-99,028	-0,050	-0,009
-113,322	-200,000	0,021	-0,078
-112,307	-200,000	-0,034	0,144
-111,293	-17,188	0,117	0,052
-110,278	-107,444	0,055	0,009
-109,264	-77,899	0,119	0,029
-108,249	-200,000	0,005	-0,072
-107,234	198,618	-0,147	-0,160
-106,220	43,800	-0,106	0,069
-105,205	117,482	0,119	-0,104
-104,191	-162,669	0,126	0,004
-103,176	-200,000	0,027	0,090
-102,162	354,506	0,044	0,062
-101,147	-64,346	-0,123	0,035
-100,132	800,000	-0,079	-0,169
-99,118	-200,000	-0,020	0,099
-98,103	-129,587	0,153	0,015
-97,089	-46,902	0,028	0,010
-96,074	800,000	-0,062	0,148
-95,059	-116,085	0,108	0,014
-94,045	-22,367	0,093	-0,040
-93,030	210,244	-0,098	0,109
-92,016	289,718	0,078	-0,100
-91,001	741,496	-0,019	0,036
-89,986	-140,198	-0,078	0,006
-88,972	-200,000	-0,006	0,102
-87,957	-36,975	0,106	-0,040
-86,943	-132,209	-0,045	0,004
-85,928	455,069	0,051	-0,080
-84,913	166,857	-0,111	-0,112
-83,899	-200,000	0,037	-0,144
-82,884	-105,247	-0,009	-0,001
-81,870	800,000	-0,019	0,039
-80,855	118,649	-0,153	-0,134
-79,840	-200,000	-0,010	-0,116
-78,826	-36,569	-0,068	0,026
-77,811	723,655	0,043	0,082
-76,797	-200,000	-0,010	-0,056
-75,782	-71,288	0,018	0,005
-74,767	-200,000	-0,012	0,088
-73,753	800,000	-0,031	-0,097
-72,738	-200,000	-0,012	0,051
-71,724	189,981	-0,076	-0,081
-70,709	293,915	-0,098	-0,127
-69,694	312,653	0,055	-0,074
-68,680	-200,000	0,006	-0,057
-67,665	-131,553	0,204	-0,019
-66,651	498,797	0,073	-0,119
-65,636	361,359	0,045	-0,064
-64,622	-200,000	-0,019	-0,148
-63,607	-200,000	0,004	0,018
-62,592	380,902	0,028	0,040
-61,578	-20,480	-0,169	0,073
-60,563	-200,000	-0,012	-0,064
-59,549	194,195	-0,048	0,051
-58,534	-53,589	-1,582	-0,509
-57,519	375,876	-1,468	-2,125
-56,505	-200,000	-0,583	-4,531
-55,490	233,803	0,914	1,066
-54,476	800,000	4,724	10,978
-53,461	-200,000	18,534	297,604
-52,446	800,000	731,531	2258,197
-51,432	559,074	1647,616	2825,197
-50,417	78,805	1667,803	1261,379
-49,403	22,302	1540,928	888,513
-48,388	16,277	1463,844	814,863
-47,373	17,725	1453,911	816,282
-46,359	16,945	1444,147	807,032
-45,344	14,483	1439,671	792,740
-44,330	14,441	1437,562	791,346
-43,315	14,441	1436,062	790,490
-42,300	14,476	1434,351	789,680
-41,286	14,500	1433,070	789,060
-40,271	14,485	1431,730	788,217
-39,257	14,463	1430,518	787,417
-38,242	14,522	1429,280	786,983
-37,227	14,515	1427,904	786,159
-36,213	14,458	1426,898	785,304
-35,198	14,491	1425,670	784,756
-34,184	14,504	1424,769	784,292
-33,169	14,451	1423,512	783,317
-32,154	14,493	1422,391	782,867
-31,140	14,496	1420,821	781,987
-30,125	14,512	1419,737	781,431
-29,111	14,536	1418,570	780,872
-28,096	14,482	1417,598	780,053
-27,082	14,474	1416,464	779,360
-26,067	14,419	1415,594	778,590
-25,052	14,450	1414,389	778,046
-24,038	14,385	1413,789	777,377
-23,023	14,400	1412,479	776,698
-22,009	14,423	1411,380	776,171
-20,994	14,420	1410,560	775,676
-19,979	14,372	1409,631	774,905
-18,965	14,352	1408,634	774,235
-17,950	14,339	1407,818	773,696
-16,936	14,374	1406,906	773,326
-15,921	14,287	1405,818	772,293
-14,906	14,372	1404,683	772,036
-13,892	14,351	1403,870	771,461
-12,877	14,342	1402,924	770,868
-11,863	14,334	1402,082	770,336
-10,848	14,290	1401,183	769,605
-9,833	14,249	1400,477	769,001
-8,819	14,257	1399,339	768,380
-7,804	14,222	1398,648	767,808
-6,790	14,246	1397,297	767,148
-5,775	14,252	1396,367	766,635
-4,760	14,229	1395,547	766,046
-3,746	14,253	1394,687	765,654
-2,731	14,267	1394,022	765,324
-1,717	14,187	1393,033	764,381
-0,702	14,241	1391,306	763,654
0,313	18,023	1309,936	736,509
1,327	34,458	705,989	434,977
2,342	53,179	124,215	83,992
3,356	3,455	16,618	8,535
4,371	-0,065	3,354	1,683
5,386	41,705	0,559	0,357
6,400	800,000	0,097	0,257
7,415	-64,982	-0,208	-0,059
8,429	159,697	-0,287	-0,283
9,444	-7,533	-0,399	-0,190
10,459	-60,668	-0,342	-0,102
11,473	156,824	-0,170	-0,166
12,488	180,704	-0,301	-0,313
13,502	-133,238	-0,347	0,031
14,517	-34,982	-0,337	-0,129
15,531	101,485	-0,320	-0,263
16,546	-63,823	-0,376	-0,108
17,561	95,208	-0,360	-0,289
18,575	37,315	-0,177	-0,111
19,590	218,190	-0,322	-0,363
20,604	211,008	-0,165	-0,184
21,619	82,096	-0,296	-0,226
22,634	65,367	-0,547	-0,390
23,648	62,168	-0,494	-0,347
24,663	116,124	-0,438	-0,378
25,677	-44,088	-0,340	-0,120
26,692	-12,040	-0,365	-0,168
27,707	-60,614	-0,248	-0,074
28,721	148,833	-0,436	-0,416
29,736	22,715	-0,401	-0,231
30,750	112,133	-0,427	-0,364
31,765	39,597	-0,444	-0,280
32,780	170,420	-0,334	-0,337
33,794	76,850	-0,332	-0,248
34,809	-12,068	-0,361	-0,166
35,823	35,968	-0,352	-0,218
36,838	-25,054	-0,391	-0,163
37,853	78,367	-0,335	-0,252
38,867	250,468	-0,324	-0,389
39,882	137,242	-0,332	-0,306
40,896	183,799	-0,321	-0,335
41,911	206,431	-0,251	-0,276
42,926	-54,319	-0,397	-0,126
43,940	109,176	-0,253	-0,213
44,955	191,487	-0,379	-0,403
45,969	101,922	-0,340	-0,279
46,984	177,478	-0,227	-0,234
47,999	117,917	-0,331	-0,288
49,013	96,140	-0,287	-0,231
50,028	23,917	-0,302	-0,175
51,042	134,915	-0,367	-0,336
52,057	132,183	-0,328	-0,298
53,071	269,527	-0,274	-0,339
54,086	103,243	-0,304	-0,251
55,101	113,492	-0,238	-0,203
56,115	34,091	-0,327	-0,200
57,130	109,125	-0,281	-0,236
58,144	50,107	-0,357	-0,237
59,159	17,799	-0,427	-0,238
60,174	12,296	-0,497	-0,269
61,188	7,074	-0,319	-0,167
62,203	58,274	-0,314	-0,216
63,217	34,048	-0,312	-0,191
64,232	98,938	-0,368	-0,298
65,247	112,560	-0,315	-0,268
66,261	25,135	-0,432	-0,251
67,276	16,557	-0,419	-0,232
68,290	262,840	-0,257	-0,314
69,305	-19,063	-0,307	-0,133
70,320	119,260	-0,327	-0,284
71,334	181,458	-0,235	-0,243
72,349	212,034	-0,299	-0,332
73,363	283,407	-0,295	-0,374
74,378	77,329	-0,318	-0,237
75,393	-104,021	-0,227	-0,037
76,407	-106,382	-0,328	-0,051
77,422	140,339	-0,249	-0,231
78,436	293,983	-0,227	-0,292
79,451	119,513	-0,290	-0,252
80,466	123,073	-0,320	-0,282
81,480	41,125	-0,382	-0,242
82,495	83,991	-0,279	-0,214
83,509	3,914	-0,306	-0,156
84,524	165,409	-0,208	-0,207
85,539	50,873	-0,223	-0,148
86,553	800,000	-0,092	-0,248
87,568	-1,545	-0,380	-0,187
88,582	273,451	-0,230	-0,286
89,597	-43,773	-0,268	-0,094
90,611	9,850	-0,285	-0,151
91,626	92,567	-0,308	-0,244
92,641	-47,502	-0,291	-0,099
93,655	271,103	-0,200	-0,248
94,670	27,421	-0,410	-0,241
95,684	113,918	-0,263	-0,224
96,699	617,058	-0,237	-0,418
97,714	55,157	-0,345	-0,233
98,728	37,222	-0,210	-0,130
99,743	-150,954	-0,357	-0,019
100,757	44,036	-0,232	-0,149
101,772	160,080	-0,291	-0,285
102,787	54,144	-0,275	-0,185
103,801	61,474	-0,378	-0,263
104,816	147,262	-0,219	-0,207
105,830	96,656	-0,228	-0,183
106,845	-78,433	-0,193	0,046
107,860	19,946	-0,297	-0,167
108,874	135,121	-0,210	-0,191
109,889	129,660	-0,199	-0,179
110,903	154,028	-0,268	-0,258
111,918	-30,549	-0,217	-0,086
112,933	69,572	-0,228	-0,164
113,947	112,225	-0,204	-0,173
114,962	181,276	-0,211	-0,217
115,976	-62,276	-0,380	-0,110
116,991	40,826	-0,270	-0,170
118,006	515,446	-0,180	-0,296
119,020	192,656	-0,327	-0,346
120,035	101,233	-0,242	-0,197
121,049	-3,594	-0,305	-0,148
122,064	310,355	-0,208	-0,273
123,079	99,062	-0,184	-0,149
124,093	184,520	-0,292	-0,303
125,108	-138,658	-0,311	-0,023
126,122	98,880	-0,254	-0,205
127,137	-30,895	-0,259	-0,102
128,151	-23,584	-0,305	-0,128
129,166	21,654	-0,243	-0,138
130,181	40,609	-0,305	-0,192
131,195	-10,819	-0,278	-0,128
132,210	77,711	-0,333	-0,248
133,224	-133,305	-0,189	-0,016
134,239	800,000	-0,126	-0,246
135,254	-53,309	-0,247	-0,079
136,268	32,406	-0,225	-0,135
137,283	195,804	-0,201	-0,214
138,297	59,782	-0,335	-0,231
139,312	19,394	-0,304	-0,170
140,327	337,782	-0,161	-0,219
141,341	-200,000	-0,079	-0,264
142,356	-0,036	-0,268	-0,133
143,370	160,259	-0,201	-0,196
144,385	-3,556	-0,306	-0,148
145,400	114,894	-0,335	-0,286
146,414	-36,441	-0,386	-0,145
147,429	269,412	-0,170	-0,209
148,443	92,387	-0,225	-0,177
149,458	586,230	-0,170	-0,294
150,473	289,752	-0,238	-0,303
151,487	-5,049	-0,235	-0,113
152,502	162,240	-0,224	-0,219
153,516	89,158	-0,339	-0,263
154,531	118,499	-0,175	-0,151
155,546	167,358	-0,196	-0,195
156,560	98,003	-0,264	-0,211
157,575	195,010	-0,139	-0,148
158,589	-84,859	-0,212	-0,046
159,604	73,441	-0,272	-0,199
160,619	293,027	-0,169	-0,216
161,633	279,515	-0,257	-0,321
162,648	800,000	-0,118	-0,290
163,662	-96,946	-0,236	-0,043
164,677	-48,976	-0,070	-0,023
165,692	800,000	-0,110	-0,225
166,706	-34,589	-0,294	-0,112
167,721	202,343	-0,205	-0,221
168,735	238,501	-0,229	-0,266
169,750	247,379	-0,237	-0,279
170,764	276,405	-0,200	-0,248
171,779	69,189	-0,267	-0,191
172,794	-125,375	-0,261	0,027
173,808	-156,258	-0,264	-0,011
174,823	117,964	-0,198	-0,170
175,837	444,111	-0,187	-0,286
176,852	-20,066	-0,264	-0,113
177,867	36,478	-0,165	-0,101
178,881	82,965	-0,163	-0,123
179,896	26,845	-0,221	-0,129
180,910	207,246	-0,197	-0,214
181,925	58,727	-0,318	-0,217
182,940	24,709	-0,304	-0,175
183,954	-14,045	-0,233	-0,104
184,969	163,081	-0,134	-0,131
185,983	63,443	-0,225	-0,157
186,998	211,165	-0,133	-0,146
188,013	615,307	-0,103	-0,180
189,027	193,829	-0,198	-0,209
190,042	-61,097	-0,293	-0,085
191,056	-32,439	-0,149	-0,057
192,071	9,747	-0,286	-0,150
193,086	773,423	-0,160	-0,305
194,100	285,458	-0,089	-0,112
195,115	-71,887	-0,164	-0,042
196,129	-61,932	-0,267	-0,077
197,144	6,453	-0,256	-0,132
198,159	800,000	-0,105	-0,222
199,173	800,000	-0,120	-0,239
200,188	3,175	-0,295	-0,148
201,202	-79,802	-0,129	-0,030
202,217	387,943	-0,157	-0,226
203,232	153,875	-0,120	0,114
204,246	-29,019	-0,256	-0,102
205,261	35,421	-0,243	-0,148
206,275	78,620	-0,204	-0,151
207,290	-142,725	-0,157	-0,010
208,304	224,145	-0,163	-0,183
209,319	164,352	-0,222	-0,217
210,334	223,745	-0,186	-0,209
211,348	-107,653	-0,198	-0,030
212,363	-89,428	-0,097	0,020
213,377	564,203	-0,190	-0,321
214,392	-31,448	-0,240	-0,093
215,407	-91,742	-0,160	0,031
216,421	94,321	-0,193	-0,152
217,436	158,033	-0,109	-0,105
218,450	800,000	-0,097	-0,253
219,465	22,300	-0,327	-0,185
220,480	385,844	-0,175	-0,251
221,494	-152,950	-0,110	-0,005
222,509	43,721	-0,228	-0,145
223,523	-121,208	-0,143	-0,016
224,538	-70,695	-0,207	-0,054
225,553	-34,590	-0,199	-0,075
226,567	-8,101	-0,247	-0,115
227,582	-14,091	-0,123	-0,055
228,596	319,578	-0,181	-0,238
229,611	-82,696	-0,125	-0,028
230,626	-3,486	-0,159	-0,076
231,640	800,000	-0,051	-0,101
232,655	-101,357	-0,233	-0,039
233,669	146,527	-0,134	-0,124
234,684	4,890	-0,162	-0,083
235,699	278,996	-0,149	-0,185
236,713	67,667	-0,129	-0,091
237,728	126,626	-0,051	-0,045
238,742	-108,544	-0,275	-0,041
239,757	42,885	-0,135	-0,085
240,772	150,511	-0,235	-0,221
241,786	-121,123	-0,229	-0,026
242,801	-35,639	-0,135	-0,050
243,815	-0,228	-0,214	-0,105
244,830	-105,170	-0,113	-0,018
245,844	-19,568	-0,179	-0,076
246,859	-28,381	-0,205	-0,081
247,874	-24,405	-0,293	-0,121
248,888	202,781	-0,224	-0,239
249,903	-11,226	-0,146	-0,066
250,917	73,419	-0,165	-0,119
251,932	113,559	-0,130	-0,110
252,947	261,441	-0,147	-0,176
253,961	800,000	-0,076	-0,175
254,976	69,214	-0,259	-0,184
255,990	204,493	-0,157	-0,169
257,005	127,650	-0,159	-0,140
258,020	-1,920	-0,298	-0,144
259,034	64,271	-0,212	-0,147
260,049	35,801	-0,158	-0,096
261,063	-38,626	-0,127	-0,046
262,078	234,667	-0,152	-0,174
263,093	101,254	-0,118	-0,095
264,107	57,392	-0,195	-0,131
265,122	-200,000	-0,069	-0,222
266,136	-75,749	-0,176	-0,043
267,151	325,801	-0,092	-0,121
268,166	195,662	-0,171	-0,180
269,180	-114,795	-0,230	-0,030
270,195	-12,950	-0,297	-0,133
271,209	775,016	-0,092	-0,174
272,224	178,032	-0,136	-0,137
273,239	175,055	-0,127	-0,127
274,253	-200,000	-0,041	-0,137
275,268	-114,298	-0,223	-0,029
276,282	54,665	-0,192	-0,128
277,297	32,127	-0,245	-0,146
278,312	-80,010	-0,199	-0,046
279,326	77,367	-0,146	-0,107
280,341	-24,565	-0,269	-0,110
281,355	227,502	-0,189	-0,212
282,370	-6,498	-0,127	-0,059
283,384	2,166	-0,119	-0,059
284,399	-127,903	-0,104	-0,010
285,414	155,431	-0,079	-0,075
286,428	800,000	-0,126	-0,249
287,443	184,591	-0,084	-0,086
288,457	-2,272	-0,212	-0,102
289,472	372,389	-0,122	-0,172
290,487	116,777	-0,206	-0,174
291,501	324,385	-0,154	-0,203
292,516	37,586	-0,230	-0,140
293,530	208,830	-0,178	-0,192
294,545	397,658	-0,155	-0,224
295,560	800,000	-0,044	-0,099
296,574	25,440	-0,112	0,064
297,589	-40,716	-0,187	-0,066
298,603	12,846	-0,283	-0,150
299,618	52,376	-0,157	-0,103
300,633	659,726	-0,075	-0,134
301,647	-200,000	-0,038	-0,159
302,662	231,414	-0,097	-0,109
303,676	21,519	-0,182	-0,102
304,691	134,630	-0,195	-0,175
305,706	-17,890	-0,114	-0,049
306,720	65,167	-0,222	-0,154
307,735	-200,000	-0,047	-0,179
308,749	194,432	-0,070	-0,073
309,764	-34,389	-0,226	-0,085
310,779	-71,011	-0,063	-0,016
311,793	-94,472	-0,127	0,024
312,808	277,585	-0,178	-0,218
313,822	44,577	-0,143	-0,090
314,837	178,311	-0,176	-0,177
315,852	443,765	-0,114	-0,172
316,866	-37,485	-0,058	0,021
317,881	-200,000	-0,019	-0,190
318,895	102,731	-0,135	-0,109
319,910	-4,693	-0,167	-0,079
320,925	572,903	-0,194	-0,326
321,939	800,000	-0,031	-0,072
322,954	-200,000	-0,078	-0,251
323,968	-69,231	-0,087	0,023
324,983	531,414	-0,071	-0,116
325,997	13,567	-0,120	-0,064
327,012	32,914	-0,153	-0,091
328,027	47,172	-0,147	-0,094
329,041	21,622	-0,155	-0,086
330,056	391,651	-0,067	-0,096
331,070	-200,000	-0,023	-0,137
332,085	260,376	0,017	0,020
333,100	-26,704	-0,118	-0,047
334,114	166,433	-0,183	-0,179
335,129	161,214	-0,177	-0,170
336,143	684,094	-0,075	-0,134
337,158	42,327	-0,127	-0,079
338,173	-159,074	-0,053	0,002
339,187	356,448	-0,065	-0,089
340,202	-82,425	-0,122	-0,027
341,216	217,987	-0,112	-0,123
342,231	70,896	-0,141	-0,100
343,246	36,172	-0,151	-0,091
344,260	-76,555	-0,076	-0,018
345,275	17,719	-0,210	-0,114
346,289	178,123	-0,069	-0,069
347,304	-19,645	-0,194	-0,082
348,319	121,654	-0,202	-0,173
349,333	-105,344	-0,079	0,012
350,348	323,259	-0,161	-0,211
351,362	48,773	-0,092	-0,059
352,377	-200,000	0,000	-0,039
353,392	104,172	-0,060	-0,049
354,406	-50,807	-0,154	-0,049
355,421	209,982	1316,733	1418,046
356,435	161,629	1477,720	1418,539
