DTS Sentinel unit serial number:	SN410029Multiplexer serial number:	ORYXHardware model number:	OX2-SRSoftware version number:	ORYX F/W v4,00 Oryx Data Collector v3.7.2.0data status	okinstallation	B3 Nyhavnadifferential loss correction	single-endedforward channel	channel 1reverse channel	N/Adate	2023/12/04time	12:37:30forward acquisition time	300,00reverse acquisition time	0,00gamma	499,1914k internal	0,3202k external	0,3202temperature offset calibration	1,0000default loss term (dB/km)	0,3820temperature slope calibration	1,0000multiplexer offset coefficient	1,0000multiplexer slope coefficient	1,0000fibre end	0,00T internal ref (°C)	14,55T ext. ref 1 (°C)	0,19T ext. ref 2 (°C)	0,17length (m)	temperature (°C)	Stokes	anti-Stokes-744,400	31,340	-0,235	-0,146
-743,385	-200,000	-0,008	0,223
-742,371	41,664	-0,113	-0,074
-741,356	800,000	0,111	0,307
-740,342	239,981	-0,146	-0,177
-739,327	-200,000	0,016	0,471
-738,312	376,632	-0,112	-0,166
-737,298	-200,000	0,053	0,309
-736,283	361,341	-0,143	-0,209
-735,269	-200,000	-0,009	0,244
-734,254	453,050	-0,118	-0,190
-733,239	-68,779	-0,325	0,091
-732,225	338,792	-0,089	-0,127
-731,210	800,000	0,117	0,298
-730,196	772,404	0,023	0,045
-729,181	800,000	-0,018	-0,041
-728,167	152,567	0,055	0,055
-727,152	59,084	-0,068	0,048
-726,137	-200,000	-0,008	0,122
-725,123	-25,571	-0,044	0,019
-724,108	-200,000	-0,025	-0,143
-723,094	400,724	-0,089	-0,136
-722,079	-78,319	0,015	-0,004
-721,064	122,446	0,060	-0,055
-720,050	58,226	-0,159	-0,113
-719,035	360,061	-0,133	-0,194
-718,021	76,577	-0,040	-0,030
-717,006	8,352	-0,217	-0,118
-715,991	-120,202	-0,093	-0,011
-714,977	800,000	-0,047	-0,106
-713,962	52,908	0,126	-0,087
-712,948	-200,000	0,020	0,088
-711,933	255,557	-0,101	-0,126
-710,918	-200,000	0,005	0,027
-709,904	206,525	0,045	-0,051
-708,889	35,151	-0,117	-0,074
-707,875	-200,000	0,036	-0,140
-706,860	-91,010	0,092	0,019
-705,845	249,471	0,091	-0,112
-704,831	-187,194	-0,139	0,001
-703,816	-153,676	0,044	-0,002
-702,802	-200,000	-0,008	-0,065
-701,787	-119,321	-0,070	0,009
-700,772	-200,000	-0,006	-0,123
-699,758	-200,000	-0,017	-0,168
-698,743	130,430	-0,021	0,020
-697,729	-200,000	-0,031	0,132
-696,714	-128,834	-0,056	0,006
-695,699	159,240	0,038	0,038
-694,685	-11,407	-0,121	0,058
-693,670	-200,000	0,006	-0,129
-692,656	-200,000	-0,014	-0,084
-691,641	77,330	-0,033	-0,025
-690,627	401,539	0,050	-0,076
-689,612	22,765	0,023	0,014
-688,597	223,195	0,082	0,096
-687,583	256,863	0,013	0,016
-686,568	-76,391	0,075	-0,019
-685,554	391,488	-0,045	0,068
-684,539	-84,933	-0,048	-0,011
-683,524	-200,000	-0,005	-0,017
-682,510	489,637	0,034	-0,056
-681,495	38,627	0,083	-0,053
-680,481	110,954	-0,121	-0,106
-679,466	-200,000	0,007	-0,040
-678,451	663,352	-0,082	-0,153
-677,437	380,334	0,067	-0,100
-676,422	-200,000	0,003	0,046
-675,408	409,071	0,099	0,152
-674,393	170,511	-0,051	-0,053
-673,378	-72,607	-0,068	-0,018
-672,364	-61,988	-0,095	0,028
-671,349	451,793	-0,058	-0,093
-670,335	196,415	0,054	0,059
-669,320	-16,017	0,067	-0,031
-668,305	-175,438	-0,075	0,001
-667,291	312,507	-0,040	-0,055
-666,276	367,439	-0,090	-0,132
-665,262	-125,839	0,110	-0,012
-664,247	-200,000	0,008	-0,058
-663,232	50,038	0,082	-0,056
-662,218	-200,000	0,010	0,057
-661,203	95,180	-0,045	0,037
-660,189	800,000	0,041	-0,103
-659,174	233,597	-0,070	-0,083
-658,159	-200,000	-0,032	-0,107
-657,145	-200,000	0,004	-0,056
-656,130	-89,952	-0,135	-0,028
-655,116	362,444	0,042	-0,062
-654,101	-18,198	0,021	-0,009
-653,086	-110,019	0,030	-0,004
-652,072	-200,000	-0,003	-0,106
-651,057	-200,000	-0,028	-0,170
-650,043	108,494	-0,181	-0,156
-649,028	800,000	0,035	-0,080
-648,014	-51,038	0,081	0,027
-646,999	104,287	0,082	-0,070
-645,984	647,975	-0,041	-0,077
-644,970	121,904	-0,038	0,034
-643,955	711,260	-0,079	-0,153
-642,941	-36,257	-0,109	0,043
-641,926	-200,000	-0,023	0,166
-640,911	-180,007	-0,079	-0,001
-639,897	-161,489	0,264	-0,010
-638,882	99,749	0,016	0,014
-637,868	163,431	-0,094	-0,096
-636,853	126,557	-0,099	-0,091
-635,838	-200,000	-0,002	-0,055
-634,824	800,000	-0,013	-0,035
-633,809	-200,000	0,028	0,107
-632,795	241,781	-0,033	-0,040
-631,780	-200,000	-0,026	0,159
-630,765	-132,056	-0,052	-0,005
-629,751	43,336	0,039	-0,026
-628,736	-139,279	-0,066	-0,005
-627,722	800,000	0,040	-0,127
-626,707	239,024	-0,075	0,090
-625,692	-200,000	0,004	0,144
-624,678	296,758	0,042	0,056
-623,663	-123,550	-0,023	0,003
-622,649	-55,804	-0,068	-0,022
-621,634	60,567	0,032	-0,023
-620,619	344,024	-0,044	0,062
-619,605	753,446	0,050	0,098
-618,590	-31,380	0,111	0,045
-617,576	473,011	0,057	-0,093
-616,561	-30,664	0,079	0,032
-615,546	168,690	-0,046	-0,047
-614,532	-200,000	0,005	-0,177
-613,517	-66,625	0,103	-0,029
-612,503	566,627	0,070	0,123
-611,488	800,000	0,028	-0,063
-610,474	4,877	0,010	0,005
-609,459	-200,000	0,004	-0,046
-608,444	800,000	-0,049	-0,106
-607,430	-117,247	-0,092	0,012
-606,415	104,230	0,059	0,050
-605,401	-200,000	-0,003	-0,050
-604,386	-90,816	0,083	0,017
-603,371	-96,053	0,021	-0,004
-602,357	800,000	-0,014	0,045
-601,342	-38,827	0,110	0,042
-600,328	226,902	0,031	-0,036
-599,313	-163,785	-0,096	0,003
-598,298	411,073	-0,080	-0,123
-597,284	234,742	0,057	0,069
-596,269	674,442	-0,051	0,095
-595,255	92,300	-0,070	0,057
-594,240	-130,795	-0,107	-0,010
-593,225	-126,088	-0,176	-0,019
-592,211	179,959	0,053	-0,056
-591,196	198,251	0,054	0,060
-590,182	-116,461	0,133	0,018
-589,167	-200,000	-0,017	-0,125
-588,152	-7,436	-0,141	0,069
-587,138	-26,455	0,099	0,042
-586,123	70,972	-0,045	-0,033
-585,109	-200,000	0,013	0,059
-584,094	24,496	-0,107	-0,064
-583,079	85,792	0,082	0,065
-582,065	800,000	0,024	-0,048
-581,050	201,274	0,028	0,031
-580,036	-65,611	0,008	-0,002
-579,021	238,525	0,065	-0,079
-578,006	509,007	0,011	0,018
-576,992	-149,044	-0,037	0,002
-575,977	-200,000	0,004	-0,034
-574,963	396,227	0,043	-0,066
-573,948	291,496	-0,052	0,068
-572,934	-200,000	-0,027	-0,090
-571,919	800,000	-0,066	-0,163
-570,904	-64,740	0,157	-0,046
-569,890	-200,000	0,005	-0,033
-568,875	-117,320	0,029	-0,004
-567,861	-121,661	0,098	0,012
-566,846	328,022	0,062	0,086
-565,831	-200,000	-0,011	0,046
-564,817	800,000	0,075	-0,176
-563,802	769,254	-0,060	-0,118
-562,788	-17,163	0,074	0,034
-561,773	-200,000	-0,020	-0,129
-560,758	-200,000	0,002	-0,014
-559,744	800,000	-0,035	0,085
-558,729	-58,571	-0,065	0,020
-557,715	81,356	0,019	-0,015
-556,700	800,000	-0,026	-0,054
-555,685	87,778	-0,082	-0,066
-554,671	238,533	-0,069	0,083
-553,656	-200,000	0,024	0,080
-552,642	-200,000	0,002	-0,056
-551,627	262,598	-0,118	0,149
-550,612	-200,000	0,019	0,077
-549,598	-132,404	-0,084	-0,008
-548,583	75,842	0,048	-0,036
-547,569	800,000	-0,043	-0,103
-546,554	-200,000	0,031	0,105
-545,539	-48,399	0,042	0,015
-544,525	4,804	-0,101	0,054
-543,510	16,143	0,127	-0,072
-542,496	-200,000	-0,013	-0,043
-541,481	-89,537	-0,134	-0,028
-540,466	46,515	-0,040	-0,027
-539,452	800,000	0,021	0,048
-538,437	-200,000	0,003	-0,055
-537,423	800,000	-0,013	-0,035
-536,408	800,000	0,011	0,034
-535,393	-98,582	0,062	0,011
-534,379	-200,000	-0,011	-0,039
-533,364	800,000	0,036	0,107
-532,350	-155,285	0,037	-0,002
-531,335	26,137	0,058	0,035
-530,321	533,191	0,047	0,081
-529,306	-113,911	-0,076	-0,010
-528,291	32,014	-0,149	-0,093
-527,277	150,226	-0,069	-0,068
-526,262	422,693	-0,089	-0,138
-525,248	-200,000	0,023	-0,081
-524,233	-64,555	-0,129	0,038
-523,218	51,668	-0,041	-0,028
-522,204	-178,329	0,134	0,002
-521,189	-200,000	0,013	-0,071
-520,175	-200,000	-0,041	-0,133
-519,160	182,959	-0,016	0,017
-518,145	232,884	0,017	0,020
-517,131	1,551	0,123	-0,063
-516,116	800,000	0,039	0,093
-515,102	-102,912	0,162	0,027
-514,087	-135,515	0,099	0,008
-513,072	-53,955	-0,110	0,036
-512,058	-200,000	0,006	0,054
-511,043	436,142	0,046	-0,072
-510,029	4,307	-0,098	0,052
-509,014	-62,489	0,120	-0,036
-507,999	209,901	0,064	0,073
-506,985	-115,715	0,058	-0,008
-505,970	391,270	-0,006	-0,010
-504,956	-129,047	-0,103	-0,010
-503,941	-200,000	0,006	0,021
-502,926	-188,518	-0,074	-0,001
-501,912	-133,521	0,116	-0,010
-500,897	178,583	0,080	0,085
-499,883	-200,000	0,019	0,119
-498,868	-64,401	-0,183	-0,053
-497,853	-9,244	0,063	-0,030
-496,839	-41,043	-0,048	0,018
-495,824	-200,000	-0,002	0,041
-494,810	321,188	0,047	0,064
-493,795	-157,980	0,128	0,005
-492,781	-105,377	-0,240	-0,039
-491,766	-200,000	-0,035	0,204
-490,751	-13,057	0,100	0,047
-489,737	-83,601	-0,162	0,037
-488,722	-60,484	0,020	0,006
-487,708	461,654	0,119	0,192
-486,693	84,516	0,127	0,100
-485,678	800,000	0,029	-0,064
-484,664	172,151	-0,089	-0,092
-483,649	-83,349	-0,031	0,007
-482,635	-200,000	0,024	-0,196
-481,620	24,976	0,099	0,059
-480,605	-104,300	-0,068	-0,011
-479,591	64,921	-0,106	-0,077
-478,576	257,290	-0,043	0,054
-477,562	-9,410	0,041	0,019
-476,547	40,026	0,025	-0,016
-475,532	-160,285	-0,013	-0,000
-474,518	-8,050	0,114	0,055
-473,503	57,093	0,028	0,020
-472,489	374,774	0,069	0,102
-471,474	-200,000	-0,020	0,079
-470,459	-63,796	0,074	-0,022
-469,445	301,586	0,065	0,087
-468,430	-3,776	-0,084	-0,042
-467,416	-200,000	0,011	-0,057
-466,401	316,918	0,012	-0,017
-465,386	114,112	0,076	0,067
-464,372	156,092	-0,036	-0,035
-463,357	-98,052	0,067	-0,012
-462,343	74,632	-0,106	-0,080
-461,328	-99,072	-0,091	-0,016
-460,313	246,001	0,060	0,073
-459,299	524,070	0,022	-0,038
-458,284	228,782	0,051	0,060
-457,270	41,880	-0,178	-0,116
-456,255	287,688	0,020	0,027
-455,241	186,603	-0,014	-0,015
-454,226	-200,000	-0,017	-0,056
-453,211	-200,000	0,041	-0,168
-452,197	-200,000	0,003	0,066
-451,182	369,437	-0,032	-0,047
-450,168	-68,371	-0,099	0,027
-449,153	535,066	-0,085	-0,145
-448,138	-22,289	-0,037	-0,016
-447,124	519,083	-0,014	0,024
-446,109	21,787	-0,036	-0,021
-445,095	235,162	0,059	0,070
-444,080	-200,000	0,019	0,075
-443,065	800,000	-0,014	-0,041
-442,051	101,583	0,030	0,025
-441,036	4,415	-0,103	-0,054
-440,022	-200,000	-0,005	-0,103
-439,007	40,971	0,113	-0,073
-437,992	-200,000	-0,002	0,102
-436,978	-105,321	-0,056	-0,009
-435,963	-116,526	-0,137	0,018
-434,949	121,813	0,088	0,079
-433,934	-60,112	-0,102	-0,031
-432,919	800,000	0,013	0,032
-431,905	120,026	0,019	-0,017
-430,890	-92,248	0,110	0,022
-429,876	-122,477	0,080	-0,009
-428,861	38,705	0,044	0,028
-427,846	544,400	-0,043	0,074
-426,832	-200,000	0,011	-0,078
-425,817	284,042	0,017	-0,023
-424,803	-200,000	0,003	0,052
-423,788	-109,001	-0,101	-0,015
-422,773	-141,874	0,178	0,013
-421,759	126,074	-0,078	-0,071
-420,744	-200,000	0,014	0,150
-419,730	-27,006	0,068	0,028
-418,715	89,645	-0,060	-0,048
-417,701	119,207	-0,060	0,054
-416,686	800,000	-0,040	0,082
-415,671	658,262	0,008	0,015
-414,657	28,966	0,096	-0,058
-413,642	-200,000	0,042	0,183
-412,628	800,000	0,082	0,162
-411,613	-23,261	-0,198	0,085
-410,598	23,630	0,066	0,039
-409,584	-200,000	0,009	-0,032
-408,569	800,000	0,039	0,109
-407,555	-79,757	0,139	0,033
-406,540	113,027	0,034	0,030
-405,525	467,238	0,029	-0,047
-404,511	-78,250	-0,086	0,021
-403,496	800,000	0,025	0,075
-402,482	77,468	-0,037	0,028
-401,467	284,818	0,056	0,072
-400,452	763,345	0,034	0,066
-399,438	800,000	0,047	-0,139
-398,423	-200,000	-0,006	-0,029
-397,409	105,539	-0,077	-0,065
-396,394	-200,000	-0,006	-0,135
-395,379	800,000	0,030	-0,079
-394,365	800,000	0,044	0,106
-393,350	50,102	0,190	0,129
-392,336	800,000	0,059	0,168
-391,321	-128,255	-0,058	0,006
-390,306	95,101	-0,005	-0,004
-389,292	688,056	-0,034	-0,065
-388,277	105,466	-0,139	-0,117
-387,263	213,902	-0,015	-0,018
-386,248	51,843	-0,013	0,009
-385,233	-132,784	0,065	0,006
-384,219	-200,000	0,004	-0,068
-383,204	250,819	0,035	-0,043
-382,190	354,317	-0,051	-0,072
-381,175	-200,000	0,007	-0,055
-380,160	423,727	0,033	0,051
-379,146	-120,938	0,179	0,021
-378,131	-200,000	-0,009	0,073
-377,117	-150,413	-0,092	0,005
-376,102	161,415	-0,085	-0,085
-375,088	236,658	-0,004	-0,004
-374,073	-200,000	-0,017	-0,088
-373,058	800,000	-0,003	0,006
-372,044	-200,000	0,026	0,099
-371,029	121,711	-0,050	0,045
-370,015	537,377	0,061	0,104
-369,000	2,507	-0,074	-0,038
-367,985	100,831	0,083	-0,070
-366,971	-198,559	-0,082	0,000
-365,956	-83,742	0,058	0,013
-364,942	-200,000	-0,022	-0,075
-363,927	140,135	-0,043	0,040
-362,912	132,213	0,067	0,062
-361,898	-105,205	-0,084	0,014
-360,883	-200,000	0,000	-0,091
-359,869	800,000	0,091	-0,230
-358,854	608,376	0,041	0,073
-357,839	800,000	-0,007	0,018
-356,825	39,699	0,076	0,049
-355,810	356,171	-0,023	0,032
-354,796	-63,350	-0,059	-0,017
-353,781	90,429	-0,089	0,071
-352,766	-200,000	-0,015	-0,167
-351,752	-22,260	-0,158	0,068
-350,737	432,865	0,105	0,164
-349,723	-200,000	-0,008	0,039
-348,708	308,662	0,036	0,049
-347,693	-11,543	-0,062	-0,029
-346,679	-200,000	0,010	-0,056
-345,664	573,906	0,034	0,059
-344,650	198,069	0,043	0,048
-343,635	112,788	0,049	0,043
-342,620	129,567	0,054	0,049
-341,606	777,257	0,019	-0,038
-340,591	-117,409	0,110	0,014
-339,577	-114,964	0,026	-0,004
-338,562	-200,000	-0,007	-0,085
-337,548	800,000	-0,016	-0,043
-336,533	-25,897	-0,033	-0,014
-335,518	-70,315	-0,082	-0,022
-334,504	148,402	0,041	0,039
-333,489	389,985	-0,022	-0,033
-332,475	313,309	0,035	0,048
-331,460	94,451	0,017	-0,014
-330,445	129,755	-0,053	0,048
-329,431	800,000	0,042	0,103
-328,416	-200,000	0,031	0,133
-327,402	347,152	0,070	-0,099
-326,387	-140,493	0,134	-0,010
-325,372	-1,966	-0,052	-0,026
-324,358	800,000	-0,043	-0,119
-323,343	-200,000	-0,007	-0,105
-322,329	113,278	0,103	-0,090
-321,314	-200,000	0,005	0,039
-320,299	-10,788	0,174	0,082
-319,285	-110,299	0,095	-0,014
-318,270	-118,594	-0,094	0,012
-317,256	-138,601	-0,107	-0,008
-316,241	-179,943	0,043	0,001
-315,226	-200,000	-0,016	-0,053
-314,212	-16,692	0,081	0,036
-313,197	800,000	-0,014	0,044
-312,183	16,826	0,146	0,083
-311,168	297,381	0,095	-0,124
-310,153	-5,952	-0,151	-0,073
-309,139	128,606	-0,118	-0,108
-308,124	-26,089	0,135	0,056
-307,110	326,385	0,017	0,023
-306,095	-79,953	-0,056	0,013
-305,080	265,901	0,052	0,065
-304,066	800,000	0,026	-0,065
-303,051	224,638	-0,082	-0,095
-302,037	169,497	-0,103	0,105
-301,022	-90,880	-0,180	0,037
-300,008	-200,000	-0,003	0,097
-298,993	5,899	-0,021	0,011
-297,978	-200,000	0,010	0,140
-296,964	-200,000	0,011	-0,085
-295,949	-73,023	-0,131	0,034
-294,935	-52,634	-0,155	-0,051
-293,920	-188,944	0,128	0,001
-292,905	-75,107	0,095	0,024
-291,891	800,000	0,054	-0,157
-290,876	110,454	-0,060	0,051
-289,862	-95,537	-0,132	0,025
-288,847	800,000	-0,099	-0,223
-287,832	-150,652	0,125	-0,007
-286,818	183,475	0,130	0,138
-285,803	107,934	0,066	0,056
-284,789	-90,200	-0,077	0,016
-283,774	800,000	-0,031	-0,065
-282,759	800,000	0,025	-0,062
-281,745	-200,000	-0,023	0,106
-280,730	16,944	-0,080	0,045
-279,716	-200,000	-0,000	-0,086
-278,701	-200,000	0,022	-0,126
-277,686	-70,063	0,131	0,035
-276,672	575,177	0,036	0,062
-275,657	102,229	-0,069	-0,057
-274,643	40,317	0,145	-0,093
-273,628	-55,435	-0,090	0,029
-272,613	312,244	-0,017	-0,022
-271,599	800,000	-0,028	0,059
-270,584	-200,000	-0,038	0,166
-269,570	426,382	-0,054	0,083
-268,555	97,251	0,122	0,100
-267,540	262,530	-0,049	-0,060
-266,526	800,000	0,066	-0,183
-265,511	-29,959	0,048	-0,020
-264,497	98,921	-0,086	0,071
-263,482	-6,779	0,084	0,041
-262,467	800,000	-0,057	0,175
-261,453	29,061	0,020	-0,012
-260,438	800,000	0,000	0,001
-259,424	0,965	-0,058	0,029
-258,409	-200,000	-0,002	0,033
-257,395	800,000	0,045	-0,091
-256,380	-59,840	0,073	0,022
-255,365	-121,663	-0,063	0,007
-254,351	292,656	-0,042	0,054
-253,336	127,277	-0,108	-0,098
-252,322	83,620	-0,137	-0,107
-251,307	94,512	0,115	-0,093
-250,292	276,163	-0,046	-0,058
-249,278	-2,502	0,062	-0,031
-248,263	-200,000	-0,021	0,098
-247,249	121,287	0,060	0,054
-246,234	800,000	-0,033	-0,075
-245,219	217,890	-0,097	-0,111
-244,205	300,944	0,043	0,057
-243,190	182,614	0,054	-0,057
-242,176	-200,000	0,019	-0,069
-241,161	-200,000	-0,011	0,118
-240,146	122,102	-0,065	-0,058
-239,132	-121,247	-0,036	-0,004
-238,117	800,000	0,067	-0,183
-237,103	-26,768	0,153	-0,064
-236,088	-200,000	-0,003	-0,069
-235,073	800,000	0,031	0,062
-234,059	-200,000	-0,025	0,165
-233,044	461,584	-0,022	-0,035
-232,030	92,300	-0,132	0,106
-231,015	-200,000	0,002	-0,065
-230,000	122,839	-0,147	-0,131
-228,986	378,043	-0,029	-0,042
-227,971	323,854	0,070	0,095
-226,957	98,128	0,013	0,011
-225,942	221,955	0,073	0,084
-224,927	460,012	-0,006	-0,009
-223,913	-200,000	-0,004	-0,082
-222,898	-26,561	-0,177	-0,073
-221,884	40,166	-0,020	-0,013
-220,869	-7,423	-0,118	-0,057
-219,855	-96,962	0,108	0,020
-218,840	-56,940	0,067	0,021
-217,825	800,000	0,031	0,064
-216,811	-200,000	-0,002	-0,036
-215,796	-71,350	-0,231	-0,061
-214,782	-200,000	0,007	-0,067
-213,767	357,444	-0,053	-0,076
-212,752	8,735	0,070	0,037
-211,738	-200,000	-0,021	0,134
-210,723	-200,000	0,015	0,121
-209,709	-74,153	0,036	0,009
-208,694	-200,000	-0,025	-0,080
-207,679	-143,249	0,055	0,004
-206,665	140,080	0,029	0,028
-205,650	400,847	0,031	-0,047
-204,636	167,141	-0,042	-0,043
-203,621	-64,668	-0,075	0,021
-202,606	420,080	-0,052	-0,079
-201,592	-200,000	0,014	0,063
-200,577	552,707	0,017	0,029
-199,563	-94,147	0,092	0,018
-198,548	0,758	0,058	0,029
-197,533	-200,000	0,005	0,100
-196,519	-81,184	0,061	0,014
-195,504	-103,886	-0,099	0,016
-194,490	-137,049	-0,031	0,002
-193,475	522,770	-0,030	-0,051
-192,460	-200,000	-0,022	0,147
-191,446	-200,000	-0,004	0,088
-190,431	-200,000	0,002	-0,056
-189,417	-35,571	-0,056	0,022
-188,402	-9,924	0,122	-0,058
-187,387	-168,610	-0,124	0,003
-186,373	-39,006	-0,031	0,011
-185,358	-200,000	-0,010	0,052
-184,344	32,734	0,071	-0,044
-183,329	-50,182	0,034	0,011
-182,315	1,167	0,106	-0,054
-181,300	-39,272	0,161	-0,060
-180,285	133,592	-0,115	-0,105
-179,271	-200,000	-0,011	0,061
-178,256	-163,941	0,060	0,002
-177,242	-200,000	0,013	-0,087
-176,227	64,893	0,069	0,050
-175,212	-90,848	0,043	0,009
-174,198	-200,000	-0,024	0,173
-173,183	689,523	0,068	-0,127
-172,169	56,005	-0,129	0,089
-171,154	-89,232	-0,090	0,019
-170,139	-46,612	-0,020	0,007
-169,125	153,303	0,075	-0,073
-168,110	800,000	0,037	-0,100
-167,096	-23,619	-0,084	-0,036
-166,081	330,650	0,010	0,014
-165,066	32,006	0,094	-0,057
-164,052	739,714	-0,051	0,097
-163,037	-200,000	0,001	0,077
-162,023	800,000	0,015	0,041
-161,008	-114,630	-0,077	0,010
-159,993	135,706	-0,027	0,025
-158,979	800,000	-0,094	-0,193
-157,964	-33,797	-0,021	0,008
-156,950	23,703	-0,139	-0,081
-155,935	206,210	0,095	0,105
-154,920	-200,000	0,011	0,089
-153,906	219,989	-0,080	0,091
-152,891	182,043	-0,087	-0,092
-151,877	339,497	-0,012	-0,017
-150,862	800,000	-0,068	-0,207
-149,847	158,982	-0,058	-0,058
-148,833	800,000	0,050	-0,130
-147,818	-63,548	0,103	-0,030
-146,804	-5,818	-0,133	-0,065
-145,789	122,965	0,035	-0,031
-144,775	-200,000	0,012	-0,078
-143,760	43,773	-0,096	-0,062
-142,745	33,031	-0,064	-0,039
-141,731	136,072	0,025	-0,024
-140,716	-200,000	0,007	0,038
-139,702	-200,000	-0,008	0,086
-138,687	56,605	0,049	-0,034
-137,672	-14,722	0,083	-0,038
-136,658	57,730	-0,084	0,058
-135,643	-200,000	-0,018	0,219
-134,629	-200,000	0,014	-0,127
-133,614	-127,405	0,132	-0,014
-132,599	-126,118	0,226	-0,024
-131,585	-50,195	-0,132	0,044
-130,570	-64,993	0,017	0,005
-129,556	225,656	-0,061	-0,070
-128,541	-200,000	0,013	-0,052
-127,526	-63,562	0,102	-0,030
-126,512	-123,867	0,090	-0,010
-125,497	363,229	0,116	0,166
-124,483	-126,979	0,151	-0,016
-123,468	277,229	0,066	0,083
-122,453	620,791	-0,036	-0,064
-121,439	-123,330	0,084	-0,009
-120,424	495,882	0,091	-0,149
-119,410	800,000	-0,024	0,062
-118,395	230,521	0,060	-0,070
-117,380	-200,000	-0,003	0,017
-116,366	32,108	-0,062	0,038
-115,351	313,886	0,029	0,039
-114,337	159,800	-0,111	0,110
-113,322	34,153	-0,159	-0,098
-112,307	-134,646	0,044	0,004
-111,293	631,544	0,039	0,070
-110,278	-200,000	0,040	0,165
-109,264	43,688	0,054	-0,035
-108,249	800,000	-0,029	-0,086
-107,234	-200,000	-0,015	-0,072
-106,220	800,000	-0,028	-0,075
-105,205	132,412	0,080	0,073
-104,191	-200,000	0,013	0,112
-103,176	-53,565	0,117	0,038
-102,162	-0,287	-0,040	0,020
-101,147	114,994	-0,068	0,059
-100,132	-111,815	-0,092	-0,013
-99,118	530,762	0,048	-0,080
-98,103	-148,882	0,095	0,005
-97,089	168,428	0,076	0,077
-96,074	-200,000	-0,009	-0,078
-95,059	-200,000	0,024	-0,107
-94,045	800,000	-0,020	0,043
-93,030	-88,549	-0,056	-0,012
-92,016	721,293	-0,053	-0,100
-91,001	-200,000	-0,010	0,043
-89,986	-200,000	0,005	0,145
-88,972	37,716	-0,041	0,026
-87,957	-200,000	0,029	0,112
-86,943	-107,127	0,059	-0,009
-85,928	-22,313	-0,196	0,084
-84,913	-200,000	0,012	-0,101
-83,899	800,000	0,023	0,064
-82,884	-44,512	0,054	0,019
-81,870	409,005	-0,035	-0,052
-80,855	-200,000	-0,007	-0,140
-79,840	-200,000	0,001	-0,138
-78,826	-200,000	-0,016	-0,134
-77,811	800,000	0,023	-0,068
-76,797	496,155	0,077	-0,125
-75,782	451,357	-0,029	-0,045
-74,767	348,897	-0,031	0,044
-73,753	-200,000	0,034	0,128
-72,738	420,802	0,027	0,041
-71,724	428,341	0,056	-0,086
-70,709	800,000	-0,046	-0,129
-69,694	380,129	-0,013	0,018
-68,680	800,000	-0,077	0,152
-67,665	-88,281	0,047	-0,010
-66,651	-10,954	-0,054	0,025
-65,636	652,017	0,025	-0,046
-64,622	-15,000	-0,158	-0,072
-63,607	-200,000	0,005	-0,090
-62,592	679,415	-0,079	-0,146
-61,578	800,000	-0,026	-0,072
-60,563	-63,845	-0,074	-0,021
-59,549	118,793	0,031	-0,027
-58,534	5,385	-1,441	-0,750
-57,519	472,667	-1,359	-2,175
-56,505	-200,000	-0,579	-4,606
-55,490	245,224	0,881	1,051
-54,476	800,000	4,764	11,054
-53,461	-200,000	18,369	294,466
-52,446	800,000	730,037	2249,558
-51,432	558,186	1646,131	2821,250
-50,417	78,908	1667,049	1261,513
-49,403	22,488	1540,365	889,263
-48,388	16,403	1463,581	815,446
-47,373	17,769	1453,317	816,278
-46,359	17,047	1443,594	807,332
-45,344	14,676	1439,025	793,421
-44,330	14,602	1437,142	791,998
-43,315	14,591	1435,469	790,992
-42,300	14,665	1433,665	790,318
-41,286	14,701	1432,596	789,871
-40,271	14,576	1431,234	788,490
-39,257	14,611	1429,956	787,925
-38,242	14,623	1428,715	787,267
-37,227	14,646	1427,663	786,766
-36,213	14,653	1426,289	786,010
-35,198	14,678	1425,135	785,458
-34,184	14,665	1424,210	784,855
-33,169	14,608	1422,847	783,805
-32,154	14,656	1421,781	783,416
-31,140	14,613	1420,499	782,476
-30,125	14,729	1419,440	782,404
-29,111	14,655	1418,347	781,426
-28,096	14,643	1417,284	780,750
-27,082	14,591	1416,187	779,870
-26,067	14,553	1415,160	779,095
-25,052	14,589	1414,053	778,623
-24,038	14,554	1413,206	777,962
-23,023	14,572	1411,854	777,270
-22,009	14,562	1410,994	776,722
-20,994	14,542	1410,003	776,050
-19,979	14,533	1409,299	775,589
-18,965	14,520	1408,031	774,804
-17,950	14,524	1407,061	774,255
-16,936	14,501	1406,375	773,742
-15,921	14,503	1405,219	773,081
-14,906	14,451	1404,257	772,282
-13,892	14,524	1403,272	772,047
-12,877	14,505	1402,623	771,573
-11,863	14,517	1401,437	770,943
-10,848	14,464	1400,636	770,226
-9,833	14,409	1400,066	769,627
-8,819	14,399	1398,933	768,926
-7,804	14,418	1397,940	768,441
-6,790	14,422	1396,907	767,861
-5,775	14,406	1395,815	767,153
-4,760	14,365	1395,087	766,533
-3,746	14,393	1394,227	766,162
-2,731	14,424	1393,393	765,814
-1,717	14,346	1392,701	765,045
-0,702	14,385	1390,762	764,131
0,313	18,265	1309,412	737,369
1,327	34,732	705,916	435,625
2,342	53,167	124,284	84,046
3,356	0,514	16,640	8,383
4,371	-2,643	3,062	1,510
5,386	-24,810	0,486	0,203
6,400	520,619	-0,053	0,089
7,415	5,879	-0,216	-0,113
8,429	140,597	-0,272	-0,254
9,444	38,231	-0,376	-0,236
10,459	-3,016	-0,306	-0,151
11,473	44,369	-0,385	-0,250
12,488	277,627	-0,115	-0,145
13,502	121,509	-0,175	-0,154
14,517	23,721	-0,238	-0,138
15,531	155,252	-0,309	-0,300
16,546	82,849	-0,320	-0,245
17,561	-17,344	-0,525	-0,232
18,575	314,706	-0,118	-0,157
19,590	526,011	-0,132	-0,220
20,604	-56,211	-0,328	-0,102
21,619	80,029	-0,432	-0,328
22,634	39,107	-0,465	-0,293
23,648	127,110	-0,367	-0,329
24,663	15,922	-0,513	-0,284
25,677	157,226	-0,268	-0,262
26,692	100,845	-0,420	-0,344
27,707	39,264	-0,396	-0,250
28,721	3,050	-0,282	-0,144
29,736	33,119	-0,292	-0,178
30,750	60,594	-0,382	-0,267
31,765	92,320	-0,375	-0,298
32,780	55,932	-0,430	-0,294
33,794	-35,516	-0,393	-0,150
34,809	362,563	-0,226	-0,321
35,823	35,353	-0,310	-0,192
36,838	70,137	-0,441	-0,321
37,853	112,121	-0,416	-0,354
38,867	3,175	-0,486	-0,248
39,882	195,877	-0,332	-0,357
40,896	-76,741	-0,480	-0,118
41,911	49,348	-0,490	-0,324
42,926	134,557	-0,340	-0,311
43,940	261,519	-0,313	-0,383
44,955	131,236	-0,353	-0,319
45,969	244,460	-0,301	-0,357
46,984	58,981	-0,373	-0,258
47,999	42,897	-0,378	-0,242
49,013	11,747	-0,387	-0,209
50,028	55,927	-0,349	-0,238
51,042	-46,294	-0,426	-0,147
52,057	-12,491	-0,402	-0,184
53,071	73,512	-0,356	-0,262
54,086	16,563	-0,346	-0,192
55,101	122,403	-0,309	-0,272
56,115	46,535	-0,378	-0,246
57,130	82,504	-0,342	-0,261
58,144	206,810	-0,266	-0,292
59,159	45,936	-0,369	-0,240
60,174	130,470	-0,419	-0,378
61,188	47,919	-0,323	-0,212
62,203	-17,205	-0,519	-0,229
63,217	-12,701	-0,394	-0,180
64,232	-33,019	-0,323	-0,125
65,247	167,884	-0,279	-0,279
66,261	293,348	-0,301	-0,387
67,276	121,863	-0,270	-0,237
68,290	117,947	-0,316	-0,274
69,305	28,304	-0,373	-0,221
70,320	139,586	-0,263	-0,244
71,334	-19,269	-0,382	-0,166
72,349	14,883	-0,303	-0,166
73,363	2,676	-0,416	-0,211
74,378	38,765	-0,389	-0,244
75,393	81,179	-0,294	-0,223
76,407	30,780	-0,303	-0,182
77,422	50,219	-0,345	-0,229
78,436	-40,733	-0,399	-0,144
79,451	22,451	-0,133	-0,076
80,466	11,761	-0,338	-0,182
81,480	-61,539	-0,290	-0,085
82,495	6,408	-0,288	-0,150
83,509	121,028	-0,195	-0,170
84,524	-16,953	-0,251	-0,111
85,539	60,204	-0,204	-0,141
86,553	328,925	-0,117	-0,159
87,568	156,169	-0,363	-0,352
88,582	64,178	-0,298	-0,210
89,597	144,452	-0,247	-0,232
90,611	-71,182	-0,288	-0,075
91,626	-56,407	-0,438	-0,136
92,641	68,159	-0,199	-0,143
93,655	147,954	-0,150	-0,142
94,670	75,032	-0,332	-0,245
95,684	56,335	-0,280	-0,191
96,699	-24,324	-0,279	-0,116
97,714	-37,735	-0,285	-0,106
98,728	113,295	-0,276	-0,235
99,743	119,535	-0,226	-0,196
100,757	200,634	-0,148	-0,160
101,772	-9,226	-0,304	-0,142
102,787	67,777	-0,197	-0,141
103,801	81,215	-0,279	-0,211
104,816	242,677	-0,228	-0,268
105,830	93,372	-0,201	-0,159
106,845	-125,612	-0,234	-0,025
107,860	-5,887	-0,314	-0,150
108,874	66,085	-0,281	-0,199
109,889	91,125	-0,280	-0,220
110,903	-16,563	-0,378	-0,167
111,918	60,043	-0,291	-0,201
112,933	30,567	-0,194	-0,116
113,947	37,866	-0,277	-0,172
114,962	-54,218	-0,189	-0,060
115,976	-14,507	-0,217	-0,097
116,991	279,257	-0,203	-0,255
118,006	241,592	-0,250	-0,292
119,020	0,883	-0,262	-0,131
120,035	128,017	-0,197	-0,175
121,049	-54,480	-0,289	-0,091
122,064	126,839	-0,158	-0,141
123,079	29,361	-0,214	-0,127
124,093	73,711	-0,214	-0,157
125,108	800,000	-0,117	-0,238
126,122	150,024	-0,143	-0,136
127,137	-8,170	-0,285	-0,134
128,151	197,578	-0,183	-0,195
129,166	154,169	-0,200	-0,192
130,181	386,182	-0,164	-0,237
131,195	38,510	-0,231	-0,144
132,210	317,250	-0,271	-0,359
133,224	90,868	-0,286	-0,224
134,239	-91,134	-0,254	-0,050
135,254	128,818	-0,106	-0,095
136,268	-17,251	-0,274	-0,120
137,283	31,544	-0,237	-0,142
138,297	-122,567	-0,291	-0,033
139,312	105,603	-0,225	-0,186
140,327	55,938	-0,296	-0,201
141,341	257,627	-0,159	-0,191
142,356	-22,366	-0,194	-0,082
143,370	-24,262	-0,315	-0,131
144,385	536,193	-0,174	-0,289
145,400	431,334	-0,231	-0,351
146,414	104,415	-0,291	-0,239
147,429	155,178	-0,287	-0,276
148,443	149,602	-0,157	-0,149
149,458	74,510	-0,199	-0,146
150,473	-29,763	-0,255	-0,101
151,487	196,044	-0,144	-0,153
152,502	-61,170	-0,368	-0,108
153,516	-77,394	-0,307	-0,074
154,531	0,856	-0,323	-0,161
155,546	271,365	-0,200	-0,246
156,560	-84,685	-0,338	-0,074
157,575	426,484	-0,159	-0,240
158,589	32,125	-0,244	-0,146
159,604	-24,390	-0,285	-0,118
160,619	46,479	-0,306	-0,198
161,633	311,446	-0,222	-0,291
162,648	-0,717	-0,287	-0,142
163,662	408,246	-0,132	-0,196
164,677	-53,456	-0,277	-0,088
165,692	-40,726	-0,259	-0,093
166,706	796,472	-0,133	-0,257
167,721	-34,121	-0,234	-0,089
168,735	-40,456	-0,322	-0,116
169,750	180,073	-0,312	-0,319
170,764	371,879	-0,115	-0,163
171,779	123,641	-0,185	-0,162
172,794	10,247	-0,196	-0,104
173,808	230,376	-0,123	-0,140
174,823	-40,779	-0,271	-0,097
175,837	-56,724	-0,212	-0,065
176,852	230,029	-0,153	-0,174
177,867	-47,047	-0,214	-0,072
178,881	222,957	-0,074	-0,083
179,896	171,121	-0,198	-0,198
180,910	247,243	-0,136	-0,160
181,925	-28,947	-0,378	-0,150
182,940	95,330	-0,188	-0,149
183,954	35,794	-0,276	-0,169
184,969	-75,302	-0,221	-0,055
185,983	158,657	-0,157	-0,152
186,998	238,163	-0,144	-0,167
188,013	213,283	-0,152	-0,168
189,027	235,959	-0,132	-0,152
190,042	59,525	-0,315	-0,216
191,056	14,834	-0,212	-0,115
192,071	167,000	-0,151	-0,149
193,086	-55,633	-0,213	-0,066
194,100	8,756	-0,229	-0,120
195,115	219,172	-0,146	-0,163
196,129	761,560	-0,106	-0,200
197,144	471,907	-0,201	-0,316
198,159	12,868	-0,280	-0,150
199,173	60,529	-0,167	-0,115
200,188	28,205	-0,219	-0,128
201,202	14,350	-0,162	-0,087
202,217	280,351	-0,164	-0,204
203,232	108,591	-0,131	-0,109
204,246	118,463	-0,264	-0,226
205,261	15,381	-0,179	-0,097
206,275	85,555	-0,128	-0,098
207,290	231,142	-0,102	-0,116
208,304	102,212	-0,219	-0,177
209,319	272,509	-0,124	-0,152
210,334	-200,000	-0,053	-0,233
211,348	67,572	-0,227	-0,161
212,363	-66,196	-0,256	-0,070
213,377	-4,142	-0,172	-0,083
214,392	151,453	-0,142	-0,134
215,407	-91,449	-0,200	-0,039
216,421	800,000	-0,072	-0,188
217,436	-86,557	-0,254	-0,054
218,450	-55,017	-0,212	-0,066
219,465	200,736	-0,168	-0,180
220,480	43,564	-0,062	-0,039
221,494	146,905	-0,247	-0,230
222,509	307,233	-0,058	-0,075
223,523	-15,608	-0,291	-0,128
224,538	-12,956	-0,171	-0,077
225,553	-9,956	-0,159	-0,073
226,567	-92,445	-0,265	-0,051
227,582	90,690	-0,145	-0,113
228,596	34,295	-0,189	-0,114
229,611	-80,234	-0,288	-0,066
230,626	-45,538	-0,254	-0,087
231,640	-77,972	-0,260	-0,062
232,655	307,031	-0,064	-0,083
233,669	800,000	-0,085	-0,196
234,684	210,251	-0,100	-0,109
235,699	246,779	-0,137	-0,161
236,713	538,079	-0,112	-0,185
237,728	-122,321	-0,243	-0,027
238,742	39,380	-0,138	-0,086
239,757	223,614	-0,226	-0,253
240,772	104,086	-0,144	-0,117
241,786	204,332	-0,184	-0,197
242,801	208,972	-0,101	-0,110
243,815	-200,000	-0,013	-0,078
244,830	800,000	-0,093	-0,228
245,844	192,375	-0,145	-0,152
246,859	-21,082	-0,333	-0,140
247,874	800,000	-0,118	-0,348
248,888	207,180	-0,175	-0,189
249,903	-54,984	-0,206	-0,064
250,917	-121,927	-0,245	-0,028
251,932	800,000	-0,023	-0,065
252,947	793,936	-0,075	-0,144
253,961	213,564	-0,183	-0,200
254,976	-191,869	-0,221	0,001
255,990	239,263	-0,216	-0,249
257,005	39,467	-0,208	-0,128
258,020	800,000	-0,043	-0,087
259,034	-111,316	-0,184	0,026
260,049	54,420	-0,112	-0,075
261,063	156,293	-0,173	-0,165
262,078	210,233	-0,218	-0,237
263,093	2,941	-0,248	-0,124
264,107	35,469	-0,184	-0,112
265,122	-1,906	-0,191	-0,092
266,136	-109,302	-0,066	-0,010
267,151	473,629	-0,097	-0,152
268,166	79,022	-0,164	-0,121
269,180	215,568	-0,141	-0,155
270,195	178,642	-0,153	-0,155
271,209	68,217	-0,169	0,120
272,224	150,722	-0,068	-0,064
273,239	-30,173	-0,095	-0,037
274,253	-191,170	-0,219	-0,002
275,268	171,927	-0,118	-0,117
276,282	112,310	-0,101	-0,084
277,297	800,000	-0,078	-0,194
278,312	363,830	-0,140	-0,195
279,326	-16,049	-0,141	-0,062
280,341	294,311	-0,074	-0,093
281,355	126,379	-0,181	-0,158
282,370	45,947	-0,157	-0,100
283,384	36,561	-0,210	-0,128
284,399	-55,939	-0,283	-0,087
285,414	-27,875	-0,313	-0,124
286,428	422,556	-0,120	-0,178
287,443	800,000	-0,070	-0,142
288,457	21,995	-0,246	-0,138
289,472	-46,828	-0,137	-0,046
290,487	-16,642	-0,160	-0,070
291,501	60,462	-0,218	-0,148
292,516	231,398	-0,133	-0,150
293,530	-157,189	-0,180	0,007
294,545	-151,653	-0,162	0,008
295,560	-10,154	-0,120	-0,055
296,574	109,210	-0,127	-0,105
297,589	-9,480	-0,234	-0,107
298,603	-200,000	-0,040	-0,138
299,618	-37,322	-0,189	-0,069
300,633	-200,000	0,002	-0,139
301,647	-132,621	-0,201	-0,018
302,662	800,000	-0,054	-0,148
303,676	38,609	-0,155	-0,095
304,691	-17,172	-0,124	-0,054
305,706	7,646	-0,144	-0,074
306,720	338,399	-0,136	-0,183
307,735	796,631	-0,100	-0,190
308,749	-143,880	-0,122	0,008
309,764	-200,000	-0,005	0,036
310,779	54,393	-0,142	-0,094
311,793	18,432	-0,136	-0,075
312,808	-129,592	-0,107	-0,010
313,822	800,000	-0,030	-0,062
314,837	-111,388	-0,189	-0,026
315,852	-81,359	-0,161	-0,036
316,866	548,686	-0,127	-0,211
317,881	-110,905	-0,085	-0,012
318,895	-135,505	-0,132	0,011
319,910	-200,000	-0,044	-0,172
320,925	72,628	-0,203	-0,146
321,939	201,198	-0,096	-0,102
322,954	41,533	0,118	-0,073
323,968	-200,000	-0,009	-0,113
324,983	508,947	-0,152	-0,243
325,997	25,689	-0,203	-0,116
327,012	119,615	-0,030	-0,026
328,027	-131,457	-0,177	-0,016
329,041	171,542	-0,116	-0,114
330,056	-146,014	-0,095	-0,006
331,070	-0,221	-0,125	0,061
332,085	800,000	-0,087	-0,166
333,100	147,337	-0,104	-0,096
334,114	28,475	-0,053	-0,031
335,129	-53,640	-0,126	-0,039
336,143	512,418	-0,146	-0,235
337,158	179,827	-0,091	0,092
338,173	264,816	-0,040	-0,047
339,187	-139,698	-0,191	0,014
340,202	-200,000	-0,041	-0,131
341,216	-2,913	-0,293	-0,140
342,231	-95,002	-0,194	-0,036
343,246	332,854	-0,141	-0,187
344,260	125,687	-0,165	-0,143
345,275	278,572	-0,111	-0,136
346,289	111,501	-0,213	-0,176
347,304	703,830	-0,094	-0,171
348,319	-130,112	-0,174	-0,016
349,333	-169,056	-0,108	-0,003
350,348	800,000	-0,083	-0,169
351,362	-97,371	-0,219	-0,039
352,377	-129,291	-0,051	-0,005
353,392	27,188	-0,076	-0,044
354,406	-31,758	-0,101	-0,039
355,421	208,970	1316,776	1415,225
356,435	160,808	1477,763	1415,709
