DTS Sentinel unit serial number:	SN410029Multiplexer serial number:	ORYXHardware model number:	OX2-SRSoftware version number:	ORYX F/W v4,00 Oryx Data Collector v3.7.2.0data status	okinstallation	B3 Nyhavnadifferential loss correction	single-endedforward channel	channel 1reverse channel	N/Adate	2023/12/02time	05:02:30forward acquisition time	300,00reverse acquisition time	0,00gamma	499,1914k internal	0,3194k external	0,3194temperature offset calibration	1,0000default loss term (dB/km)	0,3820temperature slope calibration	1,0000multiplexer offset coefficient	1,0000multiplexer slope coefficient	1,0000fibre end	0,00T internal ref (°C)	16,37T ext. ref 1 (°C)	1,15T ext. ref 2 (°C)	1,13length (m)	temperature (°C)	Stokes	anti-Stokes-744,400	800,000	-0,147	-0,301
-743,385	-200,000	0,073	0,270
-742,371	307,049	-0,179	-0,243
-741,356	-200,000	-0,014	0,380
-740,342	363,598	-0,151	-0,222
-739,327	-200,000	-0,051	0,385
-738,312	356,690	-0,220	-0,320
-737,298	800,000	0,071	0,210
-736,283	20,186	-0,234	-0,138
-735,269	-200,000	0,011	0,304
-734,254	451,337	-0,101	-0,163
-733,239	58,466	-0,107	0,076
-732,225	84,548	-0,202	-0,161
-731,210	-200,000	-0,008	0,182
-730,196	-35,884	0,067	0,026
-729,181	-61,456	-0,129	0,039
-728,167	38,484	0,072	-0,047
-727,152	-60,001	-0,008	0,002
-726,137	800,000	-0,035	-0,084
-725,123	-200,000	0,048	-0,249
-724,108	-200,000	-0,006	0,098
-723,094	-200,000	0,001	-0,068
-722,079	134,994	-0,126	0,119
-721,064	211,413	-0,034	0,039
-720,050	-187,063	-0,126	0,001
-719,035	-200,000	-0,002	0,025
-718,021	-164,374	-0,084	0,003
-717,006	70,791	-0,111	-0,083
-715,991	-83,208	-0,188	-0,044
-714,977	-200,000	-0,039	-0,211
-713,962	-200,000	0,021	0,121
-712,948	96,585	-0,095	-0,079
-711,933	233,441	-0,070	-0,083
-710,918	-200,000	-0,001	0,035
-709,904	-46,896	-0,087	0,031
-708,889	342,497	-0,048	-0,069
-707,875	588,959	-0,052	-0,094
-706,860	-200,000	-0,009	-0,038
-705,845	-200,000	0,024	-0,078
-704,831	-200,000	-0,011	-0,049
-703,816	78,536	-0,100	0,077
-702,802	-200,000	-0,023	-0,086
-701,787	554,346	-0,053	-0,093
-700,772	508,128	-0,105	-0,178
-699,758	37,402	0,107	0,069
-698,743	534,486	-0,039	0,068
-697,729	81,863	-0,052	-0,041
-696,714	-200,000	0,005	0,159
-695,699	-200,000	-0,003	0,029
-694,685	120,746	-0,051	-0,046
-693,670	-200,000	0,013	-0,122
-692,656	-200,000	-0,015	-0,227
-691,641	800,000	0,027	0,063
-690,627	-18,063	0,108	-0,049
-689,612	457,305	0,004	0,006
-688,597	800,000	-0,041	0,114
-687,583	333,009	-0,062	0,087
-686,568	398,418	-0,015	-0,022
-685,554	800,000	0,077	-0,202
-684,539	-200,000	0,006	-0,090
-683,524	29,265	-0,097	0,060
-682,510	800,000	0,033	-0,094
-681,495	-200,000	0,018	-0,137
-680,481	-120,508	0,058	0,007
-679,466	-14,650	-0,168	-0,078
-678,451	70,883	0,072	0,054
-677,437	-200,000	0,015	0,086
-676,422	299,911	-0,029	-0,039
-675,408	132,547	-0,105	0,098
-674,393	137,725	0,020	-0,019
-673,378	800,000	-0,028	0,085
-672,364	82,605	-0,081	-0,064
-671,349	-200,000	0,015	-0,058
-670,335	-200,000	0,034	-0,118
-669,320	312,936	0,024	-0,033
-668,305	-143,676	0,022	0,002
-667,291	-200,000	-0,005	0,032
-666,276	-200,000	-0,043	-0,219
-665,262	241,483	0,016	-0,019
-664,247	-200,000	0,012	-0,065
-663,232	-72,897	0,105	-0,028
-662,218	273,182	-0,015	-0,019
-661,203	-31,897	-0,025	-0,010
-660,189	168,959	-0,040	-0,042
-659,174	145,840	0,023	-0,022
-658,159	800,000	-0,047	-0,114
-657,145	-73,093	-0,213	-0,056
-656,130	137,207	0,058	-0,055
-655,116	800,000	0,034	0,079
-654,101	33,351	0,030	0,019
-653,086	428,950	-0,041	0,065
-652,072	-110,239	-0,079	-0,012
-651,057	-136,657	0,029	-0,002
-650,043	-81,241	-0,016	-0,004
-649,028	800,000	-0,033	-0,087
-648,014	-75,198	-0,032	-0,008
-646,999	-72,144	0,109	0,029
-645,984	800,000	-0,044	-0,105
-644,970	6,441	-0,062	-0,033
-643,955	-52,732	0,066	0,022
-642,941	800,000	-0,045	-0,091
-641,926	146,484	0,144	-0,140
-640,911	-98,910	0,137	-0,025
-639,897	-29,827	-0,091	0,037
-638,882	-140,089	0,136	-0,010
-637,868	-61,501	-0,146	0,044
-636,853	75,774	0,049	0,037
-635,838	-27,224	-0,148	-0,062
-634,824	363,082	0,078	-0,114
-633,809	97,004	0,027	-0,023
-632,795	57,261	-0,098	-0,069
-631,780	163,309	0,136	-0,139
-630,765	-10,736	-0,078	-0,037
-629,751	-123,712	-0,104	0,012
-628,736	43,587	-0,087	-0,058
-627,722	-23,037	-0,051	-0,022
-626,707	478,054	0,013	0,022
-625,692	-200,000	-0,003	0,042
-624,678	-145,808	0,062	0,004
-623,663	501,256	-0,019	-0,032
-622,649	773,649	0,067	-0,133
-621,634	531,611	-0,057	-0,099
-620,619	300,864	-0,081	-0,109
-619,605	485,172	-0,068	0,113
-618,590	-49,695	0,096	-0,033
-617,576	-8,375	-0,086	0,042
-616,561	125,116	0,035	0,032
-615,546	-1,062	-0,042	0,021
-614,532	517,862	-0,075	-0,129
-613,517	-57,300	-0,128	-0,041
-612,503	190,505	-0,017	0,019
-611,488	410,706	-0,020	-0,032
-610,474	213,141	-0,024	0,027
-609,459	51,797	-0,067	0,046
-608,444	29,718	0,045	-0,028
-607,430	-200,000	-0,007	-0,062
-606,415	156,475	-0,122	-0,122
-605,401	800,000	-0,024	0,054
-604,386	85,890	0,091	-0,072
-603,371	56,645	-0,094	-0,066
-602,357	800,000	-0,022	-0,052
-601,342	-200,000	-0,005	-0,053
-600,328	164,818	0,044	-0,045
-599,313	-129,143	0,054	-0,005
-598,298	-200,000	0,001	-0,078
-597,284	349,745	-0,058	-0,083
-596,269	-1,196	-0,197	0,101
-595,255	74,418	-0,070	0,053
-594,240	25,241	-0,096	-0,058
-593,225	129,746	-0,195	-0,180
-592,211	264,713	-0,049	-0,062
-591,196	34,801	-0,105	0,066
-590,182	-4,684	0,097	0,049
-589,167	-76,513	-0,092	-0,023
-588,152	-73,434	-0,078	-0,020
-587,138	-200,000	0,014	0,148
-586,123	800,000	0,023	-0,062
-585,109	-200,000	0,020	-0,088
-584,094	165,375	-0,130	0,133
-583,079	25,096	-0,052	-0,031
-582,065	800,000	0,023	0,063
-581,050	469,446	0,085	0,139
-580,036	-200,000	0,003	-0,066
-579,021	-18,444	-0,131	-0,059
-578,006	781,825	-0,031	-0,062
-576,992	400,641	-0,029	0,045
-575,977	-200,000	-0,005	-0,112
-574,963	800,000	0,052	0,118
-573,948	-32,874	0,068	0,027
-572,934	-200,000	0,001	0,029
-571,919	-200,000	0,006	-0,044
-570,904	-200,000	0,017	-0,122
-569,890	-60,611	-0,098	-0,030
-568,875	-65,066	0,155	0,045
-567,861	-18,400	-0,088	-0,040
-566,846	22,696	-0,029	-0,017
-565,831	84,180	-0,058	0,046
-564,817	69,864	0,055	-0,041
-563,802	674,229	-0,058	-0,110
-562,788	-141,611	0,071	-0,005
-561,773	82,071	0,109	-0,085
-560,758	131,034	0,112	0,104
-559,744	800,000	0,016	-0,037
-558,729	-40,266	0,101	0,038
-557,715	83,567	0,043	-0,034
-556,700	709,900	-0,107	-0,205
-555,685	-200,000	0,003	-0,040
-554,671	-76,587	0,099	-0,025
-553,656	272,143	0,084	0,108
-552,642	-200,000	0,019	0,168
-551,627	177,878	0,017	-0,017
-550,612	730,329	0,047	0,092
-549,598	-127,978	-0,114	-0,012
-548,583	218,486	-0,104	-0,121
-547,569	800,000	-0,037	-0,114
-546,554	800,000	-0,022	-0,056
-545,539	800,000	0,054	0,125
-544,525	-88,383	-0,033	0,007
-543,510	84,460	-0,112	0,088
-542,496	-74,211	-0,083	0,021
-541,481	42,731	-0,041	0,027
-540,466	263,228	-0,030	-0,038
-539,452	164,466	-0,029	0,030
-538,437	571,808	0,036	-0,064
-537,423	116,507	-0,051	0,045
-536,408	11,605	-0,084	-0,047
-535,393	-16,109	-0,048	-0,022
-534,379	-185,144	-0,040	-0,000
-533,364	800,000	0,022	-0,062
-532,350	190,122	0,070	0,076
-531,335	97,473	0,061	0,050
-530,321	800,000	0,016	0,045
-529,306	-66,055	0,098	0,028
-528,291	-200,000	0,047	-0,161
-527,277	256,098	-0,036	0,045
-526,262	-85,809	-0,147	0,033
-525,248	-138,004	-0,023	-0,002
-524,233	104,864	0,026	-0,022
-523,218	95,774	0,111	0,092
-522,204	-200,000	-0,012	0,105
-521,189	75,938	0,080	0,061
-520,175	-200,000	0,005	-0,029
-519,160	800,000	-0,034	-0,094
-518,145	13,843	0,090	-0,050
-517,131	-65,509	-0,069	0,020
-516,116	-12,776	-0,063	0,030
-515,102	-14,796	0,058	-0,027
-514,087	-200,000	-0,005	-0,018
-513,072	-100,465	-0,153	-0,027
-512,058	-200,000	-0,010	-0,050
-511,043	-200,000	-0,029	0,094
-510,029	106,078	0,100	0,086
-509,014	800,000	0,018	0,046
-507,999	407,445	0,036	-0,056
-506,985	475,480	-0,100	-0,163
-505,970	-170,369	-0,127	-0,003
-504,956	-31,997	0,048	0,019
-503,941	800,000	0,019	0,045
-502,926	147,485	-0,094	0,091
-501,912	-200,000	0,022	-0,127
-500,897	-120,511	-0,120	0,015
-499,883	229,023	0,034	-0,040
-498,868	-110,142	-0,149	-0,022
-497,853	197,196	0,003	0,004
-496,839	800,000	-0,054	0,113
-495,824	2,209	-0,158	0,082
-494,810	204,374	0,144	0,161
-493,795	-200,000	-0,005	0,033
-492,781	-7,553	-0,079	-0,038
-491,766	68,388	0,054	0,040
-490,751	546,601	0,046	-0,080
-489,737	-110,007	0,099	0,015
-488,722	800,000	0,029	0,063
-487,708	774,638	0,052	0,103
-486,693	152,024	0,040	0,039
-485,678	-200,000	0,001	0,178
-484,664	-138,721	-0,078	0,006
-483,649	-92,409	0,061	-0,012
-482,635	124,565	-0,091	0,083
-481,620	-200,000	0,004	0,041
-480,605	-4,648	0,055	-0,027
-479,591	286,713	-0,027	-0,036
-478,576	335,530	-0,028	-0,039
-477,562	-200,000	-0,050	-0,197
-476,547	800,000	-0,038	-0,093
-475,532	-200,000	-0,007	-0,042
-474,518	-200,000	-0,024	0,156
-473,503	235,623	0,039	0,046
-472,489	-200,000	-0,007	-0,025
-471,474	-21,312	-0,051	-0,022
-470,459	149,744	-0,104	-0,102
-469,445	441,422	0,039	0,063
-468,430	-28,803	0,046	-0,019
-467,416	253,120	-0,039	0,048
-466,401	-200,000	0,034	0,141
-465,386	-43,361	0,087	-0,031
-464,372	-200,000	0,008	-0,048
-463,357	72,948	-0,026	-0,020
-462,343	800,000	0,006	-0,019
-461,328	54,412	-0,032	-0,022
-460,313	-200,000	-0,017	0,107
-459,299	-42,688	0,084	0,031
-458,284	23,197	0,162	0,096
-457,270	-200,000	0,024	-0,087
-456,255	630,072	0,050	0,092
-455,241	-53,794	-0,057	-0,018
-454,226	477,522	0,087	-0,142
-453,211	115,032	-0,092	-0,080
-452,197	-142,471	-0,098	0,007
-451,182	565,921	0,039	0,068
-450,168	-136,632	-0,052	-0,004
-449,153	24,115	0,120	0,071
-448,138	800,000	0,001	0,002
-447,124	318,712	0,018	-0,024
-446,109	564,917	-0,075	0,132
-445,095	-51,011	0,130	0,044
-444,080	-200,000	0,041	0,133
-443,065	468,245	-0,007	-0,011
-442,051	44,594	-0,076	-0,050
-441,036	-107,960	-0,056	0,009
-440,022	-82,926	0,093	0,022
-439,007	555,551	-0,051	0,089
-437,992	-115,679	-0,108	0,014
-436,978	800,000	-0,021	0,060
-435,963	-65,599	0,111	0,032
-434,949	373,516	0,005	-0,008
-433,934	27,309	-0,162	-0,098
-432,919	-200,000	-0,032	-0,195
-431,905	-200,000	-0,027	-0,106
-430,890	-133,118	0,118	-0,011
-429,876	432,309	0,057	0,090
-428,861	160,696	0,023	0,024
-427,846	-200,000	0,003	-0,074
-426,832	-200,000	-0,003	0,033
-425,817	357,977	-0,045	0,065
-424,803	-21,144	0,124	-0,054
-423,788	172,286	0,023	-0,023
-422,773	549,675	-0,015	-0,026
-421,759	-200,000	0,023	0,075
-420,744	800,000	0,021	-0,051
-419,730	29,959	0,062	-0,038
-418,715	-200,000	0,029	-0,108
-417,701	473,315	-0,039	-0,063
-416,686	44,564	-0,065	0,043
-415,671	56,778	0,201	0,141
-414,657	800,000	-0,014	-0,030
-413,642	39,395	0,092	0,059
-412,628	-200,000	0,002	0,010
-411,613	-200,000	-0,005	-0,134
-410,598	324,929	0,017	-0,023
-409,584	-121,423	0,133	0,016
-408,569	-6,954	0,023	-0,011
-407,555	-66,915	0,077	0,022
-406,540	-93,369	-0,196	-0,039
-405,525	800,000	-0,042	0,115
-404,511	136,331	0,063	-0,059
-403,496	63,276	0,067	-0,048
-402,482	-200,000	0,020	0,080
-401,467	-46,305	-0,071	-0,025
-400,452	800,000	0,037	-0,088
-399,438	-43,340	0,084	0,030
-398,423	-82,846	-0,030	0,007
-397,409	219,818	0,062	-0,072
-396,394	129,578	-0,133	0,122
-395,379	-57,978	0,107	0,034
-394,365	-14,109	-0,136	0,063
-393,350	103,366	0,073	0,062
-392,336	271,128	0,080	-0,101
-391,321	12,658	0,092	0,051
-390,306	-71,949	-0,078	0,021
-389,292	767,254	0,053	-0,103
-388,277	472,104	-0,040	-0,065
-387,263	145,494	0,077	-0,074
-386,248	800,000	0,009	-0,029
-385,233	800,000	-0,032	0,071
-384,219	-200,000	-0,002	-0,081
-383,204	189,816	-0,040	0,043
-382,190	47,909	0,015	0,010
-381,175	-149,124	-0,089	-0,005
-380,160	-200,000	0,018	0,095
-379,146	40,203	-0,065	-0,042
-378,131	-200,000	-0,019	0,114
-377,117	-24,247	-0,065	0,028
-376,102	139,966	0,102	-0,097
-375,088	-115,116	-0,135	0,018
-374,073	98,799	-0,013	-0,011
-373,058	800,000	-0,017	0,041
-372,044	84,101	0,161	0,126
-371,029	-174,513	0,089	-0,002
-370,015	-114,977	-0,119	-0,016
-369,000	752,133	-0,018	-0,034
-367,985	-83,429	-0,145	0,033
-366,971	-200,000	-0,015	0,128
-365,956	499,187	-0,017	0,028
-364,942	-200,000	0,027	-0,098
-363,927	540,995	-0,035	-0,061
-362,912	-0,222	0,058	0,030
-361,898	-200,000	0,008	-0,033
-360,883	-146,382	-0,107	0,007
-359,869	305,118	0,010	0,014
-358,854	800,000	-0,034	-0,104
-357,839	-200,000	-0,001	0,072
-356,825	800,000	0,026	0,074
-355,810	-200,000	0,024	0,108
-354,796	560,356	0,054	0,094
-353,781	178,478	0,066	-0,070
-352,766	-19,949	-0,048	-0,021
-351,752	-200,000	-0,002	-0,088
-350,737	278,450	0,091	0,117
-349,723	-200,000	0,038	0,000
-348,708	-60,404	-0,079	-0,024
-347,693	388,604	0,034	0,051
-346,679	-152,568	-0,080	-0,004
-345,664	800,000	-0,055	0,141
-344,650	82,541	-0,077	0,060
-343,635	357,517	0,092	0,133
-342,620	-24,036	-0,051	0,022
-341,606	674,609	0,055	0,104
-340,591	-59,644	-0,120	0,037
-339,577	416,662	0,024	-0,037
-338,562	169,416	-0,088	-0,090
-337,548	800,000	0,022	0,057
-336,533	51,960	0,080	0,055
-335,518	114,569	0,116	0,102
-334,504	125,403	0,062	0,056
-333,489	202,057	-0,033	-0,036
-332,475	-200,000	-0,018	0,079
-331,460	-140,120	-0,068	0,005
-330,445	-200,000	-0,001	-0,005
-329,431	800,000	0,104	0,215
-328,416	800,000	-0,041	0,111
-327,402	-200,000	0,020	0,138
-326,387	60,864	-0,111	0,079
-325,372	-200,000	-0,003	-0,099
-324,358	-200,000	0,007	-0,134
-323,343	450,590	0,074	-0,117
-322,329	-200,000	-0,029	0,107
-321,314	-18,823	-0,011	-0,005
-320,299	-71,880	-0,003	0,001
-319,285	-200,000	-0,012	-0,131
-318,270	-200,000	0,008	-0,093
-317,256	15,882	-0,164	-0,092
-316,241	355,122	0,036	0,052
-315,226	-112,471	0,085	0,012
-314,212	-99,996	0,109	0,019
-313,197	43,605	0,072	0,047
-312,183	157,114	-0,135	-0,134
-311,168	775,044	-0,024	0,046
-310,153	-41,696	-0,064	-0,023
-309,139	233,794	-0,076	-0,090
-308,124	127,470	0,049	0,044
-307,110	-200,000	0,013	0,087
-306,095	312,704	0,107	0,144
-305,080	-200,000	-0,008	-0,071
-304,066	-200,000	-0,032	-0,133
-303,051	-64,551	0,081	-0,023
-302,037	-200,000	0,018	-0,102
-301,022	177,492	0,039	-0,041
-300,008	760,936	0,055	-0,106
-298,993	800,000	0,043	0,090
-297,978	-200,000	-0,012	0,087
-296,964	800,000	0,047	0,104
-295,949	10,892	0,095	0,052
-294,935	377,424	-0,080	-0,118
-293,920	800,000	-0,040	-0,083
-292,905	11,245	0,198	0,108
-291,891	43,481	0,057	0,037
-290,876	-44,264	0,070	-0,025
-289,862	127,022	-0,131	0,119
-288,847	-101,317	-0,103	0,018
-287,832	-72,649	-0,175	0,046
-286,818	338,699	-0,053	0,075
-285,803	65,405	0,124	0,089
-284,789	502,027	0,084	0,139
-283,774	-200,000	-0,034	0,107
-282,759	-25,443	0,053	0,022
-281,745	-200,000	0,038	-0,149
-280,730	638,164	0,047	-0,085
-279,716	-200,000	0,010	-0,030
-278,701	486,760	0,078	0,128
-277,686	-82,473	0,239	0,055
-276,672	-13,690	-0,073	-0,034
-275,657	-200,000	0,004	-0,096
-274,643	160,037	-0,017	0,017
-273,628	-200,000	0,012	-0,084
-272,613	231,563	-0,018	-0,021
-271,599	13,428	0,070	0,038
-270,584	-7,561	0,117	-0,057
-269,570	-200,000	0,001	0,031
-268,555	83,723	-0,109	0,085
-267,540	187,012	0,059	-0,062
-266,526	97,721	0,054	0,044
-265,511	-200,000	0,002	-0,050
-264,497	800,000	0,007	-0,020
-263,482	175,302	0,067	0,070
-262,467	-61,303	0,150	0,045
-261,453	333,614	-0,034	0,048
-260,438	604,212	-0,060	0,108
-259,424	-82,302	-0,113	0,026
-258,409	-200,000	0,007	0,066
-257,395	800,000	0,056	0,119
-256,380	0,227	0,047	-0,024
-255,365	-5,789	0,134	-0,065
-254,351	-77,597	0,081	-0,020
-253,336	-200,000	0,028	-0,118
-252,322	-89,889	-0,069	-0,014
-251,307	91,516	0,042	-0,034
-250,292	407,000	0,021	-0,032
-249,278	-3,385	-0,166	0,082
-248,263	188,042	0,014	0,015
-247,249	-200,000	-0,004	0,067
-246,234	-132,611	0,075	-0,007
-245,219	233,801	0,023	-0,027
-244,205	-200,000	0,018	0,167
-243,190	103,772	0,059	0,049
-242,176	277,167	-0,095	-0,121
-241,161	-55,996	-0,043	0,014
-240,146	295,000	0,058	0,076
-239,132	-200,000	-0,010	0,037
-238,117	-200,000	-0,017	-0,099
-237,103	-200,000	-0,054	-0,193
-236,088	-200,000	0,021	0,076
-235,073	151,702	-0,031	-0,030
-234,059	-98,951	0,045	-0,008
-233,044	-59,415	0,085	0,026
-232,030	800,000	0,030	0,067
-231,015	-154,428	0,072	-0,003
-230,000	-100,407	-0,057	0,010
-228,986	659,104	-0,024	0,043
-227,971	73,900	0,038	0,028
-226,957	213,926	0,019	-0,022
-225,942	-106,706	-0,048	0,008
-224,927	800,000	0,018	0,051
-223,913	59,466	0,024	0,017
-222,898	109,019	0,190	-0,162
-221,884	132,985	-0,116	-0,107
-220,869	-35,140	0,089	-0,034
-219,855	-107,996	0,166	0,025
-218,840	-95,911	-0,028	-0,005
-217,825	-200,000	-0,007	-0,028
-216,811	-125,453	-0,186	0,020
-215,796	-200,000	-0,031	-0,146
-214,782	-123,610	-0,112	-0,012
-213,767	218,891	0,077	-0,088
-212,752	-125,595	0,082	0,009
-211,738	71,524	0,132	0,098
-210,723	2,046	-0,162	-0,083
-209,709	800,000	-0,015	-0,035
-208,694	-10,683	0,120	-0,057
-207,679	-200,000	-0,009	-0,064
-206,665	-54,604	0,007	-0,002
-205,650	139,165	-0,068	0,064
-204,636	-30,683	0,116	0,047
-203,621	-154,057	0,134	0,006
-202,606	-5,119	-0,074	-0,036
-201,592	134,401	0,076	-0,071
-200,577	800,000	0,048	-0,109
-199,563	605,202	-0,023	-0,041
-198,548	-200,000	0,039	0,181
-197,533	-161,356	0,009	-0,000
-196,519	-61,372	-0,068	-0,020
-195,504	21,788	0,098	-0,057
-194,490	-200,000	0,000	0,029
-193,475	-8,193	-0,120	0,057
-192,460	39,863	-0,081	0,052
-191,446	-79,248	-0,073	-0,017
-190,431	65,893	0,063	0,045
-189,417	-200,000	0,004	-0,073
-188,402	800,000	0,075	0,197
-187,387	232,068	-0,048	0,056
-186,373	121,791	-0,102	-0,091
-185,358	-200,000	0,005	0,102
-184,344	-200,000	-0,018	0,100
-183,329	800,000	-0,045	0,112
-182,315	-13,443	-0,127	0,059
-181,300	96,887	0,088	-0,072
-180,285	-200,000	-0,022	0,082
-179,271	-200,000	-0,016	-0,056
-178,256	30,533	0,120	-0,073
-177,242	295,156	-0,034	-0,044
-176,227	800,000	0,063	-0,175
-175,212	267,278	0,040	0,050
-174,198	-26,966	-0,059	0,025
-173,183	-200,000	0,001	-0,083
-172,169	800,000	0,022	-0,051
-171,154	800,000	-0,036	-0,084
-170,139	594,044	0,050	-0,089
-169,125	245,764	0,099	0,119
-168,110	-200,000	0,014	0,124
-167,096	-51,125	-0,163	0,054
-166,081	374,774	-0,034	-0,050
-165,066	-167,412	-0,069	0,002
-164,052	608,595	0,028	-0,050
-163,037	-200,000	0,005	-0,054
-162,023	-171,174	0,191	-0,004
-161,008	-167,481	0,151	-0,004
-159,993	-126,198	-0,057	-0,006
-158,979	266,457	-0,102	-0,127
-157,964	-200,000	0,006	0,074
-156,950	9,999	-0,080	-0,043
-155,935	180,424	-0,045	0,048
-154,920	39,008	0,058	-0,037
-153,906	-63,377	0,074	-0,022
-152,891	-99,620	-0,108	0,019
-151,877	-57,560	-0,094	-0,029
-150,862	800,000	-0,020	0,060
-149,847	-200,000	-0,030	-0,167
-148,833	-2,622	0,043	-0,021
-147,818	16,197	0,050	0,028
-146,804	-179,908	-0,043	0,001
-145,789	212,601	-0,134	0,150
-144,775	-49,477	0,073	0,025
-143,760	302,886	-0,150	-0,199
-142,745	-32,800	-0,033	-0,013
-141,731	40,564	0,211	0,135
-140,716	800,000	-0,007	-0,016
-139,702	250,858	0,092	0,111
-138,687	-102,809	0,163	-0,027
-137,672	-200,000	0,022	-0,144
-136,658	800,000	0,031	-0,081
-135,643	375,605	0,044	-0,064
-134,629	408,433	-0,067	-0,102
-133,614	-200,000	-0,002	0,123
-132,599	-135,365	0,046	0,004
-131,585	-26,849	-0,073	0,030
-130,570	-200,000	-0,019	-0,093
-129,556	-200,000	0,006	-0,093
-128,541	-3,393	-0,087	-0,043
-127,526	356,847	0,064	-0,091
-126,512	-54,621	0,021	0,007
-125,497	84,010	0,067	-0,052
-124,483	800,000	-0,019	0,056
-123,468	-166,951	-0,059	-0,002
-122,453	26,592	-0,084	-0,050
-121,439	370,085	-0,058	0,084
-120,424	85,059	0,092	-0,072
-119,410	-200,000	0,009	0,042
-118,395	187,889	-0,040	0,043
-117,380	517,506	-0,042	-0,070
-116,366	800,000	-0,025	0,072
-115,351	642,638	0,018	0,032
-114,337	340,281	-0,041	0,057
-113,322	71,122	-0,103	-0,076
-112,307	-200,000	0,004	-0,144
-111,293	-69,844	0,080	-0,021
-110,278	-98,659	0,120	0,021
-109,264	800,000	-0,049	0,118
-108,249	800,000	-0,021	0,063
-107,234	800,000	0,016	-0,038
-106,220	-17,197	-0,126	0,056
-105,205	-200,000	-0,016	0,063
-104,191	800,000	0,014	-0,032
-103,176	27,512	0,130	0,078
-102,162	91,410	-0,014	0,011
-101,147	-49,113	0,006	-0,002
-100,132	2,789	-0,088	-0,045
-99,118	-200,000	-0,002	-0,024
-98,103	-200,000	0,025	0,090
-97,089	800,000	-0,022	0,048
-96,074	21,017	0,085	0,049
-95,059	592,150	-0,049	0,087
-94,045	-200,000	0,006	0,039
-93,030	-200,000	-0,026	-0,093
-92,016	-200,000	0,001	0,045
-91,001	9,702	0,081	0,044
-89,986	-6,388	0,096	-0,046
-88,972	800,000	0,044	0,113
-87,957	265,384	0,070	0,087
-86,943	-200,000	0,004	-0,024
-85,928	-23,677	-0,097	-0,041
-84,913	-200,000	0,010	-0,066
-83,899	-200,000	-0,001	0,055
-82,884	800,000	0,054	-0,137
-81,870	319,254	0,031	-0,041
-80,855	236,630	0,133	0,156
-79,840	-139,291	0,088	-0,007
-78,826	3,786	0,016	-0,008
-77,811	32,087	-0,089	-0,055
-76,797	206,354	0,103	-0,114
-75,782	333,334	-0,081	0,111
-74,767	-200,000	-0,008	0,071
-73,753	485,448	0,039	-0,064
-72,738	-200,000	0,019	0,100
-71,724	-148,696	-0,099	0,006
-70,709	159,514	-0,044	0,043
-69,694	282,623	0,042	-0,054
-68,680	41,726	-0,039	0,025
-67,665	-95,865	0,026	0,005
-66,651	800,000	-0,019	-0,038
-65,636	800,000	-0,041	0,108
-64,622	663,673	-0,012	0,022
-63,607	31,900	-0,035	-0,021
-62,592	-3,302	0,088	-0,043
-61,578	-11,938	-0,046	-0,021
-60,563	259,616	-0,051	-0,063
-59,549	-130,832	-0,123	0,012
-58,534	-54,295	-1,403	-0,449
-57,519	333,419	-1,613	-2,219
-56,505	-200,000	-0,484	-4,482
-55,490	73,830	0,956	0,710
-54,476	800,000	4,816	11,446
-53,461	-200,000	17,479	275,418
-52,446	800,000	718,109	2203,231
-51,432	557,752	1632,026	2802,942
-50,417	81,284	1656,891	1268,854
-49,403	24,191	1531,292	894,772
-48,388	18,177	1454,357	820,833
-47,373	18,484	1443,688	816,249
-46,359	18,140	1434,638	809,466
-45,344	16,533	1429,779	799,059
-44,330	16,464	1427,972	797,691
-43,315	16,448	1426,074	796,520
-42,300	16,488	1424,553	795,831
-41,286	16,552	1423,421	795,467
-40,271	16,515	1422,117	794,535
-39,257	16,390	1421,033	793,306
-38,242	16,493	1419,427	792,865
-37,227	16,516	1418,202	792,255
-36,213	16,481	1417,087	791,438
-35,198	16,439	1415,811	790,497
-34,184	16,464	1414,973	790,114
-33,169	16,392	1413,745	789,057
-32,154	16,476	1412,677	788,824
-31,140	16,484	1411,192	788,000
-30,125	16,499	1410,222	787,498
-29,111	16,476	1409,090	786,726
-28,096	16,466	1407,864	785,968
-27,082	16,417	1406,867	785,148
-26,067	16,431	1405,488	784,416
-25,052	16,445	1404,537	783,917
-24,038	16,408	1403,684	783,235
-23,023	16,459	1402,333	782,692
-22,009	16,349	1401,751	781,824
-20,994	16,332	1400,722	781,138
-19,979	16,346	1399,634	780,564
-18,965	16,353	1398,873	780,141
-17,950	16,331	1397,910	779,474
-16,936	16,337	1396,975	778,948
-15,921	16,329	1395,519	778,068
-14,906	16,299	1394,776	777,483
-13,892	16,314	1394,021	777,101
-12,877	16,297	1392,879	776,354
-11,863	16,319	1392,024	775,949
-10,848	16,326	1390,864	775,303
-9,833	16,304	1390,104	774,747
-8,819	16,250	1389,217	773,974
-7,804	16,210	1388,445	773,329
-6,790	16,184	1387,369	772,580
-5,775	16,182	1386,267	771,925
-4,760	16,223	1385,483	771,647
-3,746	16,213	1384,477	771,012
-2,731	16,182	1383,807	770,465
-1,717	16,189	1382,747	769,877
-0,702	16,188	1381,021	768,881
0,313	20,049	1302,587	743,000
1,327	36,425	707,672	441,660
2,342	56,329	125,663	86,443
3,356	4,189	16,541	8,557
4,371	3,926	3,060	1,580
5,386	-62,281	0,481	0,141
6,400	-2,909	-0,065	0,032
7,415	-71,897	-0,359	-0,094
8,429	800,000	-0,095	-0,224
9,444	148,672	-0,239	-0,229
10,459	-200,000	-0,069	-0,316
11,473	71,626	-0,275	-0,202
12,488	94,204	-0,250	-0,201
13,502	114,394	-0,239	-0,206
14,517	33,205	-0,361	-0,221
15,531	118,309	-0,339	-0,296
16,546	2,346	-0,384	-0,196
17,561	17,040	-0,320	-0,179
18,575	-133,463	-0,296	-0,026
19,590	133,861	-0,281	-0,258
20,604	21,113	-0,265	-0,152
21,619	74,112	-0,514	-0,382
22,634	128,461	-0,353	-0,318
23,648	3,138	-0,591	-0,303
24,663	113,112	-0,292	-0,251
25,677	41,650	-0,401	-0,257
26,692	3,968	-0,415	-0,214
27,707	42,629	-0,322	-0,207
28,721	57,006	-0,368	-0,253
29,736	119,065	-0,321	-0,281
30,750	209,987	-0,327	-0,363
31,765	219,994	-0,383	-0,434
32,780	800,000	-0,231	-0,484
33,794	172,976	-0,312	-0,318
34,809	182,172	-0,398	-0,415
35,823	558,373	-0,205	-0,351
36,838	-15,508	-0,282	-0,127
37,853	173,524	-0,286	-0,292
38,867	22,704	-0,421	-0,243
39,882	-73,351	-0,326	-0,083
40,896	38,666	-0,374	-0,235
41,911	90,564	-0,278	-0,220
42,926	-84,155	-0,381	-0,085
43,940	155,473	-0,391	-0,380
44,955	106,366	-0,337	-0,282
45,969	142,611	-0,357	-0,335
46,984	117,167	-0,305	-0,265
47,999	37,057	-0,388	-0,242
49,013	94,360	-0,224	-0,179
50,028	-47,231	-0,447	-0,153
51,042	38,024	-0,319	-0,200
52,057	138,620	-0,330	-0,306
53,071	11,311	-0,403	-0,217
54,086	13,328	-0,310	-0,169
55,101	12,452	-0,399	-0,217
56,115	319,541	-0,188	-0,252
57,130	39,543	-0,282	-0,178
58,144	165,816	-0,344	-0,344
59,159	-8,196	-0,367	-0,174
60,174	21,858	-0,305	-0,175
61,188	103,467	-0,356	-0,295
62,203	4,782	-0,319	-0,165
63,217	-17,999	-0,408	-0,179
64,232	50,879	-0,294	-0,196
65,247	-6,088	-0,396	-0,190
66,261	88,435	-0,327	-0,256
67,276	39,075	-0,458	-0,288
68,290	26,140	-0,340	-0,200
69,305	340,160	-0,225	-0,311
70,320	397,627	-0,248	-0,366
71,334	-27,987	-0,365	-0,148
72,349	17,590	-0,328	-0,183
73,363	-76,884	-0,451	-0,110
74,378	-27,913	-0,387	-0,157
75,393	-45,129	-0,360	-0,125
76,407	-2,540	-0,306	-0,150
77,422	-70,215	-0,510	-0,135
78,436	48,010	-0,277	-0,182
79,451	-12,781	-0,402	-0,184
80,466	46,479	-0,357	-0,233
81,480	299,889	-0,311	-0,405
82,495	214,976	-0,267	-0,299
83,509	78,098	-0,209	-0,156
84,524	81,106	-0,309	-0,234
85,539	88,439	-0,290	-0,226
86,553	-76,977	-0,312	-0,076
87,568	5,578	-0,402	-0,209
88,582	369,967	-0,246	-0,351
89,597	-18,088	-0,255	-0,112
90,611	-59,656	-0,350	-0,105
91,626	65,780	-0,302	-0,215
92,641	18,255	-0,212	-0,119
93,655	16,459	-0,313	-0,173
94,670	-9,487	-0,430	-0,201
95,684	-57,672	-0,347	-0,106
96,699	139,347	-0,299	-0,277
97,714	51,795	-0,276	-0,184
98,728	-63,915	-0,342	-0,098
99,743	-88,788	-0,357	-0,074
100,757	-27,282	-0,216	-0,088
101,772	64,473	-0,113	-0,080
102,787	279,480	-0,157	-0,197
103,801	-41,543	-0,286	-0,103
104,816	172,086	-0,221	-0,223
105,830	238,420	-0,276	-0,322
106,845	-23,410	-0,291	-0,122
107,860	-144,427	-0,240	-0,015
108,874	-26,574	-0,341	-0,140
109,889	242,580	-0,194	-0,228
110,903	332,204	-0,220	-0,299
111,918	52,812	-0,347	-0,232
112,933	-8,324	-0,243	-0,114
113,947	-96,880	-0,187	-0,034
114,962	-64,404	-0,333	-0,095
115,976	63,110	-0,272	-0,191
116,991	1,654	-0,350	-0,176
118,006	265,238	-0,180	-0,221
119,020	104,188	-0,270	-0,223
120,035	106,846	-0,226	-0,188
121,049	-80,968	-0,246	-0,057
122,064	79,994	-0,155	-0,117
123,079	-27,390	-0,212	-0,086
124,093	205,881	-0,245	-0,268
125,108	132,702	-0,237	-0,215
126,122	174,544	-0,226	-0,230
127,137	127,738	-0,311	-0,277
128,151	5,198	-0,235	-0,121
129,166	80,732	-0,187	-0,141
130,181	-56,531	-0,378	-0,117
131,195	593,222	-0,152	-0,264
132,210	82,515	-0,227	-0,172
133,224	38,739	-0,308	-0,193
134,239	-6,864	-0,265	-0,126
135,254	4,629	-0,333	-0,171
136,268	40,229	-0,191	-0,120
137,283	562,691	-0,131	-0,224
138,297	106,624	-0,305	-0,253
139,312	155,198	-0,282	-0,272
140,327	41,068	-0,207	-0,131
141,341	218,445	-0,189	-0,211
142,356	-126,409	-0,234	0,024
143,370	15,920	-0,285	-0,156
144,385	110,078	-0,213	-0,179
145,400	29,687	-0,242	-0,144
146,414	171,852	-0,253	-0,255
147,429	83,496	-0,424	-0,323
148,443	54,644	-0,326	-0,220
149,458	195,584	-0,319	-0,339
150,473	-119,399	-0,233	-0,028
151,487	-33,649	-0,378	-0,145
152,502	189,768	-0,215	-0,226
153,516	196,423	-0,193	-0,206
154,531	49,713	-0,239	-0,158
155,546	-59,410	-0,295	-0,088
156,560	-2,982	-0,182	-0,089
157,575	86,062	-0,184	-0,142
158,589	185,123	-0,197	-0,205
159,604	329,398	-0,154	-0,207
160,619	20,212	-0,224	-0,126
161,633	77,341	-0,319	-0,237
162,648	15,669	-0,325	-0,178
163,662	-36,784	-0,247	-0,092
164,677	337,147	-0,124	-0,168
165,692	362,980	-0,108	-0,153
166,706	-155,821	-0,398	0,017
167,721	12,135	-0,289	-0,155
168,735	82,165	-0,314	-0,238
169,750	301,765	-0,251	-0,325
170,764	63,017	-0,271	-0,189
171,779	168,145	-0,292	-0,290
172,794	-106,779	-0,263	-0,040
173,808	111,778	-0,200	-0,169
174,823	122,510	-0,371	-0,324
175,837	152,640	-0,115	-0,110
176,852	51,838	-0,271	-0,180
177,867	-58,679	-0,191	-0,057
178,881	-150,140	-0,202	0,011
179,896	-126,346	-0,269	-0,028
180,910	74,380	-0,230	-0,169
181,925	-8,531	-0,220	-0,103
182,940	104,285	-0,222	-0,182
183,954	407,261	-0,141	-0,209
184,969	19,395	-0,140	-0,078
185,983	-77,528	-0,243	-0,058
186,998	168,464	-0,152	-0,151
188,013	53,430	-0,192	-0,128
189,027	59,682	-0,192	-0,132
190,042	106,491	-0,256	-0,211
191,056	-23,662	-0,259	-0,108
192,071	107,327	-0,211	-0,175
193,086	180,955	-0,136	-0,139
194,100	145,646	-0,244	-0,228
195,115	339,327	-0,188	-0,256
196,129	-19,529	-0,378	-0,163
197,144	65,370	-0,282	-0,198
198,159	199,319	-0,253	-0,271
199,173	21,759	-0,258	-0,146
200,188	16,132	-0,285	-0,156
201,202	800,000	-0,067	-0,152
202,217	-61,825	-0,297	-0,086
203,232	163,987	-0,187	-0,183
204,246	111,554	-0,194	-0,163
205,261	-13,446	-0,296	-0,133
206,275	29,581	-0,220	-0,130
207,290	212,625	-0,160	-0,176
208,304	-63,354	-0,107	0,031
209,319	-52,720	-0,201	-0,064
210,334	403,339	-0,187	-0,275
211,348	413,055	-0,159	-0,236
212,363	2,158	-0,175	-0,087
213,377	193,378	-0,147	-0,155
214,392	142,878	-0,164	-0,152
215,407	-10,281	-0,185	-0,085
216,421	-106,871	-0,353	-0,054
217,436	800,000	-0,158	-0,321
218,450	-29,223	-0,206	-0,082
219,465	246,576	-0,218	-0,256
220,480	271,088	-0,119	-0,146
221,494	35,492	-0,270	-0,165
222,509	79,194	-0,129	-0,096
223,523	60,712	-0,144	-0,099
224,538	-40,494	-0,206	-0,074
225,553	114,290	-0,123	-0,104
226,567	800,000	-0,100	-0,205
227,582	-129,536	-0,234	0,022
228,596	206,075	-0,145	-0,157
229,611	-200,000	-0,013	-0,173
230,626	117,146	-0,124	-0,106
231,640	-93,216	-0,177	-0,034
232,655	300,049	-0,208	-0,266
233,669	800,000	-0,141	-0,373
234,684	314,658	-0,185	-0,243
235,699	273,854	-0,186	-0,229
236,713	-144,078	-0,194	0,012
237,728	107,090	-0,155	-0,128
238,742	166,663	-0,171	-0,169
239,757	112,914	-0,225	-0,189
240,772	338,564	-0,180	-0,244
241,786	-25,618	-0,217	-0,088
242,801	-80,240	-0,135	-0,031
243,815	262,753	-0,196	-0,236
244,830	-64,259	-0,233	-0,066
245,844	24,329	-0,249	-0,143
246,859	-2,250	-0,217	-0,106
247,874	715,292	-0,071	-0,132
248,888	159,827	-0,273	-0,264
249,903	153,868	-0,143	-0,136
250,917	-81,922	-0,116	-0,026
251,932	101,545	-0,189	-0,153
252,947	46,928	-0,202	-0,130
253,961	200,593	-0,152	-0,162
254,976	800,000	-0,094	-0,272
255,990	520,203	-0,084	-0,138
257,005	-71,303	-0,178	-0,046
258,020	800,000	-0,069	-0,145
259,034	133,398	-0,067	-0,060
260,049	-170,746	-0,316	0,007
261,063	53,463	-0,139	-0,092
262,078	419,925	-0,205	-0,305
263,093	468,168	-0,091	-0,142
264,107	108,055	-0,172	-0,142
265,122	174,839	-0,090	-0,091
266,136	-78,518	-0,217	-0,051
267,151	309,954	-0,129	-0,168
268,166	-200,000	-0,032	-0,156
269,180	257,154	-0,139	-0,165
270,195	69,143	-0,217	-0,154
271,209	193,473	-0,095	-0,100
272,224	-83,603	-0,196	-0,043
273,239	161,723	-0,121	-0,117
274,253	-91,785	-0,146	-0,028
275,268	15,353	-0,269	-0,146
276,282	138,317	-0,140	-0,127
277,297	-8,278	-0,158	-0,073
278,312	230,453	-0,099	-0,112
279,326	800,000	-0,097	-0,262
280,341	800,000	-0,069	-0,201
281,355	106,958	-0,143	-0,117
282,370	587,561	-0,100	-0,172
283,384	58,196	-0,195	-0,132
284,399	-17,380	-0,197	-0,085
285,414	800,000	-0,096	-0,209
286,428	-145,910	-0,105	-0,006
287,443	-73,316	-0,252	-0,063
288,457	-200,000	0,023	-0,172
289,472	-180,157	-0,167	0,002
290,487	-22,391	-0,203	-0,084
291,501	-68,958	-0,227	-0,060
292,516	180,787	-0,234	-0,237
293,530	-174,117	-0,137	0,003
294,545	-99,350	-0,039	-0,007
295,560	18,968	-0,200	-0,111
296,574	-28,828	-0,142	-0,056
297,589	170,092	-0,222	-0,219
298,603	728,283	-0,103	-0,191
299,618	-0,381	-0,199	-0,097
300,633	-131,398	-0,104	-0,009
301,647	-31,962	-0,193	-0,074
302,662	-2,816	-0,078	-0,038
303,676	5,558	-0,159	-0,081
304,691	177,467	-0,147	-0,148
305,706	122,678	-0,223	-0,193
306,720	-96,977	-0,202	-0,036
307,735	-7,787	-0,186	-0,087
308,749	111,031	-0,084	-0,070
309,764	23,771	-0,097	-0,055
310,779	156,928	-0,165	-0,157
311,793	55,045	-0,159	-0,106
312,808	579,039	-0,164	-0,278
313,822	279,789	-0,132	-0,162
314,837	2,271	-0,235	-0,117
315,852	68,263	-0,066	0,046
316,866	-15,607	-0,105	0,046
317,881	353,728	-0,131	-0,179
318,895	794,700	-0,129	-0,247
319,910	-27,332	-0,098	-0,039
320,925	-126,295	-0,209	-0,021
321,939	424,955	-0,102	-0,152
322,954	63,146	-0,144	-0,099
323,968	208,013	-0,133	-0,144
324,983	149,892	-0,089	-0,083
325,997	-111,901	-0,240	-0,033
327,012	5,954	-0,317	-0,161
328,027	43,188	-0,240	-0,151
329,041	209,020	-0,180	-0,194
330,056	-200,000	-0,045	-0,244
331,070	163,372	-0,125	-0,121
332,085	-75,424	-0,133	0,032
333,100	85,093	-0,222	-0,168
334,114	406,186	-0,096	-0,140
335,129	277,554	-0,183	-0,225
336,143	-27,189	-0,130	-0,052
337,158	628,387	-0,103	0,180
338,173	-101,982	-0,060	-0,010
339,187	-200,000	-0,010	-0,213
340,202	176,590	-0,166	-0,166
341,216	17,600	-0,188	-0,103
342,231	-173,567	-0,150	-0,003
343,246	54,839	-0,120	-0,079
344,260	-200,000	-0,018	-0,062
345,275	340,461	-0,100	-0,135
346,289	-134,368	-0,097	-0,008
347,304	-143,925	-0,165	-0,011
348,319	614,919	-0,103	-0,178
349,333	326,131	-0,116	-0,153
350,348	27,898	-0,069	-0,040
351,362	237,490	-0,081	-0,093
352,377	238,125	-0,113	-0,129
353,392	800,000	-0,103	-0,210
354,406	43,257	-0,140	0,088
355,421	209,199	1313,279	1415,567
356,435	160,997	1473,860	1416,082
