DTS Sentinel unit serial number:	SN410029Multiplexer serial number:	ORYXHardware model number:	OX2-SRSoftware version number:	ORYX F/W v4,00 Oryx Data Collector v3.7.2.0data status	okinstallation	B3 Nyhavnadifferential loss correction	single-endedforward channel	channel 1reverse channel	N/Adate	2023/11/29time	16:42:30forward acquisition time	300,00reverse acquisition time	0,00gamma	499,1914k internal	0,3209k external	0,3209temperature offset calibration	1,0000default loss term (dB/km)	0,3820temperature slope calibration	1,0000multiplexer offset coefficient	1,0000multiplexer slope coefficient	1,0000fibre end	0,00T internal ref (°C)	11,43T ext. ref 1 (°C)	-3,75T ext. ref 2 (°C)	-3,88length (m)	temperature (°C)	Stokes	anti-Stokes-744,400	-6,245	-0,359	-0,177
-743,385	-200,000	0,054	0,219
-742,371	-200,000	-0,047	-0,220
-741,356	-200,000	0,033	0,421
-740,342	770,808	-0,100	-0,198
-739,327	-200,000	0,031	0,264
-738,312	800,000	-0,155	-0,339
-737,298	720,957	0,077	0,149
-736,283	101,502	-0,274	-0,232
-735,269	-200,000	0,050	0,291
-734,254	309,958	-0,244	-0,332
-733,239	-55,464	-0,173	-0,056
-732,225	-200,000	-0,027	-0,161
-731,210	215,188	0,222	0,256
-730,196	-5,320	-0,045	0,022
-729,181	580,819	-0,086	-0,154
-728,167	-60,633	-0,078	-0,024
-727,152	-157,427	0,011	-0,000
-726,137	-101,471	-0,015	0,003
-725,123	146,003	-0,017	0,017
-724,108	167,359	-0,135	-0,139
-723,094	190,797	-0,137	-0,150
-722,079	-200,000	-0,023	0,144
-721,064	692,742	-0,011	0,021
-720,050	-168,924	-0,077	0,002
-719,035	-164,811	-0,047	0,001
-718,021	398,086	0,072	-0,109
-717,006	-113,513	-0,149	-0,021
-715,991	33,068	-0,033	-0,020
-714,977	-18,345	0,080	-0,036
-713,962	-200,000	0,002	0,011
-712,948	-138,376	-0,083	0,007
-711,933	8,427	0,079	0,043
-710,918	-9,544	-0,096	-0,046
-709,904	-200,000	-0,035	-0,139
-708,889	83,756	-0,090	0,071
-707,875	351,336	0,083	-0,119
-706,860	800,000	-0,051	0,103
-705,845	263,916	-0,087	0,110
-704,831	-200,000	0,026	-0,107
-703,816	69,702	-0,112	0,084
-702,802	-200,000	-0,008	-0,038
-701,787	-200,000	-0,003	-0,093
-700,772	800,000	0,060	-0,138
-699,758	-200,000	-0,011	-0,038
-698,743	800,000	0,053	0,125
-697,729	-173,745	-0,124	-0,003
-696,714	193,124	0,060	-0,066
-695,699	-109,585	-0,110	-0,017
-694,685	-84,252	-0,060	-0,014
-693,670	-200,000	-0,023	0,075
-692,656	13,650	0,040	0,022
-691,641	-200,000	-0,009	-0,096
-690,627	-37,705	0,046	-0,018
-689,612	167,539	-0,056	-0,058
-688,597	800,000	0,030	-0,065
-687,583	-200,000	-0,014	-0,073
-686,568	800,000	-0,038	-0,104
-685,554	-200,000	0,012	-0,076
-684,539	-164,417	0,097	-0,003
-683,524	549,117	-0,062	-0,108
-682,510	800,000	0,005	-0,017
-681,495	112,401	0,047	0,041
-680,481	-200,000	0,001	-0,122
-679,466	-79,981	-0,049	-0,012
-678,451	800,000	-0,068	-0,201
-677,437	-140,279	0,104	-0,008
-676,422	800,000	0,028	-0,084
-675,408	-200,000	-0,037	0,164
-674,393	-200,000	-0,010	0,053
-673,378	462,364	-0,067	-0,109
-672,364	800,000	-0,031	-0,064
-671,349	-200,000	0,012	-0,059
-670,335	536,191	-0,064	0,110
-669,320	3,970	0,093	-0,049
-668,305	410,687	0,056	-0,086
-667,291	-154,204	0,083	-0,004
-666,276	124,425	-0,036	0,033
-665,262	226,884	-0,053	-0,062
-664,247	-200,000	0,017	-0,137
-663,232	800,000	0,006	-0,012
-662,218	-200,000	-0,011	0,100
-661,203	-90,841	-0,081	0,017
-660,189	800,000	0,007	0,020
-659,174	-200,000	-0,019	-0,077
-658,159	800,000	-0,087	-0,175
-657,145	206,182	-0,079	-0,089
-656,130	800,000	0,027	0,055
-655,116	-78,427	-0,086	0,021
-654,101	-200,000	-0,016	0,190
-653,086	1,093	-0,210	-0,109
-652,072	-200,000	0,007	-0,027
-651,057	114,720	0,059	-0,052
-650,043	-200,000	-0,009	-0,050
-649,028	-200,000	0,019	0,113
-648,014	300,021	0,031	-0,042
-646,999	150,696	0,077	-0,076
-645,984	800,000	-0,037	0,102
-644,970	-200,000	-0,012	0,040
-643,955	800,000	-0,001	0,002
-642,941	-200,000	0,015	-0,105
-641,926	-200,000	-0,024	-0,108
-640,911	151,893	-0,058	-0,057
-639,897	-108,303	0,017	0,003
-638,882	32,749	-0,078	0,049
-637,868	-200,000	-0,003	-0,034
-636,853	-200,000	0,014	-0,120
-635,838	-102,711	-0,095	-0,016
-634,824	62,381	-0,038	-0,027
-633,809	89,939	0,048	-0,039
-632,795	800,000	-0,054	0,108
-631,780	-200,000	-0,044	0,153
-630,765	123,831	0,065	-0,059
-629,751	242,887	-0,080	-0,098
-628,736	-200,000	-0,026	-0,107
-627,722	-200,000	0,003	-0,038
-626,707	-63,800	0,099	-0,029
-625,692	153,173	-0,023	0,022
-624,678	-200,000	-0,023	0,109
-623,663	800,000	0,039	0,084
-622,649	-81,894	0,159	-0,037
-621,634	-48,502	-0,081	-0,028
-620,619	-200,000	-0,022	-0,268
-619,605	-200,000	0,003	-0,069
-618,590	156,409	0,048	-0,048
-617,576	-200,000	0,006	0,068
-616,561	-33,484	-0,110	-0,044
-615,546	-12,741	-0,110	0,051
-614,532	-101,645	-0,074	-0,013
-613,517	-107,746	-0,077	0,012
-612,503	445,508	-0,032	0,051
-611,488	80,225	0,069	-0,053
-610,474	-200,000	-0,012	0,075
-609,459	310,929	0,045	-0,061
-608,444	41,881	-0,108	-0,071
-607,430	0,004	-0,114	-0,059
-606,415	16,505	-0,066	-0,037
-605,401	110,559	0,044	-0,038
-604,386	-200,000	0,012	0,054
-603,371	52,824	0,100	-0,069
-602,357	-200,000	-0,009	-0,066
-601,342	-68,878	-0,184	-0,051
-600,328	-38,152	-0,071	0,027
-599,313	25,914	0,174	0,105
-598,298	-88,404	0,053	-0,011
-597,284	-92,495	0,075	-0,015
-596,269	-200,000	0,006	-0,115
-595,255	51,998	-0,072	-0,049
-594,240	19,934	-0,176	-0,102
-593,225	-3,388	-0,037	-0,019
-592,211	800,000	-0,040	-0,105
-591,196	-127,427	-0,040	-0,004
-590,182	102,293	0,178	-0,150
-589,167	-200,000	0,012	0,043
-588,152	-200,000	-0,028	0,210
-587,138	-9,905	0,021	-0,010
-586,123	-160,772	-0,139	-0,005
-585,109	88,935	-0,093	-0,074
-584,094	-12,439	0,072	-0,034
-583,079	-59,741	0,114	0,035
-582,065	249,424	-0,052	0,064
-581,050	800,000	0,018	0,038
-580,036	-70,919	-0,023	0,006
-579,021	141,727	0,039	0,037
-578,006	218,407	-0,046	0,053
-576,992	226,439	0,047	-0,055
-575,977	53,405	-0,062	-0,042
-574,963	379,619	0,075	0,112
-573,948	800,000	-0,008	-0,017
-572,934	-33,581	-0,113	0,045
-571,919	-128,830	-0,110	0,011
-570,904	-108,311	-0,106	-0,016
-569,890	-113,918	-0,027	-0,004
-568,875	117,316	-0,049	-0,044
-567,861	-58,861	-0,115	-0,036
-566,846	-200,000	-0,006	-0,023
-565,831	-130,795	0,071	-0,007
-564,817	800,000	0,050	0,133
-563,802	106,270	-0,014	-0,012
-562,788	14,691	-0,069	0,039
-561,773	43,571	-0,031	0,020
-560,758	-200,000	-0,013	0,093
-559,744	7,864	-0,058	0,031
-558,729	-67,949	0,063	0,018
-557,715	-74,981	-0,065	-0,017
-556,700	156,681	-0,046	-0,046
-555,685	-75,801	-0,131	-0,033
-554,671	196,674	-0,038	0,042
-553,656	800,000	-0,036	0,085
-552,642	-77,815	-0,088	-0,022
-551,627	49,084	-0,053	-0,036
-550,612	-81,180	-0,146	-0,034
-549,598	263,421	0,039	-0,049
-548,583	-200,000	-0,016	-0,075
-547,569	538,722	0,062	-0,107
-546,554	-200,000	0,023	-0,079
-545,539	-163,972	-0,092	-0,003
-544,525	152,714	-0,131	-0,129
-543,510	64,126	0,041	0,030
-542,496	-107,690	-0,056	0,009
-541,481	49,683	-0,114	-0,077
-540,466	147,625	-0,062	-0,060
-539,452	737,130	0,033	0,064
-538,437	256,761	0,042	0,052
-537,423	-200,000	-0,013	0,099
-536,408	73,725	-0,051	0,038
-535,393	297,500	0,042	-0,056
-534,379	242,675	0,063	-0,076
-533,364	-90,734	-0,077	0,016
-532,350	259,733	0,024	-0,030
-531,335	551,248	-0,024	-0,042
-530,321	39,582	0,086	0,055
-529,306	800,000	-0,068	-0,152
-528,291	216,942	-0,063	0,072
-527,277	192,003	0,003	-0,004
-526,262	800,000	0,049	-0,137
-525,248	-150,507	0,024	-0,001
-524,233	-200,000	-0,012	0,080
-523,218	-77,618	0,086	0,021
-522,204	-200,000	-0,010	-0,095
-521,189	253,512	0,037	0,045
-520,175	-200,000	-0,002	0,029
-519,160	-200,000	-0,027	0,111
-518,145	9,906	-0,056	0,031
-517,131	-118,900	0,034	-0,004
-516,116	142,896	0,072	0,069
-515,102	120,886	0,087	0,078
-514,087	-118,611	0,024	-0,003
-513,072	639,419	-0,015	-0,028
-512,058	-89,129	-0,084	0,018
-511,043	-71,204	-0,171	0,046
-510,029	-200,000	-0,011	-0,041
-509,014	44,326	0,110	0,072
-507,999	-200,000	-0,018	0,167
-506,985	605,541	0,084	-0,152
-505,970	447,756	-0,042	0,066
-504,956	-16,938	0,067	-0,030
-503,941	579,007	-0,031	-0,055
-502,926	164,058	0,072	-0,073
-501,912	-200,000	0,021	0,081
-500,897	108,925	0,017	0,015
-499,883	-78,401	-0,089	0,022
-498,868	-200,000	0,025	-0,115
-497,853	-200,000	0,006	0,061
-496,839	220,436	0,037	0,043
-495,824	-200,000	0,008	0,201
-494,810	-94,294	0,052	-0,010
-493,795	800,000	0,020	-0,054
-492,781	250,884	-0,039	0,047
-491,766	-200,000	-0,028	-0,139
-490,751	160,616	0,024	-0,024
-489,737	-200,000	-0,008	-0,120
-488,722	-98,865	-0,043	-0,008
-487,708	22,843	0,143	-0,084
-486,693	147,470	0,035	0,034
-485,678	32,506	-0,083	0,051
-484,664	210,527	-0,059	-0,066
-483,649	-200,000	-0,001	-0,101
-482,635	32,327	-0,023	-0,014
-481,620	-92,205	0,100	-0,020
-480,605	415,429	-0,084	0,129
-479,591	-27,343	0,078	0,032
-478,576	425,553	0,005	0,008
-477,562	14,435	-0,045	0,025
-476,547	611,227	-0,104	-0,188
-475,532	626,816	0,039	-0,072
-474,518	115,560	-0,038	0,033
-473,503	800,000	0,020	0,041
-472,489	800,000	-0,083	0,194
-471,474	-43,629	0,081	0,029
-470,459	800,000	-0,034	0,093
-469,445	-200,000	0,039	-0,209
-468,430	-200,000	-0,006	0,021
-467,416	103,159	0,056	0,047
-466,401	-200,000	-0,012	0,124
-465,386	-200,000	0,011	0,167
-464,372	-200,000	-0,015	-0,059
-463,357	431,228	0,008	-0,012
-462,343	-200,000	0,040	0,177
-461,328	-116,590	0,086	-0,011
-460,313	-200,000	-0,030	0,129
-459,299	652,774	-0,020	0,037
-458,284	-136,933	0,156	-0,013
-457,270	249,866	-0,064	0,078
-456,255	-144,059	0,140	-0,009
-455,241	35,091	0,047	-0,029
-454,226	60,896	-0,042	-0,030
-453,211	60,912	0,091	-0,064
-452,197	100,172	0,122	0,102
-451,182	159,769	-0,139	0,139
-450,168	90,729	0,034	0,028
-449,153	-138,879	-0,040	-0,003
-448,138	518,629	0,116	-0,196
-447,124	-107,949	-0,053	0,008
-446,109	-142,505	0,126	-0,009
-445,095	-94,058	0,089	-0,017
-444,080	800,000	-0,046	-0,107
-443,065	140,657	0,020	-0,019
-442,051	374,674	0,055	-0,081
-441,036	143,496	-0,036	-0,034
-440,022	-200,000	-0,015	-0,115
-439,007	28,726	0,065	0,039
-437,992	239,800	-0,009	0,011
-436,978	65,576	-0,038	0,028
-435,963	21,030	0,181	0,105
-434,949	48,914	-0,106	0,071
-433,934	-200,000	-0,012	-0,158
-432,919	389,612	-0,087	-0,130
-431,905	674,815	-0,014	-0,027
-430,890	44,855	0,082	0,054
-429,876	4,979	-0,117	0,062
-428,861	-128,109	-0,088	0,009
-427,846	-100,764	0,062	0,011
-426,832	-112,547	-0,101	0,014
-425,817	800,000	-0,017	-0,048
-424,803	482,639	0,091	-0,149
-423,788	124,238	0,105	0,095
-422,773	459,047	0,032	0,051
-421,759	800,000	-0,019	-0,058
-420,744	-86,567	-0,048	0,010
-419,730	-114,987	0,129	0,017
-418,715	28,374	0,061	-0,037
-417,701	-43,110	0,153	-0,055
-416,686	787,250	-0,031	-0,060
-415,671	-125,082	0,050	0,005
-414,657	-84,442	0,202	0,045
-413,642	680,019	-0,065	0,122
-412,628	17,006	-0,117	0,066
-411,613	-200,000	-0,022	0,093
-410,598	-200,000	0,003	-0,019
-409,584	417,829	0,039	0,061
-408,569	289,433	0,070	0,091
-407,555	265,761	-0,042	0,052
-406,540	555,915	-0,036	-0,063
-405,525	121,142	0,046	-0,041
-404,511	-88,654	-0,071	-0,015
-403,496	-59,523	0,029	0,009
-402,482	187,490	-0,034	-0,037
-401,467	10,122	-0,168	-0,091
-400,452	-74,110	0,081	-0,021
-399,438	-200,000	0,005	0,067
-398,423	-31,160	-0,051	-0,020
-397,409	214,446	-0,091	-0,104
-396,394	8,472	-0,031	-0,017
-395,379	157,996	-0,024	-0,023
-394,365	-11,615	-0,090	0,042
-393,350	14,330	0,050	0,028
-392,336	327,384	0,092	0,126
-391,321	-21,140	0,155	0,067
-390,306	-92,344	-0,132	0,026
-389,292	-200,000	0,006	-0,026
-388,277	-200,000	-0,000	-0,015
-387,263	-106,334	0,129	-0,020
-386,248	24,043	0,074	0,043
-385,233	-127,042	0,075	0,008
-384,219	-69,901	0,088	-0,024
-383,204	96,446	-0,052	0,042
-382,190	-76,332	0,084	-0,021
-381,175	246,362	0,007	0,008
-380,160	-200,000	0,009	0,153
-379,146	800,000	0,015	0,045
-378,131	-88,444	0,010	-0,002
-377,117	-96,039	0,112	-0,021
-376,102	-194,582	0,015	0,000
-375,088	-200,000	-0,028	-0,098
-374,073	-200,000	-0,020	-0,148
-373,058	-71,427	0,069	0,018
-372,044	18,368	0,090	0,051
-371,029	403,957	0,102	0,154
-370,015	800,000	-0,034	-0,073
-369,000	-200,000	0,003	-0,072
-367,985	800,000	0,038	-0,091
-366,971	91,923	0,103	0,083
-365,956	-106,676	-0,042	-0,007
-364,942	651,825	0,086	0,159
-363,927	-200,000	0,029	0,180
-362,912	-1,033	0,039	-0,020
-361,898	-136,113	-0,207	-0,017
-360,883	-200,000	-0,001	-0,165
-359,869	-200,000	-0,007	-0,070
-358,854	18,838	0,017	-0,010
-357,839	-200,000	0,001	0,083
-356,825	404,144	0,113	0,171
-355,810	115,192	-0,054	-0,047
-354,796	-200,000	0,041	-0,169
-353,781	747,215	0,036	0,070
-352,766	800,000	0,015	-0,037
-351,752	-131,047	-0,126	0,012
-350,737	-200,000	0,022	-0,098
-349,723	89,765	0,041	-0,033
-348,708	144,868	-0,080	0,076
-347,693	-200,000	0,012	0,122
-346,679	-200,000	0,019	-0,120
-345,664	-61,834	-0,124	-0,037
-344,650	-105,660	0,168	0,027
-343,635	327,484	-0,033	0,045
-342,620	-200,000	-0,019	0,125
-341,606	-200,000	0,009	0,087
-340,591	-200,000	-0,015	-0,096
-339,577	704,583	-0,030	0,056
-338,562	204,571	-0,078	-0,086
-337,548	-200,000	0,026	-0,236
-336,533	-200,000	0,019	0,074
-335,518	76,327	-0,003	0,002
-334,504	55,295	-0,054	0,037
-333,489	-200,000	0,013	0,075
-332,475	702,960	-0,063	-0,120
-331,460	23,428	0,070	0,041
-330,445	588,272	0,067	-0,118
-329,431	-51,237	0,121	-0,040
-328,416	-200,000	-0,036	0,210
-327,402	-41,944	0,175	-0,064
-326,387	-15,809	0,106	0,048
-325,372	-200,000	-0,009	0,072
-324,358	-27,908	-0,036	-0,015
-323,343	449,206	-0,029	-0,047
-322,329	-200,000	-0,002	0,068
-321,314	-193,793	-0,162	0,001
-320,299	-35,037	0,073	-0,028
-319,285	-200,000	-0,015	0,088
-318,270	675,326	-0,068	0,127
-317,256	625,742	-0,042	0,077
-316,241	-37,114	-0,101	-0,038
-315,226	9,906	-0,084	0,045
-314,212	800,000	-0,035	0,075
-313,197	304,645	0,056	-0,075
-312,183	145,796	-0,084	0,081
-311,168	-131,168	-0,074	0,007
-310,153	-64,161	0,017	0,005
-309,139	282,149	0,092	-0,118
-308,124	314,689	-0,038	-0,051
-307,110	-97,545	-0,123	0,023
-306,095	209,338	0,025	-0,028
-305,080	-200,000	0,010	0,106
-304,066	-200,000	-0,019	-0,081
-303,051	-71,902	0,044	0,012
-302,037	255,025	0,121	-0,148
-301,022	120,524	-0,013	0,011
-300,008	800,000	0,029	0,070
-298,993	63,774	0,076	0,054
-297,978	-108,140	0,092	-0,014
-296,964	-176,683	0,026	-0,000
-295,949	304,718	-0,036	-0,048
-294,935	-9,695	-0,197	0,093
-293,920	800,000	0,011	0,033
-292,905	-110,404	-0,107	0,016
-291,891	800,000	0,051	0,123
-290,876	69,329	0,099	-0,073
-289,862	-200,000	-0,026	-0,100
-288,847	800,000	0,038	-0,099
-287,832	-200,000	0,015	-0,098
-286,818	-200,000	-0,001	0,044
-285,803	152,238	0,107	0,104
-284,789	-132,329	0,076	0,007
-283,774	207,608	0,041	0,046
-282,759	-200,000	0,010	-0,132
-281,745	-200,000	-0,012	-0,157
-280,730	29,029	0,062	-0,037
-279,716	800,000	-0,046	0,098
-278,701	24,960	0,046	-0,027
-277,686	35,545	-0,049	-0,031
-276,672	168,437	0,106	-0,108
-275,657	800,000	0,011	0,035
-274,643	-88,733	-0,076	-0,016
-273,628	800,000	-0,021	-0,053
-272,613	25,588	-0,130	0,077
-271,599	800,000	-0,014	0,035
-270,584	-152,338	0,072	0,004
-269,570	21,950	0,129	0,075
-268,555	42,352	0,108	-0,070
-267,540	11,412	-0,161	0,087
-266,526	117,521	-0,047	-0,041
-265,511	-200,000	-0,003	0,017
-264,497	204,117	-0,088	0,098
-263,482	565,302	0,019	-0,033
-262,467	-141,562	0,125	-0,009
-261,453	-96,107	-0,109	0,020
-260,438	9,045	0,101	-0,054
-259,424	592,212	-0,087	0,153
-258,409	-11,942	0,099	0,046
-257,395	282,848	-0,059	-0,076
-256,380	800,000	0,027	-0,075
-255,365	58,534	-0,124	0,087
-254,351	-200,000	0,017	0,132
-253,336	-26,987	-0,059	-0,024
-252,322	-200,000	-0,009	0,150
-251,307	-0,411	-0,029	0,015
-250,292	-200,000	-0,025	0,081
-249,278	-200,000	-0,017	-0,108
-248,263	110,512	0,082	-0,070
-247,249	56,830	-0,169	0,117
-246,234	-5,452	-0,117	0,057
-245,219	-37,880	-0,162	0,061
-244,205	-62,407	0,036	0,011
-243,190	60,171	0,044	0,031
-242,176	-4,489	0,077	0,038
-241,161	800,000	0,049	0,119
-240,146	792,484	-0,040	0,078
-239,132	800,000	0,025	-0,074
-238,117	-20,563	0,058	-0,025
-237,103	800,000	-0,039	-0,094
-236,088	168,594	0,022	0,022
-235,073	151,560	0,103	-0,100
-234,059	7,811	0,034	0,018
-233,044	-70,439	0,086	0,023
-232,030	-200,000	0,020	-0,074
-231,015	-200,000	-0,021	-0,136
-230,000	-22,550	0,019	0,008
-228,986	-200,000	-0,002	-0,026
-227,971	87,477	0,076	-0,060
-226,957	570,577	0,076	0,133
-225,942	-200,000	-0,013	0,158
-224,927	99,215	0,032	0,027
-223,913	-122,037	-0,191	-0,022
-222,898	7,663	-0,059	-0,031
-221,884	-163,552	0,022	0,001
-220,869	31,197	-0,046	-0,028
-219,855	-200,000	0,037	0,128
-218,840	-72,421	0,084	-0,022
-217,825	377,740	0,071	-0,104
-216,811	191,123	-0,070	0,075
-215,796	-97,909	0,030	-0,006
-214,782	304,396	-0,030	-0,040
-213,767	116,526	0,039	0,034
-212,752	-200,000	0,000	0,180
-211,738	800,000	0,037	0,078
-210,723	-22,804	-0,030	0,013
-209,709	-127,448	-0,115	-0,012
-208,694	18,128	0,033	0,018
-207,679	-200,000	-0,000	0,044
-206,665	150,757	-0,098	-0,094
-205,650	-200,000	-0,003	-0,082
-204,636	-200,000	-0,006	-0,019
-203,621	-145,377	-0,069	-0,004
-202,606	373,243	0,045	-0,065
-201,592	-28,154	-0,186	-0,076
-200,577	-149,181	0,092	0,005
-199,563	338,820	0,057	-0,079
-198,548	301,540	0,036	0,047
-197,533	-38,046	-0,063	0,024
-196,519	-129,447	-0,142	0,014
-195,504	114,394	-0,050	0,043
-194,490	275,414	0,035	-0,045
-193,475	354,855	0,068	-0,096
-192,460	-65,257	-0,114	0,032
-191,446	-68,948	0,081	-0,022
-190,431	380,847	0,080	0,117
-189,417	800,000	0,068	-0,151
-188,402	71,260	-0,058	-0,043
-187,387	41,904	0,045	-0,029
-186,373	37,437	-0,077	-0,048
-185,358	24,194	-0,062	0,036
-184,344	-200,000	0,025	0,159
-183,329	-200,000	-0,021	0,078
-182,315	-5,723	-0,066	0,032
-181,300	-57,485	-0,041	0,013
-180,285	245,459	-0,031	0,037
-179,271	225,792	0,171	0,197
-178,256	353,840	0,090	-0,127
-177,242	-200,000	-0,013	-0,148
-176,227	673,763	0,017	-0,031
-175,212	-200,000	0,015	0,117
-174,198	-200,000	-0,009	0,064
-173,183	-51,483	-0,118	-0,039
-172,169	-3,237	0,132	0,065
-171,154	-115,334	-0,048	-0,006
-170,139	-200,000	0,011	-0,053
-169,125	71,162	0,164	-0,120
-168,110	-62,108	0,242	0,071
-167,096	-8,979	0,070	-0,033
-166,081	526,968	0,028	0,047
-165,066	-200,000	0,019	-0,118
-164,052	-45,656	-0,029	-0,010
-163,037	337,485	-0,022	-0,030
-162,023	-12,197	0,026	-0,012
-161,008	15,047	0,092	-0,051
-159,993	-37,690	-0,114	-0,043
-158,979	52,861	0,055	-0,037
-157,964	-83,709	-0,113	-0,025
-156,950	-118,299	0,146	-0,018
-155,935	-58,805	-0,103	0,031
-154,920	-200,000	0,002	-0,094
-153,906	465,272	-0,044	0,071
-152,891	-160,238	0,025	0,001
-151,877	206,180	0,033	-0,036
-150,862	800,000	-0,050	-0,139
-149,847	800,000	-0,035	-0,101
-148,833	-91,300	-0,034	0,007
-147,818	-93,045	0,035	0,007
-146,804	474,610	-0,056	0,091
-145,789	-200,000	-0,041	0,164
-144,775	-14,314	-0,156	0,071
-143,760	5,477	0,086	0,045
-142,745	-31,134	-0,110	0,044
-141,731	-135,895	0,044	0,004
-140,716	203,737	0,048	0,053
-139,702	389,910	0,054	0,079
-138,687	-200,000	0,016	0,054
-137,672	-200,000	-0,021	-0,119
-136,658	800,000	-0,033	-0,089
-135,643	800,000	-0,042	-0,085
-134,629	-200,000	-0,003	0,079
-133,614	538,030	-0,076	0,129
-132,599	271,394	-0,066	0,082
-131,585	381,832	0,058	0,084
-130,570	88,371	-0,113	-0,089
-129,556	-93,326	-0,171	-0,033
-128,541	800,000	-0,031	0,064
-127,526	46,704	-0,103	0,068
-126,512	-115,731	0,079	0,010
-125,497	-76,001	0,112	-0,028
-124,483	559,565	-0,024	-0,042
-123,468	441,961	0,041	-0,064
-122,453	-200,000	0,039	0,168
-121,439	134,754	-0,102	0,094
-120,424	253,008	-0,063	0,077
-119,410	-97,627	-0,185	-0,034
-118,395	-86,836	0,066	-0,014
-117,380	51,231	-0,071	0,048
-116,366	-200,000	0,010	0,038
-115,351	-200,000	-0,017	0,156
-114,337	51,248	0,091	0,061
-113,322	444,264	-0,086	0,135
-112,307	283,961	0,056	0,072
-111,293	-173,708	0,095	-0,002
-110,278	-118,551	0,073	0,009
-109,264	-200,000	0,002	-0,035
-108,249	-71,996	-0,033	-0,009
-107,234	146,269	-0,215	-0,204
-106,220	800,000	-0,042	0,089
-105,205	97,228	0,121	0,098
-104,191	-200,000	-0,007	-0,043
-103,176	314,424	0,090	0,120
-102,162	-200,000	-0,014	0,065
-101,147	450,162	-0,030	0,047
-100,132	512,075	0,071	-0,118
-99,118	226,537	0,080	0,092
-98,103	57,306	-0,046	-0,032
-97,089	44,796	0,062	0,040
-96,074	-109,398	0,125	-0,018
-95,059	125,832	-0,080	0,072
-94,045	-200,000	0,005	0,034
-93,030	162,457	-0,008	-0,008
-92,016	81,144	-0,095	-0,073
-91,001	371,593	-0,048	0,069
-89,986	727,386	-0,037	0,070
-88,972	800,000	0,047	0,114
-87,957	377,570	-0,041	0,059
-86,943	158,409	-0,087	-0,086
-85,928	800,000	-0,013	-0,027
-84,913	70,838	-0,100	0,073
-83,899	274,873	0,096	-0,121
-82,884	-200,000	-0,045	0,164
-81,870	35,485	0,075	-0,047
-80,855	800,000	0,003	0,007
-79,840	82,881	-0,119	-0,091
-78,826	55,252	-0,053	0,036
-77,811	86,673	-0,092	0,072
-76,797	-200,000	0,010	0,038
-75,782	800,000	0,023	-0,067
-74,767	-112,021	-0,057	0,008
-73,753	287,306	0,076	-0,098
-72,738	1,948	-0,143	0,073
-71,724	310,822	-0,100	-0,132
-70,709	200,937	-0,109	-0,119
-69,694	86,190	0,037	-0,029
-68,680	75,297	0,114	0,085
-67,665	291,586	-0,040	-0,052
-66,651	-200,000	0,021	0,129
-65,636	417,658	0,100	0,152
-64,622	-20,334	-0,020	-0,009
-63,607	329,630	-0,035	-0,047
-62,592	8,598	-0,111	-0,059
-61,578	628,090	0,096	0,173
-60,563	118,304	0,071	0,062
-59,549	57,253	-0,037	0,025
-58,534	36,283	-1,695	-1,053
-57,519	461,957	-1,291	-2,041
-56,505	-200,000	-0,376	-4,280
-55,490	337,619	0,938	1,291
-54,476	800,000	5,188	11,423
-53,461	-200,000	20,455	326,745
-52,446	800,000	752,077	2311,338
-51,432	550,682	1657,790	2819,898
-50,417	74,004	1663,769	1231,516
-49,403	19,279	1536,956	869,207
-48,388	13,259	1459,579	796,326
-47,373	18,794	1450,279	817,800
-46,359	16,186	1439,541	799,298
-45,344	11,575	1435,071	774,832
-44,330	11,473	1433,374	773,398
-43,315	11,477	1431,500	772,376
-42,300	11,457	1429,563	771,203
-41,286	11,526	1428,454	770,903
-40,271	11,457	1427,221	769,881
-39,257	11,479	1426,023	769,307
-38,242	11,541	1424,643	768,825
-37,227	11,472	1423,804	768,018
-36,213	11,505	1422,451	767,412
-35,198	11,510	1421,305	766,786
-34,184	11,543	1420,467	766,461
-33,169	11,469	1419,049	765,313
-32,154	11,555	1417,839	765,039
-31,140	11,527	1416,769	764,295
-30,125	11,610	1415,650	764,054
-29,111	11,561	1414,510	763,180
-28,096	11,579	1413,431	762,650
-27,082	11,488	1412,433	761,656
-26,067	11,510	1411,010	760,961
-25,052	11,468	1410,148	760,268
-24,038	11,463	1409,261	759,736
-23,023	11,437	1408,300	759,065
-22,009	11,417	1407,104	758,301
-20,994	11,422	1406,011	757,701
-19,979	11,406	1405,276	757,203
-18,965	11,386	1404,346	756,575
-17,950	11,412	1403,424	756,173
-16,936	11,399	1402,694	755,686
-15,921	11,387	1401,635	755,031
-14,906	11,333	1400,799	754,301
-13,892	11,397	1399,745	753,998
-12,877	11,365	1398,893	753,360
-11,863	11,377	1397,954	752,881
-10,848	11,348	1397,141	752,281
-9,833	11,287	1396,202	751,462
-8,819	11,319	1395,222	751,053
-7,804	11,262	1394,640	750,447
-6,790	11,299	1393,401	749,920
-5,775	11,264	1392,413	749,195
-4,760	11,294	1391,573	748,856
-3,746	11,238	1390,733	748,116
-2,731	11,246	1389,879	747,661
-1,717	11,262	1388,719	747,081
-0,702	11,262	1387,000	746,128
0,313	15,290	1301,792	718,750
1,327	31,631	694,703	420,820
2,342	48,458	120,759	79,688
3,356	1,718	16,427	8,325
4,371	-7,443	3,305	1,573
5,386	-75,192	0,913	0,228
6,400	-200,000	-0,069	0,528
7,415	-119,927	-0,168	-0,020
8,429	114,782	-0,219	-0,188
9,444	126,406	-0,339	-0,302
10,459	59,664	-0,338	-0,235
11,473	-16,985	-0,301	-0,133
12,488	7,546	-0,294	-0,155
13,502	89,107	-0,367	-0,288
14,517	52,929	-0,318	-0,214
15,531	7,737	-0,392	-0,206
16,546	-8,021	-0,396	-0,187
17,561	74,555	-0,339	-0,251
18,575	14,604	-0,161	-0,088
19,590	169,242	-0,236	-0,238
20,604	-5,403	-0,286	-0,138
21,619	8,345	-0,456	-0,241
22,634	351,141	-0,330	-0,462
23,648	102,372	-0,493	-0,406
24,663	-17,692	-0,502	-0,221
25,677	-5,355	-0,351	-0,169
26,692	-0,802	-0,304	-0,151
27,707	211,553	-0,218	-0,242
28,721	73,485	-0,397	-0,292
29,736	194,418	-0,261	-0,279
30,750	-0,375	-0,366	-0,182
31,765	47,897	-0,314	-0,206
32,780	39,248	-0,405	-0,255
33,794	196,891	-0,254	-0,272
34,809	39,416	-0,494	-0,311
35,823	140,300	-0,337	-0,313
36,838	23,332	-0,407	-0,235
37,853	9,081	-0,375	-0,199
38,867	8,509	-0,462	-0,244
39,882	333,505	-0,151	-0,206
40,896	-48,513	-0,237	-0,080
41,911	146,820	-0,335	-0,317
42,926	-13,961	-0,460	-0,208
43,940	-89,829	-0,374	-0,076
44,955	181,621	-0,380	-0,394
45,969	55,550	-0,372	-0,253
46,984	52,817	-0,321	-0,215
47,999	335,619	-0,319	-0,436
49,013	-108,484	-0,430	-0,064
50,028	-9,507	-0,357	-0,167
51,042	101,838	-0,338	-0,277
52,057	130,012	-0,346	-0,311
53,071	21,694	-0,374	-0,213
54,086	126,792	-0,230	-0,204
55,101	-69,960	-0,381	-0,101
56,115	53,131	-0,258	-0,173
57,130	-50,849	-0,392	-0,129
58,144	-43,615	-0,403	-0,142
59,159	34,506	-0,349	-0,214
60,174	67,794	-0,349	-0,250
61,188	86,357	-0,255	-0,197
62,203	-49,143	-0,376	-0,125
63,217	-11,462	-0,320	-0,147
64,232	165,933	-0,318	-0,316
65,247	27,278	-0,324	-0,191
66,261	225,523	-0,286	-0,326
67,276	21,440	-0,317	-0,180
68,290	-73,568	-0,325	-0,082
69,305	-160,279	-0,300	-0,011
70,320	-91,255	-0,439	-0,087
71,334	16,335	-0,310	-0,171
72,349	800,000	-0,139	-0,332
73,363	171,091	-0,254	-0,256
74,378	181,705	-0,224	-0,232
75,393	-26,293	-0,317	-0,130
76,407	-81,354	-0,272	-0,062
77,422	86,397	-0,249	-0,192
78,436	-87,252	-0,291	-0,061
79,451	23,663	-0,251	-0,144
80,466	-58,623	-0,359	-0,109
81,480	316,904	-0,236	-0,314
82,495	-29,724	-0,406	-0,162
83,509	-44,594	-0,447	-0,156
84,524	17,530	-0,259	-0,144
85,539	9,018	-0,358	-0,189
86,553	-41,979	-0,374	-0,134
87,568	101,502	-0,255	-0,208
88,582	27,215	-0,390	-0,229
89,597	-31,269	-0,287	-0,113
90,611	1,159	-0,260	-0,130
91,626	75,665	-0,246	-0,182
92,641	-109,575	-0,325	-0,048
93,655	43,705	-0,283	-0,181
94,670	73,422	-0,277	-0,203
95,684	-25,458	-0,331	-0,136
96,699	-34,955	-0,359	-0,136
97,714	-14,062	-0,310	-0,140
98,728	15,496	-0,266	-0,146
99,743	567,837	-0,132	-0,224
100,757	204,803	-0,223	-0,242
101,772	112,458	-0,216	-0,183
102,787	111,040	-0,310	-0,261
103,801	-29,221	-0,278	-0,111
104,816	800,000	-0,132	-0,278
105,830	336,500	-0,190	-0,258
106,845	146,998	-0,182	-0,171
107,860	228,062	-0,186	-0,212
108,874	132,739	-0,213	-0,192
109,889	89,535	-0,466	-0,363
110,903	66,770	-0,349	-0,248
111,918	-73,719	-0,290	-0,073
112,933	800,000	-0,044	-0,091
113,947	78,690	-0,216	-0,161
114,962	-175,475	-0,312	0,006
115,976	-23,421	-0,348	-0,146
116,991	-28,398	-0,161	-0,065
118,006	3,304	-0,280	-0,142
119,020	592,443	-0,099	-0,171
120,035	16,722	-0,241	-0,133
121,049	306,996	-0,170	-0,222
122,064	800,000	-0,135	-0,271
123,079	94,782	-0,189	-0,150
124,093	73,894	-0,293	-0,214
125,108	223,787	-0,151	-0,171
126,122	-27,870	-0,246	-0,099
127,137	368,256	-0,135	-0,191
128,151	40,642	-0,218	-0,137
129,166	71,380	-0,170	-0,123
130,181	-45,519	-0,206	-0,071
131,195	333,933	-0,152	-0,205
132,210	93,107	-0,230	-0,181
133,224	360,704	-0,237	-0,332
134,239	171,189	-0,232	-0,233
135,254	604,716	-0,151	-0,263
136,268	-75,493	-0,241	-0,059
137,283	59,706	-0,123	-0,084
138,297	33,853	-0,282	-0,171
139,312	97,753	-0,229	-0,183
140,327	111,783	-0,218	-0,183
141,341	56,886	-0,346	-0,234
142,356	51,767	-0,203	-0,134
143,370	90,899	-0,185	-0,144
144,385	-62,503	-0,276	-0,079
145,400	17,889	-0,279	-0,155
146,414	51,946	-0,299	-0,198
147,429	12,704	-0,308	-0,165
148,443	-5,710	-0,316	-0,150
149,458	30,950	-0,101	-0,060
150,473	202,798	-0,126	-0,136
151,487	-120,136	-0,306	-0,036
152,502	-42,279	-0,221	-0,078
153,516	-101,898	-0,217	-0,036
154,531	65,203	-0,203	-0,143
155,546	800,000	-0,103	-0,262
156,560	800,000	-0,149	-0,287
157,575	-30,825	-0,142	-0,056
158,589	-200,000	-0,021	-0,165
159,604	-89,086	-0,211	-0,043
160,619	227,172	-0,166	-0,188
161,633	253,623	-0,247	-0,295
162,648	5,075	-0,274	-0,140
163,662	227,304	-0,143	-0,162
164,677	58,191	-0,197	-0,134
165,692	153,301	-0,274	-0,261
166,706	-39,145	-0,249	-0,091
167,721	29,931	-0,180	-0,106
168,735	109,397	-0,194	-0,162
169,750	-141,244	-0,225	-0,016
170,764	-25,596	-0,220	-0,090
171,779	86,043	-0,146	-0,111
172,794	-110,033	-0,330	-0,047
173,808	296,611	-0,219	-0,280
174,823	96,761	-0,297	-0,236
175,837	429,302	-0,272	-0,409
176,852	-39,523	-0,317	-0,115
177,867	315,849	-0,185	-0,243
178,881	-12,883	-0,188	-0,085
179,896	205,441	-0,163	-0,177
180,910	-163,506	-0,351	-0,011
181,925	213,825	-0,216	-0,238
182,940	-11,725	-0,377	-0,171
183,954	109,415	-0,192	-0,159
184,969	83,476	-0,235	-0,178
185,983	800,000	-0,062	-0,173
186,998	-4,651	-0,222	-0,106
188,013	304,418	-0,125	-0,161
189,027	-7,754	-0,188	-0,088
190,042	-22,582	-0,283	-0,118
191,056	-112,432	-0,331	-0,045
192,071	-41,408	-0,210	-0,075
193,086	283,581	-0,119	-0,149
194,100	-80,180	-0,206	-0,048
195,115	138,866	-0,169	-0,154
196,129	52,605	-0,313	-0,207
197,144	278,781	-0,204	-0,253
198,159	-74,023	-0,414	-0,103
199,173	-54,515	-0,142	-0,044
200,188	517,382	-0,116	-0,188
201,202	194,694	-0,253	-0,266
202,217	286,700	-0,126	-0,158
203,232	308,050	-0,255	-0,331
204,246	63,375	-0,243	-0,168
205,261	209,038	-0,154	-0,167
206,275	-131,196	-0,174	0,016
207,290	11,281	-0,226	-0,120
208,304	-19,210	-0,131	-0,056
209,319	-42,108	-0,167	-0,059
210,334	-88,013	-0,292	-0,060
211,348	438,682	-0,094	-0,143
212,363	52,244	-0,183	-0,121
213,377	-37,642	-0,224	-0,082
214,392	23,252	-0,141	-0,080
215,407	-46,445	-0,267	-0,090
216,421	-0,040	-0,162	-0,079
217,436	-176,162	-0,080	-0,001
218,450	122,456	-0,181	-0,157
219,465	-23,343	-0,264	-0,109
220,480	-99,820	-0,152	-0,026
221,494	-200,000	0,002	-0,068
222,509	800,000	-0,124	-0,253
223,523	64,629	-0,226	-0,158
224,538	-29,864	-0,243	-0,095
225,553	198,455	-0,176	-0,186
226,567	348,297	-0,156	-0,214
227,582	-32,433	-0,183	-0,070
228,596	-33,139	-0,192	-0,073
229,611	-10,393	-0,132	-0,060
230,626	91,228	-0,172	-0,133
231,640	268,891	-0,192	-0,234
232,655	800,000	-0,108	-0,295
233,669	87,388	-0,198	-0,151
234,684	288,608	-0,147	-0,184
235,699	-67,470	-0,156	-0,042
236,713	277,800	-0,088	-0,109
237,728	723,258	-0,092	-0,170
238,742	458,841	-0,133	-0,205
239,757	800,000	-0,083	-0,244
240,772	102,155	-0,150	-0,121
241,786	207,634	-0,114	-0,123
242,801	120,789	-0,176	-0,151
243,815	800,000	-0,069	-0,149
244,830	-200,000	-0,028	-0,183
245,844	744,224	-0,062	-0,116
246,859	12,381	-0,099	-0,052
247,874	-159,505	-0,138	-0,005
248,888	51,278	-0,164	-0,108
249,903	213,073	-0,181	-0,198
250,917	-3,307	-0,188	-0,090
251,932	-1,926	-0,148	-0,072
252,947	-99,695	-0,199	-0,034
253,961	-117,770	-0,255	-0,031
254,976	-128,477	-0,264	-0,026
255,990	98,335	-0,233	-0,185
257,005	-200,000	-0,066	-0,241
258,020	-0,407	-0,110	-0,054
259,034	190,088	-0,187	-0,194
260,049	472,271	-0,035	-0,055
261,063	-200,000	-0,004	-0,077
262,078	-146,681	-0,259	-0,015
263,093	-28,180	-0,166	0,066
264,107	161,749	-0,103	-0,099
265,122	-16,012	-0,165	0,072
266,136	-153,122	-0,172	0,008
267,151	347,761	-0,143	-0,195
268,166	15,199	-0,311	-0,168
269,180	65,785	-0,146	-0,102
270,195	178,911	-0,138	-0,139
271,209	156,218	-0,114	-0,108
272,224	800,000	0,013	-0,026
273,239	800,000	-0,055	-0,136
274,253	551,725	-0,051	-0,085
275,268	-117,866	-0,210	-0,026
276,282	800,000	-0,107	-0,211
277,297	59,691	-0,207	-0,140
278,312	-33,986	-0,136	-0,051
279,326	231,067	-0,118	-0,134
280,341	262,824	-0,085	-0,102
281,355	67,590	-0,230	-0,162
282,370	106,338	-0,192	-0,156
283,384	10,977	-0,234	-0,123
284,399	79,980	-0,220	-0,163
285,414	243,209	-0,124	-0,143
286,428	-104,394	-0,153	0,024
287,443	-120,515	-0,240	0,028
288,457	92,226	-0,084	-0,065
289,472	449,476	-0,128	-0,195
290,487	-170,770	-0,224	-0,005
291,501	210,613	-0,197	-0,214
292,516	172,214	-0,159	-0,157
293,530	413,905	-0,071	-0,105
294,545	68,795	-0,120	0,085
295,560	275,194	-0,160	-0,196
296,574	-13,949	-0,141	-0,062
297,589	213,245	-0,084	-0,091
298,603	-106,237	-0,272	-0,041
299,618	-20,478	-0,049	-0,021
300,633	-113,343	-0,183	0,024
301,647	234,596	-0,061	-0,070
302,662	8,760	-0,083	0,043
303,676	35,507	-0,176	-0,106
304,691	-74,233	-0,074	-0,018
305,706	-75,460	-0,135	-0,033
306,720	-36,516	-0,208	-0,077
307,735	678,622	-0,074	-0,132
308,749	272,758	0,068	-0,083
309,764	195,528	-0,088	-0,092
310,779	-96,510	-0,197	-0,035
311,793	-92,298	-0,091	-0,017
312,808	175,588	-0,197	-0,196
313,822	22,023	-0,176	-0,098
314,837	17,063	-0,084	-0,046
315,852	791,361	-0,078	-0,147
316,866	169,741	-0,089	0,087
317,881	-12,449	-0,070	0,031
318,895	0,822	-0,242	-0,118
319,910	146,109	-0,117	-0,108
320,925	69,384	-0,214	-0,151
321,939	-200,000	-0,014	-0,156
322,954	-174,157	-0,106	-0,002
323,968	-37,587	-0,112	-0,041
324,983	271,917	-0,104	-0,126
325,997	112,999	-0,191	-0,158
327,012	148,787	-0,175	-0,162
328,027	197,076	-0,149	-0,157
329,041	-19,803	-0,241	-0,102
330,056	-37,518	-0,156	-0,057
331,070	470,184	-0,088	-0,136
332,085	-159,448	-0,158	0,006
333,100	-34,557	-0,192	0,072
334,114	800,000	-0,126	-0,254
335,129	207,435	-0,120	-0,129
336,143	-24,359	-0,072	-0,029
337,158	125,328	-0,126	-0,109
338,173	-10,354	-0,141	0,064
339,187	15,511	-0,106	-0,057
340,202	800,000	-0,063	-0,139
341,216	40,433	-0,136	-0,084
342,231	102,620	-0,289	-0,232
343,246	-85,576	-0,206	-0,043
344,260	322,877	-0,049	-0,064
345,275	800,000	-0,053	0,103
346,289	22,091	-0,029	-0,016
347,304	-160,682	-0,187	0,007
348,319	249,627	-0,179	-0,209
349,333	-87,242	-0,130	-0,027
350,348	-63,424	-0,257	-0,072
351,362	-12,206	-0,263	-0,117
352,377	-200,000	0,020	-0,207
353,392	800,000	-0,086	-0,245
354,406	199,285	-0,147	-0,154
355,421	207,925	1308,305	1400,062
356,435	159,966	1468,246	1400,548
