DTS Sentinel unit serial number:	SN410029Multiplexer serial number:	ORYXHardware model number:	OX2-SRSoftware version number:	ORYX F/W v4,00 Oryx Data Collector v3.7.2.0data status	okinstallation	B3 Nyhavnadifferential loss correction	single-endedforward channel	channel 1reverse channel	N/Adate	2023/11/30time	06:37:30forward acquisition time	300,00reverse acquisition time	0,00gamma	499,1914k internal	0,3210k external	0,3210temperature offset calibration	1,0000default loss term (dB/km)	0,3820temperature slope calibration	1,0000multiplexer offset coefficient	1,0000multiplexer slope coefficient	1,0000fibre end	0,00T internal ref (°C)	10,22T ext. ref 1 (°C)	-5,47T ext. ref 2 (°C)	-5,57length (m)	temperature (°C)	Stokes	anti-Stokes-744,400	120,451	-0,184	-0,165
-743,385	-200,000	0,108	0,410
-742,371	800,000	-0,181	-0,417
-741,356	-200,000	-0,036	0,281
-740,342	-19,852	-0,233	-0,104
-739,327	-200,000	-0,013	0,209
-738,312	491,651	-0,173	-0,288
-737,298	-200,000	-0,004	0,318
-736,283	117,485	-0,091	-0,081
-735,269	-200,000	-0,070	0,397
-734,254	456,218	-0,136	-0,219
-733,239	29,228	-0,191	0,117
-732,225	521,161	-0,090	-0,154
-731,210	-200,000	0,011	0,109
-730,196	-143,575	0,063	-0,004
-729,181	436,390	-0,096	-0,153
-728,167	-200,000	0,028	0,104
-727,152	-200,000	-0,022	-0,077
-726,137	-27,286	-0,157	-0,066
-725,123	-200,000	-0,031	-0,127
-724,108	800,000	-0,028	-0,087
-723,094	190,983	-0,054	0,059
-722,079	-200,000	0,002	-0,082
-721,064	204,350	-0,087	-0,098
-720,050	-200,000	0,001	-0,054
-719,035	11,050	0,072	-0,040
-718,021	800,000	-0,052	-0,158
-717,006	-31,747	-0,066	0,027
-715,991	-39,781	-0,190	-0,072
-714,977	168,001	-0,072	-0,074
-713,962	-164,242	-0,214	-0,007
-712,948	68,293	-0,001	0,001
-711,933	-200,000	0,006	-0,043
-710,918	457,686	0,045	-0,073
-709,904	-82,079	-0,191	0,045
-708,889	800,000	-0,028	0,060
-707,875	-200,000	0,009	-0,103
-706,860	-200,000	0,017	0,085
-705,845	169,518	0,048	0,049
-704,831	381,514	-0,032	0,048
-703,816	-133,824	-0,059	0,005
-702,802	-200,000	-0,008	-0,072
-701,787	121,944	-0,075	-0,067
-700,772	362,486	-0,033	-0,048
-699,758	33,273	0,089	-0,056
-698,743	-200,000	-0,012	-0,090
-697,729	265,025	-0,016	-0,020
-696,714	84,482	0,085	-0,067
-695,699	276,241	-0,067	0,086
-694,685	-112,206	0,114	0,016
-693,670	-40,823	-0,071	0,026
-692,656	800,000	-0,039	-0,121
-691,641	65,301	0,055	-0,040
-690,627	-3,228	-0,121	0,061
-689,612	-62,834	0,174	-0,052
-688,597	341,585	0,034	-0,049
-687,583	406,634	-0,074	-0,114
-686,568	58,549	-0,066	-0,047
-685,554	-14,490	0,079	-0,037
-684,539	-89,927	-0,058	-0,012
-683,524	800,000	0,039	-0,113
-682,510	-54,189	0,124	-0,041
-681,495	-200,000	0,013	-0,070
-680,481	48,950	-0,087	-0,059
-679,466	40,241	-0,058	0,038
-678,451	-111,922	-0,080	0,012
-677,437	326,706	0,098	-0,136
-676,422	-200,000	0,033	-0,182
-675,408	-161,715	0,198	0,007
-674,393	-121,392	-0,122	-0,015
-673,378	69,208	0,147	-0,110
-672,364	-200,000	-0,035	-0,156
-671,349	-8,023	-0,171	0,083
-670,335	57,144	0,082	-0,058
-669,320	-200,000	0,005	0,070
-668,305	800,000	0,051	0,121
-667,291	83,429	-0,051	-0,040
-666,276	-200,000	0,008	0,118
-665,262	-107,655	-0,076	0,012
-664,247	800,000	0,020	0,041
-663,232	44,332	0,063	-0,042
-662,218	166,971	0,145	0,149
-661,203	-200,000	-0,011	0,038
-660,189	64,400	-0,136	0,099
-659,174	305,713	-0,054	-0,072
-658,159	53,324	-0,077	0,054
-657,145	-95,210	0,130	-0,025
-656,130	-76,255	0,088	0,022
-655,116	-200,000	0,023	0,189
-654,101	-72,942	0,083	-0,022
-653,086	61,848	-0,070	-0,050
-652,072	279,671	0,015	0,020
-651,057	-57,362	-0,060	0,019
-650,043	-87,496	-0,211	-0,046
-649,028	247,162	0,029	0,036
-648,014	-200,000	-0,014	0,127
-646,999	-200,000	0,036	0,149
-645,984	442,369	-0,020	0,031
-644,970	86,905	-0,080	0,064
-643,955	620,205	-0,031	-0,056
-642,941	-45,766	-0,069	0,024
-641,926	-61,995	-0,103	0,031
-640,911	242,324	0,070	0,085
-639,897	12,530	-0,061	0,034
-638,882	211,716	0,026	-0,029
-637,868	-89,894	-0,076	-0,016
-636,853	-23,632	-0,034	-0,015
-635,838	-130,195	-0,076	-0,007
-634,824	-200,000	-0,012	-0,181
-633,809	800,000	-0,044	-0,120
-632,795	351,224	0,037	-0,053
-631,780	15,263	-0,029	0,017
-630,765	-200,000	0,019	-0,088
-629,751	-200,000	-0,022	-0,200
-628,736	800,000	-0,077	-0,190
-627,722	-30,896	-0,081	-0,033
-626,707	-200,000	-0,020	-0,093
-625,692	248,144	0,051	0,062
-624,678	-7,864	-0,100	0,048
-623,663	-200,000	0,019	0,141
-622,649	-113,699	0,101	-0,014
-621,634	479,234	0,045	0,074
-620,619	-151,951	-0,118	-0,006
-619,605	6,566	0,065	-0,035
-618,590	216,398	-0,041	0,047
-617,576	-76,216	-0,090	-0,023
-616,561	-149,388	-0,196	0,011
-615,546	94,410	-0,078	-0,064
-614,532	272,631	-0,072	0,092
-613,517	504,875	-0,029	-0,049
-612,503	-40,941	0,058	-0,021
-611,488	410,390	-0,081	0,124
-610,474	-200,000	-0,012	0,080
-609,459	800,000	0,019	-0,053
-608,444	-57,916	-0,090	-0,028
-607,430	-54,715	-0,106	0,034
-606,415	102,244	-0,166	-0,140
-605,401	800,000	-0,033	-0,097
-604,386	-200,000	0,000	0,079
-603,371	-130,327	0,017	-0,002
-602,357	252,559	-0,066	0,081
-601,342	201,670	-0,057	0,064
-600,328	17,171	0,162	0,092
-599,313	-129,553	-0,039	0,004
-598,298	5,938	-0,202	-0,108
-597,284	350,068	-0,063	0,089
-596,269	44,289	-0,143	0,094
-595,255	-163,615	0,111	0,004
-594,240	7,136	-0,072	0,038
-593,225	157,085	-0,057	0,057
-592,211	-200,000	-0,025	-0,092
-591,196	-200,000	0,008	-0,048
-590,182	254,157	-0,070	-0,086
-589,167	9,116	-0,052	-0,028
-588,152	656,803	-0,056	0,104
-587,138	-131,760	-0,093	-0,009
-586,123	-200,000	0,001	-0,018
-585,109	105,666	-0,056	-0,048
-584,094	-71,081	0,104	0,028
-583,079	218,376	-0,074	-0,085
-582,065	274,369	0,011	0,014
-581,050	-192,988	-0,062	-0,000
-580,036	41,300	-0,039	-0,025
-579,021	800,000	-0,057	-0,158
-578,006	466,972	-0,015	0,025
-576,992	102,190	-0,065	-0,055
-575,977	-200,000	0,012	0,058
-574,963	88,468	0,118	0,095
-573,948	-158,133	0,119	-0,005
-572,934	-56,294	0,076	-0,024
-571,919	-200,000	-0,009	-0,084
-570,904	-12,515	0,057	-0,027
-569,890	42,571	-0,083	-0,055
-568,875	70,580	-0,063	0,047
-567,861	278,841	-0,067	0,086
-566,846	396,396	0,035	0,053
-565,831	-153,471	0,114	-0,006
-564,817	30,841	0,060	-0,037
-563,802	-200,000	0,029	-0,114
-562,788	-113,578	-0,087	-0,012
-561,773	800,000	0,026	0,064
-560,758	-200,000	-0,007	-0,086
-559,744	108,951	0,108	-0,093
-558,729	141,103	0,072	-0,069
-557,715	-200,000	-0,034	-0,108
-556,700	253,425	0,052	0,064
-555,685	-200,000	0,004	-0,096
-554,671	-200,000	0,032	-0,106
-553,656	-200,000	-0,025	0,147
-552,642	-200,000	0,003	-0,054
-551,627	-112,334	0,150	-0,021
-550,612	-200,000	0,008	-0,086
-549,598	800,000	-0,043	-0,101
-548,583	-200,000	0,004	-0,045
-547,569	237,526	0,037	0,045
-546,554	-47,684	-0,125	-0,043
-545,539	-200,000	-0,019	0,110
-544,525	794,366	0,047	-0,093
-543,510	800,000	0,049	-0,125
-542,496	188,240	-0,025	-0,027
-541,481	281,354	-0,034	-0,043
-540,466	-200,000	0,011	0,086
-539,452	-125,485	0,064	0,007
-538,437	-73,757	0,270	-0,070
-537,423	479,429	0,037	-0,061
-536,408	31,314	-0,054	-0,033
-535,393	-200,000	0,036	-0,204
-534,379	800,000	0,022	-0,056
-533,364	486,470	0,079	-0,130
-532,350	-48,767	0,204	-0,070
-531,335	186,155	0,091	0,097
-530,321	670,429	-0,038	0,070
-529,306	-92,658	-0,091	-0,018
-528,291	-32,782	0,114	-0,045
-527,277	-200,000	0,006	0,096
-526,262	45,148	-0,011	-0,007
-525,248	167,260	-0,056	-0,057
-524,233	113,095	-0,018	0,016
-523,218	144,405	-0,085	0,081
-522,204	10,000	-0,067	0,036
-521,189	-39,625	-0,195	-0,073
-520,175	253,871	-0,029	0,036
-519,160	-85,305	0,102	-0,023
-518,145	128,327	-0,028	-0,026
-517,131	-83,626	0,102	-0,023
-516,116	-200,000	0,008	0,068
-515,102	-31,871	0,099	0,040
-514,087	-157,181	0,092	0,004
-513,072	565,880	0,010	-0,017
-512,058	525,010	-0,038	0,065
-511,043	-200,000	0,000	0,004
-510,029	-34,284	0,221	0,087
-509,014	639,252	-0,027	-0,049
-507,999	-51,111	0,040	0,014
-506,985	-200,000	0,018	0,089
-505,970	81,145	-0,079	-0,062
-504,956	626,046	0,031	-0,056
-503,941	-29,459	0,065	-0,027
-502,926	772,549	-0,072	0,142
-501,912	177,817	-0,046	0,048
-500,897	-96,811	-0,104	-0,020
-499,883	405,017	0,014	-0,022
-498,868	800,000	-0,048	0,113
-497,853	19,347	-0,025	-0,014
-496,839	157,482	-0,022	0,022
-495,824	113,583	-0,031	0,027
-494,810	-200,000	-0,009	0,131
-493,795	800,000	0,042	0,097
-492,781	-200,000	-0,014	-0,095
-491,766	800,000	0,011	-0,023
-490,751	448,493	-0,078	0,124
-489,737	142,250	0,037	0,035
-488,722	-187,980	0,171	0,002
-487,708	-200,000	0,015	-0,174
-486,693	-183,018	-0,076	-0,001
-485,678	14,516	-0,047	0,026
-484,664	-115,554	0,097	0,013
-483,649	800,000	0,015	-0,043
-482,635	418,668	-0,086	-0,133
-481,620	-24,428	-0,065	0,028
-480,605	123,851	0,042	-0,037
-479,591	800,000	0,044	0,129
-478,576	800,000	-0,016	0,050
-477,562	577,384	-0,025	0,044
-476,547	24,593	-0,083	-0,049
-475,532	38,702	-0,027	-0,017
-474,518	800,000	0,043	-0,113
-473,503	-200,000	-0,006	0,047
-472,489	-40,767	0,046	0,017
-471,474	800,000	-0,035	0,086
-470,459	-39,376	-0,057	-0,021
-469,445	98,886	-0,037	0,030
-468,430	-142,730	0,027	0,002
-467,416	-200,000	0,035	-0,135
-466,401	800,000	0,032	0,090
-465,386	800,000	0,035	0,104
-464,372	141,435	-0,014	-0,014
-463,357	59,912	-0,024	0,017
-462,343	-123,689	-0,151	-0,017
-461,328	-200,000	-0,017	-0,087
-460,313	404,239	-0,058	0,087
-459,299	-200,000	-0,001	0,042
-458,284	800,000	-0,040	-0,090
-457,270	-106,511	0,157	-0,025
-456,255	-81,631	-0,014	0,003
-455,241	103,918	0,076	-0,064
-454,226	-200,000	-0,012	-0,085
-453,211	-200,000	-0,022	0,105
-452,197	-200,000	0,011	-0,086
-451,182	800,000	-0,067	0,136
-450,168	-200,000	0,006	-0,038
-449,153	800,000	-0,026	0,062
-448,138	-25,573	-0,218	-0,092
-447,124	-55,102	-0,101	0,032
-446,109	-126,797	0,029	0,003
-445,095	800,000	0,014	-0,036
-444,080	800,000	-0,041	-0,085
-443,065	256,119	0,086	0,105
-442,051	102,842	0,048	-0,040
-441,036	536,248	0,038	-0,066
-440,022	-200,000	0,011	-0,098
-439,007	81,418	-0,139	-0,108
-437,992	-74,372	-0,105	-0,027
-436,978	-126,105	0,075	-0,008
-435,963	99,827	0,041	-0,034
-434,949	11,787	-0,087	0,048
-433,934	-200,000	-0,008	0,031
-432,919	113,152	-0,087	-0,076
-431,905	303,873	0,058	-0,077
-430,890	7,883	0,077	0,041
-429,876	-178,722	0,113	-0,002
-428,861	54,410	0,043	0,029
-427,846	-127,445	-0,068	-0,007
-426,832	-95,087	-0,087	0,017
-425,817	-200,000	0,014	-0,173
-424,803	-200,000	0,005	0,041
-423,788	193,931	-0,080	0,087
-422,773	800,000	0,057	0,136
-421,759	92,869	0,104	0,084
-420,744	-34,762	0,059	-0,023
-419,730	800,000	0,041	-0,127
-418,715	53,514	-0,119	-0,082
-417,701	14,462	0,156	0,087
-416,686	-75,307	-0,015	0,004
-415,671	-29,020	0,081	0,033
-414,657	-51,560	0,138	0,046
-413,642	800,000	0,086	0,173
-412,628	315,747	-0,132	-0,178
-411,613	-47,433	0,026	0,009
-410,598	87,689	0,030	0,023
-409,584	-9,586	-0,066	-0,031
-408,569	-200,000	-0,010	-0,033
-407,555	26,246	-0,016	0,009
-406,540	800,000	-0,034	0,083
-405,525	-58,305	-0,085	-0,026
-404,511	-200,000	-0,006	0,049
-403,496	23,845	-0,053	0,031
-402,482	183,093	-0,041	0,043
-401,467	-200,000	0,025	0,108
-400,452	494,493	-0,024	0,040
-399,438	800,000	-0,015	0,046
-398,423	-11,519	0,144	0,068
-397,409	800,000	0,057	-0,139
-396,394	800,000	-0,075	-0,172
-395,379	-25,662	-0,137	-0,058
-394,365	-200,000	0,023	0,078
-393,350	32,791	0,041	-0,025
-392,336	14,994	0,070	-0,039
-391,321	219,178	-0,045	-0,051
-390,306	-118,599	-0,189	-0,024
-389,292	-200,000	0,010	-0,062
-388,277	-86,061	0,055	-0,012
-387,263	-122,892	0,029	-0,003
-386,248	159,972	0,038	0,038
-385,233	-96,145	0,035	0,007
-384,219	-33,855	-0,036	-0,014
-383,204	-148,972	-0,153	0,009
-382,190	-200,000	-0,032	-0,166
-381,175	202,226	0,106	-0,117
-380,160	175,081	-0,041	0,042
-379,146	191,916	0,052	-0,056
-378,131	800,000	0,129	0,285
-377,117	139,501	-0,048	0,045
-376,102	22,823	-0,022	-0,013
-375,088	-200,000	-0,004	-0,070
-374,073	8,967	-0,026	-0,014
-373,058	-200,000	-0,001	0,069
-372,044	800,000	-0,012	0,037
-371,029	367,895	0,071	0,102
-370,015	-200,000	0,023	-0,109
-369,000	-200,000	0,012	-0,095
-367,985	800,000	-0,025	0,051
-366,971	-200,000	-0,021	-0,095
-365,956	-15,958	-0,042	0,019
-364,942	259,053	-0,114	-0,141
-363,927	800,000	0,016	-0,041
-362,912	800,000	0,021	-0,047
-361,898	-200,000	-0,008	-0,068
-360,883	-200,000	-0,015	0,099
-359,869	269,340	0,152	-0,191
-358,854	-107,486	-0,057	-0,009
-357,839	555,237	-0,035	0,061
-356,825	618,795	0,062	0,112
-355,810	-200,000	0,003	0,099
-354,796	-167,374	-0,074	0,002
-353,781	800,000	-0,026	-0,077
-352,766	-93,804	0,142	-0,028
-351,752	800,000	-0,031	-0,088
-350,737	-200,000	-0,006	0,025
-349,723	800,000	0,018	0,050
-348,708	-200,000	0,014	0,091
-347,693	-200,000	0,002	-0,098
-346,679	79,154	0,054	-0,041
-345,664	93,124	0,071	-0,058
-344,650	-30,269	-0,087	-0,035
-343,635	187,851	-0,068	0,073
-342,620	800,000	0,063	0,159
-341,606	-200,000	0,015	0,089
-340,591	800,000	-0,014	-0,043
-339,577	107,318	-0,099	0,084
-338,562	-200,000	0,011	-0,074
-337,548	-200,000	-0,005	-0,046
-336,533	47,974	0,162	0,108
-335,518	154,462	-0,085	0,083
-334,504	-199,485	0,039	0,000
-333,489	-200,000	-0,004	-0,053
-332,475	82,315	-0,075	-0,058
-331,460	800,000	-0,031	-0,064
-330,445	323,955	0,112	-0,153
-329,431	-127,755	-0,027	-0,003
-328,416	-200,000	-0,014	0,049
-327,402	622,599	-0,060	0,108
-326,387	800,000	0,068	0,176
-325,372	-200,000	0,002	-0,080
-324,358	387,280	-0,040	-0,060
-323,343	-200,000	0,028	-0,129
-322,329	800,000	-0,071	0,147
-321,314	-179,605	0,140	-0,002
-320,299	-60,798	0,012	-0,004
-319,285	800,000	-0,020	0,052
-318,270	12,998	-0,080	-0,044
-317,256	-72,908	0,118	0,031
-316,241	-181,225	0,104	0,001
-315,226	-188,579	0,055	0,000
-314,212	0,339	0,056	-0,028
-313,197	-106,730	0,142	-0,022
-312,183	184,603	-0,036	-0,038
-311,168	-70,402	-0,096	-0,026
-310,153	375,967	-0,039	0,057
-309,139	-61,000	0,032	0,010
-308,124	357,840	0,029	-0,041
-307,110	-200,000	0,038	0,227
-306,095	800,000	-0,062	0,163
-305,080	-34,608	-0,041	0,016
-304,066	350,170	0,072	0,102
-303,051	3,887	0,064	-0,033
-302,037	457,646	-0,027	-0,043
-301,022	-87,550	0,206	0,044
-300,008	-200,000	0,013	-0,059
-298,993	-1,202	-0,059	0,030
-297,978	44,816	0,122	0,080
-296,964	101,319	0,109	-0,090
-295,949	-200,000	0,011	-0,119
-294,935	-77,055	-0,077	-0,019
-293,920	800,000	-0,059	0,125
-292,905	64,661	0,114	0,082
-291,891	800,000	-0,046	0,093
-290,876	65,356	0,037	-0,026
-289,862	-200,000	-0,015	-0,054
-288,847	-29,674	-0,030	-0,012
-287,832	-200,000	-0,011	-0,066
-286,818	-44,704	0,063	0,022
-285,803	-169,993	0,183	0,005
-284,789	-200,000	0,019	0,084
-283,774	397,427	-0,074	0,111
-282,759	188,388	0,035	-0,037
-281,745	69,501	-0,028	-0,021
-280,730	12,224	-0,067	-0,037
-279,716	-147,719	0,165	-0,010
-278,701	399,119	-0,092	0,137
-277,686	358,168	0,040	0,058
-276,672	800,000	0,057	0,160
-275,657	-92,355	0,054	-0,011
-274,643	-32,877	0,071	-0,028
-273,628	800,000	0,101	0,208
-272,613	90,820	-0,114	-0,091
-271,599	157,661	-0,114	0,112
-270,584	-106,311	0,109	-0,017
-269,570	57,635	0,066	-0,046
-268,555	-200,000	-0,002	0,060
-267,540	-200,000	-0,002	0,064
-266,526	-25,499	0,072	-0,030
-265,511	-106,131	-0,098	-0,016
-264,497	6,666	-0,060	0,032
-263,482	130,537	0,006	-0,006
-262,467	-200,000	-0,020	0,075
-261,453	-200,000	-0,003	0,020
-260,438	355,720	0,073	-0,103
-259,424	205,032	-0,053	0,058
-258,409	-200,000	-0,010	-0,052
-257,395	204,785	-0,044	-0,049
-256,380	209,451	-0,047	-0,053
-255,365	-200,000	0,016	0,060
-254,351	582,895	-0,088	-0,154
-253,336	-200,000	0,004	-0,030
-252,322	32,895	0,034	0,021
-251,307	223,628	-0,045	0,051
-250,292	-200,000	0,001	0,036
-249,278	-200,000	0,004	0,064
-248,263	250,539	-0,031	0,037
-247,249	-200,000	0,001	0,075
-246,234	-200,000	0,010	-0,041
-245,219	432,041	0,066	-0,102
-244,205	800,000	-0,014	-0,043
-243,190	117,450	-0,089	-0,078
-242,176	-94,393	0,131	-0,025
-241,161	-200,000	0,014	-0,187
-240,146	-16,164	-0,034	0,015
-239,132	-32,975	0,069	0,027
-238,117	-17,178	-0,091	0,041
-237,103	-122,877	-0,145	0,016
-236,088	-60,274	-0,012	-0,004
-235,073	350,336	0,047	0,066
-234,059	41,663	0,065	-0,042
-233,044	106,200	-0,051	0,043
-232,030	638,047	-0,032	-0,059
-231,015	262,524	0,086	-0,106
-230,000	-120,246	-0,146	-0,017
-228,986	14,403	-0,039	-0,021
-227,971	-36,947	-0,077	-0,029
-226,957	374,444	0,097	-0,141
-225,942	68,238	0,130	-0,095
-224,927	-126,874	-0,214	0,022
-223,913	-200,000	-0,004	-0,084
-222,898	-77,139	-0,144	-0,035
-221,884	-200,000	-0,014	-0,121
-220,869	-149,075	0,066	0,004
-219,855	438,234	0,041	0,064
-218,840	-200,000	0,003	0,044
-217,825	82,397	-0,049	-0,038
-216,811	-100,725	-0,037	-0,006
-215,796	800,000	0,047	0,115
-214,782	97,318	0,052	0,043
-213,767	-152,148	0,103	0,005
-212,752	585,841	0,036	0,064
-211,738	109,642	0,076	0,065
-210,723	66,261	0,128	0,092
-209,709	569,384	0,063	-0,108
-208,694	95,304	-0,113	0,091
-207,679	91,055	0,038	-0,030
-206,665	214,114	0,060	-0,068
-205,650	800,000	0,019	-0,052
-204,636	-24,698	-0,026	-0,011
-203,621	-49,829	-0,028	0,010
-202,606	-200,000	-0,004	-0,066
-201,592	111,992	-0,066	-0,057
-200,577	-2,309	0,047	-0,024
-199,563	-200,000	0,019	0,064
-198,548	480,242	0,041	0,066
-197,533	282,896	0,041	0,052
-196,519	6,531	0,166	0,087
-195,504	-200,000	-0,006	-0,023
-194,490	-200,000	-0,008	0,086
-193,475	74,970	0,103	0,077
-192,460	588,927	-0,060	0,105
-191,446	-64,839	0,147	0,042
-190,431	161,352	0,096	-0,095
-189,417	-84,179	0,070	0,016
-188,402	254,527	-0,068	0,083
-187,387	-154,563	-0,192	-0,009
-186,373	1,663	-0,110	0,056
-185,358	406,804	-0,044	0,067
-184,344	-30,610	0,113	0,045
-183,329	610,786	0,034	0,061
-182,315	-133,087	0,146	0,013
-181,300	-200,000	-0,016	-0,087
-180,285	-50,175	-0,035	0,012
-179,271	-200,000	-0,039	-0,126
-178,256	77,952	0,070	-0,053
-177,242	-128,538	0,161	-0,016
-176,227	800,000	-0,027	0,066
-175,212	699,093	0,023	-0,044
-174,198	57,996	0,123	-0,085
-173,183	117,264	-0,166	-0,145
-172,169	105,946	0,047	0,040
-171,154	800,000	-0,039	0,111
-170,139	-156,921	0,146	-0,006
-169,125	800,000	-0,028	0,079
-168,110	30,981	0,085	0,051
-167,096	-162,273	-0,054	0,002
-166,081	-200,000	-0,006	-0,046
-165,066	-77,709	0,052	0,013
-164,052	-14,698	-0,077	-0,035
-163,037	-200,000	-0,019	0,083
-162,023	-200,000	0,005	0,072
-161,008	800,000	-0,046	0,100
-159,993	-137,514	-0,054	-0,004
-158,979	109,816	-0,114	0,097
-157,964	95,886	-0,107	-0,087
-156,950	-200,000	-0,016	0,053
-155,935	56,035	0,124	0,085
-154,920	-200,000	0,012	0,084
-153,906	374,481	0,048	0,069
-152,891	-35,852	0,068	0,026
-151,877	8,339	-0,153	-0,081
-150,862	-194,625	-0,052	-0,000
-149,847	-29,345	-0,034	-0,014
-148,833	357,971	0,035	0,049
-147,818	-200,000	0,002	0,071
-146,804	70,959	0,102	0,075
-145,789	-80,919	0,154	0,036
-144,775	-46,402	-0,060	-0,021
-143,760	-31,412	-0,110	-0,044
-142,745	96,309	-0,064	0,052
-141,731	-200,000	0,005	0,135
-140,716	-83,769	0,038	0,009
-139,702	-2,059	0,030	-0,015
-138,687	-200,000	0,009	0,042
-137,672	296,053	-0,007	0,009
-136,658	-63,723	-0,157	-0,045
-135,643	-103,866	0,060	-0,010
-134,629	112,807	-0,129	-0,111
-133,614	446,905	0,053	0,082
-132,599	77,144	0,047	-0,036
-131,585	-33,067	-0,112	0,044
-130,570	62,017	-0,177	0,124
-129,556	-200,000	0,028	-0,141
-128,541	57,784	-0,038	-0,026
-127,526	-200,000	0,004	0,017
-126,512	133,895	0,041	-0,038
-125,497	-200,000	0,013	-0,040
-124,483	350,986	0,082	0,115
-123,468	384,874	-0,106	0,155
-122,453	383,700	-0,011	0,017
-121,439	344,133	-0,021	-0,029
-120,424	-53,322	-0,090	-0,029
-119,410	514,854	-0,012	0,020
-118,395	-200,000	-0,002	0,044
-117,380	800,000	0,013	0,026
-116,366	-200,000	-0,010	0,102
-115,351	-9,991	0,070	-0,033
-114,337	-158,864	-0,075	-0,003
-113,322	-200,000	-0,006	-0,062
-112,307	-13,721	0,159	-0,072
-111,293	130,587	0,036	-0,033
-110,278	-200,000	0,001	0,010
-109,264	-140,232	-0,136	0,010
-108,249	-200,000	0,007	-0,053
-107,234	-76,644	-0,161	-0,040
-106,220	276,761	-0,017	0,022
-105,205	-48,685	-0,084	0,028
-104,191	189,894	0,105	0,112
-103,176	544,158	-0,083	0,140
-102,162	-90,322	-0,099	0,020
-101,147	-200,000	0,019	-0,061
-100,132	-45,213	-0,190	-0,066
-99,118	800,000	0,032	-0,094
-98,103	-106,461	0,038	-0,006
-97,089	-200,000	-0,006	0,074
-96,074	-72,381	-0,058	0,015
-95,059	62,618	0,063	-0,045
-94,045	450,744	0,049	0,077
-93,030	-76,954	-0,163	-0,040
-92,016	-115,502	0,117	0,015
-91,001	800,000	-0,012	-0,037
-89,986	79,808	0,010	-0,008
-88,972	-116,873	-0,018	0,002
-87,957	130,021	-0,106	-0,096
-86,943	-130,908	0,009	-0,001
-85,928	-45,676	0,044	-0,015
-84,913	145,523	-0,136	-0,129
-83,899	-62,445	0,090	-0,026
-82,884	99,285	-0,019	0,016
-81,870	3,032	0,165	0,084
-80,855	204,421	0,096	0,106
-79,840	-200,000	-0,028	0,143
-78,826	12,105	-0,128	-0,070
-77,811	-67,720	-0,089	-0,025
-76,797	20,488	0,027	-0,015
-75,782	490,409	-0,112	-0,181
-74,767	-194,253	-0,188	-0,001
-73,753	-97,152	0,151	0,028
-72,738	-200,000	-0,036	0,117
-71,724	34,405	0,025	-0,016
-70,709	800,000	-0,012	-0,029
-69,694	699,757	-0,039	-0,072
-68,680	-200,000	-0,007	-0,052
-67,665	-23,012	0,013	-0,005
-66,651	58,515	0,070	0,048
-65,636	-109,609	-0,119	-0,018
-64,622	-200,000	-0,024	-0,141
-63,607	800,000	-0,067	-0,131
-62,592	334,149	0,047	-0,064
-61,578	-200,000	-0,012	-0,158
-60,563	81,178	0,051	-0,039
-59,549	-200,000	-0,020	0,124
-58,534	31,916	-2,019	-1,226
-57,519	498,929	-1,196	-1,952
-56,505	-200,000	-0,313	-4,404
-55,490	800,000	0,789	1,588
-54,476	800,000	4,867	11,265
-53,461	-200,000	21,217	341,082
-52,446	800,000	759,986	2358,115
-51,432	558,564	1662,800	2843,455
-50,417	73,562	1662,237	1227,589
-49,403	18,112	1535,621	862,155
-48,388	12,030	1459,081	789,749
-47,373	19,466	1450,129	820,570
-46,359	15,522	1439,385	795,695
-45,344	10,334	1435,019	768,540
-44,330	10,301	1433,201	767,380
-43,315	10,266	1431,433	766,232
-42,300	10,271	1429,700	765,303
-41,286	10,272	1428,612	764,690
-40,271	10,254	1427,372	763,912
-39,257	10,277	1426,133	763,326
-38,242	10,294	1425,010	762,777
-37,227	10,305	1424,019	762,270
-36,213	10,283	1422,517	761,333
-35,198	10,307	1421,411	760,821
-34,184	10,337	1420,604	760,503
-33,169	10,264	1419,093	759,317
-32,154	10,309	1418,126	758,983
-31,140	10,300	1416,902	758,257
-30,125	10,326	1416,006	757,870
-29,111	10,326	1414,648	757,112
-28,096	10,302	1413,663	756,441
-27,082	10,265	1412,307	755,513
-26,067	10,240	1411,332	754,842
-25,052	10,287	1410,089	754,369
-24,038	10,237	1409,251	753,658
-23,023	10,233	1408,462	753,185
-22,009	10,242	1407,101	752,468
-20,994	10,238	1406,202	751,942
-19,979	10,246	1405,295	751,462
-18,965	10,247	1404,350	750,934
-17,950	10,201	1403,502	750,234
-16,936	10,241	1402,650	749,934
-15,921	10,146	1401,783	749,001
-14,906	10,119	1400,954	748,401
-13,892	10,212	1399,744	748,157
-12,877	10,196	1399,125	747,724
-11,863	10,172	1398,239	747,109
-10,848	10,141	1397,280	746,424
-9,833	10,081	1396,471	745,683
-8,819	10,109	1395,463	745,244
-7,804	10,078	1394,595	744,608
-6,790	10,072	1393,718	744,083
-5,775	10,051	1392,661	743,391
-4,760	10,056	1391,511	742,770
-3,746	10,045	1390,754	742,284
-2,731	10,098	1389,702	741,938
-1,717	10,039	1388,931	741,228
-0,702	10,043	1387,137	740,259
0,313	14,145	1299,843	712,428
1,327	30,387	690,249	415,141
2,342	47,175	119,379	78,255
3,356	2,680	16,355	8,337
4,371	-2,121	3,546	1,750
5,386	-22,716	0,857	0,363
6,400	-200,000	0,100	0,775
7,415	185,780	-0,100	-0,105
8,429	231,943	-0,219	-0,253
9,444	244,911	-0,287	-0,341
10,459	38,273	-0,234	-0,146
11,473	707,452	-0,098	-0,184
12,488	61,231	-0,144	-0,100
13,502	-51,766	-0,322	-0,105
14,517	10,343	-0,322	-0,172
15,531	-13,138	-0,312	-0,142
16,546	168,318	-0,285	-0,286
17,561	12,661	-0,333	-0,181
18,575	-126,831	-0,177	0,018
19,590	140,448	-0,297	-0,276
20,604	-102,144	-0,203	-0,034
21,619	40,369	-0,341	-0,216
22,634	58,052	-0,433	-0,299
23,648	-4,615	-0,348	-0,169
24,663	158,462	-0,342	-0,334
25,677	9,307	-0,324	-0,172
26,692	-184,679	-0,238	0,003
27,707	289,738	-0,238	-0,305
28,721	-68,636	-0,270	-0,073
29,736	42,724	-0,400	-0,256
30,750	15,152	-0,399	-0,220
31,765	70,541	-0,340	-0,247
32,780	2,666	-0,366	-0,186
33,794	4,611	-0,470	-0,242
34,809	-11,790	-0,366	-0,169
35,823	52,267	-0,453	-0,304
36,838	-17,496	-0,332	-0,146
37,853	146,827	-0,330	-0,312
38,867	94,242	-0,328	-0,261
39,882	148,518	-0,256	-0,243
40,896	-13,642	-0,408	-0,185
41,911	-36,235	-0,381	-0,144
42,926	145,086	-0,296	-0,278
43,940	35,530	-0,358	-0,220
44,955	28,043	-0,368	-0,218
45,969	114,026	-0,243	-0,207
46,984	73,896	-0,409	-0,301
47,999	371,217	-0,214	-0,305
49,013	27,268	-0,331	-0,195
50,028	611,715	-0,197	-0,348
51,042	123,366	-0,324	-0,285
52,057	-4,009	-0,458	-0,222
53,071	86,454	-0,309	-0,239
54,086	271,798	-0,251	-0,311
55,101	-74,087	-0,303	-0,076
56,115	-25,542	-0,327	-0,135
57,130	182,145	-0,304	-0,314
58,144	-29,411	-0,294	-0,118
59,159	236,394	-0,291	-0,339
60,174	42,781	-0,390	-0,249
61,188	34,066	-0,483	-0,295
62,203	108,114	-0,255	-0,214
63,217	89,806	-0,396	-0,310
64,232	34,674	-0,277	-0,170
65,247	35,655	-0,323	-0,199
66,261	213,719	-0,272	-0,302
67,276	90,193	-0,375	-0,294
68,290	123,786	-0,301	-0,265
69,305	-72,022	-0,269	-0,070
70,320	-118,854	-0,243	0,030
71,334	-40,734	-0,348	-0,126
72,349	199,366	-0,211	-0,227
73,363	-22,020	-0,378	-0,160
74,378	516,143	-0,148	-0,244
75,393	4,988	-0,355	-0,183
76,407	204,676	-0,227	-0,247
77,422	221,115	-0,244	-0,275
78,436	-101,635	-0,322	-0,054
79,451	-33,288	-0,307	-0,118
80,466	19,562	-0,347	-0,195
81,480	-42,213	-0,236	-0,084
82,495	342,744	-0,151	-0,208
83,509	-164,835	-0,341	0,011
84,524	-49,430	-0,215	-0,071
85,539	2,341	-0,298	-0,151
86,553	-58,032	-0,318	-0,096
87,568	17,780	-0,243	-0,135
88,582	194,382	-0,262	-0,279
89,597	63,451	-0,354	-0,248
90,611	113,794	-0,204	-0,174
91,626	126,923	-0,336	-0,298
92,641	98,540	-0,201	-0,162
93,655	-126,875	-0,362	-0,037
94,670	47,406	-0,429	-0,279
95,684	82,448	-0,282	-0,214
96,699	59,498	-0,269	-0,185
97,714	18,463	-0,352	-0,196
98,728	4,693	-0,311	-0,159
99,743	-10,271	-0,311	-0,144
100,757	18,206	-0,298	-0,166
101,772	48,605	-0,368	-0,241
102,787	15,327	-0,242	-0,132
103,801	-0,701	-0,248	-0,122
104,816	83,554	-0,250	-0,191
105,830	-112,753	-0,302	-0,042
106,845	-128,318	-0,269	-0,026
107,860	139,656	-0,250	-0,231
108,874	-12,789	-0,343	-0,156
109,889	120,625	-0,224	-0,194
110,903	2,029	-0,374	-0,188
111,918	267,727	-0,230	-0,281
112,933	37,253	-0,192	-0,119
113,947	4,903	-0,224	-0,115
114,962	-29,565	-0,341	-0,136
115,976	77,242	-0,291	-0,216
116,991	504,581	-0,161	-0,261
118,006	64,832	-0,198	-0,139
119,020	241,944	-0,214	-0,250
120,035	17,504	-0,089	0,049
121,049	29,664	-0,218	-0,129
122,064	135,711	-0,172	-0,157
123,079	-57,969	-0,312	-0,095
124,093	87,939	-0,238	-0,184
125,108	-39,984	-0,319	-0,115
126,122	15,960	-0,177	-0,097
127,137	-48,320	-0,230	-0,077
128,151	-106,410	-0,152	-0,023
129,166	-11,422	-0,113	-0,051
130,181	75,834	-0,237	-0,175
131,195	244,471	-0,234	-0,274
132,210	24,276	-0,292	-0,168
133,224	67,225	-0,270	-0,192
134,239	26,383	-0,316	-0,184
135,254	-136,239	-0,334	-0,027
136,268	126,592	-0,190	-0,168
137,283	129,515	-0,221	-0,197
138,297	-1,082	-0,410	-0,202
139,312	25,461	-0,309	-0,179
140,327	24,817	-0,214	-0,123
141,341	138,552	-0,183	-0,168
142,356	-33,625	-0,213	-0,082
143,370	-134,187	-0,311	-0,026
144,385	-74,911	-0,330	-0,082
145,400	13,485	-0,286	-0,154
146,414	9,038	-0,365	-0,192
147,429	141,842	-0,123	-0,113
148,443	21,313	-0,280	-0,158
149,458	-62,254	-0,273	-0,079
150,473	16,098	-0,145	0,079
151,487	-162,375	-0,164	-0,006
152,502	-125,319	-0,256	-0,027
153,516	20,455	-0,355	-0,199
154,531	-35,350	-0,224	-0,084
155,546	419,111	-0,146	-0,217
156,560	-33,532	-0,295	-0,113
157,575	55,164	-0,135	-0,091
158,589	75,430	-0,199	-0,146
159,604	186,361	-0,212	-0,220
160,619	368,255	-0,177	-0,249
161,633	221,919	-0,166	-0,186
162,648	43,671	-0,285	-0,181
163,662	372,138	-0,133	-0,189
164,677	594,040	-0,063	-0,109
165,692	-62,869	-0,255	-0,073
166,706	71,854	-0,239	-0,173
167,721	-1,269	-0,214	-0,105
168,735	125,005	-0,198	-0,174
169,750	161,774	-0,192	-0,187
170,764	133,458	-0,170	-0,153
171,779	12,887	-0,165	-0,088
172,794	-179,417	-0,251	-0,004
173,808	-20,761	-0,316	-0,134
174,823	-76,891	-0,294	-0,071
175,837	103,024	-0,200	-0,163
176,852	72,435	-0,279	-0,202
177,867	-148,685	-0,147	-0,008
178,881	-60,979	-0,101	-0,030
179,896	39,559	-0,246	-0,153
180,910	167,089	-0,175	-0,173
181,925	14,933	-0,178	-0,097
182,940	180,973	-0,244	-0,249
183,954	37,672	-0,168	-0,103
184,969	-38,479	-0,239	-0,087
185,983	7,491	-0,204	-0,105
186,998	568,811	-0,102	-0,173
188,013	-11,075	-0,134	-0,061
189,027	-123,397	-0,187	-0,020
190,042	149,556	-0,211	-0,198
191,056	800,000	-0,132	-0,259
192,071	800,000	-0,058	-0,163
193,086	260,123	-0,090	-0,108
194,100	-17,205	-0,190	-0,083
195,115	283,845	-0,117	-0,147
196,129	163,399	-0,184	-0,180
197,144	18,855	-0,165	-0,091
198,159	373,414	-0,084	-0,119
199,173	54,917	-0,112	-0,075
200,188	800,000	-0,080	-0,241
201,202	-103,605	-0,210	-0,034
202,217	108,954	-0,056	-0,047
203,232	180,171	-0,131	-0,133
204,246	-106,332	-0,245	-0,038
205,261	76,862	-0,245	-0,180
206,275	572,249	-0,124	-0,211
207,290	583,817	-0,155	-0,265
208,304	671,136	-0,025	-0,046
209,319	800,000	-0,063	-0,183
210,334	119,291	-0,244	-0,209
211,348	-22,862	-0,310	-0,129
212,363	-31,402	-0,108	-0,042
213,377	62,846	-0,202	-0,140
214,392	800,000	-0,111	-0,256
215,407	-136,784	-0,276	-0,022
216,421	189,353	-0,072	-0,075
217,436	-17,345	-0,207	-0,090
218,450	800,000	-0,095	-0,192
219,465	424,826	-0,176	-0,264
220,480	-6,943	-0,161	-0,075
221,494	-81,787	-0,134	-0,030
222,509	-130,577	-0,207	-0,019
223,523	-82,359	-0,266	-0,059
224,538	-200,000	-0,115	0,000
225,553	14,097	-0,376	-0,202
226,567	10,976	-0,216	-0,114
227,582	19,469	-0,150	-0,083
228,596	-200,000	-0,012	-0,119
229,611	-22,598	-0,115	-0,048
230,626	-118,685	-0,137	-0,016
231,640	57,993	-0,193	-0,131
232,655	37,690	-0,268	-0,164
233,669	51,010	-0,187	-0,122
234,684	-8,635	-0,254	-0,117
235,699	-97,276	-0,213	-0,038
236,713	9,072	-0,137	-0,071
237,728	173,124	-0,225	-0,224
238,742	170,669	-0,232	-0,230
239,757	-40,558	-0,259	-0,092
240,772	-75,398	-0,213	-0,052
241,786	73,959	-0,208	-0,150
242,801	394,485	-0,039	-0,057
243,815	-44,932	-0,224	-0,077
244,830	71,355	-0,169	-0,121
245,844	111,550	-0,200	-0,166
246,859	164,349	-0,085	-0,083
247,874	27,483	-0,193	-0,112
248,888	-38,007	-0,235	-0,086
249,903	-114,402	-0,187	-0,025
250,917	292,224	-0,113	-0,142
251,932	-102,824	-0,182	-0,030
252,947	23,072	-0,202	-0,114
253,961	355,293	-0,174	-0,240
254,976	72,830	-0,167	-0,120
255,990	-47,565	-0,241	-0,080
257,005	63,173	-0,170	-0,117
258,020	-13,129	-0,203	-0,090
259,034	474,410	-0,074	-0,116
260,049	477,510	-0,123	-0,193
261,063	-143,457	-0,141	-0,009
262,078	65,634	-0,221	-0,154
263,093	127,203	-0,184	-0,161
264,107	95,072	-0,271	-0,212
265,122	-65,912	-0,281	-0,077
266,136	-35,578	-0,095	-0,035
267,151	423,618	-0,150	-0,223
268,166	125,781	-0,115	-0,100
269,180	406,810	-0,073	-0,107
270,195	89,694	-0,209	-0,161
271,209	-170,307	-0,134	0,003
272,224	82,485	-0,025	-0,019
273,239	0,235	-0,219	-0,107
274,253	-73,806	-0,194	-0,048
275,268	-69,374	-0,072	-0,019
276,282	-124,895	-0,152	0,016
277,297	4,297	-0,265	-0,133
278,312	-60,045	-0,208	-0,061
279,326	800,000	-0,034	-0,073
280,341	309,303	-0,189	-0,244
281,355	-123,382	-0,216	0,023
282,370	-200,000	-0,041	-0,154
283,384	-39,991	-0,185	-0,066
284,399	583,886	-0,078	-0,133
285,414	254,471	-0,073	-0,086
286,428	-21,582	-0,103	-0,043
287,443	64,456	-0,172	-0,119
288,457	800,000	-0,049	-0,116
289,472	287,831	-0,069	-0,086
290,487	-157,136	-0,087	0,004
291,501	-141,291	-0,214	-0,015
292,516	27,939	-0,209	-0,121
293,530	-200,000	-0,013	-0,107
294,545	-107,207	-0,141	-0,021
295,560	-200,000	-0,016	-0,203
296,574	-46,837	-0,207	-0,069
297,589	-49,189	-0,165	-0,054
298,603	285,057	-0,090	-0,112
299,618	-196,141	-0,196	0,001
300,633	-84,266	-0,115	-0,025
301,647	-94,075	-0,222	0,042
302,662	345,610	-0,102	-0,139
303,676	186,646	-0,104	-0,107
304,691	185,980	-0,117	-0,120
305,706	650,948	-0,161	-0,284
306,720	-3,717	-0,161	-0,076
307,735	380,561	-0,143	-0,202
308,749	543,580	-0,037	-0,060
309,764	173,810	-0,178	-0,177
310,779	36,144	-0,151	-0,091
311,793	-35,973	-0,130	-0,048
312,808	297,179	-0,106	-0,134
313,822	-84,701	-0,066	0,014
314,837	800,000	-0,066	-0,182
315,852	-147,869	-0,202	0,011
316,866	27,382	-0,145	-0,083
317,881	-200,000	-0,021	-0,233
318,895	-64,084	-0,296	-0,082
319,910	800,000	-0,047	-0,112
320,925	-100,245	-0,134	-0,023
321,939	-28,318	-0,152	-0,060
322,954	197,939	-0,145	-0,152
323,968	-147,287	-0,071	-0,004
324,983	-28,386	-0,211	-0,083
325,997	-65,002	-0,154	-0,042
327,012	800,000	-0,078	-0,214
328,027	-34,148	-0,172	-0,065
329,041	122,757	-0,106	-0,091
330,056	398,553	-0,043	-0,062
331,070	98,647	-0,106	-0,083
332,085	-55,126	-0,138	-0,042
333,100	499,546	-0,077	-0,122
334,114	398,943	-0,145	-0,208
335,129	-60,961	-0,151	-0,043
336,143	560,738	-0,072	-0,120
337,158	-50,386	-0,243	-0,078
338,173	-200,000	-0,003	-0,089
339,187	159,868	-0,131	0,125
340,202	96,918	-0,164	-0,128
341,216	800,000	-0,059	-0,124
342,231	23,881	-0,057	0,032
343,246	800,000	-0,113	-0,223
344,260	-12,792	-0,179	-0,079
345,275	-200,000	0,014	-0,046
346,289	615,527	-0,070	-0,120
347,304	800,000	-0,059	-0,114
348,319	124,266	-0,134	-0,115
349,333	-200,000	-0,258	0,000
350,348	800,000	0,025	-0,057
351,362	-43,596	-0,114	-0,039
352,377	-123,285	-0,173	-0,019
353,392	-200,000	0,002	-0,080
354,406	274,787	-0,105	-0,127
355,421	207,745	1309,801	1400,503
356,435	159,823	1469,899	1400,975
