DTS Sentinel unit serial number:	SN410029Multiplexer serial number:	ORYXHardware model number:	OX2-SRSoftware version number:	ORYX F/W v4,00 Oryx Data Collector v3.7.2.0data status	okinstallation	B3 Nyhavnadifferential loss correction	single-endedforward channel	channel 1reverse channel	N/Adate	2023/12/01time	17:42:30forward acquisition time	300,00reverse acquisition time	0,00gamma	499,1914k internal	0,3204k external	0,3204temperature offset calibration	1,0000default loss term (dB/km)	0,3820temperature slope calibration	1,0000multiplexer offset coefficient	1,0000multiplexer slope coefficient	1,0000fibre end	0,00T internal ref (°C)	14,32T ext. ref 1 (°C)	0,37T ext. ref 2 (°C)	0,35length (m)	temperature (°C)	Stokes	anti-Stokes-744,400	777,624	-0,190	-0,380
-743,385	-200,000	-0,047	0,423
-742,371	-200,000	-0,053	-0,341
-741,356	-200,000	-0,001	0,305
-740,342	148,015	-0,155	-0,152
-739,327	-200,000	0,058	0,260
-738,312	-200,000	-0,021	-0,227
-737,298	-200,000	0,049	0,378
-736,283	302,517	-0,179	-0,241
-735,269	-200,000	0,048	0,414
-734,254	41,254	-0,202	-0,133
-733,239	59,800	-0,106	0,076
-732,225	185,953	-0,161	-0,174
-731,210	5,912	0,333	0,179
-730,196	38,980	0,057	-0,037
-729,181	64,949	-0,119	-0,087
-728,167	800,000	-0,013	-0,040
-727,152	208,200	-0,057	0,065
-726,137	-102,763	-0,074	0,013
-725,123	-200,000	0,030	-0,116
-724,108	-131,726	0,056	-0,005
-723,094	-6,865	-0,175	-0,086
-722,079	505,721	-0,016	0,027
-721,064	223,626	-0,052	0,061
-720,050	519,925	-0,036	-0,062
-719,035	-50,650	-0,040	0,014
-718,021	-142,383	-0,081	0,006
-717,006	-161,534	-0,038	-0,001
-715,991	397,536	-0,029	0,044
-714,977	190,259	0,024	0,026
-713,962	77,394	0,051	0,039
-712,948	-200,000	0,013	0,084
-711,933	-45,001	0,099	-0,036
-710,918	-42,441	-0,057	0,021
-709,904	-200,000	0,013	-0,070
-708,889	-56,644	-0,159	0,051
-707,875	-200,000	-0,045	-0,184
-706,860	800,000	-0,054	-0,165
-705,845	-200,000	0,028	-0,106
-704,831	-102,812	-0,004	0,001
-703,816	8,362	0,045	0,025
-702,802	87,701	-0,043	0,034
-701,787	-81,068	-0,062	-0,015
-700,772	170,065	0,090	-0,093
-699,758	560,184	0,059	-0,104
-698,743	-111,896	0,188	-0,027
-697,729	-200,000	-0,015	0,141
-696,714	800,000	-0,014	0,042
-695,699	93,895	-0,102	0,084
-694,685	-84,805	-0,139	0,031
-693,670	-200,000	-0,013	-0,113
-692,656	138,278	-0,072	-0,069
-691,641	99,986	-0,092	0,077
-690,627	-200,000	0,026	0,111
-689,612	-200,000	-0,190	0,000
-688,597	800,000	0,056	0,131
-687,583	147,995	-0,064	-0,063
-686,568	-200,000	-0,010	-0,120
-685,554	-82,755	-0,218	0,051
-684,539	-150,372	0,077	0,004
-683,524	-200,000	0,015	-0,074
-682,510	800,000	0,023	-0,068
-681,495	613,677	-0,006	-0,012
-680,481	-62,703	-0,176	-0,052
-679,466	800,000	-0,091	-0,187
-678,451	-163,871	0,098	0,003
-677,437	-200,000	0,003	-0,093
-676,422	69,740	-0,013	0,010
-675,408	-200,000	-0,006	-0,039
-674,393	-200,000	-0,019	-0,086
-673,378	-137,918	0,068	-0,005
-672,364	-200,000	0,035	-0,185
-671,349	672,381	0,041	-0,077
-670,335	-82,762	0,054	0,013
-669,320	-79,078	0,165	0,040
-668,305	356,908	0,017	-0,024
-667,291	212,724	0,045	-0,052
-666,276	-17,209	0,052	-0,024
-665,262	-24,629	-0,042	0,018
-664,247	691,597	0,038	-0,072
-663,232	-128,204	-0,041	-0,004
-662,218	-200,000	-0,035	0,142
-661,203	142,710	0,032	0,031
-660,189	-97,540	-0,021	0,004
-659,174	33,692	-0,055	0,034
-658,159	-200,000	-0,008	-0,173
-657,145	-200,000	-0,018	-0,123
-656,130	111,590	0,060	0,053
-655,116	-200,000	0,000	0,004
-654,101	-122,652	-0,065	-0,008
-653,086	-200,000	0,007	0,035
-652,072	29,382	0,081	0,050
-651,057	-200,000	0,002	0,140
-650,043	41,742	-0,067	0,044
-649,028	800,000	0,022	-0,050
-648,014	-200,000	0,004	0,059
-646,999	22,636	0,130	0,077
-645,984	-200,000	0,006	0,071
-644,970	782,258	-0,033	-0,066
-643,955	-81,881	-0,140	-0,033
-642,941	-200,000	-0,003	0,130
-641,926	-9,497	-0,085	-0,041
-640,911	-200,000	0,010	0,106
-639,897	353,804	0,024	-0,034
-638,882	720,299	-0,046	-0,089
-637,868	765,643	0,025	0,049
-636,853	169,978	-0,022	0,023
-635,838	70,616	-0,139	-0,104
-634,824	-130,289	-0,101	-0,010
-633,809	-200,000	0,003	-0,132
-632,795	150,692	-0,051	0,050
-631,780	-111,771	0,072	0,010
-630,765	113,204	-0,103	0,090
-629,751	-200,000	-0,046	-0,167
-628,736	540,526	0,088	-0,152
-627,722	-119,479	0,074	-0,009
-626,707	800,000	-0,029	0,067
-625,692	800,000	-0,018	-0,055
-624,678	-1,875	0,076	0,038
-623,663	800,000	-0,054	0,111
-622,649	-122,904	-0,259	0,030
-621,634	-168,092	0,160	-0,004
-620,619	326,942	-0,035	-0,049
-619,605	176,950	-0,081	0,086
-618,590	42,117	0,074	0,048
-617,576	428,671	0,022	-0,034
-616,561	-94,072	-0,083	-0,016
-615,546	3,675	-0,082	-0,043
-614,532	181,357	0,008	0,009
-613,517	-71,503	0,145	-0,039
-612,503	-200,000	-0,012	-0,137
-611,488	365,148	0,072	0,105
-610,474	27,620	-0,056	-0,034
-609,459	800,000	-0,032	0,068
-608,444	800,000	-0,006	-0,015
-607,430	-66,765	-0,104	-0,029
-606,415	800,000	0,017	0,052
-605,401	-72,505	0,135	-0,036
-604,386	15,827	0,134	0,076
-603,371	-58,024	-0,059	0,018
-602,357	800,000	0,040	-0,093
-601,342	-200,000	-0,017	-0,064
-600,328	230,440	-0,051	-0,061
-599,313	272,863	-0,030	-0,039
-598,298	800,000	-0,014	0,036
-597,284	-200,000	0,006	0,064
-596,269	-200,000	-0,021	0,179
-595,255	164,257	0,094	0,095
-594,240	-54,452	-0,084	0,027
-593,225	-200,000	0,010	-0,071
-592,211	-3,972	0,105	-0,052
-591,196	-200,000	0,001	0,083
-590,182	800,000	0,022	0,054
-589,167	-200,000	0,012	0,136
-588,152	714,868	0,094	0,182
-587,138	-53,880	-0,070	-0,023
-586,123	404,004	-0,100	-0,153
-585,109	651,094	0,082	-0,152
-584,094	-61,170	0,046	-0,014
-583,079	-200,000	0,018	-0,080
-582,065	138,492	-0,014	0,013
-581,050	279,802	-0,012	-0,015
-580,036	-200,000	0,028	-0,253
-579,021	232,614	0,079	-0,094
-578,006	292,057	-0,015	-0,019
-576,992	142,839	-0,054	0,052
-575,977	135,921	0,139	-0,131
-574,963	325,862	0,056	0,078
-573,948	-34,478	0,068	-0,027
-572,934	-26,193	0,034	0,014
-571,919	-146,243	-0,142	-0,009
-570,904	572,836	0,016	0,029
-569,890	-200,000	-0,026	-0,153
-568,875	-200,000	-0,009	-0,127
-567,861	800,000	0,032	-0,070
-566,846	-200,000	0,001	-0,078
-565,831	32,209	0,085	0,053
-564,817	-200,000	-0,029	-0,110
-563,802	800,000	0,036	-0,082
-562,788	193,442	-0,080	-0,087
-561,773	-138,498	-0,037	0,003
-560,758	99,578	0,053	0,044
-559,744	278,205	0,074	0,095
-558,729	800,000	-0,022	-0,060
-557,715	-67,720	-0,033	-0,009
-556,700	3,334	0,006	0,003
-555,685	-142,614	0,114	0,008
-554,671	-200,000	-0,004	-0,023
-553,656	800,000	0,027	0,069
-552,642	654,990	0,057	0,105
-551,627	619,925	-0,039	0,072
-550,612	-17,716	0,006	0,003
-549,598	39,242	0,048	-0,031
-548,583	63,807	-0,109	0,079
-547,569	800,000	-0,012	-0,037
-546,554	-85,003	0,137	-0,031
-545,539	-200,000	0,003	-0,123
-544,525	-50,628	-0,067	-0,023
-543,510	800,000	-0,056	0,113
-542,496	-200,000	0,006	-0,072
-541,481	800,000	0,056	-0,143
-540,466	-200,000	0,009	-0,078
-539,452	-200,000	0,009	0,067
-538,437	-165,329	0,101	0,003
-537,423	-200,000	-0,003	0,035
-536,408	800,000	0,055	-0,159
-535,393	209,111	-0,100	-0,113
-534,379	271,725	0,076	-0,097
-533,364	-79,910	0,114	-0,027
-532,350	-39,914	0,055	0,021
-531,335	-200,000	0,012	0,066
-530,321	465,446	0,032	-0,052
-529,306	461,595	0,023	0,037
-528,291	800,000	-0,042	-0,127
-527,277	-200,000	0,000	-0,010
-526,262	429,738	-0,050	-0,078
-525,248	-42,731	-0,090	-0,033
-524,233	126,873	0,054	-0,049
-523,218	343,367	0,064	-0,090
-522,204	-123,981	0,094	0,010
-521,189	-200,000	-0,021	-0,089
-520,175	145,800	0,003	-0,003
-519,160	211,221	-0,073	-0,083
-518,145	458,423	0,039	0,063
-517,131	-72,755	-0,112	0,030
-516,116	624,849	-0,055	0,100
-515,102	370,955	0,095	0,139
-514,087	-32,603	-0,031	-0,013
-513,072	135,989	-0,026	-0,024
-512,058	71,248	-0,006	0,004
-511,043	186,331	-0,067	0,072
-510,029	-87,300	0,130	0,028
-509,014	-200,000	-0,028	0,101
-507,999	-200,000	-0,010	0,057
-506,985	-168,461	-0,096	-0,003
-505,970	108,510	-0,106	-0,091
-504,956	-200,000	0,012	-0,044
-503,941	476,819	-0,035	-0,058
-502,926	-101,266	0,029	-0,005
-501,912	800,000	-0,027	0,057
-500,897	800,000	0,045	0,098
-499,883	66,980	0,098	-0,072
-498,868	-200,000	-0,021	-0,148
-497,853	-200,000	-0,038	-0,130
-496,839	114,611	0,096	0,084
-495,824	-200,000	0,006	0,038
-494,810	-79,996	-0,058	-0,014
-493,795	800,000	-0,075	0,203
-492,781	-13,537	0,108	0,050
-491,766	164,575	-0,094	-0,096
-490,751	-200,000	-0,022	-0,110
-489,737	249,602	0,057	-0,069
-488,722	50,552	0,012	-0,008
-487,708	99,727	0,063	0,052
-486,693	-115,260	0,089	-0,012
-485,678	-17,328	-0,039	0,017
-484,664	-200,000	-0,025	-0,124
-483,649	-200,000	-0,010	-0,170
-482,635	800,000	0,032	-0,087
-481,620	-139,774	-0,120	-0,009
-480,605	-123,486	0,085	0,010
-479,591	-11,493	0,090	-0,043
-478,576	-99,767	-0,144	0,026
-477,562	-200,000	0,020	-0,120
-476,547	122,745	-0,115	0,103
-475,532	-55,224	-0,137	-0,044
-474,518	-200,000	0,000	0,025
-473,503	182,343	0,092	-0,098
-472,489	800,000	0,020	-0,059
-471,474	-111,044	-0,047	-0,007
-470,459	-82,027	-0,099	0,023
-469,445	256,918	-0,035	0,044
-468,430	-200,000	0,031	0,107
-467,416	353,336	-0,041	0,059
-466,401	-166,221	0,113	0,003
-465,386	-200,000	0,003	-0,071
-464,372	-9,835	0,057	-0,027
-463,357	419,842	-0,036	-0,055
-462,343	-200,000	-0,005	-0,290
-461,328	-200,000	0,019	-0,107
-460,313	93,708	-0,051	-0,041
-459,299	-200,000	0,006	0,071
-458,284	800,000	-0,044	0,112
-457,270	372,872	0,053	0,077
-456,255	270,439	0,099	-0,126
-455,241	-32,055	0,098	-0,039
-454,226	126,600	0,051	0,046
-453,211	565,757	0,029	-0,051
-452,197	57,731	0,066	-0,046
-451,182	-200,000	0,001	-0,007
-450,168	415,988	-0,037	-0,057
-449,153	723,233	-0,053	-0,102
-448,138	29,806	-0,065	0,040
-447,124	282,689	0,047	0,061
-446,109	87,653	0,097	-0,077
-445,095	177,431	0,059	-0,062
-444,080	-200,000	0,026	0,091
-443,065	-80,137	0,123	0,029
-442,051	51,752	-0,107	0,073
-441,036	800,000	-0,023	-0,068
-440,022	800,000	0,015	-0,037
-439,007	287,035	0,106	-0,138
-437,992	-200,000	-0,008	0,161
-436,978	586,607	0,035	0,062
-435,963	111,202	0,117	0,101
-434,949	-200,000	0,035	0,161
-433,934	-109,018	0,153	-0,023
-432,919	64,637	0,039	0,028
-431,905	-200,000	0,020	-0,075
-430,890	-65,768	-0,040	-0,012
-429,876	-8,240	0,133	-0,064
-428,861	-200,000	0,021	-0,090
-427,846	800,000	-0,034	-0,101
-426,832	193,426	-0,099	-0,107
-425,817	609,581	0,044	-0,078
-424,803	-200,000	-0,011	-0,113
-423,788	130,695	-0,049	-0,045
-422,773	7,237	-0,013	0,007
-421,759	-69,077	0,046	-0,013
-420,744	-62,271	-0,062	-0,018
-419,730	61,464	-0,018	0,013
-418,715	0,086	-0,142	-0,072
-417,701	-200,000	0,025	-0,093
-416,686	380,119	0,042	0,061
-415,671	800,000	-0,034	-0,083
-414,657	26,037	0,131	-0,078
-413,642	-145,022	0,022	-0,001
-412,628	-53,702	-0,162	-0,053
-411,613	-128,028	-0,112	-0,011
-410,598	-200,000	-0,016	-0,143
-409,584	332,290	0,021	0,029
-408,569	-200,000	0,018	0,070
-407,555	57,974	-0,016	-0,011
-406,540	-79,895	-0,193	0,046
-405,525	-116,966	0,129	0,017
-404,511	-125,721	-0,130	-0,014
-403,496	-200,000	0,033	-0,113
-402,482	266,265	-0,025	-0,031
-401,467	-84,432	0,083	0,019
-400,452	33,153	-0,042	-0,026
-399,438	-43,983	-0,190	0,068
-398,423	-190,723	-0,085	-0,001
-397,409	-200,000	0,015	-0,099
-396,394	217,074	-0,054	-0,062
-395,379	21,947	0,202	0,117
-394,365	239,774	0,083	0,100
-393,350	25,485	0,076	0,045
-392,336	800,000	-0,049	0,123
-391,321	-95,247	0,046	0,009
-390,306	-69,629	0,103	-0,028
-389,292	400,957	-0,070	-0,106
-388,277	-110,988	0,071	-0,010
-387,263	470,841	-0,017	-0,027
-386,248	-140,395	0,155	-0,011
-385,233	39,041	-0,107	-0,068
-384,219	-72,565	-0,058	-0,015
-383,204	-200,000	-0,011	-0,186
-382,190	800,000	0,005	0,014
-381,175	-200,000	-0,000	0,014
-380,160	691,070	0,030	0,057
-379,146	800,000	0,039	0,123
-378,131	-101,478	0,051	-0,009
-377,117	577,740	-0,034	-0,060
-376,102	-28,282	0,090	0,037
-375,088	15,944	-0,087	-0,049
-374,073	800,000	0,044	-0,117
-373,058	-13,924	0,073	0,034
-372,044	46,599	0,085	0,056
-371,029	800,000	-0,044	0,098
-370,015	268,063	0,066	-0,082
-369,000	-200,000	-0,038	-0,123
-367,985	-200,000	-0,227	-0,000
-366,971	516,596	0,065	-0,109
-365,956	-200,000	-0,002	0,068
-364,942	21,355	0,144	0,084
-363,927	-72,710	-0,176	-0,046
-362,912	51,237	0,064	0,043
-361,898	83,312	-0,163	-0,127
-360,883	155,562	0,035	-0,034
-359,869	-75,259	-0,138	0,035
-358,854	13,136	0,089	-0,049
-357,839	561,605	-0,068	0,117
-356,825	662,454	0,066	0,122
-355,810	800,000	-0,023	0,071
-354,796	-200,000	-0,016	0,137
-353,781	-200,000	-0,024	0,103
-352,766	-28,447	0,040	-0,016
-351,752	425,596	0,008	-0,013
-350,737	449,774	-0,059	0,094
-349,723	594,924	-0,084	0,149
-348,708	163,201	0,083	0,084
-347,693	-146,650	0,060	-0,004
-346,679	-200,000	0,007	0,045
-345,664	-200,000	0,019	-0,129
-344,650	-115,384	-0,070	0,009
-343,635	67,864	0,184	0,135
-342,620	34,214	0,024	0,015
-341,606	2,626	-0,068	0,035
-340,591	800,000	0,017	-0,035
-339,577	-67,828	-0,118	-0,033
-338,562	6,465	-0,084	0,045
-337,548	800,000	0,007	0,020
-336,533	800,000	0,015	-0,038
-335,518	-2,170	0,077	0,039
-334,504	-63,837	0,098	0,029
-333,489	800,000	0,043	0,091
-332,475	-112,755	-0,147	-0,021
-331,460	442,633	-0,079	-0,124
-330,445	78,109	0,157	-0,120
-329,431	800,000	0,044	0,091
-328,416	-200,000	0,028	0,129
-327,402	-200,000	-0,005	0,126
-326,387	-28,336	0,038	-0,016
-325,372	34,763	-0,064	0,040
-324,358	-30,793	-0,074	0,030
-323,343	-91,551	0,012	0,002
-322,329	-200,000	-0,001	0,079
-321,314	-6,818	0,025	-0,012
-320,299	149,263	0,129	0,124
-319,285	455,766	-0,024	-0,039
-318,270	800,000	-0,036	0,074
-317,256	-200,000	0,010	0,064
-316,241	358,303	0,102	0,147
-315,226	-20,971	0,043	-0,019
-314,212	303,691	-0,015	-0,020
-313,197	-118,384	0,061	0,008
-312,183	63,086	0,091	-0,065
-311,168	-116,021	-0,126	0,017
-310,153	-200,000	0,003	-0,170
-309,139	800,000	-0,059	0,145
-308,124	-126,748	-0,120	-0,013
-307,110	-121,052	0,124	0,015
-306,095	-200,000	-0,007	0,026
-305,080	-95,887	0,086	0,016
-304,066	134,124	-0,126	-0,117
-303,051	-200,000	0,033	-0,119
-302,037	-200,000	-0,014	-0,156
-301,022	-94,369	0,031	-0,006
-300,008	630,223	0,036	-0,065
-298,993	52,130	-0,064	-0,044
-297,978	-200,000	0,025	-0,129
-296,964	179,781	-0,109	-0,114
-295,949	262,072	-0,012	-0,015
-294,935	800,000	-0,029	-0,062
-293,920	800,000	-0,042	-0,086
-292,905	-93,337	0,121	-0,024
-291,891	-120,928	-0,016	-0,002
-290,876	-90,159	0,163	0,033
-289,862	-200,000	-0,024	0,100
-288,847	1,522	-0,052	-0,026
-287,832	347,524	-0,054	-0,077
-286,818	-200,000	-0,001	-0,038
-285,803	-200,000	-0,015	-0,172
-284,789	2,676	0,098	-0,051
-283,774	-200,000	0,003	-0,037
-282,759	-200,000	0,035	-0,124
-281,745	17,019	-0,059	0,033
-280,730	-113,661	-0,090	0,012
-279,716	-200,000	-0,012	0,100
-278,701	176,342	0,030	0,031
-277,686	450,963	0,092	0,146
-276,672	-200,000	0,017	0,071
-275,657	152,506	-0,119	0,116
-274,643	-200,000	-0,011	-0,099
-273,628	-140,010	-0,045	-0,003
-272,613	293,846	-0,062	-0,081
-271,599	-200,000	0,004	0,112
-270,584	800,000	0,059	0,119
-269,570	103,717	0,048	-0,040
-268,555	109,634	-0,050	0,043
-267,540	-200,000	0,001	0,032
-266,526	800,000	-0,007	-0,019
-265,511	418,162	-0,053	0,081
-264,497	800,000	0,023	-0,047
-263,482	58,839	-0,089	0,063
-262,467	90,429	0,133	0,106
-261,453	498,626	-0,051	0,084
-260,438	800,000	-0,114	-0,248
-259,424	800,000	-0,036	0,101
-258,409	-200,000	0,034	0,166
-257,395	98,276	0,153	-0,125
-256,380	-200,000	-0,016	0,075
-255,365	-200,000	-0,016	0,085
-254,351	87,799	-0,057	0,045
-253,336	130,719	-0,075	0,069
-252,322	-51,398	-0,083	0,028
-251,307	-70,819	-0,089	-0,024
-250,292	800,000	0,027	0,058
-249,278	171,696	0,083	0,085
-248,263	800,000	0,040	0,100
-247,249	205,392	0,072	0,080
-246,234	-116,765	0,034	0,004
-245,219	-45,638	-0,176	0,062
-244,205	562,484	-0,019	0,033
-243,190	-27,376	-0,039	-0,016
-242,176	800,000	0,037	0,087
-241,161	800,000	-0,036	-0,092
-240,146	635,857	-0,014	0,025
-239,132	-25,634	-0,104	0,044
-238,117	800,000	0,049	0,131
-237,103	521,210	0,039	0,065
-236,088	800,000	0,054	0,135
-235,073	211,130	0,103	0,116
-234,059	124,502	0,148	0,133
-233,044	42,307	-0,058	-0,037
-232,030	800,000	0,017	0,045
-231,015	-93,517	0,022	0,004
-230,000	-200,000	0,016	-0,083
-228,986	800,000	-0,044	-0,105
-227,971	-84,127	-0,076	0,017
-226,957	165,865	-0,081	0,082
-225,942	-200,000	-0,022	0,070
-224,927	235,857	0,033	0,039
-223,913	800,000	0,020	-0,048
-222,898	-144,378	-0,040	-0,003
-221,884	5,017	-0,119	-0,062
-220,869	-69,609	-0,136	0,037
-219,855	209,652	-0,063	0,071
-218,840	-124,423	0,072	0,008
-217,825	800,000	-0,031	0,062
-216,811	108,848	0,079	0,067
-215,796	584,644	-0,066	-0,116
-214,782	-200,000	-0,024	0,114
-213,767	-200,000	-0,010	0,091
-212,752	46,929	0,043	0,028
-211,738	250,091	0,017	0,020
-210,723	134,647	-0,096	-0,089
-209,709	86,922	-0,065	0,051
-208,694	210,514	-0,058	-0,065
-207,679	15,880	-0,164	-0,092
-206,665	553,865	0,030	-0,051
-205,650	25,017	0,153	0,090
-204,636	-200,000	-0,038	0,140
-203,621	-38,251	-0,110	0,041
-202,606	-200,000	-0,008	0,131
-201,592	-200,000	0,020	0,083
-200,577	-70,334	-0,075	0,020
-199,563	800,000	-0,047	0,099
-198,548	-113,733	0,097	-0,013
-197,533	-200,000	0,028	0,099
-196,519	-200,000	-0,022	-0,078
-195,504	19,999	-0,118	0,067
-194,490	-77,267	-0,185	0,045
-193,475	684,489	0,044	-0,083
-192,460	26,237	-0,031	0,018
-191,446	-200,000	0,044	0,152
-190,431	143,442	-0,063	0,059
-189,417	-200,000	-0,020	0,079
-188,402	-106,001	-0,018	-0,003
-187,387	36,493	0,039	0,025
-186,373	800,000	0,010	-0,028
-185,358	31,006	0,123	0,075
-184,344	-126,361	-0,042	0,004
-183,329	-76,647	0,101	-0,025
-182,315	520,481	0,038	0,064
-181,300	800,000	0,023	0,054
-180,285	388,027	-0,059	-0,088
-179,271	-51,143	-0,080	0,026
-178,256	-69,471	0,143	0,039
-177,242	299,074	-0,104	0,137
-176,227	800,000	0,023	-0,057
-175,212	119,258	-0,051	0,045
-174,198	-200,000	-0,022	0,080
-173,183	603,341	0,032	-0,056
-172,169	110,377	-0,094	-0,081
-171,154	-27,959	-0,112	0,046
-170,139	201,484	0,123	-0,135
-169,125	-28,512	-0,016	0,006
-168,110	800,000	0,063	0,171
-167,096	-200,000	0,015	-0,128
-166,081	-149,043	-0,184	-0,010
-165,066	594,517	-0,040	-0,070
-164,052	-200,000	0,037	-0,132
-163,037	-76,881	0,194	0,048
-162,023	-200,000	0,008	0,075
-161,008	-14,188	0,051	0,023
-159,993	-85,613	-0,024	0,005
-158,979	-200,000	0,022	-0,133
-157,964	800,000	-0,020	0,040
-156,950	-1,153	-0,032	0,016
-155,935	59,086	0,044	0,030
-154,920	127,259	0,118	0,106
-153,906	139,524	0,052	-0,049
-152,891	-200,000	0,020	0,159
-151,877	155,279	0,039	0,039
-150,862	-9,327	-0,111	-0,053
-149,847	-28,262	-0,068	-0,028
-148,833	-200,000	0,002	0,044
-147,818	-200,000	0,033	-0,134
-146,804	189,015	-0,092	0,098
-145,789	-11,017	0,086	0,040
-144,775	800,000	0,044	-0,118
-143,760	-200,000	0,016	-0,074
-142,745	800,000	-0,050	-0,113
-141,731	-35,094	-0,054	-0,021
-140,716	-200,000	0,024	0,121
-139,702	102,326	-0,124	0,103
-138,687	293,584	-0,085	0,110
-137,672	800,000	0,043	-0,100
-136,658	72,611	0,008	-0,006
-135,643	-58,956	0,010	-0,003
-134,629	-105,443	0,064	-0,010
-133,614	-200,000	0,000	-0,054
-132,599	113,487	-0,045	0,039
-131,585	-200,000	0,045	0,144
-130,570	320,106	-0,059	0,080
-129,556	770,547	0,060	-0,117
-128,541	-2,703	-0,067	0,033
-127,526	584,181	-0,045	0,078
-126,512	-9,726	0,134	0,063
-125,497	-200,000	0,014	0,103
-124,483	208,680	0,032	0,036
-123,468	-200,000	0,007	-0,066
-122,453	132,431	0,085	-0,077
-121,439	-142,708	0,040	0,003
-120,424	74,499	-0,057	0,042
-119,410	-128,937	0,039	-0,004
-118,395	44,710	0,097	-0,063
-117,380	245,393	0,096	-0,115
-116,366	-1,166	-0,057	-0,028
-115,351	160,113	0,063	-0,062
-114,337	-31,010	-0,068	-0,027
-113,322	191,130	-0,073	-0,078
-112,307	263,911	0,036	0,045
-111,293	79,643	0,069	0,053
-110,278	800,000	-0,034	-0,101
-109,264	-200,000	-0,027	-0,092
-108,249	388,785	-0,106	-0,157
-107,234	800,000	-0,004	-0,010
-106,220	101,406	-0,108	0,089
-105,205	-8,002	0,062	-0,030
-104,191	0,027	-0,053	0,027
-103,176	191,974	-0,044	0,047
-102,162	800,000	-0,030	0,070
-101,147	-82,906	-0,177	0,040
-100,132	-67,072	-0,040	0,011
-99,118	-151,199	-0,073	0,004
-98,103	64,323	0,085	0,061
-97,089	78,273	0,158	0,119
-96,074	-44,699	0,132	0,046
-95,059	-82,781	0,160	0,036
-94,045	800,000	0,027	-0,053
-93,030	275,107	-0,081	-0,102
-92,016	-63,095	-0,153	-0,045
-91,001	25,882	0,111	0,066
-89,986	-200,000	0,018	0,084
-88,972	-11,607	-0,097	-0,045
-87,957	548,948	0,030	0,052
-86,943	241,181	0,052	-0,062
-85,928	-200,000	0,003	-0,014
-84,913	-64,882	-0,108	-0,031
-83,899	257,900	-0,112	-0,136
-82,884	-95,610	0,041	-0,008
-81,870	223,967	-0,052	-0,060
-80,855	266,139	0,130	0,161
-79,840	-142,921	0,076	-0,005
-78,826	45,386	-0,106	-0,069
-77,811	-200,000	-0,003	-0,037
-76,797	-200,000	-0,033	-0,150
-75,782	-36,900	0,096	0,036
-74,767	358,342	0,081	0,115
-73,753	-55,466	0,081	-0,026
-72,738	642,841	-0,050	0,090
-71,724	87,024	-0,113	-0,088
-70,709	-200,000	0,039	0,167
-69,694	-24,297	-0,058	-0,024
-68,680	161,028	0,004	-0,004
-67,665	-200,000	0,011	0,094
-66,651	-32,999	-0,127	0,050
-65,636	357,799	-0,026	-0,037
-64,622	-200,000	0,004	-0,066
-63,607	49,740	0,123	-0,082
-62,592	356,060	0,034	-0,048
-61,578	-5,045	-0,125	0,060
-60,563	-111,235	0,112	-0,016
-59,549	165,644	-0,082	0,082
-58,534	-30,801	-1,501	-0,598
-57,519	372,587	-1,551	-2,236
-56,505	-200,000	-0,437	-4,432
-55,490	165,910	0,891	0,893
-54,476	800,000	4,996	11,375
-53,461	-200,000	18,552	295,630
-52,446	800,000	729,775	2245,669
-51,432	556,445	1643,821	2812,154
-50,417	78,488	1663,681	1256,123
-49,403	22,217	1537,405	885,679
-48,388	16,167	1460,647	812,208
-47,373	17,742	1450,406	814,052
-46,359	16,976	1440,767	804,957
-45,344	14,457	1435,944	790,229
-44,330	14,390	1434,073	788,849
-43,315	14,387	1432,539	787,959
-42,300	14,393	1430,852	787,030
-41,286	14,443	1429,457	786,466
-40,271	14,386	1428,337	785,551
-39,257	14,359	1427,174	784,753
-38,242	14,425	1425,873	784,318
-37,227	14,412	1424,780	783,622
-36,213	14,419	1423,506	782,925
-35,198	14,441	1422,144	782,249
-34,184	14,453	1421,230	781,770
-33,169	14,377	1419,935	780,672
-32,154	14,444	1418,877	780,375
-31,140	14,429	1417,509	779,521
-30,125	14,455	1416,482	779,047
-29,111	14,424	1415,530	778,345
-28,096	14,419	1414,400	777,668
-27,082	14,327	1413,584	776,758
-26,067	14,385	1412,204	776,244
-25,052	14,375	1411,095	775,552
-24,038	14,300	1410,419	774,802
-23,023	14,340	1409,021	774,188
-22,009	14,308	1408,148	773,527
-20,994	14,297	1407,321	772,995
-19,979	14,290	1406,412	772,430
-18,965	14,253	1405,335	771,636
-17,950	14,273	1404,318	771,140
-16,936	14,262	1403,609	770,670
-15,921	14,252	1402,467	769,967
-14,906	14,235	1401,476	769,310
-13,892	14,270	1400,563	768,941
-12,877	14,272	1399,737	768,465
-11,863	14,283	1398,789	767,967
-10,848	14,231	1397,940	767,230
-9,833	14,230	1396,933	766,642
-8,819	14,156	1396,252	765,896
-7,804	14,158	1395,073	765,229
-6,790	14,191	1394,088	764,807
-5,775	14,122	1393,163	763,954
-4,760	14,166	1392,129	763,559
-3,746	14,161	1391,377	763,091
-2,731	14,104	1390,922	762,550
-1,717	14,147	1389,714	762,055
-0,702	14,173	1387,867	761,130
0,313	17,993	1306,682	734,239
1,327	34,220	704,545	433,361
2,342	52,310	123,934	83,425
3,356	4,342	16,544	8,542
4,371	4,926	3,197	1,657
5,386	30,223	0,412	0,248
6,400	-200,000	-0,017	0,113
7,415	17,922	-0,244	-0,137
8,429	-33,491	-0,320	-0,124
9,444	-85,093	-0,401	-0,088
10,459	245,959	-0,135	-0,161
11,473	145,933	-0,138	-0,131
12,488	-134,699	-0,274	-0,023
13,502	-27,131	-0,368	-0,151
14,517	29,585	-0,222	-0,133
15,531	168,964	-0,291	-0,294
16,546	56,918	-0,363	-0,250
17,561	7,112	-0,421	-0,221
18,575	35,819	-0,152	-0,094
19,590	8,537	-0,384	-0,203
20,604	9,613	-0,199	-0,106
21,619	89,299	-0,429	-0,337
22,634	67,406	-0,503	-0,362
23,648	108,565	-0,459	-0,387
24,663	-5,033	-0,445	-0,216
25,677	-10,896	-0,444	-0,206
26,692	203,974	-0,283	-0,310
27,707	192,734	-0,337	-0,359
28,721	59,631	-0,345	-0,240
29,736	75,146	-0,471	-0,350
30,750	16,955	-0,406	-0,226
31,765	111,863	-0,366	-0,312
32,780	42,749	-0,380	-0,244
33,794	89,697	-0,295	-0,232
34,809	122,458	-0,295	-0,260
35,823	140,227	-0,383	-0,356
36,838	269,344	-0,286	-0,354
37,853	107,501	-0,339	-0,284
38,867	123,592	-0,379	-0,335
39,882	-1,562	-0,313	-0,155
40,896	45,408	-0,347	-0,225
41,911	451,237	-0,214	-0,334
42,926	-18,567	-0,482	-0,211
43,940	58,658	-0,469	-0,324
44,955	106,738	-0,296	-0,247
45,969	163,896	-0,383	-0,380
46,984	2,411	-0,427	-0,217
47,999	16,552	-0,289	-0,160
49,013	-10,130	-0,396	-0,185
50,028	121,181	-0,297	-0,261
51,042	126,258	-0,362	-0,323
52,057	154,921	-0,383	-0,371
53,071	201,745	-0,372	-0,404
54,086	220,031	-0,331	-0,374
55,101	243,815	-0,307	-0,364
56,115	-49,065	-0,398	-0,133
57,130	48,758	-0,330	-0,217
58,144	61,489	-0,313	-0,218
59,159	112,288	-0,330	-0,280
60,174	134,491	-0,373	-0,340
61,188	80,653	-0,177	-0,134
62,203	240,320	-0,297	-0,349
63,217	-36,071	-0,358	-0,135
64,232	23,410	-0,313	-0,180
65,247	157,258	-0,366	-0,356
66,261	204,340	-0,391	-0,426
67,276	28,743	-0,415	-0,246
68,290	174,295	-0,374	-0,380
69,305	-33,445	-0,190	-0,074
70,320	7,518	-0,349	-0,183
71,334	19,474	-0,259	-0,146
72,349	-102,550	-0,362	-0,060
73,363	69,606	-0,361	-0,261
74,378	145,743	-0,341	-0,321
75,393	181,689	-0,341	-0,352
76,407	109,907	-0,254	-0,214
77,422	198,839	-0,299	-0,322
78,436	175,849	-0,191	-0,195
79,451	-83,991	-0,342	-0,076
80,466	-47,264	-0,233	-0,079
81,480	301,919	-0,227	-0,295
82,495	80,712	-0,310	-0,235
83,509	28,651	-0,194	-0,115
84,524	-61,187	-0,339	-0,100
85,539	-66,510	-0,224	-0,062
86,553	62,571	-0,203	-0,142
87,568	66,538	-0,256	-0,182
88,582	39,838	-0,330	-0,208
89,597	-3,935	-0,332	-0,161
90,611	96,103	-0,202	-0,162
91,626	53,447	-0,302	-0,203
92,641	268,625	-0,201	-0,248
93,655	-105,356	-0,301	-0,047
94,670	-27,606	-0,460	-0,186
95,684	22,982	-0,294	-0,169
96,699	61,610	-0,289	-0,201
97,714	38,346	-0,244	-0,152
98,728	78,563	-0,250	-0,187
99,743	40,306	-0,288	-0,181
100,757	13,594	-0,262	-0,142
101,772	-17,754	-0,366	-0,160
102,787	270,212	-0,229	-0,283
103,801	278,205	-0,245	-0,307
104,816	73,020	-0,339	-0,248
105,830	159,075	-0,184	-0,179
106,845	-40,488	-0,316	-0,114
107,860	89,874	-0,305	-0,239
108,874	167,146	-0,210	-0,209
109,889	-5,149	-0,328	-0,157
110,903	164,709	-0,187	-0,185
111,918	-22,128	-0,288	-0,122
112,933	242,206	-0,118	-0,139
113,947	-186,237	-0,252	0,002
114,962	-65,116	-0,244	-0,068
115,976	61,953	-0,275	-0,191
116,991	121,366	-0,252	-0,220
118,006	7,194	-0,345	-0,180
119,020	-24,432	-0,157	-0,065
120,035	-134,623	-0,213	0,018
121,049	122,781	-0,227	-0,198
122,064	146,022	-0,172	-0,161
123,079	-9,255	-0,226	-0,105
124,093	201,814	-0,200	-0,216
125,108	56,020	-0,265	-0,180
126,122	112,633	-0,223	-0,189
127,137	-50,890	-0,234	-0,076
128,151	800,000	-0,090	-0,242
129,166	-78,105	-0,458	-0,109
130,181	35,790	-0,325	-0,199
131,195	76,305	-0,272	-0,201
132,210	64,846	-0,276	-0,194
133,224	15,522	-0,273	-0,149
134,239	-62,097	-0,254	-0,074
135,254	-37,065	-0,293	-0,109
136,268	663,156	-0,117	-0,211
137,283	220,103	-0,112	-0,125
138,297	732,459	-0,135	-0,254
139,312	69,824	-0,270	-0,194
140,327	-22,333	-0,282	-0,119
141,341	33,122	-0,304	-0,184
142,356	114,855	-0,246	-0,210
143,370	166,226	-0,246	-0,243
144,385	-55,835	-0,256	-0,079
145,400	-112,191	-0,283	-0,039
146,414	-16,526	-0,328	-0,144
147,429	-70,054	-0,285	-0,075
148,443	37,348	-0,256	-0,158
149,458	800,000	-0,095	-0,191
150,473	409,648	-0,205	-0,304
151,487	38,170	-0,190	-0,118
152,502	250,386	-0,166	-0,197
153,516	9,034	-0,306	-0,160
154,531	-16,514	-0,334	-0,147
155,546	231,610	-0,139	-0,159
156,560	191,111	-0,157	-0,165
157,575	-0,611	-0,304	-0,150
158,589	55,257	-0,254	-0,171
159,604	-126,136	-0,183	-0,019
160,619	61,113	-0,293	-0,203
161,633	53,249	-0,240	-0,160
162,648	72,937	-0,268	-0,195
163,662	38,500	-0,201	-0,125
164,677	260,303	-0,188	-0,227
165,692	115,461	-0,172	-0,147
166,706	103,107	-0,236	-0,193
167,721	178,052	-0,268	-0,272
168,735	72,537	-0,204	-0,148
169,750	800,000	-0,113	-0,262
170,764	163,392	-0,231	-0,227
171,779	-11,896	-0,225	-0,102
172,794	95,676	-0,191	-0,151
173,808	-26,629	-0,351	-0,143
174,823	144,053	-0,234	-0,218
175,837	2,682	-0,256	-0,129
176,852	-4,445	-0,202	-0,097
177,867	-36,726	-0,246	-0,091
178,881	146,255	-0,151	-0,141
179,896	498,172	-0,152	-0,244
180,910	237,622	-0,209	-0,242
181,925	-17,282	-0,375	-0,164
182,940	156,417	-0,270	-0,259
183,954	-46,617	-0,121	-0,041
184,969	30,580	-0,117	-0,069
185,983	800,000	-0,100	-0,203
186,998	159,320	-0,217	-0,210
188,013	246,445	-0,187	-0,220
189,027	75,448	-0,214	-0,157
190,042	84,785	-0,219	-0,166
191,056	2,127	-0,267	-0,133
192,071	800,000	-0,102	-0,205
193,086	800,000	-0,071	-0,184
194,100	118,530	-0,115	-0,098
195,115	106,820	-0,217	-0,179
196,129	68,479	-0,242	-0,172
197,144	235,391	-0,134	-0,155
198,159	-145,112	-0,104	-0,006
199,173	221,657	-0,114	-0,128
200,188	84,811	-0,173	-0,131
201,202	-138,986	-0,186	0,014
202,217	-123,732	-0,117	-0,013
203,232	-40,706	-0,272	-0,097
204,246	355,890	-0,140	-0,194
205,261	800,000	-0,073	-0,188
206,275	36,853	-0,211	-0,129
207,290	206,593	-0,140	-0,151
208,304	-53,250	-0,185	-0,059
209,319	150,131	-0,136	-0,128
210,334	164,331	-0,199	-0,194
211,348	290,855	-0,245	-0,310
212,363	8,011	-0,285	-0,148
213,377	731,344	-0,115	-0,215
214,392	-29,053	-0,093	0,037
215,407	-100,669	-0,268	0,045
216,421	154,869	-0,135	-0,129
217,436	8,125	-0,114	-0,059
218,450	117,433	-0,229	-0,195
219,465	340,692	-0,183	-0,249
220,480	-200,000	-0,120	-0,396
221,494	798,437	-0,132	-0,254
222,509	90,813	-0,139	-0,108
223,523	-44,600	-0,134	-0,046
224,538	70,916	-0,107	-0,077
225,553	-17,670	-0,417	-0,181
226,567	153,039	-0,205	-0,194
227,582	800,000	-0,109	-0,216
228,596	331,748	-0,237	-0,317
229,611	-200,000	-0,020	-0,110
230,626	91,375	-0,175	-0,136
231,640	-104,982	-0,139	0,022
232,655	-56,085	-0,139	-0,043
233,669	101,087	-0,179	-0,144
234,684	145,227	-0,253	-0,234
235,699	-176,921	-0,133	0,002
236,713	12,178	-0,072	-0,038
237,728	136,985	-0,169	-0,153
238,742	-69,372	-0,221	-0,058
239,757	322,441	-0,099	-0,130
240,772	-34,480	-0,231	-0,087
241,786	280,585	-0,138	-0,171
242,801	-120,905	-0,117	0,013
243,815	-200,000	-0,047	-0,151
244,830	170,363	-0,114	-0,113
245,844	-82,329	-0,204	-0,045
246,859	17,437	-0,186	-0,102
247,874	61,315	-0,118	-0,081
248,888	379,342	-0,076	-0,108
249,903	285,463	-0,104	-0,130
250,917	52,933	-0,193	-0,127
251,932	14,912	-0,166	-0,089
252,947	187,155	-0,070	-0,073
253,961	-37,365	-0,268	-0,098
254,976	239,892	-0,098	-0,113
255,990	77,894	-0,208	-0,153
257,005	-7,665	-0,244	-0,114
258,020	-200,000	-0,198	0,000
259,034	-107,268	-0,169	0,025
260,049	119,478	-0,200	-0,171
261,063	-62,611	-0,307	-0,087
262,078	61,894	-0,252	-0,173
263,093	134,949	-0,160	-0,143
264,107	78,854	-0,090	-0,066
265,122	102,488	-0,026	-0,021
266,136	52,179	-0,127	-0,083
267,151	74,325	-0,084	-0,061
268,166	-19,541	-0,207	-0,088
269,180	131,296	-0,146	-0,129
270,195	-131,726	-0,140	0,013
271,209	140,656	-0,339	-0,309
272,224	153,807	-0,149	-0,141
273,239	19,051	-0,225	-0,124
274,253	-48,741	-0,185	-0,061
275,268	-55,590	-0,264	-0,081
276,282	442,424	-0,210	-0,318
277,297	15,665	-0,224	-0,121
278,312	-20,696	-0,375	-0,158
279,326	350,614	-0,075	-0,103
280,341	172,414	-0,128	-0,127
281,355	-3,140	-0,259	-0,124
282,370	397,292	-0,118	-0,170
283,384	230,390	-0,187	-0,212
284,399	-200,000	-0,039	-0,187
285,414	-89,500	-0,112	-0,022
286,428	239,606	-0,087	-0,100
287,443	-4,212	-0,040	0,019
288,457	-150,801	-0,140	-0,007
289,472	-7,284	-0,168	-0,078
290,487	730,037	-0,127	-0,235
291,501	308,682	-0,160	-0,206
292,516	313,470	-0,117	-0,152
293,530	-71,995	-0,261	-0,066
294,545	-46,180	-0,174	0,059
295,560	84,641	-0,113	-0,085
296,574	208,834	-0,201	-0,217
297,589	-18,036	-0,276	-0,119
298,603	214,486	-0,230	-0,251
299,618	170,186	-0,140	-0,138
300,633	-66,179	-0,208	-0,057
301,647	164,999	-0,141	-0,137
302,662	44,436	-0,104	-0,066
303,676	-93,865	-0,149	0,028
304,691	-151,932	-0,197	0,010
305,706	176,675	-0,209	-0,209
306,720	70,977	-0,215	-0,153
307,735	469,526	-0,168	-0,261
308,749	207,858	-0,068	-0,073
309,764	113,440	-0,134	-0,112
310,779	14,594	-0,108	-0,058
311,793	313,354	-0,147	-0,190
312,808	73,103	-0,156	-0,112
313,822	483,979	-0,122	-0,191
314,837	800,000	-0,060	-0,125
315,852	360,579	-0,125	-0,173
316,866	135,109	-0,159	-0,142
317,881	198,577	-0,067	-0,071
318,895	-200,000	-0,019	-0,117
319,910	-31,094	-0,220	-0,085
320,925	70,877	-0,203	-0,144
321,939	347,364	-0,117	-0,159
322,954	59,573	-0,173	-0,117
323,968	-18,980	-0,141	-0,060
324,983	43,321	-0,073	0,046
325,997	-108,719	-0,143	-0,021
327,012	285,339	-0,187	-0,232
328,027	193,420	-0,169	-0,175
329,041	178,562	-0,166	-0,167
330,056	-200,000	-0,008	-0,050
331,070	31,869	-0,175	-0,103
332,085	34,293	-0,169	-0,101
333,100	771,436	-0,122	-0,230
334,114	135,957	-0,195	-0,174
335,129	-15,931	-0,049	-0,021
336,143	94,893	-0,131	-0,102
337,158	-101,421	-0,148	-0,024
338,173	-83,626	-0,203	-0,044
339,187	97,866	-0,052	-0,041
340,202	-118,194	-0,082	0,010
341,216	505,954	-0,110	-0,176
342,231	-144,570	-0,145	-0,009
343,246	37,436	-0,233	-0,142
344,260	-95,258	-0,176	-0,032
345,275	800,000	-0,032	0,064
346,289	59,769	-0,141	-0,095
347,304	767,580	-0,083	-0,155
348,319	138,514	-0,247	-0,223
349,333	92,340	-0,215	-0,166
350,348	31,880	-0,219	-0,129
351,362	250,592	-0,077	-0,090
352,377	160,046	-0,155	-0,148
353,392	-200,000	-0,002	-0,009
354,406	447,760	-0,084	-0,128
355,421	209,350	1312,995	1411,514
356,435	161,125	1473,521	1412,031
