DTS Sentinel unit serial number:	SN410029Multiplexer serial number:	ORYXHardware model number:	OX2-SRSoftware version number:	ORYX F/W v4,00 Oryx Data Collector v3.7.2.0data status	okinstallation	B3 Nyhavnadifferential loss correction	single-endedforward channel	channel 1reverse channel	N/Adate	2023/12/01time	16:02:30forward acquisition time	300,00reverse acquisition time	0,00gamma	499,1914k internal	0,3207k external	0,3207temperature offset calibration	1,0000default loss term (dB/km)	0,3820temperature slope calibration	1,0000multiplexer offset coefficient	1,0000multiplexer slope coefficient	1,0000fibre end	0,00T internal ref (°C)	12,74T ext. ref 1 (°C)	-0,77T ext. ref 2 (°C)	-0,80length (m)	temperature (°C)	Stokes	anti-Stokes-744,400	104,347	-0,383	-0,327
-743,385	-200,000	0,044	0,351
-742,371	544,130	-0,144	-0,251
-741,356	-200,000	0,084	0,318
-740,342	390,707	-0,120	-0,181
-739,327	-200,000	0,008	0,295
-738,312	176,784	-0,224	-0,236
-737,298	-200,000	-0,020	0,299
-736,283	134,885	-0,211	-0,199
-735,269	-200,000	0,024	0,322
-734,254	309,364	-0,235	-0,319
-733,239	164,892	-0,136	0,139
-732,225	610,212	-0,095	-0,172
-731,210	-3,500	0,031	-0,015
-730,196	-32,801	-0,103	-0,041
-729,181	129,848	-0,055	0,051
-728,167	800,000	-0,019	0,056
-727,152	-162,473	-0,277	-0,010
-726,137	800,000	0,028	0,068
-725,123	-89,179	-0,149	0,032
-724,108	-159,938	-0,132	-0,005
-723,094	-71,997	-0,170	-0,045
-722,079	236,936	-0,070	-0,084
-721,064	134,968	-0,054	-0,051
-720,050	-126,520	-0,150	-0,016
-719,035	-134,245	-0,095	-0,008
-718,021	-176,190	0,107	-0,002
-717,006	34,477	-0,021	-0,013
-715,991	402,784	-0,058	-0,089
-714,977	-200,000	0,010	-0,114
-713,962	379,080	-0,055	-0,082
-712,948	-200,000	-0,019	0,204
-711,933	447,222	0,061	0,097
-710,918	-200,000	0,011	0,078
-709,904	-200,000	-0,026	0,111
-708,889	-200,000	-0,031	0,000
-707,875	-144,834	-0,034	-0,002
-706,860	-140,399	-0,059	0,004
-705,845	595,567	0,082	0,148
-704,831	-109,182	0,089	-0,014
-703,816	120,306	-0,066	0,059
-702,802	633,789	0,039	-0,072
-701,787	-200,000	-0,005	0,032
-700,772	408,762	-0,038	-0,059
-699,758	-29,558	0,105	-0,043
-698,743	472,708	-0,048	-0,078
-697,729	-119,093	0,124	0,015
-696,714	-128,562	-0,075	-0,008
-695,699	134,679	0,073	-0,069
-694,685	159,427	-0,024	-0,024
-693,670	-23,165	0,080	0,035
-692,656	215,290	0,039	-0,045
-691,641	39,257	0,027	-0,018
-690,627	-200,000	-0,027	0,110
-689,612	-200,000	-0,004	-0,131
-688,597	-200,000	-0,025	-0,102
-687,583	-78,140	-0,112	0,028
-686,568	42,572	-0,094	-0,062
-685,554	-200,000	0,027	-0,102
-684,539	-38,416	-0,073	-0,028
-683,524	377,461	0,045	0,067
-682,510	129,940	-0,058	0,054
-681,495	-106,560	-0,113	0,018
-680,481	88,963	-0,066	0,053
-679,466	-53,528	-0,151	-0,050
-678,451	-79,239	-0,233	0,057
-677,437	-200,000	0,040	0,151
-676,422	623,242	-0,059	-0,108
-675,408	800,000	-0,043	0,114
-674,393	-200,000	0,016	0,116
-673,378	-200,000	0,003	-0,057
-672,364	100,394	0,029	-0,025
-671,349	-200,000	-0,022	-0,108
-670,335	800,000	-0,046	0,126
-669,320	44,702	0,013	0,009
-668,305	290,075	-0,028	-0,036
-667,291	498,189	-0,056	-0,094
-666,276	11,712	0,102	0,056
-665,262	16,101	-0,226	-0,129
-664,247	97,949	-0,052	-0,043
-663,232	-200,000	0,002	0,029
-662,218	129,310	0,038	0,036
-661,203	195,117	0,058	0,064
-660,189	-200,000	-0,005	0,059
-659,174	-200,000	0,003	-0,013
-658,159	384,024	-0,082	-0,122
-657,145	-1,256	0,106	0,054
-656,130	94,894	0,027	0,023
-655,116	-200,000	-0,014	-0,048
-654,101	-42,996	0,060	-0,022
-653,086	103,451	0,081	-0,068
-652,072	160,145	0,089	-0,090
-651,057	-87,289	0,052	-0,011
-650,043	-200,000	-0,011	-0,063
-649,028	-200,000	-0,027	-0,088
-648,014	-130,146	-0,147	0,014
-646,999	-132,097	0,129	-0,012
-645,984	213,931	-0,018	-0,021
-644,970	-104,117	-0,240	0,040
-643,955	-200,000	0,004	-0,093
-642,941	-191,666	-0,023	0,000
-641,926	143,407	-0,044	-0,042
-640,911	100,914	0,017	-0,014
-639,897	-200,000	-0,000	-0,028
-638,882	109,948	-0,060	0,052
-637,868	118,508	-0,109	-0,098
-636,853	-49,367	-0,068	-0,023
-635,838	330,765	-0,053	-0,074
-634,824	-152,683	0,037	-0,002
-633,809	-200,000	-0,016	0,085
-632,795	-108,910	0,081	0,012
-631,780	800,000	0,016	-0,033
-630,765	217,624	-0,027	-0,032
-629,751	800,000	0,039	-0,091
-628,736	576,499	0,101	-0,180
-627,722	248,146	-0,086	0,106
-626,707	-146,650	0,118	0,007
-625,692	-200,000	0,027	-0,093
-624,678	440,100	-0,064	0,101
-623,663	-200,000	0,002	-0,053
-622,649	96,599	0,107	-0,088
-621,634	800,000	-0,063	-0,141
-620,619	-200,000	-0,023	-0,163
-619,605	454,033	-0,067	-0,108
-618,590	42,249	0,099	0,065
-617,576	-200,000	0,010	0,078
-616,561	-200,000	-0,050	0,178
-615,546	800,000	-0,014	-0,039
-614,532	-59,076	0,070	-0,022
-613,517	-157,767	-0,058	0,002
-612,503	557,065	0,006	0,011
-611,488	800,000	-0,027	-0,073
-610,474	-60,829	-0,107	-0,032
-609,459	800,000	-0,007	0,016
-608,444	800,000	-0,033	-0,080
-607,430	800,000	-0,044	-0,102
-606,415	-200,000	-0,009	-0,146
-605,401	-123,662	0,045	0,005
-604,386	36,801	-0,065	-0,042
-603,371	800,000	0,048	0,125
-602,357	-148,251	-0,095	0,006
-601,342	199,783	-0,068	0,075
-600,328	89,974	0,042	-0,034
-599,313	-131,681	-0,065	-0,006
-598,298	-200,000	-0,007	-0,023
-597,284	-61,880	-0,117	-0,035
-596,269	407,709	0,077	0,118
-595,255	-200,000	0,007	0,068
-594,240	-92,537	-0,124	-0,025
-593,225	129,743	-0,017	-0,016
-592,211	45,867	-0,126	-0,084
-591,196	219,960	-0,067	0,077
-590,182	-8,381	0,061	0,030
-589,167	507,934	-0,012	0,020
-588,152	-200,000	0,014	0,171
-587,138	365,328	-0,040	-0,058
-586,123	-200,000	-0,015	-0,112
-585,109	379,023	-0,019	-0,028
-584,094	199,997	-0,034	-0,038
-583,079	-200,000	-0,004	-0,028
-582,065	-103,721	0,122	-0,020
-581,050	38,101	0,067	-0,043
-580,036	464,210	-0,071	-0,115
-579,021	-200,000	0,001	-0,019
-578,006	800,000	-0,032	0,069
-576,992	149,803	-0,020	-0,020
-575,977	-53,114	0,157	-0,052
-574,963	49,249	-0,066	0,045
-573,948	45,295	0,077	0,051
-572,934	-81,421	-0,018	-0,004
-571,919	-200,000	0,006	0,061
-570,904	800,000	0,037	-0,115
-569,890	5,657	0,065	-0,034
-568,875	-146,553	0,038	0,002
-567,861	-141,034	0,118	0,009
-566,846	-200,000	0,001	-0,066
-565,831	-113,206	-0,106	-0,015
-564,817	-113,070	0,128	0,018
-563,802	-135,051	-0,175	0,015
-562,788	395,560	0,103	-0,155
-561,773	782,252	-0,090	-0,179
-560,758	74,298	0,075	0,057
-559,744	187,923	-0,068	0,074
-558,729	-37,456	0,103	0,039
-557,715	-19,860	-0,043	-0,019
-556,700	265,696	-0,090	0,113
-555,685	-155,054	-0,078	-0,004
-554,671	214,708	0,043	-0,049
-553,656	-200,000	0,062	0,222
-552,642	342,320	0,066	0,093
-551,627	-15,429	-0,051	0,023
-550,612	44,534	-0,089	0,059
-549,598	-200,000	-0,002	-0,046
-548,583	800,000	-0,063	-0,127
-547,569	-200,000	-0,020	0,090
-546,554	-55,251	-0,068	0,022
-545,539	36,114	0,075	0,047
-544,525	-92,959	-0,085	-0,017
-543,510	-200,000	-0,031	0,124
-542,496	-200,000	0,021	-0,103
-541,481	-88,129	-0,051	-0,011
-540,466	-200,000	0,003	-0,029
-539,452	172,889	0,104	0,108
-538,437	55,692	0,102	-0,071
-537,423	-87,243	0,042	-0,009
-536,408	284,866	0,119	0,155
-535,393	62,375	-0,044	-0,032
-534,379	48,890	-0,055	-0,037
-533,364	-200,000	0,005	-0,049
-532,350	-110,791	-0,078	-0,011
-531,335	246,764	0,033	-0,040
-530,321	800,000	-0,056	0,142
-529,306	220,538	0,030	0,035
-528,291	-2,692	-0,064	-0,032
-527,277	283,833	0,023	-0,030
-526,262	83,646	0,082	0,064
-525,248	11,270	0,064	-0,035
-524,233	-200,000	0,008	0,121
-523,218	-200,000	0,013	0,047
-522,204	-112,865	-0,172	-0,024
-521,189	-200,000	0,001	-0,075
-520,175	-200,000	-0,035	-0,155
-519,160	-35,243	0,111	-0,043
-518,145	800,000	-0,011	0,027
-517,131	-61,656	0,073	-0,022
-516,116	129,992	0,052	0,048
-515,102	-200,000	0,026	0,086
-514,087	19,225	-0,032	-0,018
-513,072	-193,528	0,117	-0,001
-512,058	-87,856	0,089	-0,019
-511,043	-32,522	0,099	0,039
-510,029	-8,071	0,055	-0,027
-509,014	630,348	0,061	-0,111
-507,999	-74,897	-0,057	0,015
-506,985	61,225	-0,072	0,051
-505,970	-70,378	-0,037	0,010
-504,956	181,067	-0,082	-0,087
-503,941	-68,952	0,033	0,009
-502,926	-1,609	0,014	0,007
-501,912	-179,841	0,073	-0,001
-500,897	11,822	0,124	0,068
-499,883	362,801	0,032	-0,046
-498,868	-200,000	0,030	-0,099
-497,853	-56,863	-0,088	0,028
-496,839	5,664	0,031	0,017
-495,824	67,177	0,094	0,069
-494,810	35,554	-0,120	-0,076
-493,795	653,707	0,024	-0,045
-492,781	800,000	0,031	-0,080
-491,766	427,235	0,050	-0,078
-490,751	217,718	0,069	0,080
-489,737	638,412	-0,025	0,045
-488,722	306,486	-0,083	0,112
-487,708	472,925	-0,044	0,072
-486,693	800,000	0,031	0,065
-485,678	-200,000	-0,002	0,051
-484,664	6,893	-0,035	-0,019
-483,649	-125,909	-0,155	-0,017
-482,635	-200,000	-0,010	0,065
-481,620	-200,000	0,009	0,046
-480,605	-200,000	-0,014	0,152
-479,591	-200,000	0,001	0,077
-478,576	464,272	0,024	-0,039
-477,562	800,000	-0,044	-0,089
-476,547	-200,000	-0,010	-0,051
-475,532	75,304	0,003	-0,002
-474,518	457,741	0,015	0,024
-473,503	179,715	0,116	0,122
-472,489	-200,000	-0,020	0,131
-471,474	-195,825	0,070	-0,000
-470,459	-200,000	0,010	-0,135
-469,445	54,371	-0,135	-0,094
-468,430	800,000	-0,031	-0,080
-467,416	-200,000	-0,031	0,102
-466,401	-200,000	0,003	-0,038
-465,386	187,400	0,098	0,106
-464,372	-112,485	-0,057	0,008
-463,357	70,446	-0,142	-0,106
-462,343	116,607	-0,018	0,016
-461,328	800,000	0,022	-0,055
-460,313	697,742	0,039	0,074
-459,299	800,000	0,026	0,075
-458,284	57,988	-0,043	0,030
-457,270	-200,000	-0,003	-0,084
-456,255	157,208	-0,148	0,147
-455,241	99,729	0,036	0,030
-454,226	-200,000	0,006	-0,062
-453,211	282,243	0,085	-0,110
-452,197	73,650	0,070	-0,052
-451,182	363,721	-0,040	0,058
-450,168	-200,000	-0,045	0,144
-449,153	-200,000	0,013	0,050
-448,138	161,101	0,025	-0,025
-447,124	-33,974	-0,017	-0,007
-446,109	-71,585	-0,138	0,037
-445,095	-127,739	0,121	-0,012
-444,080	800,000	0,035	0,093
-443,065	-121,439	0,134	-0,016
-442,051	107,332	-0,072	-0,061
-441,036	208,050	0,051	-0,057
-440,022	724,305	-0,031	0,060
-439,007	753,277	0,078	-0,153
-437,992	-75,927	0,032	0,008
-436,978	800,000	-0,059	0,123
-435,963	11,564	0,110	0,060
-434,949	5,519	-0,122	-0,064
-433,934	-200,000	-0,003	-0,062
-432,919	94,274	0,065	-0,053
-431,905	-14,466	0,109	0,050
-430,890	80,028	-0,085	0,066
-429,876	-58,006	0,121	0,038
-428,861	16,578	-0,103	-0,058
-427,846	126,214	-0,057	-0,051
-426,832	90,441	-0,118	-0,095
-425,817	-28,565	-0,056	-0,023
-424,803	-200,000	-0,021	0,090
-423,788	27,705	0,138	-0,083
-422,773	137,613	-0,036	0,034
-421,759	-126,168	0,092	0,010
-420,744	-200,000	-0,010	-0,033
-419,730	348,081	-0,036	0,051
-418,715	364,162	-0,044	0,064
-417,701	169,854	0,139	-0,143
-416,686	63,313	-0,124	-0,089
-415,671	-20,445	0,119	0,052
-414,657	139,416	0,063	0,059
-413,642	156,135	-0,097	0,096
-412,628	800,000	0,006	0,016
-411,613	-105,307	0,085	0,014
-410,598	800,000	-0,016	-0,047
-409,584	-14,454	0,140	0,064
-408,569	800,000	0,046	0,106
-407,555	800,000	-0,032	0,078
-406,540	336,669	0,040	0,056
-405,525	572,582	-0,109	-0,192
-404,511	800,000	-0,045	0,115
-403,496	-200,000	-0,011	0,036
-402,482	800,000	0,029	-0,082
-401,467	-200,000	-0,022	0,102
-400,452	10,104	-0,041	-0,022
-399,438	-62,128	-0,129	0,038
-398,423	800,000	-0,060	-0,177
-397,409	64,388	-0,127	-0,092
-396,394	166,326	0,095	-0,096
-395,379	-142,328	-0,095	-0,007
-394,365	23,353	-0,066	-0,039
-393,350	-200,000	0,030	0,098
-392,336	-115,501	0,086	0,011
-391,321	800,000	0,024	-0,048
-390,306	-38,514	-0,062	0,024
-389,292	-200,000	0,000	-0,065
-388,277	-200,000	0,000	-0,008
-387,263	-200,000	-0,017	0,070
-386,248	10,551	0,072	-0,039
-385,233	-113,274	0,069	-0,010
-384,219	800,000	-0,011	-0,033
-383,204	35,122	-0,137	-0,086
-382,190	-200,000	0,007	0,037
-381,175	800,000	0,012	0,035
-380,160	218,896	0,014	0,016
-379,146	152,052	-0,036	-0,036
-378,131	383,812	-0,071	0,105
-377,117	77,293	0,082	-0,062
-376,102	-200,000	0,003	-0,053
-375,088	-8,628	0,082	-0,039
-374,073	800,000	0,046	0,108
-373,058	-200,000	0,016	0,103
-372,044	312,213	-0,053	0,072
-371,029	-75,382	0,169	0,043
-370,015	32,587	-0,037	-0,023
-369,000	-200,000	-0,011	-0,101
-367,985	186,511	-0,077	-0,082
-366,971	360,947	-0,030	-0,043
-365,956	218,965	0,090	0,103
-364,942	362,038	0,013	0,019
-363,927	800,000	-0,012	0,031
-362,912	-200,000	-0,003	0,164
-361,898	-200,000	0,009	-0,125
-360,883	471,049	-0,042	-0,067
-359,869	-148,824	-0,090	-0,005
-358,854	47,282	0,154	0,102
-357,839	210,932	0,069	0,077
-356,825	140,984	-0,051	-0,049
-355,810	-3,641	0,037	-0,018
-354,796	-200,000	-0,003	-0,025
-353,781	800,000	0,026	-0,063
-352,766	93,431	0,059	0,048
-351,752	539,403	0,050	-0,086
-350,737	800,000	0,049	0,126
-349,723	800,000	0,095	0,192
-348,708	112,024	0,089	0,077
-347,693	230,214	-0,071	-0,083
-346,679	157,577	0,135	-0,134
-345,664	-120,343	-0,046	0,006
-344,650	447,786	-0,053	-0,084
-343,635	4,080	0,147	0,077
-342,620	-200,000	-0,033	-0,106
-341,606	-200,000	0,019	-0,061
-340,591	-81,729	0,089	-0,021
-339,577	1,009	-0,127	-0,065
-338,562	800,000	-0,013	-0,040
-337,548	-4,144	0,066	-0,032
-336,533	-18,320	0,132	0,059
-335,518	-71,464	0,097	0,026
-334,504	592,321	0,053	-0,094
-333,489	265,626	0,037	-0,046
-332,475	800,000	0,019	0,050
-331,460	302,757	-0,057	-0,076
-330,445	233,661	-0,048	0,057
-329,431	30,294	0,140	0,085
-328,416	-200,000	-0,026	0,097
-327,402	-200,000	-0,013	0,075
-326,387	-200,000	-0,023	0,101
-325,372	217,478	-0,076	0,087
-324,358	272,353	-0,099	0,125
-323,343	-125,461	0,104	-0,011
-322,329	-200,000	-0,020	-0,111
-321,314	255,914	0,108	0,132
-320,299	121,230	0,103	0,092
-319,285	535,885	-0,096	0,163
-318,270	-115,530	0,011	-0,001
-317,256	526,469	-0,023	0,039
-316,241	88,775	-0,056	-0,045
-315,226	49,592	0,098	-0,066
-314,212	-177,726	0,112	0,002
-313,197	800,000	-0,012	-0,033
-312,183	-200,000	0,042	-0,157
-311,168	337,521	0,066	-0,091
-310,153	-74,559	-0,129	0,033
-309,139	-125,492	0,141	0,015
-308,124	-200,000	-0,016	-0,116
-307,110	-200,000	-0,033	-0,107
-306,095	-200,000	0,014	-0,055
-305,080	123,955	-0,044	-0,039
-304,066	-51,183	-0,109	0,036
-303,051	641,247	-0,016	0,029
-302,037	654,844	-0,044	-0,081
-301,022	800,000	0,027	0,084
-300,008	-87,959	-0,070	-0,015
-298,993	-200,000	-0,017	0,154
-297,978	-200,000	-0,013	0,118
-296,964	484,511	0,063	0,102
-295,949	-200,000	-0,011	-0,108
-294,935	-85,868	-0,185	-0,041
-293,920	306,455	0,061	0,081
-292,905	-200,000	-0,002	0,022
-291,891	800,000	-0,061	0,174
-290,876	800,000	0,033	0,066
-289,862	-200,000	-0,026	0,094
-288,847	239,370	-0,082	-0,097
-287,832	70,246	-0,046	-0,034
-286,818	-138,892	0,166	0,013
-285,803	-152,181	0,137	0,007
-284,789	138,444	-0,023	0,021
-283,774	-46,739	-0,029	-0,010
-282,759	-56,513	0,080	0,025
-281,745	-122,859	-0,149	0,017
-280,730	-104,737	0,022	0,004
-279,716	166,953	-0,106	0,107
-278,701	682,373	-0,012	-0,022
-277,686	259,711	0,057	0,070
-276,672	-200,000	-0,016	0,153
-275,657	-200,000	-0,019	0,097
-274,643	-200,000	0,015	0,104
-273,628	557,292	-0,031	-0,053
-272,613	-200,000	0,016	0,090
-271,599	-62,450	-0,073	0,021
-270,584	800,000	0,046	-0,124
-269,570	-36,237	-0,089	0,034
-268,555	-32,423	0,069	-0,027
-267,540	137,183	0,056	-0,052
-266,526	800,000	0,068	-0,149
-265,511	10,390	-0,003	-0,002
-264,497	800,000	-0,026	0,054
-263,482	-160,077	0,248	0,009
-262,467	-200,000	-0,015	0,087
-261,453	-66,378	-0,074	0,021
-260,438	290,939	-0,099	0,128
-259,424	-54,582	-0,080	-0,026
-258,409	-200,000	-0,009	-0,037
-257,395	254,790	-0,006	0,008
-256,380	-200,000	-0,014	-0,119
-255,365	800,000	0,032	0,088
-254,351	-200,000	0,032	0,170
-253,336	-22,861	-0,035	-0,015
-252,322	-200,000	0,009	-0,093
-251,307	-127,891	-0,062	0,006
-250,292	77,078	0,032	0,024
-249,278	-109,077	0,086	-0,013
-248,263	357,257	0,040	0,057
-247,249	-200,000	0,025	0,100
-246,234	-200,000	0,030	-0,180
-245,219	800,000	0,037	-0,073
-244,205	-64,566	0,025	-0,007
-243,190	-53,559	-0,033	-0,011
-242,176	34,309	0,083	0,051
-241,161	-200,000	0,009	0,081
-240,146	53,386	-0,031	0,021
-239,132	449,398	-0,045	0,070
-238,117	647,111	-0,015	-0,028
-237,103	800,000	-0,013	-0,032
-236,088	-200,000	0,011	0,086
-235,073	-200,000	0,013	0,044
-234,059	-180,645	0,104	0,001
-233,044	-119,088	0,127	-0,016
-232,030	61,876	-0,098	0,070
-231,015	110,397	-0,137	-0,118
-230,000	518,984	-0,020	-0,033
-228,986	-11,910	0,056	0,026
-227,971	66,283	0,091	0,066
-226,957	27,899	-0,045	0,027
-225,942	-105,062	0,145	-0,023
-224,927	-1,355	0,041	-0,020
-223,913	-124,601	-0,089	0,010
-222,898	300,507	-0,050	-0,066
-221,884	403,259	0,055	-0,083
-220,869	-200,000	0,011	-0,098
-219,855	-67,077	0,056	0,016
-218,840	566,333	0,044	0,076
-217,825	800,000	-0,041	-0,125
-216,811	289,681	-0,009	0,012
-215,796	-200,000	-0,013	-0,094
-214,782	800,000	-0,005	-0,013
-213,767	-150,243	-0,016	-0,001
-212,752	131,336	-0,034	-0,031
-211,738	144,060	-0,047	0,045
-210,723	-105,454	0,012	-0,002
-209,709	254,247	-0,076	-0,092
-208,694	525,467	-0,076	-0,127
-207,679	-86,082	-0,033	-0,007
-206,665	345,106	0,086	0,121
-205,650	69,383	-0,046	0,034
-204,636	800,000	0,063	0,131
-203,621	800,000	0,028	0,056
-202,606	-44,977	-0,076	-0,027
-201,592	-105,257	0,018	-0,003
-200,577	-200,000	-0,051	-0,169
-199,563	39,806	0,069	-0,044
-198,548	800,000	0,031	-0,087
-197,533	-77,099	-0,034	0,008
-196,519	-200,000	0,010	-0,082
-195,504	-200,000	-0,003	0,056
-194,490	177,857	0,043	-0,045
-193,475	337,177	-0,040	0,056
-192,460	-200,000	0,045	0,000
-191,446	-126,667	-0,040	0,004
-190,431	15,369	-0,120	-0,067
-189,417	99,355	-0,037	-0,030
-188,402	-13,816	0,057	0,026
-187,387	233,342	-0,065	-0,076
-186,373	-21,952	0,019	0,008
-185,358	-200,000	0,016	0,060
-184,344	-200,000	0,016	0,134
-183,329	-149,329	0,073	0,004
-182,315	139,627	0,062	-0,058
-181,300	644,676	-0,039	-0,070
-180,285	91,003	-0,151	-0,120
-179,271	-200,000	-0,006	-0,156
-178,256	75,320	-0,065	-0,049
-177,242	-46,356	-0,059	-0,021
-176,227	259,132	-0,019	-0,023
-175,212	-200,000	-0,002	0,121
-174,198	-70,386	-0,181	0,048
-173,183	-200,000	0,025	0,098
-172,169	422,765	-0,089	-0,136
-171,154	-200,000	-0,031	-0,133
-170,139	186,515	-0,006	-0,006
-169,125	-130,555	0,156	-0,015
-168,110	140,501	-0,036	-0,034
-167,096	29,094	-0,053	0,032
-166,081	246,709	-0,065	-0,078
-165,066	4,529	-0,037	-0,019
-164,052	99,123	-0,063	-0,051
-163,037	530,516	0,089	0,150
-162,023	429,456	-0,059	0,090
-161,008	164,357	-0,057	0,057
-159,993	119,679	0,074	-0,065
-158,979	800,000	0,017	-0,038
-157,964	-53,730	-0,047	-0,015
-156,950	-13,304	0,162	0,074
-155,935	23,598	0,099	-0,058
-154,920	-200,000	0,020	0,074
-153,906	800,000	0,024	0,062
-152,891	192,264	-0,033	-0,036
-151,877	-200,000	-0,024	-0,083
-150,862	-100,507	-0,016	0,003
-149,847	285,760	0,050	-0,064
-148,833	-200,000	0,007	-0,115
-147,818	720,173	0,012	-0,023
-146,804	-200,000	0,016	0,149
-145,789	141,632	0,065	-0,061
-144,775	-70,356	0,084	0,023
-143,760	-200,000	0,049	-0,219
-142,745	192,457	0,076	0,081
-141,731	11,393	0,042	-0,023
-140,716	44,769	0,081	0,053
-139,702	173,785	0,013	0,013
-138,687	673,437	0,035	-0,066
-137,672	46,334	0,013	-0,008
-136,658	296,973	-0,065	-0,085
-135,643	183,129	-0,106	-0,111
-134,629	-130,895	0,085	0,008
-133,614	-98,032	0,074	-0,013
-132,599	-61,924	0,091	0,027
-131,585	800,000	-0,049	0,099
-130,570	-200,000	0,002	0,046
-129,556	76,857	0,034	-0,026
-128,541	-200,000	-0,023	-0,079
-127,526	657,816	-0,039	-0,071
-126,512	-200,000	0,018	0,115
-125,497	179,490	0,033	0,035
-124,483	465,169	0,022	0,034
-123,468	32,718	-0,136	0,083
-122,453	274,899	-0,079	-0,099
-121,439	-200,000	-0,014	-0,200
-120,424	158,180	-0,106	0,104
-119,410	133,556	-0,084	0,077
-118,395	-16,921	-0,026	0,011
-117,380	-200,000	-0,085	0,000
-116,366	800,000	-0,032	0,078
-115,351	-200,000	0,005	0,053
-114,337	0,337	-0,044	0,022
-113,322	405,567	-0,042	-0,063
-112,307	-200,000	-0,025	0,110
-111,293	199,809	0,055	0,060
-110,278	289,944	-0,022	0,029
-109,264	800,000	0,040	0,125
-108,249	-200,000	-0,025	0,136
-107,234	-200,000	0,017	0,104
-106,220	115,223	-0,098	-0,085
-105,205	694,325	0,076	-0,141
-104,191	407,179	0,021	-0,032
-103,176	20,820	0,044	-0,025
-102,162	-200,000	-0,025	0,133
-101,147	-29,071	-0,120	-0,048
-100,132	461,730	0,058	0,093
-99,118	542,294	-0,079	0,134
-98,103	-200,000	0,032	0,122
-97,089	291,157	0,013	0,016
-96,074	800,000	0,014	0,037
-95,059	632,478	0,129	0,233
-94,045	-101,573	-0,134	-0,023
-93,030	54,893	0,017	-0,011
-92,016	800,000	0,054	-0,107
-91,001	800,000	0,047	-0,096
-89,986	30,253	0,074	0,045
-88,972	-19,867	-0,038	-0,016
-87,957	-147,150	0,096	0,006
-86,943	716,287	-0,036	-0,068
-85,928	-200,000	0,007	0,081
-84,913	-152,719	0,027	0,001
-83,899	-200,000	-0,010	-0,041
-82,884	800,000	-0,017	0,038
-81,870	-200,000	-0,009	0,105
-80,855	-200,000	-0,002	0,159
-79,840	-200,000	-0,003	0,153
-78,826	-144,316	-0,109	0,007
-77,811	800,000	-0,015	0,040
-76,797	-200,000	-0,001	0,009
-75,782	54,081	0,119	-0,081
-74,767	124,113	-0,070	0,062
-73,753	-200,000	-0,031	-0,132
-72,738	-200,000	0,022	0,082
-71,724	-153,688	-0,217	-0,010
-70,709	9,846	-0,088	0,047
-69,694	9,958	0,013	0,007
-68,680	102,357	-0,037	0,030
-67,665	145,591	0,101	0,096
-66,651	-200,000	0,032	0,117
-65,636	-84,067	-0,132	0,029
-64,622	-85,716	-0,112	-0,024
-63,607	-5,305	-0,189	-0,091
-62,592	68,946	0,104	-0,075
-61,578	144,302	0,084	-0,079
-60,563	-200,000	0,024	-0,098
-59,549	251,724	0,039	-0,047
-58,534	-7,044	-1,741	-0,832
-57,519	367,852	-1,405	-2,012
-56,505	-200,000	-0,513	-4,478
-55,490	205,545	0,968	1,064
-54,476	800,000	4,969	11,238
-53,461	-200,000	19,229	325,128
-52,446	-200,000	739,946	2332,076
-51,432	572,277	1650,797	2853,160
-50,417	77,398	1665,859	1250,943
-49,403	20,719	1539,190	878,201
-48,388	14,630	1461,732	804,529
-47,373	18,278	1452,369	816,894
-46,359	16,663	1441,858	803,244
-45,344	12,845	1437,293	782,467
-44,330	12,781	1435,537	781,178
-43,315	12,755	1433,641	779,989
-42,300	12,760	1432,094	779,142
-41,286	12,792	1430,979	778,656
-40,271	12,789	1429,472	777,788
-39,257	12,786	1428,153	777,027
-38,242	12,818	1426,764	776,391
-37,227	12,789	1425,776	775,688
-36,213	12,807	1424,403	774,994
-35,198	12,827	1423,142	774,374
-34,184	12,859	1422,277	774,020
-33,169	12,801	1420,959	773,000
-32,154	12,838	1419,797	772,513
-31,140	12,839	1418,653	771,863
-30,125	12,900	1417,644	771,571
-29,111	12,846	1416,561	770,694
-28,096	12,850	1415,238	769,964
-27,082	12,786	1414,279	769,110
-26,067	12,809	1413,322	768,668
-25,052	12,783	1412,239	767,926
-24,038	12,770	1411,194	767,269
-23,023	12,792	1410,071	766,729
-22,009	12,761	1409,038	765,992
-20,994	12,722	1408,331	765,396
-19,979	12,722	1407,465	764,895
-18,965	12,677	1406,443	764,098
-17,950	12,712	1405,412	763,670
-16,936	12,733	1404,633	763,314
-15,921	12,700	1403,571	762,557
-14,906	12,699	1402,677	762,033
-13,892	12,674	1401,842	761,434
-12,877	12,632	1401,047	760,778
-11,863	12,663	1400,032	760,340
-10,848	12,627	1399,211	759,698
-9,833	12,649	1397,946	759,083
-8,819	12,622	1397,435	758,647
-7,804	12,597	1396,410	757,947
-6,790	12,571	1395,477	757,290
-5,775	12,555	1394,341	756,567
-4,760	12,585	1393,404	756,170
-3,746	12,582	1392,519	755,643
-2,731	12,569	1391,817	755,173
-1,717	12,540	1390,800	754,459
-0,702	12,517	1388,939	753,311
0,313	16,499	1305,709	726,487
1,327	32,830	700,256	427,117
2,342	50,443	122,503	81,651
3,356	2,866	16,553	8,456
4,371	-3,631	3,316	1,622
5,386	-39,599	0,636	0,234
6,400	314,579	0,159	0,212
7,415	-93,852	-0,284	-0,055
8,429	67,101	-0,322	-0,231
9,444	-66,099	-0,370	-0,103
10,459	109,836	-0,265	-0,224
11,473	54,698	-0,400	-0,272
12,488	-45,379	-0,321	-0,112
13,502	103,110	-0,298	-0,246
14,517	175,698	-0,186	-0,191
15,531	-59,293	-0,527	-0,159
16,546	-94,649	-0,371	-0,070
17,561	188,725	-0,237	-0,251
18,575	-180,472	-0,178	-0,003
19,590	800,000	-0,089	-0,265
20,604	-15,919	-0,282	-0,126
21,619	69,231	-0,446	-0,323
22,634	125,203	-0,473	-0,420
23,648	-41,082	-0,448	-0,162
24,663	-24,871	-0,449	-0,187
25,677	114,521	-0,424	-0,364
26,692	7,899	-0,424	-0,223
27,707	40,810	-0,347	-0,220
28,721	138,943	-0,375	-0,348
29,736	148,607	-0,404	-0,385
30,750	151,694	-0,294	-0,282
31,765	91,788	-0,217	-0,172
32,780	5,028	-0,331	-0,171
33,794	-5,300	-0,422	-0,203
34,809	42,814	-0,290	-0,186
35,823	6,665	-0,346	-0,181
36,838	50,210	-0,489	-0,324
37,853	273,246	-0,359	-0,447
38,867	185,449	-0,415	-0,434
39,882	11,296	-0,407	-0,219
40,896	62,351	-0,307	-0,215
41,911	-51,632	-0,346	-0,113
42,926	24,723	-0,366	-0,213
43,940	41,222	-0,399	-0,253
44,955	66,752	-0,347	-0,248
45,969	35,172	-0,245	-0,151
46,984	84,853	-0,282	-0,218
47,999	113,078	-0,346	-0,295
49,013	214,802	-0,365	-0,408
50,028	179,276	-0,294	-0,303
51,042	49,816	-0,388	-0,257
52,057	45,551	-0,362	-0,235
53,071	139,399	-0,447	-0,414
54,086	60,501	-0,301	-0,209
55,101	86,468	-0,296	-0,229
56,115	-78,859	-0,415	-0,099
57,130	31,273	-0,350	-0,211
58,144	398,420	-0,202	-0,298
59,159	337,361	-0,274	-0,375
60,174	44,157	-0,382	-0,246
61,188	70,943	-0,384	-0,279
62,203	-37,567	-0,433	-0,161
63,217	-80,251	-0,268	-0,062
64,232	67,713	-0,360	-0,258
65,247	48,831	-0,360	-0,237
66,261	220,584	-0,335	-0,378
67,276	14,698	-0,353	-0,193
68,290	26,716	-0,378	-0,222
69,305	30,577	-0,261	-0,156
70,320	-124,390	-0,345	-0,037
71,334	-139,582	-0,362	-0,027
72,349	40,616	-0,341	-0,215
73,363	226,708	-0,261	-0,298
74,378	37,987	-0,327	-0,203
75,393	215,470	-0,255	-0,285
76,407	41,559	-0,329	-0,209
77,422	95,109	-0,356	-0,284
78,436	28,184	-0,270	-0,160
79,451	40,732	-0,290	-0,183
80,466	109,202	-0,350	-0,294
81,480	150,324	-0,349	-0,333
82,495	36,195	-0,268	-0,165
83,509	57,010	-0,233	-0,159
84,524	-36,607	-0,249	-0,093
85,539	37,171	-0,369	-0,229
86,553	76,702	-0,257	-0,191
87,568	14,791	-0,366	-0,200
88,582	13,719	-0,219	-0,119
89,597	1,835	-0,335	-0,169
90,611	91,436	-0,240	-0,189
91,626	-102,359	-0,311	-0,052
92,641	-143,976	-0,363	0,024
93,655	299,977	-0,211	-0,273
94,670	30,370	-0,368	-0,220
95,684	97,248	-0,386	-0,310
96,699	-3,129	-0,391	-0,190
97,714	163,786	-0,270	-0,267
98,728	225,827	-0,199	-0,227
99,743	5,876	-0,214	-0,111
100,757	125,795	-0,167	-0,148
101,772	6,135	-0,335	-0,173
102,787	305,183	-0,207	-0,269
103,801	131,678	-0,269	-0,242
104,816	-23,362	-0,300	-0,126
105,830	67,837	-0,193	-0,138
106,845	22,166	-0,110	-0,063
107,860	-24,706	-0,284	-0,117
108,874	18,314	-0,267	-0,149
109,889	-75,733	-0,325	-0,080
110,903	4,139	-0,359	-0,183
111,918	5,587	-0,215	-0,111
112,933	91,516	-0,236	-0,186
113,947	-0,775	-0,183	-0,090
114,962	-100,167	-0,221	-0,038
115,976	216,960	-0,232	-0,258
116,991	209,122	-0,111	-0,122
118,006	101,267	-0,213	-0,173
119,020	110,928	-0,250	-0,210
120,035	-56,551	-0,298	-0,092
121,049	162,295	-0,217	-0,213
122,064	-6,879	-0,220	-0,104
123,079	49,802	-0,280	-0,184
124,093	194,259	-0,221	-0,235
125,108	200,604	-0,201	-0,216
126,122	509,401	-0,159	-0,259
127,137	-72,882	-0,157	-0,040
128,151	-78,750	-0,254	-0,060
129,166	-103,649	-0,099	0,016
130,181	-7,164	-0,381	-0,180
131,195	85,694	-0,252	-0,193
132,210	224,422	-0,139	-0,157
133,224	800,000	-0,069	-0,175
134,239	5,613	-0,214	-0,110
135,254	79,338	-0,191	-0,143
136,268	3,613	-0,301	-0,153
137,283	-40,947	-0,310	-0,111
138,297	20,847	-0,293	-0,165
139,312	175,622	-0,240	-0,243
140,327	193,098	-0,231	-0,244
141,341	-87,369	-0,132	-0,028
142,356	462,251	-0,121	-0,189
143,370	-87,381	-0,341	-0,072
144,385	83,747	-0,206	-0,156
145,400	125,485	-0,226	-0,199
146,414	9,864	-0,280	-0,148
147,429	52,852	-0,256	-0,170
148,443	-58,326	-0,212	-0,064
149,458	-143,418	-0,144	-0,009
150,473	53,792	-0,239	-0,160
151,487	-97,692	-0,254	-0,045
152,502	456,846	-0,232	-0,360
153,516	106,363	-0,151	-0,125
154,531	124,726	-0,399	-0,350
155,546	111,654	-0,231	-0,194
156,560	199,805	-0,115	-0,123
157,575	54,086	-0,293	-0,196
158,589	242,159	-0,166	-0,194
159,604	112,378	-0,077	-0,065
160,619	72,941	-0,375	-0,272
161,633	127,318	-0,298	-0,264
162,648	96,528	-0,277	-0,221
163,662	700,828	-0,114	-0,210
164,677	25,787	-0,267	-0,154
165,692	-92,449	-0,181	0,035
166,706	69,771	-0,322	-0,231
167,721	122,414	-0,216	-0,188
168,735	57,907	-0,187	-0,127
169,750	-81,495	-0,348	-0,079
170,764	34,135	-0,309	-0,187
171,779	-200,000	-0,052	-0,164
172,794	-38,247	-0,351	-0,129
173,808	-40,066	-0,221	-0,080
174,823	800,000	-0,096	-0,271
175,837	650,436	-0,163	-0,291
176,852	357,001	-0,194	-0,270
177,867	800,000	-0,081	-0,193
178,881	241,953	-0,166	-0,194
179,896	124,224	-0,262	-0,229
180,910	-99,402	-0,269	-0,047
181,925	34,486	-0,324	-0,196
182,940	201,952	-0,266	-0,285
183,954	-111,599	-0,255	0,036
184,969	-200,000	0,009	-0,211
185,983	-74,056	-0,362	-0,091
186,998	461,757	-0,097	-0,150
188,013	72,503	-0,221	-0,160
189,027	-2,580	-0,295	-0,143
190,042	87,016	-0,254	-0,195
191,056	-27,775	-0,377	-0,151
192,071	135,300	-0,098	-0,089
193,086	-83,795	-0,316	-0,069
194,100	-151,707	-0,156	0,008
195,115	800,000	-0,044	-0,096
196,129	-51,945	-0,319	-0,102
197,144	97,794	-0,218	-0,174
198,159	7,376	-0,223	-0,115
199,173	-30,303	-0,251	-0,098
200,188	-89,924	-0,087	0,017
201,202	800,000	-0,048	-0,117
202,217	-40,934	-0,279	-0,099
203,232	48,364	-0,200	-0,130
204,246	107,564	-0,224	-0,185
205,261	101,526	-0,239	-0,193
206,275	40,010	-0,233	-0,145
207,290	43,090	-0,269	-0,170
208,304	213,595	-0,187	-0,205
209,319	107,255	-0,148	-0,122
210,334	24,294	-0,201	-0,115
211,348	77,404	-0,180	-0,133
212,363	63,755	-0,278	-0,193
213,377	23,355	-0,156	-0,089
214,392	-43,166	-0,179	-0,063
215,407	-71,320	-0,193	-0,050
216,421	-26,319	-0,239	-0,097
217,436	38,269	-0,182	-0,112
218,450	-161,427	-0,301	0,011
219,465	25,568	-0,357	-0,205
220,480	439,111	-0,097	-0,147
221,494	-46,917	-0,256	-0,086
222,509	-164,376	-0,105	-0,003
223,523	800,000	0,059	-0,160
224,538	-38,705	-0,177	-0,064
225,553	312,258	-0,190	-0,248
226,567	800,000	-0,048	-0,139
227,582	-9,239	-0,300	-0,138
228,596	-20,417	-0,256	-0,109
229,611	18,608	-0,202	-0,111
230,626	15,776	-0,152	-0,082
231,640	-200,000	-0,066	-0,215
232,655	28,184	-0,224	-0,131
233,669	-137,447	-0,192	-0,015
234,684	655,428	-0,126	-0,224
235,699	800,000	-0,056	-0,164
236,713	-46,716	-0,291	-0,098
237,728	-32,546	-0,208	-0,080
238,742	551,660	-0,103	-0,171
239,757	111,895	-0,248	-0,207
240,772	-28,441	-0,234	-0,093
241,786	-75,942	-0,197	-0,048
242,801	268,707	-0,131	-0,159
243,815	16,972	-0,111	-0,061
244,830	-36,341	-0,159	0,059
245,844	101,654	-0,213	-0,171
246,859	-182,005	-0,227	0,003
247,874	176,905	-0,221	-0,222
248,888	439,029	-0,153	-0,231
249,903	378,571	-0,149	-0,211
250,917	800,000	-0,111	-0,223
251,932	-77,795	-0,177	0,042
252,947	-7,199	-0,204	-0,095
253,961	78,217	-0,160	-0,118
254,976	800,000	-0,066	-0,151
255,990	-97,925	-0,251	-0,044
257,005	-65,442	-0,251	-0,069
258,020	-118,982	-0,186	-0,022
259,034	-89,061	-0,237	0,048
260,049	-14,641	-0,167	-0,074
261,063	-20,010	-0,114	-0,048
262,078	94,818	-0,248	-0,195
263,093	45,615	-0,215	-0,137
264,107	51,214	-0,194	-0,127
265,122	265,819	-0,090	-0,108
266,136	196,716	-0,185	-0,195
267,151	-71,821	-0,142	-0,036
268,166	45,275	-0,218	-0,138
269,180	90,683	-0,125	0,097
270,195	154,928	-0,114	-0,108
271,209	800,000	-0,084	-0,184
272,224	-97,135	-0,086	-0,015
273,239	546,832	-0,079	-0,131
274,253	28,937	-0,272	-0,159
275,268	79,345	-0,144	-0,106
276,282	395,663	-0,165	-0,238
277,297	800,000	-0,099	-0,218
278,312	364,040	-0,180	-0,250
279,326	467,310	-0,155	-0,241
280,341	104,426	-0,135	-0,109
281,355	182,933	-0,176	-0,179
282,370	297,090	-0,161	-0,203
283,384	-55,153	-0,067	0,021
284,399	-17,789	-0,192	-0,083
285,414	252,366	-0,155	-0,182
286,428	-55,351	-0,134	0,041
287,443	26,262	-0,143	-0,082
288,457	-87,428	-0,168	0,035
289,472	4,475	-0,164	-0,083
290,487	50,058	-0,243	-0,158
291,501	18,446	-0,216	-0,118
292,516	-27,536	-0,261	-0,104
293,530	46,916	-0,084	-0,054
294,545	326,110	-0,057	-0,075
295,560	158,940	-0,107	-0,102
296,574	283,969	-0,185	-0,229
297,589	75,982	-0,114	-0,083
298,603	-41,237	-0,137	-0,048
299,618	-200,000	-0,008	-0,129
300,633	-59,448	-0,176	-0,052
301,647	-97,257	-0,153	-0,027
302,662	-121,215	-0,032	-0,004
303,676	40,693	-0,140	-0,087
304,691	84,613	-0,193	-0,145
305,706	497,085	-0,206	-0,327
306,720	800,000	-0,098	-0,213
307,735	-200,000	-0,019	-0,110
308,749	130,857	-0,110	-0,097
309,764	-40,954	-0,069	-0,024
310,779	175,116	-0,203	-0,203
311,793	62,172	-0,180	-0,123
312,808	-200,000	0,019	-0,076
313,822	179,340	-0,146	-0,146
314,837	29,390	-0,157	-0,092
315,852	800,000	-0,041	-0,097
316,866	-200,000	0,004	-0,198
317,881	184,350	-0,098	-0,100
318,895	-51,888	-0,124	-0,039
319,910	461,427	-0,119	-0,183
320,925	-115,513	-0,046	0,006
321,939	-50,987	-0,126	0,040
322,954	-168,689	-0,193	-0,005
323,968	800,000	-0,094	-0,210
324,983	-59,090	-0,140	-0,041
325,997	42,197	-0,066	-0,041
327,012	-106,699	-0,180	-0,027
328,027	79,587	-0,209	-0,154
329,041	9,909	-0,231	-0,120
330,056	176,472	-0,180	-0,179
331,070	-200,000	-0,011	0,102
332,085	6,677	-0,121	-0,062
333,100	-2,129	-0,102	-0,049
334,114	89,008	-0,131	-0,100
335,129	6,455	-0,147	0,075
336,143	103,694	-0,144	0,116
337,158	11,832	-0,122	-0,064
338,173	-134,738	-0,150	0,012
339,187	-109,083	-0,240	-0,035
340,202	-15,222	-0,195	-0,085
341,216	109,527	-0,149	-0,122
342,231	76,486	-0,127	-0,092
343,246	4,006	-0,244	-0,122
344,260	92,737	-0,138	-0,107
345,275	177,996	-0,159	-0,159
346,289	49,743	-0,105	0,068
347,304	-144,322	-0,181	-0,011
348,319	-100,284	-0,134	0,023
349,333	-163,720	-0,173	0,005
350,348	173,627	-0,047	-0,047
351,362	66,899	-0,128	-0,089
352,377	-200,000	-0,014	-0,068
353,392	196,720	-0,144	-0,150
354,406	-113,159	-0,149	0,020
355,421	209,115	1314,445	1410,911
356,435	160,932	1475,138	1411,409
