DTS Sentinel unit serial number:	SN410029Multiplexer serial number:	ORYXHardware model number:	OX2-SRSoftware version number:	ORYX F/W v4,00 Oryx Data Collector v3.7.2.0data status	okinstallation	B3 Nyhavnadifferential loss correction	single-endedforward channel	channel 1reverse channel	N/Adate	2023/12/03time	07:07:30forward acquisition time	300,00reverse acquisition time	0,00gamma	499,1914k internal	0,3201k external	0,3201temperature offset calibration	1,0000default loss term (dB/km)	0,3820temperature slope calibration	1,0000multiplexer offset coefficient	1,0000multiplexer slope coefficient	1,0000fibre end	0,00T internal ref (°C)	13,30T ext. ref 1 (°C)	-1,72T ext. ref 2 (°C)	-1,72length (m)	temperature (°C)	Stokes	anti-Stokes-744,400	800,000	-0,090	-0,213
-743,385	642,337	-0,110	0,206
-742,371	363,955	-0,113	-0,166
-741,356	-200,000	-0,039	0,302
-740,342	32,775	-0,265	-0,167
-739,327	-200,000	-0,051	0,317
-738,312	277,401	-0,182	-0,236
-737,298	-200,000	-0,007	0,190
-736,283	59,150	-0,162	-0,116
-735,269	495,450	0,127	0,213
-734,254	70,135	-0,398	-0,298
-733,239	-4,637	-0,321	0,161
-732,225	639,575	-0,087	-0,162
-731,210	158,638	0,198	0,200
-730,196	127,376	0,038	0,035
-729,181	234,190	-0,054	-0,065
-728,167	435,992	-0,115	0,182
-727,152	66,525	-0,028	-0,021
-726,137	-137,651	-0,086	-0,007
-725,123	83,834	-0,085	0,067
-724,108	3,433	-0,059	-0,031
-723,094	54,997	-0,071	-0,049
-722,079	229,587	-0,140	-0,166
-721,064	-49,155	0,036	-0,013
-720,050	138,102	0,051	-0,049
-719,035	800,000	-0,043	0,096
-718,021	83,742	-0,104	-0,083
-717,006	-6,360	0,094	-0,046
-715,991	-102,046	-0,096	0,017
-714,977	194,135	-0,156	-0,172
-713,962	642,624	0,030	-0,057
-712,948	-99,050	0,115	-0,021
-711,933	288,080	0,089	0,117
-710,918	124,606	0,056	-0,051
-709,904	-49,809	-0,120	-0,041
-708,889	364,035	-0,114	-0,168
-707,875	46,694	-0,057	0,038
-706,860	-115,249	0,080	0,011
-705,845	110,794	0,052	-0,045
-704,831	8,277	0,056	0,030
-703,816	-200,000	-0,014	0,063
-702,802	800,000	0,028	0,068
-701,787	800,000	-0,086	-0,241
-700,772	-200,000	-0,038	-0,141
-699,758	800,000	-0,019	-0,042
-698,743	70,514	0,064	-0,048
-697,729	55,453	0,020	-0,014
-696,714	-200,000	0,033	-0,143
-695,699	800,000	0,007	0,020
-694,685	-200,000	-0,000	-0,192
-693,670	-21,986	-0,119	-0,052
-692,656	79,419	0,105	0,082
-691,641	93,649	-0,080	0,066
-690,627	-176,572	0,166	0,003
-689,612	-200,000	0,012	0,055
-688,597	43,706	-0,127	-0,084
-687,583	-19,786	-0,159	0,071
-686,568	532,252	-0,072	-0,125
-685,554	800,000	-0,026	-0,083
-684,539	-19,333	-0,028	0,013
-683,524	227,290	0,032	0,038
-682,510	142,311	0,087	-0,084
-681,495	-200,000	-0,007	0,026
-680,481	259,318	0,045	0,056
-679,466	332,713	-0,078	-0,110
-678,451	-200,000	-0,009	0,052
-677,437	9,883	-0,058	-0,032
-676,422	-200,000	0,005	0,028
-675,408	-200,000	0,002	-0,071
-674,393	13,905	0,079	-0,044
-673,378	149,533	-0,124	-0,122
-672,364	-200,000	-0,045	-0,150
-671,349	-21,719	-0,097	0,042
-670,335	16,703	0,052	-0,030
-669,320	-15,615	0,104	-0,048
-668,305	-200,000	0,002	0,062
-667,291	514,186	0,040	0,068
-666,276	-81,110	-0,064	-0,015
-665,262	-68,368	-0,129	0,036
-664,247	800,000	-0,061	-0,136
-663,232	-98,861	-0,028	0,005
-662,218	800,000	0,030	0,082
-661,203	800,000	0,040	0,083
-660,189	-200,000	-0,015	-0,072
-659,174	-200,000	0,013	-0,060
-658,159	-60,932	-0,074	-0,023
-657,145	69,455	-0,057	-0,043
-656,130	-156,336	0,131	-0,006
-655,116	212,169	-0,016	-0,018
-654,101	161,611	0,074	-0,075
-653,086	-23,735	-0,140	0,060
-652,072	-115,982	-0,133	-0,018
-651,057	-200,000	-0,010	-0,128
-650,043	-11,987	-0,061	0,029
-649,028	-33,101	0,149	0,060
-648,014	-200,000	-0,032	0,139
-646,999	280,079	-0,097	0,126
-645,984	800,000	0,010	-0,022
-644,970	-200,000	0,049	0,000
-643,955	485,810	-0,069	0,115
-642,941	-176,915	0,085	-0,002
-641,926	-83,051	-0,084	-0,019
-640,911	334,641	0,017	0,024
-639,897	-200,000	-0,009	0,034
-638,882	-200,000	0,001	-0,106
-637,868	-200,000	0,001	0,091
-636,853	-56,211	0,032	0,010
-635,838	-200,000	0,007	0,051
-634,824	800,000	0,062	-0,130
-633,809	-200,000	-0,036	-0,163
-632,795	-151,743	0,029	-0,002
-631,780	-200,000	-0,023	0,083
-630,765	-139,079	-0,115	-0,009
-629,751	800,000	0,098	-0,218
-628,736	471,310	-0,054	0,088
-627,722	320,946	0,061	-0,084
-626,707	800,000	-0,034	-0,070
-625,692	800,000	0,033	0,081
-624,678	800,000	-0,031	0,067
-623,663	91,991	-0,047	0,039
-622,649	-20,625	-0,115	-0,051
-621,634	-200,000	0,003	-0,069
-620,619	137,850	-0,035	-0,033
-619,605	-42,711	0,039	0,014
-618,590	-121,853	0,078	0,009
-617,576	-200,000	-0,004	0,030
-616,561	-9,949	-0,083	-0,040
-615,546	800,000	-0,015	-0,043
-614,532	800,000	-0,012	-0,034
-613,517	-57,572	-0,173	-0,055
-612,503	620,676	-0,071	-0,130
-611,488	-200,000	-0,003	-0,031
-610,474	-200,000	0,016	0,236
-609,459	-43,777	0,081	-0,029
-608,444	280,852	-0,051	0,066
-607,430	-20,598	0,043	-0,019
-606,415	433,506	-0,019	0,030
-605,401	352,061	-0,065	0,093
-604,386	-111,307	-0,046	-0,007
-603,371	379,173	-0,039	-0,058
-602,357	36,330	0,029	-0,019
-601,342	800,000	-0,054	0,113
-600,328	110,006	-0,103	-0,089
-599,313	-98,922	-0,088	0,016
-598,298	-200,000	0,016	0,143
-597,284	20,309	0,019	0,011
-596,269	-168,870	-0,126	-0,003
-595,255	-200,000	0,009	0,090
-594,240	47,021	-0,111	0,074
-593,225	67,495	-0,050	-0,037
-592,211	26,469	-0,062	-0,037
-591,196	-100,894	-0,081	0,014
-590,182	6,032	-0,059	0,032
-589,167	800,000	-0,013	0,035
-588,152	800,000	0,029	0,079
-587,138	17,450	-0,094	-0,054
-586,123	-129,885	0,152	-0,015
-585,109	135,276	-0,085	-0,080
-584,094	-51,427	0,064	0,021
-583,079	530,369	-0,100	0,172
-582,065	405,901	0,078	0,119
-581,050	-161,762	-0,009	-0,000
-580,036	609,129	0,050	0,090
-579,021	383,650	-0,002	-0,003
-578,006	-131,720	0,128	-0,012
-576,992	800,000	-0,059	-0,142
-575,977	281,175	-0,029	-0,037
-574,963	419,311	-0,014	-0,022
-573,948	-126,978	0,080	-0,008
-572,934	-200,000	0,005	-0,016
-571,919	214,154	-0,084	-0,097
-570,904	62,872	0,049	-0,036
-569,890	-200,000	0,002	-0,034
-568,875	-108,751	0,104	0,016
-567,861	-41,907	-0,111	-0,041
-566,846	234,923	0,109	0,131
-565,831	800,000	-0,073	0,149
-564,817	697,785	-0,026	-0,051
-563,802	282,954	0,037	-0,049
-562,788	394,041	0,026	0,040
-561,773	-69,838	-0,090	-0,025
-560,758	457,073	0,066	0,106
-559,744	393,427	0,070	0,105
-558,729	-200,000	0,018	0,165
-557,715	800,000	-0,009	-0,028
-556,700	81,779	-0,081	-0,063
-555,685	-200,000	-0,025	-0,170
-554,671	671,704	-0,024	-0,045
-553,656	-49,899	0,132	-0,045
-552,642	482,226	-0,038	0,062
-551,627	95,067	-0,034	0,028
-550,612	62,331	-0,036	0,026
-549,598	-35,010	-0,056	0,022
-548,583	-173,298	-0,126	0,003
-547,569	520,685	0,065	-0,110
-546,554	-115,968	0,162	0,022
-545,539	352,630	0,056	0,080
-544,525	-200,000	0,023	0,109
-543,510	800,000	-0,031	-0,086
-542,496	-200,000	0,001	-0,106
-541,481	-68,692	-0,071	-0,020
-540,466	-77,157	0,045	-0,011
-539,452	52,673	0,083	0,057
-538,437	-103,234	-0,189	0,032
-537,423	800,000	-0,022	-0,056
-536,408	-56,242	-0,034	-0,011
-535,393	-200,000	-0,007	-0,151
-534,379	220,332	-0,024	-0,027
-533,364	47,171	-0,048	-0,032
-532,350	-200,000	0,015	0,102
-531,335	800,000	-0,022	0,062
-530,321	-102,835	-0,080	-0,014
-529,306	353,434	-0,080	0,115
-528,291	-13,108	0,044	-0,020
-527,277	-200,000	-0,002	0,015
-526,262	-200,000	0,005	-0,159
-525,248	-200,000	-0,000	-0,080
-524,233	503,829	-0,070	0,117
-523,218	-59,289	0,125	-0,038
-522,204	331,392	-0,031	0,043
-521,189	-200,000	-0,009	-0,134
-520,175	46,025	0,080	0,053
-519,160	800,000	0,070	-0,183
-518,145	-152,533	0,041	0,002
-517,131	-200,000	-0,028	0,214
-516,116	800,000	0,031	-0,078
-515,102	289,883	0,027	-0,035
-514,087	308,255	0,039	-0,052
-513,072	53,170	0,074	-0,051
-512,058	-108,364	-0,027	0,004
-511,043	800,000	-0,015	-0,042
-510,029	306,571	0,061	0,082
-509,014	47,862	0,076	0,051
-507,999	-31,964	-0,026	-0,010
-506,985	-200,000	-0,020	0,066
-505,970	649,040	-0,037	-0,068
-504,956	273,301	-0,017	-0,021
-503,941	242,247	0,064	0,078
-502,926	-200,000	-0,009	0,084
-501,912	-82,371	-0,081	0,019
-500,897	-67,293	-0,100	0,028
-499,883	87,460	-0,061	0,049
-498,868	-200,000	-0,001	-0,030
-497,853	24,803	0,040	0,024
-496,839	511,367	0,073	-0,123
-495,824	492,749	0,125	0,207
-494,810	800,000	-0,020	0,048
-493,795	211,888	0,076	-0,087
-492,781	-73,010	-0,153	0,040
-491,766	-200,000	0,007	-0,031
-490,751	90,876	0,064	0,052
-489,737	125,874	0,061	-0,055
-488,722	71,040	0,085	0,064
-487,708	-200,000	0,039	0,169
-486,693	4,175	-0,056	-0,029
-485,678	800,000	-0,017	-0,048
-484,664	97,940	-0,171	0,141
-483,649	240,428	-0,042	0,050
-482,635	-98,361	-0,034	-0,006
-481,620	-49,305	0,080	0,027
-480,605	54,268	0,077	0,053
-479,591	374,923	-0,054	0,080
-478,576	779,228	-0,025	-0,050
-477,562	-142,983	0,063	0,004
-476,547	69,838	0,093	-0,069
-475,532	-32,570	-0,065	-0,026
-474,518	-200,000	-0,011	-0,076
-473,503	663,281	0,048	0,089
-472,489	89,790	-0,023	0,018
-471,474	-200,000	-0,006	0,148
-470,459	-200,000	0,018	-0,062
-469,445	430,108	-0,068	-0,105
-468,430	-61,014	-0,089	0,027
-467,416	800,000	0,055	-0,132
-466,401	110,370	-0,058	0,050
-465,386	800,000	0,010	0,021
-464,372	501,063	0,020	0,034
-463,357	1,926	-0,046	0,024
-462,343	-142,448	0,153	-0,011
-461,328	237,537	-0,045	-0,054
-460,313	-200,000	-0,019	0,159
-459,299	-200,000	0,000	0,172
-458,284	-91,761	-0,043	0,009
-457,270	-19,572	-0,072	0,032
-456,255	-200,000	0,007	0,084
-455,241	99,354	-0,073	-0,061
-454,226	-184,788	-0,086	0,001
-453,211	-48,138	0,134	0,046
-452,197	52,040	-0,154	-0,105
-451,182	-200,000	0,002	0,045
-450,168	-68,546	0,062	-0,017
-449,153	-200,000	-0,019	-0,143
-448,138	133,329	-0,042	-0,039
-447,124	-93,520	0,096	-0,019
-446,109	-51,424	-0,109	0,036
-445,095	89,745	0,075	0,060
-444,080	-45,056	-0,051	-0,018
-443,065	-200,000	-0,014	0,048
-442,051	40,833	0,040	-0,026
-441,036	-200,000	0,005	-0,045
-440,022	-200,000	-0,001	-0,051
-439,007	-66,309	0,151	-0,043
-437,992	87,756	-0,070	0,055
-436,978	-200,000	-0,007	0,121
-435,963	800,000	0,032	0,095
-434,949	-43,760	-0,067	0,024
-433,934	-118,051	0,168	-0,021
-432,919	163,992	0,080	-0,081
-431,905	312,932	-0,026	-0,035
-430,890	-152,173	-0,110	-0,006
-429,876	-200,000	-0,026	0,104
-428,861	16,164	0,184	0,104
-427,846	800,000	0,042	-0,097
-426,832	-128,590	0,113	-0,011
-425,817	-55,893	-0,245	0,078
-424,803	19,245	-0,046	-0,026
-423,788	800,000	-0,010	0,025
-422,773	788,200	-0,050	0,099
-421,759	24,952	0,105	0,063
-420,744	-24,274	-0,013	-0,006
-419,730	154,415	0,075	0,074
-418,715	129,905	0,050	0,046
-417,701	382,245	-0,076	-0,112
-416,686	325,986	0,058	-0,080
-415,671	-195,688	0,087	-0,000
-414,657	465,859	-0,056	0,090
-413,642	96,396	-0,037	-0,030
-412,628	421,391	0,015	-0,022
-411,613	443,317	-0,057	0,090
-410,598	800,000	-0,031	-0,077
-409,584	-10,855	-0,019	-0,009
-408,569	-200,000	-0,011	0,063
-407,555	696,564	0,042	0,079
-406,540	800,000	-0,059	-0,121
-405,525	-200,000	0,003	0,015
-404,511	-200,000	0,026	-0,085
-403,496	652,117	-0,066	0,122
-402,482	134,026	-0,055	-0,051
-401,467	35,927	0,092	0,058
-400,452	-115,509	-0,124	-0,017
-399,438	-200,000	0,011	0,047
-398,423	-200,000	0,023	-0,112
-397,409	-86,920	-0,046	-0,010
-396,394	-18,538	-0,056	0,025
-395,379	800,000	0,034	-0,079
-394,365	-200,000	-0,039	-0,160
-393,350	-148,971	-0,061	-0,003
-392,336	60,500	-0,049	-0,035
-391,321	-22,276	0,058	0,025
-390,306	800,000	-0,048	-0,129
-389,292	133,643	0,134	-0,125
-388,277	-200,000	0,016	-0,184
-387,263	-107,459	-0,028	0,004
-386,248	-52,030	0,116	-0,038
-385,233	-200,000	-0,005	0,066
-384,219	328,448	-0,039	0,054
-383,204	-129,785	0,064	-0,006
-382,190	-125,183	-0,045	0,005
-381,175	-200,000	0,007	0,175
-380,160	154,796	0,028	-0,028
-379,146	639,774	-0,023	0,042
-378,131	484,929	-0,034	0,056
-377,117	246,322	0,076	-0,092
-376,102	204,723	0,021	-0,024
-375,088	418,968	0,008	0,013
-374,073	-175,484	-0,119	-0,002
-373,058	-53,544	0,147	-0,048
-372,044	207,035	-0,061	-0,069
-371,029	503,755	0,010	-0,016
-370,015	800,000	0,003	-0,007
-369,000	142,592	0,123	-0,117
-367,985	-18,022	0,105	0,047
-366,971	-100,239	-0,058	0,010
-365,956	366,352	0,047	0,068
-364,942	198,969	0,094	0,104
-363,927	-106,783	0,020	0,003
-362,912	-200,000	-0,031	0,107
-361,898	800,000	-0,013	0,038
-360,883	0,616	0,078	0,040
-359,869	-200,000	0,004	-0,078
-358,854	-135,809	-0,044	0,004
-357,839	631,289	0,039	0,072
-356,825	368,568	-0,047	0,068
-355,810	-200,000	0,015	-0,068
-354,796	800,000	-0,055	0,156
-353,781	-57,247	-0,055	-0,017
-352,766	-200,000	-0,028	-0,168
-351,752	-200,000	-0,000	0,070
-350,737	282,186	-0,031	-0,039
-349,723	800,000	0,063	0,172
-348,708	-200,000	-0,002	-0,005
-347,693	-137,994	0,176	0,014
-346,679	-200,000	0,014	-0,052
-345,664	-200,000	-0,013	-0,065
-344,650	108,640	-0,065	-0,055
-343,635	-64,236	-0,153	-0,044
-342,620	446,110	0,078	0,123
-341,606	111,529	0,056	0,048
-340,591	800,000	0,035	-0,078
-339,577	145,687	0,018	0,017
-338,562	-200,000	-0,008	-0,055
-337,548	84,028	-0,114	0,089
-336,533	-141,859	0,106	0,007
-335,518	-200,000	-0,033	0,162
-334,504	-200,000	0,000	-0,048
-333,489	61,686	-0,093	0,066
-332,475	-200,000	0,016	0,096
-331,460	55,300	0,074	-0,051
-330,445	259,336	-0,104	-0,129
-329,431	-200,000	0,001	0,025
-328,416	-200,000	-0,001	-0,109
-327,402	653,316	0,016	0,029
-326,387	-146,178	-0,031	0,002
-325,372	-88,243	-0,084	-0,018
-324,358	196,970	-0,046	-0,050
-323,343	800,000	0,022	0,048
-322,329	-88,851	-0,046	0,010
-321,314	8,697	0,041	0,022
-320,299	-200,000	-0,005	-0,044
-319,285	-200,000	-0,032	-0,144
-318,270	-190,821	-0,060	-0,000
-317,256	132,056	-0,022	0,021
-316,241	125,672	-0,113	-0,102
-315,226	800,000	0,051	0,147
-314,212	705,284	0,054	0,102
-313,197	-126,401	0,089	0,009
-312,183	-181,011	-0,077	-0,001
-311,168	716,702	0,033	0,062
-310,153	674,432	0,041	-0,077
-309,139	-99,381	-0,134	0,024
-308,124	800,000	-0,027	-0,083
-307,110	50,482	0,011	-0,008
-306,095	-109,612	0,025	-0,004
-305,080	-200,000	0,003	0,093
-304,066	-51,812	0,096	0,032
-303,051	-200,000	0,009	-0,162
-302,037	50,621	0,018	-0,012
-301,022	800,000	0,033	-0,080
-300,008	370,424	-0,047	-0,068
-298,993	41,228	0,028	0,018
-297,978	-200,000	0,010	-0,109
-296,964	260,951	0,078	-0,097
-295,949	-152,172	-0,089	-0,005
-294,935	623,353	-0,056	0,101
-293,920	-200,000	-0,000	0,064
-292,905	-194,419	0,173	-0,001
-291,891	607,094	0,059	0,106
-290,876	-200,000	-0,007	0,054
-289,862	231,902	0,008	0,009
-288,847	800,000	0,016	-0,035
-287,832	3,046	-0,044	0,023
-286,818	106,798	0,046	0,039
-285,803	481,564	0,018	-0,030
-284,789	800,000	-0,051	-0,142
-283,774	184,833	0,073	0,077
-282,759	-200,000	0,023	-0,117
-281,745	-200,000	0,023	-0,088
-280,730	40,312	0,056	-0,036
-279,716	543,730	0,021	-0,036
-278,701	102,141	0,050	0,042
-277,686	1,244	0,161	0,082
-276,672	-200,000	0,016	0,093
-275,657	-63,032	-0,095	-0,028
-274,643	-200,000	-0,003	-0,110
-273,628	-200,000	0,030	-0,121
-272,613	92,166	0,046	-0,037
-271,599	368,945	0,022	-0,032
-270,584	-153,864	0,209	-0,010
-269,570	-167,728	0,133	-0,004
-268,555	-143,386	0,123	-0,008
-267,540	-42,520	-0,083	-0,030
-266,526	535,218	-0,063	-0,107
-265,511	800,000	0,036	0,096
-264,497	-200,000	-0,003	0,095
-263,482	-149,638	0,010	0,001
-262,467	-200,000	0,029	-0,193
-261,453	800,000	-0,021	-0,053
-260,438	-200,000	0,017	-0,055
-259,424	-121,956	-0,154	-0,018
-258,409	-179,056	-0,145	-0,002
-257,395	144,183	0,103	-0,098
-256,380	-66,104	0,039	0,011
-255,365	-200,000	-0,018	-0,058
-254,351	173,069	0,013	0,013
-253,336	-15,163	0,110	0,050
-252,322	-58,326	-0,066	-0,020
-251,307	-148,702	-0,098	0,006
-250,292	-142,752	0,104	-0,007
-249,278	173,420	-0,048	0,050
-248,263	124,643	0,138	0,124
-247,249	-113,788	-0,185	0,025
-246,234	-154,439	-0,090	0,004
-245,219	67,270	0,083	-0,060
-244,205	-51,191	-0,071	0,024
-243,190	-62,429	0,040	0,012
-242,176	-55,614	0,056	-0,018
-241,161	99,768	0,087	-0,072
-240,146	800,000	0,020	0,057
-239,132	90,136	-0,058	0,046
-238,117	-114,517	-0,123	0,017
-237,103	81,413	0,112	0,086
-236,088	-73,702	-0,088	0,023
-235,073	-20,293	-0,062	0,027
-234,059	56,330	0,088	-0,061
-233,044	209,950	-0,108	-0,121
-232,030	800,000	0,068	-0,145
-231,015	342,843	-0,037	0,052
-230,000	386,757	0,030	-0,045
-228,986	146,919	-0,067	-0,065
-227,971	426,257	0,060	-0,093
-226,957	-82,563	0,057	-0,013
-225,942	581,687	0,089	0,157
-224,927	11,817	-0,045	-0,025
-223,913	369,452	0,067	0,097
-222,898	-151,718	-0,101	-0,005
-221,884	-200,000	0,024	-0,078
-220,869	800,000	0,038	-0,110
-219,855	28,237	0,112	-0,067
-218,840	-86,071	0,111	-0,024
-217,825	83,262	0,032	-0,025
-216,811	-200,000	0,032	0,113
-215,796	-146,960	-0,196	0,012
-214,782	725,572	0,017	-0,033
-213,767	248,766	0,070	0,085
-212,752	262,621	-0,121	0,150
-211,738	-200,000	-0,021	0,206
-210,723	800,000	0,065	0,175
-209,709	800,000	-0,005	-0,016
-208,694	-200,000	-0,001	0,150
-207,679	-200,000	-0,019	-0,072
-206,665	-200,000	0,005	-0,054
-205,650	351,191	-0,037	-0,052
-204,636	-85,797	0,136	0,030
-203,621	410,376	0,094	0,142
-202,606	-200,000	-0,021	-0,130
-201,592	230,153	0,118	-0,138
-200,577	52,818	-0,118	-0,080
-199,563	92,578	0,125	-0,100
-198,548	64,091	0,041	0,029
-197,533	665,543	-0,010	-0,018
-196,519	165,447	-0,022	-0,022
-195,504	51,179	-0,100	0,068
-194,490	800,000	-0,031	0,070
-193,475	78,150	-0,096	-0,073
-192,460	800,000	0,035	-0,080
-191,446	-69,031	-0,078	-0,021
-190,431	-16,833	-0,090	-0,040
-189,417	75,551	0,051	0,038
-188,402	264,545	0,057	-0,071
-187,387	-77,579	-0,021	0,005
-186,373	-54,117	0,022	-0,007
-185,358	250,999	0,033	0,040
-184,344	-19,518	0,104	0,046
-183,329	-43,413	-0,033	-0,012
-182,315	-90,428	0,079	0,016
-181,300	-162,354	-0,006	0,000
-180,285	-200,000	-0,027	-0,097
-179,271	72,820	-0,142	0,105
-178,256	-147,768	0,131	-0,008
-177,242	265,300	-0,036	0,045
-176,227	800,000	-0,015	0,047
-175,212	-132,968	-0,016	0,001
-174,198	17,952	0,059	0,033
-173,183	-112,025	-0,095	0,013
-172,169	800,000	0,060	-0,132
-171,154	-200,000	0,005	-0,021
-170,139	-49,313	0,100	-0,034
-169,125	-200,000	0,011	-0,144
-168,110	800,000	-0,064	-0,147
-167,096	-100,633	0,080	0,014
-166,081	84,411	-0,039	0,030
-165,066	767,172	-0,064	-0,124
-164,052	800,000	0,044	-0,098
-163,037	155,363	0,060	-0,059
-162,023	16,112	0,032	-0,018
-161,008	-200,000	-0,015	0,096
-159,993	-200,000	0,017	0,203
-158,979	-200,000	0,010	-0,217
-157,964	175,883	-0,011	0,011
-156,950	-78,655	-0,113	-0,027
-155,935	-148,193	-0,063	0,004
-154,920	800,000	-0,026	-0,060
-153,906	-200,000	0,007	0,135
-152,891	43,229	-0,108	-0,070
-151,877	-69,511	0,116	0,031
-150,862	-200,000	0,005	0,037
-149,847	-104,374	0,097	-0,016
-148,833	205,079	-0,021	-0,023
-147,818	546,980	-0,146	0,249
-146,804	225,594	0,144	0,166
-145,789	-200,000	0,014	0,126
-144,775	-92,653	-0,101	0,020
-143,760	-105,850	0,091	-0,014
-142,745	51,705	-0,083	0,056
-141,731	239,900	0,116	0,137
-140,716	-51,677	0,069	-0,023
-139,702	339,112	0,084	0,116
-138,687	-200,000	-0,013	0,110
-137,672	800,000	-0,027	-0,071
-136,658	53,966	-0,056	0,038
-135,643	-128,320	0,225	-0,022
-134,629	-65,352	-0,099	0,028
-133,614	119,958	-0,039	0,034
-132,599	-98,785	0,244	0,044
-131,585	800,000	-0,081	0,246
-130,570	251,987	0,090	0,109
-129,556	8,774	0,104	-0,056
-128,541	126,486	-0,080	-0,071
-127,526	-200,000	0,003	0,060
-126,512	-200,000	0,031	0,140
-125,497	219,990	-0,022	0,025
-124,483	-200,000	-0,001	-0,031
-123,468	-200,000	-0,007	-0,035
-122,453	-200,000	-0,008	-0,059
-121,439	-200,000	-0,002	-0,099
-120,424	-23,117	-0,045	0,019
-119,410	-200,000	0,027	0,190
-118,395	296,871	-0,050	0,066
-117,380	-200,000	0,004	0,070
-116,366	800,000	-0,034	0,098
-115,351	-200,000	0,013	-0,120
-114,337	113,951	-0,115	0,099
-113,322	800,000	0,018	-0,040
-112,307	-200,000	0,011	-0,039
-111,293	-200,000	-0,000	-0,040
-110,278	-22,873	0,081	-0,035
-109,264	-129,792	0,090	-0,009
-108,249	-69,166	-0,063	-0,017
-107,234	800,000	0,031	0,096
-106,220	-200,000	0,004	-0,048
-105,205	-123,236	0,097	-0,011
-104,191	-157,137	0,064	-0,003
-103,176	1,518	-0,065	-0,033
-102,162	-59,436	-0,056	-0,017
-101,147	109,099	-0,039	0,033
-100,132	187,725	0,066	0,070
-99,118	405,107	0,071	0,107
-98,103	800,000	-0,018	0,037
-97,089	-200,000	0,035	0,144
-96,074	345,779	0,069	0,097
-95,059	-200,000	0,016	0,125
-94,045	24,390	-0,035	-0,020
-93,030	82,363	0,048	-0,037
-92,016	170,997	-0,116	-0,118
-91,001	-52,820	-0,053	-0,017
-89,986	-52,073	0,076	-0,025
-88,972	-200,000	-0,022	0,145
-87,957	182,622	0,061	-0,064
-86,943	800,000	0,056	-0,130
-85,928	-131,608	-0,056	0,005
-84,913	-200,000	-0,002	0,045
-83,899	-27,418	0,083	0,034
-82,884	43,693	-0,055	0,036
-81,870	-124,160	0,096	0,010
-80,855	-200,000	-0,029	0,228
-79,840	15,366	0,078	0,043
-78,826	-200,000	0,035	0,119
-77,811	-200,000	0,006	0,080
-76,797	-98,411	-0,141	0,025
-75,782	-2,625	0,081	-0,040
-74,767	-45,372	0,203	0,071
-73,753	-200,000	0,011	-0,069
-72,738	800,000	-0,028	-0,068
-71,724	606,193	-0,037	-0,065
-70,709	-97,119	-0,030	0,006
-69,694	63,463	0,077	-0,055
-68,680	-200,000	-0,029	0,116
-67,665	800,000	-0,006	-0,015
-66,651	251,133	0,029	-0,035
-65,636	355,627	0,032	-0,046
-64,622	-15,605	-0,152	-0,068
-63,607	-29,608	0,102	-0,041
-62,592	-200,000	0,010	0,074
-61,578	52,384	0,054	0,036
-60,563	380,607	0,067	0,097
-59,549	-31,281	0,041	0,016
-58,534	-34,792	-1,729	-0,666
-57,519	307,633	-1,489	-1,971
-56,505	-200,000	-0,409	-4,483
-55,490	184,603	0,929	0,976
-54,476	800,000	5,010	11,555
-53,461	-200,000	19,190	320,055
-52,446	-200,000	740,780	2334,166
-51,432	573,287	1655,605	2868,856
-50,417	78,296	1671,015	1261,750
-49,403	21,282	1544,142	885,548
-48,388	15,167	1466,441	811,254
-47,373	17,986	1456,507	819,346
-46,359	16,659	1446,508	807,328
-45,344	13,413	1442,031	789,244
-44,330	13,324	1439,992	787,670
-43,315	13,339	1438,208	786,738
-42,300	13,347	1436,548	785,836
-41,286	13,384	1435,334	785,317
-40,271	13,339	1433,982	784,332
-39,257	13,353	1432,486	783,547
-38,242	13,368	1431,444	783,019
-37,227	13,376	1430,228	782,361
-36,213	13,398	1428,684	781,588
-35,198	13,410	1427,721	781,087
-34,184	13,420	1426,602	780,491
-33,169	13,376	1425,431	779,613
-32,154	13,447	1424,407	779,361
-31,140	13,423	1422,977	778,431
-30,125	13,457	1422,045	778,051
-29,111	13,395	1420,979	777,147
-28,096	13,387	1419,552	776,297
-27,082	13,258	1418,909	775,306
-26,067	13,312	1417,495	774,756
-25,052	13,344	1416,341	774,245
-24,038	13,300	1415,585	773,595
-23,023	13,302	1414,516	772,986
-22,009	13,243	1413,705	772,238
-20,994	13,265	1412,720	771,770
-19,979	13,311	1411,507	771,294
-18,965	13,290	1410,824	770,789
-17,950	13,264	1409,665	770,008
-16,936	13,277	1408,857	769,597
-15,921	13,217	1407,656	768,628
-14,906	13,262	1406,783	768,333
-13,892	13,282	1405,832	767,874
-12,877	13,207	1405,104	767,097
-11,863	13,220	1404,135	766,599
-10,848	13,225	1403,225	766,093
-9,833	13,196	1402,507	765,537
-8,819	13,161	1401,741	764,924
-7,804	13,137	1400,805	764,272
-6,790	13,159	1399,527	763,648
-5,775	13,188	1398,507	763,194
-4,760	13,117	1397,709	762,400
-3,746	13,086	1396,985	761,830
-2,731	13,151	1395,840	761,477
-1,717	13,097	1395,041	760,762
-0,702	13,078	1393,170	759,624
0,313	16,933	1310,020	732,137
1,327	33,206	703,687	430,879
2,342	51,000	123,231	82,509
3,356	5,133	16,472	8,556
4,371	0,908	3,342	1,689
5,386	-11,798	0,588	0,272
6,400	-200,000	0,004	0,241
7,415	-150,458	-0,350	-0,019
8,429	-84,070	-0,438	-0,098
9,444	187,587	-0,200	-0,211
10,459	17,322	-0,294	-0,165
11,473	-63,540	-0,258	-0,074
12,488	24,100	-0,398	-0,231
13,502	-114,286	-0,408	-0,055
14,517	-28,896	-0,280	-0,113
15,531	117,160	-0,395	-0,343
16,546	31,630	-0,386	-0,234
17,561	292,681	-0,296	-0,382
18,575	91,322	-0,159	-0,126
19,590	505,228	-0,133	-0,219
20,604	-24,264	-0,304	-0,128
21,619	122,190	-0,387	-0,341
22,634	26,651	-0,457	-0,270
23,648	142,019	-0,276	-0,258
24,663	82,010	-0,389	-0,297
25,677	109,130	-0,314	-0,265
26,692	122,323	-0,270	-0,238
27,707	308,165	-0,234	-0,309
28,721	109,512	-0,369	-0,312
29,736	86,239	-0,418	-0,325
30,750	121,211	-0,370	-0,325
31,765	46,932	-0,461	-0,302
32,780	34,075	-0,324	-0,199
33,794	79,636	-0,198	-0,150
34,809	76,887	-0,306	-0,229
35,823	142,228	-0,271	-0,254
36,838	273,144	-0,285	-0,356
37,853	12,811	-0,341	-0,185
38,867	51,202	-0,411	-0,275
39,882	170,565	-0,214	-0,216
40,896	178,279	-0,355	-0,366
41,911	178,942	-0,215	-0,222
42,926	219,140	-0,248	-0,280
43,940	-31,561	-0,455	-0,179
44,955	-8,619	-0,264	-0,125
45,969	-24,366	-0,363	-0,152
46,984	20,488	-0,431	-0,245
47,999	-34,107	-0,411	-0,159
49,013	24,021	-0,354	-0,205
50,028	218,323	-0,275	-0,309
51,042	90,836	-0,394	-0,311
52,057	198,551	-0,225	-0,243
53,071	84,726	-0,299	-0,231
54,086	463,597	-0,245	-0,386
55,101	43,176	-0,253	-0,162
56,115	-40,240	-0,395	-0,144
57,130	-13,988	-0,286	-0,129
58,144	46,018	-0,279	-0,182
59,159	134,753	-0,274	-0,250
60,174	54,429	-0,327	-0,221
61,188	33,787	-0,270	-0,165
62,203	29,548	-0,300	-0,179
63,217	76,719	-0,287	-0,214
64,232	-51,839	-0,349	-0,113
65,247	52,404	-0,363	-0,244
66,261	28,521	-0,380	-0,226
67,276	74,284	-0,427	-0,315
68,290	208,551	-0,298	-0,328
69,305	69,848	-0,259	-0,187
70,320	-35,489	-0,297	-0,113
71,334	31,280	-0,350	-0,211
72,349	217,193	-0,275	-0,308
73,363	157,196	-0,296	-0,288
74,378	71,374	-0,248	-0,181
75,393	64,545	-0,371	-0,263
76,407	75,628	-0,284	-0,211
77,422	800,000	-0,147	-0,340
78,436	23,374	-0,375	-0,216
79,451	125,040	-0,261	-0,231
80,466	226,572	-0,300	-0,343
81,480	37,517	-0,346	-0,215
82,495	-103,159	-0,314	-0,052
83,509	110,862	-0,158	-0,133
84,524	-15,730	-0,309	-0,138
85,539	-19,418	-0,318	-0,138
86,553	-46,700	-0,353	-0,121
87,568	26,468	-0,438	-0,257
88,582	-53,566	-0,335	-0,107
89,597	-9,469	-0,370	-0,173
90,611	10,826	-0,287	-0,153
91,626	165,194	-0,180	-0,178
92,641	52,908	-0,192	-0,128
93,655	-48,258	-0,273	-0,092
94,670	118,882	-0,332	-0,288
95,684	43,276	-0,240	-0,154
96,699	367,114	-0,259	-0,367
97,714	-86,367	-0,140	-0,030
98,728	19,861	-0,280	-0,158
99,743	-69,849	-0,332	-0,088
100,757	-41,949	-0,251	-0,090
101,772	129,290	-0,298	-0,267
102,787	187,209	-0,172	-0,181
103,801	-137,968	-0,390	-0,030
104,816	35,688	-0,257	-0,158
105,830	-74,639	-0,227	-0,057
106,845	-56,855	-0,306	-0,094
107,860	91,479	-0,208	-0,163
108,874	81,741	-0,305	-0,231
109,889	117,709	-0,280	-0,241
110,903	12,186	-0,269	-0,144
111,918	-116,302	-0,371	-0,048
112,933	-79,973	-0,250	-0,058
113,947	90,618	-0,234	-0,183
114,962	183,761	-0,163	-0,169
115,976	296,241	-0,207	-0,267
116,991	376,306	-0,197	-0,282
118,006	-7,050	-0,432	-0,205
119,020	320,956	-0,146	-0,195
120,035	17,366	-0,302	-0,167
121,049	-141,924	-0,282	-0,019
122,064	-53,111	-0,240	-0,077
123,079	-41,610	-0,400	-0,143
124,093	94,533	-0,204	-0,162
125,108	135,202	-0,181	-0,164
126,122	344,712	-0,226	-0,312
127,137	-8,167	-0,225	-0,106
128,151	-55,984	-0,274	-0,085
129,166	199,254	-0,211	-0,227
130,181	302,542	-0,131	-0,171
131,195	201,733	-0,232	-0,250
132,210	-91,518	-0,410	-0,081
133,224	620,690	-0,117	-0,206
134,239	-100,430	-0,398	-0,068
135,254	72,339	-0,298	-0,217
136,268	78,337	-0,254	-0,190
137,283	-82,037	-0,260	-0,059
138,297	33,183	-0,179	-0,108
139,312	37,407	-0,256	-0,158
140,327	156,765	-0,108	-0,105
141,341	6,442	-0,265	-0,137
142,356	46,136	-0,197	-0,127
143,370	-17,011	-0,270	-0,119
144,385	147,896	-0,260	-0,245
145,400	49,983	-0,199	-0,131
146,414	126,630	-0,287	-0,254
147,429	-83,252	-0,307	-0,068
148,443	-39,320	-0,285	-0,104
149,458	58,511	-0,145	-0,100
150,473	149,322	-0,200	-0,189
151,487	16,152	-0,260	-0,143
152,502	258,645	-0,206	-0,248
153,516	466,015	-0,182	-0,285
154,531	236,759	-0,227	-0,263
155,546	-131,455	-0,179	-0,016
156,560	80,074	-0,175	-0,131
157,575	-37,800	-0,221	-0,082
158,589	-73,851	-0,359	-0,090
159,604	46,522	-0,359	-0,232
160,619	-26,895	-0,275	-0,112
161,633	246,926	-0,092	-0,108
162,648	-12,116	-0,323	-0,147
163,662	88,489	-0,257	-0,199
164,677	-4,727	-0,203	-0,097
165,692	13,042	-0,165	-0,089
166,706	214,056	-0,150	-0,166
167,721	125,525	-0,208	-0,183
168,735	42,978	-0,245	-0,155
169,750	434,624	-0,112	-0,170
170,764	-145,480	-0,154	-0,010
171,779	127,786	-0,130	-0,115
172,794	16,676	-0,252	-0,139
173,808	22,646	-0,186	-0,106
174,823	250,529	-0,266	-0,315
175,837	70,991	-0,290	-0,209
176,852	108,319	-0,275	-0,228
177,867	93,593	-0,227	-0,179
178,881	100,647	-0,213	-0,172
179,896	-33,068	-0,194	-0,075
180,910	202,050	-0,193	-0,207
181,925	508,306	-0,150	-0,243
182,940	163,628	-0,322	-0,316
183,954	111,776	-0,250	-0,210
184,969	180,991	-0,134	-0,137
185,983	-130,303	-0,176	-0,016
186,998	-59,353	-0,272	-0,081
188,013	294,892	-0,144	-0,184
189,027	26,827	-0,240	-0,140
190,042	291,680	-0,232	-0,295
191,056	720,599	-0,137	-0,254
192,071	241,106	-0,204	-0,238
193,086	33,729	-0,157	-0,095
194,100	101,056	-0,265	-0,215
195,115	800,000	-0,053	-0,130
196,129	800,000	-0,075	-0,173
197,144	-39,869	-0,373	-0,135
198,159	-177,798	-0,251	-0,004
199,173	-34,821	-0,254	-0,096
200,188	-16,943	-0,209	-0,091
201,202	-200,000	-0,042	-0,242
202,217	-20,026	-0,176	-0,075
203,232	465,162	-0,104	-0,162
204,246	121,269	-0,244	-0,211
205,261	-129,216	-0,288	-0,028
206,275	30,684	-0,253	-0,150
207,290	8,037	-0,295	-0,153
208,304	139,301	-0,137	-0,126
209,319	311,879	-0,119	-0,155
210,334	354,809	-0,075	-0,104
211,348	247,828	-0,221	-0,260
212,363	90,602	-0,175	-0,136
213,377	90,184	-0,156	-0,121
214,392	-35,448	-0,128	-0,048
215,407	-34,602	-0,139	-0,053
216,421	168,390	-0,206	-0,204
217,436	185,390	-0,081	-0,084
218,450	-12,367	-0,138	-0,062
219,465	390,154	-0,197	-0,284
220,480	482,782	-0,175	-0,278
221,494	129,945	-0,158	-0,140
222,509	47,645	-0,206	-0,133
223,523	175,010	-0,166	-0,167
224,538	20,613	-0,154	-0,086
225,553	172,346	-0,207	-0,207
226,567	92,276	-0,127	-0,099
227,582	78,502	-0,204	-0,151
228,596	28,378	-0,142	-0,083
229,611	-14,424	-0,268	-0,119
230,626	-179,829	-0,305	0,004
231,640	800,000	-0,109	-0,246
232,655	-20,737	-0,258	-0,109
233,669	23,791	-0,232	-0,132
234,684	-28,676	-0,150	-0,060
235,699	-121,780	-0,154	-0,017
236,713	81,747	-0,128	-0,096
237,728	239,931	-0,042	-0,049
238,742	45,760	-0,254	-0,162
239,757	133,698	-0,145	-0,130
240,772	28,646	-0,179	-0,105
241,786	536,005	-0,105	-0,173
242,801	95,179	-0,085	-0,067
243,815	7,449	-0,226	-0,117
244,830	-1,507	-0,199	-0,097
245,844	-26,567	-0,104	-0,042
246,859	-153,394	-0,249	0,012
247,874	456,081	-0,130	-0,200
248,888	238,103	-0,147	-0,169
249,903	144,652	-0,085	0,078
250,917	33,961	-0,189	-0,114
251,932	-42,716	-0,166	-0,058
252,947	300,165	-0,082	-0,105
253,961	191,392	-0,247	-0,258
254,976	216,921	-0,192	-0,212
255,990	83,284	-0,187	-0,141
257,005	84,342	-0,207	-0,156
258,020	-22,666	-0,179	-0,075
259,034	144,285	-0,039	-0,036
260,049	-38,008	-0,197	-0,072
261,063	493,970	-0,117	-0,186
262,078	5,949	-0,176	-0,090
263,093	-35,625	-0,235	0,088
264,107	-17,697	-0,251	-0,109
265,122	-60,428	-0,091	-0,026
266,136	38,991	-0,241	-0,149
267,151	-200,000	-0,002	-0,086
268,166	85,292	-0,173	-0,131
269,180	87,084	-0,248	-0,189
270,195	130,311	-0,195	-0,173
271,209	686,475	-0,015	-0,028
272,224	322,317	-0,129	-0,171
273,239	-49,286	-0,194	-0,063
274,253	19,877	-0,064	0,036
275,268	231,281	-0,061	-0,069
276,282	63,933	-0,162	-0,112
277,297	142,575	-0,228	-0,210
278,312	800,000	-0,085	-0,180
279,326	388,630	-0,166	-0,238
280,341	-59,376	-0,087	-0,026
281,355	-131,373	-0,098	-0,009
282,370	-24,372	-0,228	-0,093
283,384	800,000	-0,151	-0,308
284,399	206,929	-0,168	-0,181
285,414	52,311	-0,200	-0,132
286,428	-19,899	-0,191	-0,081
287,443	61,300	-0,188	-0,129
288,457	270,957	-0,062	-0,076
289,472	73,820	-0,117	-0,085
290,487	107,417	-0,188	-0,154
291,501	204,637	-0,156	-0,167
292,516	-58,827	-0,226	-0,067
293,530	294,656	-0,193	-0,244
294,545	85,672	-0,147	-0,111
295,560	123,913	-0,112	-0,097
296,574	21,502	-0,251	-0,141
297,589	-3,536	-0,076	-0,036
298,603	137,799	-0,174	-0,157
299,618	-54,397	-0,149	-0,046
300,633	313,047	-0,141	-0,183
301,647	800,000	-0,021	-0,060
302,662	-58,308	-0,087	-0,026
303,676	68,276	-0,096	-0,068
304,691	136,478	-0,162	-0,146
305,706	-88,595	-0,217	-0,044
306,720	-34,438	-0,294	-0,110
307,735	-200,000	-0,011	-0,175
308,749	-59,189	-0,118	0,035
309,764	-200,000	-0,044	-0,176
310,779	138,613	-0,120	-0,108
311,793	100,130	-0,151	-0,121
312,808	304,100	-0,199	-0,255
313,822	800,000	-0,110	-0,256
314,837	-200,000	-0,069	-0,252
315,852	-200,000	-0,004	-0,130
316,866	-200,000	0,005	-0,072
317,881	-42,421	-0,086	-0,030
318,895	14,930	-0,138	-0,074
319,910	19,047	-0,226	-0,124
320,925	276,902	-0,115	-0,141
321,939	-200,000	-0,042	-0,198
322,954	98,556	-0,046	-0,036
323,968	23,794	-0,143	-0,081
324,983	376,999	-0,098	-0,138
325,997	-200,000	-0,057	-0,189
327,012	57,054	-0,106	-0,071
328,027	800,000	-0,074	-0,143
329,041	733,283	-0,134	-0,248
330,056	505,512	-0,086	-0,137
331,070	252,285	-0,105	-0,123
332,085	10,968	-0,274	-0,144
333,100	16,502	-0,239	-0,130
334,114	178,204	-0,090	-0,090
335,129	74,484	-0,295	-0,213
336,143	202,661	-0,085	-0,091
337,158	800,000	-0,069	0,149
338,173	104,600	-0,136	-0,110
339,187	-71,403	-0,158	-0,040
340,202	194,322	-0,134	-0,140
341,216	-54,768	-0,077	-0,024
342,231	34,602	-0,272	-0,163
343,246	-169,757	-0,236	0,006
344,260	-200,000	0,022	-0,108
345,275	77,377	-0,137	-0,100
346,289	49,079	-0,039	-0,025
347,304	-200,000	-0,039	-0,142
348,319	800,000	-0,036	-0,092
349,333	800,000	0,094	-0,183
350,348	60,019	-0,249	-0,168
351,362	-120,185	-0,095	0,011
352,377	587,499	-0,135	-0,230
353,392	-200,000	-0,023	-0,121
354,406	723,101	-0,024	-0,044
355,421	209,605	1313,635	1414,174
356,435	161,328	1474,224	1414,660
