DTS Sentinel unit serial number:	SN410029Multiplexer serial number:	ORYXHardware model number:	OX2-SRSoftware version number:	ORYX F/W v4,00 Oryx Data Collector v3.7.2.0data status	okinstallation	B3 Nyhavnadifferential loss correction	single-endedforward channel	channel 1reverse channel	N/Adate	2023/11/28time	23:47:30forward acquisition time	300,00reverse acquisition time	0,00gamma	499,1914k internal	0,3212k external	0,3212temperature offset calibration	1,0000default loss term (dB/km)	0,3820temperature slope calibration	1,0000multiplexer offset coefficient	1,0000multiplexer slope coefficient	1,0000fibre end	0,00T internal ref (°C)	8,89T ext. ref 1 (°C)	-5,44T ext. ref 2 (°C)	-5,59length (m)	temperature (°C)	Stokes	anti-Stokes-744,400	194,024	-0,167	-0,183
-743,385	-200,000	-0,052	0,288
-742,371	43,334	-0,252	-0,167
-741,356	-200,000	0,044	0,462
-740,342	375,070	-0,137	-0,203
-739,327	225,106	-0,152	0,178
-738,312	347,404	-0,212	-0,304
-737,298	-200,000	0,037	0,310
-736,283	76,333	-0,173	-0,132
-735,269	-200,000	0,035	0,250
-734,254	454,326	-0,154	-0,247
-733,239	63,828	-0,225	0,164
-732,225	800,000	-0,118	-0,266
-731,210	800,000	0,083	0,246
-730,196	357,133	0,038	-0,055
-729,181	-200,000	0,012	-0,103
-728,167	393,227	-0,061	-0,092
-727,152	-60,027	-0,081	-0,025
-726,137	2,510	-0,015	-0,008
-725,123	-0,187	-0,057	0,029
-724,108	800,000	-0,027	-0,075
-723,094	541,099	-0,034	-0,060
-722,079	82,042	-0,188	-0,147
-721,064	-80,405	0,223	0,054
-720,050	800,000	0,026	-0,079
-719,035	-200,000	0,002	0,111
-718,021	800,000	-0,035	0,083
-717,006	237,694	-0,174	-0,210
-715,991	201,531	-0,127	-0,142
-714,977	5,023	-0,018	0,009
-713,962	-32,077	0,080	0,032
-712,948	800,000	-0,060	0,171
-711,933	800,000	0,037	0,096
-710,918	-200,000	-0,017	0,113
-709,904	-8,071	-0,086	0,042
-708,889	-61,855	0,086	-0,026
-707,875	40,480	-0,122	-0,079
-706,860	-112,449	-0,022	0,003
-705,845	-111,979	-0,183	0,026
-704,831	-28,507	0,100	0,041
-703,816	171,304	0,074	0,077
-702,802	-200,000	-0,016	-0,087
-701,787	272,689	-0,064	-0,083
-700,772	-200,000	-0,002	0,008
-699,758	-2,785	0,061	0,031
-698,743	-123,699	0,122	-0,014
-697,729	214,088	0,065	0,075
-696,714	-200,000	-0,003	0,068
-695,699	-36,148	-0,174	-0,068
-694,685	-200,000	-0,029	-0,102
-693,670	657,990	0,060	0,113
-692,656	-17,072	0,039	-0,018
-691,641	-200,000	-0,017	0,116
-690,627	240,162	-0,067	0,081
-689,612	-179,506	0,105	-0,002
-688,597	-64,266	-0,233	0,068
-687,583	99,118	-0,102	-0,085
-686,568	800,000	0,037	-0,098
-685,554	-200,000	0,032	0,141
-684,539	-3,080	-0,083	0,042
-683,524	-200,000	-0,007	0,056
-682,510	-200,000	0,033	0,141
-681,495	117,789	0,074	0,066
-680,481	-200,000	-0,008	-0,080
-679,466	5,159	-0,182	-0,096
-678,451	-82,116	-0,031	-0,007
-677,437	-93,548	0,168	0,033
-676,422	-200,000	-0,012	-0,154
-675,408	109,524	-0,047	-0,040
-674,393	171,463	0,079	0,082
-673,378	76,588	0,064	0,049
-672,364	-60,951	-0,148	-0,045
-671,349	28,078	-0,081	-0,049
-670,335	-86,499	0,067	0,015
-669,320	-78,038	0,123	0,030
-668,305	217,464	-0,039	-0,045
-667,291	800,000	-0,101	0,257
-666,276	29,917	-0,053	0,032
-665,262	-200,000	-0,023	-0,100
-664,247	-200,000	-0,004	0,019
-663,232	54,277	0,092	0,064
-662,218	748,468	0,065	0,126
-661,203	250,376	-0,110	0,136
-660,189	800,000	0,032	0,076
-659,174	-180,418	-0,139	0,002
-658,159	-200,000	0,016	-0,057
-657,145	-200,000	-0,005	-0,115
-656,130	-57,166	-0,039	-0,012
-655,116	542,854	0,026	-0,046
-654,101	632,884	-0,091	0,168
-653,086	192,391	-0,044	-0,048
-652,072	217,348	-0,112	-0,129
-651,057	225,188	-0,085	-0,100
-650,043	-98,819	-0,279	0,051
-649,028	769,578	0,036	-0,071
-648,014	-102,152	-0,110	-0,019
-646,999	-104,329	-0,024	0,004
-645,984	-14,136	-0,077	0,036
-644,970	-28,866	-0,083	0,034
-643,955	800,000	-0,042	-0,102
-642,941	216,196	-0,088	-0,102
-641,926	124,277	-0,047	0,043
-640,911	800,000	-0,027	0,072
-639,897	295,398	-0,064	0,085
-638,882	147,719	-0,121	0,118
-637,868	-200,000	0,034	-0,140
-636,853	-200,000	-0,004	-0,089
-635,838	-200,000	0,042	-0,154
-634,824	289,294	-0,129	-0,169
-633,809	-24,514	0,184	0,079
-632,795	-200,000	-0,030	0,117
-631,780	-200,000	0,002	-0,051
-630,765	165,073	-0,028	-0,029
-629,751	301,355	-0,034	-0,045
-628,736	0,402	-0,049	-0,025
-627,722	99,164	0,097	0,081
-626,707	-200,000	0,022	0,148
-625,692	521,099	0,093	0,158
-624,678	-116,122	0,063	0,008
-623,663	-200,000	0,024	0,152
-622,649	-22,320	-0,021	-0,009
-621,634	-161,142	-0,065	-0,002
-620,619	546,044	-0,039	-0,067
-619,605	-20,987	0,129	-0,057
-618,590	-200,000	0,015	0,065
-617,576	-89,944	0,143	0,030
-616,561	432,783	-0,062	-0,098
-615,546	-69,732	0,126	-0,034
-614,532	800,000	0,027	-0,070
-613,517	58,697	-0,109	-0,077
-612,503	98,310	-0,073	-0,061
-611,488	245,347	0,121	-0,147
-610,474	-119,770	0,061	-0,007
-609,459	-35,484	-0,116	-0,045
-608,444	427,933	-0,082	-0,128
-607,430	-200,000	-0,098	0,000
-606,415	-56,124	-0,130	-0,042
-605,401	116,120	0,050	0,044
-604,386	-200,000	-0,013	0,049
-603,371	-200,000	-0,007	0,066
-602,357	776,350	0,056	0,110
-601,342	61,092	-0,083	-0,060
-600,328	-200,000	-0,025	-0,094
-599,313	-110,084	-0,164	0,024
-598,298	800,000	-0,059	0,130
-597,284	-29,814	0,116	0,047
-596,269	241,439	0,127	0,153
-595,255	14,407	0,110	-0,062
-594,240	-200,000	-0,009	0,121
-593,225	236,886	-0,103	-0,123
-592,211	200,802	0,056	-0,062
-591,196	84,164	0,078	-0,062
-590,182	323,805	0,093	-0,128
-589,167	-200,000	0,004	0,039
-588,152	-82,049	-0,097	-0,023
-587,138	65,103	0,124	0,090
-586,123	88,801	-0,108	-0,086
-585,109	-200,000	-0,003	-0,074
-584,094	-128,148	-0,063	-0,006
-583,079	-200,000	0,001	0,018
-582,065	-200,000	0,015	0,114
-581,050	137,605	0,047	0,045
-580,036	15,247	-0,161	-0,091
-579,021	-43,621	-0,169	-0,061
-578,006	482,563	0,079	-0,131
-576,992	-18,163	-0,090	-0,040
-575,977	-141,247	0,085	-0,006
-574,963	800,000	-0,021	-0,058
-573,948	220,962	0,090	0,104
-572,934	-200,000	-0,006	0,067
-571,919	313,054	-0,059	-0,080
-570,904	-200,000	-0,001	0,044
-569,890	800,000	0,013	-0,027
-568,875	35,429	-0,039	-0,024
-567,861	166,366	0,072	0,073
-566,846	-200,000	0,007	-0,048
-565,831	127,152	-0,052	0,048
-564,817	-200,000	-0,007	-0,126
-563,802	316,478	-0,067	-0,091
-562,788	-52,709	0,013	-0,004
-561,773	108,702	0,022	-0,019
-560,758	177,448	-0,071	0,075
-559,744	-200,000	0,006	-0,086
-558,729	67,935	0,104	0,077
-557,715	800,000	-0,017	0,038
-556,700	-200,000	-0,022	-0,080
-555,685	800,000	-0,017	-0,042
-554,671	419,467	-0,018	-0,027
-553,656	-200,000	0,004	0,099
-552,642	-200,000	0,005	-0,049
-551,627	178,449	-0,024	-0,025
-550,612	13,675	-0,141	-0,078
-549,598	-24,467	0,073	-0,031
-548,583	65,735	0,045	-0,033
-547,569	-200,000	-0,000	-0,165
-546,554	95,023	-0,008	-0,007
-545,539	575,310	0,094	0,165
-544,525	428,049	-0,036	0,056
-543,510	-20,705	0,027	-0,012
-542,496	80,353	-0,078	-0,060
-541,481	-200,000	0,006	-0,192
-540,466	-200,000	-0,016	-0,056
-539,452	-200,000	-0,014	0,056
-538,437	150,249	0,092	0,089
-537,423	-200,000	0,008	0,047
-536,408	-200,000	0,040	0,148
-535,393	115,274	-0,088	0,078
-534,379	95,465	0,087	-0,071
-533,364	-94,415	-0,070	0,014
-532,350	-200,000	0,033	0,124
-531,335	-62,589	0,071	0,021
-530,321	-83,110	-0,026	-0,006
-529,306	99,995	-0,057	-0,047
-528,291	-58,049	-0,029	-0,009
-527,277	-90,269	-0,076	0,016
-526,262	110,795	0,049	0,043
-525,248	14,667	-0,015	-0,008
-524,233	-200,000	-0,008	0,072
-523,218	-200,000	0,030	-0,121
-522,204	-200,000	0,026	0,103
-521,189	60,483	-0,069	-0,049
-520,175	47,912	-0,076	-0,051
-519,160	315,526	-0,028	0,038
-518,145	551,478	-0,026	0,044
-517,131	236,252	0,069	0,082
-516,116	800,000	-0,051	0,146
-515,102	551,264	0,090	-0,155
-514,087	220,530	-0,108	-0,125
-513,072	508,389	-0,075	-0,125
-512,058	800,000	-0,013	0,029
-511,043	-74,357	0,088	-0,023
-510,029	109,079	0,056	-0,048
-509,014	-24,340	0,072	0,031
-507,999	800,000	0,058	0,159
-506,985	180,382	-0,093	0,098
-505,970	58,507	-0,047	-0,033
-504,956	-115,705	0,132	0,018
-503,941	275,392	0,017	-0,021
-502,926	64,784	0,083	-0,060
-501,912	-200,000	0,003	-0,096
-500,897	-78,869	-0,058	-0,014
-499,883	-200,000	-0,008	0,047
-498,868	-84,259	-0,250	0,056
-497,853	12,027	-0,089	-0,049
-496,839	117,945	0,071	-0,063
-495,824	800,000	-0,016	0,037
-494,810	-146,989	0,103	-0,006
-493,795	143,977	0,096	-0,092
-492,781	-200,000	0,015	-0,095
-491,766	-200,000	-0,013	-0,058
-490,751	524,442	0,042	-0,071
-489,737	427,447	0,032	0,050
-488,722	127,297	-0,082	0,075
-487,708	-200,000	0,004	0,032
-486,693	-47,909	0,056	0,019
-485,678	121,673	-0,025	0,022
-484,664	122,452	0,101	-0,090
-483,649	523,306	0,044	0,074
-482,635	-166,489	-0,044	0,001
-481,620	-200,000	-0,014	0,105
-480,605	-200,000	0,010	-0,105
-479,591	800,000	0,030	0,067
-478,576	-200,000	-0,042	-0,145
-477,562	800,000	-0,062	-0,184
-476,547	-200,000	0,017	-0,133
-475,532	135,018	0,070	0,065
-474,518	425,529	0,076	0,118
-473,503	615,895	0,011	0,020
-472,489	800,000	0,022	-0,051
-471,474	800,000	0,049	0,118
-470,459	83,575	-0,157	0,123
-469,445	208,081	-0,108	0,122
-468,430	-126,140	0,020	-0,002
-467,416	-200,000	-0,063	0,208
-466,401	134,640	-0,068	0,064
-465,386	6,864	-0,067	0,036
-464,372	-200,000	-0,010	-0,054
-463,357	-56,586	-0,046	-0,015
-462,343	211,640	-0,084	0,095
-461,328	800,000	0,059	0,151
-460,313	-116,752	-0,087	-0,011
-459,299	525,561	0,082	0,140
-458,284	114,107	0,079	0,069
-457,270	800,000	0,025	0,074
-456,255	81,524	-0,078	-0,060
-455,241	-200,000	0,014	-0,119
-454,226	742,160	-0,011	-0,021
-453,211	-101,848	-0,069	-0,012
-452,197	800,000	-0,036	0,094
-451,182	131,145	0,151	0,139
-450,168	325,050	-0,094	0,129
-449,153	-99,302	-0,242	0,043
-448,138	113,777	0,052	0,045
-447,124	800,000	0,014	-0,039
-446,109	-200,000	-0,026	-0,113
-445,095	312,277	0,080	0,108
-444,080	-200,000	-0,020	0,076
-443,065	99,186	0,075	0,062
-442,051	203,649	0,046	-0,051
-441,036	262,264	-0,117	-0,145
-440,022	693,508	-0,009	-0,017
-439,007	-70,262	0,112	0,030
-437,992	800,000	0,046	-0,109
-436,978	77,248	-0,091	-0,069
-435,963	12,208	0,034	0,019
-434,949	4,402	-0,111	-0,058
-433,934	-200,000	-0,004	0,060
-432,919	-200,000	0,009	0,033
-431,905	-73,330	0,027	-0,007
-430,890	33,516	0,032	-0,020
-429,876	41,507	-0,041	-0,026
-428,861	800,000	0,030	0,081
-427,846	459,083	-0,050	-0,079
-426,832	-200,000	0,004	0,088
-425,817	800,000	-0,029	0,075
-424,803	565,375	0,041	0,071
-423,788	112,856	-0,078	-0,067
-422,773	-132,971	0,191	0,017
-421,759	-200,000	-0,025	-0,080
-420,744	322,721	0,019	-0,026
-419,730	380,703	0,050	-0,074
-418,715	656,525	-0,011	-0,021
-417,701	-200,000	0,036	-0,125
-416,686	210,742	-0,079	-0,089
-415,671	244,505	0,052	0,062
-414,657	-200,000	-0,012	0,069
-413,642	-78,211	-0,120	-0,029
-412,628	800,000	-0,016	-0,048
-411,613	238,599	0,061	-0,073
-410,598	-84,423	-0,144	0,032
-409,584	-200,000	0,026	-0,177
-408,569	38,448	0,154	0,098
-407,555	493,161	-0,049	0,080
-406,540	14,951	0,098	-0,055
-405,525	-18,505	-0,113	-0,050
-404,511	-30,933	-0,118	-0,047
-403,496	-66,249	0,118	-0,033
-402,482	800,000	0,039	-0,096
-401,467	-96,019	0,152	-0,029
-400,452	302,429	0,019	0,025
-399,438	-163,671	0,098	-0,003
-398,423	-200,000	-0,003	-0,145
-397,409	800,000	-0,052	-0,137
-396,394	322,559	0,094	0,128
-395,379	46,470	0,081	-0,053
-394,365	208,337	0,092	0,103
-393,350	-200,000	-0,041	0,213
-392,336	-118,916	-0,120	-0,015
-391,321	-200,000	0,001	-0,055
-390,306	-66,878	0,061	-0,017
-389,292	46,065	0,069	0,046
-388,277	11,663	0,066	0,036
-387,263	183,904	0,069	0,074
-386,248	147,621	0,068	0,066
-385,233	-200,000	-0,024	0,310
-384,219	-149,851	0,055	0,003
-383,204	302,904	-0,027	-0,036
-382,190	64,051	-0,031	0,022
-381,175	-83,855	-0,076	0,017
-380,160	26,056	0,161	-0,096
-379,146	27,518	-0,061	0,037
-378,131	800,000	-0,050	-0,100
-377,117	358,812	0,080	-0,115
-376,102	641,045	-0,030	-0,055
-375,088	202,565	0,030	0,033
-374,073	782,840	0,042	-0,083
-373,058	-71,668	0,215	0,057
-372,044	-200,000	0,010	-0,088
-371,029	-173,475	-0,108	-0,002
-370,015	106,230	-0,129	0,109
-369,000	10,080	-0,128	-0,069
-367,985	800,000	0,031	-0,091
-366,971	252,239	-0,111	-0,135
-365,956	800,000	0,021	-0,056
-364,942	-200,000	-0,006	0,121
-363,927	126,638	-0,101	0,092
-362,912	-87,848	-0,136	0,029
-361,898	-200,000	-0,008	0,056
-360,883	-200,000	-0,026	0,120
-359,869	66,582	0,042	0,030
-358,854	200,627	-0,018	-0,019
-357,839	-119,625	0,107	0,013
-356,825	137,807	-0,040	0,037
-355,810	-200,000	0,005	0,022
-354,796	178,613	0,056	0,058
-353,781	-67,929	-0,145	0,040
-352,766	300,416	-0,023	0,030
-351,752	-60,450	-0,074	0,022
-350,737	133,677	0,065	-0,060
-349,723	-200,000	0,025	0,089
-348,708	-200,000	0,031	0,256
-347,693	100,112	-0,068	-0,056
-346,679	-13,046	-0,087	0,040
-345,664	-140,561	0,099	-0,007
-344,650	372,342	0,055	-0,081
-343,635	-200,000	0,023	0,105
-342,620	800,000	0,013	0,035
-341,606	3,816	0,074	-0,038
-340,591	-200,000	-0,033	0,243
-339,577	800,000	0,042	-0,129
-338,562	98,308	-0,099	-0,081
-337,548	-54,907	0,033	0,011
-336,533	-75,140	-0,073	-0,018
-335,518	-153,822	-0,131	-0,006
-334,504	-200,000	0,001	0,097
-333,489	800,000	-0,053	-0,130
-332,475	800,000	-0,069	-0,188
-331,460	-200,000	0,032	-0,169
-330,445	-200,000	-0,000	-0,094
-329,431	473,701	0,033	-0,053
-328,416	-200,000	-0,023	0,129
-327,402	-25,017	0,109	-0,046
-326,387	800,000	-0,036	-0,093
-325,372	800,000	-0,053	-0,133
-324,358	-95,057	-0,121	0,023
-323,343	-22,763	-0,079	0,034
-322,329	54,900	-0,001	-0,001
-321,314	98,843	0,161	0,133
-320,299	696,745	0,084	0,158
-319,285	-200,000	-0,023	0,094
-318,270	-134,881	-0,052	0,004
-317,256	132,659	0,081	0,074
-316,241	800,000	-0,014	-0,029
-315,226	-21,945	0,089	0,038
-314,212	-42,256	-0,035	0,013
-313,197	122,435	-0,013	0,012
-312,183	800,000	-0,020	0,048
-311,168	800,000	-0,020	-0,041
-310,153	-200,000	0,058	-0,201
-309,139	372,433	0,081	-0,117
-308,124	584,351	0,030	0,053
-307,110	64,642	-0,033	0,024
-306,095	51,040	0,054	-0,037
-305,080	-71,585	0,069	0,018
-304,066	800,000	0,028	0,061
-303,051	179,044	0,004	-0,004
-302,037	800,000	0,059	-0,130
-301,022	511,012	0,044	-0,074
-300,008	406,164	0,106	0,160
-298,993	800,000	-0,025	0,070
-297,978	4,107	-0,061	0,032
-296,964	-196,433	0,041	0,000
-295,949	-101,298	-0,145	0,025
-294,935	-200,000	0,022	-0,085
-293,920	-56,160	0,085	-0,027
-292,905	500,263	-0,030	0,050
-291,891	21,183	0,073	-0,042
-290,876	-48,747	-0,090	-0,030
-289,862	-172,149	0,135	-0,003
-288,847	-200,000	0,009	-0,106
-287,832	-200,000	-0,013	-0,126
-286,818	-200,000	-0,000	-0,016
-285,803	512,910	-0,014	0,024
-284,789	-200,000	0,009	0,031
-283,774	-200,000	-0,011	-0,209
-282,759	60,609	-0,030	0,021
-281,745	800,000	-0,010	-0,023
-280,730	409,397	-0,047	-0,070
-279,716	-162,123	-0,040	0,001
-278,701	130,674	0,085	-0,078
-277,686	-166,410	0,074	0,002
-276,672	-200,000	0,034	0,138
-275,657	-200,000	0,013	-0,126
-274,643	108,317	-0,126	-0,107
-273,628	-200,000	0,001	0,021
-272,613	-136,453	-0,112	0,009
-271,599	800,000	0,067	-0,141
-270,584	40,768	-0,017	0,011
-269,570	-200,000	0,023	0,105
-268,555	-200,000	-0,019	0,085
-267,540	800,000	0,031	-0,088
-266,526	800,000	0,009	-0,023
-265,511	-200,000	0,019	0,087
-264,497	-144,964	-0,132	-0,008
-263,482	134,259	0,042	0,039
-262,467	800,000	0,013	-0,029
-261,453	-94,780	0,060	0,012
-260,438	-146,819	-0,177	0,011
-259,424	722,230	-0,022	0,041
-258,409	-169,398	0,151	0,004
-257,395	-200,000	0,011	-0,062
-256,380	-200,000	-0,021	-0,104
-255,365	-84,455	0,081	0,018
-254,351	-200,000	-0,028	0,105
-253,336	800,000	0,023	-0,056
-252,322	-200,000	0,003	-0,079
-251,307	-50,669	0,084	-0,028
-250,292	-138,779	0,140	-0,011
-249,278	800,000	0,039	0,112
-248,263	-200,000	0,019	0,078
-247,249	-158,688	-0,100	0,004
-246,234	357,338	-0,073	0,104
-245,219	800,000	0,056	-0,146
-244,205	-200,000	-0,006	-0,050
-243,190	-82,653	-0,060	0,014
-242,176	63,768	-0,009	-0,007
-241,161	-45,084	0,157	0,055
-240,146	-147,055	-0,061	0,004
-239,132	800,000	0,001	0,003
-238,117	-38,077	-0,105	-0,039
-237,103	62,172	-0,085	-0,060
-236,088	800,000	-0,049	0,126
-235,073	269,350	0,113	0,141
-234,059	29,804	0,072	0,043
-233,044	105,365	-0,014	0,012
-232,030	-91,195	-0,045	-0,009
-231,015	323,412	-0,024	-0,033
-230,000	800,000	0,030	-0,068
-228,986	-200,000	-0,020	0,128
-227,971	65,357	0,025	-0,018
-226,957	-200,000	0,009	0,055
-225,942	161,788	0,045	0,044
-224,927	315,321	0,051	0,068
-223,913	274,421	-0,012	-0,016
-222,898	-34,254	-0,041	0,016
-221,884	-139,089	0,096	-0,007
-220,869	-90,267	0,026	0,005
-219,855	140,829	0,032	0,030
-218,840	800,000	0,045	0,131
-217,825	5,270	-0,107	-0,056
-216,811	-28,119	0,151	-0,062
-215,796	6,913	0,090	-0,048
-214,782	3,270	0,060	0,031
-213,767	-44,724	0,100	-0,035
-212,752	106,184	0,024	0,020
-211,738	72,037	0,063	0,047
-210,723	463,647	0,028	0,044
-209,709	800,000	-0,006	-0,019
-208,694	689,405	0,049	-0,092
-207,679	233,520	-0,096	-0,112
-206,665	284,392	0,145	0,186
-205,650	-57,943	-0,085	-0,026
-204,636	-200,000	0,025	0,094
-203,621	-200,000	0,002	-0,011
-202,606	305,232	0,091	-0,121
-201,592	356,697	-0,100	-0,142
-200,577	-200,000	0,001	-0,055
-199,563	-79,711	-0,058	-0,014
-198,548	-94,353	0,059	-0,011
-197,533	159,228	0,068	0,067
-196,519	70,697	-0,109	0,080
-195,504	50,079	-0,099	-0,066
-194,490	521,856	-0,058	-0,098
-193,475	-200,000	-0,018	-0,061
-192,460	-59,931	0,113	0,034
-191,446	-55,443	-0,132	-0,042
-190,431	-200,000	0,001	0,059
-189,417	490,775	-0,022	-0,035
-188,402	165,706	0,129	0,129
-187,387	20,773	-0,127	-0,073
-186,373	-200,000	0,023	0,086
-185,358	81,840	-0,130	0,100
-184,344	485,473	0,044	0,071
-183,329	8,081	0,058	-0,031
-182,315	76,397	-0,099	0,074
-181,300	352,938	0,026	-0,037
-180,285	240,359	-0,022	0,026
-179,271	-45,603	0,135	-0,047
-178,256	477,445	-0,069	-0,111
-177,242	-200,000	0,013	0,118
-176,227	768,684	0,069	0,134
-175,212	800,000	-0,066	0,159
-174,198	800,000	-0,058	-0,116
-173,183	20,870	-0,127	-0,073
-172,169	99,122	0,100	0,082
-171,154	-131,926	0,016	-0,001
-170,139	-43,259	-0,147	-0,052
-169,125	-153,867	0,243	-0,012
-168,110	9,679	0,065	0,035
-167,096	-106,657	-0,064	0,010
-166,081	800,000	-0,013	0,026
-165,066	-200,000	-0,017	0,115
-164,052	667,735	0,033	0,060
-163,037	23,653	0,082	-0,047
-162,023	-200,000	-0,004	0,097
-161,008	243,938	0,016	0,020
-159,993	-67,510	-0,023	0,006
-158,979	800,000	0,043	-0,094
-157,964	-200,000	0,012	-0,072
-156,950	562,248	-0,092	-0,158
-155,935	-200,000	0,014	0,080
-154,920	1,008	0,067	0,034
-153,906	-85,973	-0,125	-0,027
-152,891	-200,000	0,019	0,069
-151,877	52,313	-0,014	0,010
-150,862	286,556	0,043	-0,055
-149,847	-79,079	-0,064	-0,015
-148,833	-200,000	0,015	0,141
-147,818	-7,763	0,116	0,055
-146,804	77,329	-0,058	-0,043
-145,789	-200,000	-0,005	-0,032
-144,775	744,105	0,018	0,035
-143,760	800,000	-0,021	-0,049
-142,745	-101,235	-0,123	-0,021
-141,731	35,560	0,066	0,041
-140,716	800,000	-0,057	0,131
-139,702	-32,084	0,130	0,051
-138,687	-200,000	-0,019	-0,061
-137,672	-65,500	0,078	-0,022
-136,658	31,547	-0,121	0,073
-135,643	800,000	0,037	-0,079
-134,629	-119,164	0,083	0,010
-133,614	799,936	0,079	0,154
-132,599	-200,000	0,001	-0,111
-131,585	-117,974	0,140	0,017
-130,570	14,106	-0,031	-0,017
-129,556	235,854	-0,038	0,045
-128,541	515,025	-0,071	-0,118
-127,526	487,530	-0,032	-0,052
-126,512	-50,974	0,108	-0,036
-125,497	172,374	0,102	0,104
-124,483	-161,252	0,087	-0,003
-123,468	-92,328	-0,161	0,032
-122,453	-58,337	-0,134	-0,041
-121,439	69,777	-0,084	-0,061
-120,424	323,040	-0,073	0,098
-119,410	-200,000	-0,005	0,133
-118,395	800,000	0,010	0,024
-117,380	-200,000	-0,000	0,052
-116,366	42,024	0,064	-0,041
-115,351	-50,716	-0,040	-0,013
-114,337	-26,226	-0,087	-0,036
-113,322	800,000	-0,026	-0,056
-112,307	342,979	0,037	0,051
-111,293	257,175	-0,016	0,020
-110,278	475,948	0,019	0,030
-109,264	49,534	0,112	0,074
-108,249	250,913	-0,117	-0,141
-107,234	800,000	-0,017	0,037
-106,220	138,190	-0,089	-0,083
-105,205	38,660	0,044	-0,028
-104,191	-200,000	0,010	-0,064
-103,176	279,534	-0,050	0,063
-102,162	32,242	0,092	-0,056
-101,147	26,970	0,032	0,019
-100,132	-136,815	-0,116	-0,009
-99,118	175,121	-0,045	-0,046
-98,103	-200,000	-0,035	-0,137
-97,089	260,144	0,030	0,036
-96,074	128,254	0,059	0,053
-95,059	-23,455	0,113	0,048
-94,045	269,054	-0,023	-0,028
-93,030	-172,482	-0,064	-0,001
-92,016	-200,000	-0,006	0,089
-91,001	-92,562	0,107	-0,021
-89,986	800,000	-0,003	-0,009
-88,972	513,643	0,037	0,061
-87,957	-200,000	0,026	-0,088
-86,943	102,885	0,091	-0,075
-85,928	71,299	-0,146	-0,107
-84,913	800,000	-0,044	-0,115
-83,899	122,475	0,068	-0,060
-82,884	140,017	0,153	0,143
-81,870	-62,157	0,029	0,008
-80,855	-200,000	0,021	0,089
-79,840	398,089	-0,016	0,023
-78,826	603,185	0,070	-0,124
-77,811	64,502	0,037	0,027
-76,797	-200,000	0,039	-0,133
-75,782	45,472	-0,079	0,052
-74,767	98,681	0,162	0,132
-73,753	251,881	-0,026	0,031
-72,738	-92,253	0,087	0,017
-71,724	10,492	-0,170	-0,091
-70,709	800,000	0,017	0,036
-69,694	-200,000	-0,014	-0,050
-68,680	-200,000	-0,010	-0,091
-67,665	466,723	0,014	-0,022
-66,651	-80,305	-0,009	0,002
-65,636	155,893	0,120	-0,117
-64,622	222,433	-0,039	-0,045
-63,607	-200,000	0,023	-0,099
-62,592	45,431	-0,054	-0,035
-61,578	101,248	0,113	-0,093
-60,563	-52,736	0,123	0,040
-59,549	-200,000	0,002	0,097
-58,534	53,520	-2,049	-1,385
-57,519	725,306	-1,109	-2,095
-56,505	-200,000	-0,201	-4,192
-55,490	531,980	0,987	1,654
-54,476	800,000	5,080	11,141
-53,461	-200,000	21,921	337,325
-52,446	800,000	758,428	2294,625
-51,432	532,653	1652,019	2769,329
-50,417	69,128	1649,809	1195,162
-49,403	16,555	1524,460	847,520
-48,388	10,695	1449,011	777,391
-47,373	19,032	1440,871	812,771
-46,359	14,116	1429,735	783,223
-45,344	9,045	1425,692	756,964
-44,330	8,931	1423,792	755,387
-43,315	8,970	1422,087	754,636
-42,300	8,959	1420,392	753,653
-41,286	8,990	1418,984	753,026
-40,271	8,945	1417,841	752,174
-39,257	8,972	1416,681	751,658
-38,242	9,013	1415,344	751,111
-37,227	8,988	1414,396	750,461
-36,213	8,963	1413,314	749,741
-35,198	8,974	1411,934	749,027
-34,184	8,980	1411,108	748,592
-33,169	8,905	1409,725	747,474
-32,154	8,967	1408,682	747,180
-31,140	9,012	1407,275	746,617
-30,125	8,973	1406,133	745,797
-29,111	8,996	1405,027	745,291
-28,096	8,947	1404,044	744,510
-27,082	8,912	1402,619	743,563
-26,067	8,908	1401,603	742,975
-25,052	8,875	1400,844	742,388
-24,038	8,951	1399,519	742,010
-23,023	8,942	1398,576	741,439
-22,009	8,903	1397,677	740,752
-20,994	8,946	1396,461	740,281
-19,979	8,902	1395,640	739,613
-18,965	8,870	1394,720	738,947
-17,950	8,849	1393,812	738,337
-16,936	8,865	1392,796	737,843
-15,921	8,814	1392,055	737,188
-14,906	8,812	1391,116	736,649
-13,892	8,901	1390,036	736,461
-12,877	8,837	1389,210	735,698
-11,863	8,841	1388,485	735,305
-10,848	8,827	1387,668	734,779
-9,833	8,764	1386,653	733,920
-8,819	8,733	1385,854	733,324
-7,804	8,688	1384,797	732,528
-6,790	8,748	1383,791	732,247
-5,775	8,741	1382,801	731,661
-4,760	8,752	1381,803	731,152
-3,746	8,779	1380,860	730,749
-2,731	8,814	1379,964	730,408
-1,717	8,770	1379,296	729,823
-0,702	8,715	1377,683	728,686
0,313	12,816	1289,108	700,436
1,327	28,827	681,643	406,249
2,342	44,761	117,462	76,046
3,356	-0,906	16,578	8,247
4,371	-0,478	3,761	1,876
5,386	2,391	1,300	0,661
6,400	-200,000	0,141	0,620
7,415	-147,696	-0,236	-0,014
8,429	23,518	-0,323	-0,187
9,444	13,702	-0,223	-0,122
10,459	-17,919	-0,240	-0,106
11,473	89,912	-0,321	-0,253
12,488	-3,620	-0,273	-0,133
13,502	64,050	-0,287	-0,203
14,517	172,177	-0,258	-0,261
15,531	76,024	-0,265	-0,197
16,546	-35,080	-0,363	-0,139
17,561	108,004	-0,293	-0,246
18,575	-10,697	-0,111	-0,051
19,590	-91,089	-0,308	-0,062
20,604	19,273	-0,246	-0,139
21,619	95,076	-0,327	-0,262
22,634	70,183	-0,378	-0,274
23,648	40,710	-0,340	-0,215
24,663	300,735	-0,239	-0,312
25,677	100,055	-0,365	-0,298
26,692	-4,708	-0,339	-0,164
27,707	76,425	-0,404	-0,301
28,721	147,766	-0,299	-0,284
29,736	57,237	-0,370	-0,253
30,750	16,933	-0,400	-0,222
31,765	82,973	-0,430	-0,329
32,780	141,610	-0,338	-0,315
33,794	15,701	-0,282	-0,155
34,809	79,192	-0,276	-0,208
35,823	-76,576	-0,438	-0,107
36,838	54,900	-0,450	-0,305
37,853	190,051	-0,378	-0,399
38,867	285,859	-0,281	-0,356
39,882	45,949	-0,336	-0,218
40,896	63,169	-0,322	-0,226
41,911	103,793	-0,276	-0,228
42,926	-26,301	-0,333	-0,137
43,940	-92,516	-0,390	-0,076
44,955	59,314	-0,320	-0,221
45,969	-2,049	-0,436	-0,214
46,984	-38,960	-0,350	-0,129
47,999	158,311	-0,255	-0,249
49,013	151,824	-0,267	-0,256
50,028	35,829	-0,303	-0,187
51,042	153,452	-0,343	-0,330
52,057	48,899	-0,382	-0,251
53,071	60,648	-0,337	-0,234
54,086	15,043	-0,394	-0,216
55,101	-46,757	-0,333	-0,114
56,115	34,175	-0,375	-0,229
57,130	-96,072	-0,387	-0,072
58,144	35,795	-0,337	-0,208
59,159	84,805	-0,413	-0,317
60,174	69,737	-0,382	-0,276
61,188	88,321	-0,261	-0,203
62,203	-24,890	-0,330	-0,137
63,217	-35,905	-0,383	-0,144
64,232	-48,085	-0,327	-0,110
65,247	0,342	-0,326	-0,162
66,261	142,344	-0,301	-0,280
67,276	160,829	-0,341	-0,334
68,290	81,880	-0,342	-0,260
69,305	17,947	-0,219	-0,122
70,320	177,786	-0,333	-0,341
71,334	9,213	-0,337	-0,178
72,349	26,335	-0,352	-0,206
73,363	-21,696	-0,291	-0,124
74,378	59,408	-0,310	-0,214
75,393	22,181	-0,267	-0,153
76,407	-57,152	-0,485	-0,149
77,422	8,391	-0,314	-0,165
78,436	-51,402	-0,290	-0,095
79,451	112,813	-0,273	-0,231
80,466	130,992	-0,349	-0,314
81,480	183,561	-0,286	-0,296
82,495	23,493	-0,204	-0,117
83,509	55,838	-0,339	-0,230
84,524	60,314	-0,255	-0,176
85,539	280,709	-0,167	-0,209
86,553	55,416	-0,271	-0,183
87,568	-8,952	-0,334	-0,156
88,582	-13,990	-0,267	-0,120
89,597	68,205	-0,326	-0,233
90,611	-90,297	-0,235	-0,047
91,626	67,980	-0,362	-0,259
92,641	257,522	-0,143	-0,173
93,655	482,932	-0,198	-0,317
94,670	66,475	-0,298	-0,211
95,684	12,025	-0,226	-0,121
96,699	42,185	-0,285	-0,181
97,714	349,520	-0,219	-0,304
98,728	-14,319	-0,271	-0,122
99,743	429,611	-0,099	-0,151
100,757	28,060	-0,235	-0,138
101,772	88,296	-0,297	-0,231
102,787	84,083	-0,206	-0,157
103,801	-62,409	-0,197	-0,057
104,816	-116,825	-0,282	-0,036
105,830	258,010	-0,199	-0,240
106,845	-59,334	-0,200	-0,060
107,860	-21,640	-0,272	-0,115
108,874	78,954	-0,261	-0,195
109,889	158,904	-0,263	-0,255
110,903	105,906	-0,336	-0,278
111,918	65,942	-0,184	-0,130
112,933	144,103	-0,124	-0,116
113,947	56,807	-0,177	-0,120
114,962	109,307	-0,281	-0,234
115,976	134,737	-0,237	-0,215
116,991	135,009	-0,283	-0,257
118,006	18,419	-0,247	-0,137
119,020	118,423	-0,229	-0,197
120,035	800,000	-0,136	-0,270
121,049	-61,156	-0,340	-0,099
122,064	2,951	-0,215	-0,108
123,079	0,741	-0,122	-0,060
124,093	50,851	-0,255	-0,168
125,108	163,217	-0,172	-0,169
126,122	109,453	-0,288	-0,241
127,137	213,298	-0,185	-0,205
128,151	598,229	-0,127	-0,221
129,166	-10,441	-0,346	-0,159
130,181	-96,116	-0,154	-0,028
131,195	11,430	-0,321	-0,171
132,210	206,454	-0,216	-0,234
133,224	282,745	-0,235	-0,294
134,239	17,650	-0,184	-0,102
135,254	-9,002	-0,136	-0,063
136,268	401,719	-0,103	-0,151
137,283	18,547	-0,241	-0,134
138,297	111,952	-0,311	-0,262
139,312	11,239	-0,328	-0,174
140,327	-14,667	-0,253	-0,113
141,341	672,484	-0,135	-0,245
142,356	130,274	-0,108	-0,097
143,370	800,000	-0,084	-0,188
144,385	180,518	-0,273	-0,279
145,400	195,307	-0,192	-0,203
146,414	218,888	-0,197	-0,219
147,429	224,604	-0,151	-0,170
148,443	68,419	-0,336	-0,239
149,458	228,218	-0,167	-0,190
150,473	800,000	-0,159	-0,348
151,487	220,659	-0,208	-0,232
152,502	52,427	-0,197	-0,130
153,516	78,263	-0,227	-0,169
154,531	199,083	-0,164	-0,175
155,546	6,430	-0,192	-0,099
156,560	-54,921	-0,256	-0,080
157,575	-62,321	-0,264	-0,076
158,589	205,196	-0,157	-0,170
159,604	32,938	-0,262	-0,157
160,619	28,310	-0,316	-0,185
161,633	721,666	-0,122	-0,226
162,648	363,034	-0,156	-0,218
163,662	88,814	-0,163	-0,126
164,677	43,889	-0,164	-0,104
165,692	-105,587	-0,166	-0,026
166,706	-71,863	-0,186	-0,048
167,721	20,087	-0,240	-0,134
168,735	558,436	-0,144	-0,243
169,750	200,179	-0,153	-0,164
170,764	49,845	-0,270	-0,176
171,779	105,469	-0,172	-0,141
172,794	157,896	-0,132	-0,127
173,808	-8,124	-0,255	-0,119
174,823	385,480	-0,219	-0,315
175,837	204,474	-0,249	-0,268
176,852	166,755	-0,218	-0,215
177,867	-112,401	-0,145	-0,020
178,881	68,170	-0,134	-0,095
179,896	161,877	-0,114	-0,111
180,910	96,464	-0,152	-0,121
181,925	1,806	-0,223	-0,111
182,940	423,697	-0,213	-0,318
183,954	71,791	-0,276	-0,199
184,969	-16,175	-0,258	-0,113
185,983	-131,319	-0,163	0,015
186,998	87,894	-0,206	-0,158
188,013	51,600	-0,251	-0,165
189,027	210,113	-0,131	-0,143
190,042	86,435	-0,251	-0,192
191,056	-13,020	-0,227	-0,102
192,071	-84,490	-0,223	-0,048
193,086	236,814	-0,139	-0,159
194,100	98,483	-0,191	-0,153
195,115	193,614	-0,203	-0,214
196,129	182,273	-0,201	-0,205
197,144	117,837	-0,242	-0,207
198,159	-72,827	-0,216	-0,055
199,173	43,493	-0,174	-0,110
200,188	-60,241	-0,133	-0,039
201,202	198,035	-0,070	-0,075
202,217	37,604	-0,246	-0,151
203,232	-112,395	-0,175	-0,024
204,246	87,481	-0,112	-0,086
205,261	-13,509	-0,236	-0,106
206,275	-8,713	-0,134	-0,062
207,290	47,384	-0,165	-0,106
208,304	28,216	-0,161	-0,094
209,319	226,670	-0,148	-0,167
210,334	-129,767	-0,227	-0,021
211,348	-1,430	-0,259	-0,126
212,363	388,202	-0,093	-0,133
213,377	190,270	-0,209	-0,217
214,392	-149,496	-0,223	-0,012
215,407	21,612	-0,124	-0,070
216,421	83,046	-0,186	-0,140
217,436	45,381	-0,234	-0,149
218,450	28,045	-0,090	-0,052
219,465	-79,721	-0,219	-0,051
220,480	22,772	-0,264	-0,149
221,494	-200,000	-0,063	-0,267
222,509	-39,473	-0,254	-0,091
223,523	65,252	-0,142	-0,099
224,538	350,445	-0,128	-0,175
225,553	800,000	-0,135	-0,268
226,567	-50,151	-0,246	-0,080
227,582	98,307	-0,170	-0,136
228,596	-137,946	-0,182	-0,014
229,611	291,918	-0,163	-0,205
230,626	117,796	-0,078	-0,066
231,640	-200,000	-0,058	-0,244
232,655	252,521	-0,148	-0,175
233,669	800,000	-0,148	-0,290
234,684	13,686	-0,195	-0,104
235,699	293,207	-0,205	-0,259
236,713	168,298	-0,103	-0,102
237,728	-42,285	-0,241	-0,084
238,742	51,806	-0,256	-0,168
239,757	-54,005	-0,204	-0,064
240,772	155,433	-0,169	-0,161
241,786	-200,000	-0,077	-0,295
242,801	7,561	-0,129	-0,066
243,815	-61,675	-0,101	0,029
244,830	-200,000	-0,019	-0,168
245,844	6,306	-0,192	-0,098
246,859	288,355	-0,153	-0,192
247,874	126,670	-0,183	-0,160
248,888	-4,084	-0,254	-0,121
249,903	39,799	-0,169	-0,105
250,917	60,284	-0,118	-0,080
251,932	-200,000	-0,009	-0,109
252,947	30,736	-0,149	-0,088
253,961	483,432	-0,140	-0,221
254,976	106,977	-0,115	-0,094
255,990	77,829	-0,165	-0,121
257,005	-103,879	-0,169	-0,027
258,020	-76,278	-0,083	-0,020
259,034	306,503	-0,112	-0,144
260,049	132,503	-0,196	-0,174
261,063	167,875	-0,128	-0,126
262,078	7,767	-0,276	-0,142
263,093	70,379	-0,134	-0,095
264,107	581,748	-0,090	-0,153
265,122	241,083	-0,175	-0,202
266,136	186,370	-0,119	-0,123
267,151	172,451	-0,142	-0,141
268,166	-72,378	-0,104	0,026
269,180	153,337	-0,191	-0,180
270,195	391,547	-0,116	-0,166
271,209	-10,891	-0,118	-0,054
272,224	800,000	-0,037	-0,101
273,239	-115,703	-0,197	-0,025
274,253	119,846	-0,117	-0,099
275,268	800,000	-0,101	-0,208
276,282	166,577	-0,122	-0,119
277,297	72,962	-0,219	-0,157
278,312	567,396	-0,102	-0,172
279,326	-112,023	-0,210	-0,029
280,341	-21,134	-0,107	-0,045
281,355	64,286	-0,205	-0,142
282,370	385,899	-0,166	-0,237
283,384	215,530	-0,134	-0,147
284,399	800,000	-0,098	-0,200
285,414	-105,148	-0,152	-0,024
286,428	326,930	-0,046	-0,061
287,443	206,610	-0,120	-0,129
288,457	21,398	-0,163	-0,091
289,472	-118,244	-0,082	-0,010
290,487	201,252	-0,128	-0,135
291,501	19,490	-0,238	-0,131
292,516	40,309	-0,211	-0,130
293,530	-172,173	-0,061	-0,001
294,545	-97,836	-0,163	-0,029
295,560	-73,699	-0,136	0,034
296,574	800,000	0,031	-0,067
297,589	-132,917	-0,199	0,017
298,603	0,720	-0,192	-0,094
299,618	7,727	-0,192	-0,098
300,633	160,960	0,067	-0,065
301,647	800,000	-0,006	-0,016
302,662	55,984	-0,093	-0,062
303,676	-9,408	-0,242	-0,110
304,691	-91,830	-0,113	0,022
305,706	800,000	-0,026	-0,064
306,720	247,027	-0,076	-0,088
307,735	27,919	-0,153	-0,088
308,749	-98,587	-0,180	-0,031
309,764	-121,491	-0,108	-0,012
310,779	-17,696	-0,143	0,061
311,793	-157,209	-0,125	-0,005
312,808	0,419	-0,133	-0,065
313,822	126,022	-0,171	-0,149
314,837	-154,395	-0,217	-0,010
315,852	-14,340	-0,021	0,009
316,866	-200,000	-0,019	-0,084
317,881	127,087	-0,144	-0,125
318,895	101,803	-0,255	-0,204
319,910	800,000	-0,058	-0,128
320,925	-108,456	-0,082	0,012
321,939	13,972	-0,067	-0,036
322,954	168,582	-0,160	-0,156
323,968	334,401	-0,039	0,052
324,983	-120,443	-0,115	0,013
325,997	376,673	-0,141	-0,198
327,012	678,967	-0,075	-0,134
328,027	97,836	-0,117	-0,092
329,041	268,074	-0,204	-0,246
330,056	258,571	-0,063	-0,075
331,070	-200,000	-0,045	-0,167
332,085	8,197	-0,141	0,072
333,100	-62,934	-0,096	0,027
334,114	-200,000	-0,053	-0,161
335,129	800,000	-0,056	-0,143
336,143	-118,898	-0,241	0,029
337,158	800,000	-0,145	-0,294
338,173	-200,000	-0,015	-0,125
339,187	448,359	-0,049	-0,074
340,202	-52,730	-0,100	0,031
341,216	9,386	-0,082	-0,043
342,231	800,000	-0,084	-0,164
343,246	60,757	-0,193	-0,131
344,260	58,514	-0,057	-0,038
345,275	800,000	-0,046	-0,119
346,289	58,446	-0,073	-0,049
347,304	-119,138	-0,117	0,014
348,319	374,130	-0,096	-0,135
349,333	425,608	-0,102	-0,150
350,348	140,580	-0,195	-0,176
351,362	74,789	0,050	-0,036
352,377	322,183	-0,015	0,019
353,392	-151,563	-0,094	-0,005
354,406	-31,862	-0,166	-0,063
355,421	206,443	1306,686	1392,392
356,435	158,775	1466,390	1392,877
