DTS Sentinel unit serial number:	SN410029Multiplexer serial number:	ORYXHardware model number:	OX2-SRSoftware version number:	ORYX F/W v4,00 Oryx Data Collector v3.7.2.0data status	okinstallation	B3 Nyhavnadifferential loss correction	single-endedforward channel	channel 1reverse channel	N/Adate	2023/12/05time	01:52:30forward acquisition time	300,00reverse acquisition time	0,00gamma	499,1914k internal	0,3201k external	0,3201temperature offset calibration	1,0000default loss term (dB/km)	0,3820temperature slope calibration	1,0000multiplexer offset coefficient	1,0000multiplexer slope coefficient	1,0000fibre end	0,00T internal ref (°C)	13,84T ext. ref 1 (°C)	-0,83T ext. ref 2 (°C)	-0,87length (m)	temperature (°C)	Stokes	anti-Stokes-744,400	427,982	-0,175	-0,276
-743,385	-200,000	0,019	0,232
-742,371	166,207	-0,190	-0,196
-741,356	-200,000	-0,011	0,367
-740,342	126,381	-0,157	-0,144
-739,327	-200,000	-0,023	0,273
-738,312	158,710	-0,257	-0,259
-737,298	-200,000	-0,026	0,208
-736,283	98,565	-0,196	-0,164
-735,269	-200,000	0,051	0,451
-734,254	-27,740	-0,139	-0,058
-733,239	169,201	-0,156	0,162
-732,225	-76,943	-0,157	-0,040
-731,210	570,417	0,106	0,188
-730,196	-97,163	0,084	-0,016
-729,181	-127,737	0,039	-0,004
-728,167	252,621	-0,072	-0,089
-727,152	800,000	0,087	-0,247
-726,137	758,305	0,091	-0,180
-725,123	-200,000	-0,207	-0,001
-724,108	774,068	-0,026	-0,051
-723,094	-200,000	-0,004	-0,048
-722,079	-200,000	0,019	-0,146
-721,064	-73,278	-0,114	-0,030
-720,050	-137,836	-0,136	-0,011
-719,035	1,637	0,107	-0,056
-718,021	-71,392	-0,091	-0,025
-717,006	767,583	-0,043	-0,084
-715,991	-126,164	-0,071	0,008
-714,977	255,168	-0,152	-0,189
-713,962	62,059	-0,092	-0,067
-712,948	-99,307	0,115	-0,021
-711,933	416,569	-0,090	0,139
-710,918	-90,401	-0,175	0,037
-709,904	-87,878	-0,068	0,015
-708,889	-200,000	-0,025	-0,124
-707,875	-24,716	-0,186	-0,080
-706,860	414,390	0,100	-0,156
-705,845	-50,175	0,077	-0,026
-704,831	-7,727	-0,031	-0,015
-703,816	39,423	-0,093	-0,061
-702,802	25,673	-0,056	-0,034
-701,787	283,322	-0,045	-0,059
-700,772	44,106	0,072	0,048
-699,758	800,000	0,036	-0,074
-698,743	101,819	0,117	0,099
-697,729	-200,000	-0,015	0,081
-696,714	171,971	-0,039	-0,041
-695,699	-179,374	-0,075	-0,001
-694,685	-25,169	-0,048	-0,020
-693,670	-200,000	-0,014	-0,147
-692,656	277,118	-0,042	-0,055
-691,641	-108,978	0,044	-0,007
-690,627	749,343	-0,049	0,096
-689,612	15,794	-0,039	0,022
-688,597	146,259	-0,121	0,118
-687,583	800,000	-0,052	-0,155
-686,568	-200,000	-0,020	-0,147
-685,554	651,667	-0,062	-0,116
-684,539	-84,418	-0,110	-0,025
-683,524	19,669	-0,029	0,017
-682,510	-200,000	-0,004	0,058
-681,495	-187,303	0,056	-0,001
-680,481	293,240	-0,077	-0,102
-679,466	-200,000	-0,006	0,073
-678,451	159,608	0,049	0,050
-677,437	-33,397	-0,106	-0,042
-676,422	800,000	0,066	0,136
-675,408	-139,424	0,104	-0,008
-674,393	-60,741	-0,010	-0,003
-673,378	-61,583	-0,070	0,021
-672,364	-200,000	-0,040	-0,142
-671,349	-200,000	-0,014	0,079
-670,335	-200,000	-0,016	-0,070
-669,320	80,251	-0,114	-0,089
-668,305	104,140	-0,065	0,055
-667,291	234,470	-0,054	0,065
-666,276	-53,605	0,119	0,039
-665,262	26,426	-0,106	0,064
-664,247	-88,204	0,108	-0,023
-663,232	-11,129	-0,138	-0,066
-662,218	-200,000	0,014	0,153
-661,203	-132,109	0,098	0,009
-660,189	-31,128	-0,157	0,064
-659,174	-96,213	-0,080	0,015
-658,159	198,849	-0,068	-0,075
-657,145	-200,000	0,006	-0,040
-656,130	178,733	0,047	-0,050
-655,116	-34,066	0,070	-0,028
-654,101	-133,524	0,029	0,003
-653,086	8,228	-0,027	-0,015
-652,072	-82,956	-0,091	0,021
-651,057	-107,830	-0,064	0,010
-650,043	-200,000	0,022	0,182
-649,028	-29,254	-0,130	0,054
-648,014	800,000	0,033	-0,070
-646,999	-100,020	0,074	-0,013
-645,984	9,604	-0,087	-0,048
-644,970	-98,683	0,038	0,007
-643,955	800,000	0,049	-0,110
-642,941	211,460	-0,098	-0,112
-641,926	-200,000	0,041	-0,182
-640,911	-11,097	-0,015	-0,007
-639,897	800,000	-0,027	-0,067
-638,882	-60,675	0,137	-0,042
-637,868	-111,807	-0,137	0,020
-636,853	-117,311	-0,156	0,020
-635,838	115,171	-0,210	-0,186
-634,824	-200,000	0,011	-0,097
-633,809	43,412	-0,135	0,089
-632,795	589,949	0,011	0,020
-631,780	-100,117	-0,026	0,005
-630,765	-65,730	-0,227	0,065
-629,751	139,937	0,103	0,099
-628,736	-24,091	-0,057	-0,024
-627,722	-200,000	0,007	0,053
-626,707	800,000	0,028	0,058
-625,692	800,000	-0,017	0,037
-624,678	-146,475	-0,073	0,005
-623,663	-200,000	-0,011	-0,085
-622,649	-200,000	0,011	0,043
-621,634	93,497	-0,020	-0,017
-620,619	140,060	-0,051	0,049
-619,605	279,647	0,092	0,119
-618,590	-200,000	0,014	0,137
-617,576	-29,843	0,014	0,006
-616,561	257,235	-0,073	0,091
-615,546	-53,009	-0,054	0,018
-614,532	87,700	-0,053	0,042
-613,517	-80,183	-0,039	-0,009
-612,503	371,490	0,030	0,044
-611,488	6,948	0,046	0,025
-610,474	-200,000	0,044	0,151
-609,459	-152,833	-0,116	0,006
-608,444	-200,000	-0,010	0,062
-607,430	271,856	0,017	0,022
-606,415	-167,954	-0,085	-0,002
-605,401	-144,940	0,092	-0,006
-604,386	85,354	0,042	0,033
-603,371	40,902	0,055	-0,036
-602,357	-200,000	0,017	0,065
-601,342	303,545	0,042	-0,056
-600,328	84,262	-0,152	-0,120
-599,313	800,000	0,038	-0,092
-598,298	-133,312	0,066	-0,006
-597,284	-89,344	-0,067	-0,014
-596,269	800,000	0,062	0,169
-595,255	-200,000	-0,009	-0,060
-594,240	100,043	-0,102	-0,085
-593,225	800,000	-0,036	0,105
-592,211	68,850	-0,012	0,009
-591,196	107,546	-0,025	-0,021
-590,182	-200,000	0,002	0,072
-589,167	-200,000	0,004	0,047
-588,152	-19,224	0,097	-0,043
-587,138	22,673	-0,060	-0,035
-586,123	-200,000	0,036	-0,122
-585,109	300,909	-0,078	-0,104
-584,094	533,334	0,127	-0,218
-583,079	50,788	-0,008	-0,006
-582,065	367,923	-0,052	0,076
-581,050	79,130	0,108	0,084
-580,036	7,414	0,107	-0,057
-579,021	-200,000	0,023	-0,122
-578,006	382,127	-0,026	0,038
-576,992	-200,000	0,004	-0,018
-575,977	-16,286	-0,065	0,030
-574,963	-200,000	0,000	-0,010
-573,948	273,899	0,070	0,089
-572,934	-144,503	-0,077	-0,005
-571,919	141,297	0,069	-0,066
-570,904	368,543	0,028	-0,041
-569,890	-200,000	-0,022	-0,071
-568,875	557,876	0,008	-0,014
-567,861	-54,508	-0,083	-0,027
-566,846	-62,216	-0,086	0,026
-565,831	92,446	-0,163	0,133
-564,817	800,000	-0,064	-0,146
-563,802	-200,000	-0,021	-0,095
-562,788	800,000	-0,022	-0,057
-561,773	3,453	0,106	-0,055
-560,758	800,000	-0,015	0,033
-559,744	151,177	0,030	0,029
-558,729	724,172	0,035	0,067
-557,715	-88,332	0,064	0,014
-556,700	393,952	-0,022	-0,034
-555,685	-0,456	-0,072	0,037
-554,671	190,136	0,105	0,114
-553,656	119,549	0,039	-0,034
-552,642	-200,000	0,030	0,099
-551,627	-179,663	-0,084	-0,001
-550,612	800,000	0,070	-0,162
-549,598	-154,712	-0,085	0,004
-548,583	55,619	-0,150	-0,105
-547,569	-200,000	0,014	-0,114
-546,554	-69,493	-0,059	0,016
-545,539	800,000	-0,027	0,063
-544,525	-200,000	-0,000	0,069
-543,510	169,246	0,088	0,091
-542,496	800,000	-0,137	-0,284
-541,481	-8,049	-0,012	-0,006
-540,466	-200,000	-0,001	0,026
-539,452	-200,000	0,018	-0,077
-538,437	-137,663	-0,056	0,004
-537,423	92,420	0,061	-0,049
-536,408	63,467	-0,031	-0,023
-535,393	800,000	0,047	-0,144
-534,379	-71,466	-0,023	0,006
-533,364	400,221	-0,067	0,102
-532,350	-200,000	-0,010	0,188
-531,335	336,968	-0,088	0,123
-530,321	291,841	0,018	0,024
-529,306	-200,000	-0,008	0,115
-528,291	75,164	-0,082	0,062
-527,277	-115,638	-0,101	0,014
-526,262	-129,680	0,069	-0,007
-525,248	-76,716	-0,065	0,016
-524,233	-120,152	0,149	-0,018
-523,218	-130,276	0,237	-0,023
-522,204	-200,000	-0,003	0,151
-521,189	46,605	-0,124	0,083
-520,175	60,660	0,114	0,081
-519,160	-69,602	-0,252	-0,069
-518,145	800,000	-0,047	0,114
-517,131	561,614	0,038	0,067
-516,116	-86,223	-0,103	0,023
-515,102	138,225	0,145	0,137
-514,087	-200,000	0,000	-0,021
-513,072	-200,000	-0,023	-0,078
-512,058	150,157	0,075	-0,073
-511,043	-139,587	0,071	-0,005
-510,029	21,601	0,121	0,071
-509,014	149,465	-0,029	0,028
-507,999	-200,000	-0,014	0,091
-506,985	-200,000	-0,009	0,062
-505,970	800,000	0,042	-0,095
-504,956	420,397	-0,029	-0,046
-503,941	177,177	-0,086	0,090
-502,926	-200,000	0,006	0,106
-501,912	121,547	-0,136	0,122
-500,897	-48,321	-0,062	0,021
-499,883	283,172	0,045	0,058
-498,868	-65,505	-0,106	-0,031
-497,853	512,420	-0,018	0,030
-496,839	60,125	0,127	0,090
-495,824	-61,113	-0,073	-0,022
-494,810	-200,000	0,003	0,054
-493,795	-200,000	0,005	-0,017
-492,781	194,048	0,079	0,086
-491,766	800,000	-0,048	-0,113
-490,751	294,660	-0,081	-0,107
-489,737	800,000	-0,020	0,052
-488,722	34,281	0,129	0,081
-487,708	-67,429	0,136	0,038
-486,693	156,745	0,066	-0,066
-485,678	594,200	0,073	-0,131
-484,664	432,035	-0,075	0,117
-483,649	695,031	0,084	-0,160
-482,635	800,000	-0,055	-0,126
-481,620	-200,000	0,005	0,139
-480,605	-200,000	-0,011	-0,045
-479,591	13,771	-0,122	-0,068
-478,576	-158,351	-0,034	0,001
-477,562	-123,610	-0,100	0,011
-476,547	-200,000	0,000	-0,023
-475,532	18,836	0,107	-0,062
-474,518	800,000	0,022	0,051
-473,503	89,461	0,060	0,048
-472,489	800,000	0,037	-0,102
-471,474	-200,000	-0,014	-0,154
-470,459	363,153	-0,032	0,047
-469,445	-200,000	0,005	0,127
-468,430	-135,025	-0,034	0,003
-467,416	-200,000	0,029	0,096
-466,401	-200,000	0,005	0,089
-465,386	-49,330	-0,019	0,007
-464,372	-111,123	0,091	-0,013
-463,357	273,864	-0,070	-0,089
-462,343	-200,000	0,050	0,163
-461,328	800,000	0,017	-0,055
-460,313	303,852	0,016	0,021
-459,299	-200,000	-0,015	0,083
-458,284	-200,000	0,007	0,061
-457,270	380,047	-0,058	-0,085
-456,255	-200,000	-0,011	-0,076
-455,241	398,672	0,016	-0,024
-454,226	-200,000	0,008	0,045
-453,211	-200,000	0,000	-0,124
-452,197	114,834	0,032	-0,028
-451,182	800,000	0,045	0,124
-450,168	-200,000	-0,018	0,078
-449,153	800,000	-0,020	-0,048
-448,138	800,000	-0,081	-0,165
-447,124	671,958	0,025	0,047
-446,109	397,697	0,059	0,090
-445,095	-200,000	0,010	0,062
-444,080	-200,000	-0,011	0,117
-443,065	-111,666	0,221	0,032
-442,051	800,000	0,016	-0,044
-441,036	800,000	0,073	-0,164
-440,022	-200,000	-0,006	0,105
-439,007	-200,000	-0,013	0,089
-437,992	-6,087	-0,075	-0,037
-436,978	-148,914	0,112	0,006
-435,963	800,000	0,031	0,075
-434,949	-200,000	-0,008	-0,033
-433,934	208,376	-0,025	0,028
-432,919	800,000	-0,056	-0,137
-431,905	-32,558	-0,169	0,067
-430,890	-148,782	0,030	-0,002
-429,876	21,472	0,066	-0,038
-428,861	445,358	0,006	0,010
-427,846	-88,456	-0,033	-0,007
-426,832	211,130	-0,033	0,038
-425,817	-164,044	-0,198	-0,006
-424,803	67,937	-0,107	0,079
-423,788	-200,000	0,152	-0,000
-422,773	-64,999	-0,044	0,013
-421,759	-176,112	0,024	0,000
-420,744	-200,000	0,045	-0,143
-419,730	800,000	0,062	-0,183
-418,715	-85,262	0,009	-0,002
-417,701	800,000	-0,051	-0,144
-416,686	-91,496	0,048	-0,010
-415,671	782,471	0,032	0,064
-414,657	415,046	-0,085	0,130
-413,642	-200,000	-0,018	-0,170
-412,628	-200,000	0,008	-0,083
-411,613	459,767	-0,098	-0,158
-410,598	336,965	-0,083	-0,117
-409,584	-0,334	0,135	0,068
-408,569	-200,000	-0,002	-0,022
-407,555	-200,000	-0,015	0,175
-406,540	-59,412	0,086	0,026
-405,525	800,000	-0,063	-0,150
-404,511	800,000	-0,014	-0,030
-403,496	-89,874	0,084	-0,017
-402,482	1,396	0,069	0,035
-401,467	-11,051	0,074	0,035
-400,452	155,779	0,053	0,052
-399,438	72,255	-0,063	-0,047
-398,423	93,456	-0,086	0,070
-397,409	-130,553	0,082	-0,008
-396,394	800,000	-0,031	-0,072
-395,379	-200,000	0,012	-0,043
-394,365	-139,723	-0,025	0,002
-393,350	39,548	-0,068	-0,044
-392,336	800,000	-0,034	-0,085
-391,321	-141,864	0,114	-0,008
-390,306	-22,539	-0,089	-0,039
-389,292	41,408	-0,201	-0,130
-388,277	800,000	0,006	0,016
-387,263	141,450	-0,118	-0,112
-386,248	-48,824	0,055	-0,019
-385,233	422,580	-0,022	0,033
-384,219	-101,341	0,162	-0,028
-383,204	-200,000	-0,022	-0,088
-382,190	800,000	-0,036	-0,088
-381,175	800,000	-0,023	0,060
-380,160	675,676	0,072	0,135
-379,146	-155,955	-0,065	0,003
-378,131	-85,176	0,067	0,015
-377,117	116,647	-0,126	-0,111
-376,102	-200,000	0,018	-0,248
-375,088	-98,372	-0,065	0,012
-374,073	800,000	0,033	0,098
-373,058	784,343	0,018	-0,036
-372,044	-78,525	0,096	0,023
-371,029	-21,121	-0,033	-0,014
-370,015	-69,279	0,014	-0,004
-369,000	506,562	0,030	-0,050
-367,985	-99,367	0,015	-0,003
-366,971	6,143	0,093	0,049
-365,956	-153,453	0,047	0,002
-364,942	-136,192	-0,018	-0,002
-363,927	234,637	0,070	0,083
-362,912	571,636	0,020	0,035
-361,898	-200,000	-0,006	0,046
-360,883	-125,975	-0,132	-0,014
-359,869	-144,022	-0,173	0,011
-358,854	-154,551	0,071	-0,003
-357,839	-200,000	-0,002	0,070
-356,825	-19,459	0,042	0,018
-355,810	60,449	0,009	-0,006
-354,796	800,000	0,020	-0,043
-353,781	-84,282	-0,080	0,018
-352,766	800,000	-0,007	0,020
-351,752	800,000	-0,015	-0,041
-350,737	-24,129	0,089	-0,038
-349,723	727,658	0,046	0,087
-348,708	40,144	0,064	-0,041
-347,693	-200,000	0,004	-0,041
-346,679	800,000	0,050	-0,105
-345,664	-200,000	-0,003	-0,107
-344,650	189,602	0,107	0,115
-343,635	37,650	-0,009	-0,006
-342,620	-52,232	0,125	0,041
-341,606	532,165	-0,058	0,098
-340,591	133,847	-0,041	-0,038
-339,577	560,189	-0,027	-0,047
-338,562	99,495	-0,052	-0,043
-337,548	-200,000	0,031	-0,107
-336,533	-117,215	0,110	0,014
-335,518	-35,313	0,107	0,042
-334,504	800,000	0,070	0,140
-333,489	609,349	0,076	0,137
-332,475	175,014	0,084	-0,087
-331,460	148,357	-0,039	-0,038
-330,445	704,232	0,071	0,135
-329,431	356,542	-0,077	0,111
-328,416	-200,000	-0,020	0,227
-327,402	-200,000	0,002	-0,029
-326,387	-51,963	-0,078	-0,026
-325,372	474,538	0,070	-0,114
-324,358	-200,000	0,019	-0,134
-323,343	-200,000	-0,026	-0,115
-322,329	50,517	0,059	0,040
-321,314	521,145	0,061	0,102
-320,299	37,278	-0,092	0,058
-319,285	800,000	-0,070	0,195
-318,270	-200,000	0,016	-0,153
-317,256	562,715	0,017	-0,029
-316,241	-125,486	0,067	-0,007
-315,226	-120,529	-0,037	0,004
-314,212	349,250	0,073	0,104
-313,197	-200,000	0,010	0,056
-312,183	800,000	-0,043	0,105
-311,168	123,006	-0,029	-0,026
-310,153	239,605	-0,118	-0,141
-309,139	255,862	-0,054	-0,067
-308,124	-200,000	0,006	-0,059
-307,110	25,793	0,139	-0,083
-306,095	-75,351	0,088	-0,022
-305,080	-200,000	-0,019	0,107
-304,066	-200,000	-0,013	0,177
-303,051	595,289	-0,049	-0,087
-302,037	104,221	0,084	-0,071
-301,022	-200,000	0,063	0,000
-300,008	800,000	0,023	0,062
-298,993	238,815	-0,147	0,175
-297,978	-200,000	-0,018	0,059
-296,964	-21,621	-0,039	-0,017
-295,949	-72,858	-0,025	-0,007
-294,935	-67,758	-0,080	-0,022
-293,920	-200,000	0,008	-0,044
-292,905	50,783	0,001	0,000
-291,891	-12,418	0,151	0,070
-290,876	-3,981	0,053	-0,026
-289,862	-131,269	-0,092	-0,009
-288,847	-13,521	-0,045	0,021
-287,832	-72,091	0,062	0,016
-286,818	800,000	0,026	-0,081
-285,803	-30,856	0,025	-0,010
-284,789	800,000	-0,028	0,087
-283,774	-200,000	-0,000	0,087
-282,759	-200,000	-0,031	-0,129
-281,745	-200,000	-0,008	-0,088
-280,730	800,000	-0,024	-0,053
-279,716	-93,699	0,060	-0,012
-278,701	-67,872	-0,048	0,013
-277,686	800,000	0,028	0,088
-276,672	-32,019	0,173	0,069
-275,657	280,116	-0,099	-0,126
-274,643	800,000	-0,020	0,061
-273,628	800,000	-0,042	0,090
-272,613	-200,000	-0,008	0,049
-271,599	43,370	-0,067	0,043
-270,584	-41,857	0,160	-0,058
-269,570	110,470	0,103	-0,089
-268,555	43,181	0,161	-0,105
-267,540	-200,000	0,014	0,051
-266,526	33,350	-0,075	0,046
-265,511	-200,000	-0,007	-0,199
-264,497	-89,685	-0,133	-0,028
-263,482	38,296	0,053	0,033
-262,467	800,000	-0,032	0,072
-261,453	345,826	0,111	0,156
-260,438	202,595	-0,087	-0,096
-259,424	45,775	-0,132	-0,087
-258,409	-94,523	-0,065	0,012
-257,395	9,371	0,090	-0,049
-256,380	-54,828	0,009	-0,003
-255,365	169,926	0,099	0,101
-254,351	-99,751	0,131	0,023
-253,336	204,918	-0,123	0,136
-252,322	-200,000	-0,008	-0,050
-251,307	570,136	0,057	-0,099
-250,292	135,918	-0,057	0,053
-249,278	98,472	0,050	0,041
-248,263	394,083	0,003	0,005
-247,249	41,910	-0,149	-0,096
-246,234	800,000	-0,035	-0,094
-245,219	-9,197	-0,038	0,018
-244,205	536,170	0,024	0,041
-243,190	-37,999	-0,059	0,022
-242,176	-42,100	0,112	-0,041
-241,161	20,632	0,099	0,057
-240,146	631,732	0,033	0,059
-239,132	800,000	0,015	0,045
-238,117	-200,000	-0,011	0,039
-237,103	-96,054	-0,010	-0,002
-236,088	27,185	0,099	-0,059
-235,073	-42,416	0,095	-0,034
-234,059	8,338	0,128	-0,069
-233,044	621,194	0,008	0,015
-232,030	-198,172	0,071	-0,000
-231,015	-200,000	-0,005	-0,031
-230,000	496,708	0,021	0,034
-228,986	-200,000	0,028	-0,129
-227,971	-41,349	-0,111	0,040
-226,957	95,856	-0,051	0,041
-225,942	-45,389	0,115	0,041
-224,927	241,598	0,049	-0,059
-223,913	309,576	0,030	-0,040
-222,898	-200,000	0,015	0,081
-221,884	198,459	-0,053	-0,058
-220,869	65,001	0,037	0,027
-219,855	-78,167	0,100	0,024
-218,840	-149,623	0,051	-0,003
-217,825	-161,839	0,038	0,001
-216,811	-44,611	-0,066	-0,024
-215,796	109,166	-0,038	0,032
-214,782	-6,179	-0,069	0,033
-213,767	114,667	0,103	-0,090
-212,752	-27,626	-0,106	-0,044
-211,738	504,580	0,078	0,129
-210,723	-200,000	-0,017	-0,057
-209,709	-200,000	-0,026	-0,180
-208,694	183,183	-0,052	-0,055
-207,679	-200,000	0,013	0,053
-206,665	160,564	0,120	-0,119
-205,650	7,434	0,117	-0,062
-204,636	-45,797	0,018	-0,006
-203,621	727,161	-0,090	0,172
-202,606	-93,277	0,066	0,013
-201,592	-57,242	-0,017	0,005
-200,577	52,536	-0,084	0,057
-199,563	81,944	-0,033	0,026
-198,548	29,206	0,059	-0,035
-197,533	-16,565	0,016	0,007
-196,519	673,443	-0,059	0,109
-195,504	147,671	-0,082	0,078
-194,490	800,000	0,089	-0,180
-193,475	800,000	-0,021	-0,045
-192,460	1,109	0,077	-0,039
-191,446	-196,365	0,084	-0,000
-190,431	116,777	0,123	-0,107
-189,417	294,245	-0,153	0,200
-188,402	800,000	-0,022	0,046
-187,387	31,787	-0,070	0,043
-186,373	243,491	0,042	-0,050
-185,358	60,872	-0,109	-0,077
-184,344	61,470	0,222	-0,157
-183,329	25,981	0,025	-0,015
-182,315	-200,000	0,001	0,077
-181,300	26,555	0,067	0,040
-180,285	-134,242	0,036	0,003
-179,271	551,082	-0,065	-0,111
-178,256	2,429	-0,143	-0,074
-177,242	492,290	0,026	-0,043
-176,227	170,700	-0,126	-0,129
-175,212	-146,042	-0,031	-0,002
-174,198	29,429	-0,067	0,040
-173,183	-48,195	0,016	0,005
-172,169	354,863	-0,020	-0,028
-171,154	60,668	-0,052	0,037
-170,139	298,791	0,031	0,041
-169,125	719,623	0,087	0,166
-168,110	81,807	0,088	-0,068
-167,096	-200,000	-0,021	0,115
-166,081	174,396	-0,029	0,029
-165,066	-78,957	-0,057	-0,014
-164,052	166,813	0,084	0,085
-163,037	-109,132	-0,084	-0,013
-162,023	761,671	0,032	0,061
-161,008	800,000	0,103	0,241
-159,993	-89,399	-0,084	0,017
-158,979	-200,000	0,010	0,095
-157,964	800,000	-0,015	-0,042
-156,950	-200,000	0,012	-0,125
-155,935	76,393	-0,045	0,034
-154,920	-200,000	0,003	0,042
-153,906	800,000	-0,052	-0,104
-152,891	336,506	-0,026	0,036
-151,877	276,150	0,079	0,100
-150,862	-129,645	0,088	0,009
-149,847	-200,000	-0,024	-0,209
-148,833	-200,000	-0,002	-0,058
-147,818	111,587	-0,052	0,044
-146,804	-200,000	-0,030	0,119
-145,789	-102,729	0,069	0,012
-144,775	761,733	-0,152	0,294
-143,760	142,332	0,087	0,082
-142,745	800,000	0,034	0,080
-141,731	184,226	-0,074	-0,078
-140,716	174,944	0,056	-0,057
-139,702	800,000	-0,038	-0,082
-138,687	-151,964	-0,022	0,001
-137,672	789,414	-0,029	0,057
-136,658	19,056	0,095	-0,054
-135,643	-6,867	0,082	-0,040
-134,629	-167,746	-0,109	-0,003
-133,614	-200,000	-0,003	-0,095
-132,599	358,992	-0,043	0,061
-131,585	153,852	0,090	0,088
-130,570	-39,537	-0,014	0,005
-129,556	637,198	0,079	-0,143
-128,541	-73,948	-0,033	-0,008
-127,526	-55,613	-0,066	-0,021
-126,512	-200,000	-0,018	0,080
-125,497	-200,000	-0,006	0,036
-124,483	129,670	0,083	0,076
-123,468	-200,000	0,046	0,160
-122,453	92,672	-0,101	-0,081
-121,439	14,304	0,084	0,046
-120,424	27,585	-0,109	0,065
-119,410	-200,000	-0,001	0,089
-118,395	-200,000	-0,004	0,046
-117,380	517,153	-0,067	0,111
-116,366	800,000	-0,042	0,084
-115,351	800,000	-0,014	-0,030
-114,337	-16,696	-0,076	0,034
-113,322	-78,783	0,059	0,014
-112,307	-86,670	-0,018	0,004
-111,293	800,000	-0,004	-0,011
-110,278	-15,495	0,023	0,010
-109,264	-76,930	0,078	0,019
-108,249	-22,744	-0,085	-0,036
-107,234	258,681	-0,035	-0,043
-106,220	-200,000	-0,010	0,061
-105,205	-200,000	0,019	-0,078
-104,191	800,000	0,023	0,067
-103,176	-87,476	-0,102	0,022
-102,162	-200,000	-0,020	0,089
-101,147	800,000	-0,014	0,033
-100,132	71,455	-0,054	0,039
-99,118	81,689	0,115	0,088
-98,103	800,000	-0,015	-0,035
-97,089	800,000	-0,012	-0,037
-96,074	800,000	0,055	0,166
-95,059	193,904	-0,025	0,027
-94,045	539,457	-0,038	-0,065
-93,030	-93,551	-0,129	-0,025
-92,016	800,000	0,041	-0,082
-91,001	-57,091	-0,072	-0,022
-89,986	2,016	0,155	0,079
-88,972	-15,154	-0,028	0,013
-87,957	-11,746	-0,129	0,060
-86,943	-200,000	0,020	0,140
-85,928	261,740	-0,073	0,090
-84,913	-14,152	-0,220	-0,100
-83,899	-33,424	0,149	-0,058
-82,884	57,084	0,101	0,069
-81,870	-77,307	-0,137	0,034
-80,855	455,376	0,052	0,082
-79,840	470,256	0,019	-0,030
-78,826	-200,000	0,011	-0,116
-77,811	-149,992	-0,170	-0,009
-76,797	488,293	-0,021	0,034
-75,782	-35,735	-0,070	0,027
-74,767	800,000	0,015	0,034
-73,753	382,145	0,042	-0,062
-72,738	800,000	0,029	-0,073
-71,724	-111,145	-0,015	0,002
-70,709	-200,000	-0,005	0,049
-69,694	25,253	-0,087	-0,051
-68,680	12,560	0,107	0,058
-67,665	-151,541	0,112	-0,006
-66,651	439,781	0,078	0,121
-65,636	92,667	-0,039	0,031
-64,622	-72,981	-0,039	0,010
-63,607	162,398	-0,041	0,041
-62,592	11,720	-0,030	0,017
-61,578	40,521	0,066	0,042
-60,563	-200,000	-0,038	0,140
-59,549	-200,000	-0,026	0,103
-58,534	-66,598	-1,586	-0,442
-57,519	420,401	-1,302	-1,981
-56,505	-200,000	-0,594	-4,488
-55,490	227,307	1,045	1,205
-54,476	800,000	4,937	11,403
-53,461	-200,000	18,948	312,289
-52,446	-200,000	738,550	2321,193
-51,432	574,734	1654,776	2870,924
-50,417	79,173	1671,474	1266,842
-49,403	21,878	1544,188	888,803
-48,388	15,700	1466,781	814,213
-47,373	17,821	1456,839	818,913
-46,359	16,838	1446,831	808,539
-45,344	13,977	1442,263	792,247
-44,330	13,873	1440,296	790,636
-43,315	13,866	1438,788	789,744
-42,300	13,916	1436,766	788,844
-41,286	13,959	1435,589	788,372
-40,271	13,883	1434,498	787,380
-39,257	13,873	1433,343	786,663
-38,242	13,959	1431,931	786,270
-37,227	13,955	1430,685	785,534
-36,213	14,013	1429,195	784,958
-35,198	13,941	1428,113	783,994
-34,184	13,958	1427,177	783,530
-33,169	13,904	1425,984	782,585
-32,154	13,947	1424,575	781,986
-31,140	13,909	1423,632	781,257
-30,125	13,947	1422,438	780,751
-29,111	13,922	1421,379	780,023
-28,096	13,944	1420,061	779,371
-27,082	13,861	1419,138	778,439
-26,067	13,864	1418,049	777,825
-25,052	13,900	1416,877	777,324
-24,038	13,856	1415,908	776,555
-23,023	13,850	1415,112	776,058
-22,009	13,869	1414,009	775,510
-20,994	13,825	1413,088	774,769
-19,979	13,837	1412,166	774,288
-18,965	13,775	1411,397	773,546
-17,950	13,822	1410,267	773,114
-16,936	13,818	1409,532	772,664
-15,921	13,748	1408,334	771,649
-14,906	13,801	1407,370	771,338
-13,892	13,785	1406,372	770,684
-12,877	13,770	1405,531	770,123
-11,863	13,781	1404,659	769,665
-10,848	13,754	1403,701	768,988
-9,833	13,764	1403,066	768,654
-8,819	13,728	1401,916	767,827
-7,804	13,691	1401,202	767,231
-6,790	13,698	1400,061	766,611
-5,775	13,762	1398,927	766,257
-4,760	13,717	1398,057	765,537
-3,746	13,667	1397,206	764,812
-2,731	13,666	1396,545	764,415
-1,717	13,648	1395,680	763,828
-0,702	13,631	1393,697	762,634
0,313	17,402	1311,316	735,057
1,327	33,574	705,654	433,021
2,342	51,493	123,920	83,182
3,356	-1,356	16,826	8,375
4,371	-6,184	3,211	1,546
5,386	65,715	0,533	0,382
6,400	794,292	-0,097	0,189
7,415	72,199	-0,272	-0,200
8,429	-5,958	-0,258	-0,124
9,444	-46,416	-0,193	-0,066
10,459	9,269	-0,303	-0,161
11,473	21,483	-0,341	-0,195
12,488	26,509	-0,265	-0,156
13,502	33,104	-0,290	-0,177
14,517	-15,548	-0,391	-0,176
15,531	15,177	-0,337	-0,186
16,546	10,627	-0,370	-0,199
17,561	123,860	-0,364	-0,323
18,575	25,284	-0,115	-0,068
19,590	128,841	-0,297	-0,267
20,604	172,398	-0,232	-0,236
21,619	45,273	-0,457	-0,297
22,634	146,761	-0,441	-0,419
23,648	8,344	-0,502	-0,266
24,663	103,283	-0,336	-0,278
25,677	-20,079	-0,323	-0,140
26,692	-25,846	-0,409	-0,169
27,707	125,610	-0,251	-0,223
28,721	175,061	-0,275	-0,281
29,736	96,550	-0,349	-0,281
30,750	60,305	-0,486	-0,339
31,765	97,038	-0,426	-0,345
32,780	65,913	-0,480	-0,343
33,794	-6,329	-0,369	-0,177
34,809	-0,064	-0,526	-0,264
35,823	-39,599	-0,253	-0,093
36,838	225,231	-0,301	-0,344
37,853	15,920	-0,364	-0,202
38,867	146,297	-0,354	-0,335
39,882	300,185	-0,221	-0,288
40,896	221,431	-0,159	-0,181
41,911	10,792	-0,376	-0,202
42,926	83,321	-0,275	-0,211
43,940	116,136	-0,365	-0,315
44,955	13,691	-0,558	-0,305
45,969	42,691	-0,347	-0,223
46,984	77,119	-0,373	-0,279
47,999	-93,564	-0,300	-0,058
49,013	247,606	-0,209	-0,250
50,028	95,811	-0,335	-0,270
51,042	166,404	-0,197	-0,197
52,057	117,939	-0,412	-0,357
53,071	187,330	-0,290	-0,305
54,086	243,494	-0,244	-0,288
55,101	276,811	-0,248	-0,311
56,115	18,191	-0,247	-0,139
57,130	88,492	-0,323	-0,253
58,144	228,243	-0,189	-0,217
59,159	183,904	-0,332	-0,347
60,174	6,808	-0,431	-0,225
61,188	62,347	-0,363	-0,255
62,203	56,427	-0,308	-0,210
63,217	52,219	-0,331	-0,221
64,232	-71,801	-0,282	-0,073
65,247	60,972	-0,433	-0,302
66,261	31,457	-0,355	-0,214
67,276	310,158	-0,236	-0,311
68,290	238,929	-0,240	-0,281
69,305	-98,481	-0,355	-0,063
70,320	-13,246	-0,238	-0,108
71,334	97,235	-0,316	-0,255
72,349	-8,497	-0,258	-0,122
73,363	198,428	-0,304	-0,327
74,378	-9,313	-0,388	-0,182
75,393	218,330	-0,282	-0,317
76,407	-33,901	-0,342	-0,132
77,422	318,756	-0,131	-0,174
78,436	14,447	-0,437	-0,239
79,451	-13,957	-0,403	-0,182
80,466	-3,956	-0,363	-0,176
81,480	189,649	-0,257	-0,271
82,495	-144,923	-0,329	-0,021
83,509	-19,485	-0,335	-0,145
84,524	36,239	-0,246	-0,152
85,539	-13,228	-0,242	-0,110
86,553	98,607	-0,172	-0,140
87,568	33,167	-0,280	-0,170
88,582	176,157	-0,264	-0,269
89,597	12,711	-0,413	-0,223
90,611	85,751	-0,279	-0,215
91,626	77,525	-0,245	-0,183
92,641	147,476	-0,232	-0,220
93,655	334,408	-0,175	-0,239
94,670	87,874	-0,331	-0,257
95,684	299,754	-0,259	-0,335
96,699	28,630	-0,319	-0,189
97,714	159,154	-0,217	-0,212
98,728	-20,240	-0,191	-0,082
99,743	186,976	-0,250	-0,261
100,757	61,296	-0,291	-0,203
101,772	141,056	-0,260	-0,241
102,787	230,451	-0,192	-0,221
103,801	164,561	-0,283	-0,280
104,816	32,174	-0,280	-0,169
105,830	287,596	-0,177	-0,225
106,845	517,874	-0,103	-0,170
107,860	108,407	-0,242	-0,203
108,874	37,514	-0,251	-0,156
109,889	61,345	-0,219	-0,153
110,903	-0,486	-0,409	-0,203
111,918	800,000	-0,072	-0,189
112,933	34,076	-0,468	-0,285
113,947	-98,216	-0,226	-0,040
114,962	21,829	-0,297	-0,169
115,976	315,353	-0,227	-0,301
116,991	-71,591	-0,161	-0,042
118,006	43,813	-0,377	-0,241
119,020	-30,674	-0,247	-0,097
120,035	291,962	-0,143	-0,183
121,049	660,784	-0,083	-0,150
122,064	104,430	-0,274	-0,226
123,079	-35,861	-0,352	-0,133
124,093	235,965	-0,229	-0,266
125,108	174,664	-0,184	-0,187
126,122	-63,432	-0,418	-0,119
127,137	66,740	-0,173	-0,123
128,151	73,465	-0,176	-0,129
129,166	-162,748	-0,115	-0,004
130,181	74,849	-0,279	-0,205
131,195	147,680	-0,281	-0,265
132,210	555,973	-0,142	-0,239
133,224	203,931	-0,170	-0,185
134,239	54,211	-0,264	-0,178
135,254	83,129	-0,219	-0,166
136,268	343,003	-0,213	-0,292
137,283	99,927	-0,293	-0,237
138,297	76,317	-0,295	-0,218
139,312	111,393	-0,304	-0,256
140,327	-29,952	-0,294	-0,117
141,341	-8,051	-0,281	-0,132
142,356	217,354	-0,173	-0,192
143,370	800,000	-0,090	-0,237
144,385	137,190	-0,133	-0,121
145,400	355,313	-0,127	-0,178
146,414	-4,340	-0,352	-0,169
147,429	455,202	-0,135	-0,209
148,443	295,827	-0,139	-0,179
149,458	-16,141	-0,297	-0,131
150,473	27,069	-0,195	-0,114
151,487	101,128	-0,262	-0,213
152,502	371,317	-0,212	-0,301
153,516	51,158	-0,225	-0,149
154,531	29,895	-0,250	-0,148
155,546	67,578	-0,310	-0,221
156,560	800,000	-0,188	-0,422
157,575	126,058	-0,164	-0,145
158,589	493,797	-0,139	-0,223
159,604	72,893	-0,159	-0,116
160,619	125,454	-0,246	-0,216
161,633	53,148	-0,267	-0,178
162,648	119,229	-0,221	-0,191
163,662	198,282	-0,188	-0,200
164,677	64,742	-0,259	-0,182
165,692	-88,223	-0,175	-0,036
166,706	73,566	-0,245	-0,179
167,721	51,387	-0,340	-0,225
168,735	86,614	-0,271	-0,208
169,750	34,047	-0,304	-0,184
170,764	127,687	-0,174	-0,154
171,779	-13,882	-0,216	-0,097
172,794	-55,647	-0,287	-0,089
173,808	115,492	-0,235	-0,200
174,823	16,405	-0,348	-0,191
175,837	-34,086	-0,274	-0,104
176,852	344,344	-0,126	-0,173
177,867	-114,849	-0,239	-0,031
178,881	-200,000	-0,067	-0,207
179,896	111,014	-0,266	-0,223
180,910	201,041	-0,211	-0,227
181,925	-51,538	-0,185	-0,060
182,940	58,735	-0,370	-0,253
183,954	677,622	-0,087	-0,159
184,969	55,711	-0,166	-0,112
185,983	11,437	-0,213	-0,113
186,998	52,344	-0,271	-0,180
188,013	800,000	-0,052	-0,119
189,027	227,377	-0,199	-0,225
190,042	21,337	-0,281	-0,158
191,056	131,625	-0,254	-0,228
192,071	-19,680	-0,136	0,058
193,086	4,503	-0,205	-0,104
194,100	188,636	-0,152	-0,158
195,115	278,994	-0,179	-0,223
196,129	74,087	-0,223	-0,163
197,144	108,522	-0,207	-0,172
198,159	188,674	-0,193	-0,201
199,173	168,101	-0,138	-0,137
200,188	215,782	-0,209	-0,231
201,202	65,716	-0,203	-0,143
202,217	-66,940	-0,238	-0,065
203,232	-3,413	-0,165	-0,080
204,246	-28,562	-0,253	-0,101
205,261	151,860	-0,182	-0,172
206,275	62,051	-0,220	-0,152
207,290	-42,246	-0,256	-0,090
208,304	1,749	-0,195	-0,097
209,319	72,646	-0,123	-0,089
210,334	592,418	-0,042	-0,072
211,348	-55,056	-0,315	-0,098
212,363	65,296	-0,205	-0,144
213,377	132,324	-0,175	-0,156
214,392	85,579	-0,170	-0,130
215,407	12,878	-0,184	-0,099
216,421	137,952	-0,147	-0,134
217,436	19,879	-0,200	-0,111
218,450	-57,759	-0,229	-0,069
219,465	139,927	-0,249	-0,228
220,480	-134,174	-0,172	-0,015
221,494	153,177	-0,214	-0,203
222,509	161,856	-0,119	-0,116
223,523	306,371	-0,145	-0,188
224,538	61,835	-0,178	-0,123
225,553	-11,534	-0,364	-0,165
226,567	203,435	-0,184	-0,198
227,582	107,427	-0,201	-0,166
228,596	4,518	-0,148	-0,075
229,611	416,146	-0,098	-0,145
230,626	-25,351	-0,198	-0,081
231,640	32,645	-0,225	-0,135
232,655	23,300	-0,196	-0,112
233,669	18,787	-0,237	-0,131
234,684	157,603	-0,159	-0,153
235,699	1,144	-0,171	-0,085
236,713	317,638	-0,188	-0,247
237,728	41,625	-0,185	-0,116
238,742	-22,458	-0,202	-0,085
239,757	233,712	-0,136	-0,155
240,772	178,312	-0,149	-0,151
241,786	-34,536	-0,222	-0,084
242,801	513,787	-0,120	-0,195
243,815	-98,055	-0,255	-0,045
244,830	86,401	-0,127	-0,097
245,844	112,068	-0,242	-0,202
246,859	-21,217	-0,228	-0,096
247,874	126,202	-0,198	-0,174
248,888	32,935	-0,105	-0,063
249,903	114,326	-0,205	-0,173
250,917	229,226	-0,060	-0,068
251,932	100,627	-0,142	-0,114
252,947	-46,636	-0,222	-0,075
253,961	243,279	-0,220	-0,255
254,976	102,219	-0,127	-0,103
255,990	192,704	-0,294	-0,307
257,005	-185,680	-0,188	-0,002
258,020	38,922	-0,054	-0,033
259,034	12,053	-0,190	-0,101
260,049	502,521	-0,167	-0,268
261,063	163,536	-0,138	-0,134
262,078	-6,333	-0,195	-0,091
263,093	-22,827	-0,203	-0,084
264,107	77,696	-0,177	-0,130
265,122	252,804	-0,197	-0,233
266,136	20,946	-0,197	0,110
267,151	-95,303	-0,087	-0,016
268,166	27,224	-0,203	-0,117
269,180	208,952	-0,159	-0,173
270,195	220,380	-0,224	-0,249
271,209	-88,241	-0,006	0,001
272,224	181,234	-0,195	-0,198
273,239	-125,846	-0,136	-0,014
274,253	-32,103	-0,213	-0,082
275,268	54,966	-0,256	-0,170
276,282	20,530	-0,323	-0,180
277,297	233,932	-0,106	-0,121
278,312	338,806	-0,112	-0,151
279,326	-25,271	-0,086	-0,035
280,341	-5,721	-0,234	-0,110
281,355	-67,322	-0,183	0,049
282,370	13,882	0,068	-0,037
283,384	-23,761	-0,251	-0,103
284,399	10,788	-0,310	-0,163
285,414	66,647	-0,157	-0,110
286,428	800,000	-0,036	-0,083
287,443	47,653	-0,200	-0,128
288,457	-50,685	-0,161	-0,052
289,472	-200,000	0,007	-0,035
290,487	800,000	-0,068	-0,176
291,501	304,368	-0,100	-0,128
292,516	663,755	-0,168	-0,301
293,530	-5,361	-0,254	-0,120
294,545	53,429	-0,108	-0,071
295,560	74,723	-0,119	-0,086
296,574	18,994	-0,296	-0,163
297,589	18,734	-0,233	-0,128
298,603	37,804	-0,145	-0,089
299,618	257,930	-0,064	-0,076
300,633	582,211	-0,072	-0,123
301,647	-75,805	-0,202	-0,049
302,662	800,000	-0,065	-0,172
303,676	-16,941	-0,179	-0,077
304,691	800,000	-0,054	-0,110
305,706	-87,912	-0,137	-0,028
306,720	80,723	-0,161	-0,119
307,735	800,000	-0,039	-0,086
308,749	124,711	-0,040	-0,034
309,764	157,345	-0,118	0,112
310,779	659,671	-0,034	0,061
311,793	2,637	-0,223	0,111
312,808	-200,000	-0,049	-0,180
313,822	171,298	-0,198	-0,196
314,837	591,886	-0,106	-0,180
315,852	-104,180	-0,117	-0,019
316,866	-1,584	-0,093	0,045
317,881	246,464	-0,135	-0,156
318,895	137,415	-0,114	-0,103
319,910	92,686	-0,211	-0,164
320,925	73,294	-0,208	-0,149
321,939	-110,051	-0,137	-0,020
322,954	238,029	-0,140	-0,160
323,968	-29,568	-0,163	-0,064
324,983	730,225	-0,081	-0,149
325,997	-19,998	-0,154	-0,065
327,012	800,000	-0,056	-0,154
328,027	113,415	-0,056	-0,047
329,041	86,984	-0,224	-0,170
330,056	173,136	-0,176	-0,175
331,070	-173,275	-0,110	-0,002
332,085	-15,475	-0,220	-0,096
333,100	28,976	-0,220	-0,128
334,114	150,884	-0,143	-0,134
335,129	247,358	-0,128	-0,149
336,143	69,015	-0,141	-0,099
337,158	-39,642	-0,092	-0,033
338,173	114,066	-0,091	-0,076
339,187	-115,291	-0,152	-0,020
340,202	527,281	-0,081	-0,132
341,216	46,090	-0,283	-0,179
342,231	-49,462	-0,236	-0,077
343,246	-82,633	-0,172	0,038
344,260	-51,882	-0,086	-0,027
345,275	-70,284	-0,169	-0,044
346,289	800,000	-0,023	0,055
347,304	50,130	-0,063	0,041
348,319	264,907	-0,114	-0,136
349,333	-71,207	-0,051	-0,013
350,348	235,548	-0,148	-0,168
351,362	61,898	-0,072	-0,049
352,377	-175,560	-0,091	0,002
353,392	-200,000	-0,008	0,032
354,406	-200,000	-0,234	-0,001
355,421	207,058	1315,318	1408,540
356,435	159,261	1476,135	1409,040
