DTS Sentinel unit serial number:	SN410029Multiplexer serial number:	ORYXHardware model number:	OX2-SRSoftware version number:	ORYX F/W v4,00 Oryx Data Collector v3.7.2.0data status	okinstallation	B3 Nyhavnadifferential loss correction	single-endedforward channel	channel 1reverse channel	N/Adate	2023/11/29time	07:47:30forward acquisition time	300,00reverse acquisition time	0,00gamma	499,1914k internal	0,3212k external	0,3212temperature offset calibration	1,0000default loss term (dB/km)	0,3820temperature slope calibration	1,0000multiplexer offset coefficient	1,0000multiplexer slope coefficient	1,0000fibre end	0,00T internal ref (°C)	8,87T ext. ref 1 (°C)	-6,43T ext. ref 2 (°C)	-6,52length (m)	temperature (°C)	Stokes	anti-Stokes-744,400	-30,472	-0,247	-0,101
-743,385	-200,000	0,022	0,306
-742,371	183,015	-0,168	-0,180
-741,356	800,000	0,110	0,297
-740,342	72,507	-0,211	-0,159
-739,327	-200,000	-0,007	0,395
-738,312	-200,000	-0,076	-0,294
-737,298	-200,000	-0,071	0,281
-736,283	120,687	-0,173	-0,156
-735,269	-200,000	-0,070	0,326
-734,254	158,080	-0,202	-0,203
-733,239	60,305	-0,188	0,135
-732,225	-200,000	-0,073	-0,288
-731,210	-166,797	0,187	0,005
-730,196	800,000	-0,052	0,141
-729,181	-20,362	-0,123	-0,055
-728,167	-200,000	0,013	0,083
-727,152	-107,780	0,142	-0,022
-726,137	-200,000	0,010	-0,033
-725,123	800,000	-0,025	0,061
-724,108	800,000	-0,036	-0,110
-723,094	142,784	-0,065	-0,063
-722,079	775,248	-0,017	0,034
-721,064	800,000	-0,024	0,059
-720,050	123,035	0,060	-0,055
-719,035	88,673	-0,101	-0,082
-718,021	-121,155	0,096	-0,011
-717,006	800,000	0,028	0,066
-715,991	132,073	-0,072	-0,067
-714,977	-145,176	0,086	0,006
-713,962	130,088	-0,040	-0,037
-712,948	-200,000	-0,015	-0,047
-711,933	-101,845	-0,056	-0,010
-710,918	189,899	-0,056	-0,061
-709,904	758,092	0,021	-0,041
-708,889	-200,000	-0,012	-0,120
-707,875	-200,000	0,004	-0,032
-706,860	369,024	-0,082	0,121
-705,845	-89,001	-0,175	0,037
-704,831	800,000	0,065	0,133
-703,816	-82,421	-0,046	-0,011
-702,802	-29,838	-0,089	-0,037
-701,787	800,000	-0,055	-0,130
-700,772	-37,457	-0,111	-0,043
-699,758	-104,808	0,138	-0,023
-698,743	187,424	-0,040	-0,043
-697,729	-97,862	-0,164	-0,030
-696,714	151,810	-0,040	0,040
-695,699	-200,000	-0,022	-0,092
-694,685	91,172	-0,164	-0,133
-693,670	470,343	-0,054	-0,088
-692,656	-79,381	-0,203	0,049
-691,641	93,846	0,129	0,106
-690,627	507,089	-0,079	0,133
-689,612	800,000	0,047	0,141
-688,597	182,477	0,017	-0,018
-687,583	291,070	0,083	-0,110
-686,568	-113,793	-0,050	0,007
-685,554	600,355	0,089	-0,161
-684,539	442,127	-0,042	-0,066
-683,524	-90,475	0,075	-0,016
-682,510	-11,381	-0,051	0,024
-681,495	-78,158	-0,064	0,016
-680,481	-200,000	-0,004	0,137
-679,466	-150,225	-0,104	-0,006
-678,451	-96,105	-0,150	-0,029
-677,437	800,000	0,077	0,156
-676,422	800,000	-0,039	0,084
-675,408	90,482	-0,080	-0,064
-674,393	-200,000	-0,009	-0,033
-673,378	4,856	-0,103	-0,055
-672,364	-200,000	-0,018	-0,186
-671,349	800,000	0,051	-0,158
-670,335	-131,337	-0,069	0,007
-669,320	296,764	-0,029	0,039
-668,305	256,614	-0,048	0,060
-667,291	-118,037	-0,135	-0,017
-666,276	-109,575	0,130	0,020
-665,262	-70,415	-0,152	-0,041
-664,247	590,694	-0,048	-0,087
-663,232	34,471	0,052	-0,033
-662,218	-165,595	-0,066	0,002
-661,203	-42,740	0,084	0,031
-660,189	-125,320	-0,094	-0,010
-659,174	300,701	-0,103	-0,137
-658,159	68,282	0,068	-0,051
-657,145	-44,886	-0,081	-0,029
-656,130	800,000	-0,019	-0,049
-655,116	325,308	-0,068	-0,095
-654,101	-116,751	-0,088	-0,012
-653,086	313,270	0,112	-0,152
-652,072	30,335	-0,103	-0,064
-651,057	102,248	-0,103	-0,087
-650,043	-200,000	0,026	-0,167
-649,028	-48,449	0,056	0,020
-648,014	-28,168	-0,030	0,012
-646,999	800,000	0,022	0,066
-645,984	-95,275	-0,024	-0,005
-644,970	-200,000	0,005	-0,039
-643,955	-123,793	-0,124	0,014
-642,941	-57,938	-0,167	0,052
-641,926	789,854	-0,030	-0,059
-640,911	293,286	0,083	0,110
-639,897	800,000	-0,028	0,071
-638,882	205,907	-0,047	0,053
-637,868	800,000	-0,009	-0,028
-636,853	199,296	-0,045	-0,050
-635,838	-200,000	0,005	-0,103
-634,824	-85,812	-0,024	-0,005
-633,809	800,000	-0,027	0,061
-632,795	800,000	0,014	-0,040
-631,780	-150,309	0,037	0,002
-630,765	-200,000	0,003	0,074
-629,751	-200,000	-0,009	-0,088
-628,736	474,134	0,054	-0,089
-627,722	-134,931	0,057	-0,005
-626,707	-126,953	0,096	0,010
-625,692	-200,000	-0,001	0,087
-624,678	189,917	-0,079	0,086
-623,663	-110,711	0,053	-0,008
-622,649	-200,000	-0,007	-0,049
-621,634	156,413	0,084	0,084
-620,619	146,268	-0,131	-0,127
-619,605	251,802	0,097	0,119
-618,590	106,102	0,005	-0,004
-617,576	-46,315	0,061	0,021
-616,561	-119,977	0,073	0,009
-615,546	-4,466	-0,101	-0,050
-614,532	195,309	-0,081	0,089
-613,517	-200,000	-0,048	0,164
-612,503	-146,712	0,116	0,007
-611,488	-25,551	-0,016	0,007
-610,474	-200,000	0,008	-0,066
-609,459	617,851	-0,037	0,067
-608,444	60,197	-0,051	0,036
-607,430	-65,414	-0,138	-0,040
-606,415	-200,000	-0,023	-0,134
-605,401	-24,292	-0,087	-0,037
-604,386	210,757	0,079	0,090
-603,371	163,984	-0,052	-0,053
-602,357	-200,000	-0,018	-0,087
-601,342	150,756	0,083	-0,082
-600,328	-88,361	-0,044	-0,009
-599,313	-200,000	0,002	0,041
-598,298	-104,654	0,032	0,005
-597,284	327,703	0,107	-0,148
-596,269	-200,000	0,036	0,196
-595,255	561,900	-0,078	0,137
-594,240	800,000	0,008	-0,022
-593,225	-200,000	0,006	-0,053
-592,211	-147,475	-0,193	-0,012
-591,196	560,057	0,037	0,064
-590,182	-200,000	0,006	-0,073
-589,167	126,478	0,109	0,100
-588,152	-45,141	0,062	-0,022
-587,138	72,003	-0,131	0,098
-586,123	117,958	-0,145	-0,129
-585,109	-200,000	0,007	-0,104
-584,094	-200,000	-0,005	-0,056
-583,079	324,868	-0,020	-0,028
-582,065	-200,000	0,003	-0,012
-581,050	800,000	-0,014	0,036
-580,036	-109,864	0,187	0,028
-579,021	-137,486	-0,094	0,008
-578,006	-200,000	0,005	-0,097
-576,992	143,667	-0,074	-0,071
-575,977	-138,174	0,092	0,007
-574,963	26,530	-0,112	0,067
-573,948	222,840	-0,076	-0,088
-572,934	-200,000	0,025	-0,092
-571,919	-200,000	-0,002	-0,019
-570,904	21,150	0,087	-0,051
-569,890	67,114	-0,089	0,065
-568,875	101,851	-0,119	0,100
-567,861	-52,099	0,050	0,017
-566,846	48,570	0,054	0,036
-565,831	-200,000	-0,051	0,171
-564,817	-67,705	-0,019	0,005
-563,802	245,036	0,098	-0,119
-562,788	-103,881	-0,079	-0,013
-561,773	-81,966	0,139	-0,033
-560,758	379,175	0,017	-0,025
-559,744	-37,535	0,062	0,024
-558,729	51,717	0,032	-0,022
-557,715	233,420	-0,068	0,080
-556,700	-159,751	-0,085	0,003
-555,685	208,480	0,032	0,036
-554,671	-165,491	0,066	0,002
-553,656	-110,871	-0,112	-0,016
-552,642	102,467	0,125	-0,105
-551,627	-183,970	-0,056	-0,001
-550,612	-200,000	0,008	0,026
-549,598	698,111	0,100	-0,190
-548,583	290,642	-0,087	-0,114
-547,569	117,616	-0,042	0,037
-546,554	1,513	0,068	0,035
-545,539	328,240	0,035	-0,048
-544,525	62,307	-0,061	-0,044
-543,510	-200,000	-0,071	-0,260
-542,496	21,303	0,030	0,017
-541,481	36,668	-0,092	0,058
-540,466	-200,000	-0,009	-0,049
-539,452	108,990	-0,073	0,062
-538,437	-14,482	0,036	-0,016
-537,423	-200,000	-0,024	-0,136
-536,408	72,913	-0,038	-0,029
-535,393	179,337	0,043	-0,045
-534,379	-188,392	0,070	0,001
-533,364	18,696	0,100	-0,058
-532,350	-200,000	0,005	0,022
-531,335	3,990	0,064	-0,033
-530,321	800,000	0,040	0,085
-529,306	-129,682	-0,087	0,009
-528,291	800,000	-0,021	-0,068
-527,277	-97,836	-0,103	0,019
-526,262	-200,000	-0,056	0,000
-525,248	-200,000	0,011	0,086
-524,233	-0,444	0,130	-0,066
-523,218	800,000	0,064	0,131
-522,204	-200,000	0,012	0,083
-521,189	-146,276	0,025	-0,002
-520,175	20,661	-0,084	-0,049
-519,160	-18,801	-0,013	-0,006
-518,145	-200,000	0,006	0,153
-517,131	-137,277	-0,109	-0,009
-516,116	800,000	0,042	0,123
-515,102	590,290	0,019	0,033
-514,087	-200,000	0,013	-0,117
-513,072	700,195	0,056	0,106
-512,058	-200,000	0,008	-0,124
-511,043	-66,131	0,126	-0,036
-510,029	203,049	0,111	0,124
-509,014	-35,820	0,160	0,062
-507,999	-1,457	-0,043	-0,022
-506,985	-200,000	0,032	-0,177
-505,970	312,173	-0,045	-0,061
-504,956	-200,000	0,002	-0,033
-503,941	165,376	0,122	-0,124
-502,926	74,933	0,055	-0,042
-501,912	-200,000	-0,006	-0,025
-500,897	-200,000	0,016	0,147
-499,883	-200,000	0,009	-0,088
-498,868	-52,485	-0,150	-0,049
-497,853	-101,247	-0,067	-0,012
-496,839	18,597	0,165	-0,095
-495,824	800,000	-0,021	0,061
-494,810	104,218	0,097	0,082
-493,795	173,777	-0,023	0,024
-492,781	392,739	-0,029	0,044
-491,766	-200,000	-0,002	0,028
-490,751	359,046	-0,111	-0,160
-489,737	-200,000	-0,010	0,076
-488,722	-200,000	0,022	0,126
-487,708	75,485	0,103	0,078
-486,693	-200,000	-0,031	0,115
-485,678	-32,434	-0,098	-0,039
-484,664	-200,000	-0,026	-0,141
-483,649	-29,480	-0,073	0,030
-482,635	-19,488	-0,145	-0,064
-481,620	20,773	0,066	0,038
-480,605	20,244	0,064	0,037
-479,591	-68,628	0,203	0,056
-478,576	-148,476	-0,211	-0,012
-477,562	73,038	0,029	-0,022
-476,547	-200,000	0,003	0,078
-475,532	800,000	0,029	-0,081
-474,518	-200,000	0,017	-0,063
-473,503	800,000	-0,027	-0,066
-472,489	-180,230	0,138	0,002
-471,474	800,000	-0,106	-0,232
-470,459	51,665	0,094	0,064
-469,445	-200,000	0,019	-0,065
-468,430	-134,423	0,117	0,010
-467,416	108,589	0,064	-0,055
-466,401	66,915	-0,016	-0,012
-465,386	-200,000	0,005	-0,035
-464,372	16,567	-0,049	0,028
-463,357	224,780	-0,115	0,134
-462,343	83,001	-0,063	-0,049
-461,328	-16,716	0,101	0,046
-460,313	70,103	0,083	0,061
-459,299	800,000	0,054	0,120
-458,284	308,985	0,025	-0,033
-457,270	-200,000	-0,013	0,043
-456,255	790,364	-0,030	-0,060
-455,241	709,716	-0,022	0,042
-454,226	-200,000	0,003	-0,026
-453,211	74,124	-0,066	0,049
-452,197	226,946	0,079	0,092
-451,182	78,014	-0,070	-0,053
-450,168	455,317	-0,035	0,055
-449,153	307,445	-0,036	0,048
-448,138	800,000	0,027	-0,064
-447,124	-36,398	-0,139	0,053
-446,109	29,807	0,080	0,049
-445,095	-200,000	0,005	0,039
-444,080	-113,482	0,023	-0,003
-443,065	-109,348	-0,098	0,015
-442,051	-88,984	0,008	-0,002
-441,036	-200,000	0,033	-0,150
-440,022	800,000	-0,054	-0,132
-439,007	86,018	-0,058	0,046
-437,992	800,000	-0,021	-0,048
-436,978	33,057	0,014	0,008
-435,963	243,671	0,062	-0,074
-434,949	546,510	0,035	0,060
-433,934	-180,680	-0,142	0,002
-432,919	114,232	-0,114	-0,099
-431,905	215,333	-0,047	-0,054
-430,890	-31,207	0,073	0,029
-429,876	168,384	0,067	0,068
-428,861	-102,146	-0,080	0,014
-427,846	-157,671	-0,025	0,001
-426,832	81,932	-0,062	-0,048
-425,817	-200,000	-0,049	-0,163
-424,803	-165,388	-0,117	-0,004
-423,788	-133,971	0,094	-0,008
-422,773	319,655	0,094	0,129
-421,759	-200,000	0,020	-0,073
-420,744	-200,000	-0,007	-0,037
-419,730	-84,001	-0,101	-0,023
-418,715	-66,718	0,084	-0,024
-417,701	-200,000	-0,035	0,173
-416,686	30,946	-0,080	0,049
-415,671	-28,396	0,023	-0,009
-414,657	114,835	0,026	0,023
-413,642	800,000	-0,030	0,075
-412,628	-200,000	-0,027	-0,103
-411,613	-39,315	-0,028	-0,010
-410,598	-200,000	-0,008	0,202
-409,584	675,272	0,020	-0,037
-408,569	-200,000	-0,021	0,136
-407,555	167,971	-0,040	0,040
-406,540	214,669	0,090	0,103
-405,525	705,845	-0,121	0,229
-404,511	-185,931	-0,055	-0,001
-403,496	64,439	-0,052	-0,038
-402,482	-32,620	0,152	0,060
-401,467	17,894	0,122	0,069
-400,452	-17,749	-0,121	-0,054
-399,438	-95,087	0,098	-0,019
-398,423	-114,766	0,015	0,002
-397,409	78,054	0,052	-0,040
-396,394	-200,000	-0,001	-0,058
-395,379	-200,000	-0,007	0,051
-394,365	-90,626	-0,114	0,023
-393,350	-35,866	0,168	-0,065
-392,336	185,328	-0,067	-0,071
-391,321	98,912	-0,051	-0,042
-390,306	741,162	-0,031	-0,059
-389,292	45,463	-0,095	-0,062
-388,277	800,000	0,040	-0,114
-387,263	241,373	-0,083	-0,099
-386,248	-77,149	0,128	-0,032
-385,233	800,000	0,045	0,113
-384,219	241,567	-0,069	-0,083
-383,204	-62,390	-0,103	0,030
-382,190	384,513	-0,017	-0,025
-381,175	-16,321	-0,116	-0,052
-380,160	-200,000	0,013	-0,090
-379,146	108,031	0,103	0,088
-378,131	800,000	-0,018	-0,037
-377,117	-69,020	-0,184	-0,050
-376,102	-200,000	0,003	-0,084
-375,088	401,391	-0,077	-0,115
-374,073	534,699	0,087	-0,148
-373,058	-96,813	-0,064	0,012
-372,044	-200,000	-0,000	0,032
-371,029	127,066	-0,022	0,020
-370,015	800,000	0,032	-0,077
-369,000	-23,296	0,038	0,016
-367,985	-200,000	0,049	-0,000
-366,971	-200,000	0,011	0,048
-365,956	279,036	0,053	-0,068
-364,942	-0,014	0,120	0,061
-363,927	441,863	0,095	0,149
-362,912	800,000	-0,030	0,084
-361,898	800,000	-0,041	-0,126
-360,883	148,852	-0,044	-0,043
-359,869	-69,205	-0,041	0,011
-358,854	30,267	-0,056	-0,034
-357,839	6,408	0,060	0,032
-356,825	448,949	-0,066	-0,104
-355,810	296,377	-0,069	-0,090
-354,796	99,502	0,060	-0,050
-353,781	161,770	-0,039	0,039
-352,766	-110,028	0,072	0,011
-351,752	-90,279	-0,046	-0,009
-350,737	-200,000	0,017	0,074
-349,723	26,900	0,145	0,087
-348,708	-8,659	0,078	-0,037
-347,693	-30,121	-0,071	-0,029
-346,679	-200,000	-0,007	0,123
-345,664	-92,657	-0,103	-0,020
-344,650	800,000	-0,022	-0,047
-343,635	-200,000	-0,003	0,096
-342,620	303,309	0,052	0,069
-341,606	-200,000	-0,003	-0,132
-340,591	-46,315	0,062	0,021
-339,577	232,149	-0,083	-0,098
-338,562	559,109	0,094	-0,163
-337,548	368,582	-0,079	0,114
-336,533	-97,560	0,136	0,025
-335,518	800,000	0,055	0,115
-334,504	131,058	0,045	0,041
-333,489	-200,000	-0,009	0,075
-332,475	-147,563	-0,029	0,002
-331,460	-15,337	-0,124	0,056
-330,445	415,216	0,053	0,081
-329,431	800,000	0,040	0,115
-328,416	-47,849	0,019	-0,007
-327,402	798,904	-0,095	0,188
-326,387	415,060	-0,045	-0,068
-325,372	-200,000	-0,007	-0,129
-324,358	-20,627	-0,115	-0,050
-323,343	147,622	-0,061	0,059
-322,329	304,145	-0,052	-0,069
-321,314	-48,356	0,105	-0,036
-320,299	-35,569	0,071	-0,027
-319,285	-162,457	-0,079	-0,003
-318,270	500,546	-0,050	0,082
-317,256	80,664	0,107	0,082
-316,241	58,461	0,020	-0,014
-315,226	-8,519	0,135	-0,064
-314,212	-187,592	0,225	-0,002
-313,197	-125,799	0,013	0,001
-312,183	183,311	0,051	0,054
-311,168	-200,000	-0,010	0,102
-310,153	800,000	-0,022	-0,056
-309,139	42,487	0,149	0,096
-308,124	37,128	0,060	0,038
-307,110	-15,143	0,167	0,076
-306,095	20,554	0,026	0,015
-305,080	162,501	0,083	0,083
-304,066	-87,742	-0,050	0,011
-303,051	38,556	-0,093	0,059
-302,037	-200,000	-0,007	0,118
-301,022	800,000	-0,030	-0,063
-300,008	19,653	0,070	0,040
-298,993	-41,237	-0,016	-0,006
-297,978	90,431	0,044	-0,035
-296,964	434,050	-0,070	-0,108
-295,949	-61,860	-0,115	-0,034
-294,935	410,065	-0,047	0,071
-293,920	-200,000	-0,002	-0,052
-292,905	-118,364	0,137	0,017
-291,891	-200,000	0,006	-0,047
-290,876	19,220	-0,129	-0,074
-289,862	138,932	-0,113	-0,106
-288,847	-89,770	0,039	0,008
-287,832	491,099	0,025	-0,042
-286,818	210,095	0,057	0,064
-285,803	13,656	-0,096	0,053
-284,789	98,299	0,019	-0,016
-283,774	800,000	-0,050	0,102
-282,759	-61,532	-0,003	-0,001
-281,745	102,137	-0,086	-0,071
-280,730	-82,995	0,080	0,018
-279,716	-35,743	-0,122	-0,047
-278,701	-200,000	0,007	-0,046
-277,686	800,000	0,043	0,106
-276,672	800,000	-0,033	-0,090
-275,657	78,830	0,070	-0,054
-274,643	165,492	-0,166	-0,167
-273,628	-200,000	0,014	-0,102
-272,613	-200,000	-0,006	-0,083
-271,599	122,811	-0,099	-0,088
-270,584	-200,000	-0,011	0,084
-269,570	230,263	0,084	-0,098
-268,555	245,723	0,138	0,165
-267,540	-44,657	0,042	0,015
-266,526	752,414	0,054	-0,104
-265,511	-71,488	-0,097	0,026
-264,497	-89,984	0,093	-0,019
-263,482	175,690	0,095	0,098
-262,467	617,599	0,086	0,155
-261,453	194,360	0,103	0,111
-260,438	-200,000	0,010	-0,060
-259,424	76,538	-0,028	-0,021
-258,409	800,000	-0,058	0,116
-257,395	5,964	0,166	-0,087
-256,380	-50,177	-0,061	-0,020
-255,365	285,792	0,003	-0,004
-254,351	-109,115	-0,033	-0,005
-253,336	-200,000	0,018	-0,065
-252,322	180,821	-0,085	-0,089
-251,307	409,042	-0,064	-0,097
-250,292	-179,122	0,067	0,001
-249,278	-200,000	0,019	0,063
-248,263	12,570	0,055	0,030
-247,249	35,331	0,092	0,057
-246,234	800,000	-0,041	-0,095
-245,219	336,957	-0,052	-0,072
-244,205	-138,364	-0,114	0,009
-243,190	90,761	0,134	0,106
-242,176	104,219	0,153	0,128
-241,161	298,491	-0,029	-0,038
-240,146	-60,662	0,073	0,022
-239,132	-141,780	-0,089	0,006
-238,117	-200,000	0,034	-0,111
-237,103	-28,311	-0,090	0,037
-236,088	-55,449	0,083	0,026
-235,073	165,318	-0,047	-0,047
-234,059	800,000	-0,044	0,127
-233,044	161,486	-0,024	0,024
-232,030	216,580	-0,102	0,116
-231,015	-62,552	-0,056	-0,016
-230,000	300,328	0,076	-0,100
-228,986	-47,246	0,154	-0,053
-227,971	-65,961	0,049	0,014
-226,957	125,206	0,072	0,064
-225,942	400,562	0,051	-0,076
-224,927	351,828	-0,074	-0,104
-223,913	-139,180	-0,021	0,002
-222,898	-200,000	-0,016	0,061
-221,884	800,000	0,042	-0,108
-220,869	31,974	0,114	-0,070
-219,855	418,059	0,076	-0,116
-218,840	-75,227	-0,086	-0,022
-217,825	-118,560	0,079	-0,010
-216,811	-53,441	-0,034	-0,011
-215,796	32,091	-0,088	-0,054
-214,782	-107,087	0,051	0,008
-213,767	1,339	0,145	-0,074
-212,752	-6,593	-0,102	0,049
-211,738	800,000	-0,016	0,039
-210,723	372,733	0,031	-0,045
-209,709	-176,723	-0,077	0,001
-208,694	-110,405	-0,193	-0,028
-207,679	-53,494	-0,051	-0,016
-206,665	260,597	0,112	0,138
-205,650	-16,677	-0,055	0,024
-204,636	1,103	-0,139	0,070
-203,621	-200,000	0,032	0,122
-202,606	-200,000	0,002	0,055
-201,592	591,496	0,056	0,098
-200,577	800,000	-0,071	-0,203
-199,563	-42,447	0,055	-0,020
-198,548	800,000	-0,064	0,131
-197,533	-160,357	0,130	-0,005
-196,519	380,739	0,055	-0,081
-195,504	-47,790	0,124	0,043
-194,490	12,844	-0,019	-0,010
-193,475	-69,677	-0,163	0,044
-192,460	-134,645	-0,089	-0,008
-191,446	-87,621	-0,161	-0,034
-190,431	-132,995	-0,102	0,009
-189,417	-200,000	-0,005	-0,038
-188,402	-4,144	-0,111	0,054
-187,387	-88,601	-0,126	0,026
-186,373	800,000	-0,073	0,172
-185,358	262,381	0,083	0,102
-184,344	800,000	0,101	0,240
-183,329	-200,000	-0,003	0,046
-182,315	800,000	-0,018	0,054
-181,300	761,365	0,016	0,031
-180,285	-92,475	-0,087	0,017
-179,271	104,034	0,112	-0,094
-178,256	462,181	0,108	0,171
-177,242	-200,000	0,009	-0,050
-176,227	348,410	0,032	0,044
-175,212	-106,914	0,065	-0,010
-174,198	800,000	-0,004	-0,012
-173,183	154,356	0,079	-0,076
-172,169	41,769	0,099	-0,064
-171,154	221,039	-0,048	-0,054
-170,139	800,000	-0,022	-0,045
-169,125	552,512	0,017	-0,028
-168,110	800,000	-0,014	0,043
-167,096	45,034	0,051	-0,033
-166,081	800,000	0,023	-0,052
-165,066	-197,811	-0,096	0,000
-164,052	317,008	0,069	-0,093
-163,037	-125,506	-0,065	0,007
-162,023	-200,000	-0,008	0,084
-161,008	-93,745	0,047	-0,009
-159,993	-200,000	0,001	0,117
-158,979	142,995	0,022	0,021
-157,964	-200,000	0,031	-0,117
-156,950	453,697	-0,041	-0,064
-155,935	-200,000	0,008	0,077
-154,920	109,056	-0,027	-0,023
-153,906	494,132	0,097	0,158
-152,891	-114,457	-0,081	-0,011
-151,877	-120,292	-0,112	-0,013
-150,862	-25,837	-0,109	-0,045
-149,847	-200,000	0,008	0,078
-148,833	-37,546	-0,129	-0,049
-147,818	159,125	0,087	-0,086
-146,804	69,119	0,089	-0,065
-145,789	-200,000	-0,016	-0,181
-144,775	24,552	-0,216	-0,126
-143,760	283,705	-0,032	0,041
-142,745	580,155	-0,022	-0,038
-141,731	-200,000	-0,013	-0,151
-140,716	-113,576	0,074	0,010
-139,702	-13,555	0,133	0,061
-138,687	-200,000	0,015	0,138
-137,672	800,000	-0,048	-0,128
-136,658	-200,000	-0,030	0,142
-135,643	9,537	-0,064	0,034
-134,629	90,560	0,111	0,088
-133,614	579,256	-0,044	0,077
-132,599	58,363	-0,095	0,066
-131,585	800,000	0,037	0,084
-130,570	75,869	0,106	0,080
-129,556	79,509	-0,210	-0,160
-128,541	209,119	-0,089	0,098
-127,526	-27,786	-0,116	-0,047
-126,512	-45,526	0,181	0,063
-125,497	455,376	-0,020	0,032
-124,483	-42,061	0,053	-0,019
-123,468	-27,117	-0,057	0,023
-122,453	20,872	0,013	-0,007
-121,439	123,349	-0,114	-0,102
-120,424	-106,741	0,172	0,027
-119,410	800,000	-0,007	0,018
-118,395	305,774	0,044	-0,058
-117,380	-200,000	-0,036	-0,114
-116,366	-200,000	0,012	-0,089
-115,351	-200,000	0,015	-0,153
-114,337	72,616	-0,091	-0,067
-113,322	800,000	-0,052	0,120
-112,307	289,301	0,061	0,079
-111,293	-200,000	0,020	0,084
-110,278	-36,437	0,078	-0,030
-109,264	-200,000	0,007	0,089
-108,249	307,550	-0,044	0,058
-107,234	-136,075	-0,058	0,005
-106,220	-96,084	-0,035	0,006
-105,205	14,797	-0,045	-0,025
-104,191	61,201	-0,023	0,016
-103,176	-12,929	0,111	-0,051
-102,162	359,246	-0,071	0,101
-101,147	83,346	-0,034	-0,026
-100,132	-200,000	0,000	-0,007
-99,118	800,000	0,052	-0,103
-98,103	92,264	-0,088	-0,070
-97,089	184,367	0,074	-0,078
-96,074	-200,000	0,031	0,128
-95,059	-41,830	0,108	-0,039
-94,045	-43,503	-0,034	-0,012
-93,030	0,727	0,106	-0,054
-92,016	34,109	-0,112	-0,069
-91,001	800,000	0,017	0,052
-89,986	255,476	-0,037	0,045
-88,972	-26,452	0,094	-0,039
-87,957	490,525	-0,033	0,054
-86,943	-200,000	-0,002	-0,121
-85,928	-200,000	0,007	0,101
-84,913	-200,000	0,002	0,112
-83,899	542,037	0,040	-0,068
-82,884	-200,000	-0,019	0,167
-81,870	179,664	-0,097	0,101
-80,855	792,668	-0,046	0,089
-79,840	800,000	-0,085	0,202
-78,826	606,301	0,048	-0,085
-77,811	528,944	-0,068	-0,114
-76,797	534,252	-0,033	0,056
-75,782	15,122	0,061	0,034
-74,767	168,602	0,088	0,088
-73,753	-200,000	0,015	-0,192
-72,738	74,604	-0,062	-0,046
-71,724	-171,401	0,144	0,003
-70,709	120,046	-0,066	-0,058
-69,694	301,264	0,066	-0,086
-68,680	63,403	-0,155	-0,109
-67,665	-200,000	-0,015	0,083
-66,651	368,993	0,053	-0,077
-65,636	-200,000	-0,027	0,000
-64,622	516,202	-0,083	-0,137
-63,607	8,186	-0,039	0,021
-62,592	117,707	0,043	0,037
-61,578	800,000	0,037	0,103
-60,563	-200,000	-0,026	-0,083
-59,549	-96,873	0,101	0,019
-58,534	44,443	-2,149	-1,391
-57,519	576,543	-1,090	-1,888
-56,505	-200,000	-0,385	-4,299
-55,490	800,000	0,850	1,672
-54,476	800,000	5,314	11,429
-53,461	-200,000	21,939	337,295
-52,446	800,000	759,002	2293,209
-51,432	531,750	1652,163	2768,129
-50,417	68,908	1649,957	1194,358
-49,403	16,504	1524,531	847,452
-48,388	10,656	1449,307	777,496
-47,373	18,988	1441,398	813,003
-46,359	14,050	1430,341	783,378
-45,344	9,007	1426,150	757,159
-44,330	8,958	1424,243	755,885
-43,315	8,980	1422,527	755,047
-42,300	8,961	1420,684	753,952
-41,286	8,978	1419,468	753,358
-40,271	8,958	1418,267	752,593
-39,257	8,899	1417,166	751,703
-38,242	8,984	1415,814	751,354
-37,227	8,977	1414,757	750,733
-36,213	8,937	1413,556	749,875
-35,198	8,994	1412,126	749,356
-34,184	8,994	1411,396	748,937
-33,169	8,926	1409,920	747,806
-32,154	8,956	1409,064	747,464
-31,140	8,933	1407,958	746,742
-30,125	8,998	1406,594	746,289
-29,111	8,962	1405,469	745,494
-28,096	8,983	1404,456	745,029
-27,082	8,902	1403,099	743,901
-26,067	8,889	1402,099	743,277
-25,052	8,936	1401,007	742,888
-24,038	8,935	1400,074	742,360
-23,023	8,941	1399,001	741,790
-22,009	8,839	1398,404	740,969
-20,994	8,862	1397,077	740,347
-19,979	8,924	1395,845	739,948
-18,965	8,882	1395,019	739,286
-17,950	8,837	1394,333	738,686
-16,936	8,838	1393,520	738,232
-15,921	8,773	1392,527	737,373
-14,906	8,816	1391,493	736,998
-13,892	8,904	1390,521	736,860
-12,877	8,850	1389,693	736,142
-11,863	8,800	1388,943	735,483
-10,848	8,758	1388,090	734,809
-9,833	8,749	1387,054	734,190
-8,819	8,762	1386,162	733,751
-7,804	8,706	1385,383	733,051
-6,790	8,739	1384,177	732,537
-5,775	8,714	1383,262	731,908
-4,760	8,722	1382,281	731,397
-3,746	8,743	1381,263	730,923
-2,731	8,796	1380,414	730,691
-1,717	8,734	1379,825	730,065
-0,702	8,707	1377,770	728,825
0,313	12,741	1289,472	700,435
1,327	28,798	681,414	406,119
2,342	44,892	117,300	76,004
3,356	0,048	16,441	8,233
4,371	-7,003	3,758	1,793
5,386	-26,271	1,365	0,562
6,400	800,000	0,241	0,594
7,415	149,855	-0,159	-0,152
8,429	10,316	-0,255	-0,136
9,444	49,395	-0,288	-0,191
10,459	-78,950	-0,181	-0,043
11,473	-65,261	-0,342	-0,096
12,488	173,210	-0,198	-0,201
13,502	45,050	-0,262	-0,170
14,517	70,936	-0,205	-0,149
15,531	91,784	-0,470	-0,372
16,546	99,904	-0,280	-0,229
17,561	5,652	-0,466	-0,242
18,575	-47,048	-0,225	-0,077
19,590	127,103	-0,290	-0,259
20,604	164,840	-0,239	-0,237
21,619	82,637	-0,391	-0,299
22,634	202,534	-0,366	-0,399
23,648	104,403	-0,404	-0,334
24,663	73,129	-0,320	-0,235
25,677	42,767	-0,376	-0,241
26,692	17,373	-0,423	-0,236
27,707	195,675	-0,266	-0,284
28,721	28,423	-0,394	-0,233
29,736	173,824	-0,285	-0,290
30,750	96,209	-0,298	-0,240
31,765	285,913	-0,278	-0,353
32,780	69,964	-0,395	-0,286
33,794	69,213	-0,340	-0,245
34,809	94,620	-0,236	-0,188
35,823	195,645	-0,318	-0,340
36,838	117,281	-0,409	-0,353
37,853	366,688	-0,272	-0,387
38,867	145,590	-0,366	-0,345
39,882	179,657	-0,268	-0,276
40,896	87,788	-0,306	-0,238
41,911	-58,060	-0,387	-0,118
42,926	26,447	-0,427	-0,250
43,940	83,506	-0,357	-0,273
44,955	154,707	-0,375	-0,362
45,969	214,209	-0,245	-0,272
46,984	519,850	-0,215	-0,356
47,999	129,085	-0,289	-0,259
49,013	315,382	-0,266	-0,354
50,028	-23,688	-0,316	-0,133
51,042	-8,891	-0,468	-0,220
52,057	60,172	-0,365	-0,253
53,071	73,749	-0,382	-0,281
54,086	78,364	-0,311	-0,233
55,101	103,637	-0,243	-0,200
56,115	188,459	-0,331	-0,348
57,130	28,355	-0,342	-0,202
58,144	24,917	-0,317	-0,184
59,159	-25,871	-0,254	-0,105
60,174	186,591	-0,353	-0,369
61,188	30,184	-0,324	-0,193
62,203	250,665	-0,202	-0,241
63,217	159,382	-0,392	-0,383
64,232	36,911	-0,274	-0,169
65,247	47,820	-0,322	-0,210
66,261	91,092	-0,315	-0,247
67,276	0,548	-0,430	-0,215
68,290	-23,128	-0,342	-0,144
69,305	223,244	-0,224	-0,254
70,320	-62,247	-0,276	-0,080
71,334	-102,150	-0,209	-0,035
72,349	7,980	-0,373	-0,196
73,363	13,309	-0,415	-0,225
74,378	84,402	-0,281	-0,215
75,393	113,473	-0,217	-0,184
76,407	-32,885	-0,367	-0,142
77,422	131,226	-0,241	-0,217
78,436	325,289	-0,217	-0,291
79,451	102,345	-0,261	-0,214
80,466	12,493	-0,304	-0,164
81,480	33,284	-0,387	-0,235
82,495	39,780	-0,312	-0,196
83,509	-11,824	-0,262	-0,120
84,524	-2,844	-0,264	-0,129
85,539	29,976	-0,182	-0,109
86,553	278,839	-0,199	-0,249
87,568	-2,290	-0,289	-0,142
88,582	140,974	-0,303	-0,280
89,597	238,474	-0,227	-0,264
90,611	128,300	-0,261	-0,232
91,626	-1,061	-0,257	-0,127
92,641	-66,107	-0,291	-0,081
93,655	-103,089	-0,342	-0,056
94,670	41,835	-0,420	-0,266
95,684	-28,792	-0,401	-0,161
96,699	61,668	-0,304	-0,211
97,714	-78,046	-0,270	-0,064
98,728	-36,297	-0,270	-0,101
99,743	382,466	-0,174	-0,250
100,757	8,199	-0,279	-0,146
101,772	345,067	-0,250	-0,345
102,787	107,582	-0,261	-0,217
103,801	-61,060	-0,301	-0,088
104,816	-130,440	-0,196	0,018
105,830	46,457	-0,173	-0,112
106,845	-150,650	-0,184	-0,010
107,860	77,081	-0,226	-0,167
108,874	201,198	-0,184	-0,198
109,889	74,122	-0,275	-0,201
110,903	143,933	-0,314	-0,292
111,918	10,332	-0,325	-0,172
112,933	6,226	-0,284	-0,147
113,947	76,540	-0,102	-0,075
114,962	46,120	-0,173	-0,112
115,976	411,466	-0,197	-0,293
116,991	-7,277	-0,323	-0,152
118,006	13,594	-0,287	-0,155
119,020	-54,053	-0,217	-0,069
120,035	-8,276	-0,397	-0,186
121,049	74,656	-0,188	-0,138
122,064	26,279	-0,212	-0,123
123,079	227,562	-0,243	-0,276
124,093	111,263	-0,159	-0,134
125,108	-66,617	-0,299	-0,082
126,122	49,368	-0,339	-0,222
127,137	-34,142	-0,378	-0,144
128,151	-71,180	-0,250	-0,065
129,166	13,845	-0,328	-0,177
130,181	83,674	-0,284	-0,216
131,195	-99,295	-0,324	-0,057
132,210	74,435	-0,301	-0,220
133,224	125,715	-0,183	-0,161
134,239	10,428	-0,294	-0,156
135,254	-122,460	-0,258	-0,029
136,268	-151,264	-0,325	-0,017
137,283	147,364	-0,162	-0,153
138,297	-146,493	-0,233	0,014
139,312	-64,267	-0,405	-0,114
140,327	52,839	-0,336	-0,224
141,341	694,802	-0,086	-0,158
142,356	605,022	-0,114	-0,198
143,370	378,588	-0,133	-0,191
144,385	162,755	-0,194	-0,190
145,400	25,832	-0,339	-0,196
146,414	-10,564	-0,315	-0,145
147,429	-200,000	-0,023	-0,116
148,443	193,540	-0,267	-0,281
149,458	210,167	-0,132	-0,145
150,473	-164,282	-0,183	-0,006
151,487	63,105	-0,131	-0,091
152,502	658,389	-0,171	-0,308
153,516	99,834	-0,310	-0,250
154,531	466,221	-0,214	-0,334
155,546	23,732	-0,299	-0,171
156,560	800,000	-0,111	-0,219
157,575	-0,445	-0,290	-0,143
158,589	111,168	-0,299	-0,251
159,604	156,005	-0,219	-0,210
160,619	275,702	-0,155	-0,192
161,633	93,346	-0,261	-0,205
162,648	332,266	-0,265	-0,356
163,662	-22,491	-0,348	-0,146
164,677	15,865	-0,311	-0,170
165,692	40,274	-0,187	-0,117
166,706	-37,044	-0,310	-0,115
167,721	108,351	-0,224	-0,185
168,735	240,030	-0,271	-0,314
169,750	-119,007	-0,226	0,027
170,764	47,272	-0,283	-0,183
171,779	-141,711	-0,152	0,010
172,794	14,007	-0,267	-0,144
173,808	16,377	-0,233	-0,128
174,823	220,766	-0,235	-0,263
175,837	138,875	-0,222	-0,203
176,852	58,099	-0,256	-0,174
177,867	77,681	-0,265	-0,196
178,881	74,475	-0,271	-0,197
179,896	-35,084	-0,248	-0,093
180,910	39,172	-0,218	-0,135
181,925	-19,371	-0,203	-0,087
182,940	78,123	-0,155	-0,115
183,954	48,862	-0,234	-0,152
184,969	143,542	-0,259	-0,240
185,983	316,154	-0,234	-0,307
186,998	-139,901	-0,230	-0,017
188,013	-3,800	-0,240	-0,115
189,027	55,785	-0,309	-0,208
190,042	338,377	-0,184	-0,248
191,056	100,998	-0,163	-0,131
192,071	30,595	-0,286	-0,169
193,086	209,758	-0,116	-0,126
194,100	39,049	-0,191	-0,118
195,115	15,854	-0,303	-0,165
196,129	-42,765	-0,172	-0,060
197,144	412,935	-0,222	-0,328
198,159	298,460	-0,222	-0,284
199,173	125,894	-0,207	-0,182
200,188	307,927	-0,216	-0,280
201,202	45,430	-0,229	-0,146
202,217	158,204	-0,219	-0,211
203,232	349,371	-0,153	-0,210
204,246	56,346	-0,279	-0,187
205,261	-60,228	-0,337	-0,099
206,275	-62,908	-0,161	-0,046
207,290	80,044	-0,200	-0,149
208,304	-35,219	-0,209	-0,079
209,319	-96,093	-0,138	-0,025
210,334	460,916	-0,120	-0,186
211,348	373,144	-0,120	-0,169
212,363	45,101	-0,131	-0,083
213,377	-129,378	-0,178	-0,017
214,392	-30,343	-0,281	-0,110
215,407	216,485	-0,161	-0,177
216,421	410,484	-0,090	-0,133
217,436	153,932	-0,187	-0,177
218,450	99,569	-0,238	-0,190
219,465	-23,455	-0,225	-0,093
220,480	78,712	-0,177	-0,130
221,494	251,664	-0,104	-0,123
222,509	-200,000	-0,009	-0,084
223,523	168,343	-0,154	-0,152
224,538	800,000	-0,080	-0,154
225,553	202,717	-0,138	-0,148
226,567	57,629	-0,232	-0,157
227,582	181,598	-0,166	-0,169
228,596	140,300	-0,229	-0,209
229,611	-31,638	-0,234	-0,090
230,626	26,093	-0,227	-0,130
231,640	-24,775	-0,145	0,059
232,655	130,510	-0,185	-0,164
233,669	68,136	-0,276	-0,195
234,684	454,568	-0,113	-0,174
235,699	-29,056	-0,286	-0,113
236,713	-113,468	-0,123	0,016
237,728	-33,043	-0,180	-0,069
238,742	-61,317	-0,261	-0,075
239,757	204,611	-0,167	-0,179
240,772	378,788	-0,168	-0,238
241,786	18,133	-0,187	-0,103
242,801	-138,580	-0,145	-0,011
243,815	51,039	-0,125	-0,082
244,830	-11,508	-0,086	0,039
245,844	-159,082	-0,217	-0,008
246,859	21,600	-0,157	-0,088
247,874	470,610	-0,152	-0,237
248,888	59,991	-0,154	-0,105
249,903	128,768	-0,193	-0,170
250,917	103,084	-0,168	-0,136
251,932	398,720	-0,098	-0,143
252,947	97,048	-0,093	-0,073
253,961	44,314	-0,187	-0,118
254,976	6,961	-0,235	-0,121
255,990	219,326	-0,170	-0,188
257,005	-101,455	-0,193	-0,032
258,020	220,311	-0,192	-0,213
259,034	244,646	-0,086	-0,099
260,049	800,000	-0,101	-0,231
261,063	506,890	-0,114	-0,183
262,078	-109,958	-0,225	0,032
263,093	385,291	-0,148	-0,211
264,107	-200,000	-0,062	-0,292
265,122	507,840	-0,061	-0,098
266,136	5,396	-0,193	-0,098
267,151	66,246	-0,130	-0,091
268,166	800,000	-0,048	-0,136
269,180	622,911	-0,102	-0,177
270,195	50,121	-0,207	-0,134
271,209	152,576	-0,099	-0,093
272,224	-85,247	-0,187	-0,040
273,239	77,997	-0,124	-0,091
274,253	84,507	-0,264	-0,199
275,268	-121,379	-0,304	0,034
276,282	-78,242	-0,154	0,036
277,297	224,465	-0,203	-0,226
278,312	388,113	-0,185	-0,264
279,326	800,000	-0,016	-0,043
280,341	-200,000	-0,035	-0,147
281,355	113,396	-0,173	-0,145
282,370	226,448	-0,107	-0,119
283,384	-23,289	-0,103	-0,042
284,399	-163,046	-0,281	0,009
285,414	36,189	-0,186	-0,113
286,428	-200,000	-0,077	-0,286
287,443	53,005	-0,158	-0,104
288,457	438,783	-0,089	-0,135
289,472	-35,972	-0,209	-0,077
290,487	-105,514	-0,215	-0,033
291,501	70,135	-0,153	-0,108
292,516	60,548	-0,135	-0,092
293,530	358,930	-0,100	-0,137
294,545	46,285	-0,107	0,068
295,560	78,912	-0,148	-0,109
296,574	61,406	-0,232	-0,158
297,589	-65,957	-0,201	-0,055
298,603	256,774	-0,158	-0,187
299,618	18,311	-0,166	-0,091
300,633	-18,385	-0,054	-0,023
301,647	-121,206	-0,095	0,011
302,662	-77,025	-0,242	0,058
303,676	-188,469	-0,094	-0,001
304,691	132,121	-0,161	-0,142
305,706	-15,652	-0,224	-0,098
306,720	112,444	-0,176	-0,146
307,735	-108,234	-0,217	-0,032
308,749	34,836	-0,112	-0,067
309,764	74,229	-0,177	-0,128
310,779	163,243	-0,186	-0,179
311,793	-41,090	-0,109	-0,038
312,808	22,117	-0,204	-0,114
313,822	377,145	-0,107	-0,150
314,837	800,000	-0,088	-0,205
315,852	77,048	-0,166	0,121
316,866	800,000	-0,079	-0,199
317,881	-166,724	-0,077	0,002
318,895	551,640	-0,059	-0,097
319,910	219,452	-0,229	-0,252
320,925	-92,119	-0,204	-0,039
321,939	119,013	-0,132	-0,112
322,954	596,785	-0,112	-0,190
323,968	133,340	-0,098	-0,087
324,983	800,000	-0,059	-0,144
325,997	211,383	-0,123	-0,132
327,012	1,249	-0,041	-0,020
328,027	-52,743	-0,258	-0,081
329,041	36,316	-0,120	-0,072
330,056	-200,000	-0,012	-0,152
331,070	260,606	-0,054	-0,065
332,085	-200,000	0,004	-0,082
333,100	-26,553	-0,084	-0,034
334,114	-6,691	-0,117	-0,054
335,129	24,882	-0,196	-0,111
336,143	504,057	-0,118	-0,188
337,158	800,000	-0,057	-0,163
338,173	-200,000	-0,030	-0,154
339,187	800,000	-0,064	-0,146
340,202	-127,231	-0,099	-0,010
341,216	-3,613	-0,107	-0,051
342,231	380,637	-0,093	-0,131
343,246	180,423	-0,100	-0,101
344,260	800,000	-0,102	-0,194
345,275	219,920	0,049	-0,054
346,289	-160,476	-0,143	0,005
347,304	-156,562	-0,160	0,007
348,319	-12,512	-0,186	-0,083
349,333	-110,497	-0,200	-0,028
350,348	133,815	-0,154	-0,136
351,362	800,000	-0,058	-0,155
352,377	383,949	-0,084	-0,119
353,392	-172,130	-0,180	0,004
354,406	-55,253	-0,114	0,035
355,421	206,971	1306,060	1393,561
356,435	159,201	1465,686	1394,037
