DTS Sentinel unit serial number:	SN410029Multiplexer serial number:	ORYXHardware model number:	OX2-SRSoftware version number:	ORYX F/W v4,00 Oryx Data Collector v3.7.2.0data status	okinstallation	B3 Nyhavnadifferential loss correction	single-endedforward channel	channel 1reverse channel	N/Adate	2023/12/01time	14:12:30forward acquisition time	300,00reverse acquisition time	0,00gamma	499,1914k internal	0,3213k external	0,3213temperature offset calibration	1,0000default loss term (dB/km)	0,3820temperature slope calibration	1,0000multiplexer offset coefficient	1,0000multiplexer slope coefficient	1,0000fibre end	0,00T internal ref (°C)	10,40T ext. ref 1 (°C)	-2,95T ext. ref 2 (°C)	-3,01length (m)	temperature (°C)	Stokes	anti-Stokes-744,400	291,882	-0,205	-0,271
-743,385	-200,000	0,019	0,293
-742,371	156,955	-0,252	-0,253
-741,356	-200,000	0,002	0,269
-740,342	101,882	-0,125	-0,106
-739,327	-200,000	-0,033	0,193
-738,312	195,655	-0,190	-0,210
-737,298	-200,000	-0,020	0,259
-736,283	84,782	-0,122	-0,097
-735,269	-200,000	-0,048	0,323
-734,254	117,331	-0,211	-0,188
-733,239	-37,976	-0,216	0,083
-732,225	-200,000	-0,071	-0,360
-731,210	-16,269	0,166	0,076
-730,196	800,000	0,035	-0,082
-729,181	-73,945	-0,156	-0,041
-728,167	-188,025	0,158	0,001
-727,152	-200,000	-0,023	0,083
-726,137	-200,000	-0,004	-0,068
-725,123	-40,820	-0,087	-0,032
-724,108	-72,020	-0,112	-0,030
-723,094	-38,457	-0,044	0,017
-722,079	509,681	-0,053	0,089
-721,064	562,549	-0,042	-0,074
-720,050	-200,000	-0,001	-0,015
-719,035	800,000	0,051	-0,154
-718,021	158,376	-0,107	-0,107
-717,006	47,055	-0,053	-0,036
-715,991	-118,846	-0,133	0,017
-714,977	675,410	-0,039	-0,073
-713,962	107,544	0,130	-0,112
-712,948	341,988	0,088	-0,125
-711,933	158,864	-0,098	0,099
-710,918	800,000	0,042	0,127
-709,904	-200,000	-0,005	-0,059
-708,889	-63,698	-0,050	0,015
-707,875	-92,058	0,039	0,008
-706,860	-125,619	-0,082	0,009
-705,845	305,805	0,022	-0,029
-704,831	-200,000	0,024	0,085
-703,816	231,342	-0,065	0,078
-702,802	-200,000	0,025	-0,113
-701,787	800,000	-0,026	-0,077
-700,772	206,071	0,011	-0,012
-699,758	-200,000	-0,016	-0,115
-698,743	769,716	0,048	0,095
-697,729	66,894	-0,153	0,112
-696,714	-110,336	-0,061	-0,009
-695,699	-200,000	-0,008	0,027
-694,685	85,973	-0,090	-0,072
-693,670	66,859	0,085	-0,062
-692,656	-200,000	-0,014	-0,091
-691,641	424,363	-0,018	-0,028
-690,627	105,241	0,090	0,077
-689,612	-77,234	-0,096	-0,024
-688,597	248,784	-0,038	-0,046
-687,583	292,435	-0,067	-0,089
-686,568	-200,000	-0,016	-0,106
-685,554	1,170	-0,055	-0,029
-684,539	-75,788	0,130	0,033
-683,524	-200,000	0,000	-0,059
-682,510	475,559	-0,048	0,078
-681,495	162,667	0,036	0,037
-680,481	283,454	0,037	0,048
-679,466	-200,000	-0,013	-0,069
-678,451	-200,000	0,022	-0,219
-677,437	41,219	0,048	0,031
-676,422	-93,045	0,168	-0,034
-675,408	203,133	-0,064	0,072
-674,393	-18,027	-0,101	0,046
-673,378	-64,490	-0,140	0,041
-672,364	-99,130	0,045	-0,008
-671,349	636,695	-0,018	-0,034
-670,335	-7,231	-0,166	-0,081
-669,320	646,398	0,041	0,075
-668,305	110,893	0,031	0,027
-667,291	791,121	0,016	-0,033
-666,276	-107,462	0,093	-0,015
-665,262	-122,656	-0,164	0,019
-664,247	-119,260	0,009	-0,001
-663,232	193,859	0,061	0,067
-662,218	-109,976	0,204	-0,030
-661,203	-57,505	0,061	0,019
-660,189	800,000	-0,014	0,042
-659,174	10,693	-0,143	0,079
-658,159	-176,524	-0,025	-0,000
-657,145	800,000	-0,066	-0,158
-656,130	12,607	-0,065	-0,036
-655,116	-200,000	0,010	0,218
-654,101	82,659	0,117	-0,092
-653,086	532,795	-0,059	0,101
-652,072	-200,000	0,008	0,072
-651,057	131,836	-0,087	-0,081
-650,043	327,912	-0,085	-0,118
-649,028	410,060	0,029	0,045
-648,014	800,000	-0,027	-0,080
-646,999	62,893	-0,024	0,017
-645,984	-200,000	-0,005	0,026
-644,970	-70,743	-0,050	0,014
-643,955	800,000	0,047	-0,119
-642,941	800,000	0,022	-0,058
-641,926	-200,000	-0,004	0,136
-640,911	-47,754	-0,041	-0,014
-639,897	-106,218	0,128	0,020
-638,882	215,701	0,041	0,047
-637,868	800,000	-0,057	-0,125
-636,853	-200,000	0,014	-0,070
-635,838	-200,000	-0,032	-0,103
-634,824	21,824	-0,130	0,076
-633,809	220,228	0,106	-0,122
-632,795	-139,497	0,061	0,005
-631,780	800,000	0,043	0,134
-630,765	50,771	-0,055	-0,038
-629,751	193,461	-0,058	0,063
-628,736	-55,650	0,167	-0,054
-627,722	800,000	-0,035	0,079
-626,707	137,208	-0,059	-0,056
-625,692	511,064	0,064	0,107
-624,678	-4,625	-0,115	0,057
-623,663	-180,112	0,143	0,002
-622,649	800,000	0,024	-0,050
-621,634	-2,902	-0,113	-0,057
-620,619	71,876	-0,169	-0,126
-619,605	778,091	-0,032	0,064
-618,590	324,282	-0,014	0,020
-617,576	800,000	0,010	-0,030
-616,561	243,732	0,078	0,094
-615,546	-37,168	-0,032	-0,012
-614,532	-137,727	-0,153	-0,012
-613,517	356,921	-0,055	-0,079
-612,503	800,000	0,010	0,029
-611,488	-200,000	-0,028	0,166
-610,474	-123,918	0,047	-0,005
-609,459	196,017	0,088	0,097
-608,444	46,844	-0,047	-0,032
-607,430	-200,000	-0,023	-0,136
-606,415	-200,000	0,023	0,134
-605,401	145,639	0,063	0,061
-604,386	287,224	0,026	0,034
-603,371	-200,000	-0,007	0,024
-602,357	558,860	-0,029	0,050
-601,342	-200,000	0,003	0,109
-600,328	629,554	0,016	-0,029
-599,313	-200,000	0,007	-0,168
-598,298	800,000	-0,020	0,047
-597,284	-65,923	0,044	0,013
-596,269	-71,973	0,049	0,013
-595,255	800,000	-0,051	0,109
-594,240	76,061	-0,073	0,055
-593,225	-200,000	0,010	-0,134
-592,211	-113,985	-0,117	-0,016
-591,196	614,921	-0,042	-0,076
-590,182	133,393	-0,024	0,023
-589,167	-200,000	-0,039	-0,174
-588,152	-200,000	-0,014	0,052
-587,138	-165,712	-0,093	-0,003
-586,123	177,599	-0,160	0,168
-585,109	-33,740	-0,037	-0,015
-584,094	-65,709	0,103	0,030
-583,079	800,000	-0,050	-0,109
-582,065	-127,125	-0,100	-0,010
-581,050	-45,927	0,074	-0,026
-580,036	-200,000	-0,021	-0,077
-579,021	-51,119	-0,142	0,048
-578,006	22,279	0,039	-0,023
-576,992	216,815	-0,052	0,060
-575,977	-158,842	-0,164	0,007
-574,963	-81,787	-0,070	0,016
-573,948	8,816	-0,068	0,037
-572,934	800,000	-0,008	-0,019
-571,919	79,017	-0,101	0,078
-570,904	-200,000	-0,009	0,067
-569,890	800,000	0,028	-0,061
-568,875	-200,000	0,009	0,029
-567,861	584,352	-0,084	0,149
-566,846	412,275	-0,035	-0,053
-565,831	-133,255	-0,103	-0,009
-564,817	-200,000	0,027	0,097
-563,802	-200,000	0,005	-0,073
-562,788	-200,000	0,007	-0,150
-561,773	-53,858	-0,161	-0,053
-560,758	425,760	0,078	0,122
-559,744	-200,000	0,001	0,188
-558,729	-112,388	0,076	0,011
-557,715	-167,442	-0,009	0,000
-556,700	800,000	0,044	-0,110
-555,685	800,000	-0,053	-0,110
-554,671	-25,370	0,069	0,029
-553,656	361,902	0,062	0,090
-552,642	-38,932	-0,046	-0,017
-551,627	800,000	0,073	-0,197
-550,612	800,000	0,020	-0,042
-549,598	325,122	-0,007	0,010
-548,583	570,273	-0,074	-0,130
-547,569	214,620	0,131	0,150
-546,554	1,760	-0,063	-0,033
-545,539	-76,760	0,075	-0,019
-544,525	-38,954	-0,114	0,043
-543,510	591,020	-0,059	0,106
-542,496	-40,674	-0,025	-0,009
-541,481	800,000	-0,032	0,067
-540,466	800,000	0,023	0,057
-539,452	-200,000	-0,009	0,089
-538,437	-83,288	0,114	0,026
-537,423	-15,463	-0,115	-0,053
-536,408	-11,696	-0,097	-0,046
-535,393	339,411	0,037	0,053
-534,379	-200,000	0,028	-0,138
-533,364	0,029	-0,182	-0,093
-532,350	-67,630	0,091	0,026
-531,335	115,018	-0,025	-0,022
-530,321	-200,000	0,004	0,101
-529,306	-87,775	-0,104	-0,022
-528,291	-69,368	-0,097	0,027
-527,277	800,000	-0,036	0,089
-526,262	-53,871	0,095	0,031
-525,248	-200,000	-0,008	-0,072
-524,233	371,121	-0,081	0,118
-523,218	73,976	-0,036	0,027
-522,204	-87,767	0,139	-0,030
-521,189	135,292	0,032	-0,030
-520,175	-79,783	-0,049	-0,012
-519,160	-200,000	0,001	0,032
-518,145	-200,000	-0,023	0,082
-517,131	269,843	0,069	0,088
-516,116	547,392	0,068	0,117
-515,102	498,853	0,038	0,062
-514,087	21,401	-0,088	-0,051
-513,072	-200,000	-0,009	-0,084
-512,058	125,015	0,054	-0,049
-511,043	-102,701	-0,044	0,007
-510,029	251,386	0,132	0,162
-509,014	739,645	-0,039	0,076
-507,999	617,073	0,038	0,068
-506,985	800,000	-0,040	-0,110
-505,970	-79,242	-0,052	-0,012
-504,956	506,884	-0,043	-0,071
-503,941	-200,000	0,003	0,115
-502,926	-11,104	-0,035	0,016
-501,912	-200,000	-0,007	0,124
-500,897	88,061	0,133	-0,106
-499,883	-110,963	-0,069	0,010
-498,868	-200,000	-0,000	-0,021
-497,853	66,848	0,035	0,025
-496,839	-188,991	-0,106	0,001
-495,824	-200,000	-0,016	-0,070
-494,810	800,000	0,016	0,035
-493,795	633,301	-0,050	0,092
-492,781	-200,000	-0,030	-0,121
-491,766	130,343	-0,083	-0,076
-490,751	-200,000	0,006	-0,040
-489,737	800,000	0,022	-0,068
-488,722	-200,000	-0,000	0,065
-487,708	76,287	0,106	-0,080
-486,693	-72,033	-0,185	0,049
-485,678	-104,556	0,068	0,011
-484,664	788,835	0,050	-0,099
-483,649	-149,313	-0,032	0,002
-482,635	800,000	0,046	-0,117
-481,620	-200,000	0,006	0,064
-480,605	-200,000	-0,024	0,086
-479,591	-38,176	-0,033	-0,013
-478,576	1,155	-0,032	0,017
-477,562	800,000	0,050	-0,126
-476,547	-32,136	0,084	0,034
-475,532	213,041	0,038	-0,043
-474,518	34,450	0,102	0,064
-473,503	-106,582	0,111	-0,018
-472,489	800,000	0,027	0,086
-471,474	103,167	-0,110	0,092
-470,459	-147,908	-0,123	-0,007
-469,445	21,687	-0,069	-0,040
-468,430	132,007	0,078	-0,072
-467,416	66,566	-0,085	-0,062
-466,401	-104,094	0,102	0,017
-465,386	-54,756	0,098	0,032
-464,372	-200,000	-0,018	-0,058
-463,357	-200,000	0,021	-0,190
-462,343	669,218	-0,090	-0,168
-461,328	-22,095	0,040	-0,018
-460,313	-200,000	-0,023	0,153
-459,299	46,280	0,078	0,052
-458,284	-200,000	0,051	0,214
-457,270	-156,414	0,048	0,002
-456,255	-54,988	-0,152	-0,049
-455,241	-200,000	-0,009	-0,075
-454,226	800,000	0,046	0,096
-453,211	-138,923	-0,042	0,003
-452,197	-200,000	-0,005	0,105
-451,182	-200,000	0,018	0,173
-450,168	-200,000	-0,003	0,034
-449,153	800,000	-0,022	0,067
-448,138	296,401	0,096	-0,127
-447,124	800,000	-0,030	0,062
-446,109	-200,000	-0,041	-0,133
-445,095	-200,000	-0,003	-0,121
-444,080	-143,605	0,133	0,009
-443,065	-200,000	-0,053	0,172
-442,051	-200,000	-0,016	-0,118
-441,036	800,000	-0,047	-0,130
-440,022	203,714	0,108	-0,120
-439,007	-102,355	-0,088	-0,015
-437,992	-177,421	0,190	0,003
-436,978	-53,899	0,114	0,037
-435,963	103,384	0,052	0,043
-434,949	800,000	0,012	-0,033
-433,934	-200,000	-0,033	-0,138
-432,919	146,016	0,039	-0,038
-431,905	-60,769	0,080	0,024
-430,890	174,588	0,064	-0,067
-429,876	197,541	-0,069	-0,075
-428,861	-200,000	0,001	0,105
-427,846	-200,000	0,006	-0,036
-426,832	-130,120	0,064	0,006
-425,817	-20,364	-0,122	-0,054
-424,803	800,000	-0,092	-0,197
-423,788	-79,654	0,038	0,009
-422,773	324,179	0,038	0,052
-421,759	-200,000	-0,020	0,065
-420,744	-200,000	0,022	-0,126
-419,730	800,000	-0,046	0,128
-418,715	-200,000	0,001	0,084
-417,701	-200,000	-0,003	-0,028
-416,686	6,427	0,143	0,076
-415,671	-102,420	0,129	0,022
-414,657	800,000	-0,096	0,192
-413,642	7,204	0,120	0,064
-412,628	-165,125	-0,105	-0,003
-411,613	-48,219	0,073	-0,025
-410,598	280,918	-0,078	-0,099
-409,584	800,000	-0,024	-0,077
-408,569	355,169	0,069	-0,098
-407,555	800,000	0,035	-0,080
-406,540	-130,437	-0,058	0,006
-405,525	98,017	0,025	-0,020
-404,511	11,588	-0,072	-0,039
-403,496	-200,000	0,011	-0,197
-402,482	-200,000	0,008	0,031
-401,467	-200,000	0,003	0,057
-400,452	-200,000	-0,004	0,027
-399,438	68,621	-0,020	0,015
-398,423	-200,000	-0,004	-0,026
-397,409	48,615	0,045	-0,030
-396,394	-200,000	-0,025	0,101
-395,379	67,305	0,053	0,038
-394,365	56,048	-0,038	-0,026
-393,350	-99,759	0,027	-0,005
-392,336	-200,000	-0,037	-0,137
-391,321	152,911	-0,152	0,149
-390,306	723,243	0,056	0,106
-389,292	76,586	0,095	0,072
-388,277	267,103	0,120	0,150
-387,263	46,825	-0,035	0,023
-386,248	-131,519	0,021	0,002
-385,233	800,000	0,021	0,044
-384,219	483,656	0,058	0,095
-383,204	-114,074	-0,053	-0,007
-382,190	137,050	-0,025	-0,023
-381,175	-200,000	-0,001	-0,029
-380,160	84,427	0,084	0,066
-379,146	689,565	0,062	0,116
-378,131	472,309	0,013	-0,020
-377,117	800,000	0,034	-0,069
-376,102	194,099	-0,125	0,135
-375,088	-27,040	-0,131	-0,055
-374,073	-200,000	0,013	-0,147
-373,058	-1,995	0,083	0,041
-372,044	-200,000	0,019	0,101
-371,029	113,525	0,061	0,053
-370,015	-200,000	0,040	-0,126
-369,000	800,000	0,071	-0,190
-367,985	-32,700	-0,025	-0,010
-366,971	706,398	-0,034	-0,065
-365,956	-106,054	0,077	0,012
-364,942	800,000	-0,043	-0,112
-363,927	293,594	-0,093	0,122
-362,912	151,487	-0,132	0,129
-361,898	800,000	-0,028	0,088
-360,883	-11,178	0,089	0,042
-359,869	-86,425	-0,140	0,030
-358,854	-140,032	0,121	-0,009
-357,839	-90,687	0,084	-0,017
-356,825	800,000	0,043	-0,131
-355,810	-55,285	-0,124	-0,039
-354,796	-200,000	-0,007	0,027
-353,781	-200,000	-0,013	-0,063
-352,766	127,554	-0,061	-0,055
-351,752	-77,405	0,144	0,035
-350,737	569,673	0,006	-0,010
-349,723	-57,313	-0,097	0,030
-348,708	237,079	-0,038	-0,045
-347,693	398,390	-0,083	-0,124
-346,679	-15,784	-0,166	-0,075
-345,664	-24,219	0,053	-0,023
-344,650	181,436	0,080	0,084
-343,635	800,000	-0,022	-0,057
-342,620	59,440	0,009	-0,006
-341,606	37,507	0,099	-0,063
-340,591	-148,029	-0,018	-0,001
-339,577	-96,414	-0,128	0,024
-338,562	26,916	-0,066	-0,040
-337,548	-41,076	0,081	-0,030
-336,533	800,000	0,047	0,106
-335,518	-111,327	0,045	-0,007
-334,504	21,654	-0,035	-0,020
-333,489	800,000	-0,030	0,083
-332,475	-124,150	0,081	-0,009
-331,460	194,527	-0,078	-0,085
-330,445	38,611	0,050	0,032
-329,431	40,268	-0,068	-0,043
-328,416	216,333	0,043	0,049
-327,402	800,000	0,066	0,146
-326,387	206,491	0,137	-0,152
-325,372	320,605	-0,097	-0,132
-324,358	-200,000	-0,008	0,042
-323,343	-88,038	0,055	-0,012
-322,329	800,000	0,047	0,127
-321,314	135,052	0,073	0,068
-320,299	59,226	0,081	0,057
-319,285	-90,602	-0,047	0,010
-318,270	271,987	0,059	0,075
-317,256	-110,276	-0,097	0,014
-316,241	800,000	-0,040	-0,089
-315,226	-200,000	-0,020	-0,128
-314,212	124,198	0,054	0,048
-313,197	800,000	0,038	0,104
-312,183	-93,227	0,072	-0,014
-311,168	285,337	0,037	-0,047
-310,153	-200,000	0,013	-0,051
-309,139	-200,000	-0,012	0,201
-308,124	-95,537	0,085	-0,016
-307,110	-88,232	0,192	-0,041
-306,095	-18,426	0,063	0,028
-305,080	246,844	-0,062	0,075
-304,066	87,889	-0,138	-0,109
-303,051	425,970	0,080	-0,123
-302,037	-2,285	0,142	0,071
-301,022	-92,497	-0,116	-0,023
-300,008	-26,790	0,030	-0,012
-298,993	-200,000	-0,017	0,120
-297,978	-34,188	0,048	0,019
-296,964	800,000	0,034	-0,091
-295,949	-48,488	-0,104	-0,035
-294,935	800,000	-0,022	-0,068
-293,920	-108,385	0,082	-0,012
-292,905	-11,957	-0,084	-0,039
-291,891	-200,000	0,011	0,083
-290,876	-67,423	-0,168	-0,047
-289,862	323,338	0,041	-0,056
-288,847	132,247	-0,007	-0,006
-287,832	99,284	0,061	-0,050
-286,818	800,000	0,049	0,103
-285,803	44,343	0,054	0,035
-284,789	800,000	0,018	0,049
-283,774	223,622	-0,073	-0,084
-282,759	-128,547	-0,102	-0,010
-281,745	162,844	-0,027	-0,027
-280,730	135,198	-0,105	-0,098
-279,716	-9,173	0,099	-0,047
-278,701	111,382	0,038	0,032
-277,686	-200,000	0,025	0,136
-276,672	329,540	-0,039	-0,053
-275,657	-54,816	-0,073	-0,023
-274,643	-200,000	-0,005	0,050
-273,628	-200,000	-0,007	0,105
-272,613	-47,957	0,124	0,042
-271,599	337,455	-0,016	0,022
-270,584	-75,694	0,142	0,036
-269,570	800,000	-0,065	0,153
-268,555	-33,506	0,086	0,034
-267,540	-160,112	-0,098	0,004
-266,526	24,468	-0,126	-0,074
-265,511	-82,559	0,158	-0,036
-264,497	800,000	-0,017	-0,048
-263,482	800,000	0,025	-0,057
-262,467	110,154	-0,060	0,051
-261,453	800,000	0,029	-0,061
-260,438	-121,605	-0,067	0,008
-259,424	119,847	-0,070	0,062
-258,409	-200,000	-0,042	0,159
-257,395	800,000	0,026	0,072
-256,380	-60,779	0,077	-0,023
-255,365	-8,374	0,034	-0,016
-254,351	800,000	0,004	0,012
-253,336	-200,000	0,022	0,084
-252,322	-61,478	-0,104	0,031
-251,307	-34,429	-0,072	-0,028
-250,292	-177,994	-0,096	0,002
-249,278	-85,974	0,199	0,043
-248,263	-6,584	0,177	-0,085
-247,249	58,482	0,060	-0,042
-246,234	-39,560	-0,074	0,027
-245,219	-50,173	0,101	-0,034
-244,205	-200,000	-0,002	-0,059
-243,190	221,882	0,077	-0,089
-242,176	558,568	-0,022	-0,038
-241,161	69,853	0,128	0,094
-240,146	-23,556	0,041	0,017
-239,132	126,615	-0,149	-0,134
-238,117	296,830	-0,211	-0,276
-237,103	469,666	0,038	0,061
-236,088	119,937	0,064	0,057
-235,073	-200,000	-0,037	0,166
-234,059	-37,684	0,175	0,066
-233,044	-200,000	-0,022	-0,102
-232,030	227,804	0,072	-0,084
-231,015	58,005	-0,120	-0,083
-230,000	755,588	0,065	-0,125
-228,986	-93,646	-0,058	-0,011
-227,971	-23,983	0,166	-0,070
-226,957	-200,000	0,018	0,111
-225,942	-200,000	0,006	0,047
-224,927	-32,911	-0,182	-0,072
-223,913	-200,000	-0,029	-0,131
-222,898	417,128	-0,024	-0,036
-221,884	-200,000	-0,001	0,020
-220,869	69,339	0,071	-0,052
-219,855	-126,596	0,189	-0,020
-218,840	800,000	-0,030	0,080
-217,825	-200,000	0,022	0,149
-216,811	-200,000	-0,019	-0,066
-215,796	-200,000	-0,054	-0,204
-214,782	-152,512	-0,137	0,007
-213,767	-200,000	-0,004	-0,020
-212,752	458,619	-0,048	0,076
-211,738	-106,749	0,093	0,015
-210,723	118,897	0,122	-0,107
-209,709	-69,010	-0,112	-0,030
-208,694	385,986	0,087	-0,128
-207,679	35,127	-0,057	-0,035
-206,665	800,000	0,037	-0,074
-205,650	800,000	-0,040	0,104
-204,636	-112,463	0,248	-0,035
-203,621	-200,000	-0,010	-0,072
-202,606	-119,865	0,071	0,009
-201,592	319,507	-0,015	-0,020
-200,577	-200,000	0,034	-0,111
-199,563	-200,000	-0,020	-0,071
-198,548	-200,000	0,051	0,185
-197,533	-200,000	0,005	0,181
-196,519	800,000	-0,032	-0,096
-195,504	800,000	-0,003	0,007
-194,490	800,000	-0,037	-0,095
-193,475	-200,000	-0,001	-0,022
-192,460	-23,785	-0,028	0,012
-191,446	608,504	-0,022	0,040
-190,431	-200,000	-0,012	0,135
-189,417	-200,000	0,154	-0,000
-188,402	-200,000	-0,053	0,197
-187,387	215,140	-0,020	0,023
-186,373	82,298	-0,032	0,025
-185,358	-53,124	-0,073	-0,024
-184,344	128,666	0,046	-0,042
-183,329	22,445	0,120	-0,069
-182,315	-200,000	-0,009	-0,086
-181,300	-43,330	0,067	-0,024
-180,285	427,562	0,035	-0,054
-179,271	-14,004	0,127	-0,058
-178,256	-200,000	0,002	-0,100
-177,242	800,000	0,017	0,042
-176,227	-108,577	0,177	0,027
-175,212	-200,000	-0,003	-0,019
-174,198	657,696	0,071	0,129
-173,183	350,404	-0,035	-0,050
-172,169	-112,207	0,030	0,004
-171,154	49,355	0,012	-0,008
-170,139	27,143	0,066	0,039
-169,125	-200,000	-0,027	0,148
-168,110	-52,414	-0,143	-0,047
-167,096	-200,000	-0,001	0,165
-166,081	61,950	-0,047	-0,033
-165,066	201,690	-0,052	0,056
-164,052	-129,912	-0,112	0,011
-163,037	-113,000	0,115	0,016
-162,023	-76,000	-0,150	-0,037
-161,008	79,490	-0,082	0,062
-159,993	-33,297	-0,129	-0,050
-158,979	-200,000	-0,002	-0,092
-157,964	-200,000	-0,017	-0,117
-156,950	105,814	-0,095	0,079
-155,935	30,183	0,086	0,052
-154,920	-200,000	-0,021	0,085
-153,906	597,574	-0,056	0,099
-152,891	-200,000	0,002	-0,047
-151,877	182,986	0,095	-0,099
-150,862	171,909	0,042	0,043
-149,847	-115,232	0,030	-0,004
-148,833	32,396	0,055	-0,034
-147,818	-14,615	0,030	0,013
-146,804	26,939	0,073	-0,043
-145,789	1,613	0,043	0,022
-144,775	380,365	0,066	-0,096
-143,760	17,928	-0,060	0,034
-142,745	39,609	-0,024	0,015
-141,731	800,000	0,012	0,033
-140,716	452,208	0,030	0,047
-139,702	-200,000	0,026	0,121
-138,687	92,184	0,052	0,041
-137,672	-104,581	-0,065	0,011
-136,658	800,000	-0,047	-0,128
-135,643	-121,084	-0,100	0,012
-134,629	-38,739	-0,033	-0,012
-133,614	-200,000	-0,001	-0,034
-132,599	800,000	0,026	-0,061
-131,585	-34,493	-0,197	-0,076
-130,570	800,000	0,030	-0,064
-129,556	454,390	-0,054	-0,085
-128,541	-200,000	0,022	-0,134
-127,526	-2,004	0,055	0,027
-126,512	-200,000	-0,019	0,081
-125,497	-154,319	-0,042	0,002
-124,483	-125,361	0,084	-0,009
-123,468	-81,058	0,173	-0,040
-122,453	-200,000	-0,002	-0,120
-121,439	47,307	-0,278	0,183
-120,424	-70,719	-0,063	0,017
-119,410	139,148	0,025	0,023
-118,395	241,068	0,147	0,174
-117,380	-200,000	-0,055	0,184
-116,366	327,054	-0,021	0,028
-115,351	800,000	-0,022	0,060
-114,337	-200,000	0,044	0,183
-113,322	-118,789	0,096	-0,012
-112,307	800,000	0,010	0,031
-111,293	800,000	-0,013	-0,032
-110,278	365,581	0,019	0,027
-109,264	24,216	0,070	-0,041
-108,249	-200,000	0,020	0,077
-107,234	-20,776	-0,088	0,038
-106,220	-200,000	0,001	0,008
-105,205	127,611	-0,097	-0,087
-104,191	677,701	0,067	0,123
-103,176	-200,000	-0,014	0,073
-102,162	43,520	-0,079	-0,051
-101,147	-200,000	0,001	0,054
-100,132	-49,285	-0,098	0,033
-99,118	531,557	0,043	0,072
-98,103	-200,000	-0,038	-0,179
-97,089	252,426	-0,059	0,072
-96,074	-200,000	-0,004	0,062
-95,059	-80,288	0,162	0,038
-94,045	356,102	0,012	0,017
-93,030	-200,000	0,001	-0,104
-92,016	-155,568	-0,016	0,001
-91,001	800,000	0,011	-0,030
-89,986	4,851	-0,031	0,016
-88,972	800,000	0,048	0,113
-87,957	-57,189	0,063	-0,020
-86,943	35,744	-0,083	-0,051
-85,928	-24,166	-0,147	0,062
-84,913	-200,000	0,005	-0,040
-83,899	800,000	-0,071	0,208
-82,884	136,521	0,008	-0,007
-81,870	204,826	-0,052	0,057
-80,855	575,563	-0,014	-0,024
-79,840	104,268	0,018	0,015
-78,826	4,479	-0,049	-0,025
-77,811	-200,000	-0,003	0,035
-76,797	-53,284	-0,030	-0,010
-75,782	800,000	-0,046	0,092
-74,767	-200,000	0,012	0,084
-73,753	207,521	0,053	-0,059
-72,738	211,893	-0,112	0,125
-71,724	-77,431	-0,085	0,021
-70,709	779,259	0,081	-0,157
-69,694	-19,829	0,085	-0,037
-68,680	-146,802	-0,077	-0,005
-67,665	-200,000	0,031	0,184
-66,651	-200,000	-0,050	0,188
-65,636	-200,000	0,027	-0,120
-64,622	239,567	-0,047	-0,055
-63,607	671,859	0,051	0,093
-62,592	162,756	-0,085	-0,084
-61,578	800,000	0,023	0,056
-60,563	79,464	0,087	0,066
-59,549	800,000	-0,063	0,124
-58,534	15,045	-2,016	-1,111
-57,519	482,239	-1,282	-2,062
-56,505	-200,000	-0,434	-4,392
-55,490	565,464	0,902	1,549
-54,476	800,000	5,047	11,205
-53,461	-200,000	20,975	336,023
-52,446	800,000	758,556	2336,434
-51,432	553,014	1662,553	2828,710
-50,417	73,294	1664,267	1226,468
-49,403	18,298	1537,451	863,247
-48,388	12,218	1460,866	790,818
-47,373	19,294	1451,682	819,789
-46,359	15,625	1440,858	796,190
-45,344	10,532	1436,544	769,516
-44,330	10,462	1434,886	768,268
-43,315	10,423	1432,932	767,005
-42,300	10,438	1431,076	766,052
-41,286	10,442	1429,977	765,450
-40,271	10,429	1428,613	764,629
-39,257	10,434	1427,471	764,013
-38,242	10,494	1426,276	763,625
-37,227	10,477	1425,197	762,935
-36,213	10,457	1424,009	762,175
-35,198	10,468	1422,984	761,648
-34,184	10,550	1421,766	761,356
-33,169	10,430	1420,632	760,149
-32,154	10,553	1419,524	760,109
-31,140	10,484	1418,315	759,106
-30,125	10,529	1417,427	758,811
-29,111	10,552	1416,114	758,186
-28,096	10,511	1415,020	757,377
-27,082	10,394	1413,871	756,184
-26,067	10,391	1412,624	755,475
-25,052	10,437	1411,492	755,052
-24,038	10,426	1410,671	754,533
-23,023	10,411	1409,684	753,904
-22,009	10,420	1408,666	753,370
-20,994	10,425	1407,618	752,806
-19,979	10,429	1406,838	752,375
-18,965	10,429	1405,694	751,733
-17,950	10,409	1404,699	751,079
-16,936	10,388	1404,176	750,672
-15,921	10,336	1403,226	749,893
-14,906	10,317	1402,194	749,221
-13,892	10,365	1401,206	748,890
-12,877	10,365	1400,407	748,430
-11,863	10,355	1399,521	747,884
-10,848	10,309	1398,492	747,090
-9,833	10,274	1397,630	746,437
-8,819	10,235	1397,034	745,908
-7,804	10,209	1396,195	745,309
-6,790	10,219	1395,012	744,694
-5,775	10,261	1394,054	744,346
-4,760	10,266	1393,005	743,782
-3,746	10,279	1391,886	743,216
-2,731	10,281	1391,132	742,792
-1,717	10,212	1390,412	742,061
-0,702	10,245	1388,467	741,145
0,313	14,369	1301,532	713,591
1,327	30,638	692,036	416,358
2,342	47,837	119,884	78,759
3,356	-1,506	16,605	8,223
4,371	7,149	3,366	1,764
5,386	43,423	0,909	0,584
6,400	800,000	0,193	0,559
7,415	-26,656	-0,200	-0,082
8,429	-93,958	-0,373	-0,072
9,444	17,915	-0,347	-0,194
10,459	603,218	-0,154	-0,270
11,473	-1,302	-0,243	-0,120
12,488	389,846	-0,126	-0,185
13,502	-2,083	-0,374	-0,184
14,517	193,288	-0,177	-0,189
15,531	-2,943	-0,403	-0,198
16,546	144,567	-0,273	-0,257
17,561	84,759	-0,460	-0,355
18,575	-70,369	-0,208	-0,055
19,590	150,676	-0,255	-0,244
20,604	114,147	-0,169	-0,145
21,619	100,908	-0,385	-0,315
22,634	144,538	-0,373	-0,351
23,648	94,330	-0,332	-0,265
24,663	101,134	-0,347	-0,284
25,677	-90,969	-0,334	-0,067
26,692	119,639	-0,351	-0,306
27,707	-46,190	-0,369	-0,127
28,721	77,902	-0,400	-0,300
29,736	119,137	-0,388	-0,337
30,750	-10,607	-0,475	-0,220
31,765	78,607	-0,432	-0,324
32,780	112,439	-0,329	-0,280
33,794	107,380	-0,297	-0,248
34,809	188,734	-0,304	-0,320
35,823	-40,295	-0,490	-0,178
36,838	-39,745	-0,420	-0,154
37,853	132,163	-0,411	-0,372
38,867	800,000	-0,134	-0,286
39,882	-62,979	-0,435	-0,126
40,896	87,888	-0,281	-0,219
41,911	126,019	-0,211	-0,188
42,926	96,882	-0,260	-0,209
43,940	66,960	-0,271	-0,194
44,955	157,759	-0,325	-0,316
45,969	148,427	-0,422	-0,400
46,984	145,491	-0,279	-0,263
47,999	584,632	-0,183	-0,317
49,013	220,822	-0,307	-0,346
50,028	-72,566	-0,430	-0,111
51,042	266,715	-0,282	-0,346
52,057	487,220	-0,241	-0,386
53,071	139,041	-0,304	-0,281
54,086	57,028	-0,261	-0,178
55,101	57,391	-0,352	-0,241
56,115	1,731	-0,371	-0,187
57,130	140,668	-0,295	-0,274
58,144	127,826	-0,329	-0,294
59,159	25,266	-0,461	-0,268
60,174	71,734	-0,258	-0,188
61,188	47,143	-0,371	-0,242
62,203	237,484	-0,286	-0,334
63,217	10,316	-0,342	-0,182
64,232	-72,776	-0,425	-0,109
65,247	136,390	-0,289	-0,264
66,261	146,266	-0,259	-0,244
67,276	247,077	-0,321	-0,380
68,290	-0,574	-0,305	-0,151
69,305	31,220	-0,280	-0,168
70,320	-38,232	-0,232	-0,086
71,334	112,830	-0,344	-0,292
72,349	5,249	-0,376	-0,194
73,363	86,117	-0,178	-0,137
74,378	-91,326	-0,384	-0,076
75,393	348,596	-0,240	-0,332
76,407	88,234	-0,294	-0,228
77,422	-104,975	-0,203	-0,032
78,436	168,765	-0,219	-0,219
79,451	134,495	-0,357	-0,324
80,466	48,231	-0,278	-0,182
81,480	-33,110	-0,254	-0,098
82,495	6,300	-0,348	-0,180
83,509	6,278	-0,251	-0,130
84,524	73,826	-0,244	-0,179
85,539	208,272	-0,262	-0,286
86,553	101,683	-0,185	-0,151
87,568	56,723	-0,203	-0,138
88,582	22,416	-0,288	-0,164
89,597	150,495	-0,203	-0,193
90,611	21,646	-0,331	-0,188
91,626	17,835	-0,268	-0,149
92,641	54,167	-0,283	-0,190
93,655	38,270	-0,359	-0,223
94,670	140,776	-0,382	-0,353
95,684	34,692	-0,319	-0,194
96,699	54,281	-0,276	-0,185
97,714	94,718	-0,235	-0,187
98,728	-56,581	-0,285	-0,088
99,743	439,365	-0,100	-0,154
100,757	-74,683	-0,329	-0,082
101,772	-118,049	-0,450	-0,056
102,787	41,348	-0,189	-0,119
103,801	206,264	-0,215	-0,234
104,816	381,805	-0,152	-0,218
105,830	-82,620	-0,260	-0,058
106,845	41,879	-0,203	-0,128
107,860	16,183	-0,259	-0,142
108,874	110,485	-0,127	-0,107
109,889	116,618	-0,327	-0,280
110,903	461,696	-0,159	-0,248
111,918	-57,991	-0,246	-0,074
112,933	115,151	-0,204	-0,174
113,947	1,276	-0,216	-0,108
114,962	149,517	-0,220	-0,208
115,976	-181,714	-0,249	0,003
116,991	502,240	-0,170	-0,275
118,006	27,816	-0,298	-0,175
119,020	78,448	-0,222	-0,165
120,035	8,252	-0,213	-0,112
121,049	74,790	-0,189	-0,139
122,064	-107,605	-0,242	-0,037
123,079	-134,679	-0,211	-0,018
124,093	196,959	-0,189	-0,201
125,108	33,574	-0,356	-0,215
126,122	-65,354	-0,324	-0,090
127,137	-124,807	-0,291	-0,031
128,151	-134,173	-0,258	0,022
129,166	27,065	-0,190	-0,111
130,181	-18,941	-0,244	-0,105
131,195	-6,524	-0,263	-0,124
132,210	223,446	-0,207	-0,233
133,224	176,649	-0,272	-0,275
134,239	-147,149	-0,178	-0,010
135,254	9,191	-0,156	-0,082
136,268	50,225	-0,177	-0,116
137,283	-96,601	-0,277	-0,050
138,297	142,100	-0,221	-0,204
139,312	-23,466	-0,311	-0,130
140,327	-51,790	-0,354	-0,114
141,341	-200,000	-0,015	-0,103
142,356	121,142	-0,207	-0,179
143,370	-49,177	-0,245	-0,081
144,385	-35,187	-0,132	-0,050
145,400	-25,303	-0,228	-0,094
146,414	-30,342	-0,374	-0,147
147,429	-25,516	-0,194	-0,080
148,443	42,194	-0,254	-0,160
149,458	496,484	-0,142	-0,228
150,473	-47,513	-0,235	-0,079
151,487	-53,069	-0,183	-0,058
152,502	87,281	-0,321	-0,247
153,516	317,386	-0,200	-0,263
154,531	49,993	-0,203	-0,133
155,546	12,172	-0,334	-0,178
156,560	-92,762	-0,283	-0,055
157,575	45,961	-0,215	-0,138
158,589	50,023	-0,157	-0,103
159,604	99,981	-0,156	-0,126
160,619	55,919	-0,371	-0,250
161,633	9,046	-0,303	-0,159
162,648	66,526	-0,306	-0,216
163,662	-26,406	-0,176	-0,071
164,677	-73,699	-0,216	-0,054
165,692	-9,391	-0,191	-0,088
166,706	362,180	-0,105	-0,147
167,721	-14,798	-0,369	-0,164
168,735	126,852	-0,270	-0,238
169,750	-105,421	-0,319	-0,050
170,764	186,270	-0,195	-0,201
171,779	38,139	-0,201	-0,124
172,794	32,127	-0,204	-0,122
173,808	-37,710	-0,310	-0,114
174,823	745,873	-0,151	-0,283
175,837	250,942	-0,157	-0,186
176,852	-42,865	-0,197	-0,069
177,867	73,520	-0,282	-0,204
178,881	136,865	-0,126	-0,114
179,896	97,958	-0,201	-0,160
180,910	-21,246	-0,246	-0,104
181,925	82,788	-0,192	-0,145
182,940	89,241	-0,172	-0,133
183,954	-200,000	-0,030	-0,176
184,969	-147,029	-0,241	0,014
185,983	102,661	-0,237	-0,193
186,998	-60,488	-0,169	-0,050
188,013	215,063	-0,144	-0,159
189,027	483,071	-0,131	-0,208
190,042	-7,664	-0,208	-0,097
191,056	49,902	-0,187	-0,122
192,071	351,393	-0,154	-0,212
193,086	-107,866	-0,157	0,023
194,100	-158,103	-0,294	0,012
195,115	-30,333	-0,247	-0,097
196,129	124,003	-0,217	-0,189
197,144	291,631	-0,285	-0,360
198,159	274,715	-0,221	-0,272
199,173	167,025	-0,150	-0,147
200,188	-31,287	-0,249	-0,097
201,202	800,000	-0,083	-0,181
202,217	-102,732	-0,254	-0,041
203,232	161,075	-0,238	-0,231
204,246	18,209	-0,192	-0,106
205,261	258,253	-0,162	-0,193
206,275	78,042	-0,138	-0,102
207,290	249,597	-0,134	-0,157
208,304	178,903	-0,180	-0,183
209,319	-28,783	-0,256	-0,101
210,334	399,352	-0,134	-0,195
211,348	15,521	-0,220	-0,119
212,363	-24,774	-0,235	-0,096
213,377	-109,060	-0,182	0,027
214,392	210,019	-0,152	-0,166
215,407	-41,428	-0,201	-0,071
216,421	119,488	-0,086	-0,073
217,436	-146,467	-0,193	0,011
218,450	370,709	-0,109	-0,154
219,465	85,131	-0,295	-0,223
220,480	-65,813	-0,203	-0,056
221,494	271,016	-0,075	-0,092
222,509	-200,000	0,023	-0,195
223,523	-15,292	-0,183	-0,081
224,538	273,040	-0,140	-0,171
225,553	800,000	-0,084	-0,170
226,567	193,053	-0,122	-0,127
227,582	800,000	-0,105	-0,258
228,596	-3,187	-0,308	-0,148
229,611	14,139	-0,169	-0,090
230,626	329,882	-0,156	-0,208
231,640	83,981	-0,204	-0,154
232,655	16,392	-0,303	-0,165
233,669	273,636	-0,175	-0,214
234,684	477,409	-0,140	-0,219
235,699	75,399	-0,188	-0,137
236,713	112,371	-0,183	-0,153
237,728	-13,224	-0,334	-0,149
238,742	-21,607	-0,222	-0,093
239,757	-30,464	-0,238	-0,093
240,772	175,536	-0,136	-0,136
241,786	179,450	-0,135	-0,136
242,801	35,337	-0,198	-0,119
243,815	61,082	-0,274	-0,187
244,830	800,000	-0,038	-0,075
245,844	-48,909	-0,211	-0,069
246,859	283,639	-0,144	-0,178
247,874	-29,869	-0,290	-0,113
248,888	-36,493	-0,125	-0,046
249,903	248,175	-0,141	-0,165
250,917	231,914	-0,115	-0,130
251,932	-162,428	-0,081	0,003
252,947	16,135	-0,211	-0,114
253,961	314,438	-0,114	-0,148
254,976	-77,594	-0,179	-0,042
255,990	-16,926	-0,126	-0,055
257,005	9,179	-0,218	-0,113
258,020	245,393	-0,097	-0,113
259,034	129,247	-0,065	-0,057
260,049	11,978	-0,174	-0,092
261,063	-128,776	-0,121	-0,012
262,078	257,852	-0,096	-0,114
263,093	800,000	-0,069	-0,186
264,107	52,371	-0,264	-0,173
265,122	-105,338	-0,145	0,023
266,136	-186,096	-0,118	-0,001
267,151	3,972	-0,204	-0,102
268,166	628,307	-0,056	-0,098
269,180	46,821	-0,104	-0,066
270,195	5,294	-0,268	-0,135
271,209	176,372	-0,105	-0,105
272,224	-200,000	-0,001	-0,076
273,239	350,985	-0,139	-0,189
274,253	457,935	-0,074	-0,114
275,268	41,251	-0,269	-0,167
276,282	128,784	-0,083	-0,073
277,297	15,233	-0,190	-0,102
278,312	-50,892	-0,174	-0,056
279,326	-125,367	-0,175	0,018
280,341	18,906	-0,102	-0,056
281,355	-17,227	-0,094	-0,040
282,370	800,000	-0,142	-0,301
283,384	800,000	-0,049	-0,108
284,399	124,620	-0,138	-0,120
285,414	153,833	-0,160	-0,151
286,428	220,857	-0,131	-0,144
287,443	50,718	-0,107	-0,069
288,457	800,000	-0,039	-0,105
289,472	-6,830	-0,132	-0,061
290,487	188,623	-0,137	-0,141
291,501	-66,150	-0,226	-0,061
292,516	16,083	-0,168	-0,091
293,530	-115,250	-0,088	0,011
294,545	-173,243	-0,133	0,003
295,560	-200,000	-0,035	-0,114
296,574	623,356	-0,098	-0,170
297,589	160,682	-0,219	-0,210
298,603	189,479	-0,119	-0,123
299,618	292,461	-0,153	-0,192
300,633	-58,173	-0,147	-0,044
301,647	-94,465	-0,229	-0,042
302,662	17,249	-0,140	-0,076
303,676	-4,115	-0,148	-0,070
304,691	800,000	-0,109	-0,255
305,706	320,985	-0,232	-0,303
306,720	329,987	-0,205	-0,271
307,735	192,802	-0,154	-0,160
308,749	359,315	-0,034	-0,046
309,764	-56,864	-0,121	-0,037
310,779	800,000	-0,046	0,128
311,793	-130,580	-0,173	-0,016
312,808	245,345	-0,124	-0,144
313,822	3,623	-0,214	-0,107
314,837	37,195	-0,059	-0,036
315,852	334,391	-0,097	-0,129
316,866	641,097	-0,059	-0,104
317,881	800,000	-0,068	-0,173
318,895	213,394	-0,144	-0,156
319,910	800,000	-0,078	-0,167
320,925	91,089	-0,128	-0,098
321,939	800,000	-0,058	-0,137
322,954	-82,260	-0,135	-0,030
323,968	-200,000	-0,020	-0,061
324,983	-65,401	-0,154	-0,042
325,997	217,596	-0,082	-0,090
327,012	143,409	-0,049	-0,045
328,027	-68,487	-0,076	-0,020
329,041	-79,825	-0,223	-0,051
330,056	-99,231	-0,250	-0,043
331,070	-200,000	-0,031	-0,111
332,085	-126,937	-0,119	0,012
333,100	-157,102	-0,205	-0,008
334,114	172,901	-0,162	-0,160
335,129	-147,043	-0,102	0,006
336,143	-103,242	-0,105	-0,017
337,158	74,280	-0,141	-0,101
338,173	40,952	-0,041	0,025
339,187	-100,235	-0,235	-0,040
340,202	6,573	-0,228	-0,116
341,216	-139,812	-0,198	-0,014
342,231	-30,440	-0,188	0,073
343,246	20,851	-0,082	-0,045
344,260	113,682	-0,119	-0,099
345,275	343,830	-0,017	-0,023
346,289	47,154	-0,167	-0,106
347,304	274,080	-0,138	-0,168
348,319	183,260	-0,107	-0,108
349,333	-200,000	-0,066	-0,320
350,348	141,936	-0,054	0,049
351,362	800,000	0,041	-0,097
352,377	178,809	-0,125	0,125
353,392	433,518	-0,055	-0,082
354,406	-56,558	-0,179	-0,054
355,421	208,251	1313,089	1404,122
356,435	160,235	1473,583	1404,594
