DTS Sentinel unit serial number:	SN410029Multiplexer serial number:	ORYXHardware model number:	OX2-SRSoftware version number:	ORYX F/W v4,00 Oryx Data Collector v3.7.2.0data status	okinstallation	B3 Nyhavnadifferential loss correction	single-endedforward channel	channel 1reverse channel	N/Adate	2023/11/30time	14:47:30forward acquisition time	300,00reverse acquisition time	0,00gamma	499,1914k internal	0,3208k external	0,3208temperature offset calibration	1,0000default loss term (dB/km)	0,3820temperature slope calibration	1,0000multiplexer offset coefficient	1,0000multiplexer slope coefficient	1,0000fibre end	0,00T internal ref (°C)	12,00T ext. ref 1 (°C)	-2,12T ext. ref 2 (°C)	-2,20length (m)	temperature (°C)	Stokes	anti-Stokes-744,400	401,201	-0,189	-0,289
-743,385	-200,000	0,005	0,265
-742,371	333,885	-0,088	-0,124
-741,356	-200,000	0,011	0,364
-740,342	44,274	-0,267	-0,178
-739,327	-200,000	-0,001	0,273
-738,312	47,800	-0,306	-0,207
-737,298	-200,000	-0,016	0,195
-736,283	12,914	-0,215	-0,121
-735,269	800,000	0,165	0,336
-734,254	83,332	-0,162	-0,128
-733,239	662,882	-0,077	0,144
-732,225	242,253	-0,116	-0,141
-731,210	-200,000	0,012	0,208
-730,196	-50,896	-0,054	-0,018
-729,181	-62,701	-0,054	0,016
-728,167	-200,000	-0,007	-0,023
-727,152	-200,000	0,001	0,082
-726,137	720,762	-0,049	-0,095
-725,123	-37,466	-0,087	-0,033
-724,108	-200,000	0,005	0,082
-723,094	-200,000	0,001	-0,141
-722,079	-200,000	0,027	-0,190
-721,064	508,677	-0,060	0,101
-720,050	-97,599	-0,067	0,013
-719,035	-200,000	0,004	0,137
-718,021	425,359	0,017	0,027
-717,006	-41,540	-0,177	-0,066
-715,991	-98,529	-0,135	-0,025
-714,977	185,022	-0,087	-0,094
-713,962	368,408	0,030	0,044
-712,948	216,268	0,057	-0,066
-711,933	-200,000	0,003	0,021
-710,918	642,899	-0,078	0,144
-709,904	188,636	-0,063	-0,068
-708,889	153,180	-0,067	0,067
-707,875	-8,645	-0,137	0,066
-706,860	322,328	-0,112	-0,155
-705,845	119,236	-0,104	-0,094
-704,831	800,000	0,030	0,069
-703,816	-200,000	-0,014	0,057
-702,802	-37,021	-0,130	0,050
-701,787	33,693	-0,129	0,081
-700,772	800,000	0,007	-0,021
-699,758	-157,114	-0,062	0,003
-698,743	-179,313	0,103	-0,002
-697,729	-162,133	0,045	0,002
-696,714	-41,160	0,035	0,013
-695,699	-200,000	0,010	-0,153
-694,685	-97,108	-0,083	0,016
-693,670	23,369	0,033	-0,019
-692,656	-54,184	0,165	-0,054
-691,641	444,063	0,045	-0,071
-690,627	-188,590	0,061	-0,001
-689,612	-200,000	0,010	-0,121
-688,597	579,672	-0,100	0,179
-687,583	299,402	-0,134	-0,179
-686,568	67,147	-0,093	0,068
-685,554	-200,000	-0,007	0,108
-684,539	4,384	-0,099	0,052
-683,524	254,233	0,036	0,045
-682,510	715,413	0,061	-0,119
-681,495	-37,985	-0,072	0,027
-680,481	-25,834	-0,128	0,054
-679,466	-200,000	-0,011	-0,083
-678,451	-200,000	-0,012	-0,105
-677,437	572,493	0,069	0,123
-676,422	-87,286	-0,086	-0,019
-675,408	-200,000	0,002	-0,048
-674,393	86,550	-0,087	0,070
-673,378	659,014	-0,022	-0,041
-672,364	67,597	-0,102	-0,075
-671,349	-71,111	-0,159	0,043
-670,335	280,306	0,151	0,195
-669,320	-200,000	-0,004	-0,020
-668,305	-65,961	-0,108	-0,031
-667,291	-200,000	0,010	-0,174
-666,276	-199,327	-0,057	-0,000
-665,262	-49,058	-0,149	-0,051
-664,247	44,235	-0,063	-0,042
-663,232	-200,000	-0,012	-0,154
-662,218	-54,935	-0,103	-0,033
-661,203	-26,247	0,016	-0,007
-660,189	800,000	-0,052	0,115
-659,174	-45,880	0,041	0,014
-658,159	-133,752	-0,191	-0,017
-657,145	-97,360	-0,034	-0,006
-656,130	382,595	0,072	0,107
-655,116	683,773	0,059	0,113
-654,101	15,490	0,030	-0,017
-653,086	0,284	-0,057	-0,029
-652,072	109,752	-0,019	-0,017
-651,057	800,000	-0,075	-0,158
-650,043	-42,987	-0,075	0,028
-649,028	800,000	0,015	-0,035
-648,014	-200,000	0,008	-0,106
-646,999	-0,826	0,122	-0,062
-645,984	611,032	-0,038	0,069
-644,970	-124,831	-0,030	0,003
-643,955	184,176	-0,050	0,054
-642,941	-91,320	-0,073	-0,015
-641,926	48,036	-0,078	-0,053
-640,911	-77,943	0,120	0,030
-639,897	800,000	0,030	-0,069
-638,882	-40,746	-0,062	0,023
-637,868	15,712	-0,013	-0,007
-636,853	-200,000	0,009	0,050
-635,838	-19,621	-0,048	-0,022
-634,824	-200,000	-0,029	0,112
-633,809	-71,081	0,149	-0,040
-632,795	-19,225	0,058	0,026
-631,780	-49,499	-0,132	-0,045
-630,765	-46,920	0,042	-0,015
-629,751	74,088	-0,093	-0,070
-628,736	187,995	-0,123	-0,133
-627,722	-200,000	0,019	-0,103
-626,707	-200,000	0,030	-0,157
-625,692	371,651	0,063	-0,093
-624,678	74,786	-0,079	0,060
-623,663	128,736	0,023	-0,022
-622,649	22,756	-0,123	0,073
-621,634	227,042	0,087	-0,103
-620,619	-155,172	-0,072	0,003
-619,605	677,728	0,016	0,031
-618,590	-200,000	-0,001	0,102
-617,576	199,034	-0,073	-0,081
-616,561	-82,754	0,122	-0,028
-615,546	-12,160	-0,122	-0,058
-614,532	-200,000	-0,010	-0,145
-613,517	800,000	-0,038	-0,096
-612,503	-200,000	-0,021	-0,153
-611,488	3,320	-0,144	-0,075
-610,474	120,331	-0,040	-0,036
-609,459	479,907	-0,041	0,067
-608,444	149,587	-0,123	0,121
-607,430	15,319	-0,060	-0,034
-606,415	-83,933	-0,054	-0,012
-605,401	8,856	-0,058	-0,032
-604,386	800,000	-0,030	0,093
-603,371	800,000	0,071	0,211
-602,357	186,942	-0,085	0,092
-601,342	-97,215	0,114	-0,021
-600,328	98,826	-0,028	-0,024
-599,313	-153,794	0,056	0,003
-598,298	-36,585	-0,062	0,024
-597,284	11,741	0,080	-0,044
-596,269	-71,308	-0,043	0,012
-595,255	-41,361	0,131	0,048
-594,240	-200,000	0,000	-0,089
-593,225	-200,000	-0,013	0,087
-592,211	270,184	-0,082	-0,104
-591,196	-200,000	-0,016	-0,131
-590,182	-76,733	0,079	0,020
-589,167	-200,000	0,028	0,223
-588,152	-200,000	-0,033	0,127
-587,138	-37,492	-0,094	-0,036
-586,123	-68,737	-0,124	0,034
-585,109	-92,406	-0,062	0,012
-584,094	800,000	-0,035	-0,105
-583,079	629,370	0,042	-0,078
-582,065	-200,000	-0,014	-0,141
-581,050	153,728	-0,066	0,065
-580,036	-136,498	0,067	-0,006
-579,021	800,000	-0,022	-0,068
-578,006	84,441	-0,127	-0,100
-576,992	790,116	-0,056	-0,111
-575,977	-200,000	-0,010	0,080
-574,963	5,474	0,049	-0,026
-573,948	-40,253	0,007	0,003
-572,934	-200,000	0,037	0,185
-571,919	143,914	-0,055	0,053
-570,904	326,574	-0,035	0,048
-569,890	-200,000	-0,025	0,090
-568,875	-200,000	-0,010	-0,076
-567,861	-34,933	0,115	-0,045
-566,846	-52,684	-0,090	0,030
-565,831	-200,000	0,028	0,160
-564,817	-42,070	0,061	-0,022
-563,802	130,435	-0,099	-0,092
-562,788	-200,000	0,003	0,012
-561,773	800,000	0,007	0,018
-560,758	-113,417	0,039	0,005
-559,744	163,377	0,024	0,024
-558,729	-146,936	0,092	0,006
-557,715	-182,521	-0,060	-0,001
-556,700	274,965	-0,088	0,112
-555,685	378,122	-0,101	-0,150
-554,671	349,431	0,058	-0,082
-553,656	-200,000	-0,041	-0,156
-552,642	88,820	0,110	-0,088
-551,627	800,000	0,039	-0,122
-550,612	-31,363	0,103	-0,042
-549,598	-200,000	-0,001	-0,135
-548,583	-200,000	0,006	0,024
-547,569	-51,917	-0,099	0,033
-546,554	-30,136	0,098	-0,040
-545,539	93,416	-0,055	-0,045
-544,525	-49,690	-0,090	-0,031
-543,510	450,688	-0,091	-0,144
-542,496	-200,000	-0,012	0,048
-541,481	-200,000	-0,005	0,043
-540,466	70,342	0,070	-0,052
-539,452	250,618	0,086	0,105
-538,437	800,000	0,041	-0,085
-537,423	800,000	-0,032	-0,069
-536,408	-200,000	-0,003	0,177
-535,393	52,180	-0,062	0,042
-534,379	40,081	0,095	-0,061
-533,364	320,055	0,038	-0,052
-532,350	-200,000	-0,041	-0,195
-531,335	2,341	0,101	-0,053
-530,321	-119,197	-0,039	0,005
-529,306	173,280	0,063	-0,065
-528,291	-66,440	0,026	0,007
-527,277	-200,000	0,001	-0,149
-526,262	-58,999	0,076	0,024
-525,248	-200,000	0,005	0,086
-524,233	-200,000	0,021	0,123
-523,218	-79,627	0,084	0,020
-522,204	-7,710	-0,058	0,028
-521,189	-200,000	0,031	0,103
-520,175	-200,000	-0,021	-0,125
-519,160	685,538	0,003	0,005
-518,145	70,476	-0,088	-0,066
-517,131	546,570	0,041	0,070
-516,116	198,644	0,095	0,105
-515,102	75,343	0,108	-0,082
-514,087	-23,181	-0,048	0,021
-513,072	-200,000	-0,007	0,118
-512,058	558,275	-0,047	0,082
-511,043	-153,842	0,087	0,004
-510,029	-200,000	-0,024	0,122
-509,014	-200,000	-0,012	-0,068
-507,999	427,597	0,036	0,056
-506,985	63,713	-0,119	-0,086
-505,970	196,816	-0,078	-0,085
-504,956	-77,679	-0,036	0,009
-503,941	349,744	0,049	-0,070
-502,926	448,549	0,020	-0,032
-501,912	-200,000	0,007	0,175
-500,897	58,804	-0,010	-0,007
-499,883	193,985	-0,054	0,059
-498,868	-6,604	-0,048	-0,023
-497,853	-200,000	0,017	-0,141
-496,839	-41,215	-0,177	-0,065
-495,824	46,327	-0,063	0,042
-494,810	-59,911	0,101	-0,031
-493,795	-200,000	0,009	-0,154
-492,781	120,721	-0,103	-0,092
-491,766	-200,000	-0,049	-0,156
-490,751	179,257	-0,015	0,016
-489,737	-122,677	0,032	0,004
-488,722	-22,172	-0,061	-0,026
-487,708	-200,000	-0,026	0,118
-486,693	266,030	0,097	0,122
-485,678	-200,000	-0,028	0,109
-484,664	-200,000	-0,015	-0,059
-483,649	754,929	-0,040	-0,078
-482,635	80,709	-0,115	-0,089
-481,620	564,957	-0,047	0,082
-480,605	-200,000	0,006	0,141
-479,591	-200,000	-0,139	0,000
-478,576	73,566	-0,037	-0,027
-477,562	-185,146	-0,050	0,001
-476,547	-200,000	0,007	-0,149
-475,532	10,346	0,155	0,084
-474,518	-29,750	0,032	0,013
-473,503	42,257	0,143	0,093
-472,489	-200,000	-0,023	0,083
-471,474	96,160	-0,189	0,155
-470,459	-200,000	0,005	0,064
-469,445	-34,828	-0,041	0,016
-468,430	-200,000	0,031	-0,148
-467,416	-87,215	0,046	-0,010
-466,401	-62,054	0,057	0,017
-465,386	11,386	-0,102	0,056
-464,372	365,170	0,043	0,062
-463,357	-98,828	0,108	0,020
-462,343	44,016	0,068	-0,045
-461,328	150,189	0,132	-0,129
-460,313	-200,000	-0,027	-0,117
-459,299	-200,000	-0,010	0,036
-458,284	-97,650	0,020	0,004
-457,270	-25,806	-0,187	-0,079
-456,255	-200,000	0,063	-0,211
-455,241	-118,027	-0,048	0,006
-454,226	800,000	-0,024	0,051
-453,211	-53,359	0,046	-0,015
-452,197	-98,055	0,077	-0,014
-451,182	800,000	0,029	0,086
-450,168	314,515	0,025	-0,034
-449,153	800,000	-0,070	-0,201
-448,138	-200,000	-0,013	-0,089
-447,124	800,000	0,046	-0,092
-446,109	-200,000	0,027	0,131
-445,095	-125,510	-0,114	0,012
-444,080	-80,074	0,090	0,021
-443,065	-21,648	0,093	-0,040
-442,051	410,387	0,087	-0,133
-441,036	-76,901	-0,130	0,032
-440,022	-200,000	-0,008	-0,059
-439,007	321,699	0,114	-0,155
-437,992	-101,562	-0,029	0,005
-436,978	-32,666	0,046	0,018
-435,963	800,000	0,014	0,043
-434,949	566,558	-0,028	0,048
-433,934	800,000	-0,031	-0,061
-432,919	154,181	0,035	0,034
-431,905	213,108	0,052	0,059
-430,890	260,807	-0,081	-0,101
-429,876	-200,000	-0,003	0,089
-428,861	-186,051	0,106	0,001
-427,846	147,197	-0,068	-0,066
-426,832	-178,163	-0,059	-0,001
-425,817	3,059	0,108	-0,056
-424,803	195,836	-0,058	-0,063
-423,788	-200,000	-0,004	0,020
-422,773	428,711	0,068	0,106
-421,759	61,853	-0,133	0,095
-420,744	5,283	0,103	-0,054
-419,730	-106,316	0,064	0,010
-418,715	-73,730	-0,189	-0,049
-417,701	17,841	-0,141	-0,080
-416,686	-200,000	-0,008	-0,049
-415,671	344,284	0,075	0,106
-414,657	1,281	0,086	-0,044
-413,642	-86,806	0,152	-0,033
-412,628	-72,040	-0,053	-0,014
-411,613	187,971	-0,112	-0,120
-410,598	-116,184	0,057	0,007
-409,584	24,179	0,142	0,084
-408,569	-68,230	0,120	0,033
-407,555	628,230	-0,068	-0,124
-406,540	-200,000	0,023	-0,176
-405,525	-200,000	-0,003	0,044
-404,511	-88,990	0,074	0,016
-403,496	800,000	0,033	0,068
-402,482	77,543	0,139	0,106
-401,467	800,000	-0,053	0,168
-400,452	-200,000	-0,016	0,165
-399,438	-200,000	0,021	0,227
-398,423	673,009	0,002	0,003
-397,409	234,094	-0,026	0,031
-396,394	137,726	0,031	0,029
-395,379	243,728	-0,095	-0,114
-394,365	388,509	-0,063	-0,093
-393,350	-200,000	-0,018	0,082
-392,336	191,550	0,007	0,007
-391,321	-200,000	-0,013	-0,109
-390,306	-115,621	-0,066	0,009
-389,292	664,912	-0,115	-0,214
-388,277	-200,000	0,020	0,109
-387,263	800,000	0,077	0,158
-386,248	-200,000	-0,004	0,030
-385,233	350,234	0,079	-0,112
-384,219	-78,609	0,052	0,013
-383,204	-101,185	-0,092	-0,016
-382,190	-200,000	0,026	-0,093
-381,175	81,901	-0,124	-0,096
-380,160	800,000	0,025	-0,054
-379,146	800,000	0,018	0,042
-378,131	-200,000	0,005	-0,099
-377,117	-43,042	0,090	0,032
-376,102	-58,717	-0,095	-0,029
-375,088	-18,704	-0,030	0,013
-374,073	20,942	-0,116	0,067
-373,058	43,621	0,163	0,107
-372,044	26,818	0,027	-0,016
-371,029	239,062	0,161	0,192
-370,015	84,711	-0,013	0,010
-369,000	800,000	-0,057	0,167
-367,985	484,245	0,099	-0,162
-366,971	800,000	-0,065	-0,154
-365,956	-66,163	0,117	0,033
-364,942	93,081	0,141	-0,114
-363,927	370,817	-0,045	0,066
-362,912	-42,199	0,124	0,045
-361,898	-87,481	-0,052	0,011
-360,883	-57,846	0,026	0,008
-359,869	800,000	0,028	-0,087
-358,854	800,000	-0,036	0,114
-357,839	71,361	0,098	0,072
-356,825	140,406	0,060	0,056
-355,810	-78,123	-0,096	-0,023
-354,796	-200,000	-0,002	0,077
-353,781	800,000	-0,071	-0,157
-352,766	12,263	0,026	0,014
-351,752	-200,000	0,003	0,070
-350,737	200,317	0,146	-0,161
-349,723	-0,922	0,023	-0,011
-348,708	301,336	0,044	-0,058
-347,693	158,783	-0,078	0,077
-346,679	694,464	0,044	0,083
-345,664	-58,167	0,077	-0,024
-344,650	-200,000	0,012	0,124
-343,635	800,000	0,044	0,126
-342,620	659,237	0,040	0,074
-341,606	-98,986	0,106	-0,019
-340,591	553,585	-0,032	0,056
-339,577	13,071	-0,114	0,063
-338,562	-200,000	-0,013	0,055
-337,548	35,932	-0,043	0,027
-336,533	-200,000	-0,022	0,086
-335,518	800,000	0,049	0,101
-334,504	-30,729	-0,052	0,021
-333,489	800,000	-0,047	-0,121
-332,475	133,433	-0,089	-0,082
-331,460	-77,403	-0,085	-0,021
-330,445	221,237	0,039	-0,045
-329,431	150,138	0,060	0,058
-328,416	-162,434	0,034	0,001
-327,402	-200,000	0,004	0,128
-326,387	-200,000	-0,014	0,102
-325,372	175,535	0,044	-0,046
-324,358	82,210	0,093	0,072
-323,343	60,112	-0,084	-0,059
-322,329	412,818	-0,072	0,109
-321,314	222,641	0,030	-0,034
-320,299	-82,571	-0,046	0,011
-319,285	-8,050	0,092	0,044
-318,270	-26,734	-0,146	0,061
-317,256	-72,202	0,072	0,019
-316,241	800,000	0,031	-0,091
-315,226	269,093	0,045	-0,056
-314,212	-122,010	0,069	0,008
-313,197	15,220	0,134	-0,075
-312,183	800,000	0,025	-0,051
-311,168	42,048	0,126	-0,081
-310,153	-200,000	-0,010	0,036
-309,139	-200,000	-0,011	-0,143
-308,124	-95,238	0,078	-0,015
-307,110	-52,939	-0,135	0,044
-306,095	-200,000	-0,007	0,056
-305,080	274,774	0,016	0,020
-304,066	317,932	-0,056	-0,076
-303,051	144,081	0,030	-0,028
-302,037	-87,349	-0,158	-0,034
-301,022	-200,000	-0,015	0,107
-300,008	-123,422	0,033	-0,004
-298,993	800,000	-0,054	-0,108
-297,978	800,000	-0,016	-0,039
-296,964	13,445	0,090	-0,049
-295,949	-173,621	-0,161	-0,003
-294,935	-24,369	-0,127	0,054
-293,920	-171,963	0,051	0,001
-292,905	124,833	0,066	0,059
-291,891	50,484	0,016	0,011
-290,876	-137,553	0,121	0,010
-289,862	526,211	0,048	0,082
-288,847	679,522	0,071	-0,132
-287,832	103,459	-0,099	-0,083
-286,818	-155,501	0,024	-0,001
-285,803	-28,683	0,114	-0,047
-284,789	-43,944	0,072	0,025
-283,774	336,904	0,038	-0,052
-282,759	760,894	-0,048	-0,093
-281,745	19,429	0,078	-0,045
-280,730	-200,000	-0,006	0,051
-279,716	-16,477	-0,088	-0,040
-278,701	-200,000	0,001	0,125
-277,686	800,000	0,032	0,080
-276,672	14,799	0,057	-0,032
-275,657	-172,366	0,135	0,003
-274,643	469,967	0,067	-0,108
-273,628	-200,000	-0,017	0,071
-272,613	-146,094	0,105	-0,006
-271,599	-200,000	0,034	0,113
-270,584	-200,000	0,009	0,000
-269,570	-165,369	-0,165	0,005
-268,555	-200,000	-0,004	0,020
-267,540	-167,996	-0,040	-0,001
-266,526	800,000	-0,096	-0,212
-265,511	800,000	-0,018	-0,052
-264,497	-105,106	-0,062	0,010
-263,482	800,000	-0,024	0,064
-262,467	-66,673	-0,146	0,041
-261,453	-200,000	-0,009	0,224
-260,438	-58,626	0,096	0,030
-259,424	258,013	0,042	-0,052
-258,409	312,238	-0,044	-0,059
-257,395	-153,637	-0,206	-0,010
-256,380	318,130	0,053	0,072
-255,365	-63,898	0,150	0,043
-254,351	94,250	-0,016	0,013
-253,336	7,540	-0,068	-0,036
-252,322	17,157	-0,068	-0,039
-251,307	-200,000	-0,000	-0,035
-250,292	-200,000	-0,013	0,105
-249,278	-133,819	0,042	0,004
-248,263	309,303	0,031	-0,041
-247,249	10,829	-0,017	-0,009
-246,234	78,488	-0,023	0,018
-245,219	800,000	-0,038	-0,098
-244,205	-52,094	-0,035	0,012
-243,190	327,269	-0,098	0,135
-242,176	-200,000	0,004	0,045
-241,161	-200,000	0,013	0,112
-240,146	800,000	0,047	0,131
-239,132	-200,000	-0,006	-0,103
-238,117	-200,000	0,024	-0,130
-237,103	-200,000	0,004	-0,027
-236,088	450,165	-0,039	-0,061
-235,073	-65,655	-0,058	-0,016
-234,059	333,658	0,098	0,135
-233,044	242,590	0,099	-0,118
-232,030	-71,142	0,092	0,024
-231,015	-45,168	0,092	0,032
-230,000	-14,731	-0,077	-0,035
-228,986	333,927	-0,038	-0,052
-227,971	-200,000	0,009	-0,030
-226,957	180,378	-0,077	-0,081
-225,942	-55,990	-0,073	0,023
-224,927	233,051	0,062	0,072
-223,913	123,523	-0,044	0,039
-222,898	800,000	0,011	-0,022
-221,884	371,865	-0,031	-0,045
-220,869	-3,960	0,020	0,010
-219,855	-200,000	0,029	0,103
-218,840	237,212	0,006	0,007
-217,825	-180,534	-0,030	-0,000
-216,811	-5,125	-0,042	0,020
-215,796	201,389	0,033	-0,037
-214,782	63,688	0,040	-0,028
-213,767	-200,000	-0,015	0,144
-212,752	-200,000	-0,015	-0,078
-211,738	199,350	0,121	0,132
-210,723	84,746	0,101	0,078
-209,709	-200,000	-0,032	0,101
-208,694	126,671	-0,113	0,102
-207,679	212,415	-0,044	0,050
-206,665	75,621	0,094	-0,070
-205,650	100,756	0,087	0,072
-204,636	-200,000	0,000	0,091
-203,621	-200,000	-0,001	0,087
-202,606	-164,147	0,101	-0,003
-201,592	298,370	-0,148	-0,193
-200,577	338,971	0,034	0,047
-199,563	-93,336	0,095	-0,018
-198,548	61,300	-0,047	0,033
-197,533	-200,000	-0,006	0,117
-196,519	-61,652	-0,082	0,024
-195,504	-200,000	-0,017	0,120
-194,490	115,472	0,009	-0,007
-193,475	-200,000	-0,008	-0,122
-192,460	86,961	0,042	-0,033
-191,446	-200,000	-0,001	0,038
-190,431	139,803	-0,036	0,034
-189,417	116,856	-0,059	0,051
-188,402	800,000	-0,018	0,054
-187,387	-50,575	-0,076	-0,025
-186,373	-59,677	0,090	0,027
-185,358	81,805	-0,026	0,020
-184,344	384,488	-0,073	0,108
-183,329	-200,000	0,024	0,108
-182,315	-30,815	0,068	-0,027
-181,300	-70,880	-0,231	0,061
-180,285	-200,000	0,006	0,024
-179,271	-200,000	-0,048	0,191
-178,256	192,774	-0,029	-0,031
-177,242	-200,000	-0,028	0,131
-176,227	-200,000	0,031	0,109
-175,212	-157,072	-0,091	-0,004
-174,198	-70,881	0,066	-0,018
-173,183	800,000	-0,052	-0,102
-172,169	427,908	0,022	-0,034
-171,154	710,284	0,010	-0,018
-170,139	353,335	0,056	0,079
-169,125	7,617	0,077	-0,041
-168,110	-157,076	-0,114	0,005
-167,096	327,348	0,075	0,103
-166,081	761,356	0,021	0,040
-165,066	800,000	0,025	-0,075
-164,052	669,377	0,057	-0,105
-163,037	249,167	0,051	0,062
-162,023	766,930	0,025	-0,048
-161,008	-44,353	0,075	-0,026
-159,993	-73,386	0,097	0,025
-158,979	800,000	-0,045	-0,089
-157,964	-120,491	-0,051	-0,006
-156,950	241,602	-0,063	0,075
-155,935	-34,015	0,090	0,035
-154,920	-200,000	-0,029	0,129
-153,906	-161,957	0,156	0,005
-152,891	-200,000	0,014	-0,077
-151,877	57,853	0,098	0,068
-150,862	562,208	-0,137	-0,236
-149,847	-200,000	0,016	-0,094
-148,833	494,944	0,043	0,070
-147,818	103,108	-0,077	0,064
-146,804	-200,000	0,004	0,027
-145,789	800,000	-0,018	-0,046
-144,775	-200,000	-0,025	-0,189
-143,760	800,000	0,012	-0,027
-142,745	217,534	-0,105	0,119
-141,731	-47,927	-0,117	-0,040
-140,716	-68,437	0,112	0,031
-139,702	-34,863	-0,074	0,028
-138,687	9,041	0,043	-0,023
-137,672	79,927	-0,040	0,030
-136,658	-200,000	0,015	-0,058
-135,643	-39,825	0,135	0,050
-134,629	-41,910	-0,183	0,066
-133,614	-53,371	-0,047	-0,015
-132,599	152,052	-0,079	-0,076
-131,585	-161,048	0,154	0,006
-130,570	-61,173	0,100	0,030
-129,556	426,607	-0,024	-0,037
-128,541	32,375	-0,066	-0,040
-127,526	13,490	0,134	0,074
-126,512	800,000	-0,101	-0,206
-125,497	254,572	0,114	0,138
-124,483	238,668	0,058	-0,069
-123,468	-200,000	0,003	0,017
-122,453	148,369	-0,087	-0,084
-121,439	-12,107	0,103	0,047
-120,424	282,306	-0,037	0,047
-119,410	360,174	0,109	-0,156
-118,395	217,843	0,007	0,008
-117,380	-80,767	0,081	0,019
-116,366	-91,064	0,111	0,022
-115,351	171,173	-0,056	0,057
-114,337	124,903	-0,051	-0,045
-113,322	293,778	-0,036	-0,047
-112,307	211,356	-0,049	0,054
-111,293	63,862	0,126	0,089
-110,278	-200,000	0,010	-0,034
-109,264	-200,000	-0,017	-0,065
-108,249	-200,000	-0,001	-0,112
-107,234	-200,000	0,034	-0,116
-106,220	-200,000	0,003	-0,170
-105,205	-200,000	-0,045	-0,144
-104,191	800,000	-0,039	-0,101
-103,176	-200,000	0,006	0,062
-102,162	-200,000	-0,005	0,065
-101,147	-200,000	0,009	0,043
-100,132	800,000	-0,052	-0,115
-99,118	-200,000	0,005	-0,134
-98,103	496,167	-0,024	-0,039
-97,089	-200,000	-0,008	0,040
-96,074	113,532	0,023	-0,020
-95,059	438,111	0,016	-0,025
-94,045	153,186	-0,093	-0,090
-93,030	79,983	-0,050	0,038
-92,016	-63,899	-0,075	0,022
-91,001	5,758	0,094	-0,049
-89,986	-40,017	0,247	-0,091
-88,972	-9,901	-0,032	0,015
-87,957	18,089	-0,016	-0,009
-86,943	390,167	-0,071	-0,104
-85,928	-191,437	-0,202	-0,001
-84,913	-200,000	-0,005	-0,172
-83,899	-29,054	-0,030	0,012
-82,884	90,785	0,096	0,076
-81,870	-200,000	-0,028	0,138
-80,855	-103,279	-0,078	-0,013
-79,840	-43,787	-0,050	-0,018
-78,826	19,250	-0,100	-0,056
-77,811	160,912	-0,037	-0,036
-76,797	800,000	-0,040	-0,082
-75,782	-18,932	0,072	-0,031
-74,767	385,683	0,077	0,113
-73,753	800,000	0,011	0,026
-72,738	-79,738	0,074	0,017
-71,724	152,958	-0,109	-0,105
-70,709	-200,000	-0,015	-0,155
-69,694	-200,000	-0,008	-0,068
-68,680	-200,000	0,007	0,043
-67,665	27,299	0,109	0,065
-66,651	-200,000	-0,001	0,097
-65,636	-130,606	-0,093	0,009
-64,622	-200,000	-0,013	-0,068
-63,607	-196,770	-0,070	-0,000
-62,592	-200,000	-0,024	0,167
-61,578	250,084	-0,043	-0,052
-60,563	-45,214	0,127	0,044
-59,549	-116,175	0,041	0,005
-58,534	2,300	-1,935	-0,985
-57,519	461,291	-1,299	-2,053
-56,505	-200,000	-0,392	-4,418
-55,490	370,991	0,883	1,270
-54,476	800,000	4,986	11,395
-53,461	-200,000	20,028	328,045
-52,446	800,000	749,795	2316,220
-51,432	551,974	1658,159	2823,872
-50,417	75,019	1666,271	1238,841
-49,403	19,818	1539,027	873,323
-48,388	13,831	1461,077	800,104
-47,373	18,694	1451,295	818,088
-46,359	16,507	1440,714	801,670
-45,344	12,110	1436,347	778,257
-44,330	12,008	1434,546	776,766
-43,315	12,014	1432,770	775,799
-42,300	12,027	1431,153	774,955
-41,286	12,113	1429,800	774,603
-40,271	12,018	1428,624	773,484
-39,257	12,000	1427,392	772,701
-38,242	12,111	1425,906	772,392
-37,227	12,063	1424,947	771,611
-36,213	12,022	1423,772	770,754
-35,198	12,086	1422,348	770,253
-34,184	12,100	1421,423	769,788
-33,169	12,021	1420,268	768,758
-32,154	12,158	1418,941	768,655
-31,140	12,104	1417,708	767,705
-30,125	12,165	1416,750	767,440
-29,111	12,090	1415,570	766,417
-28,096	12,142	1414,482	766,047
-27,082	12,081	1413,267	765,069
-26,067	12,042	1412,334	764,353
-25,052	12,033	1411,128	763,624
-24,038	12,026	1410,020	762,963
-23,023	12,021	1409,291	762,513
-22,009	12,026	1408,132	761,881
-20,994	11,945	1407,228	760,985
-19,979	11,983	1406,427	760,698
-18,965	11,950	1405,697	760,118
-17,950	11,969	1404,628	759,600
-16,936	12,006	1403,555	759,160
-15,921	11,971	1402,564	758,430
-14,906	11,950	1401,780	757,882
-13,892	11,957	1400,760	757,332
-12,877	11,946	1399,965	756,818
-11,863	11,941	1399,073	756,287
-10,848	11,928	1398,149	755,693
-9,833	11,841	1397,481	754,901
-8,819	11,830	1396,499	754,291
-7,804	11,805	1395,760	753,745
-6,790	11,852	1394,533	753,268
-5,775	11,876	1393,309	752,688
-4,760	11,875	1392,556	752,247
-3,746	11,838	1391,774	751,626
-2,731	11,789	1390,904	750,899
-1,717	11,824	1389,882	750,477
-0,702	11,808	1388,291	749,516
0,313	15,756	1303,551	721,908
1,327	32,151	696,746	423,337
2,342	49,584	121,423	80,581
3,356	-1,224	16,582	8,241
4,371	-7,157	3,340	1,593
5,386	-36,230	0,661	0,251
6,400	-200,000	0,078	0,482
7,415	-46,914	-0,287	-0,098
8,429	73,847	-0,260	-0,192
9,444	-51,641	-0,364	-0,119
10,459	-12,525	-0,269	-0,124
11,473	-18,810	-0,370	-0,162
12,488	-24,369	-0,261	-0,109
13,502	85,161	-0,324	-0,251
14,517	268,081	-0,184	-0,227
15,531	154,496	-0,437	-0,423
16,546	307,315	-0,271	-0,357
17,561	48,882	-0,366	-0,242
18,575	41,420	-0,159	-0,101
19,590	-94,162	-0,268	-0,051
20,604	-152,520	-0,108	0,005
21,619	32,323	-0,433	-0,263
22,634	136,361	-0,458	-0,421
23,648	21,287	-0,385	-0,220
24,663	186,191	-0,335	-0,352
25,677	-70,141	-0,369	-0,098
26,692	95,388	-0,312	-0,250
27,707	-32,158	-0,410	-0,161
28,721	-42,079	-0,393	-0,141
29,736	1,765	-0,309	-0,156
30,750	38,320	-0,442	-0,277
31,765	127,482	-0,330	-0,295
32,780	-45,943	-0,507	-0,175
33,794	38,346	-0,366	-0,229
34,809	2,235	-0,342	-0,173
35,823	65,067	-0,357	-0,253
36,838	440,972	-0,285	-0,440
37,853	225,577	-0,292	-0,333
38,867	350,784	-0,228	-0,319
39,882	16,922	-0,447	-0,249
40,896	27,155	-0,375	-0,221
41,911	148,253	-0,271	-0,257
42,926	-55,301	-0,227	-0,071
43,940	127,619	-0,338	-0,302
44,955	112,727	-0,395	-0,337
45,969	118,640	-0,324	-0,281
46,984	10,961	-0,362	-0,194
47,999	45,671	-0,375	-0,243
49,013	155,214	-0,343	-0,332
50,028	-60,792	-0,355	-0,105
51,042	378,664	-0,225	-0,325
52,057	7,641	-0,338	-0,177
53,071	43,257	-0,346	-0,222
54,086	95,501	-0,355	-0,284
55,101	46,808	-0,335	-0,218
56,115	-34,927	-0,319	-0,122
57,130	151,914	-0,229	-0,219
58,144	-5,652	-0,392	-0,188
59,159	78,093	-0,388	-0,291
60,174	185,290	-0,279	-0,291
61,188	37,576	-0,407	-0,253
62,203	347,874	-0,236	-0,327
63,217	17,432	-0,410	-0,228
64,232	-50,749	-0,478	-0,157
65,247	-40,070	-0,436	-0,159
66,261	-5,207	-0,403	-0,194
67,276	-50,991	-0,375	-0,123
68,290	-10,224	-0,266	-0,124
69,305	65,804	-0,272	-0,193
70,320	66,361	-0,219	-0,156
71,334	-44,228	-0,416	-0,146
72,349	87,790	-0,337	-0,262
73,363	17,420	-0,470	-0,261
74,378	297,904	-0,252	-0,326
75,393	94,657	-0,260	-0,207
76,407	-5,862	-0,328	-0,157
77,422	-32,391	-0,398	-0,155
78,436	19,724	-0,227	-0,128
79,451	112,221	-0,217	-0,184
80,466	82,862	-0,388	-0,296
81,480	-108,797	-0,412	-0,061
82,495	-0,439	-0,311	-0,155
83,509	169,909	-0,331	-0,331
84,524	0,392	-0,251	-0,125
85,539	-55,857	-0,358	-0,111
86,553	126,994	-0,256	-0,227
87,568	53,711	-0,324	-0,217
88,582	-35,545	-0,213	-0,081
89,597	123,381	-0,365	-0,321
90,611	-49,009	-0,348	-0,116
91,626	48,189	-0,304	-0,199
92,641	84,960	-0,184	-0,141
93,655	182,040	-0,167	-0,173
94,670	-3,772	-0,345	-0,167
95,684	167,435	-0,169	-0,168
96,699	2,713	-0,352	-0,178
97,714	26,434	-0,277	-0,162
98,728	4,156	-0,224	-0,114
99,743	24,667	-0,195	-0,113
100,757	103,392	-0,192	-0,157
101,772	-26,277	-0,288	-0,118
102,787	21,190	-0,340	-0,193
103,801	41,513	-0,325	-0,205
104,816	156,772	-0,291	-0,281
105,830	32,585	-0,292	-0,176
106,845	-78,895	-0,269	-0,064
107,860	86,125	-0,331	-0,255
108,874	37,909	-0,301	-0,187
109,889	130,903	-0,348	-0,312
110,903	343,093	-0,167	-0,229
111,918	317,438	-0,202	-0,268
112,933	250,817	-0,090	-0,108
113,947	500,042	-0,169	-0,273
114,962	248,403	-0,173	-0,205
115,976	51,331	-0,221	-0,146
116,991	-95,292	-0,336	-0,063
118,006	-5,158	-0,314	-0,151
119,020	14,989	-0,396	-0,216
120,035	53,842	-0,252	-0,169
121,049	31,514	-0,170	-0,102
122,064	-48,849	-0,185	-0,062
123,079	115,303	-0,318	-0,271
124,093	72,922	-0,357	-0,260
125,108	191,451	-0,308	-0,324
126,122	58,767	-0,280	-0,192
127,137	13,001	-0,262	-0,141
128,151	-109,044	-0,313	-0,046
129,166	-36,970	-0,252	-0,094
130,181	-21,044	-0,236	-0,100
131,195	92,408	-0,380	-0,299
132,210	51,912	-0,281	-0,186
133,224	405,767	-0,227	-0,336
134,239	-141,108	-0,318	-0,022
135,254	128,805	-0,117	-0,104
136,268	800,000	-0,126	-0,289
137,283	-95,278	-0,187	-0,035
138,297	77,542	-0,148	-0,110
139,312	35,352	-0,319	-0,195
140,327	-22,437	-0,302	-0,127
141,341	318,404	-0,132	-0,175
142,356	-53,531	-0,243	-0,077
143,370	503,691	-0,081	-0,131
144,385	52,534	-0,302	-0,201
145,400	16,758	-0,349	-0,192
146,414	24,619	-0,200	-0,115
147,429	492,638	-0,071	-0,113
148,443	196,439	-0,185	-0,196
149,458	336,834	-0,185	-0,251
150,473	-52,309	-0,303	-0,097
151,487	-48,889	-0,194	-0,064
152,502	151,546	-0,223	-0,211
153,516	800,000	-0,081	-0,212
154,531	273,254	-0,210	-0,259
155,546	301,212	-0,171	-0,220
156,560	43,867	-0,276	-0,176
157,575	-13,782	-0,262	-0,118
158,589	27,569	-0,221	-0,129
159,604	-68,387	-0,219	-0,059
160,619	62,101	-0,298	-0,207
161,633	503,296	-0,184	-0,297
162,648	214,557	-0,188	-0,208
163,662	172,979	-0,219	-0,220
164,677	-89,016	-0,190	-0,039
165,692	12,339	-0,252	-0,135
166,706	270,857	-0,140	-0,172
167,721	690,866	-0,176	-0,321
168,735	71,224	-0,258	-0,186
169,750	26,109	-0,168	-0,097
170,764	6,828	-0,224	-0,116
171,779	-20,199	-0,270	-0,115
172,794	33,470	-0,285	-0,172
173,808	611,010	-0,115	-0,201
174,823	312,786	-0,186	-0,243
175,837	800,000	-0,181	-0,359
176,852	-5,294	-0,185	-0,088
177,867	146,605	-0,216	-0,202
178,881	53,981	-0,229	-0,153
179,896	-34,132	-0,158	-0,060
180,910	147,829	-0,174	-0,163
181,925	90,538	-0,278	-0,216
182,940	-200,000	-0,072	-0,297
183,954	253,369	-0,249	-0,296
184,969	300,195	-0,131	-0,169
185,983	135,808	-0,252	-0,228
186,998	25,146	-0,245	-0,141
188,013	192,011	-0,166	-0,174
189,027	187,024	-0,199	-0,206
190,042	-90,668	-0,260	-0,052
191,056	19,412	-0,203	-0,113
192,071	39,216	-0,238	-0,148
193,086	-75,536	-0,091	0,022
194,100	-140,522	-0,400	0,028
195,115	189,643	-0,186	-0,194
196,129	94,710	-0,229	-0,180
197,144	161,854	-0,160	-0,156
198,159	347,306	-0,157	-0,215
199,173	89,913	-0,248	-0,192
200,188	104,584	-0,222	-0,181
201,202	1,892	-0,223	-0,111
202,217	46,025	-0,193	-0,124
203,232	102,087	-0,297	-0,240
204,246	137,475	-0,234	-0,212
205,261	90,072	-0,102	-0,079
206,275	197,668	-0,089	-0,094
207,290	290,984	-0,036	-0,046
208,304	35,864	-0,193	-0,117
209,319	85,158	-0,112	0,085
210,334	12,879	-0,278	-0,149
211,348	-17,161	-0,265	-0,115
212,363	96,388	-0,243	-0,193
213,377	-40,008	-0,226	-0,081
214,392	311,513	-0,210	-0,274
215,407	-126,635	-0,285	-0,029
216,421	75,182	-0,130	-0,094
217,436	-56,161	-0,271	-0,083
218,450	-40,175	-0,217	-0,078
219,465	87,197	-0,284	-0,218
220,480	290,438	-0,178	-0,225
221,494	252,362	-0,123	-0,146
222,509	71,966	-0,189	-0,136
223,523	29,741	-0,213	-0,125
224,538	0,954	-0,138	-0,068
225,553	294,024	-0,158	-0,201
226,567	-33,888	-0,299	-0,114
227,582	161,886	-0,148	-0,144
228,596	663,681	-0,099	-0,178
229,611	34,279	-0,141	-0,085
230,626	13,325	-0,134	-0,072
231,640	800,000	-0,061	-0,153
232,655	248,744	-0,205	-0,241
233,669	149,044	-0,165	-0,154
234,684	-57,648	-0,235	-0,071
235,699	55,769	-0,177	-0,118
236,713	800,000	-0,027	-0,077
237,728	-129,926	-0,144	0,013
238,742	-18,860	-0,251	-0,107
239,757	88,784	-0,173	-0,133
240,772	-29,801	-0,190	-0,074
241,786	13,017	-0,157	-0,084
242,801	100,849	-0,143	-0,114
243,815	141,548	-0,181	-0,166
244,830	4,213	-0,211	-0,106
245,844	-114,820	-0,108	0,014
246,859	-49,235	-0,223	-0,073
247,874	-90,289	-0,149	0,030
248,888	-23,239	-0,211	-0,087
249,903	6,204	-0,148	-0,076
250,917	85,066	-0,172	-0,130
251,932	261,365	-0,095	-0,113
252,947	800,000	-0,098	-0,226
253,961	340,622	-0,170	-0,230
254,976	753,387	-0,157	-0,294
255,990	181,165	-0,209	-0,212
257,005	800,000	-0,071	-0,174
258,020	-114,356	-0,242	-0,032
259,034	-33,452	-0,130	-0,049
260,049	-28,776	-0,147	-0,058
261,063	94,784	-0,170	-0,133
262,078	-109,015	-0,241	-0,035
263,093	-192,268	-0,154	0,001
264,107	163,438	-0,181	-0,176
265,122	282,230	-0,024	-0,030
266,136	66,189	-0,129	0,090
267,151	-37,657	-0,208	-0,076
268,166	-140,083	-0,200	-0,014
269,180	108,905	-0,121	-0,099
270,195	-16,671	-0,240	-0,104
271,209	71,543	-0,150	-0,107
272,224	800,000	-0,041	-0,080
273,239	143,034	-0,140	-0,128
274,253	-33,177	-0,204	-0,078
275,268	162,112	-0,171	-0,165
276,282	-40,326	-0,212	-0,076
277,297	128,809	-0,199	-0,175
278,312	-37,866	-0,148	-0,054
279,326	-59,444	-0,188	-0,055
280,341	-39,071	-0,274	-0,099
281,355	47,820	-0,119	-0,076
282,370	86,338	-0,175	-0,133
283,384	-110,614	-0,103	-0,015
284,399	800,000	-0,051	-0,143
285,414	293,513	0,100	-0,125
286,428	-200,000	-0,009	-0,076
287,443	-48,260	-0,217	-0,072
288,457	128,130	-0,152	-0,133
289,472	-200,000	-0,044	-0,158
290,487	-121,057	-0,144	0,016
291,501	269,143	-0,071	-0,085
292,516	-61,041	-0,174	-0,050
293,530	-99,175	-0,147	-0,025
294,545	305,792	-0,117	-0,150
295,560	220,430	-0,085	-0,094
296,574	131,210	-0,157	-0,139
297,589	108,139	-0,163	-0,134
298,603	50,790	-0,227	-0,148
299,618	466,623	-0,117	-0,180
300,633	37,460	-0,214	-0,130
301,647	104,723	-0,123	-0,099
302,662	51,692	-0,068	-0,044
303,676	32,535	-0,177	-0,105
304,691	-21,116	-0,165	-0,069
305,706	226,066	-0,118	-0,131
306,720	203,653	-0,234	-0,250
307,735	-135,977	-0,159	0,013
308,749	-86,435	-0,252	0,053
309,764	24,387	-0,050	0,028
310,779	-100,528	-0,077	-0,013
311,793	246,722	-0,184	-0,213
312,808	-92,682	-0,175	-0,033
313,822	-47,539	-0,250	-0,083
314,837	398,589	-0,164	-0,236
315,852	-62,598	-0,256	-0,073
316,866	170,142	-0,148	-0,145
317,881	14,803	-0,136	-0,073
318,895	29,026	-0,192	-0,111
319,910	-200,000	-0,040	-0,159
320,925	341,869	0,049	-0,066
321,939	599,385	-0,095	-0,162
322,954	-200,000	-0,002	-0,290
323,968	800,000	-0,048	-0,093
324,983	-75,408	-0,107	-0,026
325,997	308,449	-0,145	-0,186
327,012	281,193	-0,139	-0,171
328,027	54,552	-0,177	-0,117
329,041	800,000	-0,073	-0,158
330,056	-39,783	-0,176	-0,063
331,070	-143,498	-0,126	-0,008
332,085	51,977	-0,217	-0,142
333,100	-107,974	-0,155	-0,023
334,114	221,051	-0,134	-0,148
335,129	93,077	-0,122	-0,095
336,143	-26,449	-0,142	-0,057
337,158	-150,181	-0,202	0,011
338,173	93,054	-0,121	0,093
339,187	269,182	-0,071	-0,085
340,202	73,478	-0,195	-0,140
341,216	90,109	-0,126	-0,097
342,231	132,102	-0,216	-0,191
343,246	163,732	-0,160	-0,154
344,260	208,116	-0,134	-0,144
345,275	-100,452	-0,133	-0,022
346,289	-200,000	0,014	-0,090
347,304	-18,442	-0,090	-0,038
348,319	28,666	-0,190	-0,110
349,333	53,719	-0,207	-0,136
350,348	-200,000	-0,048	-0,224
351,362	171,290	-0,148	-0,145
352,377	-77,064	-0,247	0,058
353,392	84,308	-0,135	-0,101
354,406	82,681	-0,092	-0,069
355,421	207,176	1312,346	1402,451
356,435	159,365	1472,767	1402,948
