DTS Sentinel unit serial number:	SN410029Multiplexer serial number:	ORYXHardware model number:	OX2-SRSoftware version number:	ORYX F/W v4,00 Oryx Data Collector v3.7.2.0data status	okinstallation	B3 Nyhavnadifferential loss correction	single-endedforward channel	channel 1reverse channel	N/Adate	2023/12/01time	02:02:30forward acquisition time	300,00reverse acquisition time	0,00gamma	499,1914k internal	0,3211k external	0,3211temperature offset calibration	1,0000default loss term (dB/km)	0,3820temperature slope calibration	1,0000multiplexer offset coefficient	1,0000multiplexer slope coefficient	1,0000fibre end	0,00T internal ref (°C)	8,74T ext. ref 1 (°C)	-6,41T ext. ref 2 (°C)	-6,56length (m)	temperature (°C)	Stokes	anti-Stokes-744,400	800,000	-0,128	-0,331
-743,385	-200,000	0,038	0,282
-742,371	291,915	-0,169	-0,223
-741,356	626,522	-0,145	0,267
-740,342	419,151	-0,113	-0,176
-739,327	800,000	0,062	0,162
-738,312	-200,000	-0,088	-0,314
-737,298	337,201	-0,170	0,240
-736,283	382,530	-0,230	-0,343
-735,269	562,306	0,187	0,330
-734,254	147,826	-0,153	-0,150
-733,239	-104,845	-0,233	-0,038
-732,225	-200,000	-0,095	-0,369
-731,210	-140,716	0,057	0,004
-730,196	-71,829	-0,100	-0,027
-729,181	800,000	0,020	0,045
-728,167	761,879	0,034	0,066
-727,152	-200,000	-0,002	0,074
-726,137	605,230	-0,056	-0,101
-725,123	-105,686	-0,186	-0,030
-724,108	-60,804	-0,143	-0,044
-723,094	800,000	-0,018	-0,056
-722,079	13,013	-0,094	-0,053
-721,064	-85,945	-0,061	0,013
-720,050	800,000	-0,030	-0,096
-719,035	-114,913	-0,044	0,006
-718,021	-132,916	-0,044	0,004
-717,006	-154,129	-0,199	0,010
-715,991	-200,000	-0,001	-0,007
-714,977	16,221	0,056	0,032
-713,962	800,000	-0,016	-0,049
-712,948	-66,539	0,097	0,028
-711,933	31,672	-0,094	-0,058
-710,918	52,861	0,106	-0,073
-709,904	73,762	0,048	-0,036
-708,889	800,000	-0,014	0,038
-707,875	-200,000	-0,033	-0,194
-706,860	-56,492	0,052	-0,017
-705,845	-5,219	0,064	0,032
-704,831	-45,806	-0,069	-0,025
-703,816	-200,000	0,010	0,073
-702,802	-200,000	-0,029	0,118
-701,787	24,948	-0,058	0,034
-700,772	-43,755	0,095	-0,034
-699,758	103,649	0,042	0,035
-698,743	235,085	0,057	0,068
-697,729	435,233	-0,097	0,153
-696,714	-50,680	0,020	0,007
-695,699	248,928	-0,110	0,135
-694,685	23,365	-0,063	-0,037
-693,670	0,964	0,087	-0,045
-692,656	-104,208	-0,173	0,029
-691,641	-78,063	0,107	0,026
-690,627	800,000	-0,048	0,146
-689,612	-55,622	0,092	0,030
-688,597	106,580	0,034	-0,029
-687,583	-1,264	0,021	-0,011
-686,568	-135,832	-0,022	0,002
-685,554	-95,171	-0,127	-0,025
-684,539	-11,330	-0,056	0,026
-683,524	13,876	-0,119	0,067
-682,510	-14,148	0,038	0,018
-681,495	-121,117	-0,044	0,005
-680,481	71,113	-0,102	0,077
-679,466	-119,039	0,070	0,009
-678,451	-140,115	0,075	-0,006
-677,437	214,583	0,172	-0,198
-676,422	0,242	0,103	0,053
-675,408	-200,000	0,015	0,159
-674,393	-200,000	-0,006	0,099
-673,378	800,000	0,049	-0,112
-672,364	800,000	-0,049	0,130
-671,349	136,154	-0,128	-0,121
-670,335	564,174	0,107	0,188
-669,320	608,987	0,048	0,087
-668,305	-200,000	-0,001	-0,059
-667,291	-126,451	0,053	0,006
-666,276	-30,935	-0,138	-0,056
-665,262	436,762	-0,046	0,072
-664,247	424,394	0,057	-0,089
-663,232	-200,000	-0,005	-0,083
-662,218	-200,000	-0,003	0,087
-661,203	-163,805	-0,060	-0,002
-660,189	-102,111	0,137	0,024
-659,174	280,236	0,020	0,027
-658,159	-105,101	-0,140	-0,023
-657,145	800,000	-0,061	-0,179
-656,130	-200,000	0,003	-0,120
-655,116	-177,638	0,130	-0,002
-654,101	-17,246	-0,139	0,063
-653,086	-200,000	0,023	0,139
-652,072	-127,656	0,026	0,003
-651,057	148,638	0,052	0,050
-650,043	253,872	-0,046	0,057
-649,028	-200,000	-0,020	-0,064
-648,014	59,963	0,075	0,054
-646,999	-200,000	0,015	0,054
-645,984	-56,903	-0,040	-0,013
-644,970	404,294	0,006	0,010
-643,955	204,829	-0,123	-0,138
-642,941	561,852	0,060	-0,106
-641,926	-200,000	0,004	-0,155
-640,911	-200,000	0,002	0,087
-639,897	-45,405	0,103	0,037
-638,882	-200,000	-0,018	0,089
-637,868	64,955	-0,088	0,064
-636,853	96,461	0,025	-0,021
-635,838	800,000	-0,091	-0,237
-634,824	-5,574	0,031	0,015
-633,809	248,484	-0,040	0,049
-632,795	522,899	-0,047	0,079
-631,780	-200,000	-0,014	-0,155
-630,765	-200,000	0,019	-0,095
-629,751	-200,000	-0,008	0,119
-628,736	35,805	-0,160	-0,101
-627,722	800,000	-0,027	-0,057
-626,707	36,214	-0,093	-0,059
-625,692	120,173	0,089	0,079
-624,678	11,602	0,140	-0,077
-623,663	273,182	-0,078	-0,100
-622,649	-4,166	0,094	-0,047
-621,634	30,555	0,060	-0,037
-620,619	-200,000	0,000	0,111
-619,605	-84,719	-0,080	0,018
-618,590	224,500	-0,008	0,010
-617,576	-51,275	-0,117	-0,039
-616,561	-11,778	-0,096	0,046
-615,546	415,607	0,061	-0,095
-614,532	-17,605	-0,041	0,018
-613,517	212,175	-0,085	-0,097
-612,503	-200,000	-0,024	-0,084
-611,488	800,000	0,082	0,237
-610,474	84,914	0,030	0,024
-609,459	-149,165	0,120	-0,007
-608,444	414,808	-0,050	-0,077
-607,430	7,443	-0,089	-0,048
-606,415	-157,413	-0,034	-0,001
-605,401	0,294	0,075	0,039
-604,386	181,536	0,043	0,046
-603,371	-51,930	0,143	0,048
-602,357	-121,607	0,049	-0,006
-601,342	74,555	-0,024	-0,018
-600,328	-200,000	-0,011	-0,108
-599,313	0,683	-0,072	-0,037
-598,298	396,274	-0,052	0,079
-597,284	-171,554	0,101	0,002
-596,269	-47,674	0,072	0,025
-595,255	800,000	0,038	0,114
-594,240	-143,435	0,031	-0,002
-593,225	-200,000	-0,027	-0,142
-592,211	-102,370	0,065	0,011
-591,196	194,464	-0,051	-0,056
-590,182	800,000	0,027	-0,058
-589,167	-200,000	-0,002	0,006
-588,152	-200,000	-0,008	0,030
-587,138	-45,143	-0,159	0,057
-586,123	672,612	0,053	0,100
-585,109	800,000	0,025	-0,064
-584,094	15,009	0,073	0,041
-583,079	494,214	-0,027	0,045
-582,065	43,500	0,076	-0,050
-581,050	-45,699	0,155	-0,055
-580,036	-200,000	-0,023	0,187
-579,021	-11,003	-0,049	-0,023
-578,006	-106,545	-0,070	-0,011
-576,992	314,474	-0,073	-0,100
-575,977	-26,314	0,080	0,034
-574,963	258,042	0,137	0,170
-573,948	-200,000	0,014	0,176
-572,934	33,161	-0,102	-0,064
-571,919	-200,000	-0,010	-0,037
-570,904	494,253	0,102	-0,169
-569,890	266,559	-0,088	-0,111
-568,875	-200,000	0,013	0,040
-567,861	800,000	0,069	-0,142
-566,846	800,000	-0,035	-0,086
-565,831	-66,187	-0,035	-0,010
-564,817	-200,000	-0,011	-0,261
-563,802	234,242	0,122	-0,145
-562,788	393,870	-0,077	-0,116
-561,773	375,981	-0,030	-0,044
-560,758	-129,389	0,043	-0,004
-559,744	-197,234	0,205	0,001
-558,729	256,500	-0,111	0,138
-557,715	-200,000	-0,007	-0,055
-556,700	347,929	-0,009	0,013
-555,685	227,496	-0,028	0,032
-554,671	122,081	0,012	0,010
-553,656	-62,017	0,038	0,011
-552,642	38,204	-0,190	0,122
-551,627	-91,109	-0,011	-0,002
-550,612	-35,201	-0,010	0,004
-549,598	28,304	0,101	0,061
-548,583	-77,555	-0,162	-0,040
-547,569	-2,970	-0,037	0,018
-546,554	523,809	0,035	-0,059
-545,539	713,120	-0,006	0,011
-544,525	-200,000	0,006	0,097
-543,510	499,412	-0,028	0,047
-542,496	-29,064	-0,126	0,052
-541,481	278,634	-0,016	-0,021
-540,466	91,462	0,059	-0,048
-539,452	11,579	-0,107	0,059
-538,437	74,193	0,099	0,075
-537,423	-200,000	0,021	0,123
-536,408	800,000	0,030	-0,074
-535,393	56,891	0,116	0,081
-534,379	800,000	-0,042	-0,099
-533,364	9,980	0,033	-0,018
-532,350	-24,386	-0,069	0,029
-531,335	167,351	-0,020	0,020
-530,321	-58,088	-0,112	0,035
-529,306	75,209	-0,161	-0,122
-528,291	212,570	0,004	-0,005
-527,277	438,467	0,029	-0,045
-526,262	48,241	0,077	0,052
-525,248	345,932	-0,052	0,074
-524,233	-200,000	-0,004	0,063
-523,218	279,733	-0,119	0,154
-522,204	743,212	-0,094	0,182
-521,189	-200,000	0,009	-0,032
-520,175	-200,000	0,019	-0,161
-519,160	-200,000	0,010	-0,057
-518,145	328,392	-0,081	0,112
-517,131	117,443	0,049	-0,044
-516,116	800,000	0,056	0,148
-515,102	-105,413	-0,044	0,007
-514,087	-179,872	-0,079	0,001
-513,072	-200,000	-0,008	-0,139
-512,058	29,083	0,045	-0,027
-511,043	311,570	-0,027	-0,037
-510,029	800,000	-0,030	0,065
-509,014	800,000	0,051	0,115
-507,999	572,692	0,081	0,142
-506,985	-200,000	-0,017	-0,056
-505,970	-189,687	0,095	-0,001
-504,956	-200,000	-0,024	-0,106
-503,941	37,802	0,021	0,014
-502,926	661,728	0,050	0,092
-501,912	-200,000	0,017	0,160
-500,897	-89,467	0,089	0,019
-499,883	8,652	0,069	0,037
-498,868	-144,971	0,145	-0,009
-497,853	-26,456	-0,120	0,050
-496,839	555,312	0,006	0,011
-495,824	-8,691	0,116	-0,056
-494,810	800,000	-0,018	0,044
-493,795	-85,940	0,138	-0,030
-492,781	-52,094	0,016	-0,005
-491,766	-74,732	0,133	0,034
-490,751	47,972	-0,107	-0,071
-489,737	778,862	0,025	0,050
-488,722	-200,000	0,019	0,072
-487,708	-0,934	0,152	0,077
-486,693	800,000	-0,028	0,087
-485,678	97,940	0,080	0,066
-484,664	-18,783	-0,094	0,042
-483,649	84,252	0,060	-0,047
-482,635	-200,000	-0,008	-0,062
-481,620	798,929	0,015	-0,029
-480,605	8,313	0,076	0,041
-479,591	741,047	-0,036	-0,071
-478,576	78,060	0,045	-0,034
-477,562	307,034	-0,088	-0,118
-476,547	-97,792	-0,028	0,005
-475,532	-151,654	-0,089	-0,005
-474,518	404,941	-0,076	-0,115
-473,503	-63,603	-0,114	-0,033
-472,489	-1,398	0,267	-0,135
-471,474	-200,000	-0,001	-0,057
-470,459	800,000	-0,011	0,028
-469,445	172,852	-0,034	-0,036
-468,430	-77,752	0,085	-0,021
-467,416	800,000	-0,018	-0,051
-466,401	199,158	0,069	0,076
-465,386	-94,260	-0,113	0,022
-464,372	-12,399	0,093	-0,044
-463,357	800,000	-0,028	0,079
-462,343	800,000	-0,050	-0,152
-461,328	-200,000	0,006	0,038
-460,313	800,000	0,021	0,062
-459,299	-200,000	0,004	0,106
-458,284	-51,119	0,028	0,009
-457,270	-200,000	0,014	-0,090
-456,255	-9,263	-0,082	0,039
-455,241	-54,359	-0,083	0,027
-454,226	22,983	0,019	-0,011
-453,211	-154,417	0,096	0,005
-452,197	25,611	0,153	-0,091
-451,182	78,001	0,089	0,068
-450,168	-200,000	-0,020	0,064
-449,153	800,000	-0,024	-0,070
-448,138	514,632	-0,049	-0,081
-447,124	151,247	0,057	-0,056
-446,109	-200,000	0,005	-0,038
-445,095	16,152	0,144	-0,081
-444,080	172,780	0,023	-0,024
-443,065	113,124	-0,022	0,019
-442,051	95,753	-0,141	0,116
-441,036	178,987	-0,106	-0,111
-440,022	-200,000	0,019	-0,076
-439,007	-200,000	0,010	0,123
-437,992	-200,000	0,017	0,121
-436,978	-200,000	0,025	0,161
-435,963	207,499	-0,061	0,069
-434,949	-200,000	-0,004	-0,037
-433,934	80,603	-0,098	-0,076
-432,919	-200,000	0,003	-0,086
-431,905	-36,439	0,067	0,026
-430,890	417,173	0,062	-0,096
-429,876	44,587	-0,047	0,031
-428,861	-200,000	0,005	0,054
-427,846	-200,000	0,010	-0,120
-426,832	800,000	-0,044	-0,114
-425,817	-200,000	0,001	-0,140
-424,803	530,812	0,032	0,055
-423,788	800,000	0,038	0,107
-422,773	-108,925	0,093	-0,014
-421,759	-6,797	0,049	-0,024
-420,744	-136,532	0,103	-0,008
-419,730	9,430	-0,088	0,047
-418,715	412,182	-0,024	0,036
-417,701	294,566	-0,062	-0,081
-416,686	367,343	0,036	0,052
-415,671	800,000	-0,019	0,057
-414,657	-200,000	-0,050	0,167
-413,642	37,804	0,074	0,047
-412,628	-200,000	-0,001	-0,048
-411,613	-200,000	-0,031	-0,108
-410,598	-92,620	-0,071	0,014
-409,584	800,000	0,044	-0,110
-408,569	204,733	-0,065	0,072
-407,555	6,653	0,064	0,034
-406,540	152,317	0,123	0,120
-405,525	800,000	-0,026	-0,068
-404,511	-27,362	0,180	-0,075
-403,496	-200,000	-0,020	0,081
-402,482	22,233	0,090	0,052
-401,467	-200,000	-0,023	0,078
-400,452	-50,692	-0,061	0,020
-399,438	102,959	-0,062	0,052
-398,423	-200,000	-0,005	0,033
-397,409	51,063	0,043	-0,029
-396,394	-200,000	0,013	-0,114
-395,379	350,540	-0,039	-0,055
-394,365	567,702	0,016	0,028
-393,350	179,312	0,136	0,142
-392,336	-26,357	0,058	-0,024
-391,321	800,000	-0,043	0,088
-390,306	-150,531	-0,068	-0,004
-389,292	-153,793	-0,050	0,002
-388,277	-200,000	-0,014	-0,056
-387,263	-200,000	-0,011	0,038
-386,248	800,000	0,071	0,166
-385,233	25,074	-0,022	-0,013
-384,219	-87,785	0,144	-0,031
-383,204	-200,000	0,011	-0,102
-382,190	40,167	-0,145	-0,093
-381,175	426,229	-0,047	-0,073
-380,160	-200,000	0,014	0,160
-379,146	-86,466	0,167	0,036
-378,131	14,278	0,072	0,040
-377,117	108,761	-0,087	0,074
-376,102	256,519	0,054	0,067
-375,088	800,000	0,023	0,051
-374,073	-200,000	-0,010	-0,069
-373,058	626,578	0,046	-0,084
-372,044	-200,000	0,016	-0,103
-371,029	-200,000	-0,013	-0,058
-370,015	116,249	-0,032	-0,028
-369,000	800,000	-0,014	-0,036
-367,985	-154,351	0,110	0,005
-366,971	-164,718	-0,152	0,005
-365,956	52,376	-0,053	0,036
-364,942	191,823	0,075	-0,081
-363,927	4,089	0,101	0,052
-362,912	-76,943	-0,036	-0,009
-361,898	-117,900	-0,046	0,006
-360,883	-83,103	-0,042	-0,010
-359,869	54,678	-0,091	0,063
-358,854	415,035	0,035	-0,054
-357,839	136,565	-0,088	0,082
-356,825	37,070	-0,034	-0,022
-355,810	39,073	0,117	0,075
-354,796	-200,000	0,005	0,032
-353,781	33,877	-0,154	-0,096
-352,766	-200,000	0,024	-0,142
-351,752	-112,906	0,047	0,007
-350,737	-200,000	0,021	-0,118
-349,723	182,277	0,093	0,098
-348,708	800,000	0,035	0,089
-347,693	524,839	0,043	0,072
-346,679	15,208	-0,175	-0,098
-345,664	343,677	-0,027	-0,038
-344,650	-200,000	-0,011	0,075
-343,635	330,026	0,016	-0,021
-342,620	58,076	0,098	0,069
-341,606	213,383	0,044	0,050
-340,591	-200,000	0,031	0,149
-339,577	-153,709	-0,007	-0,000
-338,562	209,893	-0,050	-0,056
-337,548	4,232	0,189	-0,098
-336,533	361,039	0,026	0,037
-335,518	-200,000	0,000	-0,010
-334,504	800,000	0,018	0,057
-333,489	106,477	0,141	-0,119
-332,475	-200,000	-0,003	0,010
-331,460	-118,694	0,071	-0,009
-330,445	403,348	-0,033	0,050
-329,431	-6,757	0,147	-0,071
-328,416	139,035	0,117	0,110
-327,402	-200,000	-0,008	-0,049
-326,387	-200,000	-0,014	0,061
-325,372	163,061	-0,069	0,069
-324,358	99,773	0,037	-0,030
-323,343	-136,009	-0,091	0,008
-322,329	-19,010	0,018	-0,008
-321,314	600,182	0,029	-0,051
-320,299	164,508	-0,020	-0,020
-319,285	282,240	-0,072	-0,092
-318,270	-145,483	-0,062	0,004
-317,256	-133,259	-0,077	-0,007
-316,241	-90,361	-0,205	-0,042
-315,226	800,000	-0,032	-0,090
-314,212	156,153	0,116	0,114
-313,197	-133,790	0,057	0,005
-312,183	421,441	-0,022	0,033
-311,168	800,000	0,013	-0,040
-310,153	-35,631	-0,098	-0,038
-309,139	92,698	-0,086	-0,069
-308,124	-70,215	0,113	0,030
-307,110	318,045	0,065	0,088
-306,095	-200,000	0,016	0,064
-305,080	-80,268	0,061	-0,014
-304,066	232,134	-0,036	0,042
-303,051	-70,682	0,029	-0,008
-302,037	30,879	-0,039	-0,024
-301,022	-200,000	0,005	0,028
-300,008	596,665	0,042	0,075
-298,993	-48,180	0,187	0,064
-297,978	-200,000	0,012	0,067
-296,964	186,936	-0,027	0,029
-295,949	800,000	-0,041	-0,124
-294,935	685,239	-0,068	-0,128
-293,920	-76,309	0,109	0,027
-292,905	-160,720	0,102	-0,004
-291,891	487,695	-0,036	-0,059
-290,876	-200,000	-0,034	-0,145
-289,862	800,000	0,031	-0,090
-288,847	800,000	0,010	-0,024
-287,832	192,641	0,117	-0,126
-286,818	-78,183	-0,023	-0,006
-285,803	-200,000	-0,035	-0,137
-284,789	363,484	0,088	-0,126
-283,774	241,688	0,055	-0,066
-282,759	-200,000	-0,002	0,036
-281,745	177,063	0,098	-0,102
-280,730	-172,147	0,033	0,001
-279,716	-200,000	-0,011	-0,044
-278,701	103,047	-0,074	-0,061
-277,686	391,857	0,093	0,138
-276,672	415,755	-0,031	0,048
-275,657	10,461	-0,109	-0,059
-274,643	-16,883	-0,145	-0,065
-273,628	-8,710	-0,062	0,029
-272,613	-200,000	0,003	0,039
-271,599	239,327	0,061	-0,073
-270,584	61,939	0,050	0,036
-269,570	115,504	-0,035	0,030
-268,555	800,000	0,042	-0,108
-267,540	-29,770	-0,059	-0,024
-266,526	-51,932	-0,044	0,015
-265,511	-200,000	0,007	-0,079
-264,497	-131,287	-0,104	0,010
-263,482	-200,000	-0,008	0,206
-262,467	-20,602	0,047	0,021
-261,453	800,000	0,044	0,101
-260,438	-200,000	0,010	-0,037
-259,424	26,599	-0,164	-0,097
-258,409	143,433	-0,029	0,028
-257,395	71,741	0,117	0,086
-256,380	-200,000	-0,013	0,079
-255,365	373,990	0,027	0,039
-254,351	185,375	0,015	0,016
-253,336	-40,717	-0,167	0,061
-252,322	-200,000	0,001	-0,135
-251,307	467,867	0,028	-0,045
-250,292	-200,000	0,001	0,049
-249,278	33,070	0,032	-0,019
-248,263	-200,000	-0,002	0,121
-247,249	-1,078	0,025	-0,012
-246,234	-133,018	-0,030	-0,003
-245,219	227,369	-0,044	-0,051
-244,205	-8,249	-0,014	-0,007
-243,190	-103,684	0,088	-0,015
-242,176	516,441	-0,048	0,080
-241,161	205,192	-0,064	0,070
-240,146	800,000	-0,022	-0,044
-239,132	800,000	-0,075	-0,225
-238,117	28,107	-0,077	-0,046
-237,103	-200,000	0,023	-0,175
-236,088	-62,434	0,093	-0,027
-235,073	800,000	-0,073	0,186
-234,059	225,084	0,069	0,079
-233,044	72,954	-0,057	0,042
-232,030	231,854	-0,004	0,004
-231,015	-83,987	-0,147	-0,033
-230,000	417,235	0,074	-0,113
-228,986	-200,000	0,006	0,023
-227,971	-200,000	0,028	0,163
-226,957	-200,000	-0,003	0,056
-225,942	800,000	0,032	0,092
-224,927	800,000	0,022	-0,069
-223,913	-200,000	-0,017	-0,118
-222,898	-64,177	0,189	0,054
-221,884	-200,000	-0,018	-0,112
-220,869	693,616	0,072	0,135
-219,855	97,131	0,148	0,121
-218,840	-178,288	0,162	0,003
-217,825	800,000	-0,027	-0,070
-216,811	-62,502	-0,060	0,018
-215,796	-11,615	0,007	-0,003
-214,782	-80,608	-0,159	0,037
-213,767	-200,000	-0,046	0,159
-212,752	-58,061	0,064	0,020
-211,738	-140,042	0,086	0,006
-210,723	-84,477	0,060	-0,013
-209,709	-83,491	-0,067	0,015
-208,694	-100,981	-0,128	-0,022
-207,679	-200,000	-0,009	-0,032
-206,665	178,730	-0,053	0,055
-205,650	182,913	0,062	0,065
-204,636	95,050	-0,073	0,059
-203,621	-200,000	0,029	-0,104
-202,606	55,546	-0,058	-0,040
-201,592	800,000	-0,013	0,039
-200,577	800,000	-0,013	-0,041
-199,563	4,804	-0,112	0,058
-198,548	-152,668	0,082	-0,004
-197,533	421,747	0,040	0,061
-196,519	800,000	-0,025	0,062
-195,504	57,834	-0,060	-0,042
-194,490	95,097	-0,052	0,042
-193,475	-109,990	-0,088	0,013
-192,460	-200,000	-0,015	-0,104
-191,446	140,223	0,086	0,081
-190,431	-200,000	-0,039	0,196
-189,417	246,553	0,091	-0,109
-188,402	253,661	-0,113	0,137
-187,387	-200,000	-0,018	0,217
-186,373	800,000	-0,006	-0,014
-185,358	800,000	0,022	-0,063
-184,344	-200,000	0,006	0,046
-183,329	189,385	-0,037	0,039
-182,315	230,925	-0,048	0,056
-181,300	800,000	-0,040	-0,115
-180,285	428,735	-0,070	-0,108
-179,271	-120,851	-0,169	0,020
-178,256	43,565	0,083	-0,054
-177,242	-83,104	-0,029	-0,006
-176,227	88,408	-0,015	-0,012
-175,212	219,152	-0,110	0,124
-174,198	-200,000	0,030	-0,119
-173,183	-200,000	0,016	0,100
-172,169	40,857	-0,095	-0,060
-171,154	415,468	0,039	0,059
-170,139	156,801	0,099	0,097
-169,125	-83,063	-0,147	-0,033
-168,110	220,131	0,103	-0,117
-167,096	476,725	-0,076	-0,123
-166,081	787,778	-0,060	-0,118
-165,066	697,351	-0,076	-0,143
-164,052	-200,000	0,005	-0,060
-163,037	141,290	-0,051	-0,048
-162,023	631,028	0,114	0,205
-161,008	616,670	-0,083	0,149
-159,993	-112,382	-0,073	-0,010
-158,979	126,389	-0,057	0,051
-157,964	-101,915	-0,170	-0,029
-156,950	158,629	-0,120	-0,118
-155,935	9,151	0,045	0,024
-154,920	-200,000	0,002	0,056
-153,906	800,000	-0,056	0,144
-152,891	247,597	-0,048	0,057
-151,877	800,000	0,050	0,138
-150,862	-115,409	-0,107	-0,014
-149,847	243,318	0,070	0,083
-148,833	53,597	-0,106	0,072
-147,818	635,765	-0,029	0,052
-146,804	27,892	0,077	0,046
-145,789	-149,082	-0,097	0,005
-144,775	34,088	0,108	0,067
-143,760	-200,000	0,014	0,161
-142,745	319,631	0,034	0,045
-141,731	800,000	-0,035	0,078
-140,716	-200,000	-0,023	0,113
-139,702	60,839	-0,111	0,078
-138,687	-200,000	-0,004	-0,040
-137,672	-200,000	-0,020	0,090
-136,658	-200,000	0,011	-0,093
-135,643	-17,305	-0,119	-0,053
-134,629	-200,000	0,008	-0,106
-133,614	-200,000	0,036	0,137
-132,599	268,239	0,131	0,162
-131,585	540,592	-0,051	0,086
-130,570	800,000	-0,037	0,086
-129,556	85,993	0,097	-0,076
-128,541	-200,000	0,014	-0,223
-127,526	-135,155	0,024	0,002
-126,512	601,190	-0,034	0,060
-125,497	26,637	0,144	0,085
-124,483	-90,989	-0,078	-0,016
-123,468	-19,438	-0,101	0,044
-122,453	-114,410	0,128	-0,017
-121,439	-200,000	-0,002	-0,020
-120,424	-90,523	-0,121	-0,025
-119,410	-16,810	0,067	0,030
-118,395	126,055	0,033	0,029
-117,380	-200,000	0,006	0,159
-116,366	781,647	-0,071	0,137
-115,351	-113,904	-0,101	-0,014
-114,337	-136,758	-0,157	0,013
-113,322	-200,000	0,031	0,105
-112,307	-200,000	-0,022	0,135
-111,293	18,840	0,023	0,013
-110,278	198,429	-0,063	0,068
-109,264	-43,929	0,025	-0,009
-108,249	-46,264	-0,011	-0,004
-107,234	-121,743	0,009	0,001
-106,220	800,000	0,036	0,075
-105,205	81,748	0,103	-0,079
-104,191	265,854	-0,038	-0,047
-103,176	-200,000	0,035	-0,154
-102,162	-11,073	-0,025	-0,011
-101,147	-138,857	0,048	-0,004
-100,132	-200,000	-0,026	-0,081
-99,118	-112,216	0,028	-0,004
-98,103	395,531	0,041	0,060
-97,089	-25,754	0,099	-0,041
-96,074	210,423	0,087	0,097
-95,059	-200,000	-0,182	0,000
-94,045	30,909	0,138	0,084
-93,030	-119,677	0,125	-0,015
-92,016	-200,000	0,030	-0,179
-91,001	-76,789	0,274	-0,067
-89,986	-200,000	0,011	-0,081
-88,972	630,524	-0,044	0,078
-87,957	800,000	-0,033	0,101
-86,943	-200,000	0,004	0,234
-85,928	-200,000	0,025	0,107
-84,913	-200,000	-0,042	0,156
-83,899	-200,000	0,006	-0,046
-82,884	-200,000	0,024	0,153
-81,870	-60,342	-0,044	0,013
-80,855	151,808	0,122	0,117
-79,840	800,000	0,044	0,098
-78,826	21,412	-0,004	0,002
-77,811	295,918	-0,082	0,106
-76,797	-200,000	-0,008	-0,058
-75,782	30,868	0,087	-0,052
-74,767	-200,000	-0,007	0,076
-73,753	-143,178	0,023	-0,002
-72,738	800,000	-0,006	0,017
-71,724	-200,000	0,030	0,100
-70,709	800,000	-0,043	-0,105
-69,694	-78,412	-0,110	-0,026
-68,680	20,333	0,053	0,030
-67,665	568,777	-0,069	0,119
-66,651	800,000	-0,045	0,116
-65,636	-200,000	-0,003	0,120
-64,622	575,613	0,028	-0,049
-63,607	24,488	-0,034	-0,020
-62,592	-150,329	-0,106	0,006
-61,578	-52,062	0,061	-0,020
-60,563	44,344	-0,050	0,032
-59,549	668,615	-0,106	0,194
-58,534	56,951	-2,200	-1,511
-57,519	545,490	-1,000	-1,694
-56,505	-200,000	-0,447	-4,428
-55,490	466,184	0,935	1,483
-54,476	800,000	5,527	12,059
-53,461	-200,000	22,188	341,609
-52,446	800,000	759,015	2297,799
-51,432	533,074	1651,981	2770,907
-50,417	68,986	1650,490	1195,257
-49,403	16,399	1525,914	847,769
-48,388	10,613	1450,578	778,044
-47,373	19,201	1442,588	814,764
-46,359	14,019	1431,316	783,840
-45,344	8,852	1427,381	757,147
-44,330	8,830	1425,483	756,009
-43,315	8,833	1423,692	755,042
-42,300	8,821	1421,841	753,974
-41,286	8,839	1420,770	753,459
-40,271	8,844	1419,476	752,768
-39,257	8,801	1418,238	751,878
-38,242	8,821	1417,137	751,359
-37,227	8,834	1416,077	750,831
-36,213	8,832	1414,621	750,018
-35,198	8,843	1413,403	749,394
-34,184	8,870	1412,294	748,904
-33,169	8,750	1411,254	747,760
-32,154	8,801	1410,329	747,477
-31,140	8,790	1408,923	746,653
-30,125	8,819	1407,670	746,096
-29,111	8,834	1406,574	745,553
-28,096	8,816	1405,359	744,795
-27,082	8,800	1404,292	744,125
-26,067	8,719	1403,234	743,155
-25,052	8,764	1402,096	742,738
-24,038	8,786	1401,235	742,351
-23,023	8,759	1400,276	741,688
-22,009	8,784	1399,352	741,288
-20,994	8,761	1398,141	740,509
-19,979	8,757	1397,284	740,006
-18,965	8,744	1396,410	739,454
-17,950	8,713	1395,426	738,758
-16,936	8,701	1394,649	738,265
-15,921	8,651	1393,549	737,421
-14,906	8,683	1392,606	737,038
-13,892	8,714	1391,562	736,603
-12,877	8,711	1391,061	736,293
-11,863	8,697	1390,131	735,710
-10,848	8,697	1389,100	735,132
-9,833	8,656	1388,283	734,481
-8,819	8,630	1387,328	733,828
-7,804	8,611	1386,227	733,129
-6,790	8,595	1385,348	732,559
-5,775	8,582	1384,581	732,068
-4,760	8,624	1383,324	731,564
-3,746	8,669	1382,388	731,248
-2,731	8,672	1381,547	730,790
-1,717	8,618	1380,846	730,141
-0,702	8,596	1379,046	729,059
0,313	12,590	1290,231	700,266
1,327	28,452	681,492	405,434
2,342	44,586	117,163	75,807
3,356	-0,905	16,547	8,234
4,371	5,362	3,749	1,944
5,386	10,674	1,317	0,706
6,400	800,000	0,275	0,597
7,415	23,744	-0,235	-0,136
8,429	68,223	-0,323	-0,233
9,444	96,395	-0,272	-0,219
10,459	-36,308	-0,377	-0,143
11,473	-190,881	-0,255	-0,002
12,488	43,475	-0,274	-0,176
13,502	80,065	-0,244	-0,185
14,517	7,482	-0,482	-0,253
15,531	327,171	-0,297	-0,402
16,546	46,128	-0,294	-0,191
17,561	0,973	-0,353	-0,177
18,575	41,698	-0,109	-0,070
19,590	55,139	-0,202	-0,137
20,604	-18,873	-0,185	-0,081
21,619	88,702	-0,415	-0,325
22,634	62,126	-0,484	-0,339
23,648	141,086	-0,420	-0,391
24,663	74,643	-0,435	-0,322
25,677	-12,902	-0,304	-0,139
26,692	31,692	-0,304	-0,184
27,707	19,256	-0,395	-0,223
28,721	54,783	-0,391	-0,265
29,736	107,843	-0,448	-0,375
30,750	86,344	-0,444	-0,344
31,765	87,692	-0,241	-0,188
32,780	-44,837	-0,349	-0,122
33,794	76,274	-0,232	-0,172
34,809	-60,991	-0,276	-0,081
35,823	20,731	-0,369	-0,210
36,838	132,365	-0,287	-0,260
37,853	-2,921	-0,447	-0,219
38,867	46,669	-0,394	-0,257
39,882	-23,775	-0,211	-0,088
40,896	12,328	-0,330	-0,178
41,911	112,414	-0,328	-0,279
42,926	144,162	-0,309	-0,290
43,940	40,818	-0,399	-0,253
44,955	253,708	-0,182	-0,219
45,969	65,380	-0,285	-0,202
46,984	108,049	-0,214	-0,180
47,999	-25,956	-0,355	-0,146
49,013	60,298	-0,360	-0,250
50,028	-20,510	-0,338	-0,145
51,042	149,588	-0,259	-0,246
52,057	72,260	-0,354	-0,259
53,071	158,254	-0,292	-0,285
54,086	-57,562	-0,323	-0,099
55,101	92,418	-0,357	-0,283
56,115	-1,622	-0,358	-0,177
57,130	-32,755	-0,321	-0,125
58,144	50,597	-0,405	-0,268
59,159	68,445	-0,290	-0,208
60,174	23,272	-0,320	-0,184
61,188	62,987	-0,242	-0,169
62,203	91,661	-0,266	-0,210
63,217	97,127	-0,280	-0,225
64,232	119,164	-0,235	-0,204
65,247	9,307	-0,268	-0,142
66,261	225,727	-0,229	-0,261
67,276	221,749	-0,242	-0,274
68,290	98,879	-0,348	-0,281
69,305	1,154	-0,434	-0,218
70,320	19,078	-0,325	-0,182
71,334	114,595	-0,313	-0,267
72,349	251,762	-0,201	-0,240
73,363	22,688	-0,325	-0,186
74,378	112,876	-0,334	-0,284
75,393	-30,720	-0,352	-0,139
76,407	157,407	-0,270	-0,262
77,422	232,502	-0,163	-0,187
78,436	208,368	-0,103	-0,113
79,451	63,717	-0,346	-0,243
80,466	89,737	-0,290	-0,227
81,480	39,842	-0,219	-0,138
82,495	274,974	-0,193	-0,240
83,509	-24,200	-0,247	-0,103
84,524	25,635	-0,260	-0,151
85,539	31,047	-0,164	-0,098
86,553	-13,892	-0,223	-0,100
87,568	30,646	-0,317	-0,189
88,582	9,113	-0,271	-0,143
89,597	-7,651	-0,295	-0,139
90,611	-51,275	-0,336	-0,109
91,626	-107,789	-0,169	-0,025
92,641	73,984	-0,319	-0,234
93,655	384,394	-0,164	-0,237
94,670	-38,372	-0,278	-0,102
95,684	82,035	-0,254	-0,192
96,699	296,176	-0,202	-0,259
97,714	15,868	-0,398	-0,218
98,728	-54,213	-0,180	-0,057
99,743	58,880	-0,246	-0,169
100,757	-36,202	-0,228	-0,086
101,772	42,797	-0,234	-0,149
102,787	192,212	-0,279	-0,294
103,801	307,919	-0,214	-0,280
104,816	-61,613	-0,346	-0,101
105,830	75,049	-0,273	-0,201
106,845	99,969	-0,244	-0,198
107,860	-9,199	-0,356	-0,165
108,874	-50,203	-0,328	-0,108
109,889	-62,236	-0,350	-0,101
110,903	33,723	-0,284	-0,172
111,918	60,774	-0,319	-0,221
112,933	109,249	-0,216	-0,181
113,947	37,788	-0,185	-0,114
114,962	145,350	-0,226	-0,211
115,976	800,000	-0,105	-0,204
116,991	98,976	-0,318	-0,256
118,006	104,919	-0,209	-0,172
119,020	439,358	-0,205	-0,314
120,035	233,780	-0,231	-0,265
121,049	-63,267	-0,126	-0,036
122,064	-35,664	-0,156	-0,059
123,079	-7,387	-0,278	-0,131
124,093	19,808	-0,301	-0,169
125,108	101,157	-0,230	-0,186
126,122	-27,447	-0,265	-0,107
127,137	268,590	-0,180	-0,220
128,151	32,119	-0,145	-0,087
129,166	-33,639	-0,310	-0,119
130,181	174,293	-0,193	-0,195
131,195	130,351	-0,233	-0,208
132,210	508,113	-0,185	-0,301
133,224	152,528	-0,234	-0,223
134,239	93,046	-0,196	-0,154
135,254	66,138	-0,279	-0,197
136,268	-85,383	-0,217	-0,047
137,283	16,176	-0,199	-0,109
138,297	155,484	-0,136	-0,131
139,312	20,240	-0,283	-0,159
140,327	52,030	-0,330	-0,219
141,341	441,342	-0,174	-0,266
142,356	-65,582	-0,173	-0,048
143,370	77,767	-0,200	-0,148
144,385	6,697	-0,183	-0,094
145,400	43,047	-0,325	-0,206
146,414	116,778	-0,309	-0,264
147,429	112,904	-0,200	-0,168
148,443	-12,672	-0,246	-0,111
149,458	800,000	-0,102	-0,236
150,473	56,496	-0,257	-0,173
151,487	800,000	-0,089	-0,241
152,502	37,702	-0,240	-0,148
153,516	136,649	-0,213	-0,193
154,531	101,226	-0,257	-0,208
155,546	700,840	-0,047	-0,087
156,560	277,968	-0,211	-0,262
157,575	86,750	-0,206	-0,158
158,589	250,451	-0,172	-0,204
159,604	-57,730	-0,252	-0,076
160,619	7,314	-0,261	-0,135
161,633	37,807	-0,278	-0,171
162,648	-109,123	-0,237	-0,035
163,662	478,386	-0,087	-0,137
164,677	433,682	-0,091	-0,138
165,692	-170,775	-0,286	-0,007
166,706	-65,797	-0,266	-0,073
167,721	326,851	-0,134	-0,179
168,735	40,012	-0,269	-0,168
169,750	219,884	-0,160	-0,178
170,764	-11,404	-0,248	-0,113
171,779	-39,831	-0,244	-0,088
172,794	218,510	-0,245	-0,272
173,808	57,715	-0,183	-0,124
174,823	251,507	-0,229	-0,271
175,837	149,746	-0,241	-0,227
176,852	-88,371	-0,273	-0,056
177,867	212,465	-0,141	-0,155
178,881	267,064	-0,211	-0,257
179,896	-62,721	-0,337	-0,096
180,910	-32,235	-0,244	-0,094
181,925	98,028	-0,182	-0,145
182,940	49,231	-0,416	-0,271
183,954	163,559	-0,203	-0,198
184,969	56,748	-0,244	-0,165
185,983	-63,823	-0,144	-0,040
186,998	-7,783	-0,232	-0,108
188,013	1,561	-0,271	-0,135
189,027	109,113	-0,266	-0,221
190,042	241,184	-0,239	-0,278
191,056	623,103	-0,195	-0,342
192,071	272,525	-0,208	-0,255
193,086	383,690	-0,113	-0,161
194,100	26,143	-0,136	-0,079
195,115	-103,691	-0,253	0,041
196,129	34,794	-0,277	-0,168
197,144	-2,365	-0,229	-0,111
198,159	103,707	-0,177	-0,144
199,173	154,432	-0,174	-0,166
200,188	-7,618	-0,090	-0,042
201,202	-29,588	-0,207	-0,082
202,217	186,846	-0,184	-0,190
203,232	67,637	-0,176	-0,124
204,246	84,201	-0,204	-0,155
205,261	314,646	-0,199	-0,260
206,275	-107,738	-0,233	-0,035
207,290	800,000	-0,116	-0,228
208,304	53,044	-0,130	-0,086
209,319	14,209	-0,231	-0,124
210,334	61,382	-0,174	-0,120
211,348	211,881	-0,226	-0,247
212,363	-41,614	-0,305	-0,108
213,377	529,656	-0,068	-0,112
214,392	70,778	-0,173	-0,124
215,407	41,457	-0,212	-0,133
216,421	-99,949	-0,159	-0,027
217,436	-96,882	-0,267	-0,048
218,450	624,449	-0,088	-0,154
219,465	-41,646	-0,148	-0,052
220,480	-0,542	-0,299	-0,147
221,494	70,338	-0,159	-0,114
222,509	435,375	-0,091	-0,138
223,523	800,000	-0,032	0,095
224,538	-71,983	-0,129	-0,033
225,553	-74,370	-0,158	-0,039
226,567	96,984	-0,192	-0,152
227,582	131,318	-0,243	-0,216
228,596	170,794	-0,159	-0,157
229,611	-9,146	-0,311	-0,143
230,626	-200,000	-0,030	-0,093
231,640	148,363	-0,095	-0,089
232,655	327,059	-0,167	-0,222
233,669	74,377	-0,277	-0,201
234,684	18,101	-0,305	-0,168
235,699	30,618	-0,099	-0,058
236,713	213,467	-0,119	-0,130
237,728	43,211	-0,208	-0,131
238,742	424,113	-0,169	-0,251
239,757	60,472	-0,142	-0,097
240,772	291,996	-0,108	-0,136
241,786	49,632	-0,194	-0,126
242,801	167,507	-0,142	-0,140
243,815	162,853	-0,138	-0,134
244,830	387,848	-0,118	-0,169
245,844	-52,201	-0,137	-0,043
246,859	468,547	-0,110	-0,171
247,874	311,182	-0,103	-0,133
248,888	-1,978	-0,202	-0,098
249,903	-31,441	-0,164	-0,063
250,917	-200,000	-0,027	0,102
251,932	-200,000	-0,038	-0,121
252,947	-200,000	-0,028	-0,165
253,961	148,444	-0,164	-0,153
254,976	214,723	-0,206	-0,225
255,990	-51,528	-0,231	-0,074
257,005	89,696	-0,122	-0,094
258,020	741,711	-0,101	-0,188
259,034	-35,335	-0,151	-0,056
260,049	3,869	-0,109	-0,055
261,063	124,738	-0,201	-0,174
262,078	-73,819	-0,229	-0,057
263,093	158,651	-0,161	-0,154
264,107	-200,000	-0,020	-0,166
265,122	202,688	-0,161	-0,171
266,136	83,633	-0,105	-0,079
267,151	-200,000	-0,030	-0,111
268,166	241,839	-0,191	-0,221
269,180	344,195	-0,107	-0,145
270,195	-8,494	-0,102	-0,047
271,209	47,911	-0,073	-0,047
272,224	279,536	-0,153	-0,188
273,239	-159,430	-0,241	-0,009
274,253	800,000	-0,066	-0,151
275,268	138,940	-0,197	-0,179
276,282	75,342	-0,227	-0,165
277,297	369,830	-0,167	-0,233
278,312	750,688	-0,088	-0,165
279,326	22,557	-0,102	-0,057
280,341	24,471	-0,087	-0,049
281,355	-155,499	-0,228	0,010
282,370	394,485	-0,121	-0,174
283,384	312,176	-0,155	-0,201
284,399	800,000	-0,085	-0,206
285,414	75,820	-0,087	-0,063
286,428	721,168	-0,108	-0,198
287,443	-155,823	-0,120	-0,005
288,457	238,154	-0,108	-0,124
289,472	800,000	-0,082	-0,163
290,487	-127,257	-0,211	-0,021
291,501	-40,007	-0,240	-0,086
292,516	-70,780	-0,100	0,026
293,530	-135,980	-0,114	-0,009
294,545	31,422	-0,088	-0,052
295,560	800,000	-0,044	-0,094
296,574	44,157	-0,196	-0,123
297,589	191,120	-0,134	-0,139
298,603	-200,000	-0,082	-0,277
299,618	332,809	-0,096	-0,127
300,633	-18,326	-0,213	-0,091
301,647	-127,945	-0,110	0,011
302,662	-54,400	-0,160	-0,049
303,676	706,675	-0,073	-0,133
304,691	77,722	-0,139	-0,101
305,706	580,790	-0,109	-0,184
306,720	257,197	-0,044	-0,052
307,735	696,685	-0,027	0,048
308,749	-200,000	0,008	-0,150
309,764	800,000	-0,028	-0,067
310,779	143,258	-0,157	-0,143
311,793	800,000	-0,131	-0,360
312,808	-54,180	-0,208	-0,065
313,822	250,656	-0,098	-0,114
314,837	386,626	-0,116	-0,165
315,852	-25,552	-0,135	-0,054
316,866	-62,236	-0,140	-0,040
317,881	-16,331	-0,202	-0,088
318,895	800,000	-0,020	0,042
319,910	-44,721	-0,176	-0,060
320,925	3,202	-0,165	-0,082
321,939	800,000	-0,030	-0,082
322,954	-200,000	0,005	-0,065
323,968	-200,000	-0,010	-0,054
324,983	-200,000	0,005	-0,044
325,997	-200,000	-0,062	-0,193
327,012	226,978	-0,252	-0,281
328,027	310,816	-0,173	-0,223
329,041	766,836	-0,061	-0,114
330,056	542,312	-0,094	-0,154
331,070	-27,378	-0,144	-0,057
332,085	76,446	-0,087	-0,063
333,100	-162,748	-0,156	0,005
334,114	290,370	-0,126	-0,157
335,129	261,716	-0,117	-0,139
336,143	24,585	-0,125	-0,071
337,158	-136,168	-0,136	-0,011
338,173	203,116	-0,025	-0,026
339,187	-63,632	-0,126	-0,035
340,202	-101,894	-0,134	0,022
341,216	566,026	-0,125	-0,209
342,231	-83,247	-0,183	0,040
343,246	-200,000	0,008	0,053
344,260	-140,099	-0,149	-0,011
345,275	-200,000	-0,048	-0,179
346,289	265,690	-0,106	-0,127
347,304	120,615	-0,095	-0,081
348,319	146,602	-0,037	-0,034
349,333	200,938	-0,129	-0,136
350,348	-89,683	-0,135	-0,027
351,362	800,000	-0,044	-0,119
352,377	-95,588	-0,152	0,028
353,392	-200,000	0,007	-0,187
354,406	-4,795	-0,088	-0,041
355,421	206,791	1308,929	1396,209
356,435	159,050	1468,890	1396,652
