DTS Sentinel unit serial number:	SN410029Multiplexer serial number:	ORYXHardware model number:	OX2-SRSoftware version number:	ORYX F/W v4,00 Oryx Data Collector v3.7.2.0data status	okinstallation	B3 Nyhavnadifferential loss correction	single-endedforward channel	channel 1reverse channel	N/Adate	2023/12/02time	16:47:30forward acquisition time	300,00reverse acquisition time	0,00gamma	499,1914k internal	0,3198k external	0,3198temperature offset calibration	1,0000default loss term (dB/km)	0,3820temperature slope calibration	1,0000multiplexer offset coefficient	1,0000multiplexer slope coefficient	1,0000fibre end	0,00T internal ref (°C)	14,11T ext. ref 1 (°C)	-1,44T ext. ref 2 (°C)	-1,46length (m)	temperature (°C)	Stokes	anti-Stokes-744,400	371,721	-0,155	-0,230
-743,385	-200,000	-0,010	0,267
-742,371	687,205	-0,110	-0,211
-741,356	-200,000	0,020	0,338
-740,342	68,446	-0,224	-0,167
-739,327	-200,000	-0,031	0,227
-738,312	202,852	-0,154	-0,173
-737,298	-200,000	-0,068	0,276
-736,283	355,451	-0,213	-0,309
-735,269	-200,000	-0,044	0,368
-734,254	278,666	-0,170	-0,221
-733,239	-11,609	-0,204	0,097
-732,225	357,342	-0,193	-0,281
-731,210	-61,575	0,295	0,089
-730,196	407,726	-0,061	-0,094
-729,181	-131,193	0,068	-0,007
-728,167	-99,787	0,119	-0,022
-727,152	51,305	-0,088	-0,060
-726,137	18,766	-0,123	0,072
-725,123	-200,000	-0,003	0,047
-724,108	-91,869	-0,085	-0,017
-723,094	800,000	-0,072	-0,183
-722,079	120,023	-0,064	-0,058
-721,064	800,000	-0,033	-0,098
-720,050	-200,000	-0,032	-0,118
-719,035	-135,748	-0,041	0,004
-718,021	-93,636	-0,231	-0,046
-717,006	-200,000	-0,047	-0,171
-715,991	97,676	-0,089	-0,075
-714,977	366,496	-0,147	-0,217
-713,962	577,019	-0,061	-0,109
-712,948	800,000	-0,053	-0,154
-711,933	307,951	0,053	-0,072
-710,918	-135,704	-0,175	-0,015
-709,904	70,711	-0,090	-0,067
-708,889	319,442	0,073	-0,101
-707,875	27,014	-0,066	-0,040
-706,860	-200,000	-0,018	-0,064
-705,845	88,001	-0,047	-0,038
-704,831	62,116	0,095	-0,069
-703,816	-84,279	-0,062	0,014
-702,802	21,258	0,019	-0,011
-701,787	2,962	-0,070	-0,037
-700,772	-200,000	0,007	0,053
-699,758	203,582	0,067	-0,075
-698,743	-200,000	-0,018	-0,109
-697,729	-200,000	0,051	0,183
-696,714	800,000	0,007	0,019
-695,699	125,511	-0,033	-0,030
-694,685	-200,000	0,002	-0,038
-693,670	320,453	-0,053	-0,073
-692,656	-41,704	-0,112	-0,042
-691,641	-200,000	-0,008	0,181
-690,627	800,000	0,024	0,056
-689,612	-58,842	0,035	0,011
-688,597	800,000	0,040	-0,128
-687,583	-127,608	-0,096	0,010
-686,568	-200,000	-0,005	-0,023
-685,554	303,636	0,039	-0,053
-684,539	-73,778	0,061	0,016
-683,524	87,523	0,127	0,102
-682,510	-200,000	-0,030	-0,133
-681,495	-146,778	-0,158	-0,010
-680,481	234,973	-0,057	0,068
-679,466	12,322	-0,112	-0,062
-678,451	-40,951	-0,103	-0,038
-677,437	-41,262	-0,051	0,019
-676,422	38,408	0,046	-0,030
-675,408	146,404	-0,069	0,068
-674,393	-200,000	-0,014	-0,085
-673,378	127,576	-0,105	-0,096
-672,364	-81,838	-0,108	0,026
-671,349	-53,292	0,112	0,037
-670,335	-14,568	-0,133	-0,062
-669,320	373,064	0,033	-0,049
-668,305	-200,000	0,018	-0,096
-667,291	25,529	-0,130	-0,078
-666,276	12,042	-0,031	-0,017
-665,262	16,755	-0,203	-0,116
-664,247	-200,000	0,020	-0,133
-663,232	138,713	0,107	-0,102
-662,218	315,915	0,106	-0,145
-661,203	-173,935	0,076	0,002
-660,189	-200,000	0,016	0,056
-659,174	4,887	-0,083	0,044
-658,159	125,270	-0,124	-0,114
-657,145	-150,660	0,076	-0,004
-656,130	800,000	0,021	-0,066
-655,116	89,949	-0,091	-0,074
-654,101	-200,000	0,013	0,142
-653,086	72,489	-0,040	0,030
-652,072	-24,878	-0,072	-0,031
-651,057	523,851	-0,027	-0,045
-650,043	800,000	0,059	-0,119
-649,028	4,425	-0,086	0,045
-648,014	-126,471	0,066	-0,007
-646,999	-31,447	0,045	-0,018
-645,984	489,980	0,067	0,111
-644,970	224,009	0,116	0,136
-643,955	-154,305	-0,192	-0,009
-642,941	659,922	-0,035	0,065
-641,926	-63,811	0,117	-0,034
-640,911	-134,737	0,050	-0,004
-639,897	-200,000	0,025	0,098
-638,882	-200,000	0,014	-0,096
-637,868	202,642	-0,042	0,047
-636,853	-200,000	-0,036	0,119
-635,838	-200,000	0,003	0,132
-634,824	-78,758	-0,153	0,037
-633,809	-113,953	-0,053	0,007
-632,795	-200,000	-0,013	-0,067
-631,780	-6,317	0,084	-0,041
-630,765	-103,528	0,073	-0,012
-629,751	50,866	-0,123	0,084
-628,736	800,000	0,032	0,101
-627,722	67,546	-0,035	0,026
-626,707	-10,970	0,077	0,036
-625,692	142,319	0,061	-0,059
-624,678	427,855	0,040	0,063
-623,663	800,000	-0,024	-0,050
-622,649	577,076	-0,045	-0,080
-621,634	800,000	0,022	0,049
-620,619	18,660	0,030	0,017
-619,605	46,312	0,023	-0,015
-618,590	-200,000	-0,031	0,119
-617,576	47,478	0,062	0,042
-616,561	-200,000	0,022	0,073
-615,546	-144,190	-0,117	-0,008
-614,532	17,254	-0,142	-0,081
-613,517	-115,854	-0,107	-0,014
-612,503	-200,000	0,011	0,100
-611,488	800,000	-0,025	-0,078
-610,474	35,224	0,027	0,017
-609,459	800,000	-0,022	-0,047
-608,444	219,137	0,026	-0,030
-607,430	-64,992	-0,169	-0,049
-606,415	-200,000	0,006	-0,095
-605,401	127,323	0,054	-0,050
-604,386	53,429	-0,061	0,042
-603,371	-23,507	-0,036	0,016
-602,357	-45,004	-0,015	0,005
-601,342	183,583	-0,046	0,049
-600,328	20,639	-0,090	-0,053
-599,313	-200,000	-0,051	-0,175
-598,298	-68,415	-0,021	0,006
-597,284	139,618	-0,048	-0,046
-596,269	206,465	0,021	-0,023
-595,255	425,784	-0,074	0,116
-594,240	800,000	0,030	0,082
-593,225	257,103	-0,069	-0,086
-592,211	-90,131	0,087	-0,018
-591,196	-200,000	0,021	0,176
-590,182	698,725	0,024	-0,046
-589,167	162,037	-0,055	0,056
-588,152	-200,000	-0,014	-0,155
-587,138	160,998	-0,030	-0,030
-586,123	-23,308	0,005	-0,002
-585,109	800,000	0,033	0,086
-584,094	-46,489	-0,049	0,017
-583,079	-98,143	0,074	0,014
-582,065	-65,303	-0,117	-0,034
-581,050	800,000	0,033	-0,095
-580,036	-29,701	-0,076	-0,031
-579,021	800,000	0,035	-0,098
-578,006	68,182	0,012	0,009
-576,992	16,524	-0,124	-0,071
-575,977	-200,000	0,021	0,074
-574,963	256,756	0,093	-0,116
-573,948	-200,000	-0,017	-0,079
-572,934	-40,675	0,116	0,043
-571,919	-26,785	-0,190	-0,080
-570,904	800,000	0,033	-0,084
-569,890	196,548	-0,088	-0,097
-568,875	-200,000	-0,029	0,096
-567,861	-200,000	-0,004	-0,138
-566,846	9,633	0,115	-0,063
-565,831	-200,000	-0,007	0,073
-564,817	-55,303	0,099	0,032
-563,802	-44,254	-0,110	0,039
-562,788	-200,000	0,039	-0,189
-561,773	-200,000	-0,007	-0,053
-560,758	-41,931	0,108	-0,040
-559,744	-200,000	0,020	0,126
-558,729	418,439	-0,077	0,119
-557,715	66,887	-0,097	0,072
-556,700	-73,249	-0,048	-0,013
-555,685	-200,000	-0,036	-0,199
-554,671	-149,023	-0,069	0,004
-553,656	127,555	-0,105	0,096
-552,642	-114,254	0,051	0,007
-551,627	-200,000	-0,008	-0,084
-550,612	127,623	-0,097	0,089
-549,598	-34,439	-0,145	-0,057
-548,583	-60,550	0,019	-0,006
-547,569	787,784	0,063	0,125
-546,554	-200,000	0,000	-0,022
-545,539	-61,661	0,100	0,030
-544,525	800,000	-0,020	-0,050
-543,510	-100,073	-0,086	-0,015
-542,496	602,698	-0,047	-0,084
-541,481	-200,000	-0,004	0,039
-540,466	66,741	0,087	-0,064
-539,452	444,064	0,012	-0,019
-538,437	-200,000	0,040	0,134
-537,423	364,033	0,085	-0,123
-536,408	48,728	-0,053	-0,036
-535,393	-200,000	-0,022	-0,150
-534,379	6,040	0,030	0,016
-533,364	-200,000	-0,045	-0,181
-532,350	280,568	0,043	0,055
-531,335	594,804	0,041	-0,073
-530,321	166,036	0,084	0,085
-529,306	272,522	-0,095	-0,121
-528,291	800,000	-0,039	-0,080
-527,277	-8,974	-0,100	-0,048
-526,262	33,182	-0,070	-0,044
-525,248	-200,000	0,017	-0,115
-524,233	91,308	0,050	-0,041
-523,218	-200,000	-0,022	0,096
-522,204	242,173	-0,091	0,110
-521,189	242,476	-0,071	-0,086
-520,175	233,715	-0,082	0,098
-519,160	177,008	-0,061	-0,064
-518,145	-14,778	0,088	0,041
-517,131	10,582	-0,056	-0,031
-516,116	-200,000	-0,025	-0,138
-515,102	-200,000	0,019	-0,061
-514,087	-200,000	-0,004	-0,172
-513,072	579,415	-0,093	-0,165
-512,058	307,932	0,069	0,093
-511,043	686,015	-0,028	-0,053
-510,029	800,000	-0,051	0,119
-509,014	388,725	0,091	0,136
-507,999	800,000	0,048	0,143
-506,985	800,000	-0,076	0,190
-505,970	-110,908	-0,072	-0,011
-504,956	-26,141	-0,100	-0,042
-503,941	113,916	-0,090	-0,079
-502,926	28,350	0,093	-0,057
-501,912	-200,000	-0,016	-0,108
-500,897	800,000	0,066	0,171
-499,883	447,132	0,095	0,152
-498,868	-47,135	0,018	-0,006
-497,853	800,000	-0,013	-0,027
-496,839	158,362	0,074	-0,074
-495,824	131,570	-0,049	-0,045
-494,810	3,331	-0,032	0,017
-493,795	800,000	0,035	0,102
-492,781	95,619	-0,071	0,058
-491,766	21,264	-0,106	0,062
-490,751	-77,376	0,063	-0,016
-489,737	-76,438	0,044	0,011
-488,722	-14,755	0,144	-0,066
-487,708	426,706	0,016	0,025
-486,693	16,883	0,137	0,078
-485,678	12,232	0,138	-0,077
-484,664	531,871	0,080	-0,136
-483,649	-200,000	-0,027	-0,115
-482,635	-200,000	-0,012	0,041
-481,620	-119,786	0,054	0,007
-480,605	449,264	0,035	0,056
-479,591	-200,000	0,024	-0,146
-478,576	-200,000	0,023	-0,082
-477,562	-200,000	-0,025	-0,154
-476,547	-100,421	-0,098	0,017
-475,532	-200,000	-0,010	0,034
-474,518	800,000	0,021	0,057
-473,503	101,371	0,083	-0,069
-472,489	-200,000	0,002	0,013
-471,474	27,067	0,031	-0,019
-470,459	-200,000	-0,033	-0,107
-469,445	5,175	-0,133	-0,070
-468,430	632,183	-0,060	0,110
-467,416	-80,121	-0,058	-0,014
-466,401	37,358	0,089	0,056
-465,386	-200,000	0,008	0,076
-464,372	71,203	-0,079	0,059
-463,357	652,989	-0,065	-0,121
-462,343	800,000	-0,050	-0,116
-461,328	149,070	0,027	0,026
-460,313	-37,691	-0,105	-0,040
-459,299	-45,973	-0,079	0,028
-458,284	57,316	-0,059	0,041
-457,270	800,000	0,059	0,117
-456,255	-48,197	-0,070	0,024
-455,241	457,132	0,068	0,109
-454,226	-200,000	0,001	0,022
-453,211	800,000	0,007	-0,018
-452,197	285,917	0,048	0,063
-451,182	69,024	0,090	0,066
-450,168	-92,454	0,141	-0,028
-449,153	49,966	0,036	0,024
-448,138	-102,186	0,184	-0,031
-447,124	85,621	-0,152	-0,120
-446,109	-200,000	0,008	-0,081
-445,095	190,714	0,055	-0,060
-444,080	-50,699	0,048	0,016
-443,065	-200,000	0,013	0,103
-442,051	167,327	-0,067	0,069
-441,036	-67,021	0,134	0,038
-440,022	-200,000	-0,005	-0,021
-439,007	-200,000	0,032	0,210
-437,992	-119,353	0,054	-0,007
-436,978	-110,571	0,184	-0,027
-435,963	-200,000	-0,018	0,070
-434,949	-200,000	0,023	0,079
-433,934	-51,727	-0,103	0,034
-432,919	-75,353	-0,092	-0,023
-431,905	-129,127	-0,076	-0,008
-430,890	-200,000	-0,041	-0,160
-429,876	-200,000	0,011	-0,040
-428,861	153,829	0,057	0,056
-427,846	-61,491	-0,080	0,024
-426,832	-17,154	-0,103	0,046
-425,817	-200,000	0,007	0,036
-424,803	-54,528	0,025	-0,008
-423,788	207,368	-0,091	0,103
-422,773	-200,000	-0,007	-0,091
-421,759	116,964	0,031	0,028
-420,744	-200,000	0,004	-0,040
-419,730	-39,486	-0,075	-0,028
-418,715	657,968	-0,096	-0,177
-417,701	265,440	0,113	-0,142
-416,686	449,601	-0,058	0,092
-415,671	800,000	-0,039	0,105
-414,657	241,836	0,010	-0,012
-413,642	213,470	-0,049	-0,056
-412,628	-200,000	-0,003	-0,045
-411,613	318,878	-0,103	0,141
-410,598	-200,000	0,033	0,116
-409,584	-74,393	0,046	-0,012
-408,569	296,200	0,007	0,010
-407,555	800,000	0,072	0,144
-406,540	67,589	-0,095	0,070
-405,525	-125,995	-0,190	-0,020
-404,511	-200,000	0,013	-0,120
-403,496	-105,132	0,123	0,020
-402,482	86,319	0,037	-0,030
-401,467	373,743	0,130	0,191
-400,452	191,955	-0,030	-0,032
-399,438	-14,456	-0,096	-0,044
-398,423	87,071	0,081	-0,064
-397,409	-200,000	-0,034	-0,114
-396,394	-132,506	-0,065	0,006
-395,379	-19,778	-0,028	-0,012
-394,365	-200,000	-0,008	0,031
-393,350	800,000	0,061	0,175
-392,336	-200,000	0,027	0,138
-391,321	402,382	-0,035	-0,052
-390,306	-46,292	0,203	-0,071
-389,292	-17,841	-0,104	-0,047
-388,277	-131,615	0,060	0,006
-387,263	800,000	-0,045	0,118
-386,248	800,000	0,081	0,183
-385,233	-22,815	0,087	-0,037
-384,219	33,136	0,077	-0,048
-383,204	171,038	-0,019	0,019
-382,190	31,941	0,146	-0,090
-381,175	-6,961	0,080	-0,039
-380,160	357,640	0,061	0,088
-379,146	212,491	0,024	0,027
-378,131	-200,000	0,004	0,105
-377,117	-4,092	0,098	0,049
-376,102	145,597	-0,069	0,067
-375,088	446,248	0,033	-0,052
-374,073	60,519	0,100	-0,071
-373,058	322,422	0,029	-0,040
-372,044	-3,227	0,038	-0,019
-371,029	192,606	0,135	-0,146
-370,015	-200,000	-0,003	-0,053
-369,000	35,955	-0,163	-0,103
-367,985	-50,627	0,012	0,004
-366,971	73,157	-0,054	-0,040
-365,956	643,609	-0,042	0,076
-364,942	-200,000	0,006	0,029
-363,927	181,803	-0,018	0,019
-362,912	191,418	0,081	0,088
-361,898	-102,771	-0,136	0,023
-360,883	-137,557	0,052	0,004
-359,869	229,768	-0,127	-0,149
-358,854	-156,668	0,131	0,006
-357,839	-200,000	-0,005	0,104
-356,825	800,000	0,064	0,153
-355,810	125,826	-0,128	0,116
-354,796	800,000	0,038	0,104
-353,781	-200,000	-0,029	0,109
-352,766	36,098	0,075	0,047
-351,752	-59,753	-0,119	-0,036
-350,737	-180,061	0,085	0,001
-349,723	-125,419	-0,110	0,012
-348,708	-102,144	0,133	0,023
-347,693	-200,000	0,005	-0,072
-346,679	20,544	-0,065	-0,037
-345,664	82,526	0,189	-0,147
-344,650	75,267	0,132	-0,100
-343,635	184,886	-0,092	0,098
-342,620	-24,895	0,008	0,003
-341,606	78,532	0,115	0,088
-340,591	141,577	-0,062	-0,059
-339,577	318,040	0,060	-0,082
-338,562	161,733	0,021	-0,021
-337,548	306,996	0,035	-0,047
-336,533	-200,000	-0,014	0,093
-335,518	-200,000	0,005	0,058
-334,504	800,000	-0,068	0,152
-333,489	75,022	0,104	-0,078
-332,475	-200,000	0,006	0,021
-331,460	-200,000	0,012	0,046
-330,445	471,745	0,027	-0,043
-329,431	-99,061	0,053	0,010
-328,416	800,000	0,053	0,151
-327,402	-156,897	0,089	0,004
-326,387	114,276	-0,064	-0,056
-325,372	36,697	-0,060	-0,038
-324,358	256,167	0,061	-0,076
-323,343	-53,257	0,031	-0,010
-322,329	288,359	-0,040	0,053
-321,314	545,875	0,054	0,093
-320,299	800,000	0,062	0,147
-319,285	-200,000	-0,007	-0,032
-318,270	-200,000	-0,007	-0,038
-317,256	161,528	-0,097	-0,097
-316,241	-105,538	-0,021	-0,003
-315,226	282,269	0,074	-0,096
-314,212	67,715	0,022	0,016
-313,197	182,199	0,096	0,101
-312,183	66,896	0,066	0,048
-311,168	-200,000	0,014	-0,159
-310,153	102,755	0,020	0,017
-309,139	800,000	-0,028	-0,076
-308,124	302,137	-0,040	-0,053
-307,110	800,000	-0,046	-0,110
-306,095	800,000	-0,040	0,115
-305,080	-95,971	-0,081	-0,015
-304,066	-33,919	0,141	0,055
-303,051	152,203	-0,046	-0,045
-302,037	95,269	-0,022	-0,018
-301,022	800,000	0,022	0,057
-300,008	15,246	0,084	0,047
-298,993	56,809	0,054	0,038
-297,978	52,906	0,050	0,034
-296,964	-200,000	0,002	-0,017
-295,949	143,880	-0,107	-0,102
-294,935	-200,000	0,017	-0,060
-293,920	-27,079	0,061	0,025
-292,905	52,748	0,036	0,025
-291,891	-166,765	0,176	-0,005
-290,876	-2,972	-0,055	-0,027
-289,862	89,455	-0,026	-0,021
-288,847	-200,000	0,011	0,161
-287,832	-200,000	0,012	0,081
-286,818	-200,000	0,029	-0,115
-285,803	483,415	0,065	-0,107
-284,789	800,000	0,030	-0,082
-283,774	75,636	0,108	0,082
-282,759	179,509	0,008	0,009
-281,745	-55,111	-0,113	0,036
-280,730	-15,631	-0,101	-0,046
-279,716	-200,000	0,048	-0,171
-278,701	120,027	0,076	0,067
-277,686	800,000	-0,033	0,088
-276,672	17,152	-0,110	-0,062
-275,657	44,438	0,035	0,023
-274,643	-200,000	0,047	0,165
-273,628	396,925	0,029	-0,043
-272,613	12,796	0,155	-0,086
-271,599	-6,835	0,034	-0,016
-270,584	77,289	-0,059	-0,045
-269,570	33,688	-0,078	-0,049
-268,555	133,968	0,093	0,087
-267,540	-200,000	0,021	-0,118
-266,526	236,457	0,063	-0,075
-265,511	452,791	-0,102	-0,161
-264,497	-200,000	-0,027	-0,088
-263,482	-164,880	0,040	0,001
-262,467	-43,779	0,095	0,034
-261,453	525,068	-0,041	0,068
-260,438	-200,000	0,001	0,051
-259,424	800,000	0,027	0,068
-258,409	-93,475	-0,081	0,016
-257,395	66,625	0,095	-0,069
-256,380	-31,536	0,032	0,013
-255,365	327,831	0,015	0,021
-254,351	800,000	-0,052	-0,127
-253,336	800,000	0,013	0,034
-252,322	25,532	-0,094	-0,056
-251,307	654,455	0,024	-0,045
-250,292	-155,611	-0,106	-0,005
-249,278	291,716	-0,013	-0,017
-248,263	74,064	0,085	0,063
-247,249	-200,000	-0,009	-0,040
-246,234	336,222	-0,056	-0,077
-245,219	407,825	0,018	0,028
-244,205	-200,000	-0,002	-0,126
-243,190	0,811	-0,040	-0,020
-242,176	68,922	0,114	0,084
-241,161	800,000	-0,032	0,095
-240,146	800,000	0,053	0,128
-239,132	-93,620	-0,033	-0,007
-238,117	-200,000	0,015	-0,130
-237,103	-200,000	-0,006	-0,050
-236,088	-76,534	0,055	0,014
-235,073	224,779	0,047	0,054
-234,059	203,680	-0,006	-0,007
-233,044	-200,000	-0,037	0,172
-232,030	-43,875	-0,062	0,022
-231,015	73,747	-0,089	-0,067
-230,000	204,455	-0,085	0,094
-228,986	183,177	0,029	-0,031
-227,971	-156,812	-0,057	0,002
-226,957	249,930	0,057	-0,069
-225,942	-200,000	-0,010	0,096
-224,927	248,528	0,061	0,074
-223,913	-117,706	-0,042	-0,005
-222,898	800,000	-0,003	0,008
-221,884	108,638	0,046	-0,039
-220,869	367,286	0,060	-0,087
-219,855	67,227	0,126	0,091
-218,840	129,237	0,041	-0,038
-217,825	49,058	-0,110	0,073
-216,811	602,216	-0,033	-0,058
-215,796	35,557	0,084	-0,053
-214,782	800,000	0,052	-0,125
-213,767	-200,000	-0,003	-0,134
-212,752	339,162	0,073	0,101
-211,738	-200,000	0,015	0,058
-210,723	-200,000	0,013	-0,046
-209,709	-119,689	-0,123	-0,015
-208,694	277,921	-0,065	-0,083
-207,679	89,293	0,078	-0,062
-206,665	-117,248	-0,132	-0,017
-205,650	252,291	-0,052	0,063
-204,636	-25,852	0,094	-0,039
-203,621	-78,877	-0,086	0,021
-202,606	13,470	-0,064	-0,035
-201,592	800,000	-0,048	0,137
-200,577	800,000	-0,053	-0,164
-199,563	-140,319	0,061	-0,004
-198,548	800,000	-0,008	0,024
-197,533	-161,441	-0,131	0,005
-196,519	514,195	-0,038	-0,063
-195,504	254,061	0,023	-0,028
-194,490	139,419	-0,092	0,086
-193,475	-200,000	0,008	-0,055
-192,460	-200,000	0,001	-0,056
-191,446	800,000	-0,010	0,024
-190,431	-200,000	-0,045	0,149
-189,417	287,052	-0,058	0,075
-188,402	8,790	0,096	-0,051
-187,387	196,881	-0,078	0,085
-186,373	251,599	-0,013	0,015
-185,358	68,252	0,070	0,051
-184,344	-200,000	-0,007	-0,039
-183,329	459,356	-0,030	0,048
-182,315	-200,000	-0,008	0,041
-181,300	98,372	-0,021	0,017
-180,285	162,830	0,038	0,038
-179,271	-200,000	-0,054	0,173
-178,256	544,729	-0,042	0,071
-177,242	-37,270	-0,096	-0,036
-176,227	-7,177	0,095	0,046
-175,212	-49,857	-0,052	-0,017
-174,198	518,402	0,057	-0,096
-173,183	282,621	-0,045	0,058
-172,169	-43,730	0,161	0,057
-171,154	800,000	0,047	-0,133
-170,139	-200,000	0,009	0,075
-169,125	-14,434	-0,100	0,046
-168,110	-200,000	0,047	-0,149
-167,096	208,775	0,077	-0,086
-166,081	516,705	0,055	0,092
-165,066	798,847	0,037	-0,073
-164,052	15,587	-0,124	-0,069
-163,037	-200,000	-0,004	0,028
-162,023	39,219	0,033	0,021
-161,008	-143,782	-0,074	0,005
-159,993	-200,000	0,008	0,056
-158,979	-200,000	0,040	0,140
-157,964	62,075	-0,149	0,105
-156,950	-64,059	0,140	-0,040
-155,935	-200,000	-0,010	0,051
-154,920	484,738	-0,071	-0,115
-153,906	-71,648	-0,107	-0,028
-152,891	-200,000	0,026	0,096
-151,877	-47,276	-0,150	0,052
-150,862	-200,000	0,003	-0,211
-149,847	-200,000	0,025	-0,085
-148,833	800,000	0,009	-0,019
-147,818	800,000	-0,022	-0,045
-146,804	-200,000	-0,017	-0,186
-145,789	800,000	0,068	0,151
-144,775	421,243	-0,055	-0,084
-143,760	-200,000	-0,009	-0,030
-142,745	256,583	0,044	-0,053
-141,731	268,020	-0,062	-0,078
-140,716	39,854	0,015	-0,010
-139,702	-71,405	-0,027	-0,007
-138,687	4,761	0,110	0,057
-137,672	-155,296	0,046	-0,002
-136,658	166,003	-0,049	-0,049
-135,643	2,079	-0,179	-0,092
-134,629	-21,052	-0,026	0,011
-133,614	-200,000	0,019	0,078
-132,599	-200,000	0,034	0,117
-131,585	-200,000	0,027	0,115
-130,570	-63,395	0,029	-0,008
-129,556	-31,452	-0,075	-0,030
-128,541	-36,040	-0,068	0,026
-127,526	228,420	-0,049	-0,057
-126,512	31,368	-0,089	-0,054
-125,497	42,401	-0,078	-0,050
-124,483	-200,000	0,020	0,072
-123,468	-200,000	0,008	0,094
-122,453	-75,791	-0,131	0,033
-121,439	-129,151	0,133	0,013
-120,424	231,688	0,069	-0,080
-119,410	800,000	-0,013	0,030
-118,395	-43,306	0,122	0,044
-117,380	32,920	0,143	0,088
-116,366	55,714	-0,039	0,027
-115,351	-103,357	-0,100	-0,017
-114,337	-45,452	-0,042	0,015
-113,322	20,974	-0,041	0,023
-112,307	-200,000	0,004	0,029
-111,293	599,562	0,093	0,165
-110,278	-200,000	0,000	0,127
-109,264	800,000	0,034	0,093
-108,249	-12,236	-0,069	-0,032
-107,234	-200,000	-0,021	-0,106
-106,220	800,000	-0,022	-0,059
-105,205	710,222	-0,051	0,096
-104,191	-200,000	0,003	0,135
-103,176	-200,000	0,003	0,061
-102,162	338,420	0,120	0,167
-101,147	263,250	-0,043	-0,053
-100,132	555,203	-0,091	-0,157
-99,118	-200,000	0,017	-0,130
-98,103	296,761	-0,011	0,015
-97,089	-27,201	0,177	0,073
-96,074	-165,947	0,060	0,002
-95,059	800,000	0,010	0,021
-94,045	557,829	0,044	-0,076
-93,030	40,799	-0,152	-0,097
-92,016	-167,337	0,122	0,003
-91,001	4,398	0,061	0,031
-89,986	-175,623	-0,129	-0,002
-88,972	-40,089	-0,058	-0,021
-87,957	800,000	0,026	-0,060
-86,943	257,987	-0,029	0,035
-85,928	-200,000	-0,003	-0,061
-84,913	-55,001	-0,065	0,021
-83,899	-200,000	-0,008	-0,048
-82,884	-3,810	0,136	0,067
-81,870	-200,000	0,007	-0,066
-80,855	-89,263	0,029	-0,006
-79,840	-200,000	0,001	-0,077
-78,826	764,870	-0,033	-0,064
-77,811	-200,000	-0,016	-0,140
-76,797	-200,000	0,013	-0,051
-75,782	-200,000	0,047	-0,207
-74,767	506,200	-0,032	-0,053
-73,753	524,576	0,051	0,086
-72,738	338,853	-0,076	0,105
-71,724	50,154	-0,018	-0,012
-70,709	261,833	-0,083	-0,103
-69,694	-9,269	0,105	-0,049
-68,680	-53,429	-0,173	-0,056
-67,665	129,161	0,084	-0,076
-66,651	-94,978	0,056	0,011
-65,636	-28,168	-0,108	0,044
-64,622	83,296	0,090	-0,069
-63,607	385,369	0,028	0,041
-62,592	60,063	0,058	-0,040
-61,578	146,791	0,036	-0,034
-60,563	-51,508	0,065	-0,022
-59,549	33,944	-0,100	-0,062
-58,534	-40,754	-1,607	-0,587
-57,519	439,584	-1,370	-2,128
-56,505	-200,000	-0,460	-4,535
-55,490	168,311	0,928	0,938
-54,476	800,000	4,971	11,344
-53,461	-200,000	18,891	305,826
-52,446	800,000	737,097	2296,084
-51,432	567,513	1653,395	2856,390
-50,417	78,845	1669,556	1264,749
-49,403	22,071	1542,322	889,443
-48,388	15,981	1465,225	815,384
-47,373	17,794	1455,401	818,643
-46,359	16,930	1445,327	808,798
-45,344	14,259	1440,734	793,405
-44,330	14,190	1438,889	792,028
-43,315	14,161	1437,096	790,872
-42,300	14,180	1435,378	789,985
-41,286	14,193	1434,185	789,363
-40,271	14,181	1432,906	788,565
-39,257	14,159	1431,598	787,710
-38,242	14,265	1430,172	787,403
-37,227	14,231	1429,377	786,772
-36,213	14,268	1427,666	785,973
-35,198	14,205	1426,811	785,171
-34,184	14,248	1425,710	784,737
-33,169	14,203	1424,466	783,810
-32,154	14,214	1423,331	783,207
-31,140	14,238	1422,029	782,571
-30,125	14,240	1421,081	782,030
-29,111	14,255	1419,812	781,369
-28,096	14,194	1418,793	780,492
-27,082	14,167	1417,748	779,756
-26,067	14,160	1416,580	779,051
-25,052	14,137	1415,577	778,361
-24,038	14,127	1414,760	777,832
-23,023	14,152	1413,533	777,246
-22,009	14,112	1412,762	776,602
-20,994	14,101	1411,869	776,031
-19,979	14,079	1410,983	775,409
-18,965	14,023	1409,871	774,504
-17,950	14,071	1408,847	774,135
-16,936	14,064	1408,188	773,710
-15,921	14,026	1407,062	772,884
-14,906	14,023	1406,118	772,320
-13,892	14,081	1405,099	771,998
-12,877	14,056	1404,138	771,323
-11,863	14,049	1403,090	770,686
-10,848	13,992	1402,511	770,069
-9,833	14,009	1401,661	769,654
-8,819	13,975	1400,533	768,843
-7,804	13,950	1399,853	768,327
-6,790	13,941	1398,729	767,636
-5,775	13,957	1397,581	767,047
-4,760	13,916	1396,752	766,372
-3,746	13,957	1395,752	765,986
-2,731	13,938	1395,127	765,524
-1,717	13,936	1394,174	764,962
-0,702	13,939	1392,240	763,885
0,313	17,683	1310,691	736,530
1,327	33,842	705,967	434,184
2,342	52,381	124,043	83,684
3,356	3,251	16,692	8,573
4,371	11,185	3,146	1,699
5,386	27,736	0,516	0,307
6,400	800,000	0,111	0,292
7,415	73,214	-0,194	-0,144
8,429	138,465	-0,278	-0,258
9,444	71,377	-0,420	-0,308
10,459	45,716	-0,277	-0,181
11,473	362,655	-0,227	-0,324
12,488	78,068	-0,257	-0,193
13,502	-4,553	-0,279	-0,136
14,517	-95,128	-0,325	-0,061
15,531	-44,190	-0,449	-0,158
16,546	32,988	-0,396	-0,242
17,561	26,152	-0,418	-0,246
18,575	-33,298	-0,175	-0,068
19,590	168,226	-0,235	-0,237
20,604	-39,234	-0,234	-0,087
21,619	27,961	-0,351	-0,209
22,634	18,402	-0,516	-0,290
23,648	-13,330	-0,391	-0,179
24,663	159,839	-0,333	-0,328
25,677	263,985	-0,319	-0,394
26,692	-4,887	-0,278	-0,135
27,707	74,629	-0,271	-0,201
28,721	-0,148	-0,505	-0,253
29,736	103,736	-0,412	-0,341
30,750	7,134	-0,524	-0,275
31,765	180,030	-0,332	-0,344
32,780	160,753	-0,313	-0,309
33,794	10,554	-0,322	-0,173
34,809	-6,940	-0,474	-0,227
35,823	65,105	-0,394	-0,280
36,838	278,163	-0,255	-0,322
37,853	291,332	-0,325	-0,419
38,867	37,183	-0,372	-0,232
39,882	80,680	-0,345	-0,262
40,896	198,713	-0,337	-0,364
41,911	-62,369	-0,235	-0,068
42,926	263,482	-0,186	-0,229
43,940	381,046	-0,265	-0,385
44,955	69,380	-0,401	-0,291
45,969	2,919	-0,402	-0,205
46,984	21,080	-0,336	-0,192
47,999	119,301	-0,246	-0,215
49,013	82,037	-0,302	-0,230
50,028	24,538	-0,336	-0,195
51,042	-70,782	-0,386	-0,102
52,057	-13,698	-0,267	-0,122
53,071	7,806	-0,345	-0,182
54,086	204,462	-0,238	-0,260
55,101	93,558	-0,328	-0,262
56,115	7,772	-0,356	-0,187
57,130	42,590	-0,410	-0,263
58,144	136,255	-0,367	-0,338
59,159	151,849	-0,359	-0,345
60,174	90,302	-0,499	-0,393
61,188	23,180	-0,389	-0,225
62,203	-94,238	-0,448	-0,086
63,217	85,858	-0,322	-0,249
64,232	51,122	-0,263	-0,175
65,247	-1,019	-0,446	-0,222
66,261	-20,563	-0,460	-0,198
67,276	87,216	-0,359	-0,280
68,290	185,259	-0,281	-0,294
69,305	231,394	-0,271	-0,313
70,320	-3,338	-0,292	-0,143
71,334	-37,944	-0,436	-0,162
72,349	62,642	-0,275	-0,194
73,363	105,875	-0,332	-0,276
74,378	116,438	-0,348	-0,300
75,393	-9,399	-0,248	-0,116
76,407	39,318	-0,353	-0,222
77,422	-30,871	-0,202	-0,080
78,436	59,003	-0,306	-0,212
79,451	1,958	-0,340	-0,172
80,466	5,810	-0,269	-0,139
81,480	-12,394	-0,421	-0,193
82,495	138,888	-0,285	-0,264
83,509	40,146	-0,237	-0,150
84,524	208,744	-0,208	-0,229
85,539	116,608	-0,255	-0,220
86,553	96,493	-0,281	-0,226
87,568	61,993	-0,223	-0,156
88,582	187,097	-0,291	-0,305
89,597	800,000	-0,128	-0,334
90,611	65,274	-0,298	-0,211
91,626	171,195	-0,227	-0,229
92,641	154,757	-0,237	-0,229
93,655	-62,330	-0,252	-0,073
94,670	36,731	-0,260	-0,161
95,684	-11,087	-0,221	-0,102
96,699	-47,263	-0,367	-0,125
97,714	25,060	-0,346	-0,201
98,728	-52,050	-0,313	-0,102
99,743	800,000	-0,115	-0,245
100,757	-6,274	-0,354	-0,169
101,772	1,025	-0,353	-0,177
102,787	-33,140	-0,336	-0,130
103,801	168,466	-0,263	-0,263
104,816	96,139	-0,261	-0,209
105,830	239,129	-0,174	-0,204
106,845	-140,271	-0,199	0,014
107,860	-8,309	-0,308	-0,145
108,874	23,778	-0,188	-0,108
109,889	57,277	-0,212	-0,145
110,903	81,958	-0,371	-0,282
111,918	13,650	-0,252	-0,137
112,933	-27,120	-0,154	-0,063
113,947	73,929	-0,248	-0,182
114,962	224,314	-0,184	-0,209
115,976	190,845	-0,167	-0,177
116,991	-56,993	-0,320	-0,098
118,006	212,863	-0,183	-0,203
119,020	79,050	-0,272	-0,204
120,035	169,655	-0,246	-0,247
121,049	32,443	-0,240	-0,145
122,064	182,030	-0,142	-0,147
123,079	-105,282	-0,324	-0,051
124,093	-103,249	-0,387	-0,063
125,108	202,641	-0,209	-0,226
126,122	-101,410	-0,288	-0,049
127,137	-3,502	-0,235	-0,114
128,151	-16,506	-0,231	-0,102
129,166	-62,731	-0,265	-0,076
130,181	12,658	-0,263	-0,142
131,195	93,581	-0,208	-0,165
132,210	169,334	-0,209	-0,209
133,224	296,918	-0,160	-0,206
134,239	173,132	-0,325	-0,329
135,254	52,695	-0,128	-0,086
136,268	74,105	-0,215	-0,158
137,283	-44,172	-0,223	-0,078
138,297	89,676	-0,238	-0,186
139,312	126,541	-0,168	-0,149
140,327	484,614	-0,153	-0,244
141,341	250,036	-0,188	-0,224
142,356	14,569	-0,272	-0,148
143,370	114,614	-0,181	-0,155
144,385	-9,448	-0,334	-0,155
145,400	120,442	-0,201	-0,175
146,414	33,268	-0,371	-0,224
147,429	258,328	-0,197	-0,237
148,443	3,017	-0,412	-0,209
149,458	334,167	-0,150	-0,203
150,473	22,653	-0,242	-0,138
151,487	82,238	-0,206	-0,156
152,502	-57,131	-0,330	-0,101
153,516	-79,536	-0,178	-0,042
154,531	229,901	-0,230	-0,263
155,546	753,646	-0,169	-0,321
156,560	800,000	-0,082	-0,244
157,575	233,512	-0,208	-0,239
158,589	96,388	-0,319	-0,255
159,604	17,541	-0,192	-0,106
160,619	208,591	-0,264	-0,288
161,633	105,180	-0,343	-0,283
162,648	-93,265	-0,270	-0,052
163,662	-123,635	-0,247	0,027
164,677	-97,955	-0,266	-0,048
165,692	800,000	-0,129	-0,254
166,706	-179,480	-0,186	0,003
167,721	-33,167	-0,250	-0,096
168,735	162,541	-0,166	-0,162
169,750	91,493	-0,212	-0,166
170,764	94,812	-0,236	-0,187
171,779	226,127	-0,097	-0,110
172,794	274,649	-0,186	-0,231
173,808	236,304	-0,195	-0,225
174,823	177,816	-0,199	-0,202
175,837	143,828	-0,228	-0,212
176,852	236,605	-0,258	-0,298
177,867	87,945	-0,221	-0,171
178,881	-61,459	-0,200	-0,058
179,896	-43,069	-0,195	-0,068
180,910	44,767	-0,257	-0,164
181,925	64,795	-0,248	-0,174
182,940	714,958	-0,051	-0,096
183,954	315,638	-0,258	-0,340
184,969	-9,463	-0,201	-0,093
185,983	109,878	-0,074	-0,061
186,998	254,334	-0,197	-0,235
188,013	491,470	-0,103	-0,164
189,027	24,167	-0,339	-0,195
190,042	48,864	-0,210	-0,137
191,056	129,293	-0,323	-0,287
192,071	443,599	-0,173	-0,264
193,086	240,675	-0,173	-0,201
194,100	224,118	-0,069	-0,078
195,115	105,781	-0,216	-0,178
196,129	2,749	-0,293	-0,148
197,144	228,878	-0,246	-0,280
198,159	-200,000	-0,046	-0,212
199,173	-60,799	-0,217	-0,064
200,188	100,022	-0,235	-0,190
201,202	313,608	-0,189	-0,247
202,217	71,410	-0,180	-0,130
203,232	271,798	-0,132	-0,163
204,246	-200,000	-0,060	-0,312
205,261	12,731	-0,300	-0,161
206,275	102,197	-0,244	-0,198
207,290	-28,039	-0,161	0,065
208,304	-13,986	-0,211	-0,094
209,319	333,296	-0,163	-0,220
210,334	50,907	-0,300	-0,197
211,348	180,291	-0,199	-0,203
212,363	155,335	-0,194	-0,186
213,377	129,031	-0,193	-0,171
214,392	142,604	-0,135	-0,125
215,407	53,757	-0,143	-0,095
216,421	-32,257	-0,237	-0,092
217,436	-64,699	-0,096	-0,027
218,450	533,990	-0,102	-0,169
219,465	83,356	-0,228	-0,173
220,480	122,788	-0,235	-0,205
221,494	114,173	-0,246	-0,208
222,509	543,573	-0,112	-0,186
223,523	281,955	-0,223	-0,278
224,538	-200,000	-0,048	-0,267
225,553	104,928	-0,178	-0,146
226,567	-4,276	-0,302	-0,145
227,582	800,000	-0,065	-0,172
228,596	-75,225	-0,152	-0,038
229,611	-123,577	-0,145	-0,016
230,626	-62,314	-0,116	0,033
231,640	43,600	-0,193	-0,123
232,655	377,922	-0,187	-0,266
233,669	61,894	-0,278	-0,192
234,684	32,637	-0,326	-0,195
235,699	101,404	-0,215	-0,174
236,713	-109,917	-0,085	0,012
237,728	-34,344	-0,107	-0,041
238,742	729,785	-0,155	-0,289
239,757	-132,187	-0,263	-0,023
240,772	200,679	-0,122	-0,130
241,786	-6,994	-0,197	-0,093
242,801	405,504	-0,101	-0,148
243,815	60,779	-0,249	-0,171
244,830	40,062	-0,200	-0,124
245,844	90,619	-0,252	-0,196
246,859	80,668	-0,138	-0,103
247,874	107,054	-0,289	-0,238
248,888	283,347	-0,154	-0,192
249,903	333,629	-0,129	-0,173
250,917	89,634	-0,123	-0,095
251,932	216,911	-0,108	-0,119
252,947	-66,323	-0,138	-0,038
253,961	272,987	-0,164	-0,201
254,976	800,000	-0,060	-0,163
255,990	197,520	-0,143	-0,151
257,005	67,610	-0,148	-0,105
258,020	-113,007	-0,133	-0,018
259,034	1,325	-0,198	-0,098
260,049	-188,014	-0,195	0,002
261,063	-7,984	-0,068	-0,031
262,078	163,895	-0,251	-0,245
263,093	461,579	-0,162	-0,251
264,107	258,769	-0,174	-0,207
265,122	-200,000	-0,022	-0,167
266,136	800,000	-0,092	-0,237
267,151	800,000	-0,074	-0,190
268,166	389,164	-0,153	-0,219
269,180	-180,401	-0,166	0,002
270,195	78,014	-0,249	-0,184
271,209	43,212	-0,188	-0,118
272,224	419,432	-0,077	-0,114
273,239	48,131	-0,112	-0,072
274,253	-32,292	-0,205	-0,079
275,268	-114,567	-0,131	-0,017
276,282	-87,727	-0,268	-0,055
277,297	-200,000	-0,051	-0,190
278,312	134,980	-0,247	-0,222
279,326	-87,211	-0,284	-0,059
280,341	150,406	-0,077	-0,073
281,355	125,041	-0,078	-0,068
282,370	-11,744	-0,237	-0,107
283,384	447,500	-0,130	-0,198
284,399	209,442	-0,191	-0,207
285,414	281,771	-0,181	-0,224
286,428	44,716	-0,140	-0,089
287,443	227,352	-0,108	-0,121
288,457	800,000	-0,059	-0,158
289,472	-69,195	-0,125	-0,033
290,487	171,581	-0,282	-0,280
291,501	16,986	-0,211	-0,115
292,516	-54,231	-0,217	-0,068
293,530	-29,437	-0,073	-0,029
294,545	201,139	-0,120	-0,128
295,560	1,013	-0,200	-0,099
296,574	157,123	-0,163	-0,155
297,589	697,269	-0,096	-0,175
298,603	31,536	-0,160	-0,095
299,618	483,434	-0,092	-0,146
300,633	-200,000	-0,022	-0,133
301,647	88,096	-0,084	-0,064
302,662	-93,767	-0,189	-0,036
303,676	8,363	-0,171	-0,088
304,691	296,782	-0,193	-0,245
305,706	101,392	-0,244	-0,196
306,720	9,795	-0,157	-0,082
307,735	268,950	-0,058	-0,070
308,749	317,278	-0,116	-0,151
309,764	237,815	-0,130	-0,149
310,779	248,490	-0,088	-0,102
311,793	-21,545	-0,218	-0,091
312,808	24,948	-0,255	-0,145
313,822	800,000	-0,080	-0,181
314,837	331,234	-0,060	-0,080
315,852	-144,175	0,019	-0,001
316,866	-156,119	-0,109	-0,005
317,881	57,346	-0,139	-0,093
318,895	33,323	-0,070	0,042
319,910	253,860	-0,128	-0,151
320,925	106,565	-0,215	-0,176
321,939	163,700	-0,135	-0,130
322,954	68,293	-0,224	-0,158
323,968	-100,555	-0,131	0,022
324,983	800,000	-0,088	-0,193
325,997	37,860	-0,188	-0,115
327,012	49,113	-0,175	-0,113
328,027	-48,001	-0,109	0,036
329,041	88,247	-0,150	-0,115
330,056	45,800	-0,098	-0,062
331,070	-200,000	0,009	-0,136
332,085	800,000	-0,043	-0,089
333,100	138,688	-0,094	-0,085
334,114	149,771	-0,189	-0,177
335,129	109,201	-0,186	-0,153
336,143	67,984	-0,143	-0,100
337,158	-85,398	-0,157	-0,033
338,173	800,000	-0,042	-0,105
339,187	-142,879	-0,176	-0,012
340,202	-35,456	-0,070	-0,026
341,216	74,707	-0,181	-0,131
342,231	131,927	-0,228	-0,202
343,246	100,080	-0,127	-0,101
344,260	-86,250	-0,053	-0,011
345,275	-181,286	-0,136	0,002
346,289	-125,162	-0,194	0,020
347,304	67,370	-0,189	-0,132
348,319	-34,657	-0,201	-0,075
349,333	439,747	-0,132	-0,199
350,348	123,905	-0,202	-0,174
351,362	401,304	-0,085	-0,122
352,377	100,093	-0,103	-0,082
353,392	-200,000	-0,030	-0,159
354,406	167,516	-0,107	-0,104
355,421	207,064	1313,459	1407,720
356,435	159,264	1474,055	1408,216
