DTS Sentinel unit serial number:	SN410029Multiplexer serial number:	ORYXHardware model number:	OX2-SRSoftware version number:	ORYX F/W v4,00 Oryx Data Collector v3.7.2.0data status	okinstallation	B3 Nyhavnadifferential loss correction	single-endedforward channel	channel 1reverse channel	N/Adate	2023/12/04time	10:12:30forward acquisition time	300,00reverse acquisition time	0,00gamma	499,1914k internal	0,3203k external	0,3203temperature offset calibration	1,0000default loss term (dB/km)	0,3820temperature slope calibration	1,0000multiplexer offset coefficient	1,0000multiplexer slope coefficient	1,0000fibre end	0,00T internal ref (°C)	13,46T ext. ref 1 (°C)	-0,95T ext. ref 2 (°C)	-0,99length (m)	temperature (°C)	Stokes	anti-Stokes-744,400	354,480	-0,152	-0,220
-743,385	800,000	0,028	0,069
-742,371	800,000	-0,127	-0,345
-741,356	-200,000	0,061	0,219
-740,342	800,000	-0,053	-0,144
-739,327	-200,000	0,026	0,206
-738,312	46,620	-0,231	-0,155
-737,298	-200,000	0,060	0,416
-736,283	-133,519	-0,160	-0,014
-735,269	-200,000	0,041	0,357
-734,254	340,220	-0,201	-0,285
-733,239	-40,157	-0,170	0,064
-732,225	800,000	-0,072	-0,197
-731,210	-32,267	0,161	0,065
-730,196	-70,097	-0,033	-0,009
-729,181	800,000	-0,033	-0,091
-728,167	99,977	0,066	-0,056
-727,152	800,000	0,014	0,035
-726,137	-17,439	0,055	0,025
-725,123	-176,267	-0,030	0,001
-724,108	308,710	-0,043	-0,058
-723,094	-59,283	0,057	0,018
-722,079	3,572	0,049	0,026
-721,064	-79,591	-0,077	0,019
-720,050	207,616	0,084	0,095
-719,035	-47,635	0,038	0,013
-718,021	43,142	-0,027	-0,018
-717,006	303,359	0,016	0,021
-715,991	12,435	-0,020	-0,011
-714,977	502,557	-0,049	-0,082
-713,962	356,548	-0,012	0,017
-712,948	800,000	-0,007	-0,023
-711,933	-32,866	0,072	0,029
-710,918	98,609	0,057	0,048
-709,904	-154,358	-0,048	-0,002
-708,889	-0,280	-0,094	-0,049
-707,875	85,437	0,088	-0,070
-706,860	800,000	0,030	-0,086
-705,845	414,239	0,050	0,077
-704,831	288,413	0,062	0,081
-703,816	160,509	0,085	-0,086
-702,802	-70,267	-0,093	-0,026
-701,787	-25,360	-0,066	-0,028
-700,772	6,186	0,071	-0,038
-699,758	193,976	-0,065	-0,071
-698,743	246,385	0,074	-0,091
-697,729	17,810	0,063	0,036
-696,714	363,765	0,042	-0,061
-695,699	237,193	-0,064	0,077
-694,685	-145,764	-0,059	-0,004
-693,670	83,086	-0,030	0,023
-692,656	-55,243	0,055	0,018
-691,641	800,000	-0,028	-0,056
-690,627	242,006	0,068	0,083
-689,612	-200,000	0,011	-0,068
-688,597	-200,000	-0,018	0,100
-687,583	-37,611	-0,169	0,065
-686,568	-29,715	-0,033	-0,014
-685,554	-200,000	-0,002	-0,083
-684,539	28,782	0,064	-0,040
-683,524	77,106	0,051	0,039
-682,510	-200,000	0,040	0,144
-681,495	-200,000	0,025	0,100
-680,481	719,031	-0,018	-0,035
-679,466	477,004	-0,035	-0,058
-678,451	295,163	0,069	0,091
-677,437	286,341	0,070	-0,091
-676,422	121,429	0,041	-0,037
-675,408	448,482	0,031	-0,049
-674,393	218,233	-0,005	0,006
-673,378	800,000	0,013	-0,034
-672,364	67,247	-0,056	-0,041
-671,349	145,806	-0,092	-0,089
-670,335	-200,000	0,004	-0,053
-669,320	800,000	0,068	0,161
-668,305	-200,000	-0,021	0,123
-667,291	-39,988	-0,077	-0,029
-666,276	-200,000	-0,029	-0,099
-665,262	96,696	-0,119	-0,099
-664,247	-61,872	-0,072	0,022
-663,232	284,916	-0,103	-0,134
-662,218	-200,000	0,006	0,126
-661,203	292,172	-0,046	-0,061
-660,189	-22,678	0,063	-0,027
-659,174	574,853	-0,075	-0,132
-658,159	-15,462	-0,080	0,037
-657,145	-7,216	0,102	0,050
-656,130	-200,000	-0,026	-0,137
-655,116	800,000	-0,069	-0,158
-654,101	80,206	0,175	0,137
-653,086	-200,000	0,018	0,075
-652,072	-126,514	-0,175	-0,019
-651,057	201,589	0,056	-0,062
-650,043	141,924	-0,071	0,069
-649,028	-200,000	0,051	-0,209
-648,014	-200,000	-0,027	-0,106
-646,999	-133,446	0,054	-0,005
-645,984	-17,213	-0,147	-0,067
-644,970	83,815	-0,090	-0,071
-643,955	183,088	-0,016	-0,017
-642,941	172,950	-0,069	0,072
-641,926	-200,000	0,005	-0,084
-640,911	800,000	0,053	-0,108
-639,897	-99,862	0,118	-0,021
-638,882	384,235	-0,046	-0,068
-637,868	18,279	-0,057	-0,033
-636,853	-91,528	-0,095	-0,019
-635,838	21,285	-0,099	-0,058
-634,824	800,000	-0,027	0,062
-633,809	204,174	0,032	-0,036
-632,795	-24,049	0,056	-0,024
-631,780	-200,000	-0,008	0,163
-630,765	147,017	-0,115	0,112
-629,751	-132,081	-0,159	-0,015
-628,736	-121,085	-0,133	-0,016
-627,722	-200,000	-0,017	-0,092
-626,707	81,023	0,102	-0,080
-625,692	-77,940	-0,130	0,032
-624,678	800,000	-0,056	0,115
-623,663	416,778	0,029	-0,044
-622,649	131,807	-0,043	-0,040
-621,634	-200,000	-0,043	-0,148
-620,619	-106,124	-0,133	-0,021
-619,605	12,172	0,121	-0,067
-618,590	-94,175	0,096	0,019
-617,576	141,558	-0,084	-0,081
-616,561	-144,462	0,079	0,005
-615,546	287,505	0,054	-0,071
-614,532	-112,401	-0,094	0,013
-613,517	-88,655	-0,123	0,026
-612,503	147,590	0,044	-0,043
-611,488	173,447	0,197	0,206
-610,474	-47,104	0,106	0,037
-609,459	800,000	0,051	0,149
-608,444	383,000	0,036	0,054
-607,430	-67,613	0,155	-0,044
-606,415	196,749	0,009	-0,010
-605,401	354,683	-0,012	0,018
-604,386	0,802	-0,067	0,034
-603,371	-13,583	0,028	0,013
-602,357	800,000	-0,046	-0,116
-601,342	800,000	-0,045	-0,132
-600,328	-200,000	-0,001	-0,142
-599,313	800,000	-0,032	-0,072
-598,298	-200,000	-0,011	-0,237
-597,284	105,291	0,079	0,068
-596,269	800,000	0,062	0,159
-595,255	-17,952	0,066	0,030
-594,240	131,496	0,049	0,046
-593,225	-200,000	-0,010	-0,063
-592,211	-115,895	-0,004	-0,001
-591,196	38,373	0,114	-0,073
-590,182	786,381	0,080	0,159
-589,167	220,021	-0,035	-0,040
-588,152	296,810	0,022	-0,029
-587,138	-200,000	0,012	0,125
-586,123	102,443	-0,068	0,058
-585,109	800,000	-0,053	-0,167
-584,094	24,602	0,074	0,044
-583,079	417,347	0,048	0,074
-582,065	9,126	-0,054	0,029
-581,050	261,461	0,070	-0,088
-580,036	110,732	-0,061	-0,053
-579,021	178,127	-0,091	-0,096
-578,006	-81,344	0,068	-0,016
-576,992	206,562	0,003	-0,004
-575,977	-200,000	-0,003	-0,107
-574,963	116,487	0,073	0,065
-573,948	-22,227	-0,119	0,052
-572,934	588,930	-0,008	0,015
-571,919	-200,000	-0,026	-0,156
-570,904	-41,680	-0,130	-0,048
-569,890	-5,074	-0,126	-0,062
-568,875	86,080	0,078	0,062
-567,861	38,418	0,025	0,016
-566,846	800,000	-0,064	0,132
-565,831	322,162	-0,032	0,044
-564,817	58,481	-0,066	0,047
-563,802	51,940	-0,184	-0,126
-562,788	-30,991	-0,030	0,012
-561,773	-200,000	-0,006	-0,049
-560,758	40,668	-0,083	0,054
-559,744	-200,000	0,040	0,189
-558,729	800,000	0,028	0,086
-557,715	-16,678	-0,063	0,028
-556,700	15,234	-0,085	0,048
-555,685	-200,000	-0,004	0,016
-554,671	-200,000	0,009	-0,064
-553,656	178,340	0,025	0,027
-552,642	-145,017	0,087	0,006
-551,627	123,938	0,033	0,030
-550,612	-47,752	-0,083	0,029
-549,598	800,000	0,042	0,128
-548,583	592,871	-0,043	-0,077
-547,569	-200,000	-0,017	-0,091
-546,554	-93,829	-0,082	0,016
-545,539	-200,000	0,090	0,000
-544,525	127,035	0,029	-0,027
-543,510	60,283	-0,086	-0,062
-542,496	179,710	-0,082	-0,086
-541,481	-6,320	-0,136	-0,066
-540,466	-200,000	0,010	0,035
-539,452	-200,000	-0,011	0,062
-538,437	-200,000	0,007	0,092
-537,423	-200,000	0,033	0,165
-536,408	415,262	-0,085	0,131
-535,393	-51,173	-0,130	0,044
-534,379	-28,287	-0,096	0,040
-533,364	47,585	0,091	-0,061
-532,350	-200,000	-0,008	0,038
-531,335	-172,142	0,145	-0,003
-530,321	-200,000	0,019	-0,067
-529,306	729,993	0,020	0,039
-528,291	-73,551	-0,081	-0,021
-527,277	-149,805	-0,199	-0,011
-526,262	203,799	0,077	-0,086
-525,248	-200,000	0,028	-0,105
-524,233	259,606	0,097	-0,121
-523,218	-81,945	0,041	0,010
-522,204	-200,000	0,033	0,162
-521,189	-200,000	0,016	-0,097
-520,175	287,341	-0,093	-0,122
-519,160	210,113	-0,068	0,077
-518,145	800,000	0,053	0,135
-517,131	7,361	0,175	0,094
-516,116	-124,704	0,099	0,011
-515,102	800,000	0,035	0,077
-514,087	44,158	0,071	0,047
-513,072	-122,900	-0,097	-0,011
-512,058	-18,557	-0,071	0,032
-511,043	-86,071	0,106	0,023
-510,029	-110,847	0,120	-0,018
-509,014	-200,000	0,001	0,047
-507,999	133,922	0,019	0,017
-506,985	92,287	0,054	-0,044
-505,970	800,000	0,030	-0,076
-504,956	307,607	-0,044	-0,060
-503,941	42,357	-0,114	0,075
-502,926	-114,699	-0,038	0,005
-501,912	800,000	-0,021	-0,060
-500,897	-200,000	-0,000	0,050
-499,883	-145,531	-0,103	-0,007
-498,868	-13,745	-0,045	0,021
-497,853	-31,932	-0,027	0,011
-496,839	68,651	-0,050	-0,037
-495,824	-50,389	0,098	0,033
-494,810	800,000	0,048	0,128
-493,795	-5,430	0,218	-0,107
-492,781	159,751	-0,147	-0,147
-491,766	-200,000	0,003	-0,128
-490,751	800,000	0,053	-0,135
-489,737	-200,000	-0,001	0,012
-488,722	62,168	0,030	0,021
-487,708	315,584	-0,038	-0,052
-486,693	800,000	-0,049	0,132
-485,678	-200,000	0,004	-0,038
-484,664	800,000	-0,053	-0,136
-483,649	101,835	0,076	-0,064
-482,635	581,615	0,064	-0,113
-481,620	50,793	0,071	0,049
-480,605	102,769	0,071	0,060
-479,591	-13,041	-0,065	0,030
-478,576	-64,015	-0,075	-0,022
-477,562	-200,000	-0,027	0,084
-476,547	-22,531	-0,054	-0,024
-475,532	-200,000	0,021	0,077
-474,518	213,922	0,034	0,039
-473,503	-56,294	0,037	0,012
-472,489	31,268	0,090	0,055
-471,474	51,656	-0,094	0,064
-470,459	800,000	0,036	-0,082
-469,445	-200,000	-0,001	0,010
-468,430	180,087	-0,079	-0,083
-467,416	-200,000	0,001	-0,073
-466,401	-200,000	0,005	0,066
-465,386	-61,496	0,020	-0,006
-464,372	-98,546	-0,126	0,023
-463,357	307,548	-0,044	0,059
-462,343	800,000	0,040	0,082
-461,328	146,265	-0,077	-0,074
-460,313	-49,304	-0,182	-0,062
-459,299	-200,000	-0,011	0,041
-458,284	84,069	0,106	-0,083
-457,270	-114,417	0,086	0,012
-456,255	800,000	-0,043	-0,125
-455,241	-11,052	-0,107	-0,051
-454,226	-0,001	-0,125	-0,064
-453,211	-41,002	-0,056	-0,021
-452,197	-97,692	0,152	-0,028
-451,182	73,448	-0,140	0,106
-450,168	-134,759	0,066	-0,006
-449,153	525,845	0,043	0,073
-448,138	77,862	-0,100	-0,077
-447,124	299,462	0,122	0,162
-446,109	253,922	-0,036	-0,044
-445,095	-73,660	0,070	0,018
-444,080	-200,000	0,023	0,200
-443,065	-25,958	-0,074	0,031
-442,051	-56,381	-0,059	0,019
-441,036	26,834	0,169	0,102
-440,022	-10,519	-0,050	0,024
-439,007	270,049	0,071	0,090
-437,992	5,535	0,100	-0,053
-436,978	800,000	-0,040	0,114
-435,963	95,721	-0,131	0,108
-434,949	-200,000	0,003	-0,091
-433,934	-200,000	0,006	0,027
-432,919	113,619	0,059	-0,052
-431,905	69,301	0,067	-0,049
-430,890	680,838	-0,041	-0,077
-429,876	-200,000	-0,029	0,099
-428,861	33,037	-0,038	0,023
-427,846	-200,000	0,004	-0,126
-426,832	-200,000	-0,004	-0,132
-425,817	156,184	0,088	-0,087
-424,803	-200,000	-0,053	-0,219
-423,788	1,852	0,136	0,070
-422,773	378,927	-0,082	0,121
-421,759	489,262	0,026	0,043
-420,744	800,000	0,046	0,128
-419,730	800,000	0,038	-0,114
-418,715	-39,991	-0,047	0,018
-417,701	-200,000	0,028	0,122
-416,686	800,000	0,025	0,076
-415,671	53,898	0,079	0,054
-414,657	447,184	0,031	-0,049
-413,642	286,718	-0,046	-0,060
-412,628	800,000	-0,013	-0,041
-411,613	160,119	-0,035	-0,035
-410,598	-106,651	-0,083	0,013
-409,584	800,000	-0,042	-0,088
-408,569	41,319	-0,056	0,037
-407,555	360,660	0,086	-0,123
-406,540	800,000	-0,073	0,175
-405,525	12,960	0,062	-0,034
-404,511	-1,149	-0,063	-0,032
-403,496	-100,408	0,152	-0,027
-402,482	-107,222	0,025	-0,004
-401,467	286,720	0,032	-0,041
-400,452	-164,624	-0,008	0,000
-399,438	279,228	0,045	-0,058
-398,423	-200,000	-0,001	-0,098
-397,409	10,481	-0,134	-0,073
-396,394	-200,000	-0,005	-0,026
-395,379	26,673	-0,088	0,053
-394,365	-57,048	0,074	-0,023
-393,350	159,782	0,054	0,054
-392,336	-28,825	0,041	0,017
-391,321	-32,000	-0,031	0,012
-390,306	800,000	0,060	-0,179
-389,292	-94,894	-0,127	-0,024
-388,277	800,000	-0,048	0,129
-387,263	-200,000	0,042	0,155
-386,248	100,350	-0,061	0,051
-385,233	179,809	-0,072	0,076
-384,219	-1,451	-0,030	0,015
-383,204	12,040	0,036	0,020
-382,190	-13,204	-0,058	-0,027
-381,175	178,920	-0,074	0,077
-380,160	-200,000	-0,003	-0,122
-379,146	800,000	0,039	0,108
-378,131	-200,000	-0,017	0,099
-377,117	33,696	-0,030	-0,018
-376,102	144,122	-0,077	0,073
-375,088	52,893	-0,072	-0,049
-374,073	800,000	-0,076	-0,152
-373,058	-200,000	0,011	-0,069
-372,044	-64,999	0,148	-0,043
-371,029	240,151	0,046	0,055
-370,015	800,000	0,076	-0,156
-369,000	-200,000	0,001	-0,062
-367,985	-81,454	0,052	0,012
-366,971	800,000	-0,012	0,033
-365,956	141,835	0,041	-0,039
-364,942	-138,452	0,122	-0,009
-363,927	125,191	-0,099	-0,089
-362,912	-113,699	-0,081	-0,011
-361,898	91,165	-0,027	0,022
-360,883	136,856	0,100	-0,093
-359,869	-179,319	0,138	-0,002
-358,854	26,151	0,036	0,021
-357,839	-200,000	0,001	0,167
-356,825	118,386	0,068	0,060
-355,810	-41,079	0,097	0,036
-354,796	-19,842	0,103	0,046
-353,781	-168,427	0,011	-0,000
-352,766	-200,000	0,055	-0,182
-351,752	269,098	0,059	0,074
-350,737	-28,097	-0,038	0,015
-349,723	-27,704	0,040	0,016
-348,708	-200,000	-0,016	0,179
-347,693	-45,651	-0,120	-0,042
-346,679	372,261	-0,046	-0,067
-345,664	-200,000	0,016	-0,103
-344,650	115,395	-0,088	0,077
-343,635	-85,167	0,188	0,042
-342,620	-158,480	-0,028	-0,001
-341,606	-200,000	0,039	0,133
-340,591	-50,552	-0,090	0,030
-339,577	-92,313	-0,164	0,033
-338,562	264,752	0,098	0,122
-337,548	-200,000	-0,052	-0,169
-336,533	236,816	-0,045	0,054
-335,518	120,996	0,077	0,069
-334,504	-24,534	0,021	0,009
-333,489	420,037	0,032	-0,050
-332,475	800,000	-0,056	-0,117
-331,460	29,973	-0,192	-0,117
-330,445	-146,788	-0,056	-0,003
-329,431	482,592	-0,046	0,076
-328,416	91,181	0,086	-0,069
-327,402	120,787	0,059	-0,052
-326,387	118,714	0,062	0,055
-325,372	-39,873	-0,069	0,026
-324,358	-200,000	-0,012	0,124
-323,343	800,000	-0,035	-0,078
-322,329	228,840	0,105	-0,122
-321,314	-200,000	0,001	0,116
-320,299	181,932	0,081	0,086
-319,285	-200,000	0,010	0,108
-318,270	202,763	0,035	0,039
-317,256	-126,429	-0,136	-0,014
-316,241	336,510	0,125	-0,173
-315,226	-159,845	0,088	0,003
-314,212	267,201	-0,038	0,048
-313,197	800,000	0,042	0,122
-312,183	256,737	-0,018	0,022
-311,168	-52,706	-0,091	-0,030
-310,153	-150,494	-0,123	0,007
-309,139	-200,000	0,025	-0,165
-308,124	-171,621	0,161	-0,004
-307,110	-200,000	0,033	-0,109
-306,095	36,740	0,090	0,057
-305,080	68,323	0,081	-0,059
-304,066	-137,106	-0,081	-0,007
-303,051	45,274	-0,050	-0,033
-302,037	800,000	-0,018	-0,051
-301,022	156,416	0,053	0,053
-300,008	45,280	-0,036	-0,024
-298,993	108,197	0,036	-0,030
-297,978	6,339	0,032	0,017
-296,964	-90,340	0,062	-0,013
-295,949	-71,289	-0,055	-0,015
-294,935	-200,000	0,025	-0,106
-293,920	407,950	0,101	-0,153
-292,905	580,839	-0,100	0,176
-291,891	-19,125	0,154	0,068
-290,876	-200,000	-0,004	0,033
-289,862	-185,216	-0,125	-0,001
-288,847	-45,680	-0,085	0,030
-287,832	407,463	-0,040	-0,061
-286,818	304,833	-0,041	-0,054
-285,803	-43,875	-0,039	-0,014
-284,789	730,315	0,109	0,210
-283,774	-200,000	0,034	0,200
-282,759	219,482	0,047	-0,054
-281,745	-10,113	-0,171	-0,081
-280,730	-150,578	-0,136	-0,007
-279,716	-121,655	-0,076	-0,009
-278,701	800,000	-0,039	0,085
-277,686	262,259	0,017	0,022
-276,672	-200,000	-0,010	0,054
-275,657	288,245	0,028	0,036
-274,643	-173,615	0,112	-0,002
-273,628	-61,751	0,069	0,020
-272,613	-200,000	-0,009	0,037
-271,599	506,883	0,087	-0,145
-270,584	-200,000	-0,024	0,118
-269,570	-200,000	-0,005	0,083
-268,555	34,322	0,061	0,038
-267,540	-58,193	0,058	0,018
-266,526	72,952	0,047	0,035
-265,511	800,000	-0,029	-0,066
-264,497	-2,195	0,195	0,097
-263,482	-2,987	-0,107	0,053
-262,467	800,000	-0,041	0,098
-261,453	-200,000	-0,021	0,102
-260,438	-200,000	-0,012	-0,051
-259,424	-93,399	0,097	0,019
-258,409	338,139	-0,070	-0,097
-257,395	-200,000	-0,000	0,010
-256,380	-200,000	0,014	0,121
-255,365	-16,437	0,083	0,037
-254,351	-200,000	0,009	-0,061
-253,336	800,000	-0,045	0,096
-252,322	136,333	-0,036	-0,034
-251,307	211,611	-0,026	0,030
-250,292	-200,000	0,017	0,168
-249,278	-200,000	0,011	-0,035
-248,263	-200,000	0,009	0,033
-247,249	-119,532	-0,169	0,021
-246,234	-8,309	-0,051	-0,024
-245,219	800,000	0,063	-0,127
-244,205	-200,000	-0,001	-0,160
-243,190	71,596	0,080	-0,059
-242,176	-23,265	-0,112	0,048
-241,161	-0,300	-0,116	0,058
-240,146	-101,745	0,147	0,025
-239,132	291,561	0,050	-0,064
-238,117	-200,000	-0,017	0,069
-237,103	208,315	-0,094	0,104
-236,088	180,979	-0,111	-0,116
-235,073	-128,592	0,046	-0,005
-234,059	-200,000	-0,002	0,084
-233,044	699,013	0,026	-0,049
-232,030	359,977	-0,080	0,114
-231,015	-35,724	-0,103	-0,039
-230,000	-200,000	0,009	-0,095
-228,986	-25,864	-0,070	-0,029
-227,971	-200,000	-0,007	0,024
-226,957	-200,000	0,037	0,254
-225,942	512,641	-0,049	0,082
-224,927	367,703	0,031	0,045
-223,913	418,274	-0,052	-0,080
-222,898	104,824	0,006	0,005
-221,884	-200,000	0,004	-0,017
-220,869	-200,000	-0,004	-0,031
-219,855	-58,374	0,055	0,017
-218,840	-106,887	0,079	0,012
-217,825	49,152	0,069	-0,046
-216,811	-200,000	0,007	0,069
-215,796	-117,714	-0,095	-0,012
-214,782	800,000	0,025	0,070
-213,767	-190,941	0,160	-0,001
-212,752	-34,159	0,049	0,019
-211,738	-24,656	0,071	0,030
-210,723	-200,000	0,007	0,071
-209,709	11,591	-0,102	-0,056
-208,694	451,102	0,080	-0,127
-207,679	-158,048	0,032	0,001
-206,665	-17,433	-0,053	-0,024
-205,650	188,283	0,112	0,119
-204,636	53,809	-0,135	0,092
-203,621	-49,100	-0,244	0,083
-202,606	800,000	-0,033	-0,067
-201,592	-31,072	-0,099	-0,040
-200,577	800,000	0,030	-0,090
-199,563	800,000	0,058	0,128
-198,548	110,888	0,048	0,041
-197,533	108,734	0,070	0,059
-196,519	800,000	0,046	0,130
-195,504	-200,000	0,001	-0,077
-194,490	257,830	0,019	-0,023
-193,475	-76,057	0,097	-0,024
-192,460	-49,183	0,118	0,040
-191,446	-18,031	0,089	-0,039
-190,431	800,000	0,055	-0,123
-189,417	-200,000	0,035	-0,185
-188,402	-41,171	-0,129	-0,047
-187,387	-200,000	0,004	0,066
-186,373	-60,343	-0,048	-0,015
-185,358	100,401	0,061	0,050
-184,344	200,109	0,047	0,051
-183,329	176,976	0,060	-0,063
-182,315	28,300	0,109	-0,066
-181,300	-200,000	0,010	-0,117
-180,285	-26,777	-0,065	-0,027
-179,271	3,278	-0,052	-0,027
-178,256	-141,461	0,082	0,006
-177,242	112,606	-0,098	0,085
-176,227	-200,000	-0,004	0,056
-175,212	90,440	0,104	0,083
-174,198	800,000	0,065	0,201
-173,183	-200,000	0,008	0,054
-172,169	800,000	0,036	-0,091
-171,154	800,000	0,044	-0,127
-170,139	-46,116	-0,045	0,015
-169,125	-200,000	0,025	-0,118
-168,110	-116,593	0,050	-0,006
-167,096	-37,869	0,065	-0,024
-166,081	176,142	-0,086	0,089
-165,066	-96,470	0,100	-0,019
-164,052	-200,000	0,046	-0,151
-163,037	285,410	-0,066	-0,084
-162,023	-192,097	0,106	-0,001
-161,008	25,705	0,049	0,029
-159,993	-200,000	0,021	0,125
-158,979	5,200	-0,030	0,016
-157,964	728,111	0,023	-0,044
-156,950	-67,032	0,068	-0,019
-155,935	675,941	-0,017	-0,031
-154,920	30,915	-0,094	-0,057
-153,906	-77,377	-0,059	0,015
-152,891	800,000	0,056	-0,133
-151,877	161,280	0,059	-0,059
-150,862	178,327	0,011	-0,012
-149,847	-148,407	0,091	-0,005
-148,833	304,862	0,052	0,069
-147,818	46,067	0,106	-0,069
-146,804	199,442	-0,057	0,063
-145,789	38,460	0,016	-0,010
-144,775	-200,000	-0,018	0,134
-143,760	-91,003	0,063	0,013
-142,745	-49,397	0,063	0,021
-141,731	800,000	-0,038	0,080
-140,716	800,000	0,009	0,026
-139,702	-200,000	0,013	0,192
-138,687	33,738	-0,082	0,050
-137,672	112,444	0,051	-0,044
-136,658	53,373	0,022	-0,015
-135,643	73,335	-0,117	-0,087
-134,629	84,527	-0,118	0,091
-133,614	800,000	0,020	-0,048
-132,599	800,000	-0,018	-0,041
-131,585	30,393	0,077	0,046
-130,570	800,000	-0,075	0,163
-129,556	-109,283	-0,074	-0,011
-128,541	93,923	-0,137	-0,110
-127,526	31,775	-0,018	0,011
-126,512	-82,780	0,016	-0,004
-125,497	192,068	0,102	0,110
-124,483	-36,291	0,070	-0,027
-123,468	114,419	0,120	0,104
-122,453	800,000	0,033	-0,079
-121,439	148,752	-0,082	-0,078
-120,424	590,972	-0,064	-0,112
-119,410	-128,263	0,086	-0,009
-118,395	-200,000	0,002	0,045
-117,380	13,405	-0,080	-0,044
-116,366	-200,000	-0,016	-0,094
-115,351	80,492	-0,070	-0,053
-114,337	109,806	-0,084	0,072
-113,322	-139,291	-0,119	-0,009
-112,307	303,383	0,068	0,089
-111,293	-157,458	0,071	-0,003
-110,278	-200,000	0,031	0,102
-109,264	237,904	-0,038	0,045
-108,249	-200,000	-0,018	-0,147
-107,234	-200,000	-0,014	-0,067
-106,220	800,000	-0,028	0,056
-105,205	752,090	-0,017	0,032
-104,191	159,452	0,072	0,071
-103,176	-142,937	0,122	-0,008
-102,162	800,000	-0,031	0,095
-101,147	-4,091	-0,155	-0,076
-100,132	-30,511	-0,146	0,058
-99,118	-200,000	-0,018	0,101
-98,103	347,789	0,031	0,044
-97,089	-200,000	-0,009	0,091
-96,074	-200,000	0,003	0,027
-95,059	-200,000	0,007	0,206
-94,045	219,618	-0,102	0,116
-93,030	-103,380	-0,029	0,005
-92,016	124,019	-0,054	0,048
-91,001	-89,304	0,136	-0,028
-89,986	-137,034	0,115	-0,009
-88,972	-134,285	0,115	-0,010
-87,957	-200,000	0,022	0,143
-86,943	88,595	0,041	-0,032
-85,928	96,000	-0,057	-0,046
-84,913	432,948	0,021	0,032
-83,899	73,741	-0,101	0,075
-82,884	183,529	0,086	0,091
-81,870	-121,097	0,109	0,013
-80,855	-200,000	0,020	0,098
-79,840	-200,000	0,022	-0,112
-78,826	-80,546	-0,159	0,037
-77,811	62,081	0,013	-0,009
-76,797	1,458	0,043	-0,022
-75,782	800,000	0,077	0,166
-74,767	-200,000	-0,010	0,145
-73,753	207,221	-0,010	0,011
-72,738	9,522	-0,050	0,027
-71,724	800,000	0,042	-0,125
-70,709	-200,000	-0,019	-0,132
-69,694	-200,000	-0,028	-0,160
-68,680	48,828	0,116	-0,077
-67,665	-200,000	0,014	-0,140
-66,651	26,701	0,058	0,034
-65,636	-43,580	-0,061	0,022
-64,622	-15,871	0,061	0,027
-63,607	-74,892	-0,147	-0,037
-62,592	395,947	0,055	-0,082
-61,578	143,856	0,077	-0,073
-60,563	121,595	0,130	0,114
-59,549	-200,000	0,004	0,233
-58,534	-15,980	-1,546	-0,693
-57,519	360,650	-1,380	-1,962
-56,505	-200,000	-0,547	-4,432
-55,490	242,455	1,151	1,366
-54,476	800,000	4,866	11,078
-53,461	-200,000	18,965	317,598
-52,446	-200,000	739,571	2333,247
-51,432	575,870	1654,808	2871,269
-50,417	78,638	1670,664	1262,635
-49,403	21,452	1543,669	885,729
-48,388	15,384	1465,917	811,638
-47,373	17,863	1456,128	818,154
-46,359	16,633	1446,176	806,636
-45,344	13,565	1441,847	789,500
-44,330	13,502	1439,654	787,965
-43,315	13,535	1437,966	787,168
-42,300	13,523	1436,195	786,112
-41,286	13,519	1435,319	785,584
-40,271	13,439	1433,875	784,379
-39,257	13,485	1432,595	783,866
-38,242	13,546	1431,262	783,398
-37,227	13,550	1429,904	782,641
-36,213	13,533	1428,834	781,945
-35,198	13,544	1427,609	781,294
-34,184	13,564	1426,738	780,880
-33,169	13,549	1425,333	780,009
-32,154	13,633	1424,157	779,732
-31,140	13,598	1422,892	778,847
-30,125	13,600	1421,749	778,200
-29,111	13,524	1420,857	777,320
-28,096	13,540	1419,549	776,647
-27,082	13,476	1418,684	775,842
-26,067	13,466	1417,503	775,121
-25,052	13,494	1416,492	774,666
-24,038	13,503	1415,221	773,983
-23,023	13,470	1414,383	773,339
-22,009	13,417	1413,514	772,585
-20,994	13,377	1412,534	771,829
-19,979	13,449	1411,505	771,576
-18,965	13,458	1410,627	771,107
-17,950	13,406	1409,707	770,329
-16,936	13,439	1408,930	770,030
-15,921	13,391	1407,549	769,019
-14,906	13,383	1406,716	768,495
-13,892	13,418	1405,585	768,014
-12,877	13,441	1404,665	767,585
-11,863	13,361	1404,191	766,922
-10,848	13,361	1403,397	766,457
-9,833	13,375	1402,296	765,891
-8,819	13,337	1401,430	765,210
-7,804	13,339	1400,440	764,652
-6,790	13,301	1399,326	763,834
-5,775	13,328	1398,271	763,354
-4,760	13,266	1397,539	762,638
-3,746	13,267	1396,681	762,146
-2,731	13,255	1395,970	761,668
-1,717	13,254	1394,906	761,055
-0,702	13,279	1393,168	760,192
0,313	17,201	1310,094	732,996
1,327	33,604	704,142	431,865
2,342	51,921	123,408	82,950
3,356	2,273	16,715	8,518
4,371	-0,556	3,129	1,565
5,386	-39,624	0,657	0,242
6,400	-200,000	-0,061	0,267
7,415	72,669	-0,108	-0,080
8,429	43,272	-0,250	-0,161
9,444	78,735	-0,290	-0,219
10,459	9,353	-0,412	-0,219
11,473	268,747	-0,218	-0,271
12,488	79,078	-0,193	-0,146
13,502	-78,829	-0,381	-0,091
14,517	213,630	-0,278	-0,311
15,531	101,410	-0,371	-0,305
16,546	63,444	-0,305	-0,216
17,561	177,407	-0,380	-0,392
18,575	-32,946	-0,266	-0,104
19,590	178,369	-0,254	-0,262
20,604	-60,951	-0,364	-0,108
21,619	-68,181	-0,384	-0,105
22,634	85,959	-0,458	-0,355
23,648	144,507	-0,430	-0,406
24,663	326,444	-0,203	-0,275
25,677	-51,499	-0,364	-0,119
26,692	230,615	-0,234	-0,271
27,707	-29,540	-0,364	-0,146
28,721	12,736	-0,368	-0,200
29,736	61,973	-0,230	-0,161
30,750	104,097	-0,374	-0,310
31,765	329,061	-0,238	-0,324
32,780	181,436	-0,465	-0,483
33,794	79,068	-0,272	-0,205
34,809	9,702	-0,385	-0,205
35,823	344,046	-0,231	-0,320
36,838	78,322	-0,358	-0,269
37,853	51,478	-0,464	-0,310
38,867	45,431	-0,404	-0,262
39,882	14,474	-0,391	-0,215
40,896	172,369	-0,259	-0,263
41,911	83,748	-0,413	-0,317
42,926	88,776	-0,323	-0,253
43,940	15,172	-0,464	-0,256
44,955	171,868	-0,404	-0,409
45,969	133,968	-0,370	-0,337
46,984	90,888	-0,353	-0,278
47,999	178,899	-0,241	-0,248
49,013	47,787	-0,415	-0,272
50,028	-16,962	-0,425	-0,188
51,042	239,385	-0,258	-0,303
52,057	73,296	-0,375	-0,276
53,071	219,648	-0,256	-0,289
54,086	132,342	-0,277	-0,251
55,101	132,491	-0,402	-0,365
56,115	48,077	-0,332	-0,218
57,130	50,223	-0,247	-0,164
58,144	104,964	-0,280	-0,232
59,159	97,614	-0,420	-0,339
60,174	-23,690	-0,327	-0,137
61,188	51,663	-0,435	-0,290
62,203	90,135	-0,275	-0,216
63,217	111,411	-0,329	-0,279
64,232	194,095	-0,257	-0,274
65,247	47,751	-0,387	-0,254
66,261	94,024	-0,290	-0,231
67,276	115,912	-0,431	-0,371
68,290	3,464	-0,369	-0,188
69,305	315,015	-0,165	-0,219
70,320	-167,306	-0,300	0,008
71,334	146,076	-0,306	-0,288
72,349	308,172	-0,237	-0,311
73,363	89,030	-0,269	-0,211
74,378	44,042	-0,374	-0,240
75,393	19,339	-0,286	-0,161
76,407	8,436	-0,336	-0,177
77,422	78,082	-0,261	-0,195
78,436	-60,907	-0,257	-0,076
79,451	36,144	-0,398	-0,246
80,466	68,559	-0,234	-0,168
81,480	75,234	-0,337	-0,249
82,495	33,854	-0,333	-0,203
83,509	-39,176	-0,283	-0,104
84,524	12,357	-0,268	-0,145
85,539	-34,504	-0,255	-0,097
86,553	-67,288	-0,289	-0,079
87,568	113,188	-0,241	-0,205
88,582	-2,678	-0,249	-0,122
89,597	35,626	-0,208	-0,128
90,611	-22,719	-0,297	-0,125
91,626	-38,171	-0,258	-0,095
92,641	41,625	-0,269	-0,171
93,655	306,987	-0,286	-0,374
94,670	-49,950	-0,379	-0,125
95,684	11,819	-0,352	-0,189
96,699	121,343	-0,212	-0,185
97,714	607,322	-0,176	-0,309
98,728	-54,569	-0,239	-0,075
99,743	-6,682	-0,270	-0,128
100,757	127,388	-0,228	-0,202
101,772	67,733	-0,252	-0,181
102,787	103,620	-0,407	-0,335
103,801	-106,803	-0,312	-0,048
104,816	103,143	-0,225	-0,184
105,830	27,830	-0,331	-0,195
106,845	134,017	-0,214	-0,194
107,860	5,257	-0,218	-0,112
108,874	-134,776	-0,314	-0,026
109,889	103,248	-0,353	-0,290
110,903	117,963	-0,263	-0,227
111,918	128,899	-0,146	-0,131
112,933	13,940	-0,265	-0,144
113,947	283,472	-0,237	-0,299
114,962	-79,491	-0,231	-0,054
115,976	24,100	-0,329	-0,190
116,991	-98,000	-0,283	-0,051
118,006	-63,112	-0,307	-0,088
119,020	702,628	-0,082	-0,152
120,035	-161,410	-0,285	-0,010
121,049	-165,948	-0,132	-0,004
122,064	100,095	-0,206	-0,167
123,079	-62,994	-0,307	-0,088
124,093	194,616	-0,290	-0,309
125,108	13,094	-0,259	-0,140
126,122	127,217	-0,214	-0,190
127,137	19,560	-0,196	-0,110
128,151	342,408	-0,208	-0,285
129,166	-162,211	-0,171	0,006
130,181	110,181	-0,194	-0,163
131,195	-23,836	-0,355	-0,148
132,210	124,568	-0,142	-0,125
133,224	100,780	-0,233	-0,189
134,239	72,279	-0,225	-0,164
135,254	106,977	-0,251	-0,208
136,268	-72,435	-0,261	-0,067
137,283	-76,222	-0,273	-0,067
138,297	85,877	-0,189	-0,145
139,312	-167,177	-0,336	0,009
140,327	57,529	-0,239	-0,163
141,341	78,713	-0,286	-0,214
142,356	215,129	-0,180	-0,199
143,370	120,857	-0,229	-0,199
144,385	32,073	-0,287	-0,173
145,400	86,211	-0,246	-0,189
146,414	93,954	-0,242	-0,191
147,429	103,724	-0,266	-0,218
148,443	215,450	-0,184	-0,204
149,458	103,840	-0,200	-0,164
150,473	-42,392	-0,136	-0,048
151,487	92,854	-0,271	-0,214
152,502	-32,396	-0,411	-0,159
153,516	-137,475	-0,261	-0,020
154,531	-13,341	-0,328	-0,148
155,546	-19,533	-0,181	-0,078
156,560	-20,549	-0,248	-0,106
157,575	-75,886	-0,195	-0,048
158,589	25,999	-0,308	-0,179
159,604	82,937	-0,182	-0,138
160,619	90,248	-0,277	-0,216
161,633	127,622	-0,288	-0,256
162,648	4,437	-0,270	-0,138
163,662	34,145	-0,301	-0,182
164,677	208,708	-0,225	-0,246
165,692	16,420	-0,207	0,114
166,706	191,887	-0,150	-0,158
167,721	75,256	-0,107	-0,079
168,735	87,220	-0,293	-0,226
169,750	-14,574	-0,242	-0,108
170,764	26,900	-0,313	-0,183
171,779	51,715	-0,186	-0,123
172,794	-12,293	-0,371	-0,168
173,808	69,442	-0,241	-0,172
174,823	69,925	-0,326	-0,234
175,837	601,189	-0,145	-0,252
176,852	684,744	-0,169	-0,309
177,867	361,853	-0,129	-0,181
178,881	-79,600	-0,157	0,037
179,896	-113,413	-0,187	-0,025
180,910	66,024	-0,186	-0,131
181,925	219,029	-0,217	-0,242
182,940	116,864	-0,139	-0,119
183,954	57,931	-0,262	-0,178
184,969	569,800	-0,067	-0,113
185,983	83,032	-0,205	-0,155
186,998	41,407	-0,243	-0,152
188,013	166,721	-0,075	-0,074
189,027	132,694	-0,162	-0,146
190,042	65,578	-0,233	-0,164
191,056	20,571	-0,236	-0,132
192,071	-131,818	-0,230	0,021
193,086	20,574	-0,240	-0,135
194,100	88,082	-0,143	-0,110
195,115	48,789	-0,218	-0,142
196,129	-80,634	-0,199	-0,046
197,144	-74,439	-0,412	-0,103
198,159	80,269	-0,225	-0,168
199,173	178,662	-0,181	-0,184
200,188	90,846	-0,236	-0,183
201,202	19,329	-0,307	-0,171
202,217	111,575	-0,140	-0,118
203,232	32,885	-0,206	-0,123
204,246	35,708	-0,243	-0,148
205,261	3,677	-0,243	-0,123
206,275	137,559	-0,171	-0,155
207,290	171,250	-0,161	-0,161
208,304	-200,000	-0,005	-0,133
209,319	50,377	-0,097	-0,063
210,334	-200,000	-0,039	-0,215
211,348	54,359	-0,201	-0,134
212,363	800,000	-0,124	-0,242
213,377	76,014	-0,192	-0,141
214,392	-200,000	-0,027	-0,178
215,407	66,552	-0,255	-0,179
216,421	102,728	-0,296	-0,240
217,436	-34,785	-0,247	-0,093
218,450	97,879	-0,228	-0,182
219,465	18,313	-0,295	-0,163
220,480	800,000	-0,085	-0,187
221,494	-27,562	-0,353	-0,142
222,509	-200,000	-0,049	-0,278
223,523	103,666	-0,174	-0,142
224,538	-20,509	-0,196	-0,083
225,553	159,713	-0,213	-0,206
226,567	789,273	-0,134	-0,256
227,582	673,623	-0,133	-0,241
228,596	-41,000	-0,165	-0,059
229,611	59,314	-0,164	-0,112
230,626	-78,192	-0,082	0,019
231,640	249,995	-0,086	-0,101
232,655	0,229	-0,244	-0,120
233,669	205,572	-0,191	-0,206
234,684	263,826	-0,166	-0,200
235,699	-200,000	-0,024	-0,099
236,713	27,146	-0,055	-0,032
237,728	107,379	-0,146	-0,120
238,742	169,219	-0,149	-0,147
239,757	76,925	-0,264	-0,194
240,772	-52,011	-0,209	-0,067
241,786	346,096	-0,212	-0,290
242,801	-29,929	-0,104	-0,041
243,815	-85,850	-0,167	-0,036
244,830	-13,963	-0,170	-0,076
245,844	-176,558	-0,220	-0,004
246,859	151,398	-0,184	-0,173
247,874	199,786	-0,172	-0,182
248,888	-3,709	-0,292	-0,140
249,903	26,290	-0,181	-0,104
250,917	369,592	-0,079	-0,111
251,932	-72,488	-0,103	-0,026
252,947	272,421	-0,156	-0,191
253,961	288,282	-0,122	-0,153
254,976	147,180	-0,137	-0,128
255,990	-150,820	-0,181	-0,009
257,005	547,798	-0,102	-0,169
258,020	800,000	-0,051	-0,117
259,034	72,084	0,064	-0,046
260,049	-200,000	0,002	0,092
261,063	110,068	-0,090	-0,075
262,078	800,000	-0,099	-0,212
263,093	-47,142	-0,281	-0,094
264,107	800,000	-0,067	-0,190
265,122	182,739	-0,073	-0,075
266,136	220,744	-0,107	-0,119
267,151	109,801	-0,279	-0,231
268,166	-143,160	-0,073	-0,005
269,180	44,175	-0,175	-0,111
270,195	231,302	-0,183	-0,207
271,209	-35,437	-0,201	-0,075
272,224	45,684	-0,130	0,083
273,239	24,132	-0,139	-0,079
274,253	-13,923	-0,189	-0,084
275,268	82,647	-0,185	-0,138
276,282	124,887	-0,196	-0,170
277,297	292,092	-0,086	-0,108
278,312	-200,000	-0,060	-0,197
279,326	-101,815	-0,232	-0,038
280,341	-106,710	-0,126	0,019
281,355	29,671	-0,232	-0,136
282,370	103,989	-0,216	-0,175
283,384	-63,104	-0,146	-0,041
284,399	222,238	-0,198	-0,220
285,414	82,004	-0,114	-0,085
286,428	-103,353	-0,075	-0,012
287,443	-200,000	-0,002	-0,058
288,457	-125,130	-0,091	0,009
289,472	97,302	-0,242	-0,191
290,487	35,523	-0,221	-0,133
291,501	-103,643	-0,160	-0,026
292,516	28,136	-0,212	-0,123
293,530	12,219	-0,106	-0,056
294,545	59,638	-0,122	-0,083
295,560	771,235	-0,112	-0,210
296,574	181,965	-0,178	-0,181
297,589	96,263	-0,137	-0,108
298,603	235,236	-0,165	-0,188
299,618	16,637	-0,128	-0,070
300,633	25,059	-0,149	-0,085
301,647	40,114	-0,024	0,015
302,662	-178,088	-0,186	0,003
303,676	88,535	-0,181	-0,138
304,691	36,340	-0,244	-0,148
305,706	114,490	-0,132	-0,111
306,720	135,226	-0,184	-0,165
307,735	159,778	-0,089	-0,086
308,749	308,195	-0,040	-0,052
309,764	-32,085	-0,112	-0,043
310,779	110,354	-0,132	-0,109
311,793	147,730	-0,107	-0,099
312,808	89,831	-0,171	-0,131
313,822	330,976	-0,093	-0,124
314,837	168,071	-0,076	-0,074
315,852	-200,000	-0,053	-0,248
316,866	-94,020	-0,175	-0,033
317,881	-171,757	-0,153	0,003
318,895	26,890	-0,127	-0,073
319,910	-20,070	-0,214	-0,090
320,925	380,826	-0,120	-0,169
321,939	-98,002	-0,137	0,024
322,954	186,518	-0,129	-0,132
323,968	-105,240	-0,155	0,024
324,983	-127,339	-0,104	-0,010
325,997	66,582	-0,221	-0,154
327,012	185,377	-0,116	-0,119
328,027	-11,927	-0,253	-0,114
329,041	288,659	-0,211	-0,263
330,056	800,000	-0,049	-0,117
331,070	-200,000	-0,010	-0,115
332,085	717,495	-0,156	-0,285
333,100	-100,252	-0,209	-0,035
334,114	84,013	-0,187	-0,140
335,129	-200,000	-0,070	-0,246
336,143	-10,292	-0,110	-0,050
337,158	-200,000	-0,034	-0,193
338,173	-84,786	-0,144	-0,031
339,187	-28,084	-0,114	-0,045
340,202	-56,337	-0,110	0,033
341,216	800,000	-0,084	-0,167
342,231	65,800	-0,179	-0,124
343,246	164,256	-0,093	-0,090
344,260	-200,000	-0,016	-0,129
345,275	103,845	-0,209	-0,168
346,289	83,711	-0,104	-0,077
347,304	21,840	-0,243	-0,135
348,319	52,822	-0,156	-0,102
349,333	415,442	-0,182	-0,268
350,348	800,000	-0,016	-0,046
351,362	131,108	-0,163	-0,143
352,377	800,000	-0,081	-0,225
353,392	-200,000	-0,038	-0,118
354,406	-97,758	-0,182	-0,032
355,421	208,088	1315,142	1410,521
356,435	160,095	1475,930	1411,010
