DTS Sentinel unit serial number:	SN410029Multiplexer serial number:	ORYXHardware model number:	OX2-SRSoftware version number:	ORYX F/W v4,00 Oryx Data Collector v3.7.2.0data status	okinstallation	B3 Nyhavnadifferential loss correction	single-endedforward channel	channel 1reverse channel	N/Adate	2023/11/30time	11:02:30forward acquisition time	300,00reverse acquisition time	0,00gamma	499,1914k internal	0,3211k external	0,3211temperature offset calibration	1,0000default loss term (dB/km)	0,3820temperature slope calibration	1,0000multiplexer offset coefficient	1,0000multiplexer slope coefficient	1,0000fibre end	0,00T internal ref (°C)	9,51T ext. ref 1 (°C)	-5,56T ext. ref 2 (°C)	-5,67length (m)	temperature (°C)	Stokes	anti-Stokes-744,400	214,549	-0,190	-0,219
-743,385	800,000	-0,082	0,233
-742,371	280,645	-0,170	-0,221
-741,356	800,000	0,089	0,215
-740,342	152,871	-0,151	-0,150
-739,327	595,022	-0,132	0,238
-738,312	218,689	-0,236	-0,274
-737,298	-200,000	-0,063	0,269
-736,283	-200,000	-0,059	-0,292
-735,269	-200,000	0,052	0,312
-734,254	800,000	-0,141	-0,306
-733,239	-146,824	-0,168	0,010
-732,225	-200,000	-0,096	-0,309
-731,210	-138,462	0,196	0,015
-730,196	-200,000	-0,013	-0,055
-729,181	160,825	-0,031	-0,032
-728,167	57,289	-0,186	0,131
-727,152	-118,910	0,141	0,018
-726,137	-28,513	-0,099	-0,041
-725,123	-102,360	-0,102	-0,018
-724,108	-200,000	0,008	-0,105
-723,094	18,245	0,055	-0,032
-722,079	319,594	-0,041	-0,056
-721,064	-125,160	0,112	0,012
-720,050	182,737	0,078	0,083
-719,035	305,947	0,018	0,024
-718,021	-48,677	-0,095	0,033
-717,006	800,000	-0,079	-0,197
-715,991	73,785	-0,044	0,033
-714,977	800,000	0,050	0,109
-713,962	245,453	0,063	-0,077
-712,948	800,000	0,062	0,137
-711,933	-119,484	-0,174	-0,022
-710,918	800,000	-0,038	0,100
-709,904	729,389	-0,012	-0,024
-708,889	800,000	0,018	-0,056
-707,875	52,443	0,084	0,058
-706,860	459,331	-0,031	0,051
-705,845	800,000	0,015	-0,034
-704,831	-200,000	-0,017	0,071
-703,816	-200,000	-0,004	-0,018
-702,802	769,942	0,023	0,045
-701,787	-200,000	0,006	-0,171
-700,772	-21,752	-0,079	-0,035
-699,758	-56,019	0,130	0,042
-698,743	124,928	-0,026	0,024
-697,729	78,760	0,045	0,035
-696,714	249,288	-0,045	0,055
-695,699	96,005	-0,101	-0,083
-694,685	800,000	0,041	-0,125
-693,670	-200,000	-0,013	-0,085
-692,656	800,000	0,041	0,094
-691,641	182,549	0,053	0,057
-690,627	-200,000	-0,022	0,104
-689,612	-200,000	-0,010	-0,042
-688,597	465,885	-0,012	0,019
-687,583	-68,099	-0,181	-0,051
-686,568	653,406	0,044	-0,082
-685,554	800,000	-0,033	-0,089
-684,539	500,846	-0,073	0,122
-683,524	731,878	-0,055	0,106
-682,510	-152,633	0,097	0,005
-681,495	800,000	0,026	-0,066
-680,481	346,866	-0,065	-0,093
-679,466	281,661	0,028	-0,037
-678,451	-5,080	-0,162	-0,081
-677,437	-200,000	-0,023	0,086
-676,422	502,570	-0,031	0,053
-675,408	-200,000	0,022	-0,086
-674,393	143,983	-0,141	0,136
-673,378	325,696	-0,046	-0,064
-672,364	445,934	-0,046	-0,073
-671,349	-200,000	-0,017	-0,173
-670,335	-200,000	0,035	-0,134
-669,320	-44,064	-0,094	-0,034
-668,305	-102,769	0,098	-0,017
-667,291	-200,000	0,021	0,114
-666,276	-5,981	-0,158	0,078
-665,262	31,166	-0,076	0,047
-664,247	-200,000	0,014	-0,061
-663,232	800,000	0,042	-0,101
-662,218	221,333	-0,056	0,065
-661,203	580,034	0,030	0,054
-660,189	-98,979	-0,019	-0,003
-659,174	-200,000	-0,033	-0,177
-658,159	155,102	0,014	0,014
-657,145	-200,000	0,000	0,004
-656,130	230,185	0,027	0,032
-655,116	-200,000	0,011	0,065
-654,101	800,000	0,099	-0,264
-653,086	692,832	0,013	0,024
-652,072	26,709	-0,034	-0,021
-651,057	-31,758	-0,165	-0,067
-650,043	-109,921	0,027	-0,004
-649,028	-200,000	-0,001	-0,017
-648,014	211,934	0,016	-0,019
-646,999	800,000	-0,030	-0,061
-645,984	31,692	-0,133	-0,082
-644,970	-200,000	0,001	0,018
-643,955	59,865	-0,105	0,075
-642,941	12,558	0,071	-0,039
-641,926	-200,000	0,021	-0,145
-640,911	-200,000	-0,006	0,047
-639,897	800,000	-0,018	0,055
-638,882	60,276	0,102	0,073
-637,868	-52,526	-0,109	-0,036
-636,853	-200,000	0,001	-0,109
-635,838	269,816	-0,047	0,060
-634,824	-69,197	-0,120	0,033
-633,809	-118,842	0,138	0,017
-632,795	9,407	-0,111	0,060
-631,780	-200,000	0,000	0,037
-630,765	-200,000	-0,004	0,049
-629,751	181,473	-0,041	0,044
-628,736	184,673	-0,124	-0,132
-627,722	800,000	-0,034	-0,085
-626,707	226,719	0,055	-0,065
-625,692	80,922	0,045	0,035
-624,678	-28,487	-0,163	0,068
-623,663	-79,904	-0,064	0,015
-622,649	276,498	-0,029	-0,038
-621,634	-200,000	0,019	0,173
-620,619	-47,393	0,159	-0,055
-619,605	104,741	-0,048	-0,041
-618,590	326,230	0,016	-0,023
-617,576	-87,344	0,006	-0,001
-616,561	-119,864	0,125	0,015
-615,546	-11,775	0,066	-0,031
-614,532	-200,000	0,016	-0,057
-613,517	-79,173	0,091	0,022
-612,503	-93,299	-0,105	-0,021
-611,488	-1,594	-0,081	-0,041
-610,474	-200,000	-0,007	-0,046
-609,459	-200,000	0,010	0,107
-608,444	-59,805	-0,169	0,052
-607,430	-110,334	-0,177	-0,026
-606,415	99,330	0,015	-0,012
-605,401	25,156	0,109	-0,065
-604,386	-102,925	0,241	-0,041
-603,371	102,571	-0,154	0,130
-602,357	800,000	0,016	0,041
-601,342	-78,655	-0,128	0,031
-600,328	800,000	-0,052	0,144
-599,313	-0,559	0,016	0,008
-598,298	702,310	-0,071	0,136
-597,284	-41,075	0,086	-0,032
-596,269	-3,781	-0,098	-0,049
-595,255	-7,371	0,091	-0,044
-594,240	260,408	0,018	-0,022
-593,225	-88,548	-0,108	-0,023
-592,211	89,815	0,027	0,022
-591,196	800,000	0,057	-0,127
-590,182	-93,417	0,121	0,024
-589,167	-135,782	-0,021	-0,002
-588,152	-142,236	0,147	0,010
-587,138	-63,252	-0,063	-0,019
-586,123	10,816	0,035	-0,019
-585,109	140,959	-0,069	0,066
-584,094	492,493	0,034	0,056
-583,079	800,000	-0,038	0,095
-582,065	-61,398	0,050	-0,015
-581,050	800,000	-0,018	0,052
-580,036	171,679	0,038	0,039
-579,021	-200,000	0,005	-0,022
-578,006	342,822	-0,035	0,049
-576,992	773,284	-0,029	-0,057
-575,977	40,583	0,041	-0,027
-574,963	-200,000	0,018	0,148
-573,948	-57,632	0,049	0,015
-572,934	276,811	-0,043	0,055
-571,919	-17,605	-0,094	0,042
-570,904	-41,509	-0,113	0,042
-569,890	-128,725	-0,223	-0,022
-568,875	-134,583	0,047	0,004
-567,861	800,000	-0,046	0,112
-566,846	-74,583	0,089	0,023
-565,831	800,000	0,006	0,014
-564,817	-85,729	-0,040	-0,009
-563,802	800,000	-0,037	-0,075
-562,788	-8,328	0,078	0,038
-561,773	-12,372	-0,133	0,062
-560,758	-128,934	0,134	0,013
-559,744	152,065	-0,053	0,052
-558,729	800,000	-0,014	0,032
-557,715	-65,960	-0,157	0,045
-556,700	-156,955	-0,158	-0,007
-555,685	-111,220	0,048	-0,007
-554,671	-200,000	0,005	0,021
-553,656	-90,159	-0,086	-0,018
-552,642	-163,651	0,111	-0,004
-551,627	206,491	-0,100	0,112
-550,612	175,614	0,075	-0,078
-549,598	77,374	-0,086	-0,065
-548,583	-102,725	0,043	0,007
-547,569	-45,348	-0,112	-0,040
-546,554	173,835	0,039	0,040
-545,539	81,828	0,176	0,137
-544,525	755,258	0,039	0,075
-543,510	-187,712	-0,123	0,001
-542,496	-110,284	-0,078	0,012
-541,481	545,391	-0,038	-0,066
-540,466	-200,000	0,015	-0,053
-539,452	-200,000	-0,003	-0,118
-538,437	-200,000	0,037	0,132
-537,423	-75,023	-0,052	0,013
-536,408	-20,052	-0,073	0,032
-535,393	-163,804	0,067	-0,002
-534,379	800,000	0,034	-0,095
-533,364	23,616	-0,143	0,084
-532,350	-200,000	-0,004	-0,082
-531,335	800,000	0,052	0,132
-530,321	123,453	-0,034	0,031
-529,306	-78,911	0,084	-0,020
-528,291	303,070	-0,057	-0,076
-527,277	800,000	0,020	0,046
-526,262	800,000	0,032	-0,088
-525,248	32,844	0,143	-0,089
-524,233	102,764	-0,058	0,049
-523,218	125,371	0,091	0,083
-522,204	-200,000	0,000	0,091
-521,189	-92,430	0,124	0,025
-520,175	800,000	0,043	-0,102
-519,160	-200,000	-0,004	0,149
-518,145	-125,319	0,064	0,007
-517,131	-113,794	-0,043	-0,006
-516,116	800,000	-0,050	0,111
-515,102	184,941	0,059	0,063
-514,087	-36,050	-0,025	-0,010
-513,072	-32,368	-0,085	0,034
-512,058	800,000	0,030	-0,061
-511,043	-200,000	-0,020	0,105
-510,029	-200,000	0,018	0,064
-509,014	-22,604	0,059	0,026
-507,999	-200,000	0,029	-0,105
-506,985	-200,000	0,016	0,088
-505,970	-12,680	-0,048	-0,023
-504,956	-131,616	-0,018	0,002
-503,941	119,190	-0,017	0,016
-502,926	-57,135	0,160	0,050
-501,912	800,000	-0,024	0,049
-500,897	-127,702	-0,094	0,010
-499,883	-59,081	-0,069	-0,021
-498,868	-64,192	-0,043	0,012
-497,853	-72,575	-0,102	0,027
-496,839	-93,855	-0,119	0,023
-495,824	548,001	0,027	0,047
-494,810	-200,000	0,012	0,060
-493,795	485,692	0,011	-0,019
-492,781	-200,000	-0,029	-0,099
-491,766	-11,623	-0,045	-0,021
-490,751	55,317	-0,078	0,054
-489,737	-200,000	-0,012	-0,055
-488,722	-84,129	0,059	0,013
-487,708	107,990	0,078	0,067
-486,693	484,948	0,014	-0,023
-485,678	-74,604	0,063	0,016
-484,664	-81,938	0,066	-0,015
-483,649	-200,000	-0,001	-0,005
-482,635	-200,000	-0,007	-0,138
-481,620	800,000	0,010	-0,030
-480,605	215,354	-0,146	-0,166
-479,591	381,580	-0,039	0,057
-478,576	800,000	-0,027	0,070
-477,562	-199,233	-0,040	-0,000
-476,547	343,449	-0,049	-0,069
-475,532	-154,672	-0,071	0,003
-474,518	-200,000	0,017	0,059
-473,503	66,131	0,089	-0,065
-472,489	800,000	0,024	-0,068
-471,474	52,479	0,026	-0,018
-470,459	124,680	0,024	0,022
-469,445	17,347	-0,042	0,024
-468,430	169,894	-0,120	-0,124
-467,416	-78,370	0,077	0,019
-466,401	107,108	0,038	-0,032
-465,386	160,033	0,091	0,091
-464,372	-200,000	0,030	-0,097
-463,357	800,000	-0,056	-0,158
-462,343	-26,449	-0,183	-0,077
-461,328	95,838	0,029	0,024
-460,313	-82,495	0,055	-0,013
-459,299	371,475	-0,049	0,071
-458,284	-200,000	-0,001	0,068
-457,270	441,256	0,045	-0,071
-456,255	34,557	0,086	-0,054
-455,241	792,032	-0,067	0,132
-454,226	-200,000	-0,019	-0,119
-453,211	-117,133	-0,098	0,013
-452,197	-200,000	0,008	-0,079
-451,182	800,000	0,046	0,100
-450,168	-67,904	0,114	0,032
-449,153	11,561	0,025	-0,014
-448,138	-34,668	0,007	-0,003
-447,124	336,454	0,072	-0,101
-446,109	-2,157	-0,036	-0,018
-445,095	179,428	0,052	0,055
-444,080	246,883	-0,075	0,091
-443,065	-200,000	-0,052	-0,000
-442,051	800,000	-0,023	-0,058
-441,036	-200,000	0,020	0,089
-440,022	-200,000	-0,005	-0,040
-439,007	-200,000	-0,031	0,136
-437,992	-142,473	0,121	0,008
-436,978	-200,000	0,015	-0,065
-435,963	-31,656	0,031	0,012
-434,949	-57,658	0,100	0,031
-433,934	-200,000	0,004	-0,050
-432,919	-200,000	0,038	-0,129
-431,905	-200,000	0,033	-0,125
-430,890	184,287	0,056	0,060
-429,876	-161,734	-0,056	-0,002
-428,861	-200,000	-0,018	0,102
-427,846	-200,000	-0,005	0,032
-426,832	-56,181	-0,097	-0,031
-425,817	-200,000	0,000	0,008
-424,803	800,000	0,033	0,074
-423,788	-200,000	0,007	0,084
-422,773	71,453	0,237	0,176
-421,759	-20,781	0,070	-0,031
-420,744	411,828	0,025	-0,038
-419,730	-200,000	-0,003	0,111
-418,715	33,378	-0,103	-0,064
-417,701	148,744	-0,151	0,146
-416,686	36,793	0,112	0,071
-415,671	-141,369	0,020	-0,001
-414,657	95,146	0,103	0,084
-413,642	-200,000	0,002	0,023
-412,628	208,262	0,050	0,057
-411,613	131,915	-0,134	-0,124
-410,598	586,150	-0,038	-0,067
-409,584	298,605	0,041	0,054
-408,569	673,107	-0,034	0,063
-407,555	-8,867	0,059	0,028
-406,540	-45,139	-0,085	0,030
-405,525	242,984	0,056	-0,067
-404,511	-200,000	-0,025	-0,126
-403,496	-200,000	-0,013	-0,128
-402,482	654,222	-0,045	0,083
-401,467	208,095	-0,056	0,062
-400,452	269,386	-0,038	-0,048
-399,438	186,583	0,053	-0,056
-398,423	-200,000	0,033	0,190
-397,409	158,035	-0,079	0,078
-396,394	225,953	0,060	0,069
-395,379	800,000	0,042	-0,084
-394,365	421,420	-0,123	0,190
-393,350	-43,666	-0,062	-0,022
-392,336	393,703	0,037	-0,056
-391,321	-85,583	-0,104	-0,023
-390,306	111,841	-0,033	-0,029
-389,292	-200,000	-0,021	-0,089
-388,277	-200,000	0,027	-0,196
-387,263	-200,000	-0,014	-0,055
-386,248	56,602	0,123	0,086
-385,233	-59,396	0,198	-0,061
-384,219	200,662	-0,065	-0,072
-383,204	481,304	0,062	-0,101
-382,190	-200,000	0,017	-0,100
-381,175	488,015	0,038	-0,063
-380,160	800,000	0,028	0,084
-379,146	-200,000	0,017	0,059
-378,131	227,895	0,022	0,025
-377,117	96,690	0,030	0,025
-376,102	-200,000	-0,002	-0,056
-375,088	329,865	-0,168	-0,232
-374,073	-21,559	0,100	-0,043
-373,058	1,047	0,084	0,043
-372,044	-200,000	-0,013	-0,062
-371,029	480,268	0,083	-0,135
-370,015	118,931	-0,070	-0,061
-369,000	459,449	0,023	-0,037
-367,985	446,101	0,094	0,148
-366,971	-120,144	-0,065	0,008
-365,956	-74,821	0,119	-0,030
-364,942	184,617	0,082	0,087
-363,927	77,019	0,080	-0,061
-362,912	-35,146	0,177	-0,068
-361,898	-200,000	-0,034	-0,162
-360,883	-200,000	0,026	-0,128
-359,869	800,000	0,064	-0,160
-358,854	-39,921	0,062	-0,023
-357,839	-167,758	0,151	0,004
-356,825	-200,000	-0,011	0,104
-355,810	669,501	-0,047	0,088
-354,796	84,902	0,032	0,025
-353,781	-200,000	-0,011	0,055
-352,766	800,000	-0,043	-0,099
-351,752	-200,000	-0,001	-0,060
-350,737	-67,970	-0,038	-0,011
-349,723	800,000	0,053	0,110
-348,708	464,666	-0,053	0,085
-347,693	-162,067	-0,093	-0,003
-346,679	-200,000	0,008	0,034
-345,664	134,409	-0,144	-0,133
-344,650	262,958	0,048	-0,059
-343,635	-1,974	-0,029	-0,014
-342,620	-200,000	-0,013	-0,094
-341,606	12,792	-0,048	0,027
-340,591	-27,530	0,128	-0,053
-339,577	377,972	0,083	-0,121
-338,562	128,128	-0,029	-0,026
-337,548	645,253	0,055	0,101
-336,533	-200,000	-0,005	0,170
-335,518	800,000	-0,007	-0,019
-334,504	234,399	-0,048	0,056
-333,489	-105,806	-0,062	-0,010
-332,475	474,304	-0,039	0,063
-331,460	800,000	0,033	-0,100
-330,445	-200,000	0,015	-0,109
-329,431	-116,916	0,119	-0,015
-328,416	-200,000	0,004	0,019
-327,402	-149,939	0,133	-0,007
-326,387	-2,818	-0,072	0,036
-325,372	99,002	0,043	-0,036
-324,358	-161,911	0,075	0,003
-323,343	-183,272	-0,101	-0,001
-322,329	-200,000	0,017	0,066
-321,314	-200,000	0,007	-0,031
-320,299	208,154	0,061	0,068
-319,285	372,072	0,038	-0,055
-318,270	800,000	-0,045	0,100
-317,256	-179,724	0,175	-0,003
-316,241	48,343	-0,088	0,059
-315,226	85,394	-0,097	0,076
-314,212	800,000	0,068	0,165
-313,197	-200,000	0,042	0,179
-312,183	-91,303	-0,132	-0,027
-311,168	63,891	0,134	-0,096
-310,153	-200,000	-0,008	-0,056
-309,139	-200,000	-0,014	-0,121
-308,124	133,025	-0,042	0,038
-307,110	53,274	-0,098	0,067
-306,095	448,925	0,030	0,047
-305,080	-92,207	0,079	0,016
-304,066	-140,977	0,079	-0,006
-303,051	-200,000	-0,033	-0,140
-302,037	519,213	0,046	-0,077
-301,022	76,300	-0,037	0,028
-300,008	-57,862	0,139	-0,043
-298,993	-200,000	-0,003	0,151
-297,978	-77,353	0,063	-0,015
-296,964	-200,000	0,006	0,047
-295,949	-120,704	-0,107	0,013
-294,935	-101,743	-0,064	0,011
-293,920	-170,640	0,092	-0,002
-292,905	-91,030	0,170	0,035
-291,891	800,000	-0,029	-0,087
-290,876	-73,550	-0,156	-0,040
-289,862	-200,000	-0,016	-0,055
-288,847	82,870	0,018	0,014
-287,832	800,000	-0,052	-0,119
-286,818	51,452	0,078	-0,053
-285,803	-93,010	0,229	0,045
-284,789	-96,100	0,050	0,009
-283,774	-200,000	0,034	0,164
-282,759	800,000	-0,055	-0,121
-281,745	544,556	-0,020	-0,034
-280,730	-124,553	0,060	-0,007
-279,716	58,094	0,027	-0,019
-278,701	140,751	-0,125	0,117
-277,686	159,390	0,106	0,105
-276,672	206,952	-0,038	-0,042
-275,657	-200,000	0,023	-0,104
-274,643	0,648	0,101	-0,051
-273,628	195,420	-0,095	-0,103
-272,613	382,203	-0,053	-0,078
-271,599	-34,969	0,107	-0,042
-270,584	51,359	0,028	-0,019
-269,570	-200,000	0,002	0,024
-268,555	800,000	-0,037	0,080
-267,540	800,000	-0,020	0,053
-266,526	800,000	-0,031	-0,074
-265,511	780,861	-0,059	-0,115
-264,497	-200,000	0,004	0,043
-263,482	411,443	-0,035	-0,053
-262,467	-160,079	0,169	0,006
-261,453	281,619	-0,097	-0,124
-260,438	800,000	0,018	0,035
-259,424	178,145	0,087	0,090
-258,409	253,211	0,058	0,070
-257,395	90,356	-0,023	0,018
-256,380	-200,000	0,002	-0,051
-255,365	45,407	0,094	0,062
-254,351	-200,000	-0,012	0,059
-253,336	128,567	0,126	-0,115
-252,322	800,000	-0,003	0,006
-251,307	-200,000	0,013	-0,120
-250,292	-200,000	0,013	0,051
-249,278	365,720	0,041	-0,059
-248,263	512,821	0,060	0,100
-247,249	-200,000	-0,041	0,134
-246,234	800,000	0,044	0,127
-245,219	-82,112	-0,123	0,028
-244,205	-23,681	-0,140	0,060
-243,190	64,818	0,090	0,065
-242,176	381,806	-0,032	0,047
-241,161	800,000	-0,068	0,206
-240,146	-200,000	-0,012	-0,094
-239,132	546,311	0,066	0,112
-238,117	21,502	-0,058	-0,033
-237,103	-74,078	-0,171	-0,044
-236,088	362,513	0,086	-0,123
-235,073	-200,000	0,037	0,121
-234,059	31,256	0,119	-0,073
-233,044	-47,722	0,052	0,018
-232,030	23,631	-0,086	0,050
-231,015	800,000	0,030	-0,082
-230,000	79,062	0,127	0,097
-228,986	546,058	-0,023	-0,040
-227,971	-71,517	0,156	0,041
-226,957	800,000	-0,063	0,172
-225,942	18,772	-0,112	0,063
-224,927	286,278	-0,141	0,182
-223,913	368,531	-0,060	-0,086
-222,898	264,712	-0,065	-0,081
-221,884	107,619	-0,148	-0,125
-220,869	-200,000	-0,010	0,147
-219,855	620,884	0,013	-0,024
-218,840	-200,000	-0,007	0,034
-217,825	534,156	-0,062	-0,104
-216,811	25,040	0,164	-0,096
-215,796	-200,000	-0,000	0,034
-214,782	-109,025	0,084	-0,013
-213,767	-200,000	0,018	-0,074
-212,752	-106,016	0,057	-0,009
-211,738	0,814	0,080	-0,041
-210,723	64,695	-0,098	-0,070
-209,709	-48,873	-0,106	-0,036
-208,694	-165,280	-0,129	0,004
-207,679	800,000	-0,035	-0,097
-206,665	-9,577	0,134	-0,063
-205,650	12,646	-0,073	0,040
-204,636	92,568	0,096	0,077
-203,621	-200,000	0,004	-0,099
-202,606	-59,072	-0,067	-0,020
-201,592	800,000	-0,018	0,047
-200,577	180,627	0,054	-0,056
-199,563	272,214	-0,019	0,023
-198,548	170,916	0,074	0,075
-197,533	210,941	-0,070	-0,078
-196,519	-9,332	-0,035	0,017
-195,504	112,847	-0,027	-0,023
-194,490	-200,000	-0,003	-0,061
-193,475	-200,000	-0,001	-0,080
-192,460	496,010	-0,041	0,068
-191,446	453,329	0,043	-0,068
-190,431	41,670	0,066	0,042
-189,417	133,886	0,034	0,031
-188,402	176,445	-0,129	0,134
-187,387	18,016	-0,115	0,065
-186,373	-63,063	-0,068	-0,020
-185,358	12,518	-0,047	0,026
-184,344	170,587	0,055	-0,056
-183,329	800,000	0,032	-0,070
-182,315	-0,018	0,031	-0,016
-181,300	158,349	0,021	-0,021
-180,285	233,126	-0,073	0,086
-179,271	-109,156	-0,150	0,022
-178,256	800,000	-0,017	-0,046
-177,242	-59,004	-0,084	-0,026
-176,227	-87,847	0,029	-0,006
-175,212	-5,899	0,092	0,045
-174,198	-200,000	-0,027	-0,089
-173,183	436,416	-0,057	-0,088
-172,169	99,555	-0,116	-0,095
-171,154	-110,617	0,082	0,012
-170,139	30,365	0,037	0,022
-169,125	-32,266	0,133	0,052
-168,110	50,014	0,072	0,048
-167,096	-191,646	-0,136	0,001
-166,081	-66,923	-0,101	-0,028
-165,066	800,000	-0,015	0,043
-164,052	2,811	0,030	0,015
-163,037	800,000	0,026	-0,061
-162,023	-200,000	-0,013	0,067
-161,008	-110,124	-0,056	-0,008
-159,993	142,182	-0,043	0,040
-158,979	302,023	-0,052	-0,069
-157,964	-8,612	0,071	-0,034
-156,950	-45,000	-0,110	-0,038
-155,935	8,900	0,103	-0,055
-154,920	800,000	0,072	-0,170
-153,906	-200,000	-0,022	-0,163
-152,891	-80,559	-0,063	0,015
-151,877	-200,000	-0,012	0,071
-150,862	142,365	-0,123	-0,116
-149,847	-141,124	-0,186	-0,013
-148,833	-200,000	-0,011	0,041
-147,818	111,039	-0,102	0,087
-146,804	409,389	0,045	0,067
-145,789	127,954	0,093	0,084
-144,775	512,325	-0,026	0,043
-143,760	-13,629	0,080	-0,037
-142,745	-105,466	0,053	0,008
-141,731	-109,490	0,129	-0,019
-140,716	-200,000	-0,020	0,074
-139,702	220,698	0,134	0,153
-138,687	106,484	-0,125	0,105
-137,672	321,810	0,107	0,144
-136,658	-200,000	-0,029	0,097
-135,643	-85,476	0,098	0,021
-134,629	71,988	0,114	0,084
-133,614	-107,906	-0,019	-0,003
-132,599	-200,000	0,039	0,142
-131,585	-200,000	-0,014	-0,067
-130,570	38,418	-0,083	-0,052
-129,556	209,416	-0,071	-0,078
-128,541	-90,266	-0,122	-0,025
-127,526	800,000	0,052	-0,106
-126,512	206,265	0,053	0,058
-125,497	800,000	0,033	0,098
-124,483	463,488	-0,042	-0,066
-123,468	-36,398	0,171	0,065
-122,453	-68,444	-0,145	-0,039
-121,439	194,105	-0,079	-0,084
-120,424	115,786	-0,113	0,098
-119,410	-74,063	-0,060	-0,015
-118,395	800,000	-0,036	-0,097
-117,380	433,194	0,063	0,098
-116,366	453,019	-0,045	-0,070
-115,351	3,817	0,068	-0,035
-114,337	-16,045	-0,196	-0,088
-113,322	101,941	-0,016	0,014
-112,307	554,969	0,077	0,131
-111,293	-200,000	0,006	0,159
-110,278	63,413	-0,005	0,003
-109,264	-88,707	0,085	0,018
-108,249	148,575	0,034	-0,033
-107,234	-139,025	-0,049	-0,004
-106,220	359,956	0,038	-0,054
-105,205	-158,135	-0,192	-0,008
-104,191	46,612	0,073	0,048
-103,176	-200,000	0,018	0,075
-102,162	-200,000	0,033	0,182
-101,147	290,007	0,058	0,075
-100,132	-119,154	0,056	0,007
-99,118	-200,000	-0,012	-0,104
-98,103	-141,315	0,016	-0,001
-97,089	-22,664	-0,062	-0,026
-96,074	-133,291	0,203	0,018
-95,059	87,903	0,059	-0,047
-94,045	-200,000	-0,011	-0,055
-93,030	-152,206	-0,074	-0,004
-92,016	-200,000	-0,045	0,149
-91,001	196,579	-0,024	0,026
-89,986	98,098	0,110	0,089
-88,972	8,299	-0,069	0,037
-87,957	188,630	-0,042	-0,044
-86,943	-200,000	0,004	0,143
-85,928	800,000	-0,065	-0,181
-84,913	362,647	-0,054	0,077
-83,899	-137,068	-0,116	0,009
-82,884	-200,000	-0,009	0,110
-81,870	-200,000	0,027	0,104
-80,855	800,000	0,048	0,144
-79,840	-24,330	-0,105	0,044
-78,826	74,170	0,033	-0,024
-77,811	800,000	-0,004	0,009
-76,797	68,562	0,103	-0,074
-75,782	800,000	0,020	-0,059
-74,767	-200,000	0,014	0,061
-73,753	800,000	-0,081	-0,167
-72,738	110,344	0,056	0,047
-71,724	105,838	-0,031	0,026
-70,709	-89,536	-0,203	0,042
-69,694	128,278	0,071	-0,064
-68,680	134,931	-0,067	0,062
-67,665	-200,000	-0,014	0,080
-66,651	674,549	0,047	0,086
-65,636	-98,631	0,108	-0,019
-64,622	-200,000	0,005	-0,059
-63,607	26,603	-0,116	0,068
-62,592	437,538	-0,063	-0,098
-61,578	-200,000	-0,014	-0,074
-60,563	174,355	-0,037	-0,038
-59,549	-49,637	0,030	0,010
-58,534	68,536	-1,863	-1,347
-57,519	705,437	-1,051	-1,968
-56,505	-200,000	-0,464	-4,425
-55,490	490,299	0,900	1,458
-54,476	800,000	5,143	11,214
-53,461	-200,000	21,688	343,834
-52,446	800,000	763,071	2342,843
-51,432	547,282	1662,375	2818,815
-50,417	71,528	1658,877	1214,506
-49,403	17,263	1532,352	855,851
-48,388	11,358	1455,919	784,630
-47,373	19,350	1447,834	818,558
-46,359	14,892	1436,588	790,998
-45,344	9,680	1432,471	763,909
-44,330	9,583	1430,845	762,548
-43,315	9,514	1428,975	761,196
-42,300	9,547	1427,232	760,393
-41,286	9,581	1425,930	759,828
-40,271	9,566	1424,592	759,016
-39,257	9,546	1423,478	758,298
-38,242	9,611	1422,356	757,976
-37,227	9,577	1421,295	757,222
-36,213	9,568	1420,155	756,544
-35,198	9,586	1418,851	755,903
-34,184	9,637	1417,865	755,587
-33,169	9,518	1416,397	754,214
-32,154	9,595	1415,512	754,077
-31,140	9,619	1414,240	753,481
-30,125	9,674	1412,994	753,047
-29,111	9,609	1411,718	752,029
-28,096	9,595	1410,933	751,517
-27,082	9,541	1409,541	750,493
-26,067	9,492	1408,636	749,751
-25,052	9,550	1407,540	749,410
-24,038	9,531	1406,472	748,721
-23,023	9,584	1405,434	748,389
-22,009	9,541	1404,277	747,542
-20,994	9,597	1403,332	747,271
-19,979	9,535	1402,573	746,546
-18,965	9,502	1401,673	745,885
-17,950	9,483	1400,666	745,231
-16,936	9,483	1399,918	744,800
-15,921	9,412	1398,942	743,922
-14,906	9,468	1397,984	743,643
-13,892	9,512	1396,874	743,231
-12,877	9,443	1396,454	742,657
-11,863	9,454	1395,508	742,173
-10,848	9,425	1394,609	741,530
-9,833	9,448	1393,554	741,046
-8,819	9,367	1392,666	740,174
-7,804	9,375	1391,946	739,796
-6,790	9,364	1390,750	739,079
-5,775	9,329	1389,746	738,357
-4,760	9,383	1388,669	738,004
-3,746	9,362	1387,882	737,459
-2,731	9,327	1387,119	736,862
-1,717	9,354	1386,223	736,481
-0,702	9,336	1384,503	735,455
0,313	13,375	1296,579	707,193
1,327	29,408	687,342	411,120
2,342	45,494	118,884	77,278
3,356	0,382	16,467	8,266
4,371	-4,052	3,693	1,799
5,386	31,444	1,102	0,666
6,400	-200,000	0,142	0,612
7,415	49,470	-0,169	-0,112
8,429	-72,763	-0,153	-0,039
9,444	20,975	-0,292	-0,166
10,459	-32,736	-0,368	-0,144
11,473	58,676	-0,280	-0,194
12,488	-63,399	-0,289	-0,083
13,502	216,825	-0,221	-0,249
14,517	-2,065	-0,256	-0,127
15,531	106,328	-0,289	-0,241
16,546	4,027	-0,320	-0,164
17,561	150,074	-0,354	-0,339
18,575	-200,000	-0,166	0,000
19,590	76,126	-0,305	-0,227
20,604	-53,291	-0,359	-0,115
21,619	81,725	-0,358	-0,273
22,634	125,925	-0,355	-0,316
23,648	24,765	-0,392	-0,228
24,663	94,207	-0,457	-0,365
25,677	153,886	-0,373	-0,360
26,692	324,843	-0,139	-0,187
27,707	67,779	-0,374	-0,269
28,721	120,179	-0,471	-0,411
29,736	0,608	-0,342	-0,172
30,750	-33,401	-0,570	-0,221
31,765	287,707	-0,263	-0,336
32,780	369,306	-0,233	-0,333
33,794	208,344	-0,277	-0,305
34,809	55,232	-0,295	-0,200
35,823	-27,873	-0,368	-0,149
36,838	-27,909	-0,345	-0,140
37,853	-59,259	-0,392	-0,118
38,867	-4,636	-0,400	-0,194
39,882	132,554	-0,276	-0,250
40,896	128,938	-0,357	-0,320
41,911	59,205	-0,287	-0,199
42,926	48,678	-0,341	-0,224
43,940	166,250	-0,346	-0,345
44,955	20,750	-0,432	-0,245
45,969	78,483	-0,362	-0,272
46,984	344,899	-0,191	-0,265
47,999	-9,411	-0,294	-0,138
49,013	19,641	-0,286	-0,161
50,028	149,920	-0,305	-0,291
51,042	69,735	-0,287	-0,208
52,057	-44,878	-0,370	-0,129
53,071	-86,451	-0,312	-0,067
54,086	-79,180	-0,364	-0,086
55,101	515,564	-0,230	-0,378
56,115	37,638	-0,322	-0,200
57,130	110,256	-0,308	-0,260
58,144	170,867	-0,268	-0,270
59,159	97,835	-0,467	-0,376
60,174	103,019	-0,291	-0,239
61,188	26,003	-0,489	-0,286
62,203	156,673	-0,237	-0,230
63,217	-14,903	-0,277	-0,124
64,232	-31,006	-0,375	-0,148
65,247	-24,493	-0,331	-0,138
66,261	124,265	-0,301	-0,265
67,276	214,214	-0,287	-0,319
68,290	55,075	-0,331	-0,224
69,305	22,185	-0,318	-0,182
70,320	184,921	-0,338	-0,352
71,334	-71,602	-0,361	-0,094
72,349	172,998	-0,223	-0,225
73,363	31,812	-0,327	-0,197
74,378	-3,787	-0,355	-0,172
75,393	-73,782	-0,196	-0,050
76,407	-158,077	-0,253	0,010
77,422	87,958	-0,264	-0,205
78,436	312,565	-0,127	-0,167
79,451	52,227	-0,334	-0,223
80,466	80,867	-0,326	-0,246
81,480	18,687	-0,327	-0,183
82,495	245,775	-0,259	-0,306
83,509	234,763	-0,214	-0,247
84,524	117,931	-0,195	-0,168
85,539	117,204	-0,314	-0,270
86,553	16,829	-0,242	-0,134
87,568	74,347	-0,254	-0,186
88,582	58,634	-0,252	-0,173
89,597	149,611	-0,178	-0,169
90,611	-110,671	-0,152	0,022
91,626	137,597	-0,238	-0,218
92,641	-18,134	-0,357	-0,156
93,655	-33,349	-0,332	-0,128
94,670	83,637	-0,411	-0,313
95,684	-47,932	-0,425	-0,143
96,699	38,087	-0,311	-0,193
97,714	207,874	-0,201	-0,220
98,728	44,367	-0,178	-0,114
99,743	127,450	-0,194	-0,172
100,757	-7,502	-0,258	-0,122
101,772	71,142	-0,317	-0,229
102,787	-37,228	-0,408	-0,152
103,801	159,774	-0,281	-0,274
104,816	-98,768	-0,305	-0,054
105,830	-53,217	-0,274	-0,088
106,845	-112,421	-0,328	-0,045
107,860	8,004	-0,221	-0,115
108,874	91,579	-0,147	-0,115
109,889	294,513	-0,173	-0,221
110,903	-11,888	-0,329	-0,150
111,918	35,338	-0,283	-0,173
112,933	79,744	-0,377	-0,282
113,947	121,495	-0,189	-0,165
114,962	111,630	-0,183	-0,154
115,976	581,387	-0,214	-0,368
116,991	120,253	-0,336	-0,291
118,006	160,336	-0,244	-0,237
119,020	196,190	-0,240	-0,255
120,035	-78,918	-0,310	-0,073
121,049	76,322	-0,248	-0,183
122,064	61,579	-0,240	-0,166
123,079	-79,981	-0,267	-0,062
124,093	37,660	-0,193	-0,119
125,108	133,351	-0,243	-0,219
126,122	45,365	-0,314	-0,202
127,137	-53,610	-0,296	-0,094
128,151	74,159	-0,288	-0,211
129,166	-50,380	-0,323	-0,106
130,181	39,701	-0,316	-0,197
131,195	56,286	-0,297	-0,201
132,210	147,749	-0,239	-0,225
133,224	56,640	-0,307	-0,208
134,239	41,107	-0,202	-0,127
135,254	295,703	-0,236	-0,302
136,268	-35,854	-0,288	-0,108
137,283	82,754	-0,313	-0,237
138,297	-78,245	-0,367	-0,087
139,312	28,430	-0,281	-0,165
140,327	-65,650	-0,212	-0,059
141,341	86,147	-0,256	-0,197
142,356	-56,786	-0,299	-0,091
143,370	141,890	-0,193	-0,178
144,385	-7,505	-0,269	-0,126
145,400	11,330	-0,316	-0,168
146,414	150,625	-0,272	-0,258
147,429	108,410	-0,115	-0,096
148,443	-19,206	-0,331	-0,142
149,458	-118,714	-0,172	-0,021
150,473	168,551	-0,218	-0,217
151,487	132,707	-0,260	-0,234
152,502	84,311	-0,232	-0,177
153,516	-137,840	-0,352	-0,027
154,531	124,635	-0,245	-0,215
155,546	114,764	-0,206	-0,175
156,560	-69,441	-0,374	-0,099
157,575	-4,503	-0,316	-0,151
158,589	65,256	-0,278	-0,195
159,604	329,902	-0,183	-0,245
160,619	6,773	-0,305	-0,157
161,633	37,915	-0,314	-0,194
162,648	471,722	-0,190	-0,298
163,662	162,336	-0,169	-0,165
164,677	-113,025	-0,241	0,033
165,692	-109,926	-0,301	0,043
166,706	65,563	-0,309	-0,217
167,721	43,497	-0,271	-0,172
168,735	705,044	-0,186	-0,343
169,750	40,321	-0,238	-0,149
170,764	23,751	-0,236	-0,135
171,779	-10,638	-0,225	-0,103
172,794	-45,706	-0,229	-0,078
173,808	25,958	-0,116	-0,067
174,823	116,635	-0,269	-0,229
175,837	29,420	-0,246	-0,145
176,852	187,722	-0,331	-0,343
177,867	800,000	-0,112	-0,301
178,881	-87,660	-0,146	0,030
179,896	-7,635	-0,208	-0,097
180,910	40,105	-0,197	-0,123
181,925	10,345	-0,169	-0,089
182,940	-0,610	-0,287	-0,141
183,954	-29,516	-0,353	-0,139
184,969	76,455	-0,176	-0,129
185,983	-200,000	-0,252	0,000
186,998	143,233	-0,238	-0,219
188,013	45,109	-0,318	-0,203
189,027	142,343	-0,279	-0,257
190,042	35,331	-0,255	-0,155
191,056	223,759	-0,212	-0,238
192,071	1,699	-0,224	-0,112
193,086	800,000	-0,058	-0,154
194,100	511,369	-0,183	-0,296
195,115	-12,153	-0,273	-0,123
196,129	49,070	-0,277	-0,180
197,144	84,585	-0,278	-0,211
198,159	302,813	-0,234	-0,301
199,173	132,515	-0,174	-0,156
200,188	176,286	-0,220	-0,222
201,202	-200,000	-0,076	-0,334
202,217	286,863	-0,196	-0,246
203,232	397,755	-0,183	-0,265
204,246	-183,305	-0,189	0,002
205,261	18,013	-0,198	-0,109
206,275	-96,899	-0,210	-0,038
207,290	-37,552	-0,213	-0,078
208,304	-115,124	-0,177	-0,023
209,319	-78,877	-0,222	-0,052
210,334	-166,348	-0,304	-0,009
211,348	533,863	-0,192	-0,317
212,363	124,179	-0,230	-0,200
213,377	67,504	-0,135	-0,095
214,392	55,896	-0,324	-0,217
215,407	270,965	-0,153	-0,186
216,421	114,812	-0,146	-0,123
217,436	207,484	-0,229	-0,247
218,450	49,215	-0,254	-0,165
219,465	22,186	-0,252	-0,142
220,480	159,824	-0,134	-0,129
221,494	62,482	-0,148	-0,102
222,509	10,231	-0,251	-0,132
223,523	75,125	-0,162	-0,118
224,538	265,207	-0,121	-0,146
225,553	21,954	-0,226	-0,127
226,567	47,581	-0,209	-0,134
227,582	11,619	-0,299	-0,158
228,596	-39,327	-0,214	-0,077
229,611	167,754	-0,192	-0,189
230,626	95,019	-0,178	-0,140
231,640	32,161	-0,152	-0,090
232,655	-97,380	-0,172	0,031
233,669	396,160	-0,192	-0,278
234,684	-105,459	-0,091	-0,014
235,699	69,736	-0,220	-0,157
236,713	-11,283	-0,295	-0,134
237,728	10,952	-0,188	-0,099
238,742	-75,920	-0,205	-0,050
239,757	30,478	-0,174	-0,102
240,772	105,555	-0,181	-0,148
241,786	153,709	-0,176	-0,167
242,801	9,558	-0,211	-0,110
243,815	3,755	-0,213	0,107
244,830	252,601	-0,171	-0,202
245,844	180,965	-0,249	-0,253
246,859	173,255	-0,184	-0,183
247,874	299,073	-0,176	-0,224
248,888	482,486	-0,092	-0,145
249,903	-200,000	-0,028	-0,130
250,917	47,270	-0,188	-0,121
251,932	313,686	-0,063	-0,082
252,947	-20,726	-0,262	-0,111
253,961	-200,000	-0,060	-0,272
254,976	-152,415	-0,218	-0,011
255,990	34,595	-0,276	-0,166
257,005	18,374	-0,183	-0,100
258,020	739,145	-0,118	-0,219
259,034	-166,291	-0,210	-0,006
260,049	47,026	-0,173	-0,111
261,063	800,000	-0,100	-0,195
262,078	60,078	-0,247	-0,168
263,093	293,005	-0,180	-0,227
264,107	97,176	-0,259	-0,205
265,122	-58,202	-0,211	-0,063
266,136	73,595	-0,244	-0,176
267,151	103,229	-0,144	-0,117
268,166	133,722	-0,207	-0,185
269,180	800,000	-0,097	-0,249
270,195	158,446	-0,199	-0,190
271,209	-15,320	-0,152	-0,067
272,224	-72,923	-0,127	0,032
273,239	188,127	-0,092	-0,095
274,253	28,676	-0,252	-0,147
275,268	132,843	-0,143	-0,127
276,282	75,485	-0,144	-0,104
277,297	475,298	-0,142	-0,222
278,312	244,099	-0,043	-0,050
279,326	218,794	-0,094	-0,103
280,341	199,153	-0,097	-0,103
281,355	160,621	-0,167	0,160
282,370	-78,598	-0,091	0,021
283,384	800,000	-0,151	-0,310
284,399	-27,057	-0,196	-0,078
285,414	800,000	-0,143	-0,288
286,428	-76,614	-0,198	-0,047
287,443	46,341	-0,251	-0,160
288,457	-120,138	-0,272	0,032
289,472	-104,774	-0,231	-0,036
290,487	-21,758	-0,168	-0,070
291,501	200,983	-0,162	-0,172
292,516	291,690	-0,143	-0,180
293,530	-198,426	-0,180	-0,001
294,545	410,472	-0,069	-0,100
295,560	-58,220	-0,185	-0,055
296,574	319,254	-0,117	-0,153
297,589	113,792	-0,129	-0,108
298,603	15,527	-0,168	-0,091
299,618	800,000	-0,082	-0,169
300,633	-200,000	0,037	-0,148
301,647	-200,000	-0,039	-0,174
302,662	-71,530	-0,168	-0,043
303,676	-28,118	-0,140	-0,055
304,691	130,197	-0,149	-0,131
305,706	-4,275	-0,210	-0,100
306,720	132,596	-0,148	-0,131
307,735	800,000	-0,093	-0,239
308,749	-114,312	-0,087	-0,011
309,764	242,838	-0,088	-0,101
310,779	240,150	-0,076	-0,087
311,793	-12,365	-0,282	-0,126
312,808	800,000	-0,039	-0,104
313,822	75,121	-0,163	-0,118
314,837	-44,271	-0,169	-0,058
315,852	486,689	-0,148	-0,233
316,866	-40,828	-0,180	-0,064
317,881	318,657	-0,097	-0,126
318,895	292,556	-0,148	-0,185
319,910	-80,643	-0,123	0,028
320,925	62,715	-0,194	-0,133
321,939	280,795	-0,138	-0,170
322,954	-42,610	-0,171	-0,059
323,968	303,382	-0,136	-0,173
324,983	151,601	-0,194	-0,181
325,997	14,932	-0,083	-0,044
327,012	19,234	-0,184	-0,101
328,027	20,002	-0,213	-0,117
329,041	800,000	-0,083	-0,182
330,056	-200,000	0,009	-0,109
331,070	-34,073	-0,138	0,052
332,085	23,105	-0,067	-0,037
333,100	-125,154	-0,256	-0,027
334,114	-59,546	-0,151	-0,044
335,129	106,808	-0,240	-0,195
336,143	800,000	-0,051	-0,109
337,158	194,758	-0,083	-0,086
338,173	66,550	-0,139	-0,096
339,187	552,836	-0,102	-0,169
340,202	-160,126	-0,143	-0,005
341,216	234,975	-0,145	-0,164
342,231	-200,000	-0,026	-0,235
343,246	48,955	-0,173	-0,111
344,260	12,212	-0,183	-0,096
345,275	-200,000	-0,026	-0,110
346,289	109,215	-0,146	-0,119
347,304	48,596	-0,045	0,029
348,319	347,986	-0,086	-0,117
349,333	125,594	-0,146	-0,126
350,348	120,500	-0,193	-0,164
351,362	-7,311	-0,278	-0,129
352,377	118,983	-0,113	-0,096
353,392	800,000	-0,064	-0,145
354,406	16,198	-0,147	-0,079
355,421	207,662	1311,491	1401,785
356,435	159,757	1471,787	1402,257
