DTS Sentinel unit serial number:	SN410029Multiplexer serial number:	ORYXHardware model number:	OX2-SRSoftware version number:	ORYX F/W v4,00 Oryx Data Collector v3.7.2.0data status	okinstallation	B3 Nyhavnadifferential loss correction	single-endedforward channel	channel 1reverse channel	N/Adate	2023/12/05time	00:47:30forward acquisition time	300,00reverse acquisition time	0,00gamma	499,1914k internal	0,3200k external	0,3200temperature offset calibration	1,0000default loss term (dB/km)	0,3820temperature slope calibration	1,0000multiplexer offset coefficient	1,0000multiplexer slope coefficient	1,0000fibre end	0,00T internal ref (°C)	13,81T ext. ref 1 (°C)	-1,21T ext. ref 2 (°C)	-1,23length (m)	temperature (°C)	Stokes	anti-Stokes-744,400	169,742	-0,258	-0,268
-743,385	-200,000	0,072	0,362
-742,371	-76,267	-0,177	-0,045
-741,356	-200,000	-0,005	0,170
-740,342	-142,607	-0,110	0,008
-739,327	-200,000	-0,045	0,215
-738,312	800,000	-0,101	-0,225
-737,298	-200,000	-0,081	0,352
-736,283	235,590	-0,166	-0,200
-735,269	800,000	-0,101	0,228
-734,254	147,405	-0,246	-0,241
-733,239	270,899	-0,160	0,206
-732,225	791,223	-0,105	-0,211
-731,210	-36,887	0,053	0,020
-730,196	-200,000	0,025	0,092
-729,181	-76,951	0,086	0,022
-728,167	-74,230	-0,148	0,039
-727,152	-145,844	0,062	-0,004
-726,137	32,703	-0,119	-0,075
-725,123	-200,000	-0,012	-0,091
-724,108	-87,593	-0,112	0,024
-723,094	-200,000	0,005	0,084
-722,079	-74,500	-0,084	-0,022
-721,064	800,000	0,003	0,008
-720,050	800,000	0,068	-0,145
-719,035	337,182	-0,044	-0,063
-718,021	81,158	-0,128	-0,100
-717,006	-200,000	0,001	-0,079
-715,991	800,000	-0,056	-0,171
-714,977	800,000	-0,060	-0,149
-713,962	-155,052	-0,064	-0,003
-712,948	28,312	0,074	-0,046
-711,933	-14,873	-0,196	-0,091
-710,918	-200,000	0,001	0,013
-709,904	553,271	-0,068	-0,119
-708,889	119,655	-0,120	-0,108
-707,875	-100,479	-0,091	0,016
-706,860	-84,916	-0,062	0,014
-705,845	161,074	0,053	0,054
-704,831	-38,006	0,107	0,041
-703,816	52,075	-0,072	-0,050
-702,802	-200,000	-0,023	-0,110
-701,787	131,101	0,045	0,042
-700,772	174,480	0,036	0,038
-699,758	-77,282	-0,052	-0,013
-698,743	-141,958	0,073	0,005
-697,729	153,348	-0,038	-0,038
-696,714	-40,978	0,072	-0,027
-695,699	319,982	0,100	0,138
-694,685	77,972	-0,116	0,089
-693,670	15,499	-0,029	-0,016
-692,656	-9,540	-0,030	-0,015
-691,641	146,554	-0,064	0,063
-690,627	-137,304	0,043	-0,004
-689,612	390,726	0,025	0,038
-688,597	86,175	0,063	-0,050
-687,583	23,144	0,041	-0,024
-686,568	57,354	-0,039	-0,028
-685,554	-46,055	0,155	-0,055
-684,539	13,691	-0,097	0,055
-683,524	-200,000	-0,003	0,030
-682,510	354,442	0,056	-0,081
-681,495	102,234	-0,031	0,026
-680,481	-200,000	0,007	0,024
-679,466	-180,051	0,045	0,001
-678,451	151,060	0,129	-0,127
-677,437	-154,994	-0,094	-0,004
-676,422	800,000	0,060	0,142
-675,408	-25,811	0,049	-0,021
-674,393	-51,897	0,103	-0,035
-673,378	-200,000	-0,021	-0,082
-672,364	-200,000	-0,011	-0,110
-671,349	-200,000	0,006	0,053
-670,335	-200,000	-0,029	-0,176
-669,320	-76,295	0,123	-0,031
-668,305	-200,000	-0,005	-0,090
-667,291	-144,218	0,098	0,007
-666,276	392,746	0,039	0,058
-665,262	757,902	-0,042	-0,084
-664,247	169,546	0,030	-0,031
-663,232	800,000	-0,023	0,066
-662,218	-138,346	0,161	-0,013
-661,203	-200,000	0,012	-0,069
-660,189	396,867	-0,074	0,113
-659,174	90,331	-0,170	-0,138
-658,159	161,893	-0,077	-0,078
-657,145	312,053	-0,030	0,040
-656,130	-59,604	-0,057	0,018
-655,116	294,354	0,071	0,094
-654,101	-117,209	-0,021	-0,003
-653,086	-34,618	-0,046	0,018
-652,072	179,334	-0,088	-0,094
-651,057	-200,000	0,022	-0,089
-650,043	-28,223	0,051	-0,021
-649,028	-200,000	-0,002	0,021
-648,014	800,000	-0,041	0,086
-646,999	-38,445	0,154	0,059
-645,984	800,000	-0,010	0,022
-644,970	-200,000	-0,008	0,068
-643,955	-27,670	-0,129	-0,054
-642,941	-200,000	-0,002	-0,196
-641,926	171,622	-0,028	0,029
-640,911	-200,000	0,000	0,141
-639,897	99,850	0,156	0,131
-638,882	105,667	-0,057	-0,049
-637,868	-200,000	-0,010	0,211
-636,853	-129,818	-0,057	0,006
-635,838	512,150	-0,058	-0,099
-634,824	-84,271	-0,067	0,015
-633,809	63,107	0,083	0,060
-632,795	422,041	0,018	0,029
-631,780	598,418	0,070	0,126
-630,765	-129,861	0,046	0,005
-629,751	-82,111	-0,161	0,038
-628,736	-158,109	-0,107	0,004
-627,722	-80,078	-0,062	-0,015
-626,707	339,286	0,019	0,027
-625,692	21,687	0,038	0,023
-624,678	-57,616	0,087	-0,027
-623,663	-16,906	0,134	0,061
-622,649	-112,884	-0,080	0,011
-621,634	-73,078	0,053	-0,014
-620,619	-9,324	0,080	-0,039
-619,605	800,000	0,029	-0,059
-618,590	-200,000	-0,004	0,078
-617,576	-66,040	-0,114	0,033
-616,561	177,633	-0,051	0,054
-615,546	800,000	0,009	0,027
-614,532	-15,620	0,026	-0,012
-613,517	27,090	-0,085	0,051
-612,503	121,575	0,121	-0,109
-611,488	171,747	0,070	-0,073
-610,474	-63,937	-0,124	0,037
-609,459	800,000	0,030	-0,076
-608,444	-200,000	0,011	-0,081
-607,430	-200,000	-0,014	0,095
-606,415	-16,380	-0,128	-0,058
-605,401	740,509	0,088	-0,172
-604,386	-27,993	-0,107	0,045
-603,371	160,468	0,108	0,109
-602,357	-95,304	0,091	-0,017
-601,342	70,320	-0,124	0,092
-600,328	287,675	-0,099	0,130
-599,313	-8,621	-0,097	-0,047
-598,298	243,204	-0,021	0,026
-597,284	-37,795	-0,094	-0,036
-596,269	-188,862	0,111	-0,001
-595,255	101,896	-0,058	0,049
-594,240	-103,072	0,037	-0,006
-593,225	403,651	0,027	-0,041
-592,211	-200,000	0,004	-0,079
-591,196	523,337	-0,059	0,101
-590,182	114,923	0,150	0,133
-589,167	-123,892	-0,011	0,001
-588,152	800,000	-0,041	0,097
-587,138	59,515	0,136	0,097
-586,123	800,000	0,078	-0,157
-585,109	-200,000	-0,003	0,036
-584,094	800,000	-0,023	0,063
-583,079	-200,000	0,022	0,088
-582,065	95,134	0,055	0,045
-581,050	-138,292	0,116	0,009
-580,036	19,114	-0,166	0,096
-579,021	187,666	-0,117	-0,126
-578,006	557,712	0,037	-0,064
-576,992	-200,000	0,009	-0,073
-575,977	237,305	-0,068	0,081
-574,963	52,899	0,087	0,060
-573,948	-136,924	0,082	0,007
-572,934	417,001	-0,100	0,155
-571,919	800,000	0,012	0,032
-570,904	70,204	-0,125	0,093
-569,890	800,000	-0,044	-0,115
-568,875	121,215	-0,039	0,035
-567,861	-200,000	0,003	-0,069
-566,846	-200,000	0,031	0,104
-565,831	-98,568	0,035	-0,006
-564,817	-25,287	-0,134	-0,057
-563,802	30,962	-0,132	-0,082
-562,788	558,007	-0,046	-0,080
-561,773	54,663	0,048	-0,033
-560,758	-200,000	-0,026	-0,119
-559,744	450,534	0,043	0,068
-558,729	190,119	-0,016	-0,017
-557,715	-200,000	-0,011	-0,228
-556,700	-200,000	-0,011	-0,180
-555,685	800,000	-0,076	-0,226
-554,671	359,217	0,075	0,109
-553,656	-200,000	-0,038	0,143
-552,642	304,945	-0,071	0,096
-551,627	-84,414	0,133	0,030
-550,612	-200,000	0,017	-0,058
-549,598	-200,000	-0,015	0,067
-548,583	800,000	-0,013	0,042
-547,569	5,219	-0,097	-0,052
-546,554	-175,522	0,143	0,003
-545,539	212,711	0,039	-0,044
-544,525	-200,000	0,015	-0,096
-543,510	-73,821	0,038	-0,010
-542,496	-74,477	-0,124	-0,032
-541,481	353,370	-0,038	0,054
-540,466	66,560	0,025	-0,018
-539,452	-200,000	-0,015	-0,050
-538,437	-80,351	0,116	0,028
-537,423	800,000	0,024	-0,049
-536,408	800,000	-0,040	0,082
-535,393	154,022	-0,009	-0,009
-534,379	17,459	0,085	-0,049
-533,364	4,701	-0,072	0,038
-532,350	-25,303	0,175	0,074
-531,335	-11,122	-0,050	0,024
-530,321	155,652	-0,065	-0,065
-529,306	-200,000	0,010	-0,095
-528,291	-78,961	-0,199	0,049
-527,277	137,546	-0,071	0,067
-526,262	163,315	-0,034	-0,034
-525,248	-119,740	0,030	0,004
-524,233	-166,786	0,065	0,002
-523,218	183,195	-0,021	-0,023
-522,204	-200,000	-0,013	-0,044
-521,189	-145,506	-0,083	-0,005
-520,175	119,362	0,078	-0,070
-519,160	800,000	-0,053	0,115
-518,145	-36,294	0,139	0,054
-517,131	-200,000	0,027	0,174
-516,116	219,443	-0,033	0,038
-515,102	-200,000	0,001	0,011
-514,087	366,786	-0,045	0,065
-513,072	116,761	-0,074	0,065
-512,058	-81,311	0,104	0,025
-511,043	800,000	0,099	0,208
-510,029	800,000	0,012	0,038
-509,014	-38,897	0,149	0,056
-507,999	-16,469	-0,023	-0,010
-506,985	-61,553	0,032	0,010
-505,970	16,654	-0,051	-0,029
-504,956	-200,000	0,003	0,074
-503,941	-81,886	0,033	0,008
-502,926	-106,519	-0,012	-0,002
-501,912	-200,000	0,021	-0,081
-500,897	66,346	0,117	0,086
-499,883	-200,000	0,022	0,096
-498,868	184,882	0,062	-0,067
-497,853	135,028	-0,098	-0,091
-496,839	479,769	0,068	-0,112
-495,824	800,000	0,095	-0,200
-494,810	264,112	-0,026	-0,033
-493,795	62,584	0,117	-0,084
-492,781	411,052	-0,022	-0,034
-491,766	-102,372	0,056	0,010
-490,751	-37,708	0,048	0,018
-489,737	37,449	-0,115	-0,073
-488,722	116,783	0,048	0,042
-487,708	131,486	0,071	0,066
-486,693	0,236	0,107	0,055
-485,678	800,000	0,034	-0,085
-484,664	800,000	-0,027	-0,064
-483,649	800,000	-0,044	0,097
-482,635	35,454	-0,096	0,060
-481,620	118,607	0,125	-0,111
-480,605	-200,000	-0,003	0,044
-479,591	72,889	0,051	0,038
-478,576	198,659	-0,069	-0,076
-477,562	438,246	0,062	-0,097
-476,547	-87,437	-0,055	-0,012
-475,532	-60,577	-0,040	-0,012
-474,518	72,673	0,098	0,073
-473,503	12,061	0,073	0,040
-472,489	217,065	0,120	0,138
-471,474	29,384	-0,104	0,063
-470,459	-200,000	-0,033	-0,158
-469,445	-200,000	0,002	-0,051
-468,430	269,621	0,046	0,059
-467,416	129,106	0,083	-0,076
-466,401	519,423	0,054	0,091
-465,386	788,737	0,044	0,088
-464,372	-145,910	-0,149	-0,009
-463,357	-2,045	-0,030	-0,015
-462,343	-200,000	-0,018	-0,105
-461,328	-200,000	0,033	-0,120
-460,313	-200,000	-0,013	-0,092
-459,299	800,000	0,022	-0,063
-458,284	207,851	0,076	-0,086
-457,270	-67,256	-0,048	-0,013
-456,255	-200,000	0,015	-0,053
-455,241	243,726	-0,081	-0,098
-454,226	800,000	-0,023	-0,046
-453,211	-36,066	0,033	0,013
-452,197	428,957	0,049	0,076
-451,182	47,567	0,109	0,073
-450,168	-32,354	0,066	0,026
-449,153	-200,000	-0,011	-0,062
-448,138	-157,936	-0,225	-0,009
-447,124	347,586	0,094	-0,134
-446,109	479,324	0,074	0,121
-445,095	15,557	-0,117	-0,066
-444,080	-200,000	0,000	-0,018
-443,065	-4,071	0,210	0,104
-442,051	57,489	-0,128	0,090
-441,036	-200,000	-0,020	-0,117
-440,022	220,133	-0,064	0,074
-439,007	-38,057	0,055	0,021
-437,992	-149,421	0,079	0,004
-436,978	-200,000	0,005	0,136
-435,963	21,217	-0,117	0,068
-434,949	800,000	0,025	0,061
-433,934	-112,154	-0,089	0,013
-432,919	-139,228	-0,141	-0,011
-431,905	573,296	-0,048	-0,084
-430,890	-200,000	0,000	0,124
-429,876	241,206	0,061	-0,073
-428,861	-105,741	0,041	0,007
-427,846	-200,000	-0,018	-0,070
-426,832	800,000	-0,054	-0,138
-425,817	398,539	0,081	-0,122
-424,803	122,151	-0,051	-0,046
-423,788	583,497	-0,057	0,100
-422,773	-200,000	0,040	0,139
-421,759	-200,000	-0,003	0,119
-420,744	-200,000	-0,014	0,062
-419,730	-28,501	0,092	-0,038
-418,715	-200,000	0,010	-0,057
-417,701	132,184	-0,003	0,003
-416,686	440,191	0,011	0,018
-415,671	46,221	0,024	-0,016
-414,657	116,556	0,044	-0,039
-413,642	490,531	-0,077	-0,126
-412,628	583,623	0,064	-0,113
-411,613	72,203	0,011	-0,009
-410,598	259,411	-0,057	-0,071
-409,584	-135,225	0,020	-0,002
-408,569	465,572	-0,011	-0,018
-407,555	9,696	-0,069	0,038
-406,540	-200,000	-0,025	0,102
-405,525	185,147	0,072	-0,077
-404,511	-119,187	-0,079	-0,010
-403,496	140,521	-0,095	0,090
-402,482	-81,789	0,065	0,015
-401,467	177,362	0,039	0,041
-400,452	-200,000	-0,004	0,143
-399,438	290,312	0,075	-0,098
-398,423	231,155	-0,024	0,028
-397,409	-53,926	0,016	0,005
-396,394	90,181	-0,064	-0,051
-395,379	-200,000	0,003	-0,075
-394,365	34,457	-0,126	-0,079
-393,350	800,000	-0,020	-0,062
-392,336	-79,049	0,078	-0,019
-391,321	-200,000	-0,003	-0,050
-390,306	-1,966	0,096	-0,048
-389,292	-111,609	-0,093	-0,013
-388,277	800,000	-0,028	-0,074
-387,263	-200,000	-0,014	0,119
-386,248	-94,297	0,099	0,019
-385,233	-38,632	-0,015	0,006
-384,219	13,380	-0,051	-0,029
-383,204	800,000	0,050	-0,153
-382,190	3,019	-0,105	-0,055
-381,175	91,756	0,085	-0,069
-380,160	-200,000	0,025	-0,180
-379,146	172,232	0,056	0,058
-378,131	359,150	-0,046	0,066
-377,117	23,715	-0,143	-0,084
-376,102	800,000	0,030	-0,084
-375,088	-200,000	-0,011	-0,137
-374,073	435,003	-0,020	-0,031
-373,058	570,717	0,037	0,065
-372,044	6,134	0,090	0,048
-371,029	-51,183	0,017	0,006
-370,015	506,490	-0,105	0,176
-369,000	18,037	-0,042	0,024
-367,985	-200,000	0,045	-0,206
-366,971	146,424	0,052	-0,050
-365,956	-200,000	0,024	0,077
-364,942	405,193	0,051	-0,077
-363,927	800,000	0,055	-0,112
-362,912	-16,605	0,038	0,017
-361,898	-200,000	0,005	-0,129
-360,883	81,075	-0,143	0,111
-359,869	19,978	0,059	0,034
-358,854	-61,799	-0,050	-0,015
-357,839	-59,483	0,116	-0,036
-356,825	378,947	0,058	0,086
-355,810	-119,409	-0,070	0,009
-354,796	369,475	-0,077	0,112
-353,781	-58,253	-0,042	0,013
-352,766	701,269	0,074	-0,141
-351,752	186,579	0,056	-0,060
-350,737	249,792	0,101	0,122
-349,723	-200,000	-0,030	0,115
-348,708	24,995	-0,089	0,053
-347,693	-5,068	0,045	0,022
-346,679	173,200	-0,078	-0,080
-345,664	-28,176	-0,063	0,026
-344,650	409,853	-0,037	0,057
-343,635	63,741	-0,014	0,010
-342,620	378,149	0,021	0,030
-341,606	800,000	0,019	0,046
-340,591	-20,962	-0,091	-0,040
-339,577	800,000	-0,004	0,011
-338,562	800,000	-0,026	-0,052
-337,548	221,201	0,126	-0,145
-336,533	28,072	0,147	0,088
-335,518	33,244	0,031	0,019
-334,504	-76,096	0,096	0,024
-333,489	-110,196	-0,062	0,009
-332,475	-102,683	0,023	-0,004
-331,460	-200,000	-0,039	0,197
-330,445	291,443	-0,067	0,088
-329,431	339,045	0,065	0,090
-328,416	604,107	0,006	-0,010
-327,402	-200,000	0,006	0,074
-326,387	-200,000	0,014	-0,236
-325,372	225,659	0,039	-0,045
-324,358	295,051	-0,030	-0,039
-323,343	-200,000	-0,026	0,101
-322,329	-88,935	0,278	-0,059
-321,314	800,000	-0,053	0,112
-320,299	-59,485	0,091	0,028
-319,285	718,782	0,008	-0,016
-318,270	-200,000	0,020	-0,073
-317,256	97,584	-0,091	-0,075
-316,241	800,000	-0,103	0,211
-315,226	147,513	-0,064	-0,062
-314,212	-200,000	0,009	0,039
-313,197	-200,000	-0,014	-0,167
-312,183	-185,132	0,017	-0,000
-311,168	-62,597	-0,027	-0,008
-310,153	8,125	-0,023	-0,012
-309,139	-200,000	-0,016	-0,153
-308,124	277,963	-0,098	-0,125
-307,110	-86,850	0,060	0,013
-306,095	-200,000	-0,019	-0,121
-305,080	-200,000	0,003	0,064
-304,066	800,000	-0,014	0,044
-303,051	-200,000	-0,006	0,070
-302,037	-200,000	0,029	-0,107
-301,022	238,587	0,041	0,049
-300,008	53,195	-0,038	-0,026
-298,993	157,735	-0,028	-0,028
-297,978	-199,202	0,095	0,000
-296,964	-200,000	-0,006	0,035
-295,949	-200,000	-0,026	0,090
-294,935	800,000	-0,038	0,092
-293,920	-135,755	-0,140	0,012
-292,905	-62,257	0,103	-0,031
-291,891	-200,000	-0,010	-0,046
-290,876	-134,440	-0,179	0,015
-289,862	-7,157	-0,077	-0,037
-288,847	-25,441	-0,075	-0,032
-287,832	394,785	0,017	-0,025
-286,818	-200,000	0,009	-0,064
-285,803	-200,000	0,001	0,029
-284,789	-200,000	-0,011	0,079
-283,774	-200,000	0,022	-0,111
-282,759	146,023	0,033	-0,032
-281,745	21,568	0,023	-0,013
-280,730	-84,350	0,135	-0,030
-279,716	-54,974	0,036	-0,011
-278,701	462,768	0,014	-0,023
-277,686	-61,110	0,088	-0,026
-276,672	179,350	0,110	0,115
-275,657	-200,000	0,090	0,000
-274,643	800,000	0,038	-0,102
-273,628	-200,000	-0,048	-0,246
-272,613	-200,000	-0,025	-0,098
-271,599	-200,000	0,014	0,051
-270,584	800,000	0,038	0,094
-269,570	102,634	0,041	0,034
-268,555	800,000	0,019	-0,043
-267,540	28,234	-0,088	-0,053
-266,526	800,000	-0,045	-0,092
-265,511	75,893	0,023	0,018
-264,497	-200,000	0,014	0,134
-263,482	800,000	0,023	0,066
-262,467	800,000	-0,017	0,051
-261,453	-146,660	-0,040	-0,002
-260,438	4,144	-0,070	-0,037
-259,424	-200,000	0,010	-0,131
-258,409	-4,494	0,104	0,051
-257,395	9,801	-0,084	0,045
-256,380	262,218	0,016	-0,020
-255,365	342,731	-0,036	0,051
-254,351	157,869	0,070	0,069
-253,336	146,782	-0,016	-0,015
-252,322	257,863	-0,065	0,080
-251,307	402,026	-0,046	-0,069
-250,292	-98,316	-0,068	0,012
-249,278	800,000	0,022	0,051
-248,263	138,755	0,107	0,100
-247,249	495,734	-0,022	-0,036
-246,234	536,845	-0,081	-0,138
-245,219	261,070	0,011	0,013
-244,205	-200,000	0,011	-0,058
-243,190	-200,000	0,002	-0,071
-242,176	506,492	0,054	0,089
-241,161	34,961	0,145	0,090
-240,146	800,000	-0,015	0,045
-239,132	-200,000	-0,016	0,082
-238,117	-62,553	-0,129	-0,038
-237,103	-200,000	0,006	-0,080
-236,088	459,169	-0,033	-0,053
-235,073	2,795	0,085	0,044
-234,059	-22,472	-0,038	-0,016
-233,044	556,150	-0,060	0,103
-232,030	31,665	-0,056	0,035
-231,015	800,000	0,007	0,019
-230,000	137,406	-0,057	-0,053
-228,986	800,000	-0,021	0,049
-227,971	489,098	0,046	0,076
-226,957	-200,000	-0,009	0,055
-225,942	191,763	0,096	0,103
-224,927	59,743	-0,050	-0,035
-223,913	800,000	-0,048	-0,112
-222,898	800,000	0,016	-0,042
-221,884	88,088	-0,075	-0,060
-220,869	800,000	0,004	0,012
-219,855	-200,000	0,017	0,082
-218,840	-64,265	-0,080	-0,023
-217,825	-35,233	-0,084	-0,032
-216,811	-200,000	-0,016	0,079
-215,796	287,184	0,027	-0,035
-214,782	-200,000	-0,024	-0,236
-213,767	-149,907	0,005	0,000
-212,752	800,000	-0,023	-0,059
-211,738	800,000	-0,032	0,087
-210,723	-78,038	0,119	-0,029
-209,709	30,769	0,070	-0,043
-208,694	-42,388	-0,042	0,015
-207,679	-136,427	-0,154	-0,013
-206,665	164,103	0,071	0,071
-205,650	102,590	-0,032	0,027
-204,636	748,682	-0,057	0,110
-203,621	-200,000	-0,020	-0,089
-202,606	800,000	-0,019	0,041
-201,592	-63,031	-0,012	-0,003
-200,577	413,369	-0,046	-0,069
-199,563	-66,371	-0,021	-0,006
-198,548	230,641	-0,056	0,065
-197,533	-47,786	-0,020	0,007
-196,519	-125,755	0,024	-0,003
-195,504	111,382	0,117	-0,101
-194,490	130,089	-0,115	-0,105
-193,475	-200,000	-0,012	-0,143
-192,460	-127,387	0,041	0,004
-191,446	171,651	0,048	0,049
-190,431	67,836	-0,006	0,004
-189,417	414,608	-0,049	0,075
-188,402	93,798	-0,073	0,059
-187,387	54,982	0,120	-0,082
-186,373	262,465	0,017	-0,022
-185,358	-95,216	-0,094	-0,018
-184,344	93,296	0,048	0,038
-183,329	800,000	0,034	0,071
-182,315	317,199	0,119	0,161
-181,300	26,350	-0,089	-0,053
-180,285	-200,000	-0,002	-0,039
-179,271	422,783	-0,065	-0,100
-178,256	-32,129	0,123	0,049
-177,242	-200,000	-0,024	0,143
-176,227	-200,000	-0,038	0,146
-175,212	248,514	0,083	0,100
-174,198	166,927	0,029	0,030
-173,183	800,000	-0,046	-0,094
-172,169	-200,000	-0,001	-0,046
-171,154	-122,170	-0,077	-0,009
-170,139	-200,000	-0,028	0,143
-169,125	51,090	0,089	0,060
-168,110	800,000	0,017	0,037
-167,096	-101,095	-0,079	0,014
-166,081	285,867	0,011	0,014
-165,066	302,257	-0,087	-0,115
-164,052	-200,000	0,004	-0,061
-163,037	68,535	-0,034	0,024
-162,023	-111,524	0,021	0,003
-161,008	434,688	-0,040	0,061
-159,993	-57,110	0,058	-0,018
-158,979	256,733	-0,046	-0,056
-157,964	468,581	-0,064	-0,103
-156,950	800,000	0,032	0,084
-155,935	52,492	-0,029	-0,020
-154,920	-25,091	0,138	0,058
-153,906	64,714	0,072	0,052
-152,891	-200,000	-0,013	0,046
-151,877	37,915	0,029	-0,018
-150,862	486,009	-0,035	-0,057
-149,847	-119,917	0,055	-0,007
-148,833	303,856	-0,089	0,118
-147,818	-200,000	-0,008	-0,090
-146,804	258,533	-0,042	-0,051
-145,789	-200,000	0,026	0,098
-144,775	442,500	-0,093	0,145
-143,760	800,000	-0,038	-0,081
-142,745	-30,839	-0,159	-0,064
-141,731	-105,886	-0,079	-0,013
-140,716	-128,313	-0,022	0,002
-139,702	-69,851	-0,037	0,010
-138,687	-54,691	-0,111	0,035
-137,672	-100,684	-0,042	-0,007
-136,658	-200,000	-0,036	-0,132
-135,643	-200,000	-0,020	0,084
-134,629	539,710	0,047	0,079
-133,614	-144,467	0,089	0,006
-132,599	-200,000	-0,049	0,187
-131,585	800,000	0,058	0,145
-130,570	412,941	0,035	-0,053
-129,556	222,102	-0,060	-0,069
-128,541	-127,867	0,047	-0,005
-127,526	4,073	0,069	-0,036
-126,512	30,439	0,207	-0,126
-125,497	800,000	-0,005	-0,013
-124,483	800,000	0,063	0,126
-123,468	-46,801	0,022	0,007
-122,453	215,454	0,046	0,052
-121,439	73,352	-0,097	-0,072
-120,424	23,720	0,065	-0,038
-119,410	150,749	0,080	-0,078
-118,395	189,180	-0,029	0,031
-117,380	142,306	0,025	0,023
-116,366	-200,000	-0,018	-0,066
-115,351	800,000	-0,011	-0,030
-114,337	116,343	0,057	0,050
-113,322	221,546	-0,047	0,054
-112,307	39,894	0,033	0,021
-111,293	800,000	0,051	0,105
-110,278	-67,664	-0,062	-0,017
-109,264	800,000	0,036	-0,107
-108,249	433,742	0,065	-0,100
-107,234	-44,142	0,079	-0,028
-106,220	601,527	0,039	-0,070
-105,205	74,966	-0,074	0,055
-104,191	-24,333	-0,119	-0,050
-103,176	11,794	0,060	0,033
-102,162	-129,306	-0,136	0,013
-101,147	150,551	0,023	-0,022
-100,132	452,985	-0,022	-0,035
-99,118	505,229	-0,064	-0,106
-98,103	800,000	-0,029	0,063
-97,089	43,390	0,119	0,077
-96,074	203,814	0,140	0,154
-95,059	288,791	0,016	-0,021
-94,045	-19,417	-0,135	-0,059
-93,030	-138,346	-0,146	0,011
-92,016	-200,000	-0,014	-0,157
-91,001	-92,725	0,015	0,003
-89,986	-200,000	-0,013	-0,051
-88,972	33,752	0,082	0,050
-87,957	-81,726	-0,125	0,029
-86,943	20,726	-0,047	-0,027
-85,928	800,000	-0,079	-0,186
-84,913	800,000	-0,048	-0,131
-83,899	272,051	-0,023	0,029
-82,884	345,984	-0,038	0,053
-81,870	800,000	0,033	0,088
-80,855	800,000	0,045	0,139
-79,840	-136,927	-0,052	0,004
-78,826	-58,861	0,042	0,013
-77,811	800,000	-0,031	-0,063
-76,797	-200,000	0,040	-0,199
-75,782	-25,919	0,080	-0,033
-74,767	-200,000	0,014	0,103
-73,753	142,168	0,076	0,071
-72,738	-57,020	-0,156	-0,049
-71,724	159,021	0,080	-0,079
-70,709	255,184	-0,078	-0,095
-69,694	178,109	0,066	-0,068
-68,680	-159,502	-0,052	-0,002
-67,665	157,076	0,064	0,063
-66,651	-200,000	0,017	0,114
-65,636	-200,000	-0,036	0,120
-64,622	774,546	0,014	0,028
-63,607	87,987	0,122	-0,096
-62,592	-136,040	-0,158	-0,013
-61,578	37,020	0,037	-0,023
-60,563	-71,674	0,113	-0,030
-59,549	372,387	0,058	0,083
-58,534	-26,873	-1,615	-0,665
-57,519	361,662	-1,371	-1,953
-56,505	-200,000	-0,455	-4,644
-55,490	183,989	1,080	1,133
-54,476	800,000	4,951	11,579
-53,461	-200,000	18,899	313,827
-52,446	-200,000	739,412	2325,831
-51,432	575,013	1655,555	2873,343
-50,417	79,054	1671,669	1266,609
-49,403	21,839	1544,288	888,823
-48,388	15,711	1467,062	814,569
-47,373	17,871	1456,950	819,365
-46,359	16,857	1446,957	808,847
-45,344	13,971	1442,611	792,552
-44,330	13,876	1440,673	790,998
-43,315	13,862	1438,916	789,936
-42,300	13,891	1437,202	789,101
-41,286	13,919	1435,769	788,420
-40,271	13,909	1434,373	787,572
-39,257	13,841	1433,441	786,707
-38,242	13,876	1432,231	786,176
-37,227	13,907	1430,834	785,528
-36,213	13,959	1429,567	785,047
-35,198	13,966	1428,350	784,383
-34,184	13,924	1427,568	783,722
-33,169	13,884	1426,277	782,790
-32,154	13,956	1424,929	782,363
-31,140	13,953	1423,889	781,747
-30,125	13,988	1422,902	781,340
-29,111	13,962	1421,471	780,397
-28,096	13,908	1420,596	779,635
-27,082	13,841	1419,568	778,722
-26,067	13,833	1418,280	777,948
-25,052	13,829	1417,265	777,341
-24,038	13,839	1416,007	776,666
-23,023	13,799	1415,343	776,082
-22,009	13,810	1414,253	775,507
-20,994	13,770	1413,339	774,784
-19,979	13,792	1412,537	774,416
-18,965	13,720	1411,742	773,615
-17,950	13,761	1410,670	773,190
-16,936	13,784	1409,590	772,676
-15,921	13,771	1408,706	772,099
-14,906	13,738	1407,857	771,446
-13,892	13,775	1406,694	770,951
-12,877	13,788	1405,587	770,376
-11,863	13,769	1404,899	769,878
-10,848	13,727	1404,161	769,249
-9,833	13,690	1403,320	768,585
-8,819	13,674	1402,342	767,946
-7,804	13,642	1401,651	767,387
-6,790	13,616	1400,543	766,628
-5,775	13,664	1399,422	766,208
-4,760	13,638	1398,399	765,495
-3,746	13,653	1397,412	764,996
-2,731	13,645	1396,746	764,565
-1,717	13,612	1395,974	763,955
-0,702	13,640	1394,006	762,978
0,313	17,352	1311,439	735,041
1,327	33,358	705,476	432,493
2,342	51,459	123,730	83,056
3,356	0,777	16,763	8,465
4,371	5,085	3,288	1,708
5,386	34,227	0,704	0,433
6,400	-200,000	-0,034	0,156
7,415	800,000	-0,111	-0,230
8,429	163,184	-0,158	-0,158
9,444	92,283	-0,308	-0,245
10,459	232,237	-0,220	-0,256
11,473	-39,438	-0,277	-0,102
12,488	-66,772	-0,272	-0,076
13,502	45,071	-0,377	-0,245
14,517	-63,967	-0,311	-0,089
15,531	62,390	-0,395	-0,278
16,546	134,481	-0,343	-0,314
17,561	58,300	-0,440	-0,304
18,575	18,279	-0,232	-0,131
19,590	123,682	-0,308	-0,273
20,604	96,651	-0,222	-0,179
21,619	195,073	-0,410	-0,441
22,634	149,617	-0,361	-0,346
23,648	98,979	-0,482	-0,393
24,663	78,178	-0,301	-0,226
25,677	299,367	-0,210	-0,274
26,692	-8,966	-0,349	-0,164
27,707	-48,348	-0,443	-0,150
28,721	120,616	-0,386	-0,339
29,736	39,742	-0,438	-0,277
30,750	-56,413	-0,458	-0,143
31,765	52,347	-0,360	-0,242
32,780	-11,133	-0,435	-0,201
33,794	3,739	-0,333	-0,171
34,809	-41,433	-0,270	-0,098
35,823	-11,772	-0,408	-0,188
36,838	-14,855	-0,464	-0,209
37,853	297,464	-0,310	-0,402
38,867	49,491	-0,342	-0,227
39,882	40,665	-0,356	-0,226
40,896	-40,777	-0,272	-0,099
41,911	28,154	-0,270	-0,160
42,926	35,523	-0,393	-0,243
43,940	199,838	-0,331	-0,358
44,955	28,834	-0,404	-0,241
45,969	103,142	-0,445	-0,367
46,984	193,742	-0,214	-0,229
47,999	800,000	-0,146	-0,335
49,013	657,695	-0,157	-0,285
50,028	-2,381	-0,328	-0,161
51,042	158,485	-0,331	-0,324
52,057	-17,485	-0,452	-0,200
53,071	207,963	-0,221	-0,244
54,086	509,773	-0,204	-0,335
55,101	23,518	-0,354	-0,205
56,115	-22,818	-0,419	-0,177
57,130	123,025	-0,303	-0,267
58,144	58,449	-0,378	-0,261
59,159	223,361	-0,238	-0,270
60,174	-28,625	-0,531	-0,214
61,188	-12,283	-0,298	-0,137
62,203	-54,782	-0,365	-0,115
63,217	70,088	-0,249	-0,181
64,232	21,833	-0,417	-0,239
65,247	50,086	-0,350	-0,232
66,261	-23,076	-0,439	-0,185
67,276	56,151	-0,326	-0,223
68,290	418,063	-0,191	-0,288
69,305	-2,636	-0,323	-0,158
70,320	-5,401	-0,307	-0,148
71,334	41,882	-0,282	-0,180
72,349	95,226	-0,281	-0,225
73,363	134,244	-0,366	-0,334
74,378	209,339	-0,171	-0,188
75,393	-0,625	-0,254	-0,126
76,407	-55,495	-0,334	-0,104
77,422	3,204	-0,391	-0,199
78,436	143,902	-0,265	-0,249
79,451	56,301	-0,291	-0,199
80,466	128,870	-0,301	-0,270
81,480	54,097	-0,284	-0,191
82,495	24,089	-0,402	-0,232
83,509	-1,851	-0,270	-0,133
84,524	125,877	-0,251	-0,223
85,539	-108,553	-0,275	-0,041
86,553	-55,629	-0,305	-0,095
87,568	-13,900	-0,372	-0,168
88,582	151,174	-0,328	-0,314
89,597	104,839	-0,299	-0,248
90,611	11,068	-0,319	-0,171
91,626	28,110	-0,237	-0,140
92,641	-152,068	-0,274	-0,014
93,655	52,063	-0,298	-0,199
94,670	50,600	-0,346	-0,230
95,684	102,091	-0,398	-0,326
96,699	317,904	-0,187	-0,249
97,714	154,955	-0,227	-0,220
98,728	-167,852	-0,186	0,005
99,743	57,028	-0,307	-0,209
100,757	198,499	-0,240	-0,258
101,772	66,947	-0,300	-0,214
102,787	130,497	-0,303	-0,272
103,801	-29,281	-0,333	-0,133
104,816	117,606	-0,275	-0,237
105,830	-30,111	-0,259	-0,103
106,845	-2,060	-0,317	-0,155
107,860	163,621	-0,274	-0,270
108,874	-77,192	-0,358	-0,087
109,889	245,337	-0,238	-0,281
110,903	51,138	-0,293	-0,195
111,918	203,023	-0,277	-0,300
112,933	221,462	-0,117	-0,132
113,947	193,553	-0,120	-0,127
114,962	94,659	-0,214	-0,170
115,976	-38,533	-0,392	-0,144
116,991	56,258	-0,307	-0,208
118,006	556,534	-0,167	-0,284
119,020	-116,495	-0,232	0,030
120,035	-152,656	-0,273	0,013
121,049	31,409	-0,232	-0,139
122,064	-53,687	-0,125	-0,040
123,079	255,496	-0,142	-0,171
124,093	146,433	-0,257	-0,241
125,108	153,367	-0,257	-0,246
126,122	800,000	-0,155	-0,310
127,137	105,246	-0,185	-0,153
128,151	-119,051	-0,038	-0,005
129,166	75,191	-0,275	-0,203
130,181	91,198	-0,209	-0,164
131,195	29,752	-0,352	-0,209
132,210	148,509	-0,227	-0,215
133,224	54,797	-0,250	-0,168
134,239	-79,194	-0,266	-0,063
135,254	18,965	-0,273	-0,153
136,268	76,530	-0,227	-0,168
137,283	800,000	-0,097	-0,216
138,297	10,848	-0,382	-0,203
139,312	27,126	-0,366	-0,214
140,327	16,771	-0,312	-0,172
141,341	326,493	-0,211	-0,283
142,356	337,185	-0,178	-0,242
143,370	-89,758	-0,218	-0,044
144,385	413,062	-0,118	-0,176
145,400	267,945	-0,191	-0,235
146,414	27,816	-0,236	-0,139
147,429	206,533	-0,239	-0,260
148,443	298,078	-0,145	-0,187
149,458	-1,304	-0,296	-0,145
150,473	295,328	-0,169	-0,217
151,487	72,372	-0,201	-0,146
152,502	142,165	-0,245	-0,227
153,516	-149,819	-0,360	-0,019
154,531	30,744	-0,339	-0,202
155,546	169,158	-0,249	-0,249
156,560	121,895	-0,173	-0,151
157,575	-20,960	-0,151	-0,064
158,589	10,983	-0,331	-0,176
159,604	-43,905	-0,338	-0,118
160,619	319,279	-0,213	-0,283
161,633	45,458	-0,253	-0,163
162,648	36,820	-0,351	-0,216
163,662	752,058	-0,065	-0,123
164,677	-62,088	-0,251	-0,073
165,692	169,425	-0,173	-0,173
166,706	53,492	-0,214	-0,143
167,721	-16,325	-0,275	-0,121
168,735	502,220	-0,168	-0,271
169,750	173,237	-0,234	-0,236
170,764	800,000	-0,070	-0,174
171,779	-76,668	-0,214	-0,052
172,794	127,847	-0,150	-0,133
173,808	376,065	-0,094	-0,134
174,823	186,259	-0,044	-0,046
175,837	-3,781	-0,357	-0,172
176,852	39,852	-0,251	-0,157
177,867	-78,470	-0,269	-0,064
178,881	800,000	-0,122	-0,320
179,896	-73,851	-0,290	-0,073
180,910	118,053	-0,177	-0,152
181,925	524,131	-0,203	-0,333
182,940	236,853	-0,223	-0,258
183,954	43,455	-0,296	-0,188
184,969	692,126	-0,119	-0,218
185,983	109,425	-0,135	-0,112
186,998	-39,835	-0,239	-0,086
188,013	-93,924	-0,169	-0,032
189,027	196,403	-0,169	-0,180
190,042	64,365	-0,234	-0,164
191,056	72,478	-0,326	-0,237
192,071	-104,446	-0,198	-0,031
193,086	-167,696	-0,225	0,006
194,100	-45,533	-0,219	-0,075
195,115	12,294	-0,247	-0,132
196,129	105,826	-0,185	-0,152
197,144	239,992	-0,151	-0,175
198,159	-58,749	-0,161	-0,048
199,173	329,359	-0,181	-0,242
200,188	257,441	-0,155	-0,186
201,202	-100,512	-0,238	-0,040
202,217	800,000	-0,158	-0,323
203,232	800,000	-0,085	-0,195
204,246	43,785	-0,231	-0,147
205,261	-43,093	-0,273	-0,096
206,275	43,503	-0,134	-0,085
207,290	-200,000	-0,033	-0,206
208,304	-122,548	-0,216	-0,024
209,319	-80,750	-0,242	0,056
210,334	148,332	-0,171	-0,160
211,348	114,419	-0,104	-0,088
212,363	304,872	-0,236	-0,305
213,377	-76,977	-0,230	-0,055
214,392	-126,185	-0,151	-0,016
215,407	-41,992	-0,178	-0,063
216,421	-146,344	-0,228	-0,014
217,436	-126,017	-0,206	-0,021
218,450	800,000	-0,134	-0,270
219,465	800,000	-0,146	-0,310
220,480	308,874	-0,172	-0,223
221,494	-110,663	-0,241	-0,034
222,509	42,364	-0,174	-0,110
223,523	38,823	-0,169	-0,105
224,538	16,781	-0,204	-0,112
225,553	472,032	-0,128	-0,200
226,567	82,862	-0,213	-0,161
227,582	90,673	-0,225	-0,175
228,596	-90,464	-0,156	-0,031
229,611	41,021	-0,179	-0,112
230,626	15,217	-0,148	-0,080
231,640	-89,254	-0,146	-0,030
232,655	-91,329	-0,288	-0,057
233,669	223,427	-0,171	-0,192
234,684	-3,569	-0,265	-0,127
235,699	2,807	-0,160	-0,080
236,713	107,702	-0,080	-0,066
237,728	-85,288	-0,114	-0,024
238,742	16,838	-0,187	-0,103
239,757	500,181	-0,163	-0,262
240,772	122,805	-0,218	-0,189
241,786	800,000	-0,116	-0,325
242,801	21,219	-0,235	-0,132
243,815	746,551	-0,127	-0,237
244,830	800,000	-0,068	-0,204
245,844	327,236	-0,108	-0,143
246,859	194,229	-0,241	-0,253
247,874	800,000	-0,092	-0,182
248,888	10,235	-0,175	-0,092
249,903	-200,000	-0,074	-0,230
250,917	-1,311	-0,136	-0,066
251,932	793,199	-0,063	-0,120
252,947	12,485	-0,146	-0,078
253,961	-63,863	-0,244	-0,069
254,976	798,237	-0,093	-0,179
255,990	26,108	-0,175	-0,101
257,005	319,702	-0,147	-0,194
258,020	-20,113	-0,170	-0,072
259,034	71,404	-0,178	-0,127
260,049	-94,994	-0,187	-0,035
261,063	-173,504	-0,225	-0,005
262,078	171,809	-0,151	-0,150
263,093	147,133	-0,202	-0,188
264,107	-6,527	-0,182	0,085
265,122	-200,000	-0,054	-0,191
266,136	-24,811	-0,268	-0,109
267,151	115,730	-0,162	-0,137
268,166	83,704	-0,279	-0,210
269,180	391,287	-0,079	-0,114
270,195	-101,816	-0,264	-0,044
271,209	-7,733	-0,287	-0,133
272,224	-20,013	-0,190	-0,081
273,239	234,085	-0,160	-0,182
274,253	52,559	-0,195	-0,129
275,268	190,037	-0,082	-0,085
276,282	220,679	-0,151	-0,167
277,297	25,075	-0,267	-0,153
278,312	108,527	-0,156	-0,129
279,326	159,130	-0,068	-0,066
280,341	131,248	-0,131	-0,117
281,355	28,735	-0,269	-0,157
282,370	666,364	-0,086	-0,155
283,384	250,347	-0,190	-0,224
284,399	-11,654	-0,158	-0,072
285,414	40,075	-0,256	-0,158
286,428	-63,619	-0,194	-0,055
287,443	-16,503	-0,120	-0,052
288,457	132,497	-0,184	-0,164
289,472	449,403	-0,109	-0,166
290,487	33,849	-0,165	-0,099
291,501	104,431	-0,177	-0,144
292,516	-200,000	-0,038	-0,154
293,530	-42,954	-0,104	-0,036
294,545	-200,000	-0,014	-0,088
295,560	312,293	-0,084	-0,109
296,574	160,333	-0,077	-0,074
297,589	310,335	-0,114	-0,147
298,603	87,587	-0,193	-0,147
299,618	6,928	-0,165	-0,085
300,633	800,000	-0,084	-0,178
301,647	223,093	-0,010	0,011
302,662	800,000	-0,098	-0,221
303,676	-63,772	-0,072	-0,020
304,691	-36,636	-0,178	-0,066
305,706	800,000	-0,037	-0,090
306,720	-43,460	-0,106	-0,037
307,735	-21,965	-0,093	-0,039
308,749	171,975	-0,177	-0,176
309,764	47,647	-0,161	-0,103
310,779	-119,659	-0,100	-0,012
311,793	800,000	-0,090	-0,182
312,808	68,987	-0,148	-0,104
313,822	-91,146	-0,158	-0,031
314,837	201,473	-0,155	-0,165
315,852	800,000	-0,020	-0,061
316,866	5,623	-0,189	-0,096
317,881	443,182	-0,082	-0,124
318,895	-52,637	-0,178	-0,056
319,910	193,641	-0,153	-0,159
320,925	183,238	-0,165	-0,168
321,939	211,703	-0,074	-0,080
322,954	-200,000	-0,007	-0,028
323,968	189,878	-0,159	-0,165
324,983	-200,000	-0,029	-0,103
325,997	-66,016	-0,256	-0,070
327,012	191,387	-0,195	-0,202
328,027	88,470	-0,175	-0,134
329,041	2,996	-0,142	-0,071
330,056	187,789	-0,149	-0,153
331,070	800,000	0,059	-0,140
332,085	-62,781	-0,129	-0,036
333,100	-142,015	-0,206	-0,014
334,114	73,990	-0,195	-0,140
335,129	212,505	-0,112	-0,122
336,143	319,342	-0,040	-0,052
337,158	-148,023	-0,081	0,005
338,173	-84,715	-0,083	-0,018
339,187	666,034	-0,079	-0,140
340,202	-200,000	-0,033	-0,230
341,216	-3,206	-0,172	-0,082
342,231	-200,000	-0,018	-0,230
343,246	-200,000	-0,055	-0,354
344,260	60,558	-0,101	-0,069
345,275	-200,000	-0,016	-0,215
346,289	-10,395	-0,101	-0,046
347,304	25,514	-0,135	-0,077
348,319	-5,215	-0,159	-0,075
349,333	15,106	-0,161	-0,087
350,348	19,443	-0,134	-0,074
351,362	13,406	-0,218	-0,116
352,377	112,013	-0,046	-0,038
353,392	-7,332	-0,048	-0,022
354,406	14,177	-0,116	0,062
355,421	206,926	1317,515	1410,741
356,435	159,156	1478,578	1411,227
