DTS Sentinel unit serial number:	SN410029Multiplexer serial number:	ORYXHardware model number:	OX2-SRSoftware version number:	ORYX F/W v4,00 Oryx Data Collector v3.7.2.0data status	okinstallation	B3 Nyhavnadifferential loss correction	single-endedforward channel	channel 1reverse channel	N/Adate	2023/12/03time	08:27:30forward acquisition time	300,00reverse acquisition time	0,00gamma	499,1914k internal	0,3200k external	0,3200temperature offset calibration	1,0000default loss term (dB/km)	0,3820temperature slope calibration	1,0000multiplexer offset coefficient	1,0000multiplexer slope coefficient	1,0000fibre end	0,00T internal ref (°C)	13,32T ext. ref 1 (°C)	-1,69T ext. ref 2 (°C)	-1,70length (m)	temperature (°C)	Stokes	anti-Stokes-744,400	100,022	-0,170	-0,143
-743,385	-200,000	-0,094	0,382
-742,371	800,000	-0,041	-0,124
-741,356	-200,000	0,009	0,185
-740,342	793,851	-0,121	-0,243
-739,327	-200,000	0,030	0,217
-738,312	425,679	-0,100	-0,157
-737,298	237,704	-0,138	0,167
-736,283	464,847	-0,142	-0,231
-735,269	-200,000	0,029	0,340
-734,254	-71,347	-0,281	-0,076
-733,239	-200,000	-0,031	0,125
-732,225	-200,000	-0,002	-0,179
-731,210	-64,393	0,033	-0,010
-730,196	800,000	-0,029	0,080
-729,181	-126,627	0,093	0,010
-728,167	-69,143	0,110	-0,031
-727,152	800,000	0,020	-0,044
-726,137	-122,101	-0,123	-0,014
-725,123	800,000	-0,024	0,050
-724,108	800,000	-0,047	-0,113
-723,094	-200,000	-0,024	-0,124
-722,079	67,884	-0,121	0,090
-721,064	-200,000	0,013	-0,110
-720,050	-89,565	0,055	-0,012
-719,035	37,424	-0,087	-0,056
-718,021	-48,219	-0,074	0,026
-717,006	800,000	-0,042	-0,085
-715,991	119,954	0,097	-0,087
-714,977	94,976	-0,075	-0,062
-713,962	800,000	-0,048	0,105
-712,948	70,153	0,059	0,044
-711,933	800,000	0,019	-0,058
-710,918	-33,045	-0,199	-0,080
-709,904	-200,000	0,023	-0,134
-708,889	365,470	-0,107	-0,157
-707,875	-200,000	-0,002	-0,116
-706,860	152,230	-0,054	-0,054
-705,845	45,450	-0,101	0,068
-704,831	267,210	0,027	-0,035
-703,816	15,453	-0,096	0,055
-702,802	-200,000	0,000	0,008
-701,787	-200,000	0,011	-0,069
-700,772	-48,779	-0,073	-0,025
-699,758	800,000	-0,010	-0,020
-698,743	622,665	0,093	0,170
-697,729	-108,295	0,057	-0,009
-696,714	-200,000	0,011	-0,069
-695,699	181,757	0,051	-0,055
-694,685	245,843	-0,030	0,036
-693,670	800,000	-0,048	-0,115
-692,656	-200,000	-0,012	0,113
-691,641	296,085	0,047	0,063
-690,627	-200,000	-0,012	0,067
-689,612	800,000	-0,025	0,053
-688,597	-74,885	0,059	-0,015
-687,583	800,000	-0,073	-0,152
-686,568	5,503	-0,059	-0,031
-685,554	800,000	-0,054	-0,112
-684,539	-64,892	-0,115	0,034
-683,524	39,551	-0,047	0,030
-682,510	-130,196	0,039	-0,004
-681,495	184,167	-0,060	0,064
-680,481	-7,573	0,101	-0,050
-679,466	800,000	0,016	-0,045
-678,451	-142,891	-0,080	-0,006
-677,437	-200,000	-0,001	0,060
-676,422	431,534	0,094	-0,149
-675,408	537,032	0,052	-0,090
-674,393	292,096	-0,076	-0,100
-673,378	76,251	-0,216	-0,166
-672,364	-200,000	-0,012	-0,063
-671,349	-17,366	0,066	-0,030
-670,335	-87,371	-0,086	0,019
-669,320	249,027	-0,022	-0,027
-668,305	170,569	-0,035	-0,037
-667,291	-88,054	0,125	-0,027
-666,276	760,029	-0,063	0,124
-665,262	-11,248	-0,100	0,048
-664,247	-76,139	-0,157	0,040
-663,232	630,651	0,111	0,204
-662,218	-68,590	0,125	-0,035
-661,203	-200,000	-0,006	-0,025
-660,189	800,000	-0,037	0,094
-659,174	-200,000	-0,011	-0,069
-658,159	135,216	-0,077	-0,073
-657,145	162,433	-0,098	-0,100
-656,130	137,681	0,062	-0,059
-655,116	707,297	0,048	0,092
-654,101	-114,993	0,097	-0,013
-653,086	-7,602	-0,037	-0,018
-652,072	203,095	-0,022	-0,025
-651,057	93,594	0,049	-0,040
-650,043	-148,700	-0,109	-0,006
-649,028	800,000	-0,055	0,163
-648,014	344,461	0,099	0,142
-646,999	-87,647	-0,065	-0,014
-645,984	-13,636	0,062	-0,029
-644,970	-182,890	-0,077	-0,001
-643,955	-200,000	-0,021	-0,084
-642,941	-16,900	0,117	0,053
-641,926	-132,126	0,100	0,009
-640,911	-200,000	-0,025	-0,144
-639,897	800,000	0,020	-0,050
-638,882	133,340	0,031	0,029
-637,868	189,203	0,148	-0,161
-636,853	-110,382	-0,156	-0,023
-635,838	800,000	-0,022	-0,059
-634,824	-105,865	0,086	0,014
-633,809	49,514	0,084	0,057
-632,795	-200,000	-0,036	0,144
-631,780	-44,865	0,077	0,028
-630,765	7,036	-0,078	0,042
-629,751	-170,667	-0,258	0,006
-628,736	-24,740	-0,082	-0,035
-627,722	-80,169	-0,164	-0,039
-626,707	-68,395	0,084	-0,023
-625,692	181,397	-0,062	0,066
-624,678	73,326	0,090	-0,068
-623,663	-34,283	-0,061	-0,024
-622,649	412,148	-0,063	-0,097
-621,634	638,881	-0,049	-0,091
-620,619	356,080	0,126	-0,182
-619,605	800,000	0,021	0,050
-618,590	-53,066	0,030	0,010
-617,576	-200,000	-0,022	0,154
-616,561	-120,914	0,028	0,003
-615,546	19,403	-0,048	-0,028
-614,532	351,241	-0,033	0,047
-613,517	449,728	-0,094	-0,151
-612,503	-98,631	0,135	-0,025
-611,488	76,954	-0,138	-0,106
-610,474	800,000	-0,027	0,060
-609,459	-120,885	0,252	-0,030
-608,444	247,139	-0,127	-0,155
-607,430	-142,973	-0,065	-0,004
-606,415	800,000	0,030	0,094
-605,401	-200,000	-0,011	0,048
-604,386	-69,549	0,111	0,031
-603,371	-200,000	0,000	0,110
-602,357	216,508	-0,067	-0,078
-601,342	288,796	-0,116	-0,152
-600,328	-200,000	0,028	-0,098
-599,313	-200,000	-0,004	-0,119
-598,298	-200,000	-0,003	0,010
-597,284	-59,376	-0,105	0,033
-596,269	-146,487	0,023	-0,001
-595,255	66,957	0,139	-0,102
-594,240	-94,640	0,149	-0,029
-593,225	396,848	-0,026	0,039
-592,211	-98,624	-0,058	0,011
-591,196	-147,669	-0,147	0,009
-590,182	122,014	-0,007	-0,006
-589,167	-90,568	-0,062	0,013
-588,152	27,538	0,060	0,036
-587,138	157,205	-0,005	0,005
-586,123	-200,000	0,028	-0,110
-585,109	-50,084	-0,109	-0,037
-584,094	-200,000	-0,012	-0,040
-583,079	-170,545	0,059	0,001
-582,065	-200,000	-0,005	0,045
-581,050	-200,000	0,010	0,121
-580,036	381,192	0,035	0,053
-579,021	522,228	-0,094	-0,161
-578,006	-18,618	-0,161	-0,072
-576,992	800,000	0,027	0,058
-575,977	13,347	-0,117	0,065
-574,963	590,531	0,050	-0,090
-573,948	196,355	-0,058	0,064
-572,934	227,540	0,035	-0,041
-571,919	-200,000	0,030	-0,142
-570,904	41,970	-0,055	-0,036
-569,890	82,945	-0,094	-0,073
-568,875	147,219	-0,068	-0,066
-567,861	-200,000	0,001	0,045
-566,846	-77,801	-0,056	-0,014
-565,831	-200,000	-0,003	-0,049
-564,817	-187,601	-0,133	-0,001
-563,802	35,788	-0,064	0,041
-562,788	-82,463	-0,049	-0,011
-561,773	-200,000	-0,010	0,041
-560,758	-134,675	-0,120	0,010
-559,744	-92,410	0,101	0,020
-558,729	-120,926	0,125	-0,015
-557,715	1,036	-0,245	-0,127
-556,700	-168,008	0,072	-0,002
-555,685	58,393	-0,025	-0,018
-554,671	1,135	-0,014	-0,007
-553,656	-129,718	0,042	-0,004
-552,642	-36,539	0,107	-0,042
-551,627	-200,000	-0,023	0,121
-550,612	-77,910	-0,084	-0,021
-549,598	119,577	-0,047	-0,042
-548,583	-200,000	-0,013	0,085
-547,569	-28,530	0,062	-0,026
-546,554	-200,000	-0,009	0,032
-545,539	-60,656	-0,080	0,024
-544,525	13,202	0,070	0,039
-543,510	381,962	-0,010	-0,014
-542,496	414,017	0,064	0,098
-541,481	145,466	-0,030	-0,029
-540,466	-164,506	0,082	-0,003
-539,452	-200,000	0,021	0,089
-538,437	166,144	-0,100	0,102
-537,423	46,155	-0,031	0,021
-536,408	153,382	0,055	0,055
-535,393	800,000	0,004	0,009
-534,379	616,939	-0,048	-0,088
-533,364	-55,673	0,061	0,020
-532,350	-200,000	0,017	-0,155
-531,335	86,701	0,043	0,034
-530,321	298,095	-0,074	0,099
-529,306	800,000	0,044	0,101
-528,291	-113,110	-0,032	-0,004
-527,277	800,000	-0,126	-0,294
-526,262	800,000	0,021	-0,058
-525,248	800,000	0,071	0,194
-524,233	227,896	0,041	0,048
-523,218	542,762	-0,082	0,142
-522,204	188,306	0,061	-0,066
-521,189	96,037	-0,086	-0,071
-520,175	270,905	0,023	-0,029
-519,160	283,956	0,101	-0,132
-518,145	-200,000	0,027	0,133
-517,131	657,848	0,064	0,119
-516,116	54,363	0,111	-0,077
-515,102	41,122	0,043	-0,028
-514,087	-132,464	-0,094	0,009
-513,072	-200,000	0,030	-0,096
-512,058	223,760	-0,077	-0,090
-511,043	58,988	0,076	-0,054
-510,029	-200,000	0,005	0,115
-509,014	-200,000	0,001	-0,033
-507,999	-26,050	-0,098	-0,041
-506,985	-90,077	0,054	-0,011
-505,970	263,400	-0,039	-0,049
-504,956	-200,000	-0,006	-0,161
-503,941	-200,000	0,013	0,062
-502,926	65,228	0,043	-0,031
-501,912	800,000	0,045	0,125
-500,897	-200,000	-0,008	0,080
-499,883	88,287	0,008	0,006
-498,868	-200,000	-0,019	0,153
-497,853	-1,393	-0,021	0,010
-496,839	127,364	0,078	0,072
-495,824	-200,000	0,023	0,107
-494,810	-200,000	-0,030	0,152
-493,795	-117,863	-0,118	-0,015
-492,781	5,248	0,061	-0,032
-491,766	-157,559	-0,113	-0,005
-490,751	166,989	0,019	0,019
-489,737	-100,603	-0,065	-0,011
-488,722	-26,828	0,021	-0,009
-487,708	-93,480	0,092	-0,018
-486,693	-156,785	0,057	0,002
-485,678	24,515	0,064	0,038
-484,664	-200,000	0,012	0,051
-483,649	63,477	-0,083	-0,060
-482,635	-200,000	0,029	0,101
-481,620	-31,247	-0,088	-0,036
-480,605	800,000	-0,067	0,184
-479,591	517,520	0,030	-0,050
-478,576	-93,184	0,047	-0,009
-477,562	-200,000	0,012	-0,042
-476,547	-77,646	-0,127	0,031
-475,532	-106,963	-0,109	-0,017
-474,518	495,894	0,024	-0,041
-473,503	407,350	0,059	0,091
-472,489	-200,000	-0,016	0,073
-471,474	24,701	0,104	0,062
-470,459	800,000	-0,045	-0,093
-469,445	315,272	-0,023	-0,031
-468,430	800,000	-0,070	-0,149
-467,416	-145,731	0,047	-0,003
-466,401	800,000	0,020	0,044
-465,386	-200,000	0,010	0,092
-464,372	-28,795	-0,135	0,056
-463,357	-8,086	-0,095	-0,046
-462,343	-200,000	0,024	-0,139
-461,328	800,000	-0,050	-0,131
-460,313	-200,000	-0,026	0,092
-459,299	-200,000	0,004	-0,087
-458,284	-200,000	0,009	-0,038
-457,270	-4,677	0,159	-0,079
-456,255	800,000	-0,021	0,046
-455,241	800,000	0,019	-0,049
-454,226	253,698	-0,056	-0,070
-453,211	-200,000	-0,014	0,099
-452,197	-60,475	0,086	-0,026
-451,182	-200,000	0,002	-0,059
-450,168	-109,576	-0,052	0,008
-449,153	56,569	-0,085	0,060
-448,138	145,438	-0,083	-0,080
-447,124	305,600	-0,018	-0,024
-446,109	800,000	-0,072	0,144
-445,095	-130,286	0,054	0,005
-444,080	-200,000	0,018	-0,068
-443,065	310,855	0,061	0,082
-442,051	-200,000	-0,013	0,065
-441,036	86,790	-0,051	0,040
-440,022	-101,580	0,193	-0,033
-439,007	-55,293	0,070	-0,023
-437,992	40,346	-0,055	-0,035
-436,978	-192,397	0,157	0,001
-435,963	-140,047	-0,065	0,005
-434,949	800,000	0,039	-0,081
-433,934	-31,905	-0,188	-0,075
-432,919	-61,334	-0,112	-0,034
-431,905	252,747	0,103	0,126
-430,890	48,856	-0,047	0,032
-429,876	35,126	0,098	0,062
-428,861	-200,000	0,040	-0,146
-427,846	-57,416	0,023	-0,007
-426,832	77,903	0,035	0,027
-425,817	137,061	-0,162	-0,152
-424,803	559,633	0,032	-0,055
-423,788	71,381	0,026	0,019
-422,773	116,334	0,053	-0,047
-421,759	-7,709	0,106	0,051
-420,744	412,414	-0,036	0,054
-419,730	308,423	-0,052	-0,070
-418,715	-200,000	0,007	0,059
-417,701	-200,000	-0,011	0,034
-416,686	-100,056	0,078	-0,014
-415,671	184,372	0,024	-0,025
-414,657	-69,193	-0,022	0,006
-413,642	-200,000	0,010	0,039
-412,628	328,120	-0,041	0,057
-411,613	381,699	0,064	-0,094
-410,598	-200,000	-0,020	-0,067
-409,584	800,000	0,042	-0,106
-408,569	-19,436	0,111	-0,049
-407,555	-200,000	0,016	0,080
-406,540	-200,000	-0,010	-0,051
-405,525	518,996	-0,051	0,087
-404,511	-135,805	-0,085	0,007
-403,496	229,562	-0,059	0,070
-402,482	-200,000	0,048	0,178
-401,467	96,357	-0,042	0,034
-400,452	435,338	0,119	0,187
-399,438	738,584	0,061	0,118
-398,423	800,000	0,043	0,134
-397,409	-200,000	-0,025	-0,132
-396,394	196,409	-0,069	0,075
-395,379	-200,000	0,019	-0,085
-394,365	800,000	0,076	0,163
-393,350	207,518	-0,026	0,029
-392,336	-129,132	-0,114	0,011
-391,321	-200,000	-0,014	0,109
-390,306	-200,000	-0,002	0,050
-389,292	-151,496	-0,101	-0,005
-388,277	-200,000	-0,009	-0,065
-387,263	153,668	0,058	0,057
-386,248	-200,000	-0,036	0,158
-385,233	-51,003	0,035	-0,012
-384,219	-64,871	-0,129	-0,037
-383,204	800,000	-0,028	-0,072
-382,190	-115,207	-0,055	0,007
-381,175	94,011	-0,020	-0,016
-380,160	-200,000	0,044	0,191
-379,146	-6,392	-0,060	-0,029
-378,131	-200,000	0,027	0,135
-377,117	-129,993	-0,089	0,009
-376,102	5,739	0,118	-0,062
-375,088	90,404	-0,078	0,062
-374,073	-17,950	0,068	-0,030
-373,058	-97,756	-0,042	-0,008
-372,044	136,721	0,049	0,046
-371,029	-34,998	0,138	-0,054
-370,015	571,073	0,053	-0,093
-369,000	-20,774	-0,113	-0,049
-367,985	800,000	-0,026	-0,061
-366,971	-23,859	0,083	-0,035
-365,956	800,000	0,028	0,085
-364,942	800,000	0,033	0,086
-363,927	558,726	0,119	0,206
-362,912	523,808	-0,018	0,030
-361,898	-200,000	0,037	-0,171
-360,883	800,000	-0,015	-0,034
-359,869	12,543	0,083	-0,046
-358,854	800,000	0,053	-0,138
-357,839	-200,000	0,002	0,077
-356,825	-29,320	0,007	-0,003
-355,810	100,555	0,056	-0,046
-354,796	-200,000	-0,020	-0,086
-353,781	-147,904	-0,096	-0,006
-352,766	94,937	-0,146	-0,119
-351,752	99,956	-0,033	0,027
-350,737	800,000	0,092	0,234
-349,723	26,334	-0,034	-0,020
-348,708	-200,000	-0,005	0,064
-347,693	-200,000	-0,017	-0,071
-346,679	-63,091	0,015	-0,004
-345,664	-125,188	0,049	-0,005
-344,650	-23,598	0,098	-0,042
-343,635	399,979	-0,056	-0,084
-342,620	-126,557	0,098	-0,010
-341,606	-200,000	0,004	0,016
-340,591	335,349	-0,028	-0,039
-339,577	-200,000	-0,014	0,093
-338,562	-68,810	-0,081	-0,022
-337,548	-200,000	0,021	-0,120
-336,533	296,256	0,059	-0,078
-335,518	-15,113	0,103	0,047
-334,504	800,000	0,026	0,054
-333,489	800,000	0,036	0,073
-332,475	360,830	-0,094	0,135
-331,460	413,240	-0,090	-0,138
-330,445	8,142	-0,097	-0,052
-329,431	229,148	0,124	-0,145
-328,416	309,758	0,102	-0,137
-327,402	452,531	0,043	0,068
-326,387	800,000	-0,052	-0,154
-325,372	96,419	-0,074	0,061
-324,358	370,787	-0,067	0,098
-323,343	389,648	0,086	-0,127
-322,329	-158,695	0,016	-0,001
-321,314	-86,855	0,113	0,024
-320,299	-104,735	-0,058	0,009
-319,285	-33,155	0,144	-0,057
-318,270	-87,066	-0,142	-0,031
-317,256	-200,000	-0,006	-0,069
-316,241	-200,000	-0,029	-0,145
-315,226	485,521	-0,064	-0,105
-314,212	563,662	0,039	0,068
-313,197	278,707	-0,038	-0,048
-312,183	800,000	0,023	-0,050
-311,168	290,537	0,073	-0,095
-310,153	23,338	-0,078	-0,045
-309,139	800,000	0,061	-0,176
-308,124	-200,000	0,006	0,174
-307,110	-99,785	0,228	-0,040
-306,095	-200,000	0,045	0,190
-305,080	-200,000	0,003	0,165
-304,066	67,241	0,052	-0,038
-303,051	718,668	-0,041	-0,078
-302,037	800,000	-0,068	-0,172
-301,022	800,000	0,063	-0,140
-300,008	-166,673	0,097	-0,003
-298,993	642,348	-0,071	0,131
-297,978	-79,037	-0,027	-0,006
-296,964	61,494	-0,039	0,028
-295,949	-178,773	-0,128	0,002
-294,935	-200,000	0,015	-0,126
-293,920	-65,376	-0,158	-0,045
-292,905	512,073	0,076	0,126
-291,891	547,271	0,085	0,146
-290,876	12,509	-0,028	-0,015
-289,862	-30,571	0,063	0,026
-288,847	-8,291	-0,030	-0,014
-287,832	223,704	-0,079	0,091
-286,818	-105,247	0,082	0,013
-285,803	112,195	0,057	0,049
-284,789	-200,000	-0,005	0,052
-283,774	157,154	0,077	0,076
-282,759	543,518	0,029	-0,049
-281,745	14,359	-0,087	-0,049
-280,730	-200,000	-0,008	0,067
-279,716	-200,000	0,005	-0,182
-278,701	138,281	0,107	-0,100
-277,686	-88,336	0,123	0,026
-276,672	278,321	-0,042	-0,053
-275,657	151,629	0,089	-0,087
-274,643	28,520	-0,069	-0,042
-273,628	-40,326	-0,163	-0,060
-272,613	-200,000	-0,003	-0,069
-271,599	-179,641	0,122	-0,002
-270,584	289,402	0,075	0,097
-269,570	-200,000	-0,001	0,134
-268,555	186,722	-0,108	0,116
-267,540	108,892	0,166	-0,142
-266,526	94,356	-0,066	0,053
-265,511	314,602	-0,013	0,017
-264,497	-98,434	-0,112	0,020
-263,482	800,000	0,031	-0,074
-262,467	-155,614	0,154	-0,007
-261,453	617,410	0,078	-0,141
-260,438	800,000	-0,035	0,099
-259,424	156,190	-0,044	-0,044
-258,409	-200,000	0,025	0,134
-257,395	-200,000	-0,018	0,116
-256,380	224,707	0,148	-0,171
-255,365	-33,839	0,100	0,039
-254,351	-36,332	-0,104	-0,040
-253,336	336,764	0,018	0,025
-252,322	21,752	-0,068	0,039
-251,307	28,681	-0,033	0,020
-250,292	287,668	-0,081	0,105
-249,278	-102,515	0,161	0,027
-248,263	219,793	0,065	0,075
-247,249	-169,268	0,134	0,003
-246,234	-200,000	0,010	-0,060
-245,219	45,528	-0,012	-0,008
-244,205	-200,000	0,004	-0,054
-243,190	268,070	-0,095	-0,118
-242,176	-200,000	0,009	0,071
-241,161	297,707	0,090	0,119
-240,146	411,082	0,017	0,025
-239,132	-81,098	0,031	-0,007
-238,117	-130,755	-0,160	-0,015
-237,103	207,776	0,049	0,054
-236,088	-70,872	-0,085	-0,023
-235,073	792,000	-0,023	-0,045
-234,059	800,000	0,039	0,108
-233,044	-97,907	-0,122	0,022
-232,030	43,136	0,144	-0,094
-231,015	-40,739	-0,086	-0,031
-230,000	-200,000	-0,026	-0,213
-228,986	-4,765	0,011	0,005
-227,971	292,774	-0,022	-0,029
-226,957	147,353	0,062	0,060
-225,942	145,690	-0,034	0,033
-224,927	69,159	0,038	-0,028
-223,913	-200,000	-0,033	-0,117
-222,898	395,728	-0,017	0,026
-221,884	465,320	0,076	-0,122
-220,869	-132,460	0,082	-0,007
-219,855	-122,594	0,078	0,009
-218,840	39,624	0,027	0,017
-217,825	800,000	-0,047	0,119
-216,811	-77,197	-0,057	-0,014
-215,796	-136,930	-0,216	-0,017
-214,782	-200,000	0,005	-0,030
-213,767	217,993	0,101	-0,115
-212,752	-93,430	0,130	0,025
-211,738	-200,000	-0,024	0,178
-210,723	800,000	0,039	-0,117
-209,709	235,418	-0,123	0,145
-208,694	323,682	-0,098	-0,133
-207,679	71,680	0,083	0,061
-206,665	-53,088	-0,107	0,035
-205,650	-200,000	-0,039	-0,186
-204,636	-46,706	0,164	0,057
-203,621	-200,000	0,024	0,201
-202,606	-200,000	0,010	0,081
-201,592	36,120	-0,083	0,052
-200,577	-200,000	-0,004	0,050
-199,563	-170,117	0,068	0,002
-198,548	-200,000	-0,003	-0,044
-197,533	-200,000	0,016	0,072
-196,519	-200,000	0,003	0,137
-195,504	314,465	-0,048	0,065
-194,490	-200,000	-0,001	-0,035
-193,475	-200,000	-0,003	-0,046
-192,460	-200,000	-0,003	-0,045
-191,446	105,977	0,065	0,055
-190,431	-200,000	0,005	0,074
-189,417	118,075	-0,085	0,074
-188,402	36,093	0,083	-0,052
-187,387	-115,868	0,054	0,007
-186,373	140,292	-0,113	0,106
-185,358	-163,467	-0,109	0,004
-184,344	-45,878	0,134	0,047
-183,329	621,502	0,023	0,041
-182,315	-200,000	0,004	0,049
-181,300	-91,297	-0,055	-0,011
-180,285	85,918	-0,056	0,044
-179,271	-69,837	-0,134	-0,036
-178,256	-200,000	0,028	0,117
-177,242	-200,000	0,015	0,048
-176,227	-57,711	0,111	0,034
-175,212	-200,000	0,012	-0,071
-174,198	-200,000	-0,017	-0,056
-173,183	800,000	0,046	-0,102
-172,169	509,025	-0,009	0,015
-171,154	-200,000	0,007	-0,033
-170,139	-159,906	-0,082	0,003
-169,125	438,580	0,021	0,033
-168,110	-110,763	0,103	0,015
-167,096	-200,000	-0,014	0,062
-166,081	184,830	-0,068	-0,072
-165,066	62,719	-0,102	-0,072
-164,052	-200,000	0,012	-0,153
-163,037	92,308	0,078	0,063
-162,023	-200,000	0,014	0,176
-161,008	29,119	0,083	-0,050
-159,993	93,788	0,037	0,029
-158,979	-200,000	0,009	0,040
-157,964	-200,000	-0,002	-0,082
-156,950	-200,000	0,001	0,090
-155,935	100,179	-0,044	0,036
-154,920	-3,237	0,003	0,002
-153,906	800,000	0,029	0,060
-152,891	-200,000	-0,010	0,065
-151,877	-200,000	0,002	0,085
-150,862	-200,000	-0,020	-0,080
-149,847	800,000	0,059	-0,121
-148,833	800,000	0,048	-0,114
-147,818	171,319	0,054	-0,055
-146,804	-0,626	-0,013	0,006
-145,789	133,642	-0,112	-0,103
-144,775	438,297	0,054	-0,084
-143,760	-9,132	-0,041	-0,019
-142,745	93,417	0,031	-0,025
-141,731	-200,000	0,028	0,147
-140,716	-101,308	0,098	0,017
-139,702	-200,000	-0,020	-0,137
-138,687	477,599	0,031	0,050
-137,672	-45,278	-0,134	-0,047
-136,658	197,452	-0,021	0,023
-135,643	-128,594	-0,033	-0,003
-134,629	232,323	0,053	-0,062
-133,614	-141,485	-0,081	-0,006
-132,599	-56,328	-0,099	0,031
-131,585	205,716	0,108	0,120
-130,570	-25,117	0,106	0,045
-129,556	-200,000	-0,005	-0,046
-128,541	111,868	0,095	0,082
-127,526	-124,593	-0,112	0,012
-126,512	800,000	-0,046	-0,132
-125,497	-200,000	0,007	0,024
-124,483	-119,024	0,096	-0,012
-123,468	-200,000	-0,003	0,059
-122,453	800,000	0,028	0,056
-121,439	-200,000	-0,018	0,089
-120,424	617,097	-0,016	0,028
-119,410	405,486	0,068	-0,103
-118,395	-125,166	-0,051	0,005
-117,380	800,000	0,017	0,050
-116,366	-60,922	-0,153	-0,046
-115,351	85,713	0,096	-0,075
-114,337	120,959	-0,069	-0,061
-113,322	-200,000	0,017	-0,070
-112,307	800,000	0,004	0,010
-111,293	32,464	0,102	0,063
-110,278	800,000	-0,014	-0,031
-109,264	579,826	0,013	0,023
-108,249	206,047	-0,133	-0,147
-107,234	136,479	0,064	-0,059
-106,220	435,394	0,115	-0,178
-105,205	-200,000	-0,001	-0,144
-104,191	-61,389	0,163	-0,048
-103,176	70,986	0,067	0,049
-102,162	-200,000	0,026	-0,102
-101,147	800,000	-0,091	0,184
-100,132	-200,000	-0,020	-0,083
-99,118	49,047	-0,024	-0,016
-98,103	-110,515	0,043	0,006
-97,089	244,210	0,066	-0,079
-96,074	156,038	-0,142	-0,139
-95,059	-134,003	0,227	0,020
-94,045	262,301	-0,095	0,117
-93,030	178,358	-0,059	-0,061
-92,016	-84,823	-0,094	0,021
-91,001	444,414	0,057	0,090
-89,986	466,238	-0,055	-0,088
-88,972	201,656	0,043	-0,047
-87,957	800,000	-0,088	0,180
-86,943	-200,000	-0,024	0,097
-85,928	-200,000	0,011	-0,127
-84,913	266,796	-0,029	0,036
-83,899	-200,000	0,002	0,031
-82,884	-126,213	0,066	-0,007
-81,870	-185,955	0,111	-0,001
-80,855	-101,835	-0,076	0,013
-79,840	-200,000	-0,009	-0,114
-78,826	298,951	-0,058	-0,076
-77,811	-75,589	-0,114	-0,028
-76,797	800,000	0,050	0,112
-75,782	-200,000	0,003	-0,027
-74,767	-200,000	0,041	-0,161
-73,753	-200,000	0,013	0,060
-72,738	800,000	-0,009	-0,023
-71,724	-156,290	0,127	0,006
-70,709	800,000	-0,034	0,093
-69,694	414,003	-0,077	-0,117
-68,680	33,291	0,202	0,124
-67,665	800,000	0,025	-0,057
-66,651	-200,000	0,003	-0,056
-65,636	-123,660	-0,208	-0,023
-64,622	172,473	-0,020	0,021
-63,607	56,398	0,032	0,022
-62,592	-44,818	-0,126	-0,044
-61,578	-115,035	0,045	0,006
-60,563	800,000	0,021	0,046
-59,549	42,301	0,056	0,036
-58,534	-4,607	-1,599	-0,779
-57,519	421,870	-1,384	-2,110
-56,505	-200,000	-0,492	-4,548
-55,490	213,382	0,931	1,044
-54,476	800,000	5,003	11,399
-53,461	-200,000	19,197	320,668
-52,446	-200,000	740,553	2335,353
-51,432	573,709	1655,317	2869,858
-50,417	78,380	1671,118	1262,548
-49,403	21,315	1544,296	886,009
-48,388	15,147	1466,603	811,431
-47,373	17,942	1456,879	819,532
-46,359	16,701	1446,600	807,764
-45,344	13,441	1441,946	789,514
-44,330	13,369	1440,234	788,199
-43,315	13,376	1438,203	787,091
-42,300	13,406	1436,608	786,330
-41,286	13,388	1435,428	785,566
-40,271	13,404	1433,984	784,821
-39,257	13,345	1432,817	783,870
-38,242	13,370	1431,729	783,366
-37,227	13,438	1430,310	782,881
-36,213	13,375	1428,989	781,825
-35,198	13,412	1427,755	781,295
-34,184	13,443	1426,660	780,813
-33,169	13,376	1425,676	779,925
-32,154	13,450	1424,366	779,527
-31,140	13,444	1423,099	778,778
-30,125	13,466	1421,957	778,225
-29,111	13,477	1420,715	777,564
-28,096	13,400	1420,067	776,818
-27,082	13,360	1418,745	775,875
-26,067	13,304	1417,742	775,031
-25,052	13,362	1416,562	774,627
-24,038	13,356	1415,529	774,001
-23,023	13,333	1414,607	773,359
-22,009	13,332	1413,531	772,739
-20,994	13,326	1412,701	772,224
-19,979	13,301	1411,783	771,576
-18,965	13,303	1410,786	771,009
-17,950	13,258	1410,124	770,407
-16,936	13,279	1409,001	769,857
-15,921	13,240	1407,888	769,040
-14,906	13,305	1406,821	768,728
-13,892	13,296	1406,161	768,295
-12,877	13,254	1405,055	767,464
-11,863	13,295	1404,197	767,157
-10,848	13,221	1403,587	766,450
-9,833	13,259	1402,433	765,964
-8,819	13,210	1401,590	765,244
-7,804	13,183	1400,724	764,616
-6,790	13,146	1399,704	763,856
-5,775	13,162	1398,616	763,306
-4,760	13,149	1397,565	762,641
-3,746	13,134	1396,857	762,155
-2,731	13,144	1396,314	761,876
-1,717	13,125	1395,204	761,155
-0,702	13,144	1393,347	760,197
0,313	16,989	1310,052	732,568
1,327	33,181	704,076	431,157
2,342	51,224	123,397	82,727
3,356	2,684	16,711	8,545
4,371	13,566	3,214	1,760
5,386	4,448	0,702	0,363
6,400	-200,000	-0,039	0,231
7,415	800,000	-0,115	-0,257
8,429	-70,683	-0,350	-0,093
9,444	-22,612	-0,335	-0,143
10,459	-11,164	-0,317	-0,147
11,473	34,444	-0,298	-0,184
12,488	-21,418	-0,318	-0,136
13,502	99,227	-0,319	-0,261
14,517	26,393	-0,362	-0,214
15,531	123,554	-0,414	-0,367
16,546	210,461	-0,291	-0,324
17,561	74,982	-0,371	-0,276
18,575	163,081	-0,157	-0,156
19,590	426,418	-0,154	-0,235
20,604	175,688	-0,258	-0,264
21,619	123,044	-0,420	-0,372
22,634	270,491	-0,347	-0,432
23,648	80,353	-0,378	-0,287
24,663	83,074	-0,358	-0,275
25,677	74,014	-0,320	-0,237
26,692	-64,000	-0,265	-0,076
27,707	143,863	-0,304	-0,287
28,721	-3,122	-0,394	-0,193
29,736	-0,996	-0,450	-0,224
30,750	49,476	-0,468	-0,310
31,765	145,977	-0,257	-0,243
32,780	133,601	-0,406	-0,371
33,794	139,474	-0,320	-0,297
34,809	-12,957	-0,395	-0,181
35,823	-52,246	-0,387	-0,126
36,838	-42,029	-0,381	-0,137
37,853	125,536	-0,359	-0,320
38,867	396,616	-0,254	-0,376
39,882	74,617	-0,345	-0,256
40,896	-29,157	-0,351	-0,141
41,911	195,060	-0,246	-0,264
42,926	16,244	-0,585	-0,324
43,940	5,891	-0,350	-0,182
44,955	-68,499	-0,437	-0,119
45,969	34,656	-0,415	-0,255
46,984	-2,245	-0,449	-0,221
47,999	-51,455	-0,347	-0,114
49,013	-43,139	-0,332	-0,118
50,028	-44,317	-0,292	-0,103
51,042	105,576	-0,341	-0,284
52,057	-1,851	-0,330	-0,163
53,071	65,267	-0,369	-0,263
54,086	54,936	-0,449	-0,305
55,101	95,477	-0,369	-0,296
56,115	250,052	-0,219	-0,262
57,130	173,761	-0,382	-0,388
58,144	168,509	-0,330	-0,331
59,159	-40,854	-0,533	-0,193
60,174	102,156	-0,364	-0,299
61,188	130,026	-0,410	-0,370
62,203	67,544	-0,379	-0,272
63,217	36,667	-0,340	-0,211
64,232	7,228	-0,399	-0,209
65,247	77,700	-0,274	-0,205
66,261	149,484	-0,370	-0,353
67,276	33,706	-0,504	-0,308
68,290	24,670	-0,360	-0,209
69,305	71,568	-0,290	-0,211
70,320	124,150	-0,240	-0,212
71,334	-9,125	-0,332	-0,156
72,349	-35,834	-0,403	-0,153
73,363	4,805	-0,336	-0,173
74,378	43,940	-0,228	-0,146
75,393	131,864	-0,324	-0,293
76,407	-26,233	-0,266	-0,109
77,422	18,821	-0,329	-0,185
78,436	-22,786	-0,300	-0,127
79,451	-2,071	-0,398	-0,196
80,466	49,320	-0,361	-0,238
81,480	255,584	-0,336	-0,405
82,495	80,964	-0,384	-0,291
83,509	45,293	-0,251	-0,162
84,524	16,199	-0,292	-0,161
85,539	6,919	-0,292	-0,152
86,553	-41,051	-0,275	-0,099
87,568	100,395	-0,316	-0,257
88,582	-54,913	-0,324	-0,102
89,597	160,447	-0,205	-0,201
90,611	156,149	-0,265	-0,257
91,626	59,473	-0,165	-0,114
92,641	126,863	-0,314	-0,280
93,655	48,798	-0,215	-0,141
94,670	-98,218	-0,372	-0,066
95,684	110,154	-0,188	-0,158
96,699	184,594	-0,283	-0,295
97,714	228,730	-0,275	-0,315
98,728	-50,503	-0,382	-0,126
99,743	138,086	-0,147	-0,135
100,757	121,525	-0,343	-0,300
101,772	155,158	-0,262	-0,253
102,787	-58,595	-0,364	-0,110
103,801	212,209	-0,239	-0,265
104,816	375,005	-0,180	-0,257
105,830	-106,422	-0,215	-0,033
106,845	184,855	-0,186	-0,194
107,860	110,997	-0,237	-0,200
108,874	184,268	-0,213	-0,221
109,889	209,939	-0,206	-0,227
110,903	800,000	-0,132	-0,319
111,918	26,649	-0,257	-0,150
112,933	142,844	-0,249	-0,232
113,947	35,193	-0,335	-0,205
114,962	162,187	-0,223	-0,220
115,976	-20,210	-0,217	-0,093
116,991	113,691	-0,238	-0,202
118,006	528,783	-0,131	-0,218
119,020	24,134	-0,278	-0,160
120,035	-165,949	-0,283	-0,008
121,049	-17,906	-0,191	-0,084
122,064	102,835	-0,201	-0,165
123,079	-24,849	-0,291	-0,120
124,093	18,825	-0,295	-0,165
125,108	9,297	-0,273	-0,144
126,122	5,158	-0,285	-0,146
127,137	40,217	-0,183	-0,115
128,151	129,091	-0,332	-0,296
129,166	152,211	-0,313	-0,299
130,181	269,394	-0,198	-0,244
131,195	117,228	-0,254	-0,218
132,210	9,159	-0,296	-0,156
133,224	-3,604	-0,147	-0,071
134,239	142,358	-0,216	-0,201
135,254	118,128	-0,197	-0,170
136,268	-63,398	-0,279	-0,080
137,283	-11,074	-0,298	-0,137
138,297	22,944	-0,303	-0,173
139,312	46,163	-0,246	-0,159
140,327	125,650	-0,179	-0,158
141,341	-6,036	-0,226	-0,108
142,356	75,086	-0,286	-0,211
143,370	-58,091	-0,164	-0,050
144,385	-0,700	-0,288	-0,142
145,400	98,933	-0,232	-0,187
146,414	382,289	-0,272	-0,391
147,429	147,108	-0,261	-0,245
148,443	-200,000	0,045	-0,156
149,458	383,242	-0,125	-0,181
150,473	236,501	-0,229	-0,265
151,487	385,527	-0,135	-0,195
152,502	154,182	-0,176	-0,168
153,516	-19,843	-0,332	-0,143
154,531	47,302	-0,272	-0,177
155,546	71,775	-0,283	-0,205
156,560	-3,012	-0,250	-0,121
157,575	115,447	-0,173	-0,148
158,589	-19,917	-0,386	-0,166
159,604	275,722	-0,207	-0,257
160,619	224,275	-0,222	-0,250
161,633	181,540	-0,243	-0,250
162,648	95,069	-0,171	-0,136
163,662	-200,000	0,000	-0,066
164,677	70,446	-0,210	-0,151
165,692	18,962	-0,226	-0,126
166,706	79,996	-0,216	-0,161
167,721	185,868	-0,277	-0,287
168,735	367,552	-0,220	-0,311
169,750	135,026	-0,330	-0,299
170,764	800,000	-0,101	-0,258
171,779	-6,884	-0,160	-0,076
172,794	91,325	-0,233	-0,183
173,808	79,605	-0,192	-0,144
174,823	69,283	-0,228	-0,163
175,837	-21,326	-0,261	-0,111
176,852	139,670	-0,172	-0,158
177,867	52,116	-0,124	-0,082
178,881	800,000	-0,095	-0,220
179,896	281,126	-0,231	-0,289
180,910	291,243	-0,135	-0,171
181,925	23,928	-0,289	-0,165
182,940	-70,798	-0,269	-0,070
183,954	196,907	-0,209	-0,222
184,969	192,305	-0,186	-0,196
185,983	-79,446	-0,193	-0,045
186,998	800,000	-0,093	-0,192
188,013	267,944	-0,111	-0,136
189,027	601,682	-0,132	-0,229
190,042	250,962	-0,163	-0,193
191,056	170,771	-0,188	-0,187
192,071	28,961	-0,170	-0,100
193,086	165,186	-0,225	-0,222
194,100	-23,047	-0,116	-0,048
195,115	-200,000	-0,006	-0,094
196,129	67,714	-0,240	-0,171
197,144	800,000	-0,100	-0,247
198,159	56,593	-0,256	-0,173
199,173	-31,529	-0,205	-0,080
200,188	141,793	-0,195	-0,180
201,202	-61,243	-0,272	-0,079
202,217	-183,072	-0,175	0,002
203,232	-42,831	-0,247	-0,087
204,246	86,592	-0,234	-0,179
205,261	800,000	-0,203	-0,446
206,275	-130,589	-0,151	-0,014
207,290	79,524	-0,190	-0,142
208,304	113,406	-0,183	-0,154
209,319	144,728	-0,230	-0,214
210,334	33,553	-0,200	-0,121
211,348	800,000	-0,113	-0,327
212,363	7,458	-0,196	-0,102
213,377	179,339	-0,115	-0,117
214,392	800,000	-0,145	-0,281
215,407	440,746	-0,053	-0,080
216,421	-119,856	-0,150	0,018
217,436	-10,039	-0,167	-0,077
218,450	-26,070	-0,227	-0,092
219,465	-200,000	-0,056	-0,200
220,480	74,664	-0,124	-0,091
221,494	96,219	-0,185	-0,146
222,509	800,000	-0,072	-0,153
223,523	293,417	-0,123	-0,156
224,538	92,438	-0,133	-0,104
225,553	290,655	-0,189	-0,239
226,567	79,024	-0,236	-0,175
227,582	-3,152	-0,088	-0,043
228,596	121,053	-0,168	-0,145
229,611	-103,406	-0,201	-0,033
230,626	269,184	-0,108	-0,132
231,640	36,029	-0,244	-0,149
232,655	151,957	-0,078	-0,073
233,669	279,268	-0,217	-0,270
234,684	-73,841	-0,133	-0,033
235,699	-56,985	-0,129	-0,039
236,713	103,706	-0,182	-0,148
237,728	74,439	-0,144	-0,104
238,742	53,974	-0,194	-0,129
239,757	-187,030	-0,140	-0,001
240,772	42,785	-0,230	-0,145
241,786	330,931	-0,186	-0,249
242,801	121,918	-0,138	-0,119
243,815	-52,466	-0,216	-0,069
244,830	27,311	-0,132	-0,076
245,844	-98,620	-0,116	0,020
246,859	-24,034	-0,198	-0,082
247,874	536,550	-0,110	-0,182
248,888	195,822	-0,184	-0,194
249,903	133,309	-0,199	-0,178
250,917	-113,320	-0,223	-0,030
251,932	296,060	-0,129	-0,164
252,947	-7,134	-0,303	-0,142
253,961	565,962	-0,103	-0,173
254,976	240,750	-0,167	-0,193
255,990	-50,425	-0,230	-0,075
257,005	496,625	-0,042	-0,067
258,020	81,907	-0,216	-0,161
259,034	-8,789	-0,166	-0,077
260,049	-200,000	0,020	-0,075
261,063	-54,159	-0,237	-0,074
262,078	-33,342	-0,189	-0,072
263,093	-51,953	-0,287	-0,092
264,107	6,510	-0,198	-0,101
265,122	-11,164	-0,172	-0,078
266,136	143,593	-0,212	-0,196
267,151	-59,115	-0,061	0,018
268,166	-134,610	-0,078	-0,006
269,180	323,212	-0,123	-0,162
270,195	473,904	-0,159	-0,249
271,209	89,274	-0,241	-0,185
272,224	-154,768	-0,151	0,007
273,239	222,152	-0,095	-0,105
274,253	30,413	-0,228	-0,134
275,268	13,954	-0,138	-0,074
276,282	149,686	-0,189	-0,177
277,297	64,942	-0,265	-0,185
278,312	141,275	-0,096	-0,088
279,326	-24,047	-0,233	-0,096
280,341	276,474	-0,175	-0,215
281,355	498,349	-0,123	-0,196
282,370	547,641	-0,093	-0,155
283,384	162,639	-0,177	-0,172
284,399	-43,421	-0,113	-0,039
285,414	-200,000	0,076	-0,231
286,428	32,659	-0,151	-0,090
287,443	-175,236	-0,067	0,001
288,457	173,048	-0,127	-0,126
289,472	-5,699	-0,243	-0,115
290,487	-32,799	-0,232	-0,089
291,501	-40,954	-0,195	-0,069
292,516	400,123	-0,092	-0,133
293,530	50,352	-0,192	-0,125
294,545	36,421	-0,204	-0,124
295,560	343,738	-0,084	-0,114
296,574	200,272	-0,047	0,050
297,589	-200,000	-0,035	-0,197
298,603	800,000	-0,088	-0,259
299,618	-86,101	-0,047	0,010
300,633	800,000	-0,033	-0,066
301,647	75,991	-0,107	-0,078
302,662	534,735	-0,126	-0,207
303,676	436,786	-0,097	-0,146
304,691	-71,054	-0,345	-0,089
305,706	-69,219	-0,201	-0,053
306,720	64,723	-0,170	-0,118
307,735	-51,087	-0,153	-0,049
308,749	90,031	-0,147	-0,113
309,764	509,309	-0,151	-0,243
310,779	554,942	0,020	-0,033
311,793	-12,822	-0,182	-0,081
312,808	-200,000	-0,064	-0,293
313,822	71,261	-0,118	-0,084
314,837	2,212	-0,135	-0,067
315,852	0,066	-0,137	-0,067
316,866	-123,431	-0,176	-0,019
317,881	141,236	-0,053	-0,048
318,895	25,235	-0,103	-0,059
319,910	177,238	-0,222	-0,223
320,925	93,472	-0,225	-0,175
321,939	-56,622	-0,211	-0,064
322,954	800,000	-0,092	-0,204
323,968	24,924	-0,090	-0,051
324,983	-7,307	-0,207	-0,096
325,997	402,424	-0,159	-0,231
327,012	575,424	-0,096	-0,163
328,027	346,265	-0,172	-0,234
329,041	-147,647	-0,167	-0,010
330,056	800,000	-0,098	-0,195
331,070	1,801	-0,031	0,016
332,085	-99,035	-0,188	0,032
333,100	149,231	-0,185	-0,172
334,114	408,304	-0,167	-0,244
335,129	160,057	-0,121	-0,116
336,143	-200,000	-0,001	0,022
337,158	32,961	-0,115	-0,068
338,173	762,456	-0,098	-0,184
339,187	-167,091	-0,122	0,003
340,202	493,711	-0,092	0,145
341,216	800,000	-0,058	-0,141
342,231	29,022	-0,247	-0,144
343,246	125,929	0,107	-0,093
344,260	724,059	-0,088	-0,162
345,275	216,728	-0,089	-0,097
346,289	-200,000	-0,025	-0,170
347,304	0,542	-0,062	-0,030
348,319	126,619	-0,167	-0,145
349,333	152,449	-0,182	-0,170
350,348	103,539	-0,206	-0,166
351,362	-63,720	-0,105	-0,029
352,377	-200,000	-0,004	-0,093
353,392	-117,588	-0,128	0,016
354,406	373,227	-0,083	-0,117
355,421	209,358	1313,180	1413,257
356,435	161,129	1473,706	1413,743
