DTS Sentinel unit serial number:	SN410029Multiplexer serial number:	ORYXHardware model number:	OX2-SRSoftware version number:	ORYX F/W v4,00 Oryx Data Collector v3.7.2.0data status	okinstallation	B3 Nyhavnadifferential loss correction	single-endedforward channel	channel 1reverse channel	N/Adate	2023/11/30time	08:57:30forward acquisition time	300,00reverse acquisition time	0,00gamma	499,1914k internal	0,3212k external	0,3212temperature offset calibration	1,0000default loss term (dB/km)	0,3820temperature slope calibration	1,0000multiplexer offset coefficient	1,0000multiplexer slope coefficient	1,0000fibre end	0,00T internal ref (°C)	9,49T ext. ref 1 (°C)	-5,46T ext. ref 2 (°C)	-5,57length (m)	temperature (°C)	Stokes	anti-Stokes-744,400	83,526	-0,234	-0,184
-743,385	-200,000	0,010	0,336
-742,371	187,151	-0,261	-0,282
-741,356	-200,000	0,077	0,307
-740,342	250,604	-0,256	-0,316
-739,327	-200,000	0,028	0,164
-738,312	225,615	-0,129	-0,152
-737,298	-200,000	0,031	0,286
-736,283	133,643	-0,125	-0,118
-735,269	800,000	-0,084	0,255
-734,254	235,266	-0,172	-0,207
-733,239	154,031	-0,172	0,171
-732,225	552,112	-0,084	-0,147
-731,210	336,010	0,094	0,133
-730,196	800,000	-0,030	-0,066
-729,181	57,337	-0,132	-0,093
-728,167	618,807	0,070	-0,128
-727,152	82,127	0,019	0,015
-726,137	69,753	-0,045	0,033
-725,123	-91,271	0,048	0,010
-724,108	-50,117	-0,107	-0,037
-723,094	-200,000	0,033	-0,132
-722,079	-200,000	0,001	-0,182
-721,064	9,527	-0,131	-0,071
-720,050	-200,000	0,003	-0,048
-719,035	-200,000	-0,019	-0,145
-718,021	-16,563	-0,112	0,051
-717,006	-142,669	-0,091	0,006
-715,991	361,570	-0,107	-0,156
-714,977	309,379	0,080	-0,109
-713,962	-31,428	0,067	-0,027
-712,948	-88,062	-0,058	0,013
-711,933	-111,481	-0,118	-0,017
-710,918	652,347	-0,039	-0,072
-709,904	-200,000	-0,003	-0,019
-708,889	-200,000	0,017	-0,057
-707,875	-95,919	-0,151	-0,029
-706,860	-200,000	0,019	-0,072
-705,845	-68,668	-0,084	0,023
-704,831	247,967	0,043	0,053
-703,816	-79,733	-0,108	0,026
-702,802	-99,034	-0,149	-0,027
-701,787	12,844	-0,208	-0,116
-700,772	-200,000	0,002	-0,053
-699,758	-198,018	-0,028	-0,000
-698,743	61,508	0,131	-0,094
-697,729	-200,000	-0,003	-0,050
-696,714	800,000	-0,041	0,085
-695,699	141,824	-0,075	-0,072
-694,685	-162,016	0,045	0,002
-693,670	369,643	-0,111	-0,164
-692,656	552,245	0,028	0,049
-691,641	-145,745	-0,046	0,003
-690,627	-92,870	0,087	-0,018
-689,612	800,000	-0,030	-0,064
-688,597	800,000	0,071	-0,222
-687,583	531,966	-0,087	-0,150
-686,568	-200,000	-0,058	-0,209
-685,554	800,000	-0,066	-0,170
-684,539	-200,000	-0,033	-0,124
-683,524	-162,372	0,107	-0,004
-682,510	611,939	0,081	0,147
-681,495	-185,607	-0,132	-0,001
-680,481	422,195	0,019	-0,029
-679,466	157,918	-0,035	-0,035
-678,451	163,504	0,042	-0,043
-677,437	-21,899	-0,052	-0,023
-676,422	-12,262	-0,119	-0,056
-675,408	-13,573	-0,060	0,028
-674,393	-199,720	-0,027	0,000
-673,378	-200,000	0,023	-0,108
-672,364	84,647	-0,068	-0,054
-671,349	800,000	-0,151	-0,306
-670,335	385,477	-0,028	-0,042
-669,320	-200,000	0,004	0,019
-668,305	319,875	0,068	-0,093
-667,291	-200,000	0,024	-0,096
-666,276	241,245	-0,037	0,044
-665,262	1,084	-0,138	-0,071
-664,247	-200,000	0,006	0,070
-663,232	-200,000	-0,040	-0,144
-662,218	209,577	0,014	-0,015
-661,203	699,775	-0,045	-0,085
-660,189	-200,000	0,008	0,043
-659,174	-95,111	-0,169	-0,033
-658,159	40,198	0,071	-0,046
-657,145	800,000	-0,006	0,014
-656,130	-200,000	-0,005	-0,124
-655,116	-200,000	0,020	-0,081
-654,101	800,000	0,068	0,152
-653,086	-200,000	-0,008	-0,052
-652,072	800,000	0,025	0,057
-651,057	320,291	0,041	-0,057
-650,043	-200,000	0,040	-0,143
-649,028	-189,762	-0,080	0,001
-648,014	-135,247	0,024	0,002
-646,999	593,706	-0,002	0,004
-645,984	45,604	0,032	0,022
-644,970	-200,000	0,015	-0,099
-643,955	39,365	-0,137	0,088
-642,941	87,931	-0,011	0,009
-641,926	158,038	-0,084	-0,084
-640,911	-60,696	0,027	-0,008
-639,897	-22,702	0,044	-0,019
-638,882	800,000	-0,043	-0,131
-637,868	-148,547	0,034	-0,002
-636,853	480,682	-0,021	-0,035
-635,838	367,787	0,068	-0,100
-634,824	-98,071	0,103	-0,019
-633,809	-200,000	0,036	0,133
-632,795	-73,677	0,058	-0,015
-631,780	-200,000	-0,001	0,049
-630,765	-87,765	0,024	-0,005
-629,751	800,000	-0,017	-0,043
-628,736	-57,022	0,082	-0,026
-627,722	385,788	-0,032	0,047
-626,707	385,613	0,013	0,020
-625,692	-56,764	-0,056	0,018
-624,678	736,449	-0,014	-0,027
-623,663	-200,000	0,016	-0,094
-622,649	-107,294	-0,059	0,009
-621,634	331,369	-0,094	-0,131
-620,619	-200,000	0,015	-0,158
-619,605	-200,000	0,003	0,142
-618,590	-200,000	-0,024	0,125
-617,576	-59,339	-0,072	0,022
-616,561	-200,000	-0,020	0,160
-615,546	11,396	-0,090	0,050
-614,532	-200,000	0,009	0,063
-613,517	-54,028	-0,131	-0,043
-612,503	-179,448	0,055	0,001
-611,488	-75,541	0,048	-0,012
-610,474	107,409	0,049	0,042
-609,459	33,118	-0,048	0,030
-608,444	-200,000	-0,036	-0,153
-607,430	94,077	-0,093	-0,076
-606,415	-200,000	-0,022	-0,114
-605,401	8,977	0,033	-0,018
-604,386	91,622	0,067	0,054
-603,371	-10,537	-0,027	0,013
-602,357	213,922	-0,061	-0,070
-601,342	294,992	-0,051	-0,067
-600,328	800,000	0,009	-0,021
-599,313	-50,095	-0,145	0,049
-598,298	-145,159	0,143	-0,009
-597,284	49,539	0,064	0,044
-596,269	-146,273	-0,057	0,004
-595,255	-45,278	-0,121	0,043
-594,240	255,811	-0,073	-0,090
-593,225	-200,000	-0,061	-0,228
-592,211	27,530	-0,053	-0,032
-591,196	403,875	-0,124	-0,189
-590,182	-1,625	0,116	0,059
-589,167	-200,000	-0,015	0,084
-588,152	-200,000	-0,008	-0,047
-587,138	-82,873	-0,045	0,010
-586,123	-200,000	0,003	-0,080
-585,109	-66,326	-0,173	-0,049
-584,094	-4,308	-0,038	0,019
-583,079	-151,737	0,087	-0,005
-582,065	75,537	0,083	0,063
-581,050	85,199	0,103	-0,082
-580,036	396,060	-0,068	0,102
-579,021	123,260	-0,051	-0,046
-578,006	-75,813	0,126	0,032
-576,992	667,427	-0,010	-0,020
-575,977	47,543	0,097	0,065
-574,963	800,000	-0,022	-0,051
-573,948	800,000	-0,065	0,155
-572,934	216,420	-0,039	-0,045
-571,919	169,400	0,101	-0,104
-570,904	-132,368	-0,174	0,016
-569,890	-200,000	-0,003	-0,072
-568,875	195,695	0,068	-0,075
-567,861	396,320	-0,085	-0,128
-566,846	-169,793	0,127	0,003
-565,831	-87,498	0,056	-0,012
-564,817	-135,792	-0,146	-0,012
-563,802	-200,000	0,030	-0,105
-562,788	-200,000	0,022	-0,097
-561,773	82,553	0,051	-0,040
-560,758	682,610	-0,100	-0,188
-559,744	-92,755	0,012	0,002
-558,729	-75,102	-0,071	-0,018
-557,715	-200,000	0,009	-0,067
-556,700	-22,540	0,037	0,016
-555,685	800,000	-0,041	-0,119
-554,671	-200,000	-0,012	0,097
-553,656	389,204	-0,048	-0,072
-552,642	207,811	0,029	-0,033
-551,627	-200,000	0,003	-0,034
-550,612	413,800	-0,023	0,035
-549,598	-59,298	-0,120	0,037
-548,583	-68,109	0,118	-0,033
-547,569	-37,304	0,084	0,032
-546,554	-167,771	0,043	-0,001
-545,539	-125,213	0,102	-0,011
-544,525	-102,571	-0,097	-0,016
-543,510	-29,303	-0,122	0,050
-542,496	800,000	-0,036	-0,072
-541,481	-139,259	-0,017	-0,001
-540,466	-200,000	-0,002	-0,044
-539,452	-38,078	0,048	0,018
-538,437	56,076	0,076	-0,053
-537,423	-116,767	0,111	-0,014
-536,408	368,636	-0,058	0,085
-535,393	-65,592	-0,116	0,033
-534,379	606,163	0,065	-0,117
-533,364	-94,799	-0,091	0,018
-532,350	118,910	0,110	-0,097
-531,335	92,260	-0,053	0,043
-530,321	104,886	0,068	0,058
-529,306	-200,000	-0,014	0,162
-528,291	-41,458	0,169	0,062
-527,277	-54,484	-0,082	-0,026
-526,262	800,000	0,032	-0,069
-525,248	35,836	0,169	-0,107
-524,233	731,950	-0,064	0,123
-523,218	-200,000	-0,014	0,143
-522,204	22,043	-0,135	0,079
-521,189	-26,266	-0,132	-0,056
-520,175	32,169	-0,086	-0,053
-519,160	264,084	0,044	0,055
-518,145	194,980	0,030	0,033
-517,131	266,293	0,066	-0,082
-516,116	-200,000	-0,012	0,067
-515,102	36,643	-0,027	0,017
-514,087	-49,093	0,062	0,021
-513,072	-50,127	-0,107	0,036
-512,058	-200,000	0,001	0,031
-511,043	-32,418	-0,069	-0,027
-510,029	-33,272	0,066	-0,026
-509,014	-200,000	-0,014	0,090
-507,999	8,481	-0,109	-0,059
-506,985	13,430	-0,100	-0,056
-505,970	159,521	-0,020	0,020
-504,956	120,231	0,075	0,067
-503,941	-200,000	-0,019	-0,083
-502,926	325,562	0,031	-0,043
-501,912	179,475	0,113	0,119
-500,897	-200,000	-0,026	0,145
-499,883	-200,000	0,045	-0,144
-498,868	800,000	0,023	-0,050
-497,853	-132,182	-0,055	-0,005
-496,839	-200,000	-0,019	-0,164
-495,824	-15,804	0,032	-0,014
-494,810	-81,271	-0,135	-0,032
-493,795	-5,523	0,047	-0,023
-492,781	-44,533	-0,205	0,073
-491,766	-200,000	-0,038	0,154
-490,751	115,196	0,067	-0,059
-489,737	-200,000	-0,016	-0,090
-488,722	138,165	-0,067	0,063
-487,708	800,000	0,075	0,196
-486,693	71,075	0,044	-0,033
-485,678	-133,855	-0,076	-0,007
-484,664	10,798	0,038	-0,021
-483,649	-5,841	-0,119	0,058
-482,635	-4,199	0,030	-0,015
-481,620	800,000	0,048	0,115
-480,605	-28,371	0,046	0,019
-479,591	711,322	-0,050	0,096
-478,576	-200,000	-0,002	0,007
-477,562	-94,056	0,138	-0,027
-476,547	800,000	-0,044	-0,116
-475,532	5,188	-0,095	-0,050
-474,518	9,402	-0,078	0,042
-473,503	227,648	0,036	0,042
-472,489	-74,675	0,031	0,008
-471,474	800,000	0,012	0,031
-470,459	615,155	-0,095	-0,171
-469,445	800,000	0,018	-0,057
-468,430	795,916	-0,052	-0,104
-467,416	-200,000	-0,034	0,119
-466,401	136,109	-0,062	-0,058
-465,386	800,000	0,040	0,103
-464,372	-200,000	-0,011	-0,045
-463,357	-77,718	-0,156	-0,038
-462,343	-200,000	-0,002	-0,059
-461,328	320,487	0,022	-0,030
-460,313	24,168	0,032	0,019
-459,299	240,998	-0,080	0,096
-458,284	-121,343	0,145	-0,017
-457,270	114,686	0,066	-0,058
-456,255	171,394	0,004	0,004
-455,241	-200,000	-0,004	-0,088
-454,226	366,780	-0,048	-0,070
-453,211	-85,638	0,100	0,022
-452,197	85,613	0,128	-0,101
-451,182	12,388	0,113	0,062
-450,168	487,095	-0,061	-0,100
-449,153	-111,018	-0,165	-0,024
-448,138	157,809	0,029	-0,029
-447,124	-90,213	-0,022	-0,005
-446,109	122,230	-0,102	-0,091
-445,095	89,581	-0,017	0,014
-444,080	-22,365	0,068	-0,029
-443,065	-9,094	-0,058	0,028
-442,051	800,000	-0,030	-0,069
-441,036	-200,000	0,013	-0,045
-440,022	-135,518	-0,226	-0,019
-439,007	177,640	-0,111	-0,116
-437,992	211,063	0,054	-0,061
-436,978	-109,470	0,141	-0,021
-435,963	219,916	0,062	-0,072
-434,949	106,988	-0,039	0,033
-433,934	-200,000	0,022	0,084
-432,919	76,041	-0,081	-0,061
-431,905	22,661	0,083	-0,048
-430,890	290,837	0,073	0,095
-429,876	-200,000	0,003	-0,068
-428,861	-200,000	-0,008	0,048
-427,846	-0,236	-0,034	0,017
-426,832	-121,682	-0,078	-0,009
-425,817	30,008	-0,116	-0,071
-424,803	-200,000	0,015	-0,119
-423,788	-200,000	-0,005	0,043
-422,773	498,110	0,024	0,040
-421,759	800,000	-0,030	0,084
-420,744	66,888	-0,055	-0,040
-419,730	404,284	-0,062	0,094
-418,715	57,185	0,060	-0,042
-417,701	-200,000	0,024	0,080
-416,686	799,158	0,036	0,072
-415,671	168,320	0,087	0,089
-414,657	-81,225	0,102	0,024
-413,642	-73,094	0,092	0,024
-412,628	-92,030	0,070	-0,014
-411,613	182,210	-0,118	-0,125
-410,598	-200,000	0,008	-0,204
-409,584	-32,807	0,080	-0,032
-408,569	-200,000	-0,011	0,037
-407,555	35,160	0,171	-0,107
-406,540	-59,518	0,199	0,061
-405,525	329,148	0,087	0,120
-404,511	419,916	0,032	-0,049
-403,496	3,355	-0,084	-0,044
-402,482	127,969	0,022	-0,020
-401,467	483,034	0,080	0,131
-400,452	800,000	0,075	0,200
-399,438	800,000	0,032	0,086
-398,423	-200,000	0,005	0,064
-397,409	273,828	0,023	-0,029
-396,394	25,115	-0,075	0,044
-395,379	-106,769	-0,168	-0,026
-394,365	-45,899	0,074	0,026
-393,350	4,202	0,062	-0,033
-392,336	74,736	0,030	-0,023
-391,321	-200,000	-0,011	0,075
-390,306	390,654	0,044	0,065
-389,292	-70,581	-0,145	0,039
-388,277	117,905	0,062	-0,054
-387,263	-103,286	0,163	-0,027
-386,248	188,097	-0,053	0,057
-385,233	-40,936	0,134	0,049
-384,219	-200,000	0,032	-0,124
-383,204	-200,000	0,001	-0,040
-382,190	99,386	-0,124	-0,103
-381,175	-154,237	-0,041	0,002
-380,160	-142,721	0,109	-0,007
-379,146	67,741	0,092	0,067
-378,131	-200,000	0,008	0,079
-377,117	209,400	-0,047	-0,053
-376,102	452,860	-0,043	0,068
-375,088	787,652	-0,078	-0,154
-374,073	135,923	0,129	-0,120
-373,058	-200,000	-0,001	-0,004
-372,044	-10,886	-0,009	0,004
-371,029	-200,000	-0,025	0,197
-370,015	-127,792	0,105	0,011
-369,000	-113,022	0,026	-0,004
-367,985	-131,915	-0,124	0,011
-366,971	-200,000	-0,009	0,035
-365,956	-26,483	0,070	0,029
-364,942	-56,156	0,042	0,013
-363,927	-200,000	-0,002	-0,030
-362,912	800,000	-0,036	0,074
-361,898	-46,059	0,145	-0,051
-360,883	451,545	-0,085	-0,135
-359,869	70,655	0,066	-0,049
-358,854	-200,000	0,011	0,066
-357,839	-152,752	0,193	-0,010
-356,825	374,720	-0,078	0,114
-355,810	459,409	-0,030	0,047
-354,796	-200,000	-0,030	-0,101
-353,781	-8,628	0,102	0,049
-352,766	-99,843	-0,054	0,009
-351,752	752,531	-0,006	-0,012
-350,737	45,801	0,077	-0,050
-349,723	654,876	0,105	0,194
-348,708	165,230	0,095	0,096
-347,693	47,675	0,034	0,022
-346,679	10,505	-0,052	-0,028
-345,664	800,000	-0,031	-0,080
-344,650	-200,000	-0,006	-0,081
-343,635	-200,000	-0,005	-0,038
-342,620	800,000	-0,021	0,051
-341,606	-200,000	-0,016	0,092
-340,591	800,000	-0,055	0,125
-339,577	36,992	0,058	0,036
-338,562	453,454	-0,038	0,060
-337,548	695,406	0,051	-0,096
-336,533	-45,664	-0,061	-0,021
-335,518	182,481	0,067	0,070
-334,504	123,163	-0,057	-0,051
-333,489	243,088	-0,084	-0,101
-332,475	-60,191	-0,100	0,030
-331,460	-134,902	-0,065	0,005
-330,445	-196,479	0,140	-0,001
-329,431	-200,000	0,006	-0,143
-328,416	-15,284	0,200	0,091
-327,402	-73,993	-0,039	0,010
-326,387	60,123	-0,102	-0,072
-325,372	-17,827	0,033	-0,015
-324,358	547,696	-0,058	-0,100
-323,343	121,118	0,068	0,060
-322,329	-200,000	-0,010	0,059
-321,314	114,373	-0,075	-0,065
-320,299	800,000	0,058	0,147
-319,285	-118,776	0,160	0,020
-318,270	-137,255	-0,091	-0,007
-317,256	115,057	-0,019	-0,016
-316,241	342,297	0,020	0,027
-315,226	74,397	0,070	-0,052
-314,212	382,724	0,056	0,082
-313,197	800,000	-0,023	0,065
-312,183	582,002	0,039	0,069
-311,168	-200,000	-0,022	-0,077
-310,153	781,068	-0,068	-0,133
-309,139	587,886	-0,074	-0,131
-308,124	-200,000	-0,014	-0,124
-307,110	75,922	0,121	0,091
-306,095	-67,377	-0,071	0,020
-305,080	-200,000	0,022	0,074
-304,066	161,645	0,050	0,050
-303,051	376,030	-0,105	-0,153
-302,037	52,439	0,037	-0,025
-301,022	26,657	0,044	-0,026
-300,008	81,340	-0,041	0,031
-298,993	-109,996	-0,047	0,007
-297,978	-200,000	0,001	0,068
-296,964	444,499	0,040	-0,063
-295,949	-139,306	-0,175	-0,013
-294,935	-3,030	-0,179	0,089
-293,920	47,158	0,059	0,039
-292,905	-19,043	0,106	0,047
-291,891	-34,287	-0,072	-0,028
-290,876	-80,702	0,069	0,016
-289,862	-200,000	-0,008	-0,117
-288,847	95,011	-0,055	-0,045
-287,832	50,005	-0,164	-0,110
-286,818	800,000	-0,070	-0,150
-285,803	-135,967	0,127	-0,010
-284,789	-200,000	-0,035	0,233
-283,774	474,433	0,030	0,048
-282,759	81,201	0,090	0,069
-281,745	349,383	-0,052	0,074
-280,730	-200,000	0,008	-0,041
-279,716	29,023	-0,026	-0,016
-278,701	800,000	0,040	-0,116
-277,686	199,672	0,077	-0,084
-276,672	502,995	0,051	0,085
-275,657	-200,000	-0,017	0,059
-274,643	800,000	0,035	-0,089
-273,628	173,026	-0,064	0,066
-272,613	-7,045	0,065	0,031
-271,599	-16,529	-0,140	-0,063
-270,584	-16,429	0,044	-0,020
-269,570	-151,970	0,171	0,009
-268,555	-200,000	0,009	0,045
-267,540	-172,975	-0,125	0,003
-266,526	800,000	-0,036	0,074
-265,511	236,477	0,005	-0,006
-264,497	-200,000	-0,041	0,149
-263,482	800,000	-0,041	0,084
-262,467	-178,456	0,086	0,001
-261,453	28,307	-0,046	0,028
-260,438	800,000	0,051	-0,120
-259,424	147,208	-0,016	-0,015
-258,409	495,947	-0,032	0,052
-257,395	-79,635	0,066	0,016
-256,380	-113,490	-0,085	-0,012
-255,365	-45,437	0,039	0,014
-254,351	198,470	0,099	0,107
-253,336	417,005	0,066	-0,101
-252,322	48,323	-0,072	-0,048
-251,307	149,022	0,057	0,055
-250,292	77,853	-0,109	0,083
-249,278	800,000	0,033	0,095
-248,263	148,977	0,044	0,042
-247,249	652,508	0,012	-0,022
-246,234	173,932	-0,063	-0,065
-245,219	350,754	-0,034	-0,049
-244,205	-200,000	-0,002	0,131
-243,190	-43,226	0,171	0,061
-242,176	373,863	-0,095	0,138
-241,161	622,200	0,036	0,064
-240,146	800,000	-0,043	0,100
-239,132	-36,736	-0,075	-0,029
-238,117	-68,763	-0,057	-0,016
-237,103	-149,008	0,138	-0,008
-236,088	800,000	-0,008	0,021
-235,073	-200,000	0,014	0,086
-234,059	18,847	0,088	0,050
-233,044	-200,000	0,009	0,095
-232,030	81,710	0,144	0,110
-231,015	800,000	-0,014	0,037
-230,000	-200,000	-0,022	0,132
-228,986	800,000	0,026	0,068
-227,971	-114,062	-0,031	0,004
-226,957	18,906	0,128	0,073
-225,942	-120,238	0,051	-0,006
-224,927	-149,143	0,046	-0,003
-223,913	-140,314	0,046	0,003
-222,898	-200,000	0,008	0,085
-221,884	-25,822	-0,072	-0,030
-220,869	-200,000	-0,013	-0,090
-219,855	-128,573	0,119	-0,012
-218,840	462,725	-0,051	-0,081
-217,825	52,437	0,057	-0,039
-216,811	-89,017	-0,065	-0,014
-215,796	-179,708	-0,181	-0,003
-214,782	250,419	-0,020	0,024
-213,767	-200,000	-0,001	0,006
-212,752	800,000	0,051	0,157
-211,738	-139,218	-0,046	0,003
-210,723	789,307	0,103	0,202
-209,709	-58,863	-0,048	-0,015
-208,694	586,353	-0,048	-0,084
-207,679	447,386	-0,139	-0,217
-206,665	-68,518	-0,030	0,008
-205,650	352,862	0,057	0,081
-204,636	-109,973	-0,079	0,012
-203,621	11,348	-0,022	-0,012
-202,606	-86,902	-0,038	-0,008
-201,592	-102,312	-0,098	-0,017
-200,577	-200,000	0,019	-0,113
-199,563	285,100	0,044	-0,056
-198,548	-200,000	0,002	-0,026
-197,533	33,114	0,016	-0,010
-196,519	51,716	0,115	0,078
-195,504	169,389	0,046	-0,047
-194,490	-200,000	0,050	-0,228
-193,475	-200,000	-0,023	-0,126
-192,460	58,661	0,092	0,064
-191,446	-47,434	0,161	0,055
-190,431	131,175	-0,026	0,024
-189,417	-157,178	-0,074	0,003
-188,402	-200,000	-0,002	0,183
-187,387	207,712	0,088	0,097
-186,373	309,413	0,046	-0,061
-185,358	-200,000	0,008	0,044
-184,344	214,484	0,032	0,036
-183,329	201,813	-0,037	0,040
-182,315	-200,000	0,022	0,071
-181,300	-200,000	0,008	-0,067
-180,285	800,000	0,075	-0,160
-179,271	-99,413	-0,186	-0,033
-178,256	-200,000	0,024	0,115
-177,242	-48,887	0,058	0,020
-176,227	-136,317	0,123	-0,010
-175,212	46,662	0,110	-0,072
-174,198	535,905	-0,040	-0,067
-173,183	-116,761	-0,154	0,020
-172,169	-48,917	-0,077	0,026
-171,154	69,624	-0,058	0,042
-170,139	97,952	0,091	0,074
-169,125	-124,856	-0,085	0,009
-168,110	16,954	-0,067	0,038
-167,096	100,488	-0,110	-0,090
-166,081	-200,000	0,004	0,052
-165,066	800,000	0,036	0,074
-164,052	-200,000	0,016	-0,068
-163,037	-107,946	-0,065	0,010
-162,023	-95,761	0,113	0,021
-161,008	-200,000	0,008	0,057
-159,993	-200,000	0,006	-0,103
-158,979	-7,745	0,036	0,017
-157,964	58,234	-0,128	0,089
-156,950	-12,451	-0,037	-0,017
-155,935	101,724	-0,085	0,070
-154,920	-14,561	0,102	0,046
-153,906	-200,000	-0,064	0,209
-152,891	-120,230	0,191	-0,023
-151,877	459,713	-0,090	-0,143
-150,862	514,989	-0,036	-0,060
-149,847	-200,000	-0,029	-0,105
-148,833	295,984	-0,046	-0,060
-147,818	-99,020	0,099	-0,018
-146,804	-77,887	0,053	0,013
-145,789	-29,003	0,036	-0,014
-144,775	559,124	-0,039	-0,066
-143,760	-200,000	0,005	0,027
-142,745	437,800	0,058	-0,090
-141,731	64,077	0,105	0,075
-140,716	-200,000	0,038	0,122
-139,702	800,000	0,038	-0,094
-138,687	577,334	-0,012	0,021
-137,672	-72,059	-0,148	-0,039
-136,658	-11,749	-0,043	-0,020
-135,643	-23,573	0,128	-0,054
-134,629	37,990	-0,109	0,069
-133,614	62,194	0,078	0,055
-132,599	-179,330	-0,135	-0,002
-131,585	-200,000	-0,059	-0,186
-130,570	-200,000	0,001	0,077
-129,556	-200,000	0,017	-0,186
-128,541	315,525	-0,075	-0,101
-127,526	127,543	-0,123	-0,110
-126,512	-200,000	0,007	0,127
-125,497	-19,059	0,129	0,056
-124,483	106,589	0,112	0,094
-123,468	25,066	0,035	0,020
-122,453	145,815	-0,063	0,060
-121,439	345,224	-0,006	-0,008
-120,424	-16,717	-0,081	-0,036
-119,410	-200,000	0,010	-0,056
-118,395	-200,000	-0,002	0,050
-117,380	429,977	0,075	0,115
-116,366	-36,383	0,053	0,020
-115,351	-200,000	-0,022	-0,118
-114,337	-53,979	-0,123	0,040
-113,322	-41,527	0,031	-0,011
-112,307	374,233	-0,036	0,053
-111,293	-27,190	0,131	0,054
-110,278	70,958	-0,037	-0,027
-109,264	247,486	-0,066	-0,079
-108,249	-66,050	-0,035	0,010
-107,234	-61,629	0,049	-0,014
-106,220	12,134	-0,033	-0,018
-105,205	-200,000	0,021	-0,082
-104,191	58,029	0,046	0,032
-103,176	-142,727	0,114	0,008
-102,162	800,000	-0,039	0,096
-101,147	800,000	-0,057	-0,144
-100,132	800,000	-0,044	-0,089
-99,118	93,979	0,023	0,018
-98,103	-200,000	0,025	0,093
-97,089	59,554	0,093	-0,064
-96,074	113,960	-0,078	0,067
-95,059	442,707	0,064	-0,099
-94,045	-85,544	-0,086	-0,019
-93,030	444,082	-0,088	-0,137
-92,016	-200,000	-0,004	-0,024
-91,001	177,612	0,046	0,047
-89,986	-127,793	0,084	0,008
-88,972	800,000	-0,042	0,098
-87,957	-0,088	0,042	-0,021
-86,943	-113,483	-0,040	-0,006
-85,928	31,280	-0,062	-0,038
-84,913	620,576	-0,063	0,112
-83,899	-200,000	0,023	0,075
-82,884	800,000	0,046	-0,094
-81,870	90,439	0,022	-0,018
-80,855	49,875	0,062	0,041
-79,840	-16,160	0,057	-0,025
-78,826	121,356	-0,108	-0,095
-77,811	-137,532	-0,073	-0,006
-76,797	-200,000	-0,012	-0,054
-75,782	-104,714	0,071	-0,011
-74,767	800,000	-0,019	0,054
-73,753	-10,846	0,051	0,024
-72,738	625,686	-0,071	-0,128
-71,724	196,764	-0,059	-0,063
-70,709	-106,781	-0,173	-0,027
-69,694	-200,000	0,053	0,173
-68,680	-77,169	0,083	0,020
-67,665	617,647	-0,028	-0,049
-66,651	38,555	-0,111	0,070
-65,636	-93,868	0,062	-0,012
-64,622	38,721	-0,080	-0,050
-63,607	132,724	-0,099	0,091
-62,592	-200,000	0,015	-0,126
-61,578	-71,812	0,117	0,031
-60,563	503,147	0,059	-0,097
-59,549	386,449	-0,034	-0,050
-58,534	48,919	-1,958	-1,295
-57,519	475,093	-1,193	-1,907
-56,505	-200,000	-0,459	-4,296
-55,490	602,774	0,924	1,628
-54,476	800,000	5,093	11,348
-53,461	-200,000	21,758	344,861
-52,446	800,000	763,601	2345,026
-51,432	547,006	1663,021	2818,535
-50,417	71,510	1659,175	1214,286
-49,403	17,292	1532,416	855,791
-48,388	11,323	1456,388	784,491
-47,373	19,391	1447,949	818,589
-46,359	14,831	1436,915	790,666
-45,344	9,627	1432,747	763,589
-44,330	9,565	1430,908	762,281
-43,315	9,569	1429,021	761,264
-42,300	9,496	1427,388	760,018
-41,286	9,569	1426,173	759,689
-40,271	9,518	1425,000	758,793
-39,257	9,503	1423,988	758,154
-38,242	9,565	1422,665	757,712
-37,227	9,562	1421,467	757,029
-36,213	9,556	1420,328	756,363
-35,198	9,569	1419,198	755,794
-34,184	9,591	1418,068	755,266
-33,169	9,551	1416,655	754,294
-32,154	9,562	1415,776	753,846
-31,140	9,588	1414,457	753,239
-30,125	9,622	1413,177	752,685
-29,111	9,607	1412,264	752,101
-28,096	9,558	1411,018	751,176
-27,082	9,536	1409,819	750,406
-26,067	9,510	1408,702	749,659
-25,052	9,513	1407,813	749,170
-24,038	9,530	1406,913	748,741
-23,023	9,513	1405,901	748,092
-22,009	9,499	1404,914	747,471
-20,994	9,536	1403,794	747,022
-19,979	9,514	1402,912	746,416
-18,965	9,479	1402,002	745,743
-17,950	9,462	1401,160	745,182
-16,936	9,455	1400,351	744,691
-15,921	9,383	1399,470	743,857
-14,906	9,422	1398,384	743,433
-13,892	9,480	1397,341	743,120
-12,877	9,437	1396,571	742,479
-11,863	9,491	1395,551	742,161
-10,848	9,404	1394,776	741,313
-9,833	9,386	1393,741	740,649
-8,819	9,362	1393,033	740,136
-7,804	9,308	1392,218	739,425
-6,790	9,334	1391,113	738,929
-5,775	9,330	1389,932	738,251
-4,760	9,350	1389,044	737,844
-3,746	9,351	1388,071	737,301
-2,731	9,412	1387,200	737,091
-1,717	9,338	1386,371	736,280
-0,702	9,335	1384,769	735,387
0,313	13,423	1296,877	707,359
1,327	29,527	687,601	411,424
2,342	46,051	118,663	77,323
3,356	-1,015	16,604	8,255
4,371	4,443	3,739	1,927
5,386	-15,490	1,204	0,540
6,400	800,000	0,228	0,635
7,415	33,694	-0,226	-0,138
8,429	29,584	-0,293	-0,175
9,444	34,161	-0,469	-0,288
10,459	-26,214	-0,381	-0,157
11,473	-32,875	-0,340	-0,132
12,488	12,158	-0,269	-0,145
13,502	20,137	-0,336	-0,190
14,517	59,317	-0,403	-0,279
15,531	463,614	-0,222	-0,350
16,546	183,620	-0,206	-0,215
17,561	162,224	-0,386	-0,382
18,575	96,310	-0,200	-0,161
19,590	5,070	-0,231	-0,119
20,604	-85,428	-0,335	-0,073
21,619	40,183	-0,499	-0,315
22,634	91,182	-0,447	-0,353
23,648	160,491	-0,313	-0,308
24,663	164,390	-0,430	-0,426
25,677	427,756	-0,229	-0,350
26,692	475,236	-0,130	-0,207
27,707	20,775	-0,413	-0,235
28,721	237,429	-0,309	-0,362
29,736	70,210	-0,400	-0,290
30,750	224,514	-0,293	-0,334
31,765	347,595	-0,295	-0,409
32,780	127,449	-0,248	-0,222
33,794	97,727	-0,310	-0,251
34,809	525,125	-0,115	-0,191
35,823	-93,279	-0,277	-0,054
36,838	123,275	-0,449	-0,395
37,853	52,408	-0,428	-0,287
38,867	-2,866	-0,449	-0,220
39,882	120,128	-0,255	-0,222
40,896	70,020	-0,276	-0,200
41,911	86,645	-0,355	-0,275
42,926	178,516	-0,266	-0,273
43,940	292,420	-0,273	-0,351
44,955	126,046	-0,377	-0,335
45,969	58,707	-0,395	-0,272
46,984	149,069	-0,297	-0,283
47,999	-5,511	-0,337	-0,162
49,013	367,544	-0,275	-0,391
50,028	-124,233	-0,431	-0,047
51,042	149,804	-0,294	-0,280
52,057	155,612	-0,289	-0,280
53,071	193,541	-0,312	-0,331
54,086	97,098	-0,291	-0,234
55,101	295,004	-0,247	-0,318
56,115	21,218	-0,391	-0,222
57,130	93,882	-0,270	-0,215
58,144	-5,340	-0,332	-0,159
59,159	110,435	-0,463	-0,390
60,174	2,336	-0,428	-0,216
61,188	88,296	-0,339	-0,264
62,203	-62,091	-0,321	-0,093
63,217	-25,123	-0,329	-0,136
64,232	33,763	-0,365	-0,222
65,247	122,545	-0,280	-0,245
66,261	157,783	-0,316	-0,307
67,276	77,236	-0,375	-0,279
68,290	54,576	-0,379	-0,256
69,305	182,039	-0,241	-0,249
70,320	-37,058	-0,347	-0,129
71,334	137,389	-0,224	-0,206
72,349	-17,686	-0,338	-0,148
73,363	264,144	-0,311	-0,379
74,378	140,109	-0,268	-0,248
75,393	-28,067	-0,315	-0,127
76,407	-33,009	-0,345	-0,133
77,422	-67,080	-0,377	-0,103
78,436	158,913	-0,267	-0,260
79,451	9,775	-0,417	-0,221
80,466	79,831	-0,300	-0,225
81,480	11,971	-0,384	-0,206
82,495	-119,016	-0,365	0,044
83,509	39,033	-0,220	-0,138
84,524	-68,990	-0,238	-0,064
85,539	24,308	-0,329	-0,190
86,553	-68,924	-0,348	-0,093
87,568	16,500	-0,226	-0,125
88,582	-114,868	-0,250	-0,033
89,597	148,516	-0,225	-0,213
90,611	13,083	-0,246	-0,133
91,626	-5,199	-0,303	-0,145
92,641	-24,304	-0,278	-0,116
93,655	60,189	-0,197	-0,136
94,670	98,699	-0,315	-0,254
95,684	444,553	-0,247	-0,380
96,699	-33,308	-0,347	-0,134
97,714	569,449	-0,121	-0,207
98,728	-25,812	-0,335	-0,137
99,743	-11,401	-0,245	-0,112
100,757	-107,589	-0,289	-0,044
101,772	694,217	-0,158	-0,291
102,787	-7,169	-0,338	-0,160
103,801	-1,143	-0,306	-0,151
104,816	20,957	-0,381	-0,215
105,830	83,912	-0,298	-0,227
106,845	88,816	-0,194	-0,151
107,860	-53,815	-0,342	-0,108
108,874	8,025	-0,353	-0,184
109,889	14,313	-0,321	-0,175
110,903	4,595	-0,252	-0,129
111,918	108,051	-0,284	-0,236
112,933	12,043	-0,153	-0,082
113,947	549,250	-0,101	-0,169
114,962	10,241	-0,138	-0,073
115,976	164,532	-0,244	-0,241
116,991	53,900	-0,340	-0,228
118,006	147,856	-0,277	-0,260
119,020	-2,884	-0,223	-0,108
120,035	238,750	-0,222	-0,258
121,049	416,086	-0,162	-0,241
122,064	-27,173	-0,322	-0,130
123,079	187,268	-0,182	-0,190
124,093	15,764	-0,331	-0,181
125,108	220,440	-0,244	-0,274
126,122	64,640	-0,302	-0,212
127,137	-8,288	-0,272	-0,127
128,151	-73,587	-0,356	-0,090
129,166	-75,171	-0,170	-0,042
130,181	329,846	-0,148	-0,199
131,195	112,585	-0,263	-0,222
132,210	95,119	-0,275	-0,218
133,224	448,038	-0,180	-0,277
134,239	153,146	-0,200	-0,191
135,254	2,290	-0,166	-0,083
136,268	-200,000	-0,056	-0,247
137,283	114,919	-0,277	-0,235
138,297	162,653	-0,220	-0,216
139,312	56,808	-0,259	-0,175
140,327	349,821	-0,172	-0,238
141,341	3,279	-0,234	-0,118
142,356	135,312	-0,207	-0,187
143,370	800,000	-0,113	-0,240
144,385	69,309	-0,268	-0,192
145,400	270,407	-0,212	-0,260
146,414	16,257	-0,293	-0,160
147,429	-118,335	-0,270	0,033
148,443	-47,187	-0,154	0,052
149,458	147,550	-0,130	-0,122
150,473	-200,000	0,030	-0,277
151,487	-21,058	-0,220	-0,093
152,502	-120,153	-0,247	-0,029
153,516	19,168	-0,289	-0,161
154,531	46,592	-0,201	-0,129
155,546	101,548	-0,230	-0,187
156,560	-38,946	-0,145	-0,053
157,575	-53,694	-0,308	-0,097
158,589	237,696	-0,170	-0,196
159,604	102,732	-0,274	-0,223
160,619	130,123	-0,286	-0,254
161,633	101,131	-0,261	-0,211
162,648	139,972	-0,209	-0,191
163,662	19,350	-0,168	-0,093
164,677	205,030	-0,209	-0,226
165,692	54,245	-0,234	-0,156
166,706	351,611	-0,156	-0,216
167,721	26,707	-0,275	-0,160
168,735	8,932	-0,271	-0,142
169,750	156,591	-0,215	-0,207
170,764	-84,988	-0,164	-0,036
171,779	800,000	-0,074	-0,166
172,794	-39,135	-0,331	-0,120
173,808	-137,981	-0,140	0,011
174,823	715,147	-0,147	-0,272
175,837	17,669	-0,322	-0,178
176,852	42,244	-0,351	-0,221
177,867	2,908	-0,206	-0,103
178,881	255,174	-0,145	-0,173
179,896	201,824	-0,148	-0,158
180,910	462,894	-0,192	-0,299
181,925	35,622	-0,231	-0,140
182,940	170,646	-0,208	-0,207
183,954	-89,883	-0,417	-0,084
184,969	800,000	-0,122	-0,239
185,983	-86,258	-0,297	-0,063
186,998	186,286	-0,083	-0,086
188,013	42,447	-0,205	-0,129
189,027	-112,154	-0,275	-0,038
190,042	-173,765	-0,165	0,003
191,056	-21,590	-0,255	-0,107
192,071	800,000	-0,045	-0,096
193,086	99,033	-0,233	-0,186
194,100	34,760	-0,107	-0,065
195,115	-200,000	-0,023	-0,194
196,129	-45,492	-0,170	-0,058
197,144	593,582	-0,214	-0,368
198,159	105,228	-0,175	-0,143
199,173	33,118	-0,176	-0,105
200,188	-87,024	-0,118	-0,025
201,202	-53,682	-0,225	-0,071
202,217	-5,963	-0,226	-0,107
203,232	-14,164	-0,229	-0,102
204,246	216,447	-0,238	-0,262
205,261	18,855	-0,270	-0,149
206,275	-193,521	-0,226	-0,001
207,290	566,127	-0,120	-0,202
208,304	152,868	-0,143	-0,135
209,319	-64,516	-0,169	-0,047
210,334	-52,159	-0,137	-0,044
211,348	-13,795	-0,279	-0,125
212,363	270,038	-0,242	-0,295
213,377	-200,000	-0,036	-0,191
214,392	-53,082	-0,215	-0,068
215,407	41,900	-0,260	-0,163
216,421	20,337	-0,195	-0,109
217,436	7,879	-0,209	-0,108
218,450	-60,581	-0,160	-0,047
219,465	322,218	-0,138	-0,183
220,480	64,754	-0,261	-0,182
221,494	-57,066	-0,258	-0,078
222,509	-158,393	-0,178	0,007
223,523	-6,536	-0,089	0,042
224,538	135,598	-0,177	-0,159
225,553	-28,439	-0,251	-0,100
226,567	2,127	-0,207	-0,103
227,582	9,637	-0,214	-0,112
228,596	253,848	-0,196	-0,232
229,611	68,588	-0,177	-0,125
230,626	50,430	-0,261	-0,170
231,640	122,689	-0,258	-0,223
232,655	94,222	-0,178	-0,139
233,669	95,935	-0,159	-0,126
234,684	-24,531	-0,232	-0,095
235,699	151,503	-0,154	-0,145
236,713	76,517	-0,150	-0,110
237,728	269,467	-0,159	-0,193
238,742	5,761	-0,294	-0,149
239,757	107,347	-0,202	-0,166
240,772	127,458	-0,188	-0,165
241,786	78,344	-0,187	-0,138
242,801	342,042	-0,037	-0,050
243,815	283,335	-0,078	-0,097
244,830	237,203	-0,157	-0,180
245,844	-88,452	-0,197	-0,040
246,859	313,378	-0,142	-0,185
247,874	-91,718	-0,270	-0,053
248,888	42,777	-0,249	-0,156
249,903	-119,907	-0,065	-0,008
250,917	-84,626	-0,152	-0,033
251,932	-144,742	-0,233	0,015
252,947	-32,414	-0,181	-0,069
253,961	73,803	-0,127	-0,091
254,976	582,278	-0,148	-0,252
255,990	69,462	-0,299	-0,212
257,005	361,398	-0,023	-0,032
258,020	-90,448	-0,111	-0,022
259,034	271,258	-0,114	-0,138
260,049	-76,280	-0,168	-0,040
261,063	-72,150	-0,264	0,067
262,078	286,433	-0,189	-0,236
263,093	-63,551	-0,325	-0,091
264,107	-28,217	-0,155	-0,062
265,122	-168,131	-0,145	-0,004
266,136	371,429	-0,141	-0,198
267,151	284,671	-0,139	0,173
268,166	159,918	-0,143	-0,138
269,180	138,626	-0,204	-0,184
270,195	-200,000	-0,040	-0,186
271,209	119,518	-0,240	-0,205
272,224	800,000	-0,037	-0,081
273,239	-44,219	-0,210	-0,072
274,253	-104,704	-0,100	-0,016
275,268	-95,231	-0,325	-0,060
276,282	95,792	-0,172	-0,135
277,297	110,899	-0,235	-0,194
278,312	236,552	-0,122	-0,139
279,326	75,574	-0,166	-0,120
280,341	-106,227	-0,170	0,026
281,355	123,452	-0,095	-0,082
282,370	85,277	-0,129	-0,097
283,384	46,618	-0,166	-0,106
284,399	-104,324	-0,164	-0,026
285,414	-92,798	-0,256	-0,049
286,428	232,897	-0,098	-0,111
287,443	-57,957	-0,257	-0,077
288,457	120,613	-0,082	-0,070
289,472	-124,317	-0,201	-0,021
290,487	-35,303	-0,131	-0,049
291,501	-43,301	-0,186	-0,064
292,516	-40,404	-0,193	-0,069
293,530	8,818	-0,102	-0,053
294,545	335,257	-0,024	-0,032
295,560	800,000	-0,041	-0,121
296,574	-156,072	-0,167	-0,007
297,589	249,794	-0,153	-0,179
298,603	-101,741	-0,270	-0,044
299,618	49,472	-0,170	-0,110
300,633	249,918	-0,191	-0,223
301,647	204,249	-0,110	-0,118
302,662	-6,022	-0,074	0,035
303,676	-111,777	-0,086	-0,012
304,691	-200,000	-0,023	-0,278
305,706	440,172	-0,069	-0,105
306,720	26,150	-0,107	-0,061
307,735	165,253	-0,079	-0,077
308,749	104,016	-0,138	-0,112
309,764	136,954	-0,106	-0,095
310,779	96,755	-0,156	-0,123
311,793	800,000	-0,049	-0,137
312,808	450,610	-0,147	-0,224
313,822	241,050	-0,141	-0,162
314,837	800,000	-0,141	-0,302
315,852	-200,000	-0,006	-0,167
316,866	800,000	-0,057	-0,134
317,881	436,919	-0,140	-0,209
318,895	86,532	-0,187	-0,141
319,910	7,401	-0,179	-0,092
320,925	-89,101	-0,231	-0,046
321,939	-200,000	-0,005	-0,086
322,954	229,692	-0,114	-0,128
323,968	-137,299	-0,186	0,014
324,983	170,132	-0,125	0,123
325,997	-122,003	-0,164	0,018
327,012	-10,946	-0,130	-0,058
328,027	258,084	-0,108	-0,128
329,041	-200,000	-0,061	-0,209
330,056	800,000	-0,058	-0,163
331,070	192,425	-0,022	-0,023
332,085	120,762	-0,071	-0,060
333,100	261,043	-0,118	-0,141
334,114	329,724	-0,135	-0,178
335,129	-41,515	-0,112	-0,039
336,143	-19,942	-0,293	-0,124
337,158	-200,000	-0,020	-0,174
338,173	-200,000	-0,016	-0,061
339,187	44,837	-0,104	-0,065
340,202	-200,000	-0,049	-0,201
341,216	800,000	-0,082	-0,229
342,231	91,377	-0,028	-0,021
343,246	10,979	-0,168	-0,087
344,260	221,768	-0,055	-0,060
345,275	138,987	-0,177	-0,159
346,289	-64,683	-0,180	-0,049
347,304	139,100	-0,168	-0,151
348,319	-179,375	-0,169	-0,002
349,333	634,851	-0,151	-0,263
350,348	-44,983	-0,185	-0,063
351,362	181,114	-0,124	-0,125
352,377	-55,181	-0,127	0,039
353,392	800,000	-0,066	-0,137
354,406	800,000	-0,126	-0,281
355,421	206,189	1311,017	1396,421
356,435	158,564	1471,260	1396,900
