DTS Sentinel unit serial number:	SN410029Multiplexer serial number:	ORYXHardware model number:	OX2-SRSoftware version number:	ORYX F/W v4,00 Oryx Data Collector v3.7.2.0data status	okinstallation	B3 Nyhavnadifferential loss correction	single-endedforward channel	channel 1reverse channel	N/Adate	2023/12/04time	20:52:30forward acquisition time	300,00reverse acquisition time	0,00gamma	499,1914k internal	0,3200k external	0,3200temperature offset calibration	1,0000default loss term (dB/km)	0,3820temperature slope calibration	1,0000multiplexer offset coefficient	1,0000multiplexer slope coefficient	1,0000fibre end	0,00T internal ref (°C)	14,47T ext. ref 1 (°C)	-0,33T ext. ref 2 (°C)	-0,35length (m)	temperature (°C)	Stokes	anti-Stokes-744,400	60,652	-0,236	-0,170
-743,385	-200,000	-0,056	0,390
-742,371	98,612	-0,240	-0,201
-741,356	-200,000	0,052	0,468
-740,342	477,936	-0,169	-0,279
-739,327	751,485	-0,107	0,211
-738,312	115,598	-0,159	-0,142
-737,298	-200,000	0,064	0,351
-736,283	-127,811	-0,252	-0,026
-735,269	-200,000	0,069	0,423
-734,254	171,614	-0,231	-0,242
-733,239	-52,953	-0,161	0,054
-732,225	410,818	-0,137	-0,212
-731,210	427,962	0,185	0,291
-730,196	50,381	-0,111	-0,076
-729,181	190,123	-0,012	-0,013
-728,167	-200,000	-0,027	0,123
-727,152	-200,000	-0,017	0,069
-726,137	-200,000	-0,049	-0,162
-725,123	-91,068	0,052	0,011
-724,108	-45,016	-0,169	-0,061
-723,094	-200,000	-0,014	0,055
-722,079	30,169	-0,176	-0,109
-721,064	380,187	0,090	-0,135
-720,050	-86,671	0,055	-0,012
-719,035	136,552	-0,018	0,017
-718,021	-76,626	0,023	0,006
-717,006	378,014	-0,087	-0,129
-715,991	800,000	-0,070	-0,164
-714,977	27,998	-0,006	-0,004
-713,962	800,000	-0,032	0,071
-712,948	157,129	0,014	0,014
-711,933	-200,000	0,006	0,059
-710,918	58,131	0,017	-0,012
-709,904	-101,577	-0,149	0,026
-708,889	-34,275	-0,164	-0,065
-707,875	800,000	-0,065	-0,175
-706,860	-64,656	0,073	-0,021
-705,845	800,000	-0,031	-0,070
-704,831	-147,409	0,082	-0,005
-703,816	355,405	-0,094	-0,137
-702,802	-1,673	-0,081	0,041
-701,787	-69,808	0,052	-0,014
-700,772	-200,000	-0,007	0,082
-699,758	-183,504	0,076	-0,001
-698,743	304,520	-0,074	0,100
-697,729	27,587	0,214	0,130
-696,714	800,000	0,041	-0,096
-695,699	-110,483	-0,088	0,013
-694,685	90,576	-0,039	-0,032
-693,670	-200,000	-0,025	-0,151
-692,656	-135,918	0,080	0,007
-691,641	-59,996	0,051	0,016
-690,627	-118,198	0,013	-0,002
-689,612	18,824	-0,027	-0,015
-688,597	-200,000	-0,028	-0,092
-687,583	367,389	-0,068	0,100
-686,568	115,024	-0,054	0,048
-685,554	800,000	0,067	0,140
-684,539	-124,227	0,038	0,004
-683,524	-200,000	-0,015	0,166
-682,510	10,759	0,098	-0,054
-681,495	-22,738	-0,032	-0,014
-680,481	40,551	-0,156	0,102
-679,466	84,949	-0,156	0,124
-678,451	184,989	-0,074	-0,080
-677,437	-100,637	0,108	0,019
-676,422	-200,000	-0,018	0,081
-675,408	-148,470	0,051	0,003
-674,393	-200,000	0,000	0,005
-673,378	3,434	0,151	-0,079
-672,364	-200,000	-0,032	-0,117
-671,349	800,000	0,041	0,083
-670,335	-80,917	-0,056	-0,013
-669,320	120,205	0,140	0,126
-668,305	-200,000	-0,007	0,043
-667,291	190,148	-0,075	0,082
-666,276	-144,151	-0,083	0,006
-665,262	-200,000	-0,057	-0,237
-664,247	800,000	-0,038	-0,083
-663,232	-131,503	0,120	-0,011
-662,218	-200,000	0,022	-0,079
-661,203	363,257	-0,057	0,083
-660,189	408,202	-0,067	0,103
-659,174	149,923	-0,076	0,075
-658,159	-100,837	-0,064	0,011
-657,145	35,304	0,018	-0,012
-656,130	-200,000	-0,021	-0,069
-655,116	424,212	0,086	0,134
-654,101	800,000	-0,071	0,172
-653,086	254,170	-0,049	0,061
-652,072	800,000	-0,024	0,058
-651,057	23,018	-0,139	-0,082
-650,043	-200,000	-0,001	-0,132
-649,028	105,135	-0,058	0,049
-648,014	132,967	0,079	-0,074
-646,999	581,342	0,038	0,068
-645,984	59,243	-0,077	-0,055
-644,970	800,000	0,020	-0,043
-643,955	43,364	-0,123	-0,081
-642,941	258,612	0,105	0,132
-641,926	-72,757	0,106	-0,028
-640,911	-157,881	-0,075	0,003
-639,897	-200,000	0,016	-0,076
-638,882	-200,000	-0,007	0,030
-637,868	-4,492	-0,095	-0,048
-636,853	800,000	-0,031	-0,073
-635,838	430,929	-0,034	-0,053
-634,824	200,384	0,133	-0,149
-633,809	16,199	-0,095	-0,054
-632,795	66,515	-0,050	0,037
-631,780	-200,000	-0,028	0,112
-630,765	76,979	-0,134	-0,103
-629,751	290,910	0,015	-0,019
-628,736	-139,907	-0,071	0,005
-627,722	-103,559	-0,124	-0,021
-626,707	-200,000	-0,037	-0,129
-625,692	-32,347	-0,057	-0,023
-624,678	2,826	0,208	0,109
-623,663	-86,204	-0,162	-0,036
-622,649	-200,000	-0,019	-0,099
-621,634	800,000	-0,076	-0,179
-620,619	-200,000	-0,011	-0,098
-619,605	-79,112	0,105	-0,026
-618,590	-200,000	-0,024	0,086
-617,576	101,310	0,120	-0,101
-616,561	-28,500	-0,080	0,033
-615,546	-200,000	0,003	-0,057
-614,532	137,794	-0,032	-0,030
-613,517	-42,361	0,118	-0,043
-612,503	112,105	0,082	0,071
-611,488	150,795	0,108	-0,106
-610,474	126,843	0,054	0,050
-609,459	-86,081	-0,042	0,009
-608,444	238,508	-0,003	-0,004
-607,430	155,763	0,106	0,106
-606,415	-200,000	0,000	-0,059
-605,401	447,942	-0,069	0,111
-604,386	-200,000	-0,001	-0,007
-603,371	-200,000	-0,012	-0,129
-602,357	-7,561	0,088	0,043
-601,342	-200,000	0,031	0,106
-600,328	-200,000	-0,008	-0,039
-599,313	800,000	0,020	-0,048
-598,298	-147,255	-0,081	0,005
-597,284	800,000	-0,028	-0,085
-596,269	800,000	0,030	0,085
-595,255	-200,000	0,028	-0,118
-594,240	-25,189	0,069	-0,029
-593,225	60,788	-0,173	-0,124
-592,211	-132,369	-0,039	0,004
-591,196	300,875	0,056	-0,075
-590,182	33,146	-0,058	0,036
-589,167	-170,434	0,127	0,003
-588,152	-200,000	-0,037	0,148
-587,138	45,405	-0,157	0,105
-586,123	-200,000	-0,012	-0,058
-585,109	800,000	0,058	-0,171
-584,094	-200,000	0,012	0,072
-583,079	-113,464	0,106	0,015
-582,065	-128,382	0,094	0,010
-581,050	800,000	0,048	0,115
-580,036	-85,636	0,102	0,023
-579,021	-99,058	-0,131	-0,024
-578,006	-26,527	-0,041	0,017
-576,992	24,306	-0,091	-0,054
-575,977	-200,000	0,008	-0,038
-574,963	-200,000	0,005	0,084
-573,948	117,026	0,076	-0,067
-572,934	-49,159	-0,077	-0,026
-571,919	-200,000	0,001	-0,059
-570,904	-200,000	0,022	-0,147
-569,890	158,849	-0,088	-0,088
-568,875	277,253	0,056	-0,072
-567,861	-200,000	-0,015	-0,056
-566,846	-200,000	0,015	0,066
-565,831	-56,521	-0,069	0,022
-564,817	-56,195	-0,247	0,079
-563,802	446,459	0,063	-0,101
-562,788	-200,000	-0,004	-0,041
-561,773	-42,067	0,038	-0,014
-560,758	5,824	0,038	-0,020
-559,744	800,000	-0,063	-0,128
-558,729	-200,000	0,006	-0,021
-557,715	123,977	-0,126	-0,114
-556,700	595,091	-0,037	0,066
-555,685	2,195	0,085	-0,044
-554,671	-200,000	0,022	-0,082
-553,656	191,664	0,077	-0,084
-552,642	235,618	0,047	0,057
-551,627	234,722	0,039	0,046
-550,612	100,078	0,036	0,030
-549,598	-27,526	-0,094	-0,039
-548,583	-73,075	-0,074	-0,020
-547,569	-200,000	0,003	0,009
-546,554	35,506	0,048	0,030
-545,539	30,190	-0,048	0,029
-544,525	561,191	0,047	0,082
-543,510	-200,000	0,012	-0,119
-542,496	286,075	-0,079	-0,103
-541,481	534,724	0,007	-0,012
-540,466	57,091	-0,124	-0,087
-539,452	-72,498	0,016	0,004
-538,437	-4,987	-0,092	0,046
-537,423	66,676	-0,132	-0,097
-536,408	-81,483	0,100	-0,024
-535,393	800,000	-0,108	-0,226
-534,379	67,118	-0,017	-0,012
-533,364	-120,639	-0,093	0,011
-532,350	800,000	-0,039	0,094
-531,335	285,552	-0,051	0,067
-530,321	332,649	0,120	0,167
-529,306	457,722	0,049	-0,079
-528,291	-200,000	0,006	-0,198
-527,277	193,078	-0,088	-0,096
-526,262	38,382	-0,115	0,074
-525,248	45,472	0,055	0,037
-524,233	37,355	0,166	0,106
-523,218	-183,335	0,146	-0,002
-522,204	324,022	0,116	0,161
-521,189	105,259	-0,074	-0,063
-520,175	-200,000	-0,021	-0,136
-519,160	-57,366	-0,085	-0,027
-518,145	-15,268	-0,056	-0,026
-517,131	-145,155	0,098	-0,006
-516,116	178,888	-0,058	0,061
-515,102	19,329	0,066	0,038
-514,087	245,430	0,073	-0,089
-513,072	171,928	-0,013	0,014
-512,058	344,929	-0,098	0,139
-511,043	45,958	0,098	0,065
-510,029	-200,000	-0,008	0,026
-509,014	-53,626	-0,090	0,030
-507,999	-200,000	-0,005	-0,066
-506,985	-87,965	-0,137	0,030
-505,970	-111,464	-0,066	0,010
-504,956	-12,818	-0,144	0,067
-503,941	110,235	-0,066	0,057
-502,926	800,000	0,022	0,059
-501,912	333,577	0,062	0,086
-500,897	784,061	0,032	-0,063
-499,883	449,218	0,039	0,062
-498,868	-200,000	0,010	0,053
-497,853	-200,000	0,001	0,030
-496,839	-34,046	-0,052	0,021
-495,824	800,000	0,020	0,047
-494,810	242,341	-0,074	-0,090
-493,795	77,606	0,055	0,042
-492,781	19,548	0,059	-0,034
-491,766	51,291	-0,106	-0,072
-490,751	210,670	0,098	-0,111
-489,737	-1,795	0,102	0,052
-488,722	30,727	0,020	0,012
-487,708	800,000	-0,051	0,119
-486,693	-200,000	-0,020	0,160
-485,678	-200,000	0,023	0,081
-484,664	-28,967	-0,125	-0,051
-483,649	-200,000	0,021	0,071
-482,635	-200,000	0,016	-0,138
-481,620	-183,950	0,093	0,001
-480,605	60,584	0,053	0,038
-479,591	-200,000	-0,011	0,063
-478,576	330,189	-0,011	0,015
-477,562	-28,243	-0,024	-0,010
-476,547	800,000	-0,025	-0,068
-475,532	85,881	-0,043	0,034
-474,518	800,000	-0,073	0,188
-473,503	800,000	-0,003	-0,007
-472,489	6,306	0,088	-0,047
-471,474	-70,981	-0,124	-0,033
-470,459	-82,068	0,178	0,042
-469,445	9,505	-0,050	-0,027
-468,430	286,268	0,028	0,036
-467,416	-26,248	0,085	0,036
-466,401	54,808	0,172	0,119
-465,386	800,000	-0,032	0,077
-464,372	386,824	-0,070	-0,105
-463,357	129,382	-0,094	0,086
-462,343	284,004	-0,052	0,067
-461,328	-117,151	-0,133	0,017
-460,313	-60,604	-0,023	-0,007
-459,299	66,662	-0,022	-0,016
-458,284	-200,000	0,003	-0,014
-457,270	-200,000	0,000	-0,126
-456,255	58,513	0,058	-0,041
-455,241	-200,000	-0,002	-0,126
-454,226	-128,684	0,162	0,016
-453,211	40,618	-0,105	-0,068
-452,197	800,000	0,028	-0,073
-451,182	23,463	0,066	0,039
-450,168	-50,164	-0,020	-0,007
-449,153	420,013	-0,030	0,046
-448,138	-200,000	0,010	0,037
-447,124	304,785	-0,053	0,071
-446,109	322,023	-0,010	-0,014
-445,095	89,447	0,069	0,055
-444,080	800,000	0,039	0,082
-443,065	91,367	-0,103	-0,083
-442,051	76,143	0,145	0,111
-441,036	-68,675	-0,112	0,031
-440,022	-43,586	0,064	0,023
-439,007	-41,770	-0,092	0,034
-437,992	800,000	0,045	0,096
-436,978	-200,000	-0,005	0,183
-435,963	4,528	-0,112	-0,059
-434,949	-72,922	0,106	0,028
-433,934	-159,447	-0,100	-0,004
-432,919	-45,665	-0,176	0,062
-431,905	-200,000	0,009	-0,171
-430,890	800,000	-0,031	-0,069
-429,876	800,000	0,037	0,082
-428,861	7,047	0,046	0,024
-427,846	264,763	0,030	-0,038
-426,832	-2,802	-0,099	-0,049
-425,817	-62,102	0,037	0,011
-424,803	64,643	0,050	-0,036
-423,788	155,641	-0,160	0,158
-422,773	121,811	0,081	-0,072
-421,759	-200,000	-0,015	0,054
-420,744	-64,747	0,108	-0,031
-419,730	-111,220	-0,198	0,029
-418,715	-200,000	0,020	-0,145
-417,701	-27,735	-0,098	0,041
-416,686	11,549	0,033	0,018
-415,671	-115,867	0,065	0,009
-414,657	-200,000	0,000	0,005
-413,642	-18,681	0,070	0,031
-412,628	-43,733	0,103	0,037
-411,613	800,000	-0,039	0,081
-410,598	19,238	0,103	-0,059
-409,584	800,000	0,042	0,105
-408,569	-146,150	0,073	-0,005
-407,555	-2,015	-0,174	-0,087
-406,540	667,205	-0,089	0,166
-405,525	179,484	0,036	0,038
-404,511	39,582	-0,102	-0,065
-403,496	280,691	0,037	0,048
-402,482	800,000	-0,028	-0,077
-401,467	-111,145	0,046	0,007
-400,452	800,000	0,041	0,127
-399,438	800,000	-0,028	0,065
-398,423	-200,000	-0,009	0,094
-397,409	94,653	-0,062	-0,050
-396,394	-200,000	-0,064	-0,206
-395,379	229,860	0,082	-0,096
-394,365	26,103	0,066	-0,039
-393,350	469,896	-0,098	0,159
-392,336	-200,000	-0,022	0,097
-391,321	72,808	0,178	0,134
-390,306	-99,765	-0,037	-0,007
-389,292	-124,654	-0,149	-0,016
-388,277	-200,000	0,023	0,087
-387,263	-2,865	-0,005	0,003
-386,248	-20,692	0,111	0,049
-385,233	183,905	0,049	-0,052
-384,219	130,935	-0,015	-0,013
-383,204	800,000	-0,041	-0,108
-382,190	453,675	0,086	-0,136
-381,175	7,803	-0,060	0,032
-380,160	-90,159	0,101	0,021
-379,146	18,047	-0,074	0,042
-378,131	69,154	0,055	-0,040
-377,117	-148,715	0,107	-0,006
-376,102	-3,331	-0,051	0,025
-375,088	-32,946	-0,051	-0,020
-374,073	43,330	-0,102	0,067
-373,058	-200,000	0,003	-0,047
-372,044	-6,024	0,122	0,060
-371,029	-200,000	-0,005	0,022
-370,015	-200,000	-0,001	-0,049
-369,000	79,831	0,071	-0,054
-367,985	178,569	0,019	-0,020
-366,971	-29,368	-0,070	-0,029
-365,956	-19,836	0,099	-0,044
-364,942	-42,431	-0,119	0,043
-363,927	-200,000	0,005	0,191
-362,912	800,000	0,031	-0,090
-361,898	74,733	-0,073	-0,055
-360,883	-200,000	0,006	-0,034
-359,869	182,384	-0,052	0,055
-358,854	800,000	-0,024	-0,048
-357,839	-200,000	-0,015	0,148
-356,825	-4,206	-0,097	0,048
-355,810	199,250	0,063	0,069
-354,796	-100,482	-0,072	0,013
-353,781	-195,825	0,017	0,000
-352,766	-200,000	0,009	0,106
-351,752	800,000	-0,047	0,101
-350,737	-200,000	-0,002	-0,033
-349,723	55,877	0,021	0,014
-348,708	-14,926	-0,048	-0,022
-347,693	-33,464	-0,072	0,029
-346,679	-108,476	0,051	-0,008
-345,664	128,094	0,047	-0,043
-344,650	-45,023	-0,155	0,055
-343,635	800,000	0,077	0,184
-342,620	141,728	-0,116	0,110
-341,606	320,014	0,034	0,046
-340,591	251,143	-0,072	-0,088
-339,577	762,356	-0,044	-0,085
-338,562	94,616	-0,069	-0,056
-337,548	-200,000	-0,045	-0,165
-336,533	-200,000	-0,004	-0,160
-335,518	51,807	-0,039	0,026
-334,504	-26,920	0,012	0,005
-333,489	800,000	0,028	0,072
-332,475	-130,192	-0,073	0,007
-331,460	-200,000	-0,031	-0,104
-330,445	-147,503	0,095	-0,006
-329,431	8,032	0,099	-0,053
-328,416	55,776	-0,044	-0,031
-327,402	-149,217	-0,178	-0,010
-326,387	-137,198	0,040	0,003
-325,372	800,000	0,059	-0,179
-324,358	-200,000	-0,020	-0,071
-323,343	27,416	0,131	-0,079
-322,329	800,000	0,038	0,103
-321,314	-111,825	0,058	-0,008
-320,299	55,802	-0,106	0,073
-319,285	-200,000	-0,009	0,137
-318,270	800,000	-0,011	0,028
-317,256	-30,063	-0,141	-0,057
-316,241	-74,450	-0,095	-0,024
-315,226	-64,504	-0,028	-0,008
-314,212	319,108	-0,063	0,085
-313,197	267,797	-0,022	0,028
-312,183	586,588	0,009	-0,015
-311,168	-200,000	-0,000	0,024
-310,153	139,729	0,104	-0,098
-309,139	40,149	0,046	-0,029
-308,124	800,000	0,078	0,173
-307,110	-74,831	-0,131	0,034
-306,095	-29,324	0,116	-0,047
-305,080	701,102	0,033	0,062
-304,066	75,950	0,184	-0,139
-303,051	-200,000	0,010	-0,051
-302,037	-200,000	0,010	-0,085
-301,022	-89,033	-0,023	0,005
-300,008	-6,168	-0,031	-0,015
-298,993	110,745	0,118	0,102
-297,978	800,000	-0,067	0,165
-296,964	-118,651	0,106	-0,013
-295,949	-200,000	0,024	-0,088
-294,935	-200,000	0,015	-0,048
-293,920	417,376	-0,059	-0,090
-292,905	-200,000	0,007	-0,074
-291,891	422,891	0,018	0,028
-290,876	-32,346	0,049	0,020
-289,862	-84,509	0,167	0,037
-288,847	171,380	-0,093	0,095
-287,832	-188,074	0,066	0,001
-286,818	27,479	-0,136	0,082
-285,803	800,000	0,045	0,130
-284,789	302,100	0,063	0,084
-283,774	-200,000	0,002	0,119
-282,759	800,000	-0,026	0,069
-281,745	-48,142	0,050	-0,017
-280,730	-147,563	-0,043	-0,003
-279,716	-47,515	0,120	-0,042
-278,701	97,562	0,114	-0,094
-277,686	-119,529	-0,038	0,005
-276,672	-30,104	-0,068	0,028
-275,657	800,000	0,051	-0,152
-274,643	-200,000	0,006	0,024
-273,628	226,446	-0,047	-0,054
-272,613	-18,923	0,076	-0,034
-271,599	175,992	0,032	0,034
-270,584	-200,000	-0,005	0,116
-269,570	-192,570	-0,091	0,001
-268,555	292,092	-0,093	-0,121
-267,540	400,771	-0,097	-0,145
-266,526	-48,953	-0,053	0,018
-265,511	95,734	-0,102	0,083
-264,497	-129,109	0,156	0,015
-263,482	340,457	-0,025	0,034
-262,467	44,290	0,127	0,083
-261,453	253,161	-0,068	0,083
-260,438	-200,000	0,007	-0,035
-259,424	800,000	-0,036	-0,075
-258,409	-11,748	0,125	0,059
-257,395	-139,487	0,163	0,012
-256,380	800,000	0,046	-0,107
-255,365	-75,181	0,096	-0,024
-254,351	800,000	-0,040	-0,109
-253,336	-44,866	-0,093	-0,033
-252,322	-7,342	-0,110	0,053
-251,307	77,540	-0,066	-0,050
-250,292	-139,843	0,100	-0,007
-249,278	89,758	-0,154	-0,122
-248,263	165,872	0,038	0,039
-247,249	175,395	0,112	0,115
-246,234	93,657	0,112	0,090
-245,219	-200,000	0,005	0,135
-244,205	296,058	0,073	0,095
-243,190	27,247	-0,076	-0,046
-242,176	51,578	0,079	0,053
-241,161	-71,415	0,099	0,026
-240,146	125,351	0,032	-0,029
-239,132	10,276	-0,108	-0,058
-238,117	117,441	0,119	-0,105
-237,103	800,000	0,067	-0,161
-236,088	-151,515	-0,013	0,001
-235,073	140,841	-0,078	-0,074
-234,059	108,259	-0,097	-0,083
-233,044	382,280	0,096	0,142
-232,030	-200,000	0,014	0,116
-231,015	-200,000	-0,008	0,037
-230,000	105,430	-0,104	-0,088
-228,986	-73,703	-0,059	0,015
-227,971	420,470	-0,031	0,048
-226,957	-2,274	0,104	-0,052
-225,942	-200,000	-0,001	0,127
-224,927	76,847	0,058	-0,044
-223,913	800,000	-0,026	-0,052
-222,898	-139,866	-0,082	-0,006
-221,884	744,681	0,030	-0,058
-220,869	-46,243	0,064	0,022
-219,855	743,506	-0,051	-0,099
-218,840	500,640	0,041	0,068
-217,825	-200,000	-0,003	-0,044
-216,811	93,795	-0,013	-0,011
-215,796	8,573	0,107	-0,057
-214,782	83,944	0,057	-0,044
-213,767	197,207	-0,029	0,031
-212,752	-200,000	0,002	0,088
-211,738	-59,405	0,046	0,014
-210,723	800,000	0,021	0,056
-209,709	-200,000	-0,018	-0,063
-208,694	748,852	-0,047	-0,090
-207,679	26,252	0,046	-0,027
-206,665	251,646	0,063	0,077
-205,650	403,292	0,030	0,045
-204,636	800,000	0,035	0,109
-203,621	-32,343	-0,025	-0,010
-202,606	-200,000	0,003	0,113
-201,592	-112,975	-0,079	-0,011
-200,577	-200,000	0,015	-0,098
-199,563	-14,004	0,112	-0,051
-198,548	491,204	-0,058	0,095
-197,533	201,640	0,035	-0,039
-196,519	-99,346	0,203	0,036
-195,504	241,794	0,051	-0,061
-194,490	87,284	0,054	0,042
-193,475	432,643	0,045	0,069
-192,460	-200,000	0,011	0,141
-191,446	-200,000	-0,011	-0,064
-190,431	178,064	0,097	-0,100
-189,417	-200,000	-0,027	0,196
-188,402	-20,035	-0,120	-0,053
-187,387	451,502	0,063	0,099
-186,373	19,355	0,064	0,036
-185,358	800,000	0,015	0,033
-184,344	143,280	-0,022	0,020
-183,329	422,016	-0,058	-0,089
-182,315	104,270	0,018	-0,015
-181,300	117,804	-0,066	-0,058
-180,285	384,168	-0,078	0,114
-179,271	-200,000	-0,002	-0,031
-178,256	-200,000	-0,012	-0,107
-177,242	-113,320	0,044	-0,006
-176,227	119,076	0,117	0,103
-175,212	747,614	0,046	0,090
-174,198	-108,494	-0,090	-0,014
-173,183	-200,000	-0,037	-0,122
-172,169	187,690	0,098	-0,104
-171,154	211,234	0,077	-0,087
-170,139	39,171	-0,063	-0,040
-169,125	23,957	-0,066	0,039
-168,110	113,589	0,126	0,109
-167,096	46,805	-0,009	-0,006
-166,081	800,000	0,048	0,119
-165,066	-85,603	-0,114	-0,025
-164,052	-200,000	0,005	-0,088
-163,037	-13,374	0,076	0,035
-162,023	-108,307	0,091	0,014
-161,008	-0,912	0,089	0,045
-159,993	800,000	0,020	0,046
-158,979	100,150	-0,078	0,064
-157,964	389,782	-0,054	-0,079
-156,950	-108,038	-0,052	0,008
-155,935	-52,188	0,058	0,019
-154,920	-200,000	0,006	-0,043
-153,906	800,000	-0,018	0,040
-152,891	-200,000	0,012	-0,060
-151,877	249,073	-0,075	0,090
-150,862	380,042	-0,028	0,041
-149,847	-200,000	-0,032	0,167
-148,833	800,000	-0,011	0,025
-147,818	545,454	-0,030	-0,051
-146,804	106,057	-0,022	0,018
-145,789	800,000	0,061	0,173
-144,775	800,000	-0,047	0,109
-143,760	257,162	-0,021	0,026
-142,745	-200,000	0,003	-0,041
-141,731	394,139	-0,035	0,051
-140,716	210,005	0,037	0,041
-139,702	-30,340	0,039	-0,016
-138,687	90,358	0,038	0,031
-137,672	125,886	0,116	0,104
-136,658	-62,259	-0,167	-0,049
-135,643	151,777	-0,074	-0,071
-134,629	800,000	-0,006	0,018
-133,614	93,480	0,161	-0,130
-132,599	-112,592	-0,033	0,005
-131,585	-200,000	-0,034	0,115
-130,570	-36,108	0,124	-0,047
-129,556	80,056	-0,153	-0,117
-128,541	-200,000	0,016	-0,067
-127,526	-148,590	-0,082	0,005
-126,512	792,502	-0,014	0,027
-125,497	412,882	-0,023	0,035
-124,483	710,261	-0,040	0,076
-123,468	187,466	-0,064	-0,067
-122,453	-31,911	-0,100	-0,039
-121,439	-1,961	0,027	0,014
-120,424	-56,567	0,061	-0,019
-119,410	-39,684	0,029	-0,011
-118,395	-80,908	0,200	0,047
-117,380	-200,000	0,052	0,211
-116,366	-102,566	-0,052	0,009
-115,351	800,000	0,045	0,136
-114,337	223,020	-0,109	0,125
-113,322	-200,000	0,042	-0,176
-112,307	93,696	-0,064	-0,052
-111,293	317,018	0,118	0,159
-110,278	110,427	0,050	0,043
-109,264	800,000	-0,049	0,101
-108,249	-129,708	0,027	-0,003
-107,234	-124,873	-0,130	-0,014
-106,220	-103,113	-0,064	0,011
-105,205	303,218	0,074	0,097
-104,191	21,565	0,055	-0,032
-103,176	-153,973	-0,049	0,002
-102,162	800,000	0,027	0,058
-101,147	-95,890	0,086	-0,016
-100,132	31,686	0,035	-0,021
-99,118	800,000	0,019	-0,049
-98,103	800,000	0,042	0,122
-97,089	549,953	-0,064	-0,109
-96,074	277,907	0,068	0,086
-95,059	18,880	0,041	0,023
-94,045	-113,790	0,083	0,011
-93,030	205,302	-0,057	-0,063
-92,016	245,403	0,139	-0,167
-91,001	800,000	0,042	0,102
-89,986	800,000	0,048	-0,096
-88,972	800,000	0,056	-0,116
-87,957	-200,000	-0,003	0,151
-86,943	-5,499	-0,031	-0,015
-85,928	800,000	0,038	-0,078
-84,913	-200,000	0,011	-0,088
-83,899	-84,878	0,110	-0,024
-82,884	7,269	-0,052	0,028
-81,870	544,722	-0,056	-0,095
-80,855	272,642	0,087	-0,108
-79,840	-133,316	-0,081	-0,007
-78,826	800,000	-0,054	0,114
-77,811	138,900	0,108	0,101
-76,797	675,151	-0,062	0,114
-75,782	800,000	-0,038	0,095
-74,767	-200,000	-0,003	0,116
-73,753	143,743	0,075	0,071
-72,738	-30,001	-0,016	-0,006
-71,724	-8,157	0,086	-0,041
-70,709	-200,000	0,032	-0,113
-69,694	-200,000	-0,059	-0,219
-68,680	200,824	0,110	-0,120
-67,665	-200,000	-0,024	-0,093
-66,651	104,943	-0,028	0,023
-65,636	225,576	0,008	0,010
-64,622	-51,539	-0,129	-0,042
-63,607	-68,176	0,106	-0,029
-62,592	161,187	-0,135	-0,134
-61,578	178,850	0,023	0,024
-60,563	130,991	0,060	0,055
-59,549	650,070	-0,027	0,049
-58,534	-37,677	-1,541	-0,578
-57,519	319,780	-1,494	-2,013
-56,505	-200,000	-0,575	-4,623
-55,490	157,908	0,976	0,958
-54,476	800,000	4,865	11,273
-53,461	-200,000	18,503	297,805
-52,446	800,000	731,861	2260,039
-51,432	559,316	1648,277	2828,819
-50,417	78,933	1668,342	1263,329
-49,403	22,432	1541,355	890,051
-48,388	16,316	1464,334	815,903
-47,373	17,789	1454,310	817,391
-46,359	17,012	1444,768	808,272
-45,344	14,585	1440,217	794,087
-44,330	14,492	1438,177	792,484
-43,315	14,546	1436,383	791,725
-42,300	14,534	1434,791	790,760
-41,286	14,560	1433,645	790,219
-40,271	14,497	1432,404	789,204
-39,257	14,564	1431,109	788,776
-38,242	14,592	1429,763	788,139
-37,227	14,631	1428,448	787,566
-36,213	14,577	1427,356	786,676
-35,198	14,534	1426,176	785,790
-34,184	14,646	1425,050	785,671
-33,169	14,539	1423,845	784,468
-32,154	14,592	1422,815	784,119
-31,140	14,587	1421,425	783,300
-30,125	14,601	1420,567	782,862
-29,111	14,577	1419,283	782,008
-28,096	14,606	1418,302	781,577
-27,082	14,530	1417,118	780,536
-26,067	14,496	1415,982	779,719
-25,052	14,559	1414,706	779,278
-24,038	14,462	1414,067	778,441
-23,023	14,445	1413,023	777,755
-22,009	14,489	1412,048	777,394
-20,994	14,461	1411,080	776,699
-19,979	14,467	1410,095	776,157
-18,965	14,397	1409,249	775,332
-17,950	14,442	1408,215	774,940
-16,936	14,450	1407,181	774,381
-15,921	14,401	1406,158	773,559
-14,906	14,401	1405,322	773,067
-13,892	14,436	1404,289	772,630
-12,877	14,428	1403,444	772,098
-11,863	14,409	1402,667	771,550
-10,848	14,402	1401,630	770,916
-9,833	14,332	1401,013	770,223
-8,819	14,311	1400,202	769,646
-7,804	14,329	1399,116	769,104
-6,790	14,292	1397,965	768,268
-5,775	14,307	1396,860	767,703
-4,760	14,326	1396,234	767,412
-3,746	14,292	1395,279	766,703
-2,731	14,294	1394,465	766,231
-1,717	14,301	1393,480	765,692
-0,702	14,330	1391,497	764,706
0,313	18,151	1310,110	737,682
1,327	34,554	706,123	435,588
2,342	53,232	124,231	84,083
3,356	4,497	16,635	8,608
4,371	11,055	3,015	1,626
5,386	6,197	0,560	0,293
6,400	417,192	0,101	0,153
7,415	137,707	-0,207	-0,191
8,429	86,756	-0,301	-0,235
9,444	102,024	-0,246	-0,203
10,459	58,560	-0,187	-0,129
11,473	-24,945	-0,274	-0,115
12,488	5,847	-0,299	-0,156
13,502	74,928	-0,233	-0,173
14,517	63,693	-0,355	-0,252
15,531	29,335	-0,483	-0,289
16,546	41,296	-0,332	-0,212
17,561	92,383	-0,437	-0,348
18,575	-132,114	-0,270	-0,024
19,590	23,623	-0,240	-0,139
20,604	-27,630	-0,343	-0,140
21,619	137,082	-0,504	-0,465
22,634	115,078	-0,433	-0,373
23,648	19,018	-0,339	-0,191
24,663	58,536	-0,389	-0,270
25,677	31,254	-0,415	-0,251
26,692	23,975	-0,375	-0,218
27,707	110,247	-0,371	-0,315
28,721	78,453	-0,455	-0,343
29,736	95,080	-0,353	-0,284
30,750	131,888	-0,403	-0,366
31,765	91,953	-0,335	-0,266
32,780	82,408	-0,394	-0,301
33,794	178,648	-0,271	-0,280
34,809	66,035	-0,387	-0,276
35,823	41,857	-0,362	-0,231
36,838	172,621	-0,227	-0,231
37,853	-18,431	-0,514	-0,225
38,867	94,748	-0,295	-0,236
39,882	229,606	-0,217	-0,250
40,896	-68,131	-0,390	-0,106
41,911	-28,975	-0,348	-0,140
42,926	77,633	-0,337	-0,253
43,940	176,029	-0,330	-0,338
44,955	103,174	-0,364	-0,301
45,969	29,241	-0,488	-0,291
46,984	800,000	-0,196	-0,394
47,999	-78,628	-0,385	-0,092
49,013	-62,516	-0,252	-0,073
50,028	-142,513	-0,429	-0,029
51,042	226,227	-0,302	-0,346
52,057	-11,540	-0,505	-0,233
53,071	2,501	-0,514	-0,261
54,086	7,711	-0,298	-0,157
55,101	-60,963	-0,354	-0,105
56,115	86,419	-0,340	-0,264
57,130	84,470	-0,369	-0,284
58,144	132,823	-0,341	-0,310
59,159	35,594	-0,419	-0,259
60,174	22,876	-0,371	-0,213
61,188	-3,213	-0,393	-0,192
62,203	47,207	-0,353	-0,231
63,217	251,977	-0,287	-0,345
64,232	59,110	-0,363	-0,251
65,247	15,250	-0,476	-0,262
66,261	73,373	-0,410	-0,302
67,276	-62,058	-0,431	-0,126
68,290	82,731	-0,373	-0,285
69,305	1,599	-0,405	-0,205
70,320	85,050	-0,252	-0,194
71,334	92,413	-0,253	-0,201
72,349	40,367	-0,329	-0,208
73,363	8,736	-0,515	-0,272
74,378	4,944	-0,293	-0,151
75,393	-82,065	-0,263	-0,060
76,407	-8,362	-0,373	-0,176
77,422	-45,832	-0,381	-0,131
78,436	92,524	-0,307	-0,243
79,451	27,095	-0,250	-0,147
80,466	-33,922	-0,241	-0,093
81,480	-26,796	-0,451	-0,184
82,495	-24,571	-0,233	-0,097
83,509	162,565	-0,252	-0,249
84,524	0,972	-0,280	-0,140
85,539	267,068	-0,180	-0,221
86,553	-21,081	-0,348	-0,149
87,568	6,306	-0,246	-0,128
88,582	31,099	-0,284	-0,171
89,597	65,860	-0,222	-0,158
90,611	102,274	-0,232	-0,190
91,626	69,420	-0,274	-0,198
92,641	13,440	-0,321	-0,174
93,655	228,727	-0,198	-0,227
94,670	33,898	-0,279	-0,170
95,684	-14,201	-0,426	-0,192
96,699	36,638	-0,330	-0,204
97,714	137,421	-0,190	-0,175
98,728	146,803	-0,192	-0,181
99,743	-30,257	-0,408	-0,162
100,757	173,417	-0,293	-0,297
101,772	-27,271	-0,381	-0,155
102,787	-33,893	-0,471	-0,181
103,801	20,397	-0,332	-0,188
104,816	676,375	-0,169	-0,310
105,830	67,557	-0,309	-0,221
106,845	0,137	-0,314	-0,157
107,860	155,867	-0,240	-0,232
108,874	77,515	-0,249	-0,186
109,889	-6,573	-0,452	-0,215
110,903	149,683	-0,201	-0,191
111,918	57,720	-0,225	-0,154
112,933	6,567	-0,245	-0,127
113,947	99,361	-0,184	-0,149
114,962	-141,831	-0,423	-0,029
115,976	-200,000	-0,069	-0,220
116,991	339,141	-0,229	-0,314
118,006	8,199	-0,276	-0,145
119,020	6,867	-0,240	-0,125
120,035	-55,924	-0,235	-0,073
121,049	-24,631	-0,254	-0,105
122,064	-122,475	-0,137	0,015
123,079	77,684	-0,356	-0,265
124,093	40,716	-0,311	-0,196
125,108	47,554	-0,343	-0,223
126,122	-14,296	-0,334	-0,150
127,137	239,724	-0,203	-0,238
128,151	12,846	-0,284	-0,153
129,166	164,327	-0,245	-0,242
130,181	47,769	-0,153	-0,100
131,195	-3,634	-0,330	-0,160
132,210	111,481	-0,311	-0,263
133,224	-80,573	-0,380	-0,088
134,239	-90,968	-0,370	-0,074
135,254	349,007	-0,195	-0,269
136,268	120,558	-0,154	-0,134
137,283	-151,180	-0,212	0,011
138,297	-15,434	-0,372	-0,165
139,312	146,219	-0,290	-0,272
140,327	13,870	-0,273	-0,148
141,341	141,744	-0,208	-0,193
142,356	179,508	-0,237	-0,243
143,370	52,273	-0,283	-0,189
144,385	123,581	-0,269	-0,236
145,400	50,641	-0,316	-0,209
146,414	261,758	-0,193	-0,234
147,429	-95,139	-0,389	-0,073
148,443	-24,771	-0,331	-0,137
149,458	286,079	-0,220	-0,278
150,473	327,321	-0,167	-0,224
151,487	126,826	-0,244	-0,216
152,502	-2,501	-0,344	-0,168
153,516	-71,424	-0,351	-0,091
154,531	81,157	-0,212	-0,160
155,546	117,966	-0,184	-0,158
156,560	173,997	-0,070	-0,071
157,575	42,272	-0,157	-0,099
158,589	24,274	-0,371	-0,213
159,604	251,922	-0,192	-0,229
160,619	35,184	-0,280	-0,171
161,633	21,894	-0,297	-0,168
162,648	136,898	-0,222	-0,203
163,662	-96,863	-0,305	-0,055
164,677	-75,036	-0,284	-0,070
165,692	176,164	-0,217	-0,220
166,706	109,735	-0,304	-0,254
167,721	-16,633	-0,221	-0,097
168,735	139,804	-0,250	-0,230
169,750	137,894	-0,251	-0,230
170,764	-72,676	-0,223	-0,057
171,779	-28,273	-0,217	-0,087
172,794	-0,877	-0,244	-0,120
173,808	211,741	-0,173	-0,190
174,823	243,886	-0,167	-0,195
175,837	62,238	-0,208	-0,144
176,852	256,088	-0,270	-0,323
177,867	228,270	-0,176	-0,200
178,881	-118,884	-0,217	-0,026
179,896	-36,938	-0,291	-0,108
180,910	81,864	-0,269	-0,203
181,925	4,761	-0,304	-0,155
182,940	350,698	-0,156	-0,215
183,954	-34,301	-0,291	-0,111
184,969	389,990	-0,131	-0,190
185,983	763,876	-0,105	-0,200
186,998	9,042	-0,224	-0,118
188,013	128,210	-0,225	-0,199
189,027	336,617	-0,140	-0,190
190,042	112,124	-0,253	-0,213
191,056	257,283	-0,197	-0,237
192,071	140,954	-0,131	-0,121
193,086	-200,000	-0,040	-0,160
194,100	116,937	-0,164	-0,140
195,115	800,000	-0,104	-0,213
196,129	-10,235	-0,203	-0,093
197,144	30,821	-0,314	-0,187
198,159	235,868	-0,166	-0,191
199,173	388,079	-0,147	-0,213
200,188	758,222	-0,129	-0,244
201,202	-200,000	-0,031	-0,211
202,217	-83,937	-0,342	-0,075
203,232	135,766	-0,204	-0,184
204,246	203,922	-0,242	-0,260
205,261	275,472	-0,158	-0,195
206,275	-38,747	-0,171	-0,062
207,290	380,074	-0,143	-0,204
208,304	-112,573	-0,165	-0,023
209,319	-76,171	-0,230	-0,056
210,334	-43,111	-0,241	-0,084
211,348	676,188	-0,106	-0,192
212,363	800,000	-0,103	-0,292
213,377	358,107	-0,097	-0,135
214,392	-40,963	-0,139	-0,050
215,407	102,147	-0,189	-0,153
216,421	-19,840	-0,154	-0,066
217,436	14,819	-0,172	-0,093
218,450	-85,867	-0,313	-0,067
219,465	47,880	-0,280	-0,181
220,480	66,647	-0,212	-0,149
221,494	472,648	-0,078	-0,123
222,509	286,410	-0,133	-0,167
223,523	331,320	-0,110	-0,147
224,538	-12,607	-0,218	-0,098
225,553	718,268	-0,195	-0,361
226,567	68,870	-0,255	-0,182
227,582	230,192	-0,178	-0,202
228,596	225,163	-0,197	-0,222
229,611	-65,888	-0,150	-0,041
230,626	-82,094	-0,322	-0,072
231,640	-77,267	-0,237	-0,057
232,655	61,342	-0,214	-0,147
233,669	-96,839	-0,186	-0,034
234,684	46,302	-0,151	-0,097
235,699	317,822	-0,166	-0,219
236,713	152,474	-0,122	-0,115
237,728	92,966	-0,132	-0,103
238,742	531,058	-0,131	-0,215
239,757	406,495	-0,204	-0,299
240,772	-200,000	-0,116	-0,366
241,786	-41,837	-0,361	-0,128
242,801	-26,281	-0,213	-0,086
243,815	117,987	-0,194	-0,166
244,830	188,859	-0,045	-0,047
245,844	112,223	-0,170	-0,142
246,859	-0,052	-0,296	-0,145
247,874	53,775	-0,154	-0,102
248,888	43,578	-0,216	-0,137
249,903	-200,000	-0,272	-0,001
250,917	94,742	-0,176	-0,139
251,932	27,441	-0,073	0,042
252,947	-99,524	-0,188	-0,032
253,961	107,073	-0,203	-0,167
254,976	45,674	-0,169	-0,108
255,990	800,000	-0,102	-0,214
257,005	42,502	-0,233	-0,147
258,020	-200,000	-0,003	-0,166
259,034	47,018	-0,163	-0,105
260,049	85,136	-0,284	-0,215
261,063	118,016	-0,179	-0,153
262,078	-200,000	-0,012	-0,155
263,093	31,036	-0,173	-0,102
264,107	-85,232	-0,158	-0,034
265,122	-33,311	-0,156	-0,059
266,136	62,404	-0,121	-0,083
267,151	103,860	-0,138	-0,112
268,166	-80,525	-0,214	-0,049
269,180	25,716	-0,190	-0,109
270,195	233,187	-0,077	-0,088
271,209	214,173	-0,105	-0,115
272,224	145,756	-0,148	-0,138
273,239	-37,677	-0,086	-0,031
274,253	-74,366	-0,246	-0,061
275,268	595,087	-0,090	-0,155
276,282	-63,944	-0,249	-0,070
277,297	-110,690	-0,180	-0,025
278,312	59,879	-0,229	-0,156
279,326	-151,342	-0,132	-0,007
280,341	-106,406	-0,194	0,030
281,355	-15,739	-0,211	-0,092
282,370	-163,863	-0,152	-0,005
283,384	192,679	-0,202	-0,210
284,399	27,162	-0,216	-0,125
285,414	-36,074	-0,069	-0,026
286,428	58,901	-0,200	-0,136
287,443	-39,182	-0,059	-0,021
288,457	-114,446	-0,173	0,023
289,472	309,445	-0,172	-0,223
290,487	93,921	-0,179	-0,140
291,501	32,417	-0,293	-0,174
292,516	343,078	-0,038	-0,051
293,530	19,398	-0,119	-0,066
294,545	-36,058	-0,141	0,052
295,560	-62,352	-0,113	0,032
296,574	320,137	-0,067	-0,088
297,589	-155,266	-0,103	0,005
298,603	662,587	-0,109	-0,195
299,618	-84,697	-0,286	-0,062
300,633	46,591	-0,151	-0,097
301,647	-113,118	-0,071	-0,010
302,662	-11,151	-0,202	-0,091
303,676	-175,816	-0,229	0,004
304,691	26,656	-0,160	-0,092
305,706	183,298	-0,115	-0,117
306,720	399,932	-0,214	-0,310
307,735	39,924	-0,123	-0,076
308,749	271,014	-0,141	-0,172
309,764	-127,882	-0,175	0,017
310,779	97,960	-0,058	-0,046
311,793	84,057	-0,179	-0,135
312,808	-16,728	-0,264	-0,115
313,822	42,524	-0,269	-0,168
314,837	55,661	-0,154	-0,103
315,852	-172,627	-0,142	-0,003
316,866	30,565	-0,187	-0,110
317,881	-44,708	-0,049	-0,017
318,895	-45,314	-0,122	0,042
319,910	63,620	-0,137	-0,095
320,925	215,040	-0,074	-0,081
321,939	88,397	-0,127	-0,097
322,954	-25,017	-0,083	0,034
323,968	7,187	-0,131	-0,067
324,983	138,412	-0,154	-0,139
325,997	-20,919	-0,242	-0,101
327,012	88,591	-0,090	-0,069
328,027	148,994	-0,142	-0,132
329,041	-169,672	-0,192	0,005
330,056	-133,962	-0,128	-0,011
331,070	800,000	-0,082	-0,165
332,085	-48,424	-0,075	-0,025
333,100	546,819	-0,152	-0,251
334,114	305,590	-0,196	-0,251
335,129	800,000	-0,128	-0,327
336,143	-192,028	-0,231	-0,001
337,158	68,574	-0,131	0,092
338,173	261,476	-0,033	-0,039
339,187	35,130	-0,178	-0,107
340,202	-200,000	-0,146	-0,000
341,216	800,000	-0,069	-0,165
342,231	-70,558	-0,172	0,044
343,246	-200,000	-0,048	-0,149
344,260	-200,000	-0,006	-0,045
345,275	309,883	-0,050	0,065
346,289	239,654	-0,129	0,147
347,304	-160,426	-0,151	-0,005
348,319	-90,081	-0,150	-0,030
349,333	447,265	-0,176	-0,266
350,348	209,263	-0,091	-0,098
351,362	254,116	-0,134	-0,157
352,377	9,737	-0,053	-0,027
353,392	-132,543	-0,197	-0,017
354,406	-127,939	-0,149	0,014
355,421	207,623	1318,035	1413,267
356,435	159,717	1479,191	1413,767
