DTS Sentinel unit serial number:	SN410029Multiplexer serial number:	ORYXHardware model number:	OX2-SRSoftware version number:	ORYX F/W v4,00 Oryx Data Collector v3.7.2.0data status	okinstallation	B3 Nyhavnadifferential loss correction	single-endedforward channel	channel 1reverse channel	N/Adate	2023/12/01time	01:12:30forward acquisition time	300,00reverse acquisition time	0,00gamma	499,1914k internal	0,3211k external	0,3211temperature offset calibration	1,0000default loss term (dB/km)	0,3820temperature slope calibration	1,0000multiplexer offset coefficient	1,0000multiplexer slope coefficient	1,0000fibre end	0,00T internal ref (°C)	8,97T ext. ref 1 (°C)	-6,09T ext. ref 2 (°C)	-6,23length (m)	temperature (°C)	Stokes	anti-Stokes-744,400	800,000	-0,103	-0,242
-743,385	-200,000	0,013	0,280
-742,371	228,361	-0,240	-0,284
-741,356	-200,000	-0,029	0,240
-740,342	-200,000	0,045	-0,212
-739,327	-200,000	-0,030	0,276
-738,312	99,560	-0,348	-0,292
-737,298	800,000	0,118	0,237
-736,283	88,038	-0,295	-0,237
-735,269	-200,000	0,018	0,312
-734,254	239,815	-0,130	-0,158
-733,239	-38,756	-0,231	0,088
-732,225	-200,000	-0,034	-0,142
-731,210	-182,744	0,147	-0,002
-730,196	-12,444	-0,051	0,024
-729,181	307,504	-0,104	-0,141
-728,167	800,000	0,011	-0,022
-727,152	308,080	-0,013	-0,017
-726,137	168,648	0,067	-0,069
-725,123	148,710	-0,161	0,158
-724,108	-200,000	-0,023	-0,112
-723,094	800,000	-0,004	-0,014
-722,079	180,101	-0,067	-0,072
-721,064	-45,178	0,039	0,014
-720,050	-113,592	-0,058	-0,008
-719,035	76,113	-0,055	0,042
-718,021	68,055	-0,094	-0,070
-717,006	-200,000	-0,007	-0,025
-715,991	800,000	-0,072	-0,175
-714,977	-200,000	-0,006	0,067
-713,962	-94,247	-0,161	0,032
-712,948	-50,895	0,087	-0,030
-711,933	82,547	-0,029	0,023
-710,918	-200,000	0,007	-0,031
-709,904	-147,630	-0,132	-0,008
-708,889	29,954	-0,045	0,028
-707,875	326,859	0,061	-0,085
-706,860	595,491	-0,028	-0,051
-705,845	46,789	0,206	-0,138
-704,831	-78,688	-0,090	0,022
-703,816	-200,000	-0,001	0,015
-702,802	174,598	-0,059	-0,062
-701,787	767,011	-0,069	-0,136
-700,772	-200,000	-0,002	-0,124
-699,758	-152,064	-0,108	0,006
-698,743	334,936	0,117	-0,165
-697,729	-200,000	0,008	0,052
-696,714	-200,000	0,025	0,115
-695,699	800,000	-0,037	-0,089
-694,685	-200,000	0,005	-0,032
-693,670	-200,000	-0,009	-0,175
-692,656	-112,140	-0,033	0,005
-691,641	520,072	-0,027	-0,046
-690,627	115,663	-0,013	-0,011
-689,612	15,776	-0,075	-0,042
-688,597	800,000	-0,036	0,083
-687,583	-43,944	-0,103	-0,037
-686,568	800,000	0,033	-0,084
-685,554	800,000	-0,035	-0,105
-684,539	453,205	0,089	-0,143
-683,524	18,136	0,017	0,010
-682,510	68,520	0,039	0,029
-681,495	-32,790	-0,104	0,042
-680,481	131,013	-0,066	-0,061
-679,466	93,444	-0,172	0,141
-678,451	-200,000	0,070	-0,000
-677,437	-200,000	-0,025	-0,086
-676,422	800,000	-0,018	0,049
-675,408	17,424	-0,102	0,058
-674,393	355,719	-0,063	0,090
-673,378	390,980	-0,082	-0,124
-672,364	328,187	-0,058	-0,081
-671,349	-200,000	0,001	-0,024
-670,335	-172,948	-0,072	0,002
-669,320	48,758	-0,112	-0,076
-668,305	38,140	0,118	0,076
-667,291	800,000	0,026	-0,067
-666,276	156,781	-0,055	0,055
-665,262	800,000	-0,037	-0,108
-664,247	800,000	0,049	-0,136
-663,232	-83,581	0,082	0,019
-662,218	-200,000	-0,009	0,092
-661,203	-200,000	-0,023	0,107
-660,189	-77,232	-0,042	0,011
-659,174	326,855	-0,088	-0,122
-658,159	615,955	-0,042	-0,076
-657,145	800,000	0,012	-0,037
-656,130	193,163	-0,122	-0,133
-655,116	800,000	-0,005	-0,016
-654,101	236,327	-0,080	0,096
-653,086	-159,818	0,088	0,003
-652,072	-52,146	-0,078	0,026
-651,057	304,333	-0,044	-0,060
-650,043	800,000	0,042	-0,108
-649,028	800,000	0,018	0,048
-648,014	234,056	-0,030	-0,036
-646,999	765,213	-0,073	-0,145
-645,984	92,070	-0,029	0,024
-644,970	62,325	-0,079	-0,057
-643,955	800,000	-0,048	-0,106
-642,941	-200,000	-0,014	-0,119
-641,926	-200,000	-0,033	-0,126
-640,911	-40,001	0,048	-0,018
-639,897	-4,572	-0,175	0,087
-638,882	800,000	0,053	-0,112
-637,868	540,986	0,029	-0,050
-636,853	-18,168	-0,060	0,027
-635,838	377,310	-0,055	-0,082
-634,824	-129,926	0,121	-0,012
-633,809	-200,000	-0,010	0,045
-632,795	77,159	0,141	-0,108
-631,780	-28,233	-0,087	0,036
-630,765	-120,685	-0,046	0,005
-629,751	205,514	-0,110	-0,124
-628,736	-200,000	-0,021	-0,112
-627,722	800,000	0,043	0,091
-626,707	-88,508	-0,059	0,013
-625,692	48,114	0,125	0,084
-624,678	492,423	0,158	0,262
-623,663	9,711	-0,027	-0,015
-622,649	750,266	0,038	-0,075
-621,634	-98,834	-0,091	0,017
-620,619	800,000	-0,017	-0,047
-619,605	-200,000	0,007	-0,054
-618,590	800,000	0,019	-0,057
-617,576	-200,000	0,009	0,049
-616,561	99,947	0,106	0,089
-615,546	327,941	0,022	0,030
-614,532	-200,000	0,001	-0,115
-613,517	673,224	-0,044	0,083
-612,503	0,318	-0,086	0,044
-611,488	574,164	0,025	-0,045
-610,474	83,234	0,080	-0,063
-609,459	-200,000	-0,021	-0,082
-608,444	-9,809	-0,053	-0,025
-607,430	-200,000	-0,008	-0,028
-606,415	-38,536	-0,118	-0,045
-605,401	47,922	0,104	-0,070
-604,386	-200,000	0,022	0,186
-603,371	800,000	-0,034	0,071
-602,357	-200,000	0,007	0,072
-601,342	536,010	-0,067	-0,116
-600,328	-200,000	0,007	-0,127
-599,313	-99,683	-0,066	0,012
-598,298	800,000	-0,055	-0,113
-597,284	-200,000	-0,031	-0,160
-596,269	-69,127	0,095	-0,026
-595,255	74,843	0,082	0,062
-594,240	23,224	-0,122	-0,072
-593,225	-200,000	-0,007	-0,065
-592,211	12,268	-0,069	0,038
-591,196	-200,000	-0,031	-0,127
-590,182	800,000	0,021	0,043
-589,167	13,089	-0,080	0,044
-588,152	-79,901	0,170	0,041
-587,138	60,908	0,079	-0,057
-586,123	-200,000	0,010	0,094
-585,109	76,319	0,089	-0,068
-584,094	-72,817	-0,067	-0,018
-583,079	-200,000	0,010	0,130
-582,065	45,500	0,030	0,020
-581,050	-48,395	-0,079	0,027
-580,036	-126,654	0,101	0,011
-579,021	-37,022	0,044	0,017
-578,006	-200,000	0,004	0,063
-576,992	44,124	-0,097	-0,064
-575,977	-77,557	0,058	-0,014
-574,963	-78,483	-0,058	-0,014
-573,948	18,617	-0,065	-0,037
-572,934	578,439	0,040	0,070
-571,919	104,597	-0,111	-0,094
-570,904	16,255	-0,120	-0,068
-569,890	-200,000	-0,017	0,055
-568,875	450,849	-0,048	-0,077
-567,861	-157,326	0,083	0,004
-566,846	-92,857	-0,038	0,008
-565,831	-160,630	0,080	0,003
-564,817	-200,000	-0,011	0,065
-563,802	-200,000	-0,011	0,093
-562,788	96,408	0,067	-0,055
-561,773	265,120	0,025	-0,031
-560,758	-161,206	0,075	-0,003
-559,744	-26,064	-0,061	-0,026
-558,729	190,988	0,040	0,044
-557,715	182,476	-0,016	0,017
-556,700	42,869	0,194	-0,127
-555,685	-154,777	-0,096	0,005
-554,671	180,243	0,115	0,122
-553,656	-16,522	-0,088	-0,040
-552,642	-30,765	0,116	-0,047
-551,627	-162,604	-0,118	0,004
-550,612	-200,000	0,018	-0,094
-549,598	-93,280	-0,076	-0,015
-548,583	34,387	0,046	-0,029
-547,569	-200,000	0,002	-0,072
-546,554	578,719	-0,044	0,077
-545,539	-200,000	-0,008	-0,036
-544,525	37,609	0,077	-0,049
-543,510	642,445	-0,027	0,051
-542,496	-42,135	0,076	-0,028
-541,481	330,919	-0,134	-0,186
-540,466	-200,000	0,040	-0,156
-539,452	800,000	0,053	-0,132
-538,437	-29,215	-0,125	-0,051
-537,423	-51,123	0,154	0,052
-536,408	200,849	0,022	-0,025
-535,393	-100,000	-0,148	0,026
-534,379	800,000	0,049	-0,120
-533,364	-136,132	0,108	0,009
-532,350	-108,388	0,096	-0,015
-531,335	-200,000	-0,033	-0,131
-530,321	-169,973	0,212	-0,005
-529,306	288,249	0,062	-0,080
-528,291	24,024	0,079	0,047
-527,277	459,338	-0,018	-0,028
-526,262	64,117	-0,075	0,054
-525,248	196,894	0,036	-0,040
-524,233	800,000	0,010	-0,026
-523,218	86,226	-0,173	0,137
-522,204	-200,000	-0,023	0,111
-521,189	-34,472	-0,083	0,032
-520,175	540,665	-0,028	0,048
-519,160	415,746	0,085	-0,131
-518,145	800,000	0,022	0,066
-517,131	763,408	-0,026	0,050
-516,116	-200,000	0,007	0,124
-515,102	-11,118	-0,126	0,059
-514,087	-188,640	0,105	-0,001
-513,072	104,989	-0,068	-0,057
-512,058	800,000	-0,023	-0,055
-511,043	-200,000	-0,006	-0,102
-510,029	800,000	-0,010	-0,030
-509,014	-200,000	-0,003	0,041
-507,999	112,750	0,079	0,068
-506,985	-104,263	0,084	-0,014
-505,970	-200,000	0,012	-0,046
-504,956	1,611	-0,073	0,038
-503,941	-200,000	0,014	-0,092
-502,926	-27,796	0,054	0,022
-501,912	-7,199	0,051	0,025
-500,897	-200,000	0,011	0,044
-499,883	-72,633	0,067	-0,018
-498,868	-200,000	0,009	-0,036
-497,853	201,693	-0,099	-0,110
-496,839	-200,000	0,016	0,060
-495,824	-61,521	-0,161	-0,048
-494,810	-96,799	-0,083	-0,015
-493,795	800,000	-0,048	-0,105
-492,781	75,900	-0,053	0,040
-491,766	800,000	0,033	0,082
-490,751	-41,943	-0,074	0,027
-489,737	314,031	0,063	-0,085
-488,722	66,447	0,024	-0,017
-487,708	-200,000	0,004	0,174
-486,693	-200,000	0,004	0,114
-485,678	-25,921	-0,041	-0,017
-484,664	-114,204	0,110	-0,015
-483,649	-32,684	-0,075	-0,030
-482,635	76,101	0,099	-0,075
-481,620	79,973	0,039	-0,030
-480,605	-159,142	0,081	0,003
-479,591	366,077	0,048	-0,070
-478,576	102,748	-0,029	0,024
-477,562	648,830	-0,104	-0,191
-476,547	800,000	-0,017	-0,038
-475,532	-58,887	-0,055	-0,017
-474,518	800,000	-0,038	-0,102
-473,503	-17,210	0,227	0,102
-472,489	83,482	-0,087	0,068
-471,474	134,431	-0,092	0,086
-470,459	-200,000	0,029	-0,124
-469,445	497,533	0,014	0,024
-468,430	309,097	-0,066	0,089
-467,416	-27,294	-0,072	-0,030
-466,401	-200,000	0,003	0,022
-465,386	404,577	0,012	-0,018
-464,372	78,734	-0,068	0,052
-463,357	188,550	-0,140	0,150
-462,343	403,069	-0,050	-0,076
-461,328	78,668	-0,065	-0,050
-460,313	-96,879	-0,066	0,012
-459,299	-164,935	0,108	-0,003
-458,284	246,663	0,057	0,070
-457,270	-69,281	0,063	-0,017
-456,255	-200,000	0,019	-0,088
-455,241	22,852	-0,051	-0,030
-454,226	-200,000	0,017	-0,074
-453,211	-200,000	-0,005	-0,072
-452,197	38,004	0,078	0,050
-451,182	-10,109	-0,166	0,079
-450,168	-43,483	-0,069	0,025
-449,153	-200,000	0,012	0,070
-448,138	-200,000	0,001	-0,136
-447,124	-200,000	0,008	-0,030
-446,109	800,000	-0,048	0,143
-445,095	275,218	0,082	0,105
-444,080	-200,000	-0,010	0,238
-443,065	-200,000	0,023	0,092
-442,051	128,599	-0,065	-0,060
-441,036	-200,000	-0,006	-0,033
-440,022	800,000	-0,016	0,035
-439,007	263,969	-0,064	-0,080
-437,992	800,000	-0,068	-0,154
-436,978	-4,001	-0,087	-0,043
-435,963	800,000	0,076	0,169
-434,949	-200,000	0,032	0,119
-433,934	218,454	-0,038	-0,044
-432,919	800,000	-0,083	-0,220
-431,905	26,014	0,055	0,033
-430,890	338,211	-0,057	0,079
-429,876	-74,578	0,045	0,012
-428,861	378,920	-0,068	-0,099
-427,846	-128,569	-0,076	-0,008
-426,832	-157,451	-0,052	-0,002
-425,817	-142,771	-0,065	-0,004
-424,803	333,567	-0,068	-0,095
-423,788	-200,000	0,025	0,171
-422,773	-200,000	0,000	0,070
-421,759	800,000	0,085	0,170
-420,744	324,964	0,052	0,072
-419,730	342,897	0,050	-0,070
-418,715	-93,820	0,033	-0,006
-417,701	800,000	0,013	-0,029
-416,686	-64,808	-0,024	0,007
-415,671	-200,000	0,054	0,177
-414,657	-131,846	-0,025	-0,002
-413,642	53,342	-0,083	-0,057
-412,628	-150,207	-0,019	0,001
-411,613	32,079	-0,041	-0,025
-410,598	641,071	0,098	0,180
-409,584	-4,752	-0,022	-0,011
-408,569	141,316	0,104	0,098
-407,555	179,979	0,036	0,037
-406,540	91,465	0,083	0,066
-405,525	83,947	-0,070	-0,055
-404,511	-200,000	-0,023	0,119
-403,496	617,176	0,051	-0,092
-402,482	800,000	-0,020	0,047
-401,467	800,000	0,037	0,076
-400,452	-200,000	0,009	-0,064
-399,438	-60,278	0,164	-0,050
-398,423	390,040	-0,048	-0,071
-397,409	-200,000	0,005	0,017
-396,394	-200,000	-0,095	0,000
-395,379	-200,000	0,013	0,082
-394,365	800,000	0,018	-0,049
-393,350	9,148	0,074	0,040
-392,336	-20,248	0,104	0,046
-391,321	127,458	0,023	0,021
-390,306	62,285	-0,185	0,132
-389,292	505,016	0,044	-0,073
-388,277	563,122	0,044	0,076
-387,263	800,000	0,037	-0,101
-386,248	-104,629	0,076	-0,012
-385,233	-200,000	0,010	0,101
-384,219	-129,745	-0,201	0,019
-383,204	48,738	-0,135	-0,090
-382,190	37,437	0,080	0,050
-381,175	-155,211	-0,047	-0,002
-380,160	-200,000	-0,001	0,115
-379,146	76,465	0,178	0,135
-378,131	-39,146	0,090	-0,034
-377,117	-200,000	0,042	-0,148
-376,102	17,366	-0,096	-0,054
-375,088	-200,000	0,003	-0,030
-374,073	71,962	-0,097	-0,072
-373,058	-34,553	0,239	0,093
-372,044	-20,439	-0,055	0,024
-371,029	202,810	0,066	0,073
-370,015	-200,000	-0,020	0,158
-369,000	88,296	-0,071	-0,056
-367,985	546,437	-0,051	-0,088
-366,971	70,368	0,041	0,030
-365,956	-200,000	-0,006	-0,033
-364,942	800,000	-0,054	0,143
-363,927	-200,000	-0,002	0,150
-362,912	226,336	-0,052	-0,060
-361,898	-200,000	0,001	0,080
-360,883	233,273	-0,035	0,041
-359,869	-200,000	0,024	-0,077
-358,854	-95,301	-0,096	0,018
-357,839	-70,024	-0,045	0,012
-356,825	30,094	0,168	0,102
-355,810	579,332	-0,027	-0,047
-354,796	622,848	-0,038	0,068
-353,781	-200,000	-0,014	-0,164
-352,766	-200,000	0,014	0,084
-351,752	-107,157	0,137	0,021
-350,737	113,031	-0,019	-0,016
-349,723	279,905	0,035	-0,045
-348,708	-105,000	0,025	-0,004
-347,693	97,722	0,046	0,038
-346,679	-200,000	-0,008	0,057
-345,664	800,000	0,063	-0,160
-344,650	800,000	0,026	0,076
-343,635	-183,588	0,041	0,000
-342,620	250,091	-0,065	0,079
-341,606	-91,329	0,055	-0,011
-340,591	-200,000	0,009	0,098
-339,577	-83,106	-0,238	-0,054
-338,562	-153,064	0,053	-0,003
-337,548	-97,655	-0,019	-0,004
-336,533	78,732	0,091	-0,069
-335,518	-77,269	-0,176	0,043
-334,504	-199,620	-0,057	0,000
-333,489	-93,562	-0,124	-0,024
-332,475	800,000	0,064	-0,154
-331,460	800,000	0,060	-0,145
-330,445	660,258	-0,052	-0,095
-329,431	54,984	0,103	-0,071
-328,416	9,419	-0,032	-0,017
-327,402	33,699	-0,101	0,063
-326,387	-27,010	-0,086	-0,036
-325,372	102,483	-0,122	0,102
-324,358	-34,197	0,080	0,031
-323,343	-66,485	-0,034	-0,010
-322,329	360,303	0,030	0,042
-321,314	-144,730	-0,094	-0,006
-320,299	-200,000	0,022	-0,176
-319,285	-200,000	-0,029	0,096
-318,270	-98,241	0,073	-0,013
-317,256	-144,096	-0,071	-0,005
-316,241	-139,856	-0,042	-0,003
-315,226	-200,000	0,001	0,066
-314,212	-142,006	-0,051	-0,004
-313,197	88,856	0,106	0,084
-312,183	14,925	0,006	-0,003
-311,168	-200,000	0,019	-0,102
-310,153	-200,000	-0,012	-0,082
-309,139	-200,000	0,015	0,115
-308,124	-116,132	-0,111	0,015
-307,110	478,660	-0,050	-0,080
-306,095	-200,000	0,033	0,112
-305,080	63,144	0,062	0,044
-304,066	-164,126	-0,140	0,005
-303,051	-107,150	-0,107	0,017
-302,037	-157,463	-0,128	0,005
-301,022	-57,205	0,065	-0,020
-300,008	-72,474	-0,080	-0,021
-298,993	800,000	0,064	0,162
-297,978	-56,661	0,076	0,024
-296,964	-200,000	0,005	0,087
-295,949	69,453	-0,119	-0,087
-294,935	800,000	-0,026	-0,061
-293,920	-165,751	-0,082	0,002
-292,905	-91,351	0,156	0,032
-291,891	39,980	-0,093	0,060
-290,876	-106,517	0,099	0,016
-289,862	800,000	-0,011	0,023
-288,847	267,174	0,065	-0,082
-287,832	264,999	-0,080	-0,099
-286,818	285,355	0,088	-0,113
-285,803	442,484	0,095	-0,149
-284,789	800,000	-0,073	-0,157
-283,774	235,354	0,065	-0,077
-282,759	-0,652	0,060	-0,030
-281,745	362,904	-0,073	-0,104
-280,730	-200,000	-0,001	-0,066
-279,716	-200,000	0,009	-0,080
-278,701	62,506	0,058	0,041
-277,686	-124,379	0,110	-0,012
-276,672	151,370	0,124	0,120
-275,657	177,065	-0,068	-0,071
-274,643	-76,486	-0,025	0,006
-273,628	-91,228	0,101	0,020
-272,613	78,158	0,030	0,023
-271,599	800,000	0,071	0,154
-270,584	-101,104	-0,026	-0,004
-269,570	296,882	0,122	0,160
-268,555	-79,736	0,031	0,007
-267,540	179,207	-0,052	-0,055
-266,526	-200,000	-0,011	-0,081
-265,511	22,775	0,066	0,039
-264,497	-42,926	0,036	-0,013
-263,482	-123,978	0,161	0,018
-262,467	193,604	-0,028	-0,031
-261,453	-200,000	-0,027	0,092
-260,438	709,384	-0,082	0,154
-259,424	171,013	-0,059	-0,061
-258,409	314,110	0,106	-0,142
-257,395	-82,332	-0,145	-0,033
-256,380	-13,877	0,057	-0,026
-255,365	-73,679	0,163	-0,042
-254,351	98,825	0,104	0,085
-253,336	-200,000	0,010	-0,076
-252,322	238,043	-0,010	0,012
-251,307	116,191	0,027	0,024
-250,292	-61,979	0,146	-0,043
-249,278	300,343	-0,058	0,077
-248,263	556,273	-0,042	-0,072
-247,249	152,661	-0,057	0,056
-246,234	-51,859	0,032	-0,011
-245,219	-200,000	0,012	-0,087
-244,205	-115,873	-0,191	0,025
-243,190	180,192	-0,030	0,032
-242,176	-200,000	-0,012	-0,086
-241,161	-200,000	0,000	-0,104
-240,146	-80,717	-0,148	-0,035
-239,132	43,128	-0,124	0,080
-238,117	-121,695	-0,106	0,012
-237,103	331,187	-0,090	0,124
-236,088	-79,167	0,091	0,022
-235,073	-88,322	0,084	0,018
-234,059	26,038	-0,107	0,064
-233,044	-68,061	0,087	0,024
-232,030	155,190	0,033	-0,033
-231,015	54,311	-0,048	-0,033
-230,000	800,000	0,024	0,050
-228,986	39,913	0,073	0,046
-227,971	568,292	0,082	0,142
-226,957	635,025	0,029	-0,053
-225,942	121,720	-0,072	0,064
-224,927	-156,762	0,128	-0,006
-223,913	142,163	-0,065	0,061
-222,898	399,073	-0,038	0,057
-221,884	261,604	0,019	-0,024
-220,869	220,889	0,045	-0,051
-219,855	266,446	0,121	0,150
-218,840	64,362	0,058	-0,041
-217,825	-200,000	-0,013	-0,072
-216,811	-52,033	0,061	-0,020
-215,796	-200,000	-0,007	-0,185
-214,782	199,288	-0,045	-0,049
-213,767	-100,717	0,162	-0,028
-212,752	429,454	-0,057	0,087
-211,738	-116,463	0,039	-0,005
-210,723	-200,000	0,004	-0,113
-209,709	416,673	0,075	-0,115
-208,694	70,315	-0,043	-0,032
-207,679	-200,000	-0,011	0,119
-206,665	-109,147	-0,058	0,009
-205,650	20,601	-0,005	0,003
-204,636	97,401	0,091	0,074
-203,621	193,630	0,033	0,036
-202,606	162,152	-0,043	0,043
-201,592	800,000	-0,017	0,054
-200,577	44,796	0,015	0,010
-199,563	-200,000	-0,022	0,085
-198,548	-40,939	0,060	-0,022
-197,533	-200,000	0,005	0,164
-196,519	214,716	-0,034	0,039
-195,504	-122,551	-0,054	0,006
-194,490	269,653	0,067	0,084
-193,475	132,791	0,073	0,067
-192,460	281,331	0,052	-0,066
-191,446	450,484	-0,019	-0,030
-190,431	176,143	-0,053	0,054
-189,417	130,774	0,069	0,063
-188,402	-200,000	-0,010	0,118
-187,387	261,013	-0,045	-0,055
-186,373	-6,959	0,098	-0,047
-185,358	165,046	0,100	-0,100
-184,344	-200,000	-0,013	0,111
-183,329	44,376	0,106	0,069
-182,315	-44,577	0,131	-0,046
-181,300	748,697	0,034	0,065
-180,285	-109,136	-0,037	-0,006
-179,271	800,000	0,021	-0,047
-178,256	746,156	-0,027	-0,051
-177,242	-200,000	-0,003	0,024
-176,227	800,000	0,051	0,108
-175,212	-79,462	0,181	-0,043
-174,198	354,372	0,099	0,140
-173,183	24,188	-0,114	0,066
-172,169	150,760	0,116	0,112
-171,154	-7,433	-0,109	0,052
-170,139	647,163	0,092	0,168
-169,125	-60,694	0,012	0,004
-168,110	-200,000	-0,014	-0,111
-167,096	-40,479	-0,026	0,010
-166,081	46,617	-0,177	-0,116
-165,066	472,419	0,022	-0,035
-164,052	800,000	-0,048	-0,114
-163,037	-200,000	-0,005	-0,110
-162,023	-200,000	0,007	0,083
-161,008	-200,000	0,021	0,140
-159,993	25,437	-0,155	0,091
-158,979	-200,000	0,014	0,046
-157,964	-97,616	-0,150	0,027
-156,950	-127,784	-0,129	0,013
-155,935	800,000	0,051	-0,110
-154,920	-42,154	0,048	-0,017
-153,906	-200,000	0,014	-0,098
-152,891	65,021	-0,079	0,057
-151,877	96,547	-0,191	-0,155
-150,862	800,000	-0,021	-0,055
-149,847	-156,027	-0,127	0,006
-148,833	339,007	-0,061	-0,085
-147,818	781,489	0,050	0,097
-146,804	-15,604	0,165	0,074
-145,789	131,320	-0,054	-0,049
-144,775	39,699	-0,059	-0,038
-143,760	-140,149	0,118	-0,009
-142,745	-47,118	-0,157	-0,054
-141,731	-33,122	-0,085	-0,033
-140,716	-25,296	0,071	-0,030
-139,702	32,886	0,158	-0,097
-138,687	-200,000	-0,003	0,026
-137,672	319,911	-0,041	0,056
-136,658	51,134	0,069	0,046
-135,643	334,467	0,040	0,055
-134,629	47,046	-0,190	-0,125
-133,614	151,532	-0,097	-0,093
-132,599	800,000	0,075	-0,232
-131,585	-200,000	-0,006	-0,031
-130,570	-150,785	-0,146	-0,008
-129,556	-58,140	-0,043	-0,013
-128,541	800,000	-0,035	0,076
-127,526	-200,000	-0,011	0,102
-126,512	-16,452	0,049	-0,022
-125,497	30,399	-0,037	-0,022
-124,483	-69,871	0,112	0,030
-123,468	339,777	0,077	-0,107
-122,453	-200,000	-0,010	-0,146
-121,439	800,000	0,036	-0,099
-120,424	67,656	0,092	-0,066
-119,410	484,239	0,061	-0,099
-118,395	-130,410	0,060	-0,006
-117,380	696,223	0,045	-0,084
-116,366	-30,800	-0,094	0,037
-115,351	-11,160	-0,092	0,043
-114,337	-200,000	-0,019	0,059
-113,322	83,145	-0,059	0,046
-112,307	799,630	-0,009	0,017
-111,293	247,353	0,096	0,115
-110,278	85,965	0,091	-0,071
-109,264	800,000	-0,081	-0,196
-108,249	800,000	-0,040	0,107
-107,234	-200,000	0,001	-0,090
-106,220	115,378	0,064	-0,055
-105,205	-108,455	-0,095	0,014
-104,191	-5,589	0,123	-0,060
-103,176	6,472	0,073	-0,038
-102,162	-200,000	-0,009	0,085
-101,147	362,703	0,047	0,067
-100,132	73,892	-0,105	-0,078
-99,118	-35,750	0,063	-0,024
-98,103	800,000	-0,045	0,103
-97,089	56,891	-0,031	-0,021
-96,074	-200,000	0,002	0,136
-95,059	799,704	-0,033	0,065
-94,045	64,666	0,045	0,032
-93,030	124,367	-0,135	0,120
-92,016	-200,000	0,011	0,074
-91,001	-50,754	-0,122	0,040
-89,986	32,490	0,089	0,054
-88,972	-200,000	0,014	-0,130
-87,957	800,000	-0,057	-0,127
-86,943	-118,547	-0,044	0,005
-85,928	110,913	-0,102	0,087
-84,913	800,000	-0,014	0,040
-83,899	255,915	-0,060	0,073
-82,884	-59,360	-0,041	0,013
-81,870	-60,113	-0,018	0,005
-80,855	-83,190	-0,068	0,015
-79,840	800,000	0,055	-0,155
-78,826	171,011	-0,057	0,058
-77,811	800,000	0,039	0,091
-76,797	-81,178	-0,114	-0,026
-75,782	56,921	-0,036	-0,025
-74,767	-200,000	0,000	-0,063
-73,753	-200,000	-0,008	-0,036
-72,738	367,730	-0,043	0,062
-71,724	50,807	0,092	-0,061
-70,709	-200,000	-0,014	0,076
-69,694	-112,179	0,043	-0,006
-68,680	-58,132	0,080	0,024
-67,665	192,150	0,079	-0,084
-66,651	-200,000	0,012	-0,126
-65,636	-200,000	-0,036	-0,180
-64,622	-200,000	-0,006	0,020
-63,607	97,786	-0,104	0,084
-62,592	-170,694	0,068	-0,002
-61,578	-144,514	0,112	0,007
-60,563	-200,000	0,002	0,143
-59,549	322,363	0,047	-0,063
-58,534	55,482	-1,930	-1,317
-57,519	535,637	-1,187	-1,996
-56,505	-200,000	-0,499	-4,654
-55,490	373,179	0,799	1,150
-54,476	800,000	5,343	12,039
-53,461	-200,000	22,036	339,657
-52,446	800,000	759,911	2296,914
-51,432	532,068	1654,545	2773,231
-50,417	69,187	1652,820	1198,042
-49,403	16,612	1527,593	849,830
-48,388	10,817	1452,066	779,874
-47,373	19,060	1443,952	814,914
-46,359	14,184	1432,832	785,501
-45,344	9,105	1428,872	759,190
-44,330	9,063	1426,742	757,829
-43,315	9,030	1425,266	756,857
-42,300	9,037	1423,447	755,894
-41,286	9,109	1422,017	755,446
-40,271	9,089	1420,827	754,690
-39,257	9,039	1419,644	753,796
-38,242	9,078	1418,676	753,435
-37,227	9,037	1417,600	752,642
-36,213	9,074	1416,204	752,043
-35,198	9,053	1414,989	751,272
-34,184	9,131	1413,768	750,960
-33,169	9,025	1412,764	749,896
-32,154	9,054	1411,698	749,437
-31,140	9,037	1410,382	748,630
-30,125	9,108	1409,179	748,296
-29,111	9,060	1408,113	747,472
-28,096	9,022	1406,851	746,595
-27,082	9,028	1405,661	745,963
-26,067	8,957	1404,901	745,200
-25,052	9,004	1403,558	744,678
-24,038	9,000	1402,752	744,200
-23,023	9,018	1401,899	743,804
-22,009	8,998	1400,653	743,019
-20,994	8,998	1399,398	742,324
-19,979	8,990	1398,588	741,829
-18,965	8,982	1397,770	741,326
-17,950	8,931	1396,894	740,597
-16,936	8,971	1396,055	740,309
-15,921	8,933	1394,971	739,525
-14,906	8,921	1394,368	739,119
-13,892	8,962	1393,103	738,613
-12,877	8,902	1392,526	738,001
-11,863	8,930	1391,584	737,599
-10,848	8,907	1390,814	737,056
-9,833	8,862	1389,710	736,232
-8,819	8,823	1388,791	735,535
-7,804	8,825	1387,855	735,020
-6,790	8,811	1387,094	734,527
-5,775	8,818	1385,731	733,807
-4,760	8,818	1384,973	733,377
-3,746	8,889	1383,692	732,997
-2,731	8,829	1383,026	732,338
-1,717	8,805	1382,155	731,737
-0,702	8,821	1380,608	730,960
0,313	12,806	1291,642	702,001
1,327	28,688	682,818	406,773
2,342	44,746	117,704	76,222
3,356	1,103	16,411	8,277
4,371	4,688	3,763	1,943
5,386	3,676	1,183	0,607
6,400	-200,000	0,090	0,657
7,415	-23,317	-0,268	-0,113
8,429	49,322	-0,350	-0,232
9,444	49,803	-0,353	-0,234
10,459	-15,098	-0,279	-0,125
11,473	358,215	-0,174	-0,246
12,488	141,478	-0,217	-0,203
13,502	222,549	-0,249	-0,283
14,517	-58,201	-0,388	-0,118
15,531	171,571	-0,280	-0,283
16,546	234,581	-0,250	-0,291
17,561	57,145	-0,367	-0,251
18,575	43,163	-0,147	-0,094
19,590	125,833	-0,229	-0,204
20,604	26,252	-0,255	-0,149
21,619	132,394	-0,385	-0,350
22,634	189,004	-0,362	-0,382
23,648	106,493	-0,445	-0,371
24,663	173,762	-0,303	-0,308
25,677	62,027	-0,302	-0,212
26,692	238,028	-0,313	-0,367
27,707	241,534	-0,231	-0,272
28,721	61,104	-0,412	-0,288
29,736	0,609	-0,343	-0,172
30,750	33,737	-0,430	-0,262
31,765	113,752	-0,416	-0,356
32,780	-14,910	-0,480	-0,216
33,794	8,394	-0,338	-0,178
34,809	58,888	-0,343	-0,237
35,823	308,506	-0,205	-0,270
36,838	67,845	-0,414	-0,297
37,853	134,549	-0,388	-0,354
38,867	150,729	-0,270	-0,258
39,882	125,574	-0,294	-0,261
40,896	41,703	-0,324	-0,206
41,911	-36,341	-0,467	-0,176
42,926	93,032	-0,356	-0,283
43,940	102,639	-0,328	-0,269
44,955	116,691	-0,328	-0,283
45,969	53,993	-0,348	-0,235
46,984	66,732	-0,322	-0,230
47,999	123,771	-0,302	-0,266
49,013	149,178	-0,281	-0,267
50,028	-74,409	-0,212	-0,053
51,042	-33,893	-0,380	-0,146
52,057	208,508	-0,258	-0,283
53,071	-60,348	-0,373	-0,111
54,086	6,289	-0,413	-0,214
55,101	191,847	-0,099	-0,105
56,115	36,237	-0,385	-0,238
57,130	142,069	-0,316	-0,294
58,144	121,663	-0,300	-0,263
59,159	-9,692	-0,378	-0,176
60,174	178,131	-0,395	-0,405
61,188	-68,542	-0,398	-0,107
62,203	34,176	-0,247	-0,150
63,217	29,237	-0,246	-0,146
64,232	-27,710	-0,409	-0,166
65,247	700,468	-0,192	-0,356
66,261	-7,504	-0,308	-0,145
67,276	169,311	-0,349	-0,350
68,290	148,725	-0,345	-0,328
69,305	160,194	-0,241	-0,236
70,320	215,148	-0,213	-0,237
71,334	21,108	-0,374	-0,212
72,349	12,771	-0,266	-0,143
73,363	153,951	-0,299	-0,287
74,378	107,626	-0,337	-0,281
75,393	56,470	-0,334	-0,228
76,407	-0,783	-0,245	-0,121
77,422	107,481	-0,282	-0,235
78,436	184,341	-0,198	-0,206
79,451	-39,713	-0,334	-0,122
80,466	-88,519	-0,305	-0,063
81,480	82,691	-0,348	-0,265
82,495	106,400	-0,259	-0,215
83,509	-12,573	-0,330	-0,150
84,524	-137,470	-0,255	-0,020
85,539	102,772	-0,267	-0,219
86,553	45,251	-0,290	-0,187
87,568	5,189	-0,289	-0,148
88,582	215,378	-0,216	-0,240
89,597	238,198	-0,171	-0,199
90,611	-7,710	-0,335	-0,158
91,626	-61,956	-0,211	-0,061
92,641	364,290	-0,144	-0,204
93,655	53,375	-0,343	-0,230
94,670	228,613	-0,152	-0,174
95,684	-76,639	-0,281	-0,068
96,699	102,598	-0,210	-0,172
97,714	-55,615	-0,297	-0,092
98,728	-41,108	-0,257	-0,092
99,743	-149,358	-0,229	-0,013
100,757	-11,694	-0,267	-0,122
101,772	66,939	-0,243	-0,173
102,787	-3,675	-0,395	-0,191
103,801	136,857	-0,207	-0,189
104,816	-2,841	-0,302	-0,147
105,830	87,908	-0,155	-0,120
106,845	-47,617	-0,361	-0,122
107,860	75,911	-0,231	-0,171
108,874	-27,703	-0,374	-0,151
109,889	-119,049	-0,340	-0,041
110,903	125,922	-0,196	-0,173
111,918	34,722	-0,292	-0,178
112,933	128,342	-0,205	-0,182
113,947	33,669	-0,152	-0,092
114,962	16,824	-0,192	-0,106
115,976	157,162	-0,205	-0,198
116,991	112,440	-0,316	-0,267
118,006	-143,022	-0,276	-0,018
119,020	468,137	-0,173	-0,271
120,035	73,902	-0,189	-0,138
121,049	31,933	-0,214	-0,129
122,064	-149,210	-0,305	0,017
123,079	0,279	-0,303	-0,151
124,093	-46,148	-0,335	-0,114
125,108	127,764	-0,265	-0,235
126,122	59,523	-0,229	-0,157
127,137	-79,480	-0,212	-0,050
128,151	30,726	-0,195	-0,116
129,166	107,738	-0,235	-0,195
130,181	73,423	-0,243	-0,178
131,195	-45,798	-0,318	-0,109
132,210	120,220	-0,399	-0,345
133,224	-113,283	-0,208	0,028
134,239	92,280	-0,226	-0,178
135,254	729,932	-0,099	-0,186
136,268	87,657	-0,109	-0,084
137,283	39,656	-0,188	-0,118
138,297	199,838	-0,187	-0,201
139,312	-28,442	-0,267	-0,107
140,327	317,478	-0,198	-0,262
141,341	625,828	-0,165	-0,292
142,356	37,106	-0,260	-0,160
143,370	64,239	-0,271	-0,190
144,385	-127,760	-0,240	-0,024
145,400	4,444	-0,374	-0,190
146,414	143,847	-0,222	-0,206
147,429	52,491	-0,180	-0,119
148,443	4,945	-0,228	-0,116
149,458	131,856	-0,171	-0,153
150,473	193,532	-0,242	-0,255
151,487	86,270	-0,216	-0,166
152,502	79,412	-0,231	-0,172
153,516	76,480	-0,218	-0,160
154,531	274,619	-0,230	-0,284
155,546	217,349	-0,149	-0,165
156,560	-111,282	-0,165	-0,023
157,575	-74,929	-0,280	-0,069
158,589	58,926	-0,275	-0,188
159,604	77,934	-0,251	-0,186
160,619	-73,353	-0,295	-0,075
161,633	21,539	-0,325	-0,183
162,648	800,000	-0,102	-0,270
163,662	-82,532	-0,274	-0,061
164,677	800,000	-0,063	-0,150
165,692	-103,769	-0,242	-0,039
166,706	38,816	-0,189	-0,117
167,721	64,986	-0,226	-0,159
168,735	114,006	-0,310	-0,262
169,750	-2,281	-0,243	-0,118
170,764	67,256	-0,212	-0,150
171,779	-44,482	-0,292	-0,101
172,794	-69,306	-0,278	-0,074
173,808	517,466	-0,140	-0,228
174,823	-12,067	-0,177	-0,080
175,837	-32,458	-0,309	-0,119
176,852	93,223	-0,218	-0,171
177,867	246,507	-0,152	-0,178
178,881	-45,630	-0,263	-0,090
179,896	105,777	-0,217	-0,178
180,910	88,712	-0,152	-0,117
181,925	67,770	-0,205	-0,145
182,940	90,600	-0,246	-0,191
183,954	-9,765	-0,154	-0,071
184,969	-25,960	-0,212	-0,086
185,983	-15,708	-0,190	-0,084
186,998	-106,394	-0,241	-0,037
188,013	800,000	-0,096	-0,241
189,027	202,397	-0,220	-0,236
190,042	440,250	-0,160	-0,243
191,056	176,336	-0,256	-0,258
192,071	82,951	-0,234	-0,176
193,086	255,880	-0,118	-0,140
194,100	126,848	-0,138	-0,121
195,115	9,137	-0,164	-0,086
196,129	201,785	-0,274	-0,293
197,144	220,032	-0,249	-0,277
198,159	-13,232	-0,206	-0,092
199,173	2,796	-0,283	-0,142
200,188	-47,544	-0,079	-0,026
201,202	44,409	-0,186	-0,118
202,217	244,059	-0,181	-0,211
203,232	198,496	-0,280	-0,297
204,246	-49,762	-0,280	-0,092
205,261	29,451	-0,186	-0,109
206,275	43,050	-0,128	-0,081
207,290	-53,541	-0,093	-0,029
208,304	118,813	-0,220	-0,188
209,319	166,709	-0,233	-0,229
210,334	459,506	-0,101	-0,156
211,348	-2,448	-0,204	-0,098
212,363	-200,000	-0,067	-0,219
213,377	380,359	-0,180	-0,256
214,392	187,575	-0,193	-0,199
215,407	31,558	-0,203	-0,121
216,421	428,228	-0,161	-0,241
217,436	40,690	-0,320	-0,199
218,450	65,983	-0,186	-0,130
219,465	-93,007	-0,283	-0,054
220,480	4,978	-0,223	-0,113
221,494	-200,000	-0,042	-0,141
222,509	160,948	-0,105	-0,102
223,523	-91,954	-0,113	-0,022
224,538	-109,813	-0,191	0,027
225,553	-93,010	-0,339	-0,065
226,567	172,863	-0,201	-0,200
227,582	323,433	-0,162	-0,214
228,596	-200,000	0,003	-0,045
229,611	-116,522	-0,152	0,019
230,626	140,661	-0,086	-0,079
231,640	129,673	-0,129	-0,114
232,655	11,748	-0,188	-0,099
233,669	800,000	-0,124	-0,336
234,684	-81,576	-0,271	-0,061
235,699	577,734	-0,151	-0,256
236,713	323,937	-0,180	-0,238
237,728	32,429	-0,211	-0,126
238,742	-74,093	-0,178	-0,044
239,757	-200,000	-0,034	-0,202
240,772	60,646	-0,206	-0,141
241,786	494,621	-0,173	-0,275
242,801	20,651	-0,245	-0,137
243,815	-187,054	-0,127	0,001
244,830	456,512	-0,114	-0,175
245,844	-124,828	-0,134	0,014
246,859	16,686	-0,140	-0,076
247,874	6,782	-0,179	-0,092
248,888	-200,000	0,003	-0,203
249,903	26,483	-0,199	-0,114
250,917	90,864	-0,165	-0,127
251,932	84,437	-0,285	-0,215
252,947	117,051	-0,184	-0,156
253,961	87,799	-0,181	-0,138
254,976	438,269	-0,138	-0,209
255,990	13,911	-0,280	-0,150
257,005	-12,796	-0,036	0,016
258,020	202,738	-0,098	-0,104
259,034	-200,000	-0,011	-0,170
260,049	-7,073	-0,157	-0,073
261,063	191,411	-0,170	-0,177
262,078	-29,948	-0,285	-0,112
263,093	-22,660	-0,149	-0,062
264,107	41,688	-0,185	-0,115
265,122	-24,836	-0,142	-0,058
266,136	-86,434	-0,144	-0,030
267,151	49,007	-0,175	-0,113
268,166	135,454	-0,214	-0,192
269,180	335,076	-0,126	-0,169
270,195	-200,000	-0,058	-0,223
271,209	499,673	-0,122	-0,194
272,224	-137,357	-0,138	-0,011
273,239	116,483	-0,181	-0,153
274,253	-137,602	-0,079	0,006
275,268	-108,899	-0,326	-0,047
276,282	69,531	-0,210	-0,148
277,297	229,890	-0,159	-0,179
278,312	-2,192	-0,200	-0,096
279,326	800,000	-0,073	-0,149
280,341	-200,000	-0,033	-0,138
281,355	-18,488	-0,107	-0,046
282,370	-81,143	-0,105	0,024
283,384	-10,082	-0,217	-0,099
284,399	55,227	-0,208	-0,138
285,414	662,620	-0,107	-0,191
286,428	21,111	-0,129	-0,072
287,443	800,000	-0,057	-0,117
288,457	-188,555	-0,193	0,002
289,472	-69,374	-0,228	-0,060
290,487	166,151	-0,177	-0,173
291,501	466,538	-0,086	-0,132
292,516	50,027	-0,179	-0,116
293,530	538,648	-0,114	-0,187
294,545	331,002	-0,129	-0,171
295,560	-81,249	-0,132	-0,030
296,574	-59,161	-0,054	-0,016
297,589	-81,443	-0,083	-0,019
298,603	-8,782	-0,250	-0,115
299,618	-200,000	-0,038	-0,167
300,633	-200,000	-0,077	-0,267
301,647	800,000	-0,061	-0,172
302,662	439,472	-0,106	-0,160
303,676	93,159	-0,140	-0,109
304,691	-200,000	-0,003	-0,196
305,706	345,136	-0,085	-0,115
306,720	13,620	-0,220	-0,117
307,735	234,051	-0,136	-0,154
308,749	-89,253	-0,189	-0,038
309,764	180,053	-0,017	-0,017
310,779	683,860	-0,100	-0,179
311,793	188,064	-0,069	-0,071
312,808	-76,211	-0,171	-0,041
313,822	164,848	-0,152	-0,147
314,837	107,634	-0,046	0,037
315,852	227,169	0,003	0,003
316,866	-29,739	-0,234	-0,091
317,881	-85,992	-0,152	0,032
318,895	-66,284	-0,242	-0,066
319,910	603,633	-0,059	-0,101
320,925	171,708	-0,186	-0,183
321,939	45,085	-0,162	-0,102
322,954	433,141	-0,123	-0,183
323,968	127,716	-0,206	-0,179
324,983	152,192	-0,191	-0,179
325,997	12,782	-0,122	-0,064
327,012	-200,000	-0,067	-0,305
328,027	459,418	-0,090	-0,138
329,041	-68,564	-0,091	-0,024
330,056	559,284	-0,117	-0,195
331,070	563,587	-0,160	-0,267
332,085	18,064	-0,158	-0,086
333,100	-200,000	-0,017	-0,061
334,114	77,582	-0,123	-0,090
335,129	-26,486	-0,062	-0,025
336,143	-55,940	-0,233	-0,071
337,158	4,581	-0,094	-0,047
338,173	739,516	-0,098	-0,182
339,187	8,721	-0,127	0,065
340,202	800,000	-0,046	-0,111
341,216	434,799	-0,140	-0,209
342,231	-200,000	-0,054	-0,167
343,246	138,462	-0,125	-0,112
344,260	-110,993	0,137	0,019
345,275	-200,000	-0,043	-0,273
346,289	759,283	-0,047	-0,088
347,304	-117,444	-0,157	-0,019
348,319	-25,111	-0,246	-0,099
349,333	326,212	-0,167	-0,220
350,348	-44,536	-0,260	-0,088
351,362	800,000	-0,069	-0,145
352,377	745,277	-0,068	-0,127
353,392	-145,428	-0,212	-0,013
354,406	-34,210	-0,193	-0,072
355,421	206,397	1312,104	1398,488
356,435	158,726	1472,477	1398,935
