DTS Sentinel unit serial number:	SN410029Multiplexer serial number:	ORYXHardware model number:	OX2-SRSoftware version number:	ORYX F/W v4,00 Oryx Data Collector v3.7.2.0data status	okinstallation	B3 Nyhavnadifferential loss correction	single-endedforward channel	channel 1reverse channel	N/Adate	2023/12/02time	21:42:30forward acquisition time	300,00reverse acquisition time	0,00gamma	499,1914k internal	0,3201k external	0,3201temperature offset calibration	1,0000default loss term (dB/km)	0,3820temperature slope calibration	1,0000multiplexer offset coefficient	1,0000multiplexer slope coefficient	1,0000fibre end	0,00T internal ref (°C)	13,22T ext. ref 1 (°C)	-1,89T ext. ref 2 (°C)	-1,91length (m)	temperature (°C)	Stokes	anti-Stokes-744,400	80,611	-0,247	-0,193
-743,385	-200,000	0,042	0,260
-742,371	800,000	-0,048	-0,137
-741,356	800,000	0,088	0,265
-740,342	170,316	-0,248	-0,258
-739,327	-200,000	0,044	0,388
-738,312	126,148	-0,183	-0,169
-737,298	226,735	-0,236	0,279
-736,283	-100,466	-0,231	-0,041
-735,269	-200,000	0,024	0,399
-734,254	13,920	-0,247	-0,139
-733,239	16,872	-0,235	0,135
-732,225	800,000	0,033	-0,099
-731,210	79,585	0,077	-0,060
-730,196	17,134	0,031	0,018
-729,181	3,858	-0,053	0,028
-728,167	-200,000	0,000	-0,108
-727,152	-200,000	0,003	0,024
-726,137	85,549	-0,049	0,039
-725,123	-200,000	-0,027	-0,135
-724,108	-77,399	-0,096	-0,024
-723,094	458,601	-0,032	-0,052
-722,079	-200,000	-0,003	-0,113
-721,064	213,946	-0,026	-0,030
-720,050	-32,047	0,132	0,053
-719,035	88,774	0,156	-0,126
-718,021	-200,000	0,011	0,080
-717,006	800,000	-0,047	-0,149
-715,991	166,801	-0,002	-0,002
-714,977	800,000	0,026	-0,071
-713,962	800,000	-0,036	-0,077
-712,948	96,896	0,087	0,073
-711,933	-66,478	-0,089	-0,025
-710,918	800,000	0,017	-0,038
-709,904	-115,477	-0,075	-0,010
-708,889	-200,000	0,021	-0,083
-707,875	-3,441	0,063	-0,032
-706,860	-189,030	-0,144	-0,001
-705,845	-200,000	-0,001	-0,122
-704,831	221,786	-0,030	-0,036
-703,816	657,578	-0,055	-0,103
-702,802	-200,000	-0,000	-0,078
-701,787	376,777	-0,068	-0,101
-700,772	-151,431	-0,183	0,010
-699,758	-120,864	-0,105	-0,013
-698,743	694,551	0,017	-0,033
-697,729	-200,000	0,001	0,030
-696,714	-117,206	-0,051	-0,007
-695,699	393,030	-0,064	0,097
-694,685	-200,000	0,027	0,097
-693,670	396,398	-0,149	-0,227
-692,656	38,299	0,107	0,069
-691,641	-34,891	-0,105	-0,041
-690,627	-17,337	0,090	-0,041
-689,612	-182,713	0,134	0,002
-688,597	-37,907	-0,077	-0,030
-687,583	-200,000	0,018	-0,270
-686,568	356,522	0,046	-0,067
-685,554	800,000	0,013	0,027
-684,539	-200,000	-0,027	-0,098
-683,524	24,796	0,143	0,086
-682,510	800,000	0,018	-0,037
-681,495	188,843	-0,057	-0,061
-680,481	-167,221	-0,114	-0,003
-679,466	800,000	0,070	-0,189
-678,451	3,365	-0,107	-0,056
-677,437	800,000	0,010	-0,020
-676,422	236,985	-0,028	-0,034
-675,408	368,869	-0,052	0,076
-674,393	266,152	-0,057	-0,072
-673,378	58,406	-0,027	-0,019
-672,364	-200,000	0,016	-0,159
-671,349	-200,000	0,006	-0,046
-670,335	-200,000	-0,014	-0,066
-669,320	109,596	0,047	0,041
-668,305	89,135	0,074	-0,060
-667,291	-124,566	-0,091	-0,010
-666,276	-200,000	-0,014	-0,046
-665,262	-200,000	-0,003	-0,036
-664,247	-200,000	0,024	-0,148
-663,232	-39,007	-0,163	-0,062
-662,218	-200,000	-0,012	0,107
-661,203	-13,419	-0,136	0,063
-660,189	503,992	0,090	0,152
-659,174	-44,883	-0,077	-0,028
-658,159	670,999	-0,047	0,089
-657,145	120,066	0,033	0,030
-656,130	-88,932	-0,052	0,011
-655,116	174,395	-0,043	-0,046
-654,101	164,353	0,062	-0,063
-653,086	404,757	0,119	-0,182
-652,072	-12,060	-0,078	-0,037
-651,057	136,290	-0,133	-0,126
-650,043	87,224	-0,061	-0,049
-649,028	-200,000	-0,022	-0,086
-648,014	94,078	0,082	0,067
-646,999	-1,377	0,101	0,052
-645,984	17,148	-0,072	0,041
-644,970	-36,896	0,037	0,014
-643,955	66,990	-0,120	-0,088
-642,941	248,128	-0,101	-0,124
-641,926	162,883	-0,049	0,050
-640,911	-200,000	0,004	-0,040
-639,897	-89,178	-0,030	0,006
-638,882	-200,000	-0,029	0,140
-637,868	-2,280	0,017	0,008
-636,853	258,583	-0,097	-0,122
-635,838	-200,000	0,017	-0,123
-634,824	-200,000	0,040	-0,131
-633,809	361,585	0,049	0,072
-632,795	-84,116	-0,049	-0,011
-631,780	-87,896	0,061	-0,013
-630,765	135,907	-0,093	0,087
-629,751	-200,000	-0,033	-0,155
-628,736	-200,000	0,001	0,012
-627,722	-78,794	0,056	-0,014
-626,707	58,169	-0,102	0,072
-625,692	-200,000	-0,007	-0,041
-624,678	-16,672	0,074	0,034
-623,663	800,000	0,024	0,052
-622,649	-155,285	-0,119	0,006
-621,634	105,817	0,039	-0,034
-620,619	602,691	-0,030	-0,053
-619,605	800,000	-0,048	0,102
-618,590	-60,413	-0,062	0,019
-617,576	-45,544	0,071	0,025
-616,561	-81,170	-0,080	0,019
-615,546	-74,581	-0,188	0,049
-614,532	40,579	0,096	-0,062
-613,517	264,544	-0,065	-0,082
-612,503	-116,240	-0,044	-0,006
-611,488	-115,569	-0,104	0,014
-610,474	-158,595	0,076	0,003
-609,459	-107,225	-0,064	-0,010
-608,444	94,791	0,127	-0,104
-607,430	-116,356	-0,054	0,007
-606,415	-120,174	-0,101	0,012
-605,401	-200,000	0,002	-0,118
-604,386	445,123	0,030	0,048
-603,371	-4,367	0,032	-0,016
-602,357	-200,000	-0,011	-0,040
-601,342	-116,457	-0,143	-0,019
-600,328	-76,359	-0,079	-0,020
-599,313	184,104	-0,034	-0,037
-598,298	-98,139	-0,091	0,017
-597,284	-142,425	-0,044	0,003
-596,269	800,000	0,031	0,076
-595,255	-49,436	0,022	0,007
-594,240	-200,000	0,008	0,167
-593,225	-29,545	0,055	0,023
-592,211	-200,000	-0,006	-0,128
-591,196	-20,122	0,112	-0,050
-590,182	800,000	0,038	0,078
-589,167	84,444	-0,069	-0,054
-588,152	174,688	-0,029	-0,031
-587,138	194,806	-0,033	0,036
-586,123	800,000	-0,045	-0,120
-585,109	-150,777	-0,037	0,002
-584,094	83,097	-0,025	-0,020
-583,079	-200,000	-0,004	0,058
-582,065	163,968	0,124	0,127
-581,050	-88,938	0,053	0,011
-580,036	800,000	-0,009	0,027
-579,021	386,423	-0,072	-0,107
-578,006	-38,103	-0,121	0,046
-576,992	-182,461	0,094	-0,001
-575,977	311,098	-0,020	-0,028
-574,963	215,559	-0,102	0,117
-573,948	156,462	0,034	-0,034
-572,934	-200,000	-0,023	0,125
-571,919	86,868	-0,106	0,084
-570,904	800,000	-0,032	-0,079
-569,890	51,152	-0,070	0,048
-568,875	160,602	0,027	0,028
-567,861	669,482	-0,055	-0,102
-566,846	800,000	-0,048	0,126
-565,831	-200,000	0,032	0,146
-564,817	261,245	-0,092	-0,116
-563,802	-20,343	-0,080	-0,036
-562,788	-200,000	-0,021	-0,093
-561,773	132,040	-0,104	0,097
-560,758	-146,911	0,074	0,005
-559,744	-147,534	0,175	0,010
-558,729	66,829	0,045	0,033
-557,715	507,071	0,033	0,056
-556,700	-64,973	0,038	0,011
-555,685	-200,000	0,022	-0,137
-554,671	800,000	0,020	-0,053
-553,656	800,000	-0,061	0,140
-552,642	6,356	0,053	0,029
-551,627	-200,000	0,007	0,037
-550,612	-200,000	0,004	0,103
-549,598	352,496	0,042	-0,061
-548,583	124,810	0,068	-0,062
-547,569	-200,000	0,099	-0,000
-546,554	130,762	0,072	0,067
-545,539	-176,146	-0,064	-0,001
-544,525	-3,206	-0,072	0,036
-543,510	65,509	-0,061	-0,044
-542,496	800,000	0,026	0,058
-541,481	-200,000	-0,029	-0,151
-540,466	128,135	-0,057	-0,053
-539,452	-50,215	0,137	0,047
-538,437	273,476	0,030	0,039
-537,423	213,259	0,096	0,109
-536,408	131,389	0,074	0,069
-535,393	-200,000	-0,005	-0,037
-534,379	-200,000	0,026	-0,093
-533,364	-200,000	-0,017	-0,116
-532,350	-200,000	-0,010	-0,057
-531,335	-200,000	-0,006	0,093
-530,321	228,851	0,079	0,093
-529,306	16,991	-0,100	0,057
-528,291	-76,671	0,040	0,010
-527,277	99,460	0,080	-0,067
-526,262	205,495	-0,023	-0,026
-525,248	208,995	0,047	0,054
-524,233	-110,508	-0,099	0,015
-523,218	-200,000	0,025	-0,161
-522,204	120,500	-0,170	0,152
-521,189	346,391	0,083	-0,118
-520,175	-200,000	0,003	-0,050
-519,160	472,237	-0,040	-0,065
-518,145	-39,990	0,141	-0,053
-517,131	-71,698	0,215	0,057
-516,116	-200,000	-0,002	-0,014
-515,102	-60,057	-0,130	-0,040
-514,087	312,926	-0,023	-0,031
-513,072	-107,152	-0,124	0,020
-512,058	-171,385	-0,125	-0,003
-511,043	-200,000	0,010	0,057
-510,029	-200,000	-0,016	-0,062
-509,014	-200,000	-0,002	-0,024
-507,999	-200,000	-0,004	-0,119
-506,985	-154,852	-0,118	0,006
-505,970	18,492	-0,049	0,028
-504,956	800,000	-0,052	-0,147
-503,941	719,490	0,082	-0,157
-502,926	-200,000	0,014	0,110
-501,912	-20,754	0,166	-0,073
-500,897	309,733	0,095	0,128
-499,883	-200,000	0,010	-0,093
-498,868	235,395	-0,032	0,039
-497,853	-200,000	0,000	-0,099
-496,839	-73,252	0,046	0,012
-495,824	800,000	0,061	0,154
-494,810	800,000	-0,039	0,097
-493,795	-19,337	0,150	-0,067
-492,781	1,964	0,013	0,007
-491,766	-200,000	0,010	-0,042
-490,751	800,000	-0,020	0,041
-489,737	-19,915	0,076	-0,034
-488,722	751,677	-0,043	0,085
-487,708	702,250	0,077	0,147
-486,693	47,066	-0,054	0,036
-485,678	-138,991	-0,126	0,010
-484,664	-115,929	0,039	-0,005
-483,649	-136,063	0,059	-0,005
-482,635	-14,771	0,095	0,044
-481,620	40,965	0,066	-0,043
-480,605	14,004	0,102	0,057
-479,591	-200,000	-0,002	-0,121
-478,576	800,000	-0,028	0,062
-477,562	124,933	0,077	-0,070
-476,547	50,912	-0,144	0,098
-475,532	-200,000	-0,009	-0,117
-474,518	108,417	0,078	0,067
-473,503	-200,000	-0,009	0,043
-472,489	642,455	-0,048	0,088
-471,474	199,452	0,057	-0,064
-470,459	-122,738	-0,127	-0,015
-469,445	-1,900	-0,109	0,055
-468,430	-43,676	0,045	-0,016
-467,416	800,000	-0,033	0,079
-466,401	800,000	0,062	0,134
-465,386	800,000	0,045	0,105
-464,372	-168,757	0,203	0,005
-463,357	11,407	0,020	0,011
-462,343	-200,000	0,020	0,072
-461,328	-200,000	-0,045	-0,149
-460,313	-14,134	0,173	0,080
-459,299	-42,533	-0,017	0,006
-458,284	28,459	-0,048	-0,029
-457,270	256,544	0,065	0,081
-456,255	429,508	0,020	0,032
-455,241	-200,000	-0,041	-0,169
-454,226	-11,833	-0,011	-0,005
-453,211	51,251	0,081	0,055
-452,197	417,641	-0,034	0,052
-451,182	-200,000	0,009	0,047
-450,168	-105,768	0,170	0,027
-449,153	47,580	-0,052	0,035
-448,138	-80,466	-0,110	-0,026
-447,124	-12,309	-0,136	-0,064
-446,109	-200,000	-0,021	-0,133
-445,095	-87,072	0,047	-0,010
-444,080	221,131	0,081	0,094
-443,065	146,903	-0,091	0,088
-442,051	14,685	0,098	-0,055
-441,036	469,923	0,075	-0,122
-440,022	-179,752	-0,092	0,001
-439,007	-66,865	-0,136	-0,038
-437,992	457,789	-0,080	-0,129
-436,978	-200,000	0,021	0,083
-435,963	10,246	0,089	-0,049
-434,949	40,106	0,059	-0,038
-433,934	-68,489	-0,110	0,031
-432,919	514,287	-0,007	0,012
-431,905	137,998	0,115	-0,108
-430,890	52,659	-0,161	0,111
-429,876	346,779	-0,118	0,167
-428,861	-135,129	0,110	0,009
-427,846	800,000	0,033	0,066
-426,832	69,546	-0,063	-0,047
-425,817	-7,791	-0,033	-0,016
-424,803	3,269	-0,074	0,038
-423,788	16,605	0,081	0,046
-422,773	-200,000	0,001	0,020
-421,759	-200,000	-0,024	0,090
-420,744	-74,571	0,050	0,013
-419,730	-15,838	0,064	-0,029
-418,715	79,475	0,054	-0,042
-417,701	800,000	-0,033	-0,093
-416,686	67,516	-0,082	-0,060
-415,671	491,878	0,063	0,103
-414,657	351,471	0,043	0,062
-413,642	-82,487	0,008	0,002
-412,628	-117,370	-0,090	0,012
-411,613	-200,000	-0,015	-0,139
-410,598	-65,544	0,090	-0,026
-409,584	-166,492	0,055	0,002
-408,569	-200,000	-0,008	0,097
-407,555	800,000	0,013	0,037
-406,540	-62,297	-0,078	0,023
-405,525	153,165	-0,002	0,002
-404,511	17,210	0,012	0,007
-403,496	-200,000	-0,023	-0,182
-402,482	156,341	-0,040	-0,039
-401,467	-50,757	0,111	-0,037
-400,452	-33,627	0,072	0,028
-399,438	-200,000	-0,012	0,045
-398,423	-140,393	-0,167	-0,012
-397,409	-200,000	-0,054	0,000
-396,394	800,000	0,026	-0,077
-395,379	800,000	-0,018	-0,050
-394,365	55,009	-0,140	-0,097
-393,350	291,648	0,055	-0,072
-392,336	-117,963	0,070	0,009
-391,321	116,076	0,048	0,042
-390,306	-69,128	-0,043	-0,012
-389,292	-83,477	-0,078	-0,018
-388,277	-200,000	0,007	0,050
-387,263	69,411	0,015	-0,011
-386,248	285,092	0,044	0,057
-385,233	98,555	0,060	-0,049
-384,219	28,733	-0,094	0,057
-383,204	-77,320	-0,118	-0,029
-382,190	540,612	0,081	0,138
-381,175	83,583	0,013	-0,010
-380,160	-141,679	0,068	0,005
-379,146	423,196	0,069	0,107
-378,131	800,000	0,018	0,045
-377,117	148,177	-0,086	0,083
-376,102	47,494	0,059	-0,039
-375,088	-200,000	-0,006	-0,164
-374,073	-82,250	-0,066	0,015
-373,058	-34,516	0,109	0,042
-372,044	406,252	-0,080	0,122
-371,029	-200,000	0,011	0,165
-370,015	299,818	-0,032	0,042
-369,000	-98,146	-0,048	0,009
-367,985	-81,978	-0,041	-0,009
-366,971	90,168	-0,010	0,008
-365,956	304,003	0,022	0,030
-364,942	-128,308	-0,192	0,019
-363,927	-20,992	0,084	-0,037
-362,912	115,942	-0,061	0,053
-361,898	-14,490	0,010	-0,005
-360,883	66,017	0,046	0,034
-359,869	54,194	0,099	-0,068
-358,854	102,103	0,142	-0,118
-357,839	-200,000	-0,004	0,026
-356,825	-200,000	-0,004	0,111
-355,810	-110,444	0,252	0,037
-354,796	-156,404	-0,103	0,005
-353,781	13,371	0,103	-0,057
-352,766	-200,000	-0,007	-0,095
-351,752	-200,000	0,014	0,051
-350,737	400,695	-0,008	-0,011
-349,723	-18,893	-0,087	-0,038
-348,708	21,400	0,068	0,040
-347,693	-200,000	0,008	-0,050
-346,679	525,688	0,039	-0,066
-345,664	71,282	0,086	-0,064
-344,650	-77,240	-0,046	0,011
-343,635	-76,256	-0,180	0,045
-342,620	108,797	0,042	0,036
-341,606	-0,285	0,082	-0,041
-340,591	675,308	-0,071	0,132
-339,577	-45,270	-0,036	-0,013
-338,562	-200,000	-0,046	-0,206
-337,548	38,125	-0,051	0,033
-336,533	-200,000	-0,004	0,110
-335,518	-200,000	0,001	0,075
-334,504	230,660	0,060	0,070
-333,489	-200,000	0,005	0,095
-332,475	154,715	-0,090	-0,088
-331,460	-200,000	-0,022	-0,110
-330,445	249,815	-0,059	-0,072
-329,431	230,918	0,097	-0,114
-328,416	77,151	0,012	-0,009
-327,402	44,207	-0,074	-0,049
-326,387	-73,816	-0,131	-0,034
-325,372	-200,000	-0,009	0,109
-324,358	-64,546	-0,052	-0,015
-323,343	-200,000	0,002	-0,051
-322,329	779,318	0,013	-0,026
-321,314	-200,000	-0,001	0,115
-320,299	-200,000	-0,007	0,049
-319,285	5,737	-0,053	-0,028
-318,270	-18,145	-0,032	-0,014
-317,256	-200,000	-0,012	0,077
-316,241	-136,345	-0,084	0,007
-315,226	800,000	0,054	0,130
-314,212	800,000	0,016	0,040
-313,197	417,062	-0,018	0,028
-312,183	33,209	-0,146	0,091
-311,168	-200,000	0,032	-0,133
-310,153	800,000	-0,030	0,073
-309,139	-100,065	0,108	-0,019
-308,124	-79,121	0,073	-0,018
-307,110	-200,000	-0,005	-0,030
-306,095	-200,000	-0,011	0,120
-305,080	310,601	0,054	0,073
-304,066	-61,206	-0,069	-0,021
-303,051	-140,732	-0,100	-0,007
-302,037	-200,000	0,014	-0,085
-301,022	84,895	0,132	0,103
-300,008	-200,000	0,001	0,037
-298,993	219,608	-0,038	-0,043
-297,978	-131,413	0,080	0,007
-296,964	42,459	0,084	0,055
-295,949	151,405	0,072	-0,070
-294,935	21,239	0,056	0,032
-293,920	196,827	-0,052	0,057
-292,905	800,000	0,038	-0,110
-291,891	-200,000	-0,013	-0,089
-290,876	-88,324	0,099	0,021
-289,862	800,000	0,019	-0,050
-288,847	-200,000	0,019	0,162
-287,832	-200,000	0,008	0,090
-286,818	-200,000	-0,059	-0,193
-285,803	430,810	-0,072	-0,111
-284,789	-122,974	0,063	0,007
-283,774	-134,517	0,074	0,006
-282,759	-50,342	-0,068	-0,023
-281,745	-200,000	-0,021	-0,137
-280,730	-200,000	0,009	-0,033
-279,716	-200,000	-0,012	0,039
-278,701	-59,971	0,033	0,010
-277,686	-200,000	0,006	-0,068
-276,672	-86,371	0,218	0,047
-275,657	800,000	0,034	-0,090
-274,643	49,576	-0,029	-0,019
-273,628	225,342	0,068	0,078
-272,613	65,521	-0,066	0,048
-271,599	534,664	-0,039	-0,066
-270,584	189,672	-0,056	0,060
-269,570	-200,000	-0,007	0,049
-268,555	172,938	0,040	-0,041
-267,540	-85,151	0,080	0,018
-266,526	800,000	0,053	0,121
-265,511	800,000	0,028	-0,058
-264,497	-86,954	0,101	0,022
-263,482	-141,225	0,133	0,009
-262,467	222,205	-0,046	0,053
-261,453	291,227	0,045	0,058
-260,438	-28,459	0,084	-0,034
-259,424	-4,421	-0,120	0,059
-258,409	800,000	-0,037	-0,104
-257,395	800,000	0,050	-0,109
-256,380	-200,000	-0,004	-0,068
-255,365	-89,977	0,072	-0,015
-254,351	-84,036	-0,069	-0,016
-253,336	-6,188	0,058	-0,028
-252,322	-101,298	-0,059	-0,010
-251,307	800,000	-0,017	0,050
-250,292	800,000	-0,025	-0,067
-249,278	12,054	0,213	-0,117
-248,263	-200,000	0,031	-0,156
-247,249	56,947	-0,011	-0,008
-246,234	-36,931	-0,035	-0,013
-245,219	-200,000	0,008	-0,040
-244,205	-200,000	0,008	0,073
-243,190	800,000	-0,007	-0,015
-242,176	241,581	0,117	0,140
-241,161	800,000	0,018	0,056
-240,146	-45,451	0,067	0,023
-239,132	-200,000	0,009	-0,063
-238,117	-200,000	0,003	0,064
-237,103	-200,000	-0,003	-0,092
-236,088	-156,361	0,136	-0,006
-235,073	-200,000	0,034	0,132
-234,059	170,056	0,036	-0,037
-233,044	-200,000	0,020	-0,075
-232,030	70,029	-0,085	-0,063
-231,015	800,000	0,038	-0,113
-230,000	245,005	-0,107	-0,129
-228,986	-25,503	0,093	0,039
-227,971	184,988	0,062	-0,066
-226,957	796,355	-0,003	0,006
-225,942	551,730	0,047	-0,081
-224,927	733,525	0,030	0,058
-223,913	38,287	-0,098	-0,062
-222,898	-200,000	-0,017	-0,084
-221,884	800,000	-0,039	-0,095
-220,869	689,214	0,073	0,136
-219,855	65,235	0,110	0,079
-218,840	-72,289	-0,062	-0,016
-217,825	-171,128	0,099	0,002
-216,811	-163,963	-0,120	-0,004
-215,796	184,101	-0,080	0,084
-214,782	-19,155	-0,058	-0,025
-213,767	-75,959	-0,088	-0,022
-212,752	24,134	0,099	0,058
-211,738	-34,650	0,024	0,009
-210,723	758,410	-0,047	0,091
-209,709	379,661	0,036	0,052
-208,694	-132,600	-0,105	0,009
-207,679	-100,563	-0,155	-0,027
-206,665	46,964	0,062	0,041
-205,650	177,629	0,133	-0,138
-204,636	-200,000	0,000	-0,032
-203,621	-78,828	-0,136	0,033
-202,606	121,904	0,069	0,061
-201,592	-113,968	0,046	0,006
-200,577	40,879	0,132	-0,085
-199,563	368,529	0,058	-0,083
-198,548	12,379	0,049	-0,027
-197,533	-200,000	-0,015	0,143
-196,519	-3,802	0,041	-0,020
-195,504	127,669	-0,078	-0,071
-194,490	800,000	-0,035	0,104
-193,475	-200,000	-0,012	0,082
-192,460	59,759	0,134	-0,094
-191,446	440,621	-0,027	0,042
-190,431	800,000	-0,028	-0,062
-189,417	-137,731	-0,059	-0,005
-188,402	-101,980	-0,055	0,009
-187,387	-68,293	-0,075	-0,021
-186,373	-200,000	-0,031	-0,177
-185,358	74,412	-0,075	0,056
-184,344	800,000	0,013	0,029
-183,329	-200,000	0,014	0,064
-182,315	266,500	0,028	0,035
-181,300	-18,081	0,096	0,043
-180,285	640,074	0,012	-0,022
-179,271	-161,189	-0,191	-0,007
-178,256	800,000	0,065	-0,138
-177,242	404,493	0,032	0,048
-176,227	54,335	-0,052	0,036
-175,212	-145,391	-0,087	0,005
-174,198	604,565	-0,047	-0,083
-173,183	-3,458	-0,129	-0,064
-172,169	-200,000	-0,057	-0,207
-171,154	-200,000	0,008	0,046
-170,139	-200,000	0,005	0,046
-169,125	-151,008	0,075	0,004
-168,110	251,407	0,026	0,032
-167,096	800,000	0,040	-0,107
-166,081	-117,973	-0,119	0,015
-165,066	85,696	-0,100	-0,078
-164,052	335,793	-0,029	0,040
-163,037	215,490	0,096	0,109
-162,023	186,676	-0,116	0,123
-161,008	-200,000	0,007	0,066
-159,993	51,874	-0,050	-0,034
-158,979	-200,000	-0,026	0,090
-157,964	-101,988	0,054	-0,009
-156,950	145,373	-0,073	-0,069
-155,935	800,000	0,044	-0,099
-154,920	800,000	0,061	0,127
-153,906	146,565	-0,047	0,045
-152,891	-200,000	-0,025	0,126
-151,877	9,202	0,049	0,026
-150,862	-200,000	-0,026	-0,164
-149,847	800,000	0,034	0,083
-148,833	800,000	-0,063	-0,132
-147,818	19,713	0,040	-0,023
-146,804	-200,000	-0,013	-0,052
-145,789	209,104	-0,039	0,044
-144,775	-200,000	-0,026	0,141
-143,760	-148,065	0,041	0,002
-142,745	-200,000	0,034	-0,127
-141,731	-200,000	-0,013	0,067
-140,716	-200,000	-0,015	0,050
-139,702	257,854	0,036	0,044
-138,687	800,000	0,052	0,119
-137,672	-118,546	-0,017	-0,002
-136,658	-200,000	0,001	0,012
-135,643	800,000	0,038	-0,101
-134,629	-49,028	-0,055	-0,019
-133,614	9,980	0,096	-0,052
-132,599	800,000	0,030	-0,070
-131,585	-200,000	-0,028	0,092
-130,570	163,040	-0,079	-0,078
-129,556	-116,432	-0,150	-0,019
-128,541	-154,428	-0,146	-0,007
-127,526	800,000	-0,020	0,053
-126,512	-163,752	0,123	-0,004
-125,497	-60,640	0,020	0,006
-124,483	800,000	-0,023	-0,058
-123,468	91,118	0,066	0,053
-122,453	-200,000	-0,005	0,062
-121,439	-200,000	0,003	0,136
-120,424	-120,658	-0,084	-0,010
-119,410	-156,478	0,087	0,004
-118,395	217,904	0,068	-0,077
-117,380	-117,440	0,100	-0,013
-116,366	528,958	0,062	0,105
-115,351	227,073	-0,093	-0,108
-114,337	14,204	-0,110	0,061
-113,322	163,439	-0,108	0,108
-112,307	-180,932	0,180	-0,003
-111,293	-200,000	-0,005	-0,198
-110,278	-200,000	-0,018	0,180
-109,264	130,087	0,041	0,037
-108,249	-185,908	0,035	-0,000
-107,234	29,337	-0,074	0,045
-106,220	-130,389	0,088	-0,008
-105,205	-185,849	0,147	-0,002
-104,191	800,000	-0,038	0,099
-103,176	508,967	-0,063	0,105
-102,162	-25,221	0,026	-0,011
-101,147	493,477	-0,056	-0,092
-100,132	-98,420	-0,106	-0,019
-99,118	-67,844	-0,040	-0,011
-98,103	-142,925	-0,058	-0,004
-97,089	-200,000	-0,022	0,079
-96,074	286,363	-0,034	0,043
-95,059	118,011	0,113	0,098
-94,045	-200,000	-0,038	0,184
-93,030	277,952	0,051	-0,064
-92,016	-20,319	-0,003	-0,001
-91,001	8,890	0,040	-0,021
-89,986	-80,766	-0,053	0,012
-88,972	800,000	-0,051	0,146
-87,957	21,172	-0,158	-0,091
-86,943	800,000	-0,022	0,050
-85,928	-66,496	0,147	0,041
-84,913	-200,000	-0,001	-0,082
-83,899	42,647	0,167	0,108
-82,884	98,016	-0,019	-0,016
-81,870	800,000	0,009	-0,022
-80,855	-200,000	-0,002	-0,016
-79,840	-200,000	0,035	0,159
-78,826	800,000	0,030	0,092
-77,811	-131,281	-0,099	0,009
-76,797	-149,275	-0,081	0,005
-75,782	-141,454	0,154	0,011
-74,767	-200,000	-0,052	0,165
-73,753	242,017	-0,020	0,023
-72,738	135,290	-0,076	0,070
-71,724	319,464	-0,023	0,031
-70,709	-154,658	-0,021	-0,001
-69,694	-96,379	-0,113	0,021
-68,680	224,461	-0,063	-0,072
-67,665	-105,847	0,034	-0,005
-66,651	-127,546	0,126	-0,013
-65,636	-200,000	0,005	-0,099
-64,622	-62,402	-0,068	-0,020
-63,607	-142,030	0,037	0,003
-62,592	-17,376	-0,035	-0,016
-61,578	59,420	0,067	0,047
-60,563	271,693	0,033	-0,042
-59,549	-200,000	-0,053	0,196
-58,534	13,636	-1,569	-0,860
-57,519	399,496	-1,389	-2,067
-56,505	-200,000	-0,543	-4,450
-55,490	220,588	0,876	0,996
-54,476	800,000	4,956	11,334
-53,461	-200,000	19,334	321,631
-52,446	-200,000	742,086	2335,107
-51,432	571,504	1656,238	2866,591
-50,417	78,008	1670,916	1260,300
-49,403	21,182	1543,979	885,010
-48,388	15,101	1466,250	810,885
-47,373	18,031	1456,526	819,636
-46,359	16,689	1446,516	807,535
-45,344	13,364	1441,781	788,931
-44,330	13,296	1439,787	787,483
-43,315	13,290	1438,173	786,539
-42,300	13,280	1436,584	785,592
-41,286	13,292	1435,350	784,946
-40,271	13,236	1434,172	784,003
-39,257	13,282	1432,687	783,377
-38,242	13,294	1431,516	782,763
-37,227	13,316	1429,925	781,967
-36,213	13,305	1428,785	781,258
-35,198	13,320	1427,633	780,670
-34,184	13,326	1426,799	780,213
-33,169	13,256	1425,427	779,099
-32,154	13,370	1424,214	778,944
-31,140	13,393	1423,002	778,362
-30,125	13,373	1421,848	777,605
-29,111	13,324	1420,924	776,834
-28,096	13,367	1419,616	776,292
-27,082	13,225	1418,780	775,135
-26,067	13,300	1417,386	774,696
-25,052	13,255	1416,536	773,990
-24,038	13,231	1415,510	773,284
-23,023	13,146	1414,718	772,422
-22,009	13,208	1413,322	771,919
-20,994	13,213	1412,390	771,403
-19,979	13,214	1411,707	771,003
-18,965	13,193	1410,745	770,351
-17,950	13,222	1409,708	769,891
-16,936	13,163	1409,019	769,207
-15,921	13,186	1407,553	768,484
-14,906	13,200	1406,808	768,110
-13,892	13,166	1405,883	767,414
-12,877	13,150	1404,961	766,805
-11,863	13,164	1404,079	766,363
-10,848	13,155	1403,409	765,923
-9,833	13,136	1402,362	765,234
-8,819	13,085	1401,584	764,540
-7,804	13,041	1400,757	763,856
-6,790	13,057	1399,684	763,312
-5,775	13,048	1398,616	762,661
-4,760	13,078	1397,481	762,148
-3,746	13,028	1396,817	761,525
-2,731	13,038	1396,004	761,095
-1,717	13,006	1395,051	760,397
-0,702	13,030	1393,017	759,372
0,313	17,047	1309,775	732,547
1,327	33,598	703,094	431,444
2,342	51,457	123,025	82,556
3,356	4,601	16,649	8,618
4,371	6,394	3,301	1,729
5,386	21,465	0,583	0,335
6,400	-200,000	-0,074	0,237
7,415	-14,451	-0,251	-0,114
8,429	161,514	-0,334	-0,331
9,444	-27,911	-0,308	-0,126
10,459	-34,429	-0,273	-0,105
11,473	6,738	-0,244	-0,128
12,488	29,060	-0,261	-0,156
13,502	159,369	-0,186	-0,183
14,517	-35,117	-0,231	-0,088
15,531	45,238	-0,334	-0,217
16,546	160,727	-0,221	-0,218
17,561	53,175	-0,397	-0,268
18,575	-43,394	-0,199	-0,071
19,590	-1,327	-0,294	-0,146
20,604	-74,968	-0,391	-0,098
21,619	48,530	-0,408	-0,269
22,634	47,730	-0,357	-0,235
23,648	131,778	-0,345	-0,313
24,663	144,373	-0,352	-0,332
25,677	37,474	-0,423	-0,264
26,692	198,036	-0,207	-0,224
27,707	55,221	-0,442	-0,301
28,721	9,853	-0,442	-0,236
29,736	200,003	-0,244	-0,264
30,750	28,379	-0,494	-0,294
31,765	25,132	-0,290	-0,170
32,780	174,272	-0,377	-0,385
33,794	58,398	-0,344	-0,237
34,809	6,607	-0,363	-0,190
35,823	190,177	-0,324	-0,343
36,838	160,694	-0,236	-0,232
37,853	-5,207	-0,433	-0,209
38,867	-54,911	-0,250	-0,079
39,882	-5,328	-0,384	-0,185
40,896	69,998	-0,367	-0,267
41,911	3,715	-0,334	-0,171
42,926	44,694	-0,332	-0,215
43,940	44,384	-0,314	-0,203
44,955	-9,466	-0,454	-0,213
45,969	105,330	-0,250	-0,208
46,984	80,603	-0,372	-0,282
47,999	40,100	-0,257	-0,162
49,013	-36,182	-0,361	-0,137
50,028	22,622	-0,389	-0,224
51,042	114,595	-0,350	-0,300
52,057	185,785	-0,270	-0,283
53,071	90,613	-0,375	-0,296
54,086	17,048	-0,463	-0,258
55,101	215,553	-0,157	-0,175
56,115	-75,394	-0,386	-0,096
57,130	-71,355	-0,369	-0,097
58,144	69,365	-0,429	-0,310
59,159	61,141	-0,434	-0,303
60,174	121,169	-0,261	-0,229
61,188	144,788	-0,361	-0,340
62,203	115,866	-0,267	-0,230
63,217	73,412	-0,413	-0,304
64,232	90,641	-0,313	-0,246
65,247	379,477	-0,293	-0,424
66,261	100,441	-0,342	-0,279
67,276	-15,931	-0,431	-0,192
68,290	-29,071	-0,517	-0,208
69,305	87,225	-0,283	-0,220
70,320	32,333	-0,233	-0,141
71,334	58,594	-0,197	-0,136
72,349	-104,014	-0,324	-0,053
73,363	55,280	-0,225	-0,152
74,378	6,112	-0,396	-0,206
75,393	353,455	-0,204	-0,285
76,407	-99,457	-0,301	-0,053
77,422	-15,891	-0,296	-0,132
78,436	-88,306	-0,258	-0,054
79,451	8,072	-0,411	-0,216
80,466	71,471	-0,226	-0,165
81,480	-5,285	-0,356	-0,171
82,495	86,352	-0,263	-0,204
83,509	-9,643	-0,289	-0,135
84,524	-93,158	-0,233	-0,045
85,539	20,045	-0,206	-0,117
86,553	-200,000	-0,080	-0,304
87,568	62,381	-0,349	-0,245
88,582	128,800	-0,304	-0,272
89,597	-36,617	-0,268	-0,101
90,611	126,072	-0,283	-0,251
91,626	735,727	-0,120	-0,226
92,641	-3,871	-0,145	-0,070
93,655	48,533	-0,249	-0,164
94,670	24,019	-0,374	-0,216
95,684	157,785	-0,324	-0,315
96,699	81,914	-0,238	-0,180
97,714	102,387	-0,333	-0,273
98,728	547,873	-0,125	-0,212
99,743	90,365	-0,227	-0,178
100,757	-43,712	-0,214	-0,075
101,772	402,858	-0,181	-0,267
102,787	-44,258	-0,310	-0,108
103,801	13,467	-0,187	-0,101
104,816	6,233	-0,325	-0,168
105,830	-60,284	-0,243	-0,072
106,845	-37,507	-0,287	-0,107
107,860	27,322	-0,275	-0,161
108,874	-57,442	-0,289	-0,088
109,889	-10,564	-0,427	-0,197
110,903	84,453	-0,186	-0,143
111,918	-143,496	-0,271	-0,018
112,933	50,817	-0,268	-0,177
113,947	-13,347	-0,205	-0,093
114,962	53,952	-0,363	-0,244
115,976	99,887	-0,199	-0,162
116,991	-15,526	-0,425	-0,189
118,006	118,681	-0,307	-0,266
119,020	800,000	-0,187	-0,364
120,035	47,319	-0,351	-0,229
121,049	206,825	-0,135	-0,148
122,064	-145,125	-0,202	-0,013
123,079	-91,567	-0,362	-0,072
124,093	67,889	-0,229	-0,164
125,108	30,662	-0,352	-0,210
126,122	115,233	-0,260	-0,222
127,137	6,578	-0,195	-0,101
128,151	7,526	-0,335	-0,175
129,166	250,667	-0,168	-0,200
130,181	-13,470	-0,207	-0,094
131,195	444,335	-0,170	-0,262
132,210	112,640	-0,239	-0,203
133,224	-39,649	-0,361	-0,131
134,239	92,301	-0,261	-0,206
135,254	26,302	-0,192	-0,112
136,268	23,935	-0,288	-0,165
137,283	143,458	-0,197	-0,184
138,297	85,811	-0,260	-0,200
139,312	-59,445	-0,285	-0,085
140,327	230,112	-0,241	-0,275
141,341	-80,525	-0,201	-0,047
142,356	-108,183	-0,274	-0,041
143,370	-65,515	-0,256	-0,071
144,385	45,413	-0,217	-0,140
145,400	221,362	-0,215	-0,242
146,414	155,139	-0,299	-0,287
147,429	2,274	-0,254	-0,128
148,443	333,796	-0,165	-0,224
149,458	-47,059	-0,278	-0,094
150,473	-65,946	-0,187	-0,052
151,487	139,281	-0,230	-0,211
152,502	10,302	-0,281	-0,149
153,516	175,651	-0,143	-0,145
154,531	-17,807	-0,262	-0,114
155,546	162,595	-0,173	-0,169
156,560	-12,935	-0,185	-0,084
157,575	-55,239	-0,188	-0,059
158,589	63,828	-0,192	-0,135
159,604	-108,277	-0,290	-0,043
160,619	105,627	-0,253	-0,208
161,633	-10,875	-0,437	-0,200
162,648	557,296	-0,113	-0,190
163,662	226,793	-0,154	-0,174
164,677	222,484	-0,074	-0,083
165,692	27,656	-0,175	-0,103
166,706	-113,853	-0,191	0,026
167,721	800,000	-0,123	-0,256
168,735	172,768	-0,163	-0,164
169,750	800,000	-0,136	-0,282
170,764	-50,498	-0,267	-0,087
171,779	82,872	-0,146	-0,111
172,794	294,951	-0,117	-0,150
173,808	170,402	-0,158	-0,157
174,823	-36,665	-0,123	-0,046
175,837	22,812	-0,292	-0,166
176,852	14,092	-0,242	-0,131
177,867	88,940	-0,260	-0,202
178,881	-149,852	-0,151	-0,008
179,896	-200,000	-0,056	-0,174
180,910	-24,378	-0,184	-0,076
181,925	45,273	-0,270	-0,173
182,940	156,514	-0,238	-0,228
183,954	16,482	-0,297	-0,163
184,969	800,000	-0,071	-0,204
185,983	257,026	-0,079	-0,095
186,998	105,327	-0,176	-0,145
188,013	-23,549	-0,347	-0,144
189,027	213,465	-0,205	-0,226
190,042	152,473	-0,145	-0,138
191,056	-119,850	-0,250	0,030
192,071	-13,834	-0,246	-0,110
193,086	4,269	-0,188	-0,096
194,100	-19,211	-0,155	-0,067
195,115	375,252	-0,149	-0,211
196,129	-25,296	-0,181	-0,074
197,144	187,168	-0,172	-0,179
198,159	96,547	-0,221	-0,176
199,173	-59,589	-0,252	-0,075
200,188	-135,534	-0,280	-0,023
201,202	-40,648	-0,157	-0,056
202,217	-49,216	-0,244	-0,081
203,232	171,335	-0,156	-0,156
204,246	114,789	-0,262	-0,222
205,261	-54,911	-0,379	-0,118
206,275	261,772	-0,227	-0,274
207,290	-57,008	-0,206	-0,063
208,304	-143,233	-0,132	-0,009
209,319	105,381	-0,090	-0,074
210,334	68,927	-0,128	-0,091
211,348	-156,820	-0,146	0,006
212,363	0,540	-0,260	-0,129
213,377	87,298	-0,210	-0,161
214,392	116,293	-0,085	-0,072
215,407	-72,703	-0,121	-0,031
216,421	-119,732	-0,276	-0,033
217,436	-122,649	-0,279	-0,031
218,450	-64,959	-0,338	-0,094
219,465	378,274	-0,145	-0,206
220,480	152,146	-0,139	-0,132
221,494	519,477	-0,098	-0,160
222,509	81,697	-0,250	-0,187
223,523	757,610	-0,030	-0,056
224,538	39,036	-0,193	-0,119
225,553	135,255	-0,300	-0,271
226,567	110,083	-0,194	-0,162
227,582	800,000	-0,089	-0,211
228,596	323,722	-0,164	-0,218
229,611	687,151	-0,087	-0,159
230,626	98,938	-0,160	-0,128
231,640	145,857	-0,111	-0,104
232,655	-9,449	-0,260	-0,120
233,669	61,572	-0,211	-0,145
234,684	-200,000	-0,003	-0,221
235,699	495,311	-0,171	-0,273
236,713	134,769	-0,124	-0,111
237,728	-77,707	-0,317	-0,075
238,742	60,023	-0,265	-0,181
239,757	81,534	-0,264	-0,198
240,772	129,039	-0,248	-0,219
241,786	69,507	-0,223	-0,159
242,801	14,886	-0,161	-0,087
243,815	20,893	-0,159	-0,089
244,830	277,051	-0,094	-0,116
245,844	291,057	-0,191	-0,240
246,859	116,115	-0,186	-0,158
247,874	268,366	-0,242	-0,295
248,888	-33,005	-0,245	-0,094
249,903	800,000	-0,075	-0,201
250,917	-19,416	-0,135	0,058
251,932	365,290	-0,105	-0,147
252,947	32,967	-0,144	-0,086
253,961	24,679	-0,186	-0,107
254,976	-109,158	-0,169	-0,025
255,990	-109,582	-0,132	0,019
257,005	-30,270	-0,148	0,058
258,020	290,433	-0,126	-0,159
259,034	283,566	-0,093	-0,116
260,049	-62,299	-0,162	0,046
261,063	-90,368	-0,171	-0,034
262,078	202,120	-0,120	-0,128
263,093	44,262	-0,232	-0,147
264,107	349,003	-0,077	-0,106
265,122	684,506	-0,129	-0,233
266,136	406,332	-0,069	-0,102
267,151	-200,000	-0,050	-0,156
268,166	209,568	-0,115	-0,124
269,180	-94,515	-0,158	-0,029
270,195	-11,859	-0,155	-0,070
271,209	-127,525	-0,172	-0,017
272,224	159,208	-0,077	-0,074
273,239	350,716	-0,164	-0,225
274,253	-200,000	-0,018	-0,113
275,268	64,572	-0,248	-0,173
276,282	45,679	-0,269	-0,171
277,297	293,257	-0,130	-0,164
278,312	43,997	-0,189	-0,119
279,326	-74,435	-0,093	-0,023
280,341	277,285	-0,101	-0,124
281,355	137,335	-0,234	-0,212
282,370	694,063	-0,051	-0,093
283,384	-200,000	-0,009	-0,175
284,399	146,948	-0,192	-0,178
285,414	-76,686	-0,329	-0,079
286,428	40,438	-0,205	-0,127
287,443	337,784	-0,143	-0,193
288,457	-140,447	-0,197	0,014
289,472	45,659	-0,183	-0,116
290,487	41,718	-0,197	-0,123
291,501	55,523	-0,220	-0,147
292,516	161,837	-0,197	-0,190
293,530	-135,382	-0,190	-0,015
294,545	-82,601	-0,142	-0,031
295,560	146,720	-0,067	-0,062
296,574	-16,806	-0,205	-0,089
297,589	-16,667	-0,234	-0,102
298,603	100,993	-0,145	-0,116
299,618	175,784	-0,149	-0,149
300,633	174,812	-0,187	-0,186
301,647	-148,864	-0,126	0,007
302,662	388,517	-0,163	-0,233
303,676	-129,428	-0,076	0,007
304,691	800,000	-0,057	-0,164
305,706	61,081	-0,301	-0,206
306,720	232,532	-0,206	-0,234
307,735	-15,173	-0,078	0,034
308,749	-17,503	-0,131	-0,056
309,764	116,151	-0,211	-0,178
310,779	104,699	-0,077	-0,062
311,793	-200,000	-0,043	-0,244
312,808	104,336	-0,094	-0,076
313,822	284,662	-0,108	-0,134
314,837	-125,099	-0,136	-0,014
315,852	-200,000	0,005	-0,072
316,866	-14,468	-0,055	-0,024
317,881	5,371	0,026	-0,013
318,895	77,896	-0,137	-0,100
319,910	28,042	-0,117	-0,068
320,925	800,000	-0,041	-0,100
321,939	-33,366	-0,246	-0,093
322,954	259,450	-0,074	-0,088
323,968	-77,935	-0,239	-0,056
324,983	211,156	-0,215	-0,232
325,997	-41,183	-0,102	-0,036
327,012	333,436	-0,094	-0,125
328,027	25,076	-0,202	-0,115
329,041	66,908	-0,160	-0,112
330,056	3,862	-0,034	-0,017
331,070	-200,000	-0,021	-0,164
332,085	158,357	-0,171	-0,163
333,100	36,460	-0,134	-0,081
334,114	-124,151	-0,334	-0,036
335,129	-200,000	-0,038	-0,186
336,143	81,801	-0,236	-0,175
337,158	117,901	-0,111	-0,094
338,173	-175,138	-0,178	0,003
339,187	201,940	-0,078	-0,082
340,202	236,937	-0,128	-0,146
341,216	173,041	-0,112	-0,111
342,231	695,352	-0,131	-0,237
343,246	-70,666	-0,046	-0,012
344,260	54,211	-0,085	-0,056
345,275	-125,043	-0,150	-0,016
346,289	-15,699	-0,048	-0,021
347,304	-11,169	-0,076	-0,034
348,319	-53,786	-0,116	0,036
349,333	-200,000	0,010	-0,095
350,348	75,852	-0,186	-0,135
351,362	-200,000	-0,012	-0,124
352,377	800,000	-0,053	-0,126
353,392	207,946	-0,120	-0,129
354,406	-97,423	-0,130	-0,023
355,421	210,697	1311,766	1415,563
356,435	162,212	1472,131	1416,055
