DTS Sentinel unit serial number:	SN410029Multiplexer serial number:	ORYXHardware model number:	OX2-SRSoftware version number:	ORYX F/W v4,00 Oryx Data Collector v3.7.2.0data status	okinstallation	B3 Nyhavnadifferential loss correction	single-endedforward channel	channel 1reverse channel	N/Adate	2023/12/05time	07:07:30forward acquisition time	300,00reverse acquisition time	0,00gamma	499,1914k internal	0,3200k external	0,3200temperature offset calibration	1,0000default loss term (dB/km)	0,3820temperature slope calibration	1,0000multiplexer offset coefficient	1,0000multiplexer slope coefficient	1,0000fibre end	0,00T internal ref (°C)	13,93T ext. ref 1 (°C)	-0,95T ext. ref 2 (°C)	-1,01length (m)	temperature (°C)	Stokes	anti-Stokes-744,400	800,000	-0,088	-0,237
-743,385	769,604	0,136	0,270
-742,371	260,365	-0,240	-0,303
-741,356	-200,000	0,062	0,316
-740,342	36,933	-0,161	-0,103
-739,327	800,000	-0,098	0,267
-738,312	311,893	-0,171	-0,234
-737,298	-200,000	-0,069	0,292
-736,283	199,818	-0,202	-0,225
-735,269	800,000	-0,099	0,294
-734,254	713,011	-0,133	-0,257
-733,239	-106,091	-0,292	0,047
-732,225	157,533	-0,137	-0,138
-731,210	116,094	0,199	0,177
-730,196	-200,000	-0,028	0,194
-729,181	-39,188	0,130	0,050
-728,167	-46,419	-0,059	0,021
-727,152	732,009	0,087	-0,171
-726,137	-115,451	-0,139	-0,019
-725,123	-155,713	0,066	0,003
-724,108	397,366	-0,009	-0,013
-723,094	231,899	-0,073	-0,087
-722,079	-200,000	-0,037	0,124
-721,064	307,811	0,017	0,023
-720,050	287,421	0,007	0,010
-719,035	-91,856	-0,025	0,005
-718,021	-163,983	-0,088	-0,003
-717,006	77,875	-0,049	0,038
-715,991	116,264	-0,096	-0,086
-714,977	-191,687	-0,063	0,000
-713,962	234,968	0,062	-0,074
-712,948	-200,000	0,002	-0,110
-711,933	-36,096	0,096	0,038
-710,918	800,000	0,020	0,056
-709,904	800,000	-0,015	-0,043
-708,889	-200,000	0,026	-0,123
-707,875	-26,370	-0,098	0,042
-706,860	-200,000	-0,009	0,088
-705,845	-129,336	-0,076	0,008
-704,831	800,000	0,045	0,102
-703,816	-101,532	0,185	0,032
-702,802	-9,130	-0,195	-0,094
-701,787	-60,269	-0,139	-0,043
-700,772	485,083	-0,070	0,116
-699,758	209,586	-0,029	0,033
-698,743	-200,000	-0,014	-0,082
-697,729	498,234	0,058	-0,098
-696,714	47,669	-0,066	0,045
-695,699	-200,000	-0,004	0,193
-694,685	140,567	-0,062	-0,059
-693,670	800,000	-0,013	-0,039
-692,656	-200,000	0,008	-0,059
-691,641	246,709	0,090	0,111
-690,627	800,000	-0,068	0,199
-689,612	285,527	-0,034	0,045
-688,597	90,094	-0,050	0,041
-687,583	140,230	0,098	-0,094
-686,568	-200,000	0,048	0,160
-685,554	800,000	0,031	0,089
-684,539	-88,751	-0,047	-0,010
-683,524	125,305	0,037	-0,034
-682,510	-200,000	-0,008	-0,062
-681,495	183,715	-0,024	-0,026
-680,481	329,049	-0,090	-0,126
-679,466	-200,000	-0,032	-0,177
-678,451	800,000	-0,063	-0,145
-677,437	136,559	0,062	-0,058
-676,422	-51,045	0,073	0,025
-675,408	509,365	-0,054	0,091
-674,393	81,749	-0,097	0,076
-673,378	349,955	-0,065	-0,093
-672,364	-200,000	-0,009	-0,046
-671,349	800,000	0,012	-0,034
-670,335	177,305	0,044	-0,046
-669,320	-155,901	-0,031	-0,001
-668,305	79,583	0,067	0,052
-667,291	-94,904	-0,159	0,031
-666,276	-200,000	0,022	-0,103
-665,262	5,175	-0,160	0,085
-664,247	180,905	-0,064	-0,069
-663,232	-1,355	-0,045	-0,023
-662,218	110,523	0,089	-0,078
-661,203	623,347	0,038	0,069
-660,189	-109,361	0,047	-0,007
-659,174	84,597	-0,071	0,057
-658,159	800,000	-0,041	-0,097
-657,145	-90,790	-0,058	0,012
-656,130	192,031	0,098	-0,108
-655,116	-27,913	0,079	0,033
-654,101	-13,232	0,126	0,059
-653,086	-128,644	0,133	-0,013
-652,072	-115,260	-0,048	0,006
-651,057	249,795	-0,067	-0,082
-650,043	13,193	-0,026	-0,014
-649,028	146,024	-0,079	0,077
-648,014	698,423	0,024	-0,045
-646,999	-113,029	-0,060	0,009
-645,984	401,153	0,059	-0,090
-644,970	594,363	-0,044	0,078
-643,955	-0,940	-0,099	-0,051
-642,941	-200,000	-0,003	-0,055
-641,926	-200,000	-0,009	-0,193
-640,911	-200,000	0,042	0,152
-639,897	375,719	-0,096	-0,143
-638,882	-200,000	0,002	0,071
-637,868	314,305	0,063	0,087
-636,853	-66,207	-0,090	-0,026
-635,838	120,764	-0,046	0,041
-634,824	-200,000	-0,007	-0,091
-633,809	800,000	0,025	-0,058
-632,795	-200,000	-0,024	0,114
-631,780	-200,000	-0,009	-0,101
-630,765	-124,637	0,101	0,011
-629,751	-167,395	0,084	0,002
-628,736	29,233	-0,102	-0,063
-627,722	-132,765	-0,214	0,020
-626,707	-200,000	-0,005	0,046
-625,692	-200,000	0,002	0,059
-624,678	-84,543	0,128	-0,029
-623,663	800,000	0,032	0,093
-622,649	526,572	-0,020	-0,034
-621,634	44,950	-0,084	-0,056
-620,619	128,304	-0,044	-0,040
-619,605	-200,000	-0,003	0,061
-618,590	-75,337	-0,059	0,015
-617,576	95,913	0,082	-0,068
-616,561	800,000	0,049	0,101
-615,546	-200,000	-0,018	0,087
-614,532	-200,000	-0,011	-0,071
-613,517	-200,000	0,004	-0,044
-612,503	349,327	0,051	0,073
-611,488	666,735	0,024	0,046
-610,474	426,866	0,062	-0,097
-609,459	402,575	-0,058	0,089
-608,444	-200,000	-0,007	0,102
-607,430	421,118	-0,063	0,099
-606,415	473,691	-0,052	-0,086
-605,401	-200,000	0,024	-0,089
-604,386	-200,000	0,026	-0,130
-603,371	-76,891	0,152	-0,038
-602,357	-33,155	-0,089	-0,035
-601,342	-143,532	-0,166	0,011
-600,328	-20,762	-0,076	-0,033
-599,313	41,242	0,067	-0,044
-598,298	100,098	-0,142	0,119
-597,284	800,000	0,023	0,053
-596,269	-139,526	0,105	-0,008
-595,255	74,903	-0,133	-0,101
-594,240	-69,983	0,086	-0,024
-593,225	49,805	0,049	-0,034
-592,211	-7,829	-0,116	0,057
-591,196	-200,000	-0,021	0,072
-590,182	-23,041	0,033	0,014
-589,167	41,812	0,090	-0,059
-588,152	21,229	-0,091	0,053
-587,138	-200,000	-0,026	0,147
-586,123	54,535	-0,049	-0,034
-585,109	-200,000	0,002	0,013
-584,094	800,000	-0,059	-0,159
-583,079	-200,000	0,001	0,040
-582,065	607,772	-0,091	0,164
-581,050	179,965	0,022	0,023
-580,036	-84,137	-0,147	-0,033
-579,021	-200,000	-0,022	-0,086
-578,006	-6,197	0,023	0,011
-576,992	92,535	-0,169	0,138
-575,977	48,341	0,009	0,006
-574,963	-8,874	0,117	0,056
-573,948	-200,000	0,028	0,105
-572,934	-200,000	0,001	-0,112
-571,919	800,000	-0,014	0,041
-570,904	-56,548	-0,084	0,027
-569,890	-20,554	-0,012	0,005
-568,875	800,000	0,014	-0,044
-567,861	-2,876	0,123	-0,062
-566,846	40,638	-0,027	-0,018
-565,831	76,954	-0,069	0,053
-564,817	156,989	-0,049	-0,049
-563,802	800,000	0,031	-0,086
-562,788	742,794	0,021	0,041
-561,773	-2,347	-0,141	-0,071
-560,758	800,000	-0,027	0,061
-559,744	24,104	0,070	-0,041
-558,729	800,000	0,024	0,055
-557,715	449,493	0,047	-0,075
-556,700	-200,000	0,001	0,032
-555,685	185,704	-0,039	0,042
-554,671	-200,000	0,015	-0,077
-553,656	800,000	-0,022	0,052
-552,642	163,455	0,109	0,110
-551,627	101,900	0,082	0,069
-550,612	-125,159	-0,184	-0,020
-549,598	-117,028	0,025	0,003
-548,583	149,880	-0,111	0,109
-547,569	800,000	0,021	-0,057
-546,554	-1,901	-0,018	0,009
-545,539	-200,000	0,011	0,075
-544,525	-200,000	-0,034	0,107
-543,510	248,463	0,023	0,029
-542,496	154,251	-0,113	-0,112
-541,481	-200,000	-0,006	0,097
-540,466	-50,140	0,033	-0,011
-539,452	1,640	-0,054	0,028
-538,437	-200,000	0,020	-0,102
-537,423	-133,539	0,149	0,013
-536,408	-29,603	-0,164	0,067
-535,393	800,000	0,007	-0,015
-534,379	431,285	0,052	-0,082
-533,364	-184,770	0,066	0,001
-532,350	216,315	0,021	0,024
-531,335	786,284	0,006	0,011
-530,321	800,000	-0,035	0,080
-529,306	220,232	0,108	-0,125
-528,291	-3,957	-0,092	-0,046
-527,277	800,000	-0,017	-0,051
-526,262	-200,000	0,040	-0,145
-525,248	163,833	0,078	0,079
-524,233	-147,110	0,005	0,000
-523,218	459,297	-0,037	-0,060
-522,204	-200,000	0,039	-0,150
-521,189	110,128	-0,102	-0,088
-520,175	800,000	0,066	-0,150
-519,160	-200,000	0,001	-0,041
-518,145	800,000	0,014	-0,030
-517,131	10,087	-0,125	-0,068
-516,116	-200,000	-0,015	0,068
-515,102	-200,000	0,006	0,100
-514,087	800,000	-0,036	0,078
-513,072	62,396	-0,111	-0,080
-512,058	359,817	0,043	0,062
-511,043	-200,000	0,013	0,144
-510,029	249,843	0,038	0,047
-509,014	-200,000	-0,008	-0,128
-507,999	10,756	-0,088	-0,048
-506,985	-200,000	0,021	0,086
-505,970	-200,000	0,016	0,184
-504,956	-5,681	-0,108	-0,053
-503,941	800,000	0,007	0,016
-502,926	65,395	0,026	-0,019
-501,912	-200,000	-0,002	-0,127
-500,897	141,575	-0,059	-0,056
-499,883	-10,990	-0,133	-0,063
-498,868	800,000	-0,044	-0,095
-497,853	-200,000	0,008	-0,026
-496,839	-200,000	-0,012	0,085
-495,824	-200,000	-0,053	0,193
-494,810	-200,000	0,018	0,063
-493,795	43,634	0,121	0,079
-492,781	-0,146	0,076	0,039
-491,766	-200,000	-0,000	-0,059
-490,751	41,316	-0,098	0,064
-489,737	-46,876	0,141	-0,049
-488,722	-84,868	-0,059	-0,013
-487,708	192,283	0,069	-0,075
-486,693	35,698	-0,008	0,005
-485,678	-200,000	0,015	-0,126
-484,664	108,132	-0,037	0,031
-483,649	-200,000	0,002	-0,115
-482,635	90,929	-0,076	-0,061
-481,620	36,854	0,090	0,057
-480,605	-3,108	0,046	0,023
-479,591	0,642	-0,076	0,039
-478,576	-200,000	0,022	-0,149
-477,562	127,366	-0,042	-0,038
-476,547	-200,000	0,013	-0,115
-475,532	-200,000	-0,006	-0,112
-474,518	-200,000	0,016	0,088
-473,503	-200,000	0,013	0,054
-472,489	78,559	0,085	-0,065
-471,474	-200,000	0,030	0,126
-470,459	-200,000	-0,016	-0,054
-469,445	-48,035	0,129	0,045
-468,430	-120,018	0,127	0,016
-467,416	33,478	0,052	-0,032
-466,401	199,525	0,085	0,094
-465,386	-200,000	0,017	0,069
-464,372	-200,000	-0,003	0,037
-463,357	-94,135	-0,036	-0,007
-462,343	-200,000	-0,022	-0,148
-461,328	-200,000	0,037	-0,173
-460,313	-15,419	0,182	0,083
-459,299	439,724	0,052	0,083
-458,284	-140,651	0,171	-0,013
-457,270	-18,253	0,059	-0,027
-456,255	-200,000	-0,005	-0,049
-455,241	-57,568	0,043	0,013
-454,226	-95,060	-0,172	0,033
-453,211	176,839	0,083	0,087
-452,197	596,258	-0,083	0,148
-451,182	-200,000	-0,014	0,061
-450,168	-200,000	-0,004	0,173
-449,153	134,415	-0,045	0,042
-448,138	-85,240	0,062	0,014
-447,124	-54,581	-0,091	0,029
-446,109	598,967	0,072	-0,128
-445,095	24,257	0,110	0,065
-444,080	-200,000	0,000	-0,043
-443,065	-200,000	0,009	-0,063
-442,051	566,287	0,036	0,064
-441,036	488,272	-0,150	0,248
-440,022	-28,537	-0,041	0,017
-439,007	-88,815	0,098	0,021
-437,992	-200,000	-0,012	-0,095
-436,978	-200,000	0,019	0,066
-435,963	-110,575	0,080	-0,012
-434,949	-8,141	-0,043	0,021
-433,934	-96,753	0,027	0,005
-432,919	-72,588	-0,128	0,034
-431,905	-79,565	-0,193	-0,047
-430,890	14,628	0,142	-0,079
-429,876	-35,543	0,177	-0,069
-428,861	26,320	-0,124	0,074
-427,846	800,000	-0,046	-0,122
-426,832	91,375	-0,107	-0,087
-425,817	800,000	0,031	-0,071
-424,803	78,850	0,140	0,107
-423,788	-200,000	-0,025	0,108
-422,773	-200,000	0,016	0,062
-421,759	-166,390	0,033	-0,001
-420,744	800,000	-0,026	0,070
-419,730	-82,272	-0,111	-0,026
-418,715	-54,668	0,009	0,003
-417,701	-32,352	0,097	-0,039
-416,686	214,931	-0,051	-0,058
-415,671	-111,460	0,108	-0,016
-414,657	-24,925	0,140	0,060
-413,642	800,000	0,040	-0,081
-412,628	42,993	0,079	0,052
-411,613	-141,269	-0,087	0,006
-410,598	205,387	-0,102	0,114
-409,584	-8,066	-0,028	0,013
-408,569	-94,556	0,077	0,015
-407,555	-200,000	-0,026	0,096
-406,540	-136,595	0,043	-0,004
-405,525	291,694	-0,081	-0,106
-404,511	379,532	0,058	-0,085
-403,496	-200,000	-0,021	-0,103
-402,482	-28,396	-0,047	0,020
-401,467	-29,073	0,092	-0,038
-400,452	800,000	-0,048	0,123
-399,438	349,064	0,083	-0,117
-398,423	-103,119	0,055	0,009
-397,409	216,090	-0,056	-0,064
-396,394	-200,000	-0,002	-0,096
-395,379	-200,000	0,038	-0,122
-394,365	233,673	-0,076	0,090
-393,350	234,647	-0,066	0,078
-392,336	129,289	0,026	-0,024
-391,321	-200,000	0,002	-0,023
-390,306	-113,349	-0,078	0,011
-389,292	297,526	0,071	-0,093
-388,277	101,821	0,024	-0,020
-387,263	800,000	0,038	0,096
-386,248	-105,517	0,074	-0,012
-385,233	529,072	0,047	0,080
-384,219	313,967	-0,029	-0,039
-383,204	-67,056	-0,077	-0,022
-382,190	46,140	-0,121	-0,080
-381,175	-200,000	0,005	-0,022
-380,160	-120,915	0,114	-0,014
-379,146	800,000	-0,047	0,099
-378,131	800,000	-0,010	-0,031
-377,117	68,116	-0,067	-0,049
-376,102	249,164	-0,018	-0,022
-375,088	-59,058	-0,164	-0,050
-374,073	-29,587	0,167	-0,068
-373,058	29,549	-0,051	0,031
-372,044	-200,000	0,018	0,074
-371,029	-2,248	0,098	0,049
-370,015	151,488	-0,043	0,042
-369,000	800,000	0,036	-0,101
-367,985	-200,000	-0,030	-0,131
-366,971	-160,023	-0,107	0,004
-365,956	-108,321	0,076	0,012
-364,942	-200,000	0,025	0,104
-363,927	800,000	-0,049	0,130
-362,912	301,104	-0,042	-0,055
-361,898	136,185	-0,053	-0,050
-360,883	-53,202	-0,036	-0,012
-359,869	6,712	-0,054	-0,029
-358,854	-200,000	-0,027	-0,088
-357,839	-90,727	0,054	0,011
-356,825	-25,657	0,078	0,033
-355,810	47,116	0,066	-0,044
-354,796	356,216	0,028	0,040
-353,781	-200,000	0,005	-0,075
-352,766	-14,503	-0,074	0,034
-351,752	-200,000	0,026	0,099
-350,737	800,000	0,040	-0,086
-349,723	765,654	0,087	0,171
-348,708	-200,000	0,034	0,152
-347,693	-60,472	-0,066	0,020
-346,679	-31,149	-0,101	-0,041
-345,664	-39,621	0,066	-0,025
-344,650	-144,755	-0,087	-0,006
-343,635	461,677	0,036	0,058
-342,620	109,856	0,105	-0,090
-341,606	-200,000	0,002	-0,116
-340,591	505,186	0,031	0,052
-339,577	575,599	0,056	-0,099
-338,562	-200,000	-0,034	-0,128
-337,548	-200,000	0,009	-0,112
-336,533	800,000	0,045	0,102
-335,518	291,634	-0,056	-0,073
-334,504	58,170	-0,070	-0,049
-333,489	-45,059	0,109	0,039
-332,475	32,386	-0,152	0,094
-331,460	24,318	0,059	-0,035
-330,445	-200,000	-0,011	-0,040
-329,431	-200,000	-0,009	0,046
-328,416	-102,434	0,138	-0,023
-327,402	-200,000	-0,011	0,080
-326,387	-64,488	0,018	0,005
-325,372	-51,052	-0,074	0,025
-324,358	81,056	0,037	0,028
-323,343	-166,093	0,131	0,004
-322,329	-7,739	-0,165	0,080
-321,314	-200,000	-0,013	-0,056
-320,299	-125,070	0,035	0,004
-319,285	295,566	0,066	0,087
-318,270	-116,575	-0,118	0,015
-317,256	24,339	0,141	-0,083
-316,241	-86,135	-0,084	-0,018
-315,226	-200,000	0,018	0,093
-314,212	202,016	0,031	0,034
-313,197	-200,000	0,003	0,014
-312,183	-171,548	0,172	0,004
-311,168	-200,000	-0,016	-0,057
-310,153	-38,691	0,032	-0,012
-309,139	255,900	-0,042	0,052
-308,124	106,652	-0,064	0,054
-307,110	127,151	0,073	0,066
-306,095	-128,418	0,013	0,001
-305,080	-200,000	0,008	0,079
-304,066	17,236	0,094	-0,053
-303,051	-65,124	-0,180	0,052
-302,037	788,231	0,026	0,051
-301,022	-200,000	0,003	0,193
-300,008	74,986	0,086	-0,064
-298,993	-60,140	0,064	-0,019
-297,978	356,908	0,040	0,058
-296,964	-36,896	-0,070	0,027
-295,949	-200,000	-0,013	-0,061
-294,935	99,384	-0,046	-0,038
-293,920	-200,000	-0,007	0,044
-292,905	278,306	-0,100	0,127
-291,891	36,396	0,150	0,095
-290,876	-82,462	-0,240	0,055
-289,862	-200,000	0,018	-0,063
-288,847	544,123	-0,090	-0,154
-287,832	273,826	-0,093	-0,118
-286,818	800,000	0,057	-0,159
-285,803	800,000	-0,020	-0,061
-284,789	-200,000	-0,006	0,094
-283,774	85,494	0,056	0,044
-282,759	800,000	-0,036	-0,107
-281,745	403,439	-0,016	0,023
-280,730	761,923	0,028	-0,055
-279,716	-84,700	0,053	-0,012
-278,701	221,959	0,078	0,090
-277,686	-176,775	-0,019	-0,000
-276,672	157,679	0,042	-0,041
-275,657	-200,000	-0,001	-0,049
-274,643	-28,790	0,046	-0,019
-273,628	-54,632	-0,148	0,048
-272,613	157,219	-0,050	-0,050
-271,599	800,000	0,024	-0,070
-270,584	53,773	-0,008	0,005
-269,570	771,168	0,064	0,124
-268,555	20,950	0,126	0,073
-267,540	-36,870	0,136	0,052
-266,526	114,216	-0,069	-0,060
-265,511	800,000	-0,022	-0,048
-264,497	32,157	0,070	0,043
-263,482	29,019	0,024	0,015
-262,467	622,340	0,078	-0,142
-261,453	-200,000	0,004	0,049
-260,438	-111,628	-0,136	-0,020
-259,424	-47,502	0,186	-0,064
-258,409	-7,215	0,084	0,041
-257,395	123,810	0,016	-0,014
-256,380	800,000	0,020	-0,051
-255,365	-1,836	-0,100	0,050
-254,351	-87,824	0,075	0,016
-253,336	800,000	0,022	-0,060
-252,322	-200,000	0,040	-0,171
-251,307	-137,034	-0,109	0,009
-250,292	-200,000	-0,001	-0,069
-249,278	-200,000	0,025	0,086
-248,263	-82,314	0,024	0,006
-247,249	-147,833	-0,005	0,000
-246,234	775,921	0,032	-0,063
-245,219	-50,382	0,130	-0,044
-244,205	-200,000	-0,013	-0,124
-243,190	800,000	0,043	-0,091
-242,176	437,836	0,067	0,104
-241,161	432,865	-0,021	-0,033
-240,146	-26,093	-0,071	0,030
-239,132	-200,000	-0,019	0,088
-238,117	674,068	-0,069	-0,128
-237,103	156,058	-0,113	-0,111
-236,088	-3,616	-0,095	-0,047
-235,073	7,974	-0,015	-0,008
-234,059	24,428	0,085	0,050
-233,044	4,690	-0,077	-0,040
-232,030	54,567	-0,117	0,080
-231,015	-147,119	0,153	0,009
-230,000	513,095	-0,097	-0,161
-228,986	-200,000	0,008	0,042
-227,971	-174,031	0,010	-0,000
-226,957	-70,344	0,120	-0,032
-225,942	187,769	-0,094	0,100
-224,927	-116,470	0,068	0,009
-223,913	182,259	-0,035	-0,037
-222,898	-41,857	0,072	0,026
-221,884	-200,000	0,028	-0,117
-220,869	-123,396	0,111	0,012
-219,855	188,586	0,019	-0,021
-218,840	800,000	0,016	0,047
-217,825	582,578	-0,047	-0,083
-216,811	-196,611	0,050	-0,000
-215,796	572,167	0,017	0,029
-214,782	800,000	0,058	0,141
-213,767	396,373	0,031	0,046
-212,752	-26,464	0,037	-0,015
-211,738	-81,288	-0,066	0,015
-210,723	800,000	0,024	0,053
-209,709	-141,385	-0,034	0,002
-208,694	-198,166	-0,084	-0,000
-207,679	113,114	0,135	0,116
-206,665	-1,942	0,169	0,084
-205,650	96,255	0,025	-0,020
-204,636	521,271	0,064	0,107
-203,621	379,692	-0,049	-0,072
-202,606	-153,176	-0,099	0,005
-201,592	157,236	0,030	-0,029
-200,577	-200,000	0,020	-0,112
-199,563	-200,000	0,004	-0,130
-198,548	-62,468	-0,067	0,020
-197,533	800,000	-0,057	0,132
-196,519	40,737	0,091	0,058
-195,504	74,256	0,016	-0,012
-194,490	14,894	-0,206	-0,115
-193,475	-138,313	0,068	-0,005
-192,460	789,592	-0,015	0,029
-191,446	-200,000	0,023	-0,076
-190,431	-200,000	-0,015	0,104
-189,417	375,429	-0,077	0,113
-188,402	514,523	-0,064	0,107
-187,387	-33,372	0,008	-0,003
-186,373	-124,121	0,074	-0,008
-185,358	481,119	-0,056	-0,090
-184,344	312,217	-0,056	0,075
-183,329	126,198	0,067	0,060
-182,315	-133,979	0,052	0,005
-181,300	-112,038	0,091	-0,013
-180,285	-200,000	-0,032	-0,114
-179,271	-67,422	-0,015	-0,004
-178,256	18,845	0,067	-0,038
-177,242	-200,000	0,016	0,101
-176,227	-47,399	0,100	-0,034
-175,212	-173,249	-0,122	0,003
-174,198	589,705	0,064	0,113
-173,183	-200,000	-0,012	-0,058
-172,169	-80,167	-0,024	-0,006
-171,154	-53,832	0,018	0,006
-170,139	14,333	-0,073	0,040
-169,125	-153,705	0,105	-0,005
-168,110	800,000	-0,028	0,068
-167,096	-200,000	-0,001	0,021
-166,081	65,647	0,091	-0,065
-165,066	-47,680	-0,111	0,038
-164,052	-200,000	-0,003	-0,035
-163,037	800,000	0,028	-0,079
-162,023	-1,811	-0,090	0,045
-161,008	272,972	-0,033	-0,042
-159,993	111,931	-0,061	-0,052
-158,979	194,258	-0,074	0,079
-157,964	-37,726	-0,096	-0,036
-156,950	163,154	-0,065	0,065
-155,935	53,916	-0,157	0,107
-154,920	-23,378	0,111	-0,047
-153,906	-111,288	0,033	-0,005
-152,891	49,188	0,062	0,041
-151,877	65,718	0,085	0,061
-150,862	-82,622	-0,107	-0,025
-149,847	800,000	-0,078	-0,175
-148,833	800,000	-0,051	0,127
-147,818	-72,539	0,164	0,043
-146,804	800,000	0,021	-0,064
-145,789	393,476	-0,036	0,053
-144,775	59,127	0,096	0,067
-143,760	-200,000	0,002	-0,033
-142,745	32,180	-0,013	0,008
-141,731	612,409	0,083	-0,149
-140,716	-171,514	-0,057	0,001
-139,702	81,555	-0,079	0,060
-138,687	510,830	0,071	-0,117
-137,672	668,866	-0,036	-0,067
-136,658	484,835	-0,061	0,100
-135,643	-200,000	-0,005	-0,091
-134,629	-200,000	0,027	-0,095
-133,614	169,014	0,076	-0,077
-132,599	97,919	-0,088	0,072
-131,585	23,403	-0,057	0,033
-130,570	-200,000	0,003	-0,035
-129,556	-200,000	0,020	0,116
-128,541	-137,363	-0,178	-0,014
-127,526	389,185	-0,037	0,054
-126,512	-21,625	0,108	0,047
-125,497	-162,393	0,065	0,002
-124,483	-7,514	0,126	0,060
-123,468	-200,000	0,001	-0,038
-122,453	-8,071	-0,131	-0,063
-121,439	-60,710	-0,076	-0,023
-120,424	-156,536	-0,122	-0,005
-119,410	-110,064	-0,079	0,012
-118,395	307,819	0,078	0,103
-117,380	7,846	-0,101	0,054
-116,366	299,617	-0,044	-0,057
-115,351	361,089	-0,058	-0,083
-114,337	-200,000	0,011	0,078
-113,322	210,905	-0,002	0,002
-112,307	-200,000	-0,021	0,121
-111,293	24,795	0,075	0,044
-110,278	150,597	-0,016	0,015
-109,264	-33,943	-0,135	0,052
-108,249	-200,000	-0,008	-0,039
-107,234	-200,000	-0,012	-0,121
-106,220	-18,305	0,032	-0,014
-105,205	-200,000	0,019	-0,129
-104,191	764,679	-0,092	0,179
-103,176	-200,000	0,028	0,098
-102,162	138,956	-0,073	-0,068
-101,147	-111,231	-0,096	-0,014
-100,132	-200,000	-0,037	0,133
-99,118	88,397	-0,109	-0,085
-98,103	-200,000	-0,016	0,124
-97,089	60,772	-0,112	0,079
-96,074	-81,976	-0,050	0,011
-95,059	15,114	-0,037	0,020
-94,045	624,452	-0,040	-0,073
-93,030	72,657	0,058	-0,043
-92,016	265,545	0,032	-0,039
-91,001	-82,159	-0,063	-0,014
-89,986	-110,044	0,011	0,002
-88,972	-26,649	0,147	0,061
-87,957	-200,000	0,018	0,107
-86,943	-64,140	-0,014	0,004
-85,928	-94,182	-0,085	0,016
-84,913	15,223	-0,046	-0,026
-83,899	-57,722	0,085	0,026
-82,884	-200,000	0,012	0,057
-81,870	655,600	0,087	0,158
-80,855	800,000	0,017	0,041
-79,840	-97,798	0,080	0,015
-78,826	87,924	-0,152	-0,120
-77,811	20,443	-0,123	0,070
-76,797	-7,763	0,036	0,017
-75,782	-200,000	0,012	0,055
-74,767	-200,000	0,012	0,043
-73,753	-200,000	0,031	0,201
-72,738	-101,454	0,020	-0,003
-71,724	-172,535	0,178	0,004
-70,709	-200,000	0,002	0,060
-69,694	99,437	-0,071	-0,058
-68,680	-200,000	-0,001	0,038
-67,665	-137,226	0,124	-0,010
-66,651	546,763	0,040	0,067
-65,636	265,917	-0,090	0,112
-64,622	455,122	0,124	0,196
-63,607	-200,000	-0,011	-0,056
-62,592	35,385	0,054	0,034
-61,578	372,530	-0,056	-0,081
-60,563	210,814	0,037	0,042
-59,549	-200,000	0,001	0,067
-58,534	-45,828	-1,541	-0,536
-57,519	332,845	-1,442	-1,978
-56,505	-200,000	-0,594	-4,719
-55,490	169,766	0,859	0,871
-54,476	800,000	4,765	11,487
-53,461	-200,000	18,976	310,928
-52,446	-200,000	738,417	2315,317
-51,432	573,135	1654,791	2867,980
-50,417	79,130	1671,410	1266,671
-49,403	21,908	1544,342	889,116
-48,388	15,814	1466,783	814,834
-47,373	17,852	1456,825	819,118
-46,359	16,830	1446,960	808,637
-45,344	14,031	1442,482	792,689
-44,330	14,019	1440,155	791,323
-43,315	13,954	1438,881	790,277
-42,300	14,028	1436,961	789,549
-41,286	14,014	1435,939	788,885
-40,271	14,008	1434,391	787,977
-39,257	13,996	1433,207	787,239
-38,242	13,999	1431,907	786,505
-37,227	14,045	1430,738	786,055
-36,213	14,068	1429,582	785,496
-35,198	14,043	1428,243	784,609
-34,184	14,081	1427,314	784,251
-33,169	13,993	1426,163	783,169
-32,154	14,027	1425,038	782,678
-31,140	14,060	1423,660	782,049
-30,125	14,077	1422,589	781,509
-29,111	14,057	1421,296	780,674
-28,096	14,045	1420,175	779,971
-27,082	14,002	1419,166	779,180
-26,067	13,948	1418,155	778,342
-25,052	13,953	1417,189	777,803
-24,038	13,990	1416,203	777,408
-23,023	13,935	1415,097	776,511
-22,009	13,913	1414,250	775,911
-20,994	13,916	1413,422	775,441
-19,979	13,905	1412,498	774,851
-18,965	13,897	1411,346	774,150
-17,950	13,902	1410,534	773,695
-16,936	13,882	1409,637	773,081
-15,921	13,871	1408,524	772,390
-14,906	13,825	1407,849	771,771
-13,892	13,842	1406,598	771,137
-12,877	13,911	1405,631	770,898
-11,863	13,897	1404,792	770,342
-10,848	13,849	1403,944	769,622
-9,833	13,831	1403,088	769,036
-8,819	13,817	1402,080	768,392
-7,804	13,767	1401,234	767,663
-6,790	13,773	1400,175	767,080
-5,775	13,783	1399,107	766,512
-4,760	13,765	1398,244	765,924
-3,746	13,782	1397,300	765,456
-2,731	13,762	1396,676	764,993
-1,717	13,756	1395,814	764,460
-0,702	13,733	1394,067	763,364
0,313	17,569	1311,488	735,936
1,327	33,710	705,872	433,500
2,342	51,884	123,881	83,317
3,356	3,518	16,707	8,590
4,371	2,562	3,291	1,681
5,386	19,410	0,590	0,335
6,400	-200,000	0,075	0,255
7,415	290,395	-0,172	-0,222
8,429	-58,694	-0,580	-0,177
9,444	379,627	-0,277	-0,403
10,459	70,716	-0,284	-0,207
11,473	142,570	-0,201	-0,189
12,488	205,506	-0,221	-0,243
13,502	30,537	-0,316	-0,191
14,517	62,618	-0,319	-0,225
15,531	30,405	-0,343	-0,207
16,546	163,190	-0,275	-0,273
17,561	206,243	-0,324	-0,356
18,575	-4,937	-0,247	-0,120
19,590	25,706	-0,269	-0,158
20,604	-23,111	-0,229	-0,097
21,619	67,690	-0,374	-0,269
22,634	31,443	-0,436	-0,264
23,648	-12,051	-0,498	-0,229
24,663	195,520	-0,348	-0,374
25,677	95,890	-0,283	-0,228
26,692	83,811	-0,285	-0,219
27,707	-65,339	-0,325	-0,092
28,721	-37,306	-0,459	-0,172
29,736	76,766	-0,394	-0,295
30,750	183,204	-0,369	-0,386
31,765	276,478	-0,331	-0,416
32,780	212,003	-0,340	-0,379
33,794	89,854	-0,315	-0,248
34,809	417,262	-0,221	-0,334
35,823	203,683	-0,310	-0,339
36,838	61,327	-0,505	-0,354
37,853	79,760	-0,431	-0,326
38,867	32,754	-0,416	-0,253
39,882	73,975	-0,335	-0,248
40,896	53,538	-0,298	-0,201
41,911	82,676	-0,304	-0,233
42,926	200,366	-0,396	-0,429
43,940	122,966	-0,294	-0,260
44,955	233,451	-0,327	-0,380
45,969	270,958	-0,291	-0,362
46,984	-43,408	-0,389	-0,138
47,999	180,341	-0,231	-0,239
49,013	17,061	-0,433	-0,241
50,028	39,964	-0,277	-0,175
51,042	800,000	-0,180	-0,432
52,057	-38,726	-0,397	-0,147
53,071	224,611	-0,251	-0,286
54,086	11,467	-0,348	-0,188
55,101	1,209	-0,403	-0,203
56,115	325,410	-0,222	-0,300
57,130	135,122	-0,241	-0,221
58,144	-3,071	-0,474	-0,232
59,159	-25,749	-0,438	-0,181
60,174	115,008	-0,361	-0,310
61,188	49,832	-0,308	-0,204
62,203	126,786	-0,337	-0,301
63,217	7,895	-0,346	-0,182
64,232	296,562	-0,269	-0,349
65,247	211,386	-0,246	-0,273
66,261	-7,192	-0,410	-0,195
67,276	65,264	-0,303	-0,216
68,290	-31,487	-0,343	-0,135
69,305	11,101	-0,362	-0,194
70,320	-33,808	-0,254	-0,098
71,334	44,422	-0,238	-0,153
72,349	4,633	-0,263	-0,135
73,363	124,755	-0,349	-0,309
74,378	133,083	-0,351	-0,319
75,393	92,638	-0,251	-0,199
76,407	-13,721	-0,351	-0,159
77,422	38,061	-0,300	-0,187
78,436	245,716	-0,121	-0,144
79,451	-8,139	-0,338	-0,160
80,466	-34,499	-0,326	-0,125
81,480	62,005	-0,432	-0,303
82,495	-44,736	-0,347	-0,121
83,509	-17,018	-0,259	-0,114
84,524	73,419	-0,193	-0,142
85,539	-145,313	-0,282	-0,018
86,553	78,106	-0,253	-0,190
87,568	11,467	-0,311	-0,167
88,582	177,066	-0,214	-0,219
89,597	52,021	-0,292	-0,195
90,611	79,033	-0,259	-0,194
91,626	-87,305	-0,178	-0,038
92,641	-57,147	-0,282	-0,087
93,655	34,877	-0,273	-0,167
94,670	116,874	-0,311	-0,268
95,684	39,923	-0,345	-0,217
96,699	96,783	-0,307	-0,247
97,714	172,067	-0,271	-0,274
98,728	-41,164	-0,215	-0,077
99,743	-5,185	-0,378	-0,182
100,757	278,310	-0,228	-0,286
101,772	23,624	-0,358	-0,206
102,787	-6,403	-0,275	-0,131
103,801	73,639	-0,367	-0,269
104,816	10,050	-0,267	-0,142
105,830	-170,220	-0,232	-0,006
106,845	-92,946	-0,247	-0,048
107,860	92,432	-0,182	-0,143
108,874	-81,515	-0,370	-0,085
109,889	-39,964	-0,409	-0,149
110,903	-39,915	-0,309	-0,112
111,918	160,418	-0,203	-0,198
112,933	800,000	-0,158	-0,338
113,947	31,493	-0,320	-0,192
114,962	18,651	-0,260	-0,145
115,976	225,140	-0,234	-0,266
116,991	-24,296	-0,363	-0,151
118,006	-120,738	-0,460	-0,054
119,020	276,846	-0,196	-0,245
120,035	160,162	-0,190	-0,186
121,049	183,112	-0,227	-0,235
122,064	-3,299	-0,208	-0,101
123,079	26,270	-0,257	-0,150
124,093	335,355	-0,258	-0,351
125,108	-69,270	-0,288	-0,077
126,122	157,409	-0,187	-0,181
127,137	800,000	-0,044	-0,108
128,151	311,946	-0,174	-0,229
129,166	77,361	-0,262	-0,195
130,181	30,053	-0,249	-0,149
131,195	-8,169	-0,333	-0,156
132,210	44,501	-0,254	-0,163
133,224	67,739	-0,273	-0,195
134,239	139,812	-0,182	-0,168
135,254	161,012	-0,144	-0,141
136,268	294,570	-0,218	-0,280
137,283	-124,996	-0,256	-0,027
138,297	25,544	-0,264	-0,153
139,312	458,390	-0,197	-0,307
140,327	47,506	-0,222	-0,145
141,341	499,934	-0,137	-0,222
142,356	621,227	-0,100	-0,176
143,370	322,535	-0,130	-0,173
144,385	120,093	-0,254	-0,220
145,400	-200,000	-0,097	-0,319
146,414	143,225	-0,307	-0,286
147,429	67,254	-0,307	-0,219
148,443	16,408	-0,235	-0,129
149,458	265,231	-0,151	-0,184
150,473	48,987	-0,215	-0,141
151,487	1,618	-0,262	-0,132
152,502	-121,992	-0,232	-0,026
153,516	-73,523	-0,294	-0,074
154,531	184,260	-0,224	-0,232
155,546	66,442	-0,141	-0,100
156,560	64,151	-0,161	-0,113
157,575	284,768	-0,223	-0,281
158,589	-21,029	-0,228	-0,097
159,604	11,963	-0,238	-0,127
160,619	145,437	-0,177	-0,166
161,633	279,645	-0,249	-0,311
162,648	-62,168	-0,262	-0,076
163,662	10,330	-0,276	-0,146
164,677	-127,764	-0,256	-0,025
165,692	88,107	-0,315	-0,243
166,706	-0,476	-0,307	-0,151
167,721	248,964	-0,179	-0,212
168,735	63,338	-0,210	-0,147
169,750	-26,891	-0,228	-0,092
170,764	-149,807	-0,355	0,019
171,779	175,881	-0,242	-0,245
172,794	800,000	-0,136	-0,278
173,808	85,235	-0,202	-0,154
174,823	800,000	-0,149	-0,300
175,837	168,317	-0,224	-0,222
176,852	20,829	-0,252	-0,142
177,867	49,566	-0,174	-0,114
178,881	124,136	-0,234	-0,205
179,896	11,666	-0,244	-0,130
180,910	206,151	-0,193	-0,209
181,925	63,804	-0,262	-0,183
182,940	90,187	-0,277	-0,216
183,954	62,417	-0,249	-0,173
184,969	281,208	-0,181	-0,226
185,983	62,684	-0,160	-0,111
186,998	355,163	-0,132	-0,183
188,013	90,288	-0,224	-0,174
189,027	15,822	-0,338	-0,184
190,042	-87,339	-0,252	-0,053
191,056	266,493	-0,188	-0,229
192,071	224,098	-0,192	-0,216
193,086	305,808	-0,154	-0,200
194,100	32,675	-0,294	-0,177
195,115	76,944	-0,233	-0,172
196,129	415,537	-0,157	-0,234
197,144	18,389	-0,282	-0,157
198,159	-11,613	-0,248	-0,113
199,173	-62,991	-0,247	-0,071
200,188	106,877	-0,250	-0,207
201,202	178,633	-0,138	-0,140
202,217	189,386	-0,137	-0,143
203,232	-19,403	-0,333	-0,143
204,246	6,421	-0,316	-0,162
205,261	-82,502	-0,194	-0,043
206,275	-79,962	-0,150	-0,035
207,290	384,781	-0,151	-0,217
208,304	-78,932	-0,385	-0,090
209,319	46,735	-0,231	-0,149
210,334	-154,610	-0,168	-0,008
211,348	-35,806	-0,272	-0,102
212,363	325,285	-0,117	-0,156
213,377	365,656	-0,160	-0,224
214,392	-154,797	-0,311	0,014
215,407	378,346	-0,189	-0,269
216,421	194,409	-0,154	-0,162
217,436	126,750	-0,177	-0,156
218,450	-103,797	-0,176	-0,028
219,465	119,506	-0,184	-0,158
220,480	90,530	-0,195	-0,151
221,494	-8,095	-0,139	-0,065
222,509	800,000	-0,070	-0,165
223,523	29,313	-0,120	-0,070
224,538	-0,770	-0,187	-0,091
225,553	146,193	-0,171	-0,159
226,567	42,262	-0,235	-0,148
227,582	223,265	-0,239	-0,268
228,596	143,356	-0,176	-0,163
229,611	-200,000	-0,158	0,000
230,626	-67,923	-0,239	-0,064
231,640	44,750	-0,122	-0,078
232,655	2,745	-0,279	-0,140
233,669	-104,349	-0,229	-0,036
234,684	24,414	-0,160	-0,091
235,699	140,770	-0,134	-0,123
236,713	66,667	-0,074	-0,052
237,728	117,876	-0,081	-0,069
238,742	-71,469	-0,253	-0,065
239,757	267,531	-0,172	-0,210
240,772	106,740	-0,123	-0,101
241,786	606,714	-0,146	-0,254
242,801	-13,536	-0,280	-0,125
243,815	13,513	-0,072	-0,038
244,830	75,433	-0,259	-0,189
245,844	-43,758	-0,200	-0,069
246,859	800,000	-0,123	-0,263
247,874	220,991	-0,184	-0,204
248,888	85,398	-0,315	-0,240
249,903	257,210	-0,150	-0,178
250,917	96,162	-0,052	-0,041
251,932	119,097	-0,123	-0,105
252,947	127,603	-0,056	-0,049
253,961	16,264	-0,202	-0,110
254,976	-46,378	-0,210	-0,071
255,990	33,253	-0,232	-0,139
257,005	37,162	-0,199	-0,121
258,020	262,653	-0,259	-0,312
259,034	159,186	-0,203	-0,196
260,049	51,956	-0,146	-0,096
261,063	800,000	-0,117	-0,237
262,078	90,270	-0,244	-0,188
263,093	86,082	-0,186	-0,142
264,107	-25,798	-0,130	0,053
265,122	-74,443	-0,132	-0,033
266,136	217,950	-0,144	-0,159
267,151	19,527	-0,169	-0,094
268,166	127,941	-0,184	-0,162
269,180	5,198	-0,209	-0,106
270,195	204,579	-0,152	-0,163
271,209	256,857	-0,110	-0,130
272,224	-3,993	-0,177	-0,085
273,239	-8,205	-0,135	0,063
274,253	-117,397	-0,263	0,032
275,268	762,032	-0,086	-0,162
276,282	-157,072	-0,107	-0,004
277,297	486,745	-0,102	-0,160
278,312	-11,411	-0,126	-0,057
279,326	346,686	-0,064	-0,087
280,341	404,939	0,014	0,021
281,355	-80,408	-0,231	-0,053
282,370	-200,000	-0,211	-0,000
283,384	372,160	-0,134	-0,189
284,399	89,595	-0,114	-0,087
285,414	95,535	-0,119	-0,094
286,428	156,946	-0,172	-0,164
287,443	449,184	-0,091	-0,140
288,457	269,134	-0,114	-0,138
289,472	86,087	-0,211	-0,160
290,487	172,753	-0,150	-0,149
291,501	-115,739	-0,228	-0,029
292,516	159,737	-0,196	-0,188
293,530	39,719	-0,225	-0,139
294,545	-54,479	-0,083	0,026
295,560	-112,763	-0,163	-0,022
296,574	800,000	-0,041	-0,109
297,589	-145,200	-0,147	-0,009
298,603	509,124	-0,092	-0,148
299,618	212,785	-0,100	-0,108
300,633	-70,332	-0,173	-0,045
301,647	487,646	-0,133	-0,210
302,662	800,000	-0,060	-0,182
303,676	800,000	-0,042	-0,098
304,691	110,335	-0,219	-0,181
305,706	77,342	-0,096	-0,070
306,720	-21,465	-0,235	-0,098
307,735	-200,000	0,007	-0,054
308,749	409,463	-0,153	-0,224
309,764	-47,229	-0,097	-0,032
310,779	-26,723	-0,127	-0,051
311,793	117,711	-0,054	0,046
312,808	2,172	-0,224	-0,111
313,822	378,486	-0,075	-0,106
314,837	-32,248	-0,124	-0,047
315,852	-98,837	-0,191	-0,033
316,866	42,369	-0,162	-0,101
317,881	126,330	-0,150	-0,130
318,895	-131,154	-0,225	0,020
319,910	70,635	-0,203	-0,144
320,925	38,828	-0,268	-0,164
321,939	-167,738	-0,117	-0,003
322,954	800,000	-0,046	-0,100
323,968	-133,119	-0,127	-0,011
324,983	276,399	-0,118	-0,145
325,997	-118,838	-0,149	-0,018
327,012	78,454	-0,242	-0,177
328,027	-70,689	-0,221	-0,057
329,041	340,155	-0,109	-0,147
330,056	374,334	-0,096	-0,135
331,070	-38,542	-0,210	-0,076
332,085	-108,883	-0,064	0,009
333,100	-39,458	-0,063	-0,023
334,114	-58,421	-0,267	-0,079
335,129	229,470	-0,055	-0,062
336,143	800,000	-0,032	-0,083
337,158	-13,323	-0,122	-0,054
338,173	-51,604	-0,146	0,047
339,187	-36,101	-0,141	0,052
340,202	376,608	-0,068	-0,096
341,216	-200,000	0,027	-0,273
342,231	800,000	-0,092	-0,179
343,246	800,000	-0,079	-0,173
344,260	195,810	-0,168	-0,175
345,275	67,629	-0,140	0,098
346,289	324,610	-0,159	-0,209
347,304	-132,362	-0,196	0,017
348,319	21,947	-0,185	-0,103
349,333	-2,285	-0,172	-0,083
350,348	-25,212	-0,181	-0,073
351,362	606,207	-0,127	-0,218
352,377	129,998	-0,051	0,045
353,392	-122,497	-0,044	-0,005
354,406	102,081	-0,053	-0,043
355,421	209,415	1315,121	1415,609
356,435	161,174	1475,887	1416,094
