DTS Sentinel unit serial number:	SN410029Multiplexer serial number:	ORYXHardware model number:	OX2-SRSoftware version number:	ORYX F/W v4,00 Oryx Data Collector v3.7.2.0data status	okinstallation	B3 Nyhavnadifferential loss correction	single-endedforward channel	channel 1reverse channel	N/Adate	2023/12/03time	07:52:30forward acquisition time	300,00reverse acquisition time	0,00gamma	499,1914k internal	0,3201k external	0,3201temperature offset calibration	1,0000default loss term (dB/km)	0,3820temperature slope calibration	1,0000multiplexer offset coefficient	1,0000multiplexer slope coefficient	1,0000fibre end	0,00T internal ref (°C)	13,32T ext. ref 1 (°C)	-1,64T ext. ref 2 (°C)	-1,64length (m)	temperature (°C)	Stokes	anti-Stokes-744,400	190,349	-0,235	-0,257
-743,385	-200,000	-0,024	0,191
-742,371	794,404	-0,185	-0,372
-741,356	-200,000	0,099	0,372
-740,342	-200,000	-0,080	-0,362
-739,327	-200,000	0,053	0,356
-738,312	22,527	-0,408	-0,242
-737,298	800,000	-0,106	0,301
-736,283	800,000	-0,109	-0,227
-735,269	-200,000	0,028	0,205
-734,254	18,733	-0,312	-0,181
-733,239	29,320	-0,139	0,086
-732,225	173,786	-0,177	-0,186
-731,210	363,186	0,114	0,167
-730,196	518,393	0,033	-0,056
-729,181	-104,584	-0,149	-0,025
-728,167	-38,545	-0,144	0,055
-727,152	-200,000	-0,009	-0,084
-726,137	-200,000	-0,012	-0,176
-725,123	-173,504	-0,172	-0,004
-724,108	800,000	0,056	-0,114
-723,094	203,466	-0,139	-0,157
-722,079	25,174	0,111	-0,067
-721,064	-200,000	0,011	-0,051
-720,050	-200,000	0,019	0,065
-719,035	-200,000	0,017	-0,106
-718,021	800,000	-0,051	-0,108
-717,006	-200,000	-0,010	0,057
-715,991	110,376	0,077	0,067
-714,977	15,877	-0,075	0,043
-713,962	800,000	-0,012	0,026
-712,948	262,402	0,090	0,114
-711,933	138,144	-0,115	0,110
-710,918	204,996	-0,067	-0,076
-709,904	52,809	0,091	0,063
-708,889	-109,351	-0,129	0,020
-707,875	6,172	-0,068	-0,036
-706,860	-191,047	0,105	-0,001
-705,845	-200,000	0,004	0,110
-704,831	-20,261	-0,032	-0,014
-703,816	47,455	-0,090	0,061
-702,802	-125,599	-0,071	-0,008
-701,787	239,860	0,051	-0,062
-700,772	71,522	0,087	-0,065
-699,758	-54,950	0,009	0,003
-698,743	-24,191	0,070	-0,030
-697,729	-200,000	0,007	0,031
-696,714	464,689	0,108	-0,175
-695,699	-54,097	-0,137	0,045
-694,685	-152,121	0,077	-0,004
-693,670	-200,000	-0,004	0,030
-692,656	800,000	0,046	-0,108
-691,641	236,929	0,067	0,081
-690,627	800,000	-0,016	0,044
-689,612	-147,981	-0,059	-0,004
-688,597	-89,225	-0,145	0,031
-687,583	-200,000	0,007	0,039
-686,568	-200,000	-0,009	0,054
-685,554	-200,000	0,008	-0,074
-684,539	207,137	-0,078	-0,089
-683,524	711,826	-0,046	0,090
-682,510	-94,756	-0,055	0,011
-681,495	451,481	-0,043	-0,069
-680,481	-129,409	0,011	0,001
-679,466	197,566	-0,039	-0,044
-678,451	-4,716	-0,131	0,065
-677,437	-62,006	0,040	-0,012
-676,422	-200,000	-0,031	0,207
-675,408	97,626	-0,121	-0,101
-674,393	-78,864	-0,086	-0,021
-673,378	247,566	0,059	-0,073
-672,364	-24,808	-0,201	-0,086
-671,349	19,915	-0,093	-0,054
-670,335	800,000	0,024	-0,050
-669,320	306,233	-0,087	0,118
-668,305	201,828	-0,040	-0,045
-667,291	-38,267	0,049	0,019
-666,276	-200,000	-0,009	-0,094
-665,262	-200,000	0,068	-0,234
-664,247	800,000	-0,010	-0,028
-663,232	-95,847	-0,093	0,018
-662,218	800,000	0,049	0,142
-661,203	54,900	-0,062	-0,043
-660,189	-80,769	0,051	0,012
-659,174	-80,150	-0,048	0,012
-658,159	-172,792	0,069	-0,002
-657,145	800,000	0,013	0,026
-656,130	144,228	0,048	0,047
-655,116	88,460	0,033	0,026
-654,101	-137,638	-0,016	0,001
-653,086	-200,000	0,016	0,057
-652,072	-91,398	-0,081	0,017
-651,057	633,872	-0,096	-0,178
-650,043	-200,000	0,012	-0,174
-649,028	800,000	-0,031	-0,070
-648,014	-174,522	-0,079	0,002
-646,999	-101,997	0,051	0,009
-645,984	252,844	0,119	-0,147
-644,970	118,730	-0,122	-0,110
-643,955	1,157	-0,122	-0,063
-642,941	-200,000	0,006	-0,135
-641,926	102,362	-0,010	-0,009
-640,911	247,067	0,099	0,122
-639,897	-200,000	-0,006	0,047
-638,882	174,068	-0,081	0,085
-637,868	-41,417	-0,013	0,005
-636,853	105,896	-0,073	-0,062
-635,838	-200,000	0,046	-0,159
-634,824	119,651	-0,031	-0,027
-633,809	800,000	0,047	0,129
-632,795	800,000	-0,042	0,111
-631,780	800,000	0,081	0,192
-630,765	-29,367	-0,132	-0,054
-629,751	-200,000	0,032	-0,125
-628,736	795,023	0,036	-0,072
-627,722	94,816	-0,073	0,060
-626,707	-38,218	-0,066	-0,025
-625,692	-58,135	-0,035	0,011
-624,678	45,810	0,052	-0,035
-623,663	-32,420	-0,062	-0,025
-622,649	-200,000	-0,015	-0,191
-621,634	-200,000	0,010	-0,071
-620,619	-200,000	-0,001	0,027
-619,605	-200,000	-0,015	0,106
-618,590	800,000	0,032	0,087
-617,576	13,293	0,062	-0,035
-616,561	-200,000	0,030	0,101
-615,546	16,651	-0,116	0,066
-614,532	-200,000	0,008	-0,118
-613,517	101,799	-0,046	0,039
-612,503	71,407	0,057	-0,043
-611,488	-33,356	-0,054	0,021
-610,474	-71,207	0,117	-0,031
-609,459	552,793	0,058	-0,102
-608,444	-91,263	0,100	-0,021
-607,430	-200,000	-0,020	-0,069
-606,415	-200,000	-0,005	-0,098
-605,401	685,046	0,087	-0,164
-604,386	-200,000	0,013	0,062
-603,371	617,003	-0,056	0,103
-602,357	171,069	-0,084	0,087
-601,342	-103,099	0,179	0,030
-600,328	-124,127	-0,020	-0,002
-599,313	50,790	-0,097	0,066
-598,298	-200,000	-0,009	-0,080
-597,284	-200,000	-0,008	-0,161
-596,269	-112,818	-0,225	0,032
-595,255	-48,169	0,081	0,028
-594,240	393,057	-0,057	0,086
-593,225	709,019	-0,018	-0,034
-592,211	-34,960	-0,010	-0,004
-591,196	231,127	0,065	0,077
-590,182	800,000	0,043	-0,106
-589,167	-200,000	-0,012	0,088
-588,152	800,000	-0,061	0,135
-587,138	-200,000	-0,010	-0,101
-586,123	-200,000	-0,006	-0,110
-585,109	-200,000	0,002	0,014
-584,094	-200,000	-0,001	-0,027
-583,079	341,420	0,069	-0,098
-582,065	-200,000	0,005	0,021
-581,050	221,951	0,019	-0,022
-580,036	115,884	-0,088	0,078
-579,021	-64,142	-0,079	-0,023
-578,006	16,115	0,019	0,011
-576,992	800,000	-0,018	-0,038
-575,977	-70,084	0,091	0,025
-574,963	-95,541	-0,052	0,010
-573,948	-200,000	0,003	-0,071
-572,934	398,741	0,033	0,051
-571,919	-36,631	-0,142	-0,055
-570,904	70,417	-0,124	-0,092
-569,890	-12,465	-0,062	-0,029
-568,875	192,040	0,075	0,081
-567,861	-114,082	-0,097	-0,013
-566,846	-163,828	0,084	0,003
-565,831	-200,000	0,012	0,144
-564,817	-49,156	-0,135	-0,046
-563,802	79,580	-0,035	0,027
-562,788	-142,810	0,109	0,008
-561,773	241,901	-0,052	-0,063
-560,758	516,033	-0,064	-0,108
-559,744	800,000	-0,018	0,039
-558,729	-200,000	-0,002	0,021
-557,715	36,362	-0,123	-0,078
-556,700	118,431	0,026	-0,023
-555,685	-129,196	-0,090	-0,009
-554,671	16,877	-0,018	0,010
-553,656	800,000	0,069	0,170
-552,642	-200,000	0,007	0,027
-551,627	67,327	0,076	-0,056
-550,612	-86,092	-0,074	0,016
-549,598	-56,946	-0,185	0,059
-548,583	207,834	0,074	-0,084
-547,569	-55,889	-0,085	-0,027
-546,554	-105,310	0,096	-0,016
-545,539	-124,097	-0,055	-0,006
-544,525	-200,000	0,007	0,126
-543,510	759,026	-0,025	0,048
-542,496	-12,454	-0,138	0,065
-541,481	169,794	0,175	0,180
-540,466	-200,000	-0,024	0,214
-539,452	68,091	-0,024	-0,018
-538,437	800,000	0,029	-0,072
-537,423	-79,579	0,090	-0,022
-536,408	135,501	-0,067	0,063
-535,393	-200,000	0,011	-0,183
-534,379	330,541	-0,066	-0,092
-533,364	-200,000	-0,022	-0,142
-532,350	-53,422	-0,090	-0,029
-531,335	95,236	0,016	0,013
-530,321	-200,000	-0,009	-0,109
-529,306	-23,463	0,075	0,032
-528,291	359,077	-0,068	-0,099
-527,277	-200,000	-0,010	-0,118
-526,262	800,000	-0,027	-0,059
-525,248	-134,901	0,125	-0,011
-524,233	-72,457	0,113	0,030
-523,218	800,000	0,022	-0,069
-522,204	-191,916	-0,129	-0,001
-521,189	-200,000	-0,002	-0,063
-520,175	-125,165	-0,081	-0,009
-519,160	-28,832	0,027	-0,011
-518,145	-42,616	0,115	0,042
-517,131	50,896	-0,093	0,064
-516,116	212,262	0,058	-0,066
-515,102	170,271	0,094	0,097
-514,087	800,000	0,017	0,041
-513,072	21,477	-0,071	0,041
-512,058	164,112	0,052	-0,053
-511,043	800,000	0,030	0,092
-510,029	159,169	0,020	0,021
-509,014	-200,000	-0,012	-0,129
-507,999	-18,679	-0,053	0,024
-506,985	308,136	-0,061	-0,082
-505,970	47,325	0,081	-0,054
-504,956	800,000	0,044	-0,105
-503,941	-200,000	-0,003	-0,038
-502,926	-200,000	0,033	0,172
-501,912	678,306	0,026	0,048
-500,897	-200,000	0,024	0,129
-499,883	-97,750	0,097	-0,018
-498,868	-85,648	-0,054	-0,012
-497,853	223,997	0,020	-0,023
-496,839	-57,307	-0,043	-0,013
-495,824	800,000	-0,021	-0,057
-494,810	43,766	0,014	0,009
-493,795	-146,158	0,104	0,006
-492,781	60,166	-0,069	0,049
-491,766	-38,492	-0,014	-0,005
-490,751	263,234	0,098	0,123
-489,737	-67,313	-0,029	-0,008
-488,722	800,000	0,051	0,123
-487,708	800,000	-0,044	0,106
-486,693	92,705	-0,124	0,101
-485,678	-48,032	-0,070	0,024
-484,664	18,350	-0,147	0,084
-483,649	-200,000	0,012	-0,079
-482,635	-200,000	-0,028	-0,214
-481,620	407,198	0,118	0,180
-480,605	174,360	-0,023	-0,024
-479,591	-64,211	0,117	0,034
-478,576	-200,000	-0,014	0,069
-477,562	603,491	-0,004	-0,007
-476,547	-11,658	-0,140	0,066
-475,532	-15,407	-0,070	0,032
-474,518	-200,000	0,012	-0,038
-473,503	174,261	0,112	0,116
-472,489	-143,463	-0,111	0,007
-471,474	12,719	-0,063	-0,035
-470,459	322,387	-0,069	0,095
-469,445	183,133	-0,044	0,047
-468,430	-3,542	0,088	-0,044
-467,416	-200,000	0,026	-0,130
-466,401	-200,000	0,003	0,101
-465,386	-75,772	-0,057	-0,014
-464,372	751,843	-0,056	0,110
-463,357	-140,070	-0,142	0,011
-462,343	214,543	0,026	-0,029
-461,328	410,575	-0,068	-0,104
-460,313	-158,988	0,034	-0,001
-459,299	378,540	-0,053	0,078
-458,284	-15,367	0,134	-0,061
-457,270	-153,248	-0,109	0,005
-456,255	119,212	0,051	-0,045
-455,241	-108,306	-0,033	-0,005
-454,226	-200,000	-0,031	0,107
-453,211	-200,000	-0,004	0,063
-452,197	-65,884	-0,044	-0,013
-451,182	-61,260	0,047	-0,014
-450,168	800,000	0,032	-0,086
-449,153	345,926	-0,072	-0,102
-448,138	-200,000	-0,006	-0,151
-447,124	800,000	0,041	-0,097
-446,109	44,663	0,057	-0,037
-445,095	800,000	0,065	0,134
-444,080	-200,000	-0,001	-0,070
-443,065	-99,430	0,083	-0,015
-442,051	-24,912	-0,062	-0,026
-441,036	127,914	0,046	-0,042
-440,022	-200,000	0,013	-0,053
-439,007	98,460	-0,038	0,032
-437,992	800,000	0,034	-0,096
-436,978	800,000	0,013	-0,035
-435,963	115,532	0,063	0,055
-434,949	800,000	-0,046	0,093
-433,934	800,000	-0,026	-0,065
-432,919	677,423	-0,020	0,038
-431,905	-200,000	-0,011	-0,073
-430,890	-132,269	-0,143	0,013
-429,876	154,077	0,223	0,220
-428,861	36,695	0,067	0,042
-427,846	79,332	-0,028	-0,021
-426,832	-12,289	-0,063	-0,029
-425,817	-200,000	-0,003	0,074
-424,803	800,000	0,049	0,118
-423,788	612,159	-0,063	-0,115
-422,773	207,948	0,139	0,156
-421,759	-200,000	0,007	-0,033
-420,744	800,000	0,025	-0,061
-419,730	-200,000	-0,011	-0,041
-418,715	800,000	0,021	-0,066
-417,701	596,683	-0,008	-0,013
-416,686	-200,000	-0,002	0,101
-415,671	2,615	0,094	0,049
-414,657	-84,031	0,118	-0,027
-413,642	800,000	-0,019	0,058
-412,628	-200,000	-0,015	0,113
-411,613	-157,770	-0,030	-0,001
-410,598	56,636	-0,163	0,114
-409,584	4,033	-0,091	-0,048
-408,569	-134,371	0,074	0,006
-407,555	110,302	0,103	0,089
-406,540	473,594	0,097	0,158
-405,525	5,432	0,011	0,006
-404,511	-200,000	-0,020	-0,141
-403,496	-162,565	0,114	-0,004
-402,482	-75,186	-0,041	-0,010
-401,467	429,554	-0,050	-0,078
-400,452	-11,290	0,030	-0,014
-399,438	-155,812	-0,105	-0,005
-398,423	-149,950	0,111	0,006
-397,409	90,401	-0,077	-0,062
-396,394	254,710	0,093	-0,114
-395,379	-111,150	-0,068	0,010
-394,365	-200,000	-0,021	0,084
-393,350	237,600	0,073	0,087
-392,336	-102,409	-0,039	0,007
-391,321	452,075	-0,020	-0,032
-390,306	-45,008	-0,102	-0,036
-389,292	344,911	-0,083	-0,117
-388,277	197,531	0,055	-0,060
-387,263	-200,000	-0,035	0,208
-386,248	-200,000	-0,006	0,070
-385,233	-39,251	-0,047	0,018
-384,219	-99,267	-0,039	0,007
-383,204	-200,000	-0,012	-0,056
-382,190	-60,520	-0,054	-0,016
-381,175	170,457	0,080	-0,082
-380,160	-200,000	-0,032	0,117
-379,146	365,926	0,135	0,195
-378,131	41,544	0,079	0,051
-377,117	-127,987	-0,088	-0,009
-376,102	-200,000	-0,006	0,051
-375,088	-9,389	-0,102	-0,049
-374,073	426,265	0,036	-0,055
-373,058	546,415	0,062	0,107
-372,044	800,000	0,060	0,132
-371,029	88,798	0,074	0,059
-370,015	134,231	-0,029	0,027
-369,000	-83,043	0,111	-0,025
-367,985	-1,910	-0,083	-0,041
-366,971	142,244	-0,040	-0,038
-365,956	-200,000	0,007	-0,023
-364,942	544,672	-0,033	-0,057
-363,927	658,158	0,064	0,119
-362,912	-200,000	0,018	0,072
-361,898	-200,000	-0,054	-0,202
-360,883	379,512	-0,117	-0,172
-359,869	43,179	0,042	-0,028
-358,854	-69,412	-0,063	-0,017
-357,839	270,797	-0,055	-0,069
-356,825	25,504	0,078	-0,046
-355,810	-200,000	0,003	-0,011
-354,796	-14,701	-0,045	0,021
-353,781	-200,000	0,007	-0,024
-352,766	-200,000	0,008	-0,030
-351,752	800,000	0,034	-0,068
-350,737	0,238	0,127	-0,065
-349,723	-200,000	0,018	0,063
-348,708	-200,000	0,002	-0,027
-347,693	53,275	0,036	-0,025
-346,679	-39,581	0,051	0,019
-345,664	800,000	-0,022	-0,052
-344,650	-200,000	0,007	0,048
-343,635	142,553	0,130	0,124
-342,620	133,262	0,091	0,084
-341,606	800,000	-0,045	-0,097
-340,591	0,968	0,074	-0,038
-339,577	610,115	0,053	-0,096
-338,562	-200,000	0,022	-0,128
-337,548	-43,473	0,056	-0,020
-336,533	-46,155	0,115	0,040
-335,518	-156,199	-0,129	0,006
-334,504	-200,000	-0,005	0,121
-333,489	12,044	-0,055	-0,030
-332,475	800,000	-0,076	-0,157
-331,460	-14,939	0,086	-0,039
-330,445	142,431	-0,027	0,026
-329,431	-122,151	0,123	0,014
-328,416	-200,000	-0,005	-0,036
-327,402	-58,061	0,102	0,032
-326,387	168,320	0,088	0,090
-325,372	519,274	-0,061	-0,103
-324,358	-9,597	0,107	-0,051
-323,343	-183,045	0,034	0,000
-322,329	-200,000	0,003	0,022
-321,314	195,435	0,063	0,068
-320,299	173,293	0,051	-0,053
-319,285	259,950	0,032	0,040
-318,270	-54,370	0,133	0,043
-317,256	-128,687	-0,125	-0,012
-316,241	198,138	-0,054	-0,060
-315,226	113,421	0,104	0,091
-314,212	800,000	-0,032	-0,101
-313,197	431,888	-0,044	0,068
-312,183	10,481	-0,101	0,055
-311,168	-200,000	0,048	-0,212
-310,153	-200,000	0,006	-0,096
-309,139	-200,000	-0,015	-0,099
-308,124	80,030	-0,024	0,019
-307,110	-178,040	0,157	-0,003
-306,095	800,000	0,034	0,091
-305,080	413,055	-0,060	0,091
-304,066	152,318	0,063	0,062
-303,051	600,477	-0,073	-0,130
-302,037	-29,090	-0,120	-0,049
-301,022	327,692	0,055	0,076
-300,008	-65,921	-0,011	-0,003
-298,993	55,963	0,102	-0,070
-297,978	761,383	-0,025	0,049
-296,964	206,500	0,058	0,065
-295,949	154,754	-0,045	-0,044
-294,935	39,640	0,039	-0,025
-293,920	44,817	0,048	-0,032
-292,905	214,002	-0,074	0,083
-291,891	-200,000	-0,009	-0,027
-290,876	-90,638	0,037	0,008
-289,862	3,370	0,089	-0,046
-288,847	-120,279	-0,188	-0,023
-287,832	-200,000	-0,001	-0,042
-286,818	23,054	-0,049	0,029
-285,803	-70,198	0,131	-0,035
-284,789	-109,264	0,119	0,018
-283,774	-200,000	-0,001	0,103
-282,759	75,236	-0,142	-0,107
-281,745	800,000	0,056	-0,140
-280,730	-200,000	0,004	0,018
-279,716	342,400	-0,025	0,036
-278,701	174,717	0,034	-0,035
-277,686	254,518	-0,031	0,038
-276,672	181,592	-0,077	0,081
-275,657	-1,197	-0,081	-0,041
-274,643	580,225	-0,066	0,116
-273,628	282,426	0,025	0,032
-272,613	59,307	-0,033	0,023
-271,599	-200,000	0,046	-0,166
-270,584	156,655	0,018	-0,018
-269,570	75,771	-0,113	-0,085
-268,555	155,914	0,032	0,031
-267,540	-63,786	0,092	0,027
-266,526	20,601	-0,028	0,016
-265,511	800,000	0,046	0,095
-264,497	-43,295	0,064	-0,023
-263,482	-200,000	0,008	0,055
-262,467	27,931	-0,078	0,047
-261,453	-59,790	0,176	0,053
-260,438	800,000	-0,057	-0,139
-259,424	239,733	0,051	-0,061
-258,409	219,828	-0,068	-0,077
-257,395	-200,000	-0,019	0,110
-256,380	-200,000	-0,022	0,147
-255,365	-104,201	-0,136	0,022
-254,351	-66,576	0,070	-0,020
-253,336	24,191	0,021	0,012
-252,322	-3,227	-0,110	0,054
-251,307	-200,000	0,015	0,181
-250,292	202,229	-0,028	0,031
-249,278	800,000	0,023	0,062
-248,263	800,000	-0,002	-0,007
-247,249	449,289	0,072	0,114
-246,234	-31,004	-0,168	0,067
-245,219	16,448	-0,100	0,056
-244,205	800,000	-0,039	-0,080
-243,190	95,839	-0,057	-0,046
-242,176	-20,983	-0,083	0,036
-241,161	409,879	0,047	0,072
-240,146	-78,038	0,147	0,036
-239,132	613,492	-0,021	0,038
-238,117	167,803	0,127	0,129
-237,103	32,549	0,035	0,022
-236,088	800,000	-0,008	0,016
-235,073	-68,165	0,056	-0,015
-234,059	20,998	-0,048	0,028
-233,044	800,000	-0,045	-0,115
-232,030	-140,180	-0,086	0,006
-231,015	119,900	0,082	-0,073
-230,000	195,057	-0,075	-0,082
-228,986	-38,493	0,102	-0,038
-227,971	28,312	0,035	0,021
-226,957	800,000	-0,057	0,138
-225,942	-103,836	0,134	-0,022
-224,927	51,314	-0,037	-0,025
-223,913	-36,645	-0,139	0,053
-222,898	339,879	-0,032	-0,045
-221,884	800,000	0,008	-0,024
-220,869	87,674	-0,085	0,067
-219,855	800,000	-0,070	0,206
-218,840	800,000	0,052	0,131
-217,825	-81,146	-0,113	0,026
-216,811	659,158	0,031	-0,056
-215,796	227,781	-0,075	-0,087
-214,782	-167,408	0,176	-0,005
-213,767	266,828	-0,035	-0,044
-212,752	5,987	-0,015	0,008
-211,738	124,355	0,055	0,050
-210,723	800,000	0,021	-0,046
-209,709	716,030	-0,025	-0,047
-208,694	800,000	0,034	0,096
-207,679	800,000	-0,011	-0,024
-206,665	19,217	-0,089	0,051
-205,650	110,719	-0,049	0,042
-204,636	-33,123	0,062	0,024
-203,621	134,296	-0,064	-0,059
-202,606	800,000	-0,005	0,010
-201,592	-160,746	0,122	0,005
-200,577	800,000	0,036	-0,090
-199,563	-200,000	-0,013	-0,050
-198,548	611,418	0,025	0,045
-197,533	171,840	0,034	0,035
-196,519	8,705	-0,151	-0,081
-195,504	-4,977	0,067	-0,033
-194,490	195,977	-0,010	-0,011
-193,475	-72,848	0,098	-0,025
-192,460	-200,000	0,023	-0,108
-191,446	-200,000	-0,015	-0,068
-190,431	-4,047	-0,090	0,044
-189,417	-11,347	0,069	-0,032
-188,402	765,898	0,044	0,086
-187,387	800,000	-0,065	-0,139
-186,373	595,222	0,027	0,047
-185,358	14,957	-0,045	-0,025
-184,344	800,000	0,019	0,057
-183,329	-200,000	-0,037	0,117
-182,315	-152,614	0,113	0,006
-181,300	-174,520	0,016	0,000
-180,285	-38,341	-0,174	-0,065
-179,271	-144,570	0,075	-0,005
-178,256	152,490	0,127	0,124
-177,242	28,974	0,052	0,031
-176,227	-172,810	-0,112	0,002
-175,212	-23,123	-0,014	0,006
-174,198	-140,378	-0,084	-0,006
-173,183	800,000	0,067	0,132
-172,169	800,000	-0,037	-0,110
-171,154	800,000	0,049	-0,099
-170,139	-200,000	-0,019	-0,134
-169,125	7,062	-0,061	-0,032
-168,110	11,760	0,194	-0,106
-167,096	-200,000	-0,001	-0,034
-166,081	207,435	-0,074	-0,082
-165,066	105,078	-0,041	-0,035
-164,052	-170,871	0,219	0,005
-163,037	133,492	-0,001	-0,001
-162,023	-51,905	0,087	0,029
-161,008	222,595	-0,072	0,082
-159,993	800,000	-0,089	0,188
-158,979	-135,660	0,147	-0,012
-157,964	-200,000	-0,010	0,099
-156,950	-200,000	0,033	-0,183
-155,935	-200,000	0,003	-0,051
-154,920	652,904	0,046	0,085
-153,906	-200,000	-0,020	0,071
-152,891	-41,858	0,103	-0,037
-151,877	-189,392	0,088	-0,001
-150,862	-66,132	0,096	0,027
-149,847	311,684	0,035	-0,047
-148,833	603,366	-0,038	-0,067
-147,818	-200,000	0,010	0,095
-146,804	-200,000	0,001	0,016
-145,789	-200,000	-0,007	0,050
-144,775	-200,000	0,000	0,018
-143,760	800,000	-0,033	0,067
-142,745	194,363	-0,025	0,027
-141,731	800,000	-0,026	-0,058
-140,716	-200,000	-0,010	-0,097
-139,702	-48,609	-0,026	0,009
-138,687	-83,492	-0,145	0,033
-137,672	495,906	-0,044	-0,071
-136,658	37,786	0,065	-0,041
-135,643	-200,000	0,000	0,021
-134,629	623,368	-0,069	-0,124
-133,614	-133,005	-0,099	0,009
-132,599	99,808	0,061	-0,051
-131,585	800,000	0,021	-0,064
-130,570	138,419	-0,039	-0,036
-129,556	-103,785	-0,194	0,032
-128,541	-200,000	0,009	-0,044
-127,526	-94,374	-0,068	-0,013
-126,512	-16,077	-0,064	-0,029
-125,497	131,434	-0,068	0,062
-124,483	-200,000	-0,004	0,034
-123,468	-97,223	0,117	-0,022
-122,453	800,000	-0,016	-0,042
-121,439	449,962	-0,065	-0,102
-120,424	-31,495	-0,073	-0,029
-119,410	30,449	0,074	-0,045
-118,395	351,278	-0,071	0,099
-117,380	637,305	-0,024	-0,043
-116,366	-200,000	-0,014	-0,095
-115,351	800,000	0,018	-0,035
-114,337	-78,274	-0,162	-0,039
-113,322	-185,728	0,069	-0,001
-112,307	-200,000	-0,011	0,100
-111,293	800,000	-0,070	0,151
-110,278	-200,000	-0,012	0,184
-109,264	87,229	-0,016	0,013
-108,249	-200,000	-0,007	0,074
-107,234	800,000	0,060	-0,121
-106,220	45,763	0,093	0,061
-105,205	33,534	-0,069	0,042
-104,191	-200,000	-0,017	0,075
-103,176	-197,896	-0,037	0,000
-102,162	73,704	0,114	0,085
-101,147	-5,428	-0,101	-0,049
-100,132	-200,000	-0,029	-0,116
-99,118	188,503	0,044	-0,047
-98,103	-200,000	0,005	-0,162
-97,089	110,734	-0,106	0,090
-96,074	-149,414	0,084	-0,005
-95,059	90,334	0,006	-0,005
-94,045	-200,000	-0,064	-0,225
-93,030	-26,422	0,174	-0,072
-92,016	35,052	-0,171	-0,106
-91,001	320,686	0,014	-0,019
-89,986	-200,000	-0,000	0,045
-88,972	340,454	0,087	0,121
-87,957	-111,909	-0,105	-0,015
-86,943	-200,000	0,022	-0,137
-85,928	146,851	-0,081	0,077
-84,913	800,000	0,015	-0,030
-83,899	8,079	0,093	0,049
-82,884	-200,000	-0,014	-0,070
-81,870	-200,000	-0,001	0,041
-80,855	-200,000	-0,001	0,021
-79,840	-200,000	-0,013	-0,167
-78,826	800,000	-0,044	-0,131
-77,811	102,825	-0,079	-0,065
-76,797	-52,410	0,056	-0,018
-75,782	-171,166	-0,092	0,002
-74,767	-200,000	0,003	0,015
-73,753	112,718	0,082	0,071
-72,738	481,939	-0,029	0,047
-71,724	630,987	-0,039	0,070
-70,709	-200,000	-0,015	-0,114
-69,694	104,998	0,104	-0,087
-68,680	-200,000	-0,003	0,081
-67,665	670,096	0,046	0,084
-66,651	-200,000	-0,038	0,146
-65,636	81,369	-0,044	-0,034
-64,622	-14,542	-0,052	-0,024
-63,607	427,743	-0,061	-0,094
-62,592	-200,000	0,005	-0,045
-61,578	-130,596	-0,067	0,006
-60,563	102,776	0,106	-0,088
-59,549	-74,029	0,034	-0,009
-58,534	-27,608	-1,727	-0,707
-57,519	431,029	-1,275	-1,962
-56,505	-200,000	-0,643	-4,706
-55,490	233,624	0,826	0,964
-54,476	800,000	5,013	11,456
-53,461	-200,000	19,149	319,558
-52,446	-200,000	740,488	2333,919
-51,432	573,867	1655,347	2869,703
-50,417	78,299	1671,157	1261,935
-49,403	21,298	1543,990	885,584
-48,388	15,164	1466,543	811,333
-47,373	17,882	1456,798	819,047
-46,359	16,696	1446,373	807,465
-45,344	13,414	1441,879	789,205
-44,330	13,369	1439,937	787,892
-43,315	13,387	1438,299	787,055
-42,300	13,381	1436,450	785,980
-41,286	13,402	1435,229	785,383
-40,271	13,373	1433,874	784,472
-39,257	13,350	1432,809	783,747
-38,242	13,407	1431,429	783,234
-37,227	13,383	1430,314	782,477
-36,213	13,396	1428,925	781,749
-35,198	13,434	1427,573	781,159
-34,184	13,424	1426,997	780,766
-33,169	13,368	1425,412	779,599
-32,154	13,453	1424,253	779,339
-31,140	13,432	1423,094	778,576
-30,125	13,457	1421,936	778,029
-29,111	13,442	1420,938	777,382
-28,096	13,432	1419,688	776,619
-27,082	13,403	1418,458	775,779
-26,067	13,345	1417,432	774,912
-25,052	13,331	1416,463	774,287
-24,038	13,311	1415,539	773,658
-23,023	13,315	1414,518	773,089
-22,009	13,272	1413,687	772,399
-20,994	13,309	1412,451	771,867
-19,979	13,295	1411,658	771,338
-18,965	13,284	1410,727	770,747
-17,950	13,298	1409,821	770,288
-16,936	13,320	1408,813	769,809
-15,921	13,243	1407,668	768,792
-14,906	13,230	1406,903	768,285
-13,892	13,255	1405,970	767,861
-12,877	13,227	1405,068	767,206
-11,863	13,222	1404,426	766,802
-10,848	13,281	1403,310	766,439
-9,833	13,195	1402,630	765,636
-8,819	13,216	1401,602	765,141
-7,804	13,163	1400,678	764,359
-6,790	13,165	1399,644	763,772
-5,775	13,207	1398,420	763,270
-4,760	13,152	1397,681	762,582
-3,746	13,147	1396,877	762,088
-2,731	13,170	1395,727	761,538
-1,717	13,093	1395,136	760,829
-0,702	13,106	1393,306	759,859
0,313	16,941	1310,202	732,307
1,327	33,167	703,845	430,904
2,342	51,083	123,399	82,658
3,356	1,611	16,661	8,458
4,371	10,022	3,203	1,716
5,386	-52,327	0,637	0,208
6,400	-200,000	-0,040	0,270
7,415	29,322	-0,150	-0,090
8,429	84,557	-0,173	-0,134
9,444	145,173	-0,319	-0,302
10,459	3,696	-0,259	-0,133
11,473	20,175	-0,245	-0,139
12,488	28,851	-0,262	-0,157
13,502	-21,093	-0,234	-0,101
14,517	-47,424	-0,239	-0,082
15,531	130,027	-0,349	-0,316
16,546	282,480	-0,223	-0,283
17,561	58,105	-0,368	-0,254
18,575	15,303	-0,179	-0,099
19,590	166,802	-0,188	-0,188
20,604	24,829	-0,212	-0,124
21,619	70,731	-0,419	-0,306
22,634	10,739	-0,522	-0,281
23,648	121,026	-0,483	-0,424
24,663	156,396	-0,381	-0,371
25,677	141,696	-0,386	-0,361
26,692	162,211	-0,270	-0,267
27,707	111,807	-0,412	-0,351
28,721	16,959	-0,374	-0,209
29,736	65,003	-0,383	-0,273
30,750	134,886	-0,436	-0,399
31,765	77,610	-0,382	-0,287
32,780	97,706	-0,401	-0,325
33,794	133,200	-0,271	-0,247
34,809	73,865	-0,312	-0,231
35,823	197,743	-0,356	-0,385
36,838	-1,438	-0,336	-0,167
37,853	110,228	-0,324	-0,274
38,867	359,090	-0,263	-0,372
39,882	25,576	-0,454	-0,266
40,896	89,732	-0,245	-0,193
41,911	83,108	-0,375	-0,287
42,926	3,629	-0,368	-0,188
43,940	112,335	-0,446	-0,380
44,955	94,296	-0,354	-0,283
45,969	-0,869	-0,364	-0,181
46,984	205,502	-0,229	-0,251
47,999	43,226	-0,347	-0,223
49,013	-11,676	-0,340	-0,157
50,028	100,993	-0,316	-0,259
51,042	268,477	-0,329	-0,407
52,057	-10,530	-0,441	-0,205
53,071	67,643	-0,360	-0,259
54,086	-47,360	-0,331	-0,113
55,101	52,068	-0,370	-0,248
56,115	-39,137	-0,349	-0,129
57,130	39,771	-0,428	-0,270
58,144	-71,304	-0,397	-0,104
59,159	83,927	-0,393	-0,302
60,174	85,826	-0,327	-0,253
61,188	85,835	-0,395	-0,306
62,203	126,595	-0,351	-0,313
63,217	-65,917	-0,265	-0,074
64,232	-17,053	-0,303	-0,134
65,247	-9,047	-0,332	-0,156
66,261	-8,881	-0,465	-0,219
67,276	-89,318	-0,500	-0,103
68,290	219,375	-0,172	-0,194
69,305	-44,234	-0,300	-0,105
70,320	-104,794	-0,412	-0,066
71,334	-29,899	-0,387	-0,154
72,349	-71,494	-0,296	-0,077
73,363	423,919	-0,219	-0,333
74,378	57,136	-0,299	-0,205
75,393	94,960	-0,338	-0,270
76,407	445,258	-0,136	-0,210
77,422	19,138	-0,294	-0,165
78,436	710,439	-0,197	-0,368
79,451	55,509	-0,229	-0,155
80,466	-0,319	-0,311	-0,155
81,480	150,302	-0,242	-0,231
82,495	-26,447	-0,263	-0,108
83,509	0,789	-0,332	-0,167
84,524	31,004	-0,308	-0,185
85,539	1,234	-0,297	-0,150
86,553	122,047	-0,269	-0,236
87,568	151,824	-0,188	-0,180
88,582	109,958	-0,295	-0,248
89,597	23,119	-0,216	-0,124
90,611	38,733	-0,327	-0,205
91,626	-34,756	-0,235	-0,090
92,641	369,770	-0,125	-0,178
93,655	7,294	-0,348	-0,182
94,670	112,420	-0,328	-0,278
95,684	28,502	-0,375	-0,222
96,699	21,775	-0,333	-0,190
97,714	-79,646	-0,318	-0,075
98,728	-97,661	-0,329	-0,059
99,743	-184,310	-0,302	0,003
100,757	-65,836	-0,291	-0,081
101,772	12,348	-0,305	-0,164
102,787	-88,161	-0,279	0,058
103,801	83,856	-0,272	-0,208
104,816	102,976	-0,358	-0,294
105,830	10,459	-0,203	-0,108
106,845	-38,109	-0,206	-0,076
107,860	-103,410	-0,377	-0,062
108,874	-17,927	-0,300	-0,131
109,889	315,100	-0,308	-0,408
110,903	457,263	-0,116	-0,181
111,918	163,226	-0,173	-0,170
112,933	58,271	-0,137	-0,094
113,947	-80,677	-0,266	-0,062
114,962	206,305	-0,265	-0,290
115,976	23,966	-0,213	-0,123
116,991	14,770	-0,396	-0,216
118,006	181,055	-0,201	-0,207
119,020	-12,736	-0,218	-0,099
120,035	-200,000	-0,074	-0,236
121,049	81,210	-0,198	-0,149
122,064	237,291	-0,149	-0,173
123,079	61,214	-0,116	-0,081
124,093	83,762	-0,321	-0,245
125,108	154,439	-0,364	-0,350
126,122	272,965	-0,177	-0,219
127,137	115,843	-0,249	-0,213
128,151	160,942	-0,129	-0,126
129,166	91,516	-0,265	-0,208
130,181	249,036	-0,090	-0,107
131,195	-5,979	-0,280	-0,133
132,210	46,142	-0,184	-0,119
133,224	-0,539	-0,228	-0,113
134,239	-36,780	-0,281	-0,105
135,254	2,749	-0,267	-0,135
136,268	800,000	-0,059	-0,155
137,283	147,555	-0,220	-0,207
138,297	83,176	-0,396	-0,301
139,312	133,629	-0,251	-0,227
140,327	112,178	-0,173	-0,146
141,341	-39,790	-0,220	-0,080
142,356	273,805	-0,175	-0,217
143,370	800,000	-0,096	-0,202
144,385	404,418	-0,173	-0,256
145,400	111,946	-0,216	-0,182
146,414	191,555	-0,290	-0,306
147,429	-18,070	-0,288	-0,125
148,443	-21,291	-0,273	-0,116
149,458	88,960	-0,244	-0,190
150,473	121,167	-0,176	-0,153
151,487	71,427	-0,206	-0,149
152,502	308,674	-0,180	-0,235
153,516	35,138	-0,266	-0,162
154,531	683,672	-0,230	-0,420
155,546	195,304	-0,180	-0,191
156,560	-89,940	-0,139	-0,028
157,575	2,106	-0,241	-0,121
158,589	12,127	-0,252	-0,135
159,604	-46,457	-0,338	-0,115
160,619	112,856	-0,231	-0,196
161,633	7,232	-0,259	-0,135
162,648	268,984	-0,153	-0,188
163,662	20,475	-0,240	-0,135
164,677	-10,783	-0,230	-0,106
165,692	-119,048	-0,141	-0,017
166,706	140,150	-0,303	-0,279
167,721	29,221	-0,233	-0,138
168,735	-10,742	-0,196	-0,090
169,750	62,506	-0,246	-0,171
170,764	71,098	-0,251	-0,181
171,779	105,601	-0,248	-0,204
172,794	365,906	-0,201	-0,283
173,808	54,266	-0,288	-0,193
174,823	800,000	-0,092	-0,191
175,837	98,614	-0,255	-0,205
176,852	163,790	-0,248	-0,243
177,867	190,153	-0,107	-0,112
178,881	800,000	-0,078	-0,231
179,896	-77,718	-0,253	-0,060
180,910	461,272	-0,116	-0,181
181,925	301,467	-0,235	-0,303
182,940	0,404	-0,261	-0,129
183,954	34,531	-0,200	-0,121
184,969	189,500	-0,193	-0,202
185,983	-112,573	-0,143	-0,020
186,998	-85,920	-0,201	-0,043
188,013	99,530	-0,276	-0,223
189,027	745,969	-0,143	-0,269
190,042	198,864	-0,293	-0,312
191,056	174,763	-0,210	-0,211
192,071	-118,465	-0,242	-0,029
193,086	372,176	-0,176	-0,250
194,100	170,387	-0,169	-0,168
195,115	800,000	-0,133	-0,290
196,129	58,079	-0,129	-0,088
197,144	387,810	-0,173	-0,250
198,159	800,000	-0,127	-0,326
199,173	394,390	-0,138	-0,201
200,188	800,000	-0,105	-0,226
201,202	59,320	-0,157	-0,107
202,217	317,823	-0,228	-0,301
203,232	204,675	-0,255	-0,275
204,246	-97,325	-0,234	-0,042
205,261	-18,599	-0,223	-0,096
206,275	-25,865	-0,265	-0,108
207,290	232,386	-0,161	-0,184
208,304	-200,000	-0,051	-0,213
209,319	153,457	-0,181	-0,172
210,334	384,083	-0,130	-0,186
211,348	262,678	-0,227	-0,275
212,363	117,266	-0,236	-0,202
213,377	7,766	-0,252	-0,131
214,392	-8,622	-0,215	-0,100
215,407	-9,637	-0,276	-0,127
216,421	-16,714	-0,079	-0,034
217,436	272,372	-0,164	-0,201
218,450	80,857	-0,199	-0,149
219,465	105,311	-0,256	-0,210
220,480	-200,000	-0,063	-0,210
221,494	-162,752	-0,106	-0,004
222,509	214,378	-0,151	-0,167
223,523	265,717	-0,160	-0,194
224,538	-200,000	-0,031	-0,191
225,553	70,093	-0,264	-0,189
226,567	800,000	-0,102	-0,199
227,582	69,334	-0,170	-0,121
228,596	-180,236	-0,273	0,004
229,611	51,920	-0,140	-0,092
230,626	-200,000	-0,047	-0,189
231,640	-200,000	0,001	-0,068
232,655	489,497	-0,159	-0,252
233,669	276,260	-0,233	-0,287
234,684	-34,502	-0,206	-0,078
235,699	219,817	-0,047	-0,053
236,713	5,356	-0,211	-0,108
237,728	-200,000	-0,049	-0,163
238,742	-14,380	-0,176	-0,078
239,757	800,000	-0,095	-0,217
240,772	311,183	-0,176	-0,229
241,786	468,088	-0,100	-0,156
242,801	-113,763	-0,181	-0,024
243,815	576,037	-0,105	-0,179
244,830	-24,140	-0,211	-0,087
245,844	114,797	-0,152	-0,129
246,859	40,980	-0,322	-0,201
247,874	800,000	-0,092	-0,208
248,888	314,409	-0,188	-0,245
249,903	-16,845	-0,180	-0,078
250,917	153,202	-0,120	-0,113
251,932	-54,445	-0,101	-0,031
252,947	203,559	-0,126	-0,135
253,961	-144,920	-0,228	-0,014
254,976	-153,955	-0,196	-0,009
255,990	-159,065	-0,251	0,010
257,005	800,000	-0,075	-0,223
258,020	-200,000	-0,029	-0,191
259,034	279,536	-0,162	-0,200
260,049	574,748	-0,164	-0,277
261,063	67,580	-0,104	-0,073
262,078	54,163	-0,200	-0,133
263,093	37,427	-0,251	-0,154
264,107	82,853	-0,205	-0,154
265,122	298,300	-0,201	-0,256
266,136	-196,776	-0,332	-0,001
267,151	353,204	-0,066	-0,090
268,166	41,945	-0,275	-0,172
269,180	67,828	-0,156	-0,110
270,195	-12,895	-0,213	-0,096
271,209	-200,000	0,011	-0,186
272,224	274,256	-0,098	-0,120
273,239	-120,386	-0,111	-0,013
274,253	800,000	-0,044	-0,107
275,268	425,093	-0,129	-0,192
276,282	747,635	-0,146	-0,273
277,297	88,597	-0,178	-0,137
278,312	-74,527	-0,217	-0,054
279,326	155,336	-0,205	-0,195
280,341	-21,846	-0,152	-0,063
281,355	-125,535	-0,103	-0,011
282,370	800,000	-0,093	-0,178
283,384	-178,835	-0,154	0,002
284,399	-200,000	0,008	-0,126
285,414	30,611	-0,217	-0,128
286,428	205,884	-0,098	-0,106
287,443	-176,438	-0,222	0,004
288,457	225,998	-0,130	0,145
289,472	-110,565	-0,174	-0,025
290,487	-44,242	-0,210	-0,072
291,501	-84,548	-0,232	-0,050
292,516	-28,137	-0,117	-0,047
293,530	-187,973	-0,151	-0,001
294,545	602,438	-0,056	-0,097
295,560	107,302	-0,094	-0,077
296,574	175,733	-0,114	-0,114
297,589	-55,662	-0,209	-0,064
298,603	291,168	-0,145	-0,182
299,618	302,461	-0,162	-0,207
300,633	-67,716	-0,176	-0,047
301,647	116,494	-0,164	-0,138
302,662	-54,537	-0,155	-0,048
303,676	-158,053	-0,089	0,004
304,691	29,190	-0,195	-0,114
305,706	27,384	-0,129	0,074
306,720	84,173	-0,161	-0,121
307,735	33,046	-0,130	-0,077
308,749	-79,978	-0,117	0,027
309,764	-48,135	-0,124	-0,041
310,779	-58,596	0,014	-0,004
311,793	49,356	-0,143	-0,092
312,808	515,400	-0,151	-0,243
313,822	-61,082	-0,142	-0,041
314,837	302,281	-0,071	-0,090
315,852	-200,000	-0,010	-0,115
316,866	-12,149	-0,101	-0,045
317,881	-110,508	-0,118	0,017
318,895	257,547	-0,166	-0,196
319,910	340,682	-0,111	-0,150
320,925	195,268	-0,237	-0,248
321,939	-90,686	-0,149	-0,029
322,954	247,243	-0,142	-0,165
323,968	800,000	-0,058	-0,151
324,983	-200,000	0,001	-0,181
325,997	6,410	-0,102	0,052
327,012	33,529	-0,175	-0,104
328,027	139,271	-0,119	-0,108
329,041	20,329	-0,135	-0,075
330,056	4,086	-0,115	-0,058
331,070	-200,000	-0,051	-0,165
332,085	-200,000	-0,038	-0,129
333,100	158,364	-0,111	-0,106
334,114	383,475	-0,068	-0,097
335,129	125,427	-0,178	-0,154
336,143	-90,787	-0,117	-0,023
337,158	305,881	-0,088	-0,112
338,173	800,000	-0,028	-0,060
339,187	19,228	-0,134	-0,074
340,202	-86,326	-0,142	-0,030
341,216	800,000	-0,090	-0,174
342,231	5,293	-0,245	-0,124
343,246	524,151	-0,095	-0,154
344,260	41,188	-0,183	-0,113
345,275	-53,440	-0,189	-0,059
346,289	800,000	-0,020	0,047
347,304	76,252	-0,128	-0,093
348,319	800,000	-0,112	-0,213
349,333	23,034	-0,226	-0,127
350,348	-60,642	-0,219	-0,063
351,362	113,328	-0,143	-0,119
352,377	-69,861	-0,094	0,025
353,392	-128,036	-0,113	-0,011
354,406	-200,000	-0,038	-0,126
355,421	210,191	1313,056	1415,389
356,435	161,805	1473,561	1415,875
