DTS Sentinel unit serial number:	SN410029Multiplexer serial number:	ORYXHardware model number:	OX2-SRSoftware version number:	ORYX F/W v4,00 Oryx Data Collector v3.7.2.0data status	okinstallation	B3 Nyhavnadifferential loss correction	single-endedforward channel	channel 1reverse channel	N/Adate	2023/12/04time	23:32:30forward acquisition time	300,00reverse acquisition time	0,00gamma	499,1914k internal	0,3200k external	0,3200temperature offset calibration	1,0000default loss term (dB/km)	0,3820temperature slope calibration	1,0000multiplexer offset coefficient	1,0000multiplexer slope coefficient	1,0000fibre end	0,00T internal ref (°C)	14,15T ext. ref 1 (°C)	-1,17T ext. ref 2 (°C)	-1,17length (m)	temperature (°C)	Stokes	anti-Stokes-744,400	194,644	-0,136	-0,151
-743,385	-200,000	0,033	0,270
-742,371	794,232	-0,131	-0,264
-741,356	-200,000	0,091	0,311
-740,342	395,789	-0,157	-0,239
-739,327	-200,000	0,029	0,266
-738,312	298,227	-0,141	-0,189
-737,298	-200,000	0,022	0,341
-736,283	800,000	-0,114	-0,235
-735,269	256,049	0,051	0,064
-734,254	205,421	-0,262	-0,297
-733,239	-53,045	-0,184	0,061
-732,225	-200,000	-0,045	-0,198
-731,210	505,925	0,021	0,035
-730,196	-200,000	-0,014	0,076
-729,181	381,425	0,033	0,050
-728,167	-24,845	-0,087	0,038
-727,152	301,417	0,039	-0,053
-726,137	29,120	0,039	-0,024
-725,123	546,440	0,051	-0,089
-724,108	800,000	0,027	-0,083
-723,094	24,815	-0,127	0,076
-722,079	-77,509	-0,097	-0,024
-721,064	-200,000	0,026	0,150
-720,050	800,000	0,028	0,070
-719,035	118,531	0,081	0,073
-718,021	43,047	-0,056	0,037
-717,006	800,000	0,033	-0,072
-715,991	386,582	-0,075	-0,113
-714,977	-63,330	-0,125	-0,037
-713,962	720,701	-0,071	0,137
-712,948	-1,710	0,069	0,035
-711,933	76,082	-0,173	-0,133
-710,918	-179,032	-0,056	0,001
-709,904	12,524	-0,067	-0,038
-708,889	326,891	-0,086	-0,120
-707,875	800,000	0,074	-0,223
-706,860	-8,446	-0,097	-0,047
-705,845	-16,589	-0,086	-0,039
-704,831	-86,791	-0,044	0,010
-703,816	800,000	-0,042	0,134
-702,802	-200,000	0,003	0,031
-701,787	116,626	0,048	0,042
-700,772	-99,337	-0,108	-0,020
-699,758	800,000	-0,008	-0,025
-698,743	-50,735	-0,081	-0,028
-697,729	59,324	0,079	-0,056
-696,714	-200,000	0,000	0,052
-695,699	178,411	-0,079	-0,084
-694,685	-136,622	-0,106	0,009
-693,670	241,641	-0,053	-0,064
-692,656	-81,740	-0,073	-0,017
-691,641	-54,415	0,155	0,051
-690,627	134,655	-0,057	0,053
-689,612	800,000	0,039	0,103
-688,597	-124,825	0,067	-0,007
-687,583	2,680	-0,161	-0,084
-686,568	51,711	-0,082	0,057
-685,554	63,069	0,050	0,037
-684,539	-60,704	0,108	0,033
-683,524	800,000	0,042	0,100
-682,510	-179,673	0,107	0,002
-681,495	-68,739	-0,133	0,037
-680,481	-36,569	-0,087	-0,034
-679,466	800,000	-0,069	-0,152
-678,451	17,925	0,034	-0,019
-677,437	-75,544	-0,042	0,011
-676,422	154,881	-0,065	0,065
-675,408	568,679	-0,041	0,072
-674,393	-125,699	-0,142	0,015
-673,378	-91,394	-0,209	-0,043
-672,364	800,000	-0,039	-0,089
-671,349	-59,806	-0,119	0,037
-670,335	-200,000	0,027	-0,093
-669,320	82,335	0,019	-0,015
-668,305	309,078	-0,066	0,090
-667,291	-200,000	-0,013	-0,068
-666,276	-27,540	-0,074	0,031
-665,262	800,000	0,056	-0,123
-664,247	-129,430	-0,026	0,003
-663,232	800,000	0,026	-0,080
-662,218	410,859	-0,063	0,097
-661,203	96,213	-0,035	0,029
-660,189	180,912	-0,032	0,034
-659,174	217,551	0,162	-0,187
-658,159	70,091	-0,125	-0,094
-657,145	-40,379	0,087	0,033
-656,130	349,141	0,028	-0,040
-655,116	12,882	0,062	0,034
-654,101	-200,000	0,001	0,034
-653,086	17,741	-0,116	-0,067
-652,072	58,841	-0,045	-0,032
-651,057	-92,511	-0,097	-0,020
-650,043	642,560	-0,049	-0,090
-649,028	-170,970	0,083	-0,002
-648,014	-200,000	0,004	0,040
-646,999	-81,576	-0,090	0,021
-645,984	800,000	0,055	0,154
-644,970	256,907	-0,065	-0,081
-643,955	270,065	-0,111	-0,141
-642,941	-54,850	0,080	-0,026
-641,926	61,337	0,047	0,034
-640,911	111,796	0,153	-0,134
-639,897	800,000	0,032	-0,093
-638,882	-3,484	-0,099	-0,050
-637,868	-25,034	-0,068	0,029
-636,853	46,043	-0,128	0,085
-635,838	-19,812	-0,042	-0,019
-634,824	-122,906	0,143	-0,016
-633,809	688,569	0,025	0,047
-632,795	-0,225	-0,198	0,102
-631,780	-74,470	-0,048	-0,012
-630,765	-154,134	-0,158	-0,008
-629,751	-16,105	-0,112	0,051
-628,736	-11,888	0,040	0,019
-627,722	-200,000	0,024	-0,123
-626,707	350,688	-0,042	0,061
-625,692	86,918	-0,062	-0,049
-624,678	-200,000	-0,005	0,076
-623,663	800,000	0,028	-0,067
-622,649	-70,073	-0,058	0,016
-621,634	-5,307	0,068	-0,034
-620,619	-41,481	-0,130	-0,048
-619,605	800,000	0,024	-0,060
-618,590	767,818	0,051	-0,101
-617,576	-200,000	0,002	-0,045
-616,561	130,704	0,080	-0,074
-615,546	-107,639	-0,119	0,019
-614,532	800,000	-0,047	-0,135
-613,517	800,000	-0,044	-0,108
-612,503	-43,690	-0,127	0,046
-611,488	-200,000	0,004	0,099
-610,474	763,952	0,056	-0,110
-609,459	67,004	0,101	0,074
-608,444	-200,000	0,009	-0,091
-607,430	-87,856	-0,062	-0,013
-606,415	-40,605	-0,017	-0,006
-605,401	215,996	-0,117	-0,135
-604,386	228,806	-0,029	0,035
-603,371	82,725	-0,075	-0,059
-602,357	150,808	-0,076	-0,075
-601,342	417,322	0,037	-0,057
-600,328	-24,679	-0,223	-0,096
-599,313	22,085	0,078	0,046
-598,298	-173,512	-0,069	-0,001
-597,284	346,080	-0,056	0,080
-596,269	-200,000	-0,001	0,071
-595,255	338,897	0,057	-0,080
-594,240	-172,049	-0,163	-0,004
-593,225	4,249	-0,100	0,053
-592,211	27,668	-0,039	0,023
-591,196	-51,241	-0,114	-0,038
-590,182	55,416	-0,016	0,011
-589,167	574,446	0,058	0,103
-588,152	215,144	-0,101	0,116
-587,138	217,984	0,057	-0,066
-586,123	-200,000	0,005	-0,129
-585,109	-200,000	-0,032	-0,106
-584,094	58,917	-0,069	-0,049
-583,079	150,023	-0,041	0,040
-582,065	152,253	-0,043	-0,043
-581,050	-200,000	0,003	0,040
-580,036	-109,431	-0,036	0,005
-579,021	-200,000	0,005	-0,031
-578,006	800,000	0,041	-0,100
-576,992	448,012	-0,086	0,138
-575,977	-55,925	-0,104	0,033
-574,963	8,205	0,145	0,078
-573,948	422,685	-0,036	-0,056
-572,934	800,000	0,029	0,060
-571,919	-76,564	-0,130	-0,033
-570,904	-30,719	0,077	-0,032
-569,890	0,224	-0,031	0,016
-568,875	-89,503	0,067	0,014
-567,861	424,898	0,034	0,053
-566,846	-9,089	0,069	-0,033
-565,831	-11,217	0,062	0,030
-564,817	113,470	-0,099	0,086
-563,802	170,112	0,032	0,033
-562,788	-200,000	0,018	-0,129
-561,773	-200,000	-0,010	-0,093
-560,758	-60,813	0,200	0,061
-559,744	-200,000	0,017	0,078
-558,729	-200,000	-0,010	-0,091
-557,715	313,650	-0,110	-0,149
-556,700	39,686	-0,138	-0,089
-555,685	514,481	-0,053	0,090
-554,671	-200,000	-0,004	0,187
-553,656	800,000	0,053	-0,116
-552,642	-200,000	0,003	0,077
-551,627	385,038	0,009	0,014
-550,612	-84,251	-0,053	-0,012
-549,598	-17,611	0,052	-0,023
-548,583	-53,868	-0,163	0,053
-547,569	165,429	-0,050	-0,051
-546,554	-51,577	0,046	0,015
-545,539	54,290	-0,037	-0,026
-544,525	-12,763	-0,031	0,014
-543,510	-55,285	0,096	-0,031
-542,496	319,334	-0,022	-0,030
-541,481	-118,909	-0,150	0,019
-540,466	-200,000	0,012	-0,068
-539,452	139,830	0,102	0,097
-538,437	278,675	0,047	-0,060
-537,423	-200,000	-0,007	0,083
-536,408	-200,000	0,003	0,162
-535,393	469,851	0,017	0,027
-534,379	800,000	-0,043	-0,110
-533,364	-200,000	-0,001	0,073
-532,350	-143,467	0,045	0,003
-531,335	791,667	-0,036	0,072
-530,321	-6,715	-0,135	-0,066
-529,306	-200,000	0,007	0,043
-528,291	800,000	-0,098	-0,205
-527,277	800,000	0,016	-0,040
-526,262	74,169	-0,040	0,030
-525,248	-139,477	-0,022	-0,002
-524,233	800,000	-0,021	0,067
-523,218	800,000	0,038	0,101
-522,204	360,716	0,021	0,030
-521,189	-11,759	-0,169	-0,080
-520,175	209,055	0,088	0,099
-519,160	59,031	-0,115	0,081
-518,145	-32,046	-0,126	0,051
-517,131	-103,986	0,138	0,023
-516,116	800,000	0,035	0,086
-515,102	-146,937	-0,059	0,004
-514,087	723,701	-0,053	0,102
-513,072	800,000	0,025	-0,053
-512,058	35,700	-0,028	0,018
-511,043	269,800	0,108	0,137
-510,029	800,000	-0,031	-0,082
-509,014	-200,000	0,002	-0,011
-507,999	135,857	0,088	0,083
-506,985	800,000	-0,083	0,187
-505,970	181,662	-0,049	-0,052
-504,956	-200,000	0,008	-0,051
-503,941	40,930	0,142	-0,092
-502,926	13,973	0,043	0,024
-501,912	594,413	-0,073	0,131
-500,897	-21,580	0,233	0,102
-499,883	-144,175	0,036	0,002
-498,868	-187,728	-0,031	-0,000
-497,853	-31,737	-0,042	0,017
-496,839	-200,000	-0,021	0,076
-495,824	800,000	-0,019	0,038
-494,810	33,737	-0,034	0,021
-493,795	800,000	-0,034	-0,094
-492,781	800,000	0,048	0,144
-491,766	131,559	-0,088	-0,081
-490,751	711,967	-0,075	-0,143
-489,737	-131,215	0,032	-0,003
-488,722	800,000	0,042	0,096
-487,708	289,037	-0,019	-0,025
-486,693	219,590	0,012	0,014
-485,678	645,358	-0,046	-0,085
-484,664	-42,837	0,075	-0,027
-483,649	231,519	-0,075	-0,089
-482,635	-83,146	-0,149	-0,034
-481,620	-200,000	-0,005	-0,019
-480,605	-10,257	0,051	0,024
-479,591	-200,000	0,006	0,040
-478,576	-200,000	-0,015	-0,095
-477,562	-128,793	-0,117	0,012
-476,547	-39,534	-0,085	0,032
-475,532	800,000	-0,004	-0,008
-474,518	144,663	0,103	-0,099
-473,503	-98,994	0,121	0,022
-472,489	800,000	0,036	-0,082
-471,474	540,818	-0,058	-0,100
-470,459	358,436	-0,091	-0,131
-469,445	-111,814	0,082	0,012
-468,430	271,740	-0,035	0,044
-467,416	-200,000	-0,020	-0,112
-466,401	14,919	0,140	0,079
-465,386	-200,000	0,024	0,134
-464,372	-200,000	-0,027	-0,195
-463,357	404,234	-0,043	-0,065
-462,343	78,851	-0,116	-0,089
-461,328	-32,301	-0,063	0,025
-460,313	800,000	0,037	0,079
-459,299	362,822	-0,097	0,141
-458,284	800,000	0,028	0,082
-457,270	679,802	0,061	0,115
-456,255	215,235	-0,053	-0,060
-455,241	-113,653	-0,118	-0,016
-454,226	-200,000	-0,005	-0,093
-453,211	-62,975	0,095	0,028
-452,197	-53,494	0,019	0,006
-451,182	-74,946	-0,094	-0,024
-450,168	-200,000	-0,005	-0,060
-449,153	57,534	-0,045	-0,032
-448,138	390,129	-0,012	-0,019
-447,124	-200,000	-0,055	-0,208
-446,109	-37,409	0,115	-0,044
-445,095	-111,875	-0,049	-0,007
-444,080	800,000	-0,029	-0,070
-443,065	-200,000	0,014	0,070
-442,051	-200,000	-0,005	-0,039
-441,036	800,000	-0,012	-0,028
-440,022	494,875	0,048	-0,080
-439,007	-200,000	0,019	0,066
-437,992	-118,269	0,102	-0,013
-436,978	800,000	-0,002	-0,006
-435,963	20,935	0,128	-0,074
-434,949	-200,000	-0,003	-0,068
-433,934	-147,805	-0,083	-0,005
-432,919	48,748	-0,107	0,072
-431,905	199,900	-0,033	-0,036
-430,890	-129,774	0,020	-0,002
-429,876	96,781	0,121	0,099
-428,861	246,411	-0,022	-0,027
-427,846	800,000	0,030	0,073
-426,832	-200,000	-0,029	-0,140
-425,817	-48,962	-0,141	0,048
-424,803	377,227	0,052	0,077
-423,788	-200,000	0,018	-0,063
-422,773	800,000	-0,031	0,070
-421,759	-123,869	-0,058	-0,006
-420,744	85,761	0,074	-0,058
-419,730	290,190	-0,028	-0,037
-418,715	80,839	-0,110	0,085
-417,701	123,194	-0,052	0,047
-416,686	-200,000	0,021	-0,073
-415,671	-8,777	0,134	0,064
-414,657	44,473	-0,036	0,024
-413,642	-100,719	0,074	-0,013
-412,628	2,943	-0,149	0,077
-411,613	-200,000	0,002	0,020
-410,598	-36,879	-0,109	-0,042
-409,584	-76,472	0,065	-0,016
-408,569	-149,527	0,122	0,007
-407,555	800,000	0,061	-0,129
-406,540	-127,942	-0,057	-0,006
-405,525	-122,465	0,076	-0,009
-404,511	66,870	0,058	-0,042
-403,496	-200,000	-0,005	-0,021
-402,482	20,402	-0,028	0,016
-401,467	-200,000	-0,001	-0,077
-400,452	-35,505	0,251	0,097
-399,438	800,000	0,033	0,075
-398,423	44,914	-0,025	0,017
-397,409	566,744	0,019	0,034
-396,394	-200,000	-0,005	-0,125
-395,379	387,526	0,117	-0,174
-394,365	608,408	0,050	0,090
-393,350	-200,000	0,020	0,070
-392,336	-200,000	0,020	0,107
-391,321	1,722	-0,100	-0,052
-390,306	-200,000	0,028	-0,115
-389,292	208,583	0,125	-0,140
-388,277	37,163	0,109	0,069
-387,263	-147,227	-0,112	0,007
-386,248	-9,840	0,123	0,059
-385,233	609,455	0,068	0,123
-384,219	226,051	-0,039	0,046
-383,204	-64,049	0,061	0,018
-382,190	-25,382	0,100	-0,042
-381,175	-5,059	0,127	0,062
-380,160	800,000	0,036	-0,075
-379,146	-111,197	-0,083	0,012
-378,131	404,380	0,087	0,132
-377,117	16,245	0,068	0,039
-376,102	-103,495	-0,106	-0,018
-375,088	-37,851	-0,106	0,040
-374,073	101,228	0,101	0,084
-373,058	800,000	-0,056	0,146
-372,044	-49,685	0,106	0,036
-371,029	-13,016	-0,030	-0,014
-370,015	800,000	-0,036	0,100
-369,000	800,000	-0,060	0,120
-367,985	-8,492	-0,054	-0,026
-366,971	570,145	-0,069	-0,121
-365,956	-200,000	0,001	-0,130
-364,942	-131,911	0,162	-0,015
-363,927	-38,425	0,033	-0,012
-362,912	652,454	0,062	0,115
-361,898	-55,399	-0,091	0,029
-360,883	-147,947	0,135	-0,008
-359,869	57,753	0,094	0,066
-358,854	43,966	0,067	-0,044
-357,839	-16,192	-0,045	-0,020
-356,825	148,320	0,063	-0,061
-355,810	-174,785	0,062	0,001
-354,796	115,301	-0,079	0,069
-353,781	177,692	-0,134	-0,140
-352,766	1,104	0,019	0,010
-351,752	-200,000	0,000	-0,026
-350,737	23,324	0,129	0,076
-349,723	800,000	-0,016	0,047
-348,708	800,000	-0,026	-0,053
-347,693	-162,913	-0,059	-0,002
-346,679	114,937	-0,107	0,094
-345,664	-91,435	-0,119	-0,024
-344,650	277,979	0,105	-0,135
-343,635	548,572	-0,047	-0,081
-342,620	49,553	0,035	-0,023
-341,606	-113,662	0,029	-0,004
-340,591	-158,836	-0,031	0,001
-339,577	109,023	-0,046	-0,040
-338,562	-200,000	-0,004	-0,099
-337,548	257,948	0,043	0,053
-336,533	-129,510	-0,128	-0,012
-335,518	800,000	0,014	0,042
-334,504	-200,000	0,011	0,060
-333,489	-12,842	-0,015	0,007
-332,475	304,105	0,038	0,051
-331,460	-18,392	-0,067	0,030
-330,445	800,000	-0,032	0,081
-329,431	38,791	-0,063	0,040
-328,416	46,075	-0,039	0,026
-327,402	-18,556	0,128	0,057
-326,387	113,968	-0,060	0,053
-325,372	523,769	-0,034	0,057
-324,358	800,000	-0,030	-0,060
-323,343	9,037	0,043	0,023
-322,329	-200,000	-0,013	0,087
-321,314	-160,499	0,114	-0,004
-320,299	-200,000	-0,027	0,087
-319,285	800,000	0,045	-0,116
-318,270	800,000	0,011	-0,034
-317,256	-139,205	-0,046	0,003
-316,241	365,458	0,063	-0,092
-315,226	-141,342	0,209	0,015
-314,212	-200,000	-0,015	0,205
-313,197	122,881	0,057	0,051
-312,183	252,165	0,066	0,080
-311,168	53,583	0,015	-0,010
-310,153	-102,865	-0,136	-0,023
-309,139	-200,000	0,009	0,030
-308,124	800,000	0,043	-0,120
-307,110	29,241	0,055	0,033
-306,095	21,020	0,014	-0,008
-305,080	-74,701	-0,116	-0,030
-304,066	26,723	0,060	-0,036
-303,051	61,795	-0,073	-0,052
-302,037	489,898	0,029	-0,048
-301,022	-54,110	0,070	-0,023
-300,008	78,421	0,034	0,026
-298,993	-184,371	0,078	0,001
-297,978	-74,148	-0,111	0,029
-296,964	699,357	-0,034	-0,065
-295,949	-200,000	0,009	0,053
-294,935	42,929	0,082	0,053
-293,920	85,059	-0,108	0,085
-292,905	800,000	-0,017	0,046
-291,891	-69,446	0,128	-0,035
-290,876	-200,000	-0,006	-0,022
-289,862	-64,565	-0,060	0,017
-288,847	-200,000	-0,010	-0,115
-287,832	-200,000	-0,010	-0,054
-286,818	800,000	-0,041	-0,110
-285,803	244,478	-0,036	-0,043
-284,789	-127,047	0,169	-0,017
-283,774	-27,427	0,072	0,030
-282,759	278,969	0,077	0,099
-281,745	-113,005	-0,050	-0,007
-280,730	-200,000	-0,008	-0,144
-279,716	129,818	0,042	-0,039
-278,701	101,380	-0,095	0,079
-277,686	-92,749	0,031	0,006
-276,672	382,022	0,095	0,140
-275,657	117,765	-0,071	0,063
-274,643	216,928	-0,034	-0,039
-273,628	-200,000	-0,028	0,123
-272,613	-6,474	-0,036	-0,017
-271,599	-142,413	0,065	-0,004
-270,584	-76,186	0,101	0,025
-269,570	800,000	0,026	-0,054
-268,555	-189,905	0,024	-0,000
-267,540	-35,656	-0,040	-0,016
-266,526	800,000	0,006	0,019
-265,511	153,853	0,047	0,046
-264,497	103,688	-0,061	0,051
-263,482	-114,626	0,076	-0,010
-262,467	800,000	0,052	0,104
-261,453	399,970	0,015	-0,023
-260,438	272,821	0,042	0,053
-259,424	42,217	0,117	0,076
-258,409	-89,275	-0,111	0,023
-257,395	171,333	0,060	0,062
-256,380	-10,491	0,216	0,102
-255,365	588,407	0,028	0,050
-254,351	185,760	-0,058	-0,062
-253,336	285,085	0,082	-0,105
-252,322	-200,000	-0,017	-0,075
-251,307	204,311	-0,047	0,052
-250,292	746,254	0,017	-0,032
-249,278	529,570	0,079	0,134
-248,263	-69,016	-0,044	0,012
-247,249	-116,455	0,115	-0,015
-246,234	372,614	-0,041	0,059
-245,219	723,711	-0,024	-0,045
-244,205	-200,000	0,027	-0,122
-243,190	-42,451	0,048	0,017
-242,176	-200,000	0,041	-0,141
-241,161	-200,000	0,020	-0,111
-240,146	-200,000	0,030	0,128
-239,132	-200,000	0,003	0,033
-238,117	1,913	-0,080	-0,041
-237,103	-200,000	0,001	0,010
-236,088	12,529	0,114	0,063
-235,073	33,972	0,160	0,099
-234,059	2,869	0,063	-0,032
-233,044	531,864	-0,051	0,086
-232,030	162,446	0,061	0,061
-231,015	13,844	0,110	0,061
-230,000	-200,000	-0,034	-0,123
-228,986	356,683	-0,013	0,019
-227,971	-103,819	0,070	0,012
-226,957	185,651	-0,028	0,030
-225,942	170,769	0,106	-0,108
-224,927	-200,000	-0,045	-0,192
-223,913	-35,836	0,066	-0,025
-222,898	800,000	-0,043	-0,132
-221,884	-200,000	-0,005	-0,143
-220,869	800,000	-0,027	-0,060
-219,855	800,000	0,046	-0,139
-218,840	-103,475	-0,077	0,013
-217,825	32,763	-0,108	-0,066
-216,811	728,970	-0,063	-0,120
-215,796	-200,000	-0,003	0,038
-214,782	-106,298	0,052	-0,008
-213,767	-127,218	0,100	-0,010
-212,752	-16,580	0,067	0,030
-211,738	44,600	0,123	0,080
-210,723	800,000	0,059	0,119
-209,709	220,157	0,048	0,055
-208,694	-124,556	0,057	-0,006
-207,679	800,000	-0,009	0,028
-206,665	-78,982	0,116	-0,028
-205,650	148,179	-0,088	0,085
-204,636	-86,341	0,203	0,044
-203,621	-85,899	-0,107	0,023
-202,606	74,785	-0,083	-0,062
-201,592	-1,501	-0,086	-0,043
-200,577	-58,709	-0,116	-0,035
-199,563	-133,219	0,165	0,015
-198,548	-200,000	0,025	0,107
-197,533	800,000	0,028	-0,071
-196,519	154,030	-0,026	0,025
-195,504	-92,083	0,058	-0,012
-194,490	-26,174	0,084	-0,035
-193,475	466,644	0,058	-0,093
-192,460	15,553	-0,037	-0,021
-191,446	52,961	-0,045	0,031
-190,431	800,000	-0,050	0,120
-189,417	-62,559	0,136	-0,040
-188,402	-200,000	-0,025	0,171
-187,387	29,715	-0,056	0,034
-186,373	-131,924	-0,069	-0,006
-185,358	800,000	-0,006	0,014
-184,344	-91,935	0,020	-0,004
-183,329	154,495	0,081	0,079
-182,315	800,000	0,019	0,041
-181,300	-147,579	-0,186	-0,011
-180,285	-61,271	-0,009	0,003
-179,271	57,175	-0,066	0,046
-178,256	120,645	-0,050	-0,044
-177,242	-72,891	0,185	0,048
-176,227	106,820	0,073	0,062
-175,212	-187,849	-0,075	0,001
-174,198	-200,000	0,031	-0,168
-173,183	800,000	0,058	-0,121
-172,169	757,470	-0,078	-0,152
-171,154	216,493	-0,047	0,053
-170,139	-25,051	0,093	0,039
-169,125	-138,208	-0,023	0,002
-168,110	77,755	-0,008	0,006
-167,096	-132,767	-0,139	-0,012
-166,081	800,000	0,040	-0,088
-165,066	62,024	-0,041	0,029
-164,052	800,000	-0,013	0,028
-163,037	-38,740	0,100	-0,037
-162,023	-146,423	-0,050	0,003
-161,008	21,109	0,048	0,027
-159,993	159,384	-0,103	0,102
-158,979	-200,000	-0,004	-0,011
-157,964	249,896	-0,071	0,085
-156,950	800,000	-0,019	0,038
-155,935	279,501	-0,023	-0,029
-154,920	588,687	-0,043	0,076
-153,906	20,620	0,046	-0,026
-152,891	557,677	-0,065	0,111
-151,877	68,907	-0,175	0,127
-150,862	-200,000	-0,006	0,194
-149,847	33,415	-0,075	0,046
-148,833	-1,471	0,046	-0,023
-147,818	-79,654	0,175	0,042
-146,804	800,000	0,053	0,109
-145,789	-54,020	-0,042	0,014
-144,775	-97,965	0,116	0,021
-143,760	-186,079	0,078	0,001
-142,745	267,480	0,114	-0,142
-141,731	800,000	0,059	-0,156
-140,716	672,859	0,024	-0,045
-139,702	800,000	-0,042	-0,114
-138,687	-9,662	-0,055	0,026
-137,672	-106,615	-0,143	-0,022
-136,658	-62,727	-0,088	0,026
-135,643	-200,000	0,008	-0,042
-134,629	47,501	-0,100	0,066
-133,614	54,281	0,098	0,067
-132,599	-200,000	0,018	0,078
-131,585	-200,000	-0,014	0,145
-130,570	-66,287	-0,084	-0,024
-129,556	-200,000	0,004	0,068
-128,541	210,204	0,130	-0,145
-127,526	-46,605	-0,015	-0,005
-126,512	-135,434	-0,031	0,003
-125,497	800,000	-0,028	0,067
-124,483	-42,713	0,073	-0,026
-123,468	-103,147	-0,109	-0,018
-122,453	-200,000	0,025	-0,174
-121,439	-130,558	-0,123	0,012
-120,424	-200,000	-0,008	-0,067
-119,410	800,000	-0,054	-0,165
-118,395	-200,000	0,021	-0,123
-117,380	4,652	0,157	0,081
-116,366	-143,939	-0,037	-0,002
-115,351	35,664	0,047	0,029
-114,337	663,742	-0,052	-0,095
-113,322	662,496	0,057	0,105
-112,307	606,729	0,063	-0,112
-111,293	-200,000	-0,002	-0,040
-110,278	313,396	-0,094	0,126
-109,264	-26,419	-0,033	0,014
-108,249	-200,000	0,002	0,129
-107,234	77,348	-0,079	-0,060
-106,220	-101,411	-0,165	0,028
-105,205	-168,916	0,086	-0,002
-104,191	131,915	0,046	-0,042
-103,176	480,078	0,023	-0,038
-102,162	174,392	0,032	-0,033
-101,147	-48,886	0,093	-0,031
-100,132	-133,634	-0,122	-0,011
-99,118	800,000	-0,043	-0,113
-98,103	320,326	-0,028	0,037
-97,089	166,558	0,067	0,068
-96,074	-200,000	0,008	0,112
-95,059	112,582	0,092	0,079
-94,045	72,442	-0,072	0,053
-93,030	-71,078	-0,096	0,025
-92,016	800,000	-0,049	-0,114
-91,001	273,741	-0,115	-0,144
-89,986	800,000	0,026	-0,051
-88,972	-83,527	-0,110	0,025
-87,957	-125,508	-0,075	-0,008
-86,943	465,951	-0,108	0,172
-85,928	532,780	0,011	0,018
-84,913	277,210	-0,048	0,060
-83,899	-200,000	-0,006	0,028
-82,884	358,872	0,013	-0,018
-81,870	-61,740	0,128	-0,038
-80,855	379,111	-0,057	-0,082
-79,840	-2,589	-0,059	0,029
-78,826	556,708	-0,031	-0,053
-77,811	-200,000	0,001	0,087
-76,797	107,277	0,051	-0,043
-75,782	124,938	-0,109	0,098
-74,767	-200,000	-0,019	0,060
-73,753	-9,961	0,025	-0,012
-72,738	-200,000	0,001	0,006
-71,724	55,171	-0,145	-0,100
-70,709	52,150	0,034	0,023
-69,694	702,405	0,023	0,042
-68,680	668,697	-0,039	-0,071
-67,665	211,485	0,063	0,071
-66,651	-200,000	-0,022	0,076
-65,636	776,501	-0,060	-0,117
-64,622	2,174	-0,117	-0,060
-63,607	48,052	-0,099	0,065
-62,592	220,519	-0,143	-0,163
-61,578	345,827	-0,085	0,119
-60,563	-43,856	0,145	0,051
-59,549	-200,000	0,011	0,058
-58,534	-40,277	-1,679	-0,616
-57,519	336,299	-1,450	-1,999
-56,505	-200,000	-0,553	-4,516
-55,490	205,336	0,884	0,974
-54,476	800,000	4,977	11,308
-53,461	-200,000	18,597	305,350
-52,446	800,000	736,523	2292,965
-51,432	566,641	1652,679	2851,887
-50,417	78,932	1670,095	1264,933
-49,403	22,136	1542,801	889,575
-48,388	16,063	1465,799	815,671
-47,373	17,751	1455,788	818,218
-46,359	16,887	1446,027	808,560
-45,344	14,324	1441,364	793,647
-44,330	14,198	1439,470	791,970
-43,315	14,239	1437,494	791,045
-42,300	14,219	1436,241	790,231
-41,286	14,244	1435,003	789,638
-40,271	14,258	1433,401	788,791
-39,257	14,238	1432,327	788,075
-38,242	14,253	1431,107	787,443
-37,227	14,280	1429,927	786,888
-36,213	14,289	1428,642	786,195
-35,198	14,266	1427,384	785,359
-34,184	14,293	1426,516	784,981
-33,169	14,267	1424,987	783,984
-32,154	14,242	1424,089	783,342
-31,140	14,260	1422,825	782,698
-30,125	14,250	1421,787	782,050
-29,111	14,247	1420,518	781,307
-28,096	14,257	1419,433	780,728
-27,082	14,177	1418,526	779,822
-26,067	14,207	1417,316	779,267
-25,052	14,195	1416,283	778,610
-24,038	14,137	1415,547	777,900
-23,023	14,156	1414,247	777,246
-22,009	14,133	1413,437	776,662
-20,994	14,110	1412,442	775,978
-19,979	14,120	1411,612	775,538
-18,965	14,092	1410,411	774,714
-17,950	14,154	1409,475	774,459
-16,936	14,091	1408,660	773,685
-15,921	14,064	1407,479	772,883
-14,906	14,118	1406,667	772,654
-13,892	14,112	1405,668	772,050
-12,877	14,082	1404,815	771,412
-11,863	14,087	1404,114	771,019
-10,848	14,078	1403,110	770,395
-9,833	14,043	1402,355	769,785
-8,819	14,030	1401,382	769,162
-7,804	13,997	1400,513	768,499
-6,790	14,009	1399,340	767,880
-5,775	14,015	1398,196	767,252
-4,760	13,945	1397,415	766,467
-3,746	13,972	1396,469	766,043
-2,731	13,948	1395,941	765,610
-1,717	13,951	1395,080	765,122
-0,702	13,990	1393,153	764,215
0,313	17,731	1311,013	736,532
1,327	33,833	705,983	433,941
2,342	51,665	124,206	83,467
3,356	3,169	16,657	8,546
4,371	12,738	3,134	1,708
5,386	-8,399	0,528	0,250
6,400	800,000	0,110	0,250
7,415	38,688	-0,192	-0,121
8,429	205,775	-0,137	-0,151
9,444	186,987	-0,250	-0,264
10,459	92,174	-0,255	-0,203
11,473	157,960	-0,253	-0,248
12,488	-32,286	-0,279	-0,109
13,502	-66,285	-0,396	-0,111
14,517	8,756	-0,257	-0,136
15,531	106,461	-0,246	-0,207
16,546	-30,493	-0,323	-0,129
17,561	223,802	-0,367	-0,419
18,575	-72,056	-0,333	-0,087
19,590	208,666	-0,226	-0,250
20,604	-123,099	-0,192	0,022
21,619	13,861	-0,544	-0,298
22,634	18,755	-0,460	-0,260
23,648	-8,819	-0,412	-0,195
24,663	487,183	-0,219	-0,354
25,677	34,281	-0,390	-0,240
26,692	-12,621	-0,451	-0,207
27,707	70,344	-0,378	-0,275
28,721	45,265	-0,452	-0,294
29,736	63,438	-0,425	-0,300
30,750	201,417	-0,275	-0,299
31,765	108,473	-0,392	-0,330
32,780	4,649	-0,389	-0,201
33,794	53,665	-0,277	-0,187
34,809	95,132	-0,354	-0,285
35,823	13,147	-0,328	-0,179
36,838	128,614	-0,361	-0,324
37,853	271,144	-0,281	-0,350
38,867	169,680	-0,320	-0,323
39,882	59,496	-0,198	-0,137
40,896	137,379	-0,238	-0,220
41,911	3,799	-0,284	-0,146
42,926	-61,742	-0,497	-0,146
43,940	109,728	-0,340	-0,287
44,955	15,079	-0,439	-0,242
45,969	117,779	-0,425	-0,369
46,984	50,855	-0,319	-0,213
47,999	-40,146	-0,324	-0,118
49,013	66,061	-0,330	-0,236
50,028	175,854	-0,282	-0,289
51,042	66,036	-0,418	-0,299
52,057	-152,628	-0,361	0,018
53,071	236,303	-0,330	-0,386
54,086	246,897	-0,263	-0,313
55,101	56,670	-0,261	-0,179
56,115	82,445	-0,295	-0,226
57,130	2,636	-0,359	-0,183
58,144	-7,540	-0,426	-0,202
59,159	46,189	-0,337	-0,220
60,174	8,200	-0,353	-0,186
61,188	145,807	-0,335	-0,316
62,203	-2,797	-0,317	-0,155
63,217	111,595	-0,314	-0,267
64,232	-26,839	-0,356	-0,146
65,247	156,751	-0,330	-0,321
66,261	145,989	-0,352	-0,333
67,276	-13,486	-0,395	-0,179
68,290	83,178	-0,337	-0,258
69,305	23,239	-0,359	-0,207
70,320	-16,682	-0,407	-0,180
71,334	-71,776	-0,277	-0,072
72,349	122,181	-0,315	-0,277
73,363	31,480	-0,335	-0,202
74,378	-21,885	-0,373	-0,159
75,393	11,815	-0,411	-0,221
76,407	-22,893	-0,346	-0,146
77,422	111,978	-0,258	-0,219
78,436	-76,765	-0,319	-0,078
79,451	36,070	-0,357	-0,220
80,466	39,774	-0,317	-0,200
81,480	78,347	-0,300	-0,225
82,495	-5,935	-0,331	-0,158
83,509	-135,193	-0,344	0,029
84,524	25,935	-0,334	-0,195
85,539	13,381	-0,296	-0,161
86,553	273,556	-0,228	-0,284
87,568	-17,340	-0,299	-0,132
88,582	71,819	-0,242	-0,177
89,597	102,280	-0,263	-0,216
90,611	54,196	-0,276	-0,186
91,626	70,288	-0,358	-0,259
92,641	53,569	-0,240	-0,162
93,655	242,854	-0,261	-0,308
94,670	-59,544	-0,297	-0,089
95,684	0,942	-0,292	-0,146
96,699	25,782	-0,328	-0,192
97,714	-0,369	-0,159	-0,079
98,728	-31,506	-0,242	-0,095
99,743	-52,943	-0,187	-0,060
100,757	-90,331	-0,336	-0,068
101,772	713,172	-0,198	-0,369
102,787	148,089	-0,270	-0,256
103,801	388,642	-0,183	-0,266
104,816	115,717	-0,186	-0,159
105,830	-58,851	-0,365	-0,110
106,845	-36,987	-0,224	-0,084
107,860	-57,637	-0,220	-0,067
108,874	525,296	-0,190	-0,315
109,889	47,660	-0,381	-0,249
110,903	-97,192	-0,356	-0,065
111,918	354,486	-0,211	-0,295
112,933	-88,157	-0,212	-0,044
113,947	556,369	-0,161	-0,273
114,962	105,457	-0,277	-0,229
115,976	25,291	-0,342	-0,198
116,991	36,580	-0,317	-0,196
118,006	231,551	-0,267	-0,308
119,020	22,487	-0,322	-0,184
120,035	148,804	-0,170	-0,161
121,049	36,512	-0,241	-0,149
122,064	-149,237	-0,378	-0,021
123,079	-126,231	-0,324	-0,034
124,093	-13,612	-0,332	-0,150
125,108	35,517	-0,281	-0,172
126,122	28,089	-0,295	-0,174
127,137	163,920	-0,220	-0,217
128,151	166,152	-0,331	-0,328
129,166	-8,572	-0,347	-0,163
130,181	62,878	-0,280	-0,196
131,195	86,182	-0,260	-0,200
132,210	55,344	-0,199	-0,135
133,224	144,344	-0,229	-0,214
134,239	58,014	-0,299	-0,204
135,254	106,176	-0,262	-0,217
136,268	306,682	-0,184	-0,241
137,283	-86,694	-0,202	-0,043
138,297	41,294	-0,309	-0,195
139,312	107,063	-0,300	-0,249
140,327	223,449	-0,288	-0,326
141,341	192,096	-0,205	-0,216
142,356	77,954	-0,164	-0,122
143,370	-0,303	-0,240	-0,119
144,385	243,642	-0,231	-0,272
145,400	-5,270	-0,195	-0,093
146,414	50,489	-0,307	-0,203
147,429	19,683	-0,282	-0,158
148,443	258,158	-0,203	-0,245
149,458	368,974	-0,112	-0,159
150,473	172,413	-0,103	-0,104
151,487	217,792	-0,177	-0,198
152,502	532,348	-0,212	-0,352
153,516	50,649	-0,415	-0,274
154,531	21,626	-0,308	-0,175
155,546	302,267	-0,177	-0,229
156,560	425,227	-0,186	-0,280
157,575	0,319	-0,368	-0,183
158,589	47,152	-0,250	-0,162
159,604	100,012	-0,318	-0,257
160,619	40,630	-0,289	-0,182
161,633	126,037	-0,182	-0,161
162,648	58,223	-0,244	-0,166
163,662	53,679	-0,223	-0,149
164,677	-200,000	-0,045	-0,157
165,692	59,988	-0,242	-0,166
166,706	57,086	-0,293	-0,199
167,721	81,557	-0,173	-0,131
168,735	100,946	-0,277	-0,225
169,750	-60,377	-0,346	-0,102
170,764	187,665	-0,153	-0,160
171,779	57,410	-0,235	-0,160
172,794	210,461	-0,136	-0,149
173,808	-62,912	-0,218	-0,062
174,823	416,715	-0,181	-0,270
175,837	305,449	-0,233	-0,303
176,852	318,351	-0,115	-0,152
177,867	-88,657	-0,223	-0,046
178,881	447,322	-0,155	-0,239
179,896	134,772	-0,124	-0,112
180,910	-85,187	-0,117	-0,025
181,925	3,253	-0,253	-0,128
182,940	141,352	-0,264	-0,243
183,954	53,847	-0,245	-0,164
184,969	22,906	-0,178	-0,101
185,983	216,110	-0,100	-0,111
186,998	-164,102	-0,235	-0,007
188,013	36,416	-0,192	-0,118
189,027	225,046	-0,204	-0,230
190,042	102,495	-0,285	-0,232
191,056	81,617	-0,291	-0,219
192,071	40,678	-0,119	-0,075
193,086	106,019	-0,201	-0,166
194,100	-152,863	-0,111	-0,005
195,115	80,691	-0,156	-0,117
196,129	-4,060	-0,346	-0,166
197,144	130,060	-0,274	-0,244
198,159	262,493	-0,134	-0,162
199,173	67,100	-0,286	-0,203
200,188	45,587	-0,234	-0,150
201,202	-28,613	-0,331	-0,132
202,217	-48,449	-0,181	-0,060
203,232	152,276	-0,285	-0,271
204,246	59,552	-0,128	-0,088
205,261	196,418	-0,218	-0,231
206,275	-200,000	-0,078	-0,253
207,290	50,457	-0,188	-0,123
208,304	-80,399	-0,089	-0,020
209,319	47,133	-0,216	-0,139
210,334	82,112	-0,244	-0,184
211,348	155,363	-0,246	-0,235
212,363	219,419	-0,180	-0,200
213,377	800,000	-0,124	-0,300
214,392	50,203	-0,293	-0,192
215,407	-179,387	-0,135	-0,002
216,421	-9,830	-0,167	-0,077
217,436	-151,781	-0,070	-0,004
218,450	-149,079	-0,283	-0,016
219,465	144,587	-0,161	-0,150
220,480	-56,453	-0,187	-0,057
221,494	248,366	-0,149	-0,176
222,509	206,191	-0,141	-0,153
223,523	14,462	-0,189	-0,102
224,538	-114,804	-0,261	-0,034
225,553	754,256	-0,115	-0,216
226,567	-200,000	-0,036	-0,174
227,582	181,985	-0,136	-0,139
228,596	10,884	-0,222	-0,117
229,611	566,735	-0,096	-0,162
230,626	30,884	-0,249	-0,148
231,640	25,808	-0,185	-0,107
232,655	456,887	-0,154	-0,238
233,669	22,847	-0,247	-0,140
234,684	-84,629	-0,190	-0,041
235,699	800,000	-0,080	-0,189
236,713	75,119	-0,114	-0,083
237,728	-144,528	-0,284	0,018
238,742	-23,642	-0,111	-0,046
239,757	372,020	-0,129	-0,182
240,772	-56,748	-0,266	-0,081
241,786	6,637	-0,106	-0,054
242,801	-122,790	-0,149	0,016
243,815	-110,945	-0,105	-0,015
244,830	-90,632	-0,203	0,040
245,844	56,935	-0,234	-0,158
246,859	92,675	-0,270	-0,211
247,874	331,734	-0,230	-0,308
248,888	97,259	-0,235	-0,187
249,903	144,228	-0,228	-0,211
250,917	235,636	-0,075	-0,085
251,932	153,596	-0,187	-0,178
252,947	587,188	-0,095	-0,162
253,961	427,145	-0,129	-0,193
254,976	324,194	-0,113	-0,149
255,990	-200,000	-0,073	-0,301
257,005	-12,006	-0,213	-0,096
258,020	196,976	-0,213	-0,226
259,034	68,009	-0,195	-0,138
260,049	375,680	-0,108	-0,153
261,063	-75,558	-0,251	-0,061
262,078	181,795	-0,233	-0,238
263,093	35,780	-0,231	-0,140
264,107	103,390	-0,170	-0,138
265,122	-56,706	-0,148	0,045
266,136	-98,037	-0,142	-0,025
267,151	-8,524	-0,125	-0,058
268,166	142,077	-0,161	-0,148
269,180	150,483	-0,200	-0,188
270,195	-92,111	-0,221	-0,043
271,209	800,000	-0,046	-0,128
272,224	-40,304	-0,126	-0,045
273,239	-119,557	-0,185	-0,022
274,253	61,108	-0,111	-0,076
275,268	294,686	-0,114	-0,145
276,282	800,000	-0,071	-0,149
277,297	125,436	-0,203	-0,177
278,312	266,541	-0,072	-0,087
279,326	116,200	-0,126	-0,107
280,341	800,000	-0,064	-0,125
281,355	-63,182	-0,224	-0,063
282,370	81,742	-0,193	-0,144
283,384	93,115	-0,134	-0,105
284,399	-0,583	-0,174	-0,085
285,414	-112,046	-0,178	-0,024
286,428	256,603	-0,153	-0,182
287,443	-36,738	-0,024	0,009
288,457	-123,829	-0,134	0,014
289,472	-69,493	-0,223	-0,059
290,487	-111,744	-0,127	-0,018
291,501	-1,724	-0,206	-0,100
292,516	-18,306	-0,261	-0,112
293,530	-98,200	-0,281	-0,049
294,545	27,434	-0,252	-0,146
295,560	-123,062	-0,134	0,015
296,574	-145,687	-0,083	-0,005
297,589	117,422	-0,163	-0,138
298,603	103,508	-0,147	-0,119
299,618	225,356	-0,149	-0,166
300,633	213,055	-0,131	-0,143
301,647	223,820	-0,117	-0,131
302,662	218,472	-0,084	0,093
303,676	323,945	-0,062	0,082
304,691	-200,000	-0,019	-0,092
305,706	-200,000	-0,010	-0,054
306,720	-71,354	-0,133	-0,034
307,735	-200,000	0,024	-0,075
308,749	800,000	-0,051	-0,116
309,764	-36,850	-0,204	-0,075
310,779	34,012	-0,108	0,065
311,793	57,623	-0,158	-0,106
312,808	-29,663	-0,281	-0,110
313,822	253,244	-0,147	-0,173
314,837	137,469	-0,146	-0,131
315,852	800,000	-0,060	-0,162
316,866	470,634	-0,068	-0,105
317,881	-32,911	-0,137	-0,052
318,895	49,181	-0,252	-0,163
319,910	133,403	-0,119	-0,106
320,925	-31,155	-0,168	-0,065
321,939	306,010	-0,124	-0,159
322,954	-117,841	-0,100	0,012
323,968	-23,864	-0,137	-0,056
324,983	725,642	-0,066	-0,122
325,997	227,214	-0,162	-0,181
327,012	213,553	-0,131	-0,142
328,027	185,494	-0,054	-0,055
329,041	51,057	-0,201	-0,131
330,056	-127,260	-0,225	-0,022
331,070	-6,692	-0,191	-0,089
332,085	40,053	-0,148	-0,091
333,100	134,460	-0,168	-0,150
334,114	-79,242	-0,129	0,030
335,129	-72,236	-0,195	-0,049
336,143	800,000	-0,078	-0,228
337,158	500,347	-0,083	-0,131
338,173	282,902	-0,081	-0,100
339,187	-200,000	-0,037	-0,138
340,202	152,695	-0,182	-0,171
341,216	212,454	-0,152	-0,165
342,231	95,031	-0,188	-0,147
343,246	800,000	-0,071	-0,161
344,260	21,397	-0,069	-0,038
345,275	800,000	-0,037	-0,094
346,289	800,000	0,011	-0,024
347,304	-15,382	-0,209	-0,091
348,319	3,344	-0,177	-0,088
349,333	178,067	-0,205	-0,206
350,348	-99,778	-0,137	0,023
351,362	-122,604	-0,126	0,014
352,377	292,962	-0,090	-0,113
353,392	-200,000	-0,000	-0,096
354,406	-138,866	-0,139	-0,010
355,421	207,711	1315,713	1411,361
356,435	159,790	1476,564	1411,848
