DTS Sentinel unit serial number:	SN410029Multiplexer serial number:	ORYXHardware model number:	OX2-SRSoftware version number:	ORYX F/W v4,00 Oryx Data Collector v3.7.2.0data status	okinstallation	B3 Nyhavnadifferential loss correction	single-endedforward channel	channel 1reverse channel	N/Adate	2023/11/30time	05:37:30forward acquisition time	300,00reverse acquisition time	0,00gamma	499,1914k internal	0,3211k external	0,3211temperature offset calibration	1,0000default loss term (dB/km)	0,3820temperature slope calibration	1,0000multiplexer offset coefficient	1,0000multiplexer slope coefficient	1,0000fibre end	0,00T internal ref (°C)	10,25T ext. ref 1 (°C)	-5,01T ext. ref 2 (°C)	-5,10length (m)	temperature (°C)	Stokes	anti-Stokes-744,400	763,761	-0,118	-0,233
-743,385	-200,000	0,036	0,196
-742,371	800,000	-0,083	-0,210
-741,356	-200,000	0,014	0,308
-740,342	-96,798	-0,154	-0,029
-739,327	701,725	-0,148	0,284
-738,312	371,769	-0,166	-0,245
-737,298	-200,000	-0,036	0,341
-736,283	-200,000	0,046	-0,289
-735,269	-200,000	0,084	0,343
-734,254	271,400	-0,221	-0,283
-733,239	91,244	-0,212	0,172
-732,225	571,505	-0,112	-0,199
-731,210	59,521	0,204	0,145
-730,196	120,704	0,115	-0,104
-729,181	-200,000	0,001	-0,042
-728,167	70,486	-0,066	-0,050
-727,152	31,040	-0,107	0,066
-726,137	-139,367	0,123	-0,009
-725,123	237,541	0,017	0,020
-724,108	506,069	-0,074	-0,126
-723,094	-36,580	-0,189	-0,073
-722,079	-200,000	0,027	-0,090
-721,064	-28,884	-0,125	0,052
-720,050	317,053	-0,085	0,117
-719,035	423,622	-0,060	0,094
-718,021	276,805	-0,154	-0,199
-717,006	-200,000	0,013	0,068
-715,991	134,780	-0,082	0,077
-714,977	120,677	-0,091	-0,082
-713,962	25,997	0,056	0,034
-712,948	-200,000	0,002	0,049
-711,933	491,492	-0,042	-0,070
-710,918	-24,064	-0,041	0,018
-709,904	-200,000	0,025	-0,110
-708,889	-15,770	-0,051	-0,024
-707,875	284,996	-0,020	0,026
-706,860	129,045	0,094	0,087
-705,845	-200,000	0,030	0,157
-704,831	49,634	-0,065	-0,044
-703,816	-83,665	-0,057	-0,013
-702,802	800,000	-0,032	-0,099
-701,787	-200,000	-0,035	-0,116
-700,772	10,522	-0,036	0,020
-699,758	-200,000	-0,026	-0,095
-698,743	-200,000	-0,018	-0,081
-697,729	-200,000	-0,014	-0,056
-696,714	-200,000	-0,018	0,160
-695,699	79,725	-0,072	-0,056
-694,685	-140,841	-0,065	0,005
-693,670	800,000	-0,016	0,032
-692,656	-200,000	0,002	0,076
-691,641	468,123	-0,032	0,052
-690,627	800,000	0,038	-0,085
-689,612	-63,614	-0,048	-0,014
-688,597	209,195	-0,079	-0,090
-687,583	579,294	-0,057	-0,102
-686,568	-63,490	-0,078	0,023
-685,554	-39,129	-0,085	0,032
-684,539	800,000	0,070	-0,143
-683,524	-62,605	0,074	0,022
-682,510	800,000	0,026	-0,055
-681,495	43,418	0,018	0,012
-680,481	150,742	-0,093	-0,091
-679,466	800,000	-0,065	-0,158
-678,451	-87,139	-0,098	-0,021
-677,437	800,000	0,070	-0,164
-676,422	-200,000	-0,002	-0,099
-675,408	-80,537	0,051	0,012
-674,393	-200,000	0,014	-0,075
-673,378	38,857	-0,101	0,065
-672,364	-23,293	-0,187	0,081
-671,349	-74,717	-0,068	0,018
-670,335	-200,000	0,029	-0,159
-669,320	-103,028	0,089	-0,015
-668,305	212,912	0,030	-0,034
-667,291	-200,000	-0,035	-0,254
-666,276	-200,000	0,017	-0,075
-665,262	-101,221	-0,110	-0,019
-664,247	153,709	-0,085	-0,085
-663,232	-21,029	0,040	0,017
-662,218	292,235	0,032	0,043
-661,203	109,355	-0,110	0,095
-660,189	371,936	0,012	0,018
-659,174	557,632	-0,020	-0,035
-658,159	-65,204	-0,117	-0,034
-657,145	-200,000	0,011	0,159
-656,130	206,315	0,082	-0,093
-655,116	-64,521	0,101	-0,030
-654,101	-200,000	0,002	0,107
-653,086	800,000	-0,031	-0,064
-652,072	-120,845	-0,125	-0,015
-651,057	800,000	-0,010	-0,030
-650,043	249,461	-0,039	-0,048
-649,028	800,000	-0,034	-0,077
-648,014	-105,099	0,169	0,028
-646,999	800,000	-0,040	0,101
-645,984	140,495	-0,114	0,108
-644,970	-46,548	0,160	-0,056
-643,955	-142,435	-0,111	-0,008
-642,941	800,000	-0,079	-0,194
-641,926	-20,881	-0,092	-0,040
-640,911	-26,676	-0,061	-0,026
-639,897	19,098	-0,084	0,049
-638,882	-200,000	-0,033	0,114
-637,868	305,176	0,049	-0,066
-636,853	496,473	0,080	-0,133
-635,838	-105,596	-0,065	0,011
-634,824	-200,000	0,003	-0,096
-633,809	-35,019	-0,093	-0,036
-632,795	-2,048	0,131	0,066
-631,780	643,794	0,014	-0,026
-630,765	26,438	-0,018	-0,011
-629,751	800,000	-0,033	-0,072
-628,736	-200,000	0,002	-0,100
-627,722	-200,000	-0,010	-0,041
-626,707	15,774	0,102	0,058
-625,692	800,000	-0,106	0,214
-624,678	217,409	-0,055	-0,063
-623,663	-200,000	-0,032	0,111
-622,649	800,000	-0,002	-0,005
-621,634	86,927	-0,108	-0,086
-620,619	-143,827	0,081	0,005
-619,605	-139,218	0,089	0,007
-618,590	-200,000	-0,009	-0,031
-617,576	53,801	0,118	-0,082
-616,561	524,582	-0,025	-0,042
-615,546	800,000	-0,032	-0,074
-614,532	800,000	0,049	-0,111
-613,517	255,790	-0,080	-0,099
-612,503	-80,293	-0,036	-0,009
-611,488	-200,000	-0,001	-0,066
-610,474	-37,734	0,086	0,033
-609,459	-51,724	-0,142	0,047
-608,444	40,008	0,029	-0,019
-607,430	488,018	-0,108	-0,178
-606,415	-200,000	-0,011	-0,080
-605,401	-200,000	-0,015	0,090
-604,386	-200,000	0,001	0,054
-603,371	210,678	0,085	0,096
-602,357	-200,000	0,009	-0,050
-601,342	331,582	-0,088	0,122
-600,328	-200,000	-0,002	0,052
-599,313	-99,926	0,061	-0,011
-598,298	-200,000	0,001	-0,012
-597,284	-101,896	0,097	-0,017
-596,269	663,250	-0,036	0,067
-595,255	-200,000	-0,014	-0,134
-594,240	35,940	-0,112	-0,071
-593,225	-200,000	0,029	-0,099
-592,211	-99,828	-0,063	0,011
-591,196	653,412	0,013	-0,024
-590,182	138,419	0,168	-0,159
-589,167	-200,000	-0,030	0,115
-588,152	-200,000	-0,063	0,202
-587,138	19,277	0,106	-0,061
-586,123	-14,889	0,014	-0,006
-585,109	-150,822	-0,106	-0,006
-584,094	101,397	-0,088	-0,074
-583,079	800,000	0,000	-0,001
-582,065	-200,000	0,005	0,032
-581,050	37,676	0,104	0,066
-580,036	121,532	0,107	0,096
-579,021	-200,000	0,004	0,066
-578,006	-85,719	0,021	0,005
-576,992	800,000	0,023	0,047
-575,977	-140,956	0,063	0,005
-574,963	23,614	0,040	-0,023
-573,948	571,565	0,009	-0,016
-572,934	88,354	-0,071	0,057
-571,919	227,126	-0,103	-0,121
-570,904	-200,000	0,004	-0,123
-569,890	-200,000	0,017	0,082
-568,875	-151,041	-0,048	-0,003
-567,861	136,958	0,051	-0,048
-566,846	-68,992	-0,034	-0,009
-565,831	-200,000	-0,003	0,141
-564,817	-200,000	0,008	0,038
-563,802	128,254	-0,077	-0,070
-562,788	34,490	-0,018	0,011
-561,773	49,852	-0,076	-0,052
-560,758	19,524	0,047	-0,027
-559,744	491,263	0,086	0,142
-558,729	84,558	-0,128	0,100
-557,715	-60,986	0,037	-0,011
-556,700	272,493	-0,043	-0,055
-555,685	800,000	-0,018	0,044
-554,671	-1,802	-0,044	0,022
-553,656	-200,000	-0,013	0,140
-552,642	-200,000	0,007	0,062
-551,627	365,412	0,018	0,026
-550,612	120,787	0,108	-0,097
-549,598	215,458	-0,063	-0,072
-548,583	-67,382	0,076	-0,021
-547,569	64,156	-0,067	0,048
-546,554	-200,000	-0,010	0,049
-545,539	222,765	0,097	0,113
-544,525	76,154	-0,075	0,057
-543,510	733,639	0,017	0,033
-542,496	-34,532	-0,066	-0,026
-541,481	-200,000	-0,002	-0,018
-540,466	47,421	-0,091	0,061
-539,452	-87,967	0,093	0,020
-538,437	3,092	-0,036	0,019
-537,423	-68,067	-0,073	-0,020
-536,408	478,078	0,073	-0,120
-535,393	-83,131	-0,059	-0,013
-534,379	-200,000	-0,016	-0,070
-533,364	44,877	0,049	-0,033
-532,350	-200,000	-0,025	0,134
-531,335	-200,000	0,030	0,102
-530,321	-60,044	0,065	-0,020
-529,306	152,075	-0,076	-0,075
-528,291	800,000	0,043	-0,112
-527,277	800,000	-0,051	-0,128
-526,262	-48,299	-0,007	0,003
-525,248	134,652	-0,075	0,070
-524,233	-100,913	-0,024	-0,004
-523,218	800,000	0,014	-0,043
-522,204	402,227	0,029	-0,044
-521,189	-200,000	0,026	-0,211
-520,175	50,837	0,064	0,044
-519,160	519,505	-0,088	-0,149
-518,145	-183,926	-0,086	0,001
-517,131	2,189	0,053	0,028
-516,116	125,639	0,063	0,057
-515,102	-105,854	0,131	0,021
-514,087	9,583	-0,132	0,072
-513,072	138,113	0,144	-0,136
-512,058	197,001	-0,101	-0,111
-511,043	-84,452	0,087	0,019
-510,029	-200,000	-0,000	-0,009
-509,014	-106,397	-0,077	0,012
-507,999	142,483	0,066	0,063
-506,985	155,117	-0,030	-0,029
-505,970	-200,000	0,008	0,049
-504,956	-46,792	-0,064	-0,023
-503,941	-200,000	0,022	-0,081
-502,926	-65,730	0,050	-0,014
-501,912	261,185	0,046	-0,057
-500,897	800,000	0,054	0,141
-499,883	800,000	-0,044	-0,090
-498,868	-68,903	0,138	0,038
-497,853	-200,000	-0,029	-0,158
-496,839	-200,000	0,034	-0,157
-495,824	-200,000	0,015	-0,049
-494,810	800,000	-0,050	0,140
-493,795	296,504	0,097	0,127
-492,781	-200,000	-0,002	0,019
-491,766	-85,617	-0,073	-0,016
-490,751	800,000	-0,048	-0,128
-489,737	-129,687	-0,085	-0,008
-488,722	-29,563	0,030	0,012
-487,708	-47,530	0,237	0,082
-486,693	-200,000	-0,029	-0,101
-485,678	800,000	0,048	-0,122
-484,664	-43,050	0,029	0,010
-483,649	-87,881	-0,123	-0,026
-482,635	234,585	-0,018	-0,021
-481,620	-200,000	-0,001	-0,097
-480,605	65,016	-0,056	0,041
-479,591	-58,562	-0,123	-0,038
-478,576	-200,000	0,013	-0,127
-477,562	159,636	-0,018	-0,018
-476,547	-0,104	0,022	-0,011
-475,532	-77,691	0,057	-0,014
-474,518	-65,028	0,091	-0,026
-473,503	-41,193	0,048	0,018
-472,489	-198,263	-0,145	0,001
-471,474	216,677	-0,045	-0,052
-470,459	246,990	-0,078	0,095
-469,445	800,000	-0,019	0,060
-468,430	-123,291	0,110	0,012
-467,416	718,480	0,034	0,066
-466,401	800,000	-0,072	0,169
-465,386	-200,000	-0,002	-0,115
-464,372	-176,140	-0,079	-0,001
-463,357	-83,489	0,126	0,029
-462,343	-200,000	-0,002	-0,129
-461,328	-151,369	0,095	0,005
-460,313	-200,000	-0,096	-0,000
-459,299	-200,000	-0,020	-0,133
-458,284	-18,949	0,035	0,016
-457,270	373,788	0,052	0,076
-456,255	-200,000	0,030	0,131
-455,241	62,413	-0,132	-0,094
-454,226	-200,000	-0,018	-0,141
-453,211	-200,000	-0,018	0,141
-452,197	-200,000	-0,004	0,083
-451,182	78,283	0,036	0,027
-450,168	102,469	-0,107	-0,090
-449,153	1,890	-0,084	0,043
-448,138	80,678	-0,148	-0,114
-447,124	-200,000	0,023	-0,121
-446,109	800,000	0,025	-0,049
-445,095	97,006	0,098	-0,080
-444,080	64,179	0,064	-0,046
-443,065	800,000	-0,037	0,083
-442,051	-91,286	-0,132	-0,027
-441,036	-82,144	-0,183	-0,042
-440,022	787,794	0,029	0,056
-439,007	800,000	0,010	0,023
-437,992	-62,109	0,109	-0,032
-436,978	60,159	0,005	0,003
-435,963	745,885	0,058	0,112
-434,949	-153,858	0,015	-0,001
-433,934	800,000	0,033	-0,098
-432,919	474,962	0,057	0,093
-431,905	-129,327	0,091	0,009
-430,890	-164,833	-0,053	0,002
-429,876	800,000	-0,044	0,100
-428,861	37,866	-0,071	0,045
-427,846	-129,727	0,115	0,011
-426,832	-84,793	0,121	-0,027
-425,817	453,133	-0,020	-0,033
-424,803	800,000	-0,058	-0,123
-423,788	66,905	0,008	0,006
-422,773	558,546	0,022	-0,038
-421,759	507,495	0,016	0,026
-420,744	-178,403	-0,038	-0,001
-419,730	-65,785	-0,050	-0,014
-418,715	-200,000	-0,028	-0,112
-417,701	-200,000	-0,001	-0,098
-416,686	-72,517	0,151	-0,040
-415,671	-20,491	0,140	0,062
-414,657	-22,934	0,102	0,044
-413,642	384,390	-0,080	-0,118
-412,628	-200,000	-0,040	-0,200
-411,613	800,000	-0,096	-0,195
-410,598	61,777	0,088	-0,063
-409,584	61,872	-0,038	-0,027
-408,569	55,822	0,045	-0,031
-407,555	-108,687	0,130	0,020
-406,540	-200,000	0,021	0,106
-405,525	219,385	0,025	0,029
-404,511	120,513	-0,135	0,120
-403,496	381,100	0,034	-0,050
-402,482	-200,000	0,038	0,122
-401,467	243,259	0,103	0,124
-400,452	-61,856	0,079	-0,023
-399,438	800,000	-0,051	0,133
-398,423	77,973	-0,097	-0,074
-397,409	-24,746	-0,106	0,045
-396,394	347,267	0,049	-0,069
-395,379	-167,801	-0,092	-0,003
-394,365	357,059	0,072	-0,102
-393,350	-88,214	0,223	0,047
-392,336	285,058	-0,084	0,109
-391,321	-200,000	-0,013	0,080
-390,306	-200,000	-0,010	-0,087
-389,292	-200,000	-0,006	0,030
-388,277	-7,263	0,059	0,029
-387,263	364,705	-0,079	0,115
-386,248	-200,000	0,013	-0,100
-385,233	260,737	0,071	0,088
-384,219	-200,000	-0,006	-0,068
-383,204	-10,538	0,104	0,049
-382,190	69,542	-0,114	-0,084
-381,175	-200,000	0,019	-0,091
-380,160	-200,000	-0,004	-0,045
-379,146	90,783	0,123	0,098
-378,131	-193,266	0,130	0,001
-377,117	3,633	-0,050	-0,026
-376,102	524,362	0,046	0,077
-375,088	-200,000	0,009	0,110
-374,073	22,273	0,116	-0,068
-373,058	-30,536	0,124	-0,050
-372,044	440,785	0,059	0,093
-371,029	141,701	0,100	-0,094
-370,015	152,538	-0,065	-0,063
-369,000	11,629	-0,045	-0,024
-367,985	-88,653	0,045	0,009
-366,971	800,000	0,042	-0,089
-365,956	183,100	0,058	0,061
-364,942	293,338	-0,061	-0,080
-363,927	800,000	0,061	0,136
-362,912	800,000	0,040	0,092
-361,898	800,000	0,061	-0,126
-360,883	800,000	-0,054	-0,147
-359,869	-200,000	0,008	0,085
-358,854	800,000	-0,068	-0,188
-357,839	-200,000	-0,008	0,078
-356,825	800,000	0,044	0,103
-355,810	-41,055	-0,186	0,068
-354,796	-200,000	-0,007	-0,100
-353,781	421,078	0,041	-0,063
-352,766	26,352	-0,081	-0,048
-351,752	-200,000	0,002	-0,052
-350,737	702,908	0,054	0,103
-349,723	-77,883	0,207	-0,051
-348,708	-186,166	-0,005	0,000
-347,693	-65,620	-0,117	-0,033
-346,679	-100,184	-0,215	-0,038
-345,664	332,429	-0,098	-0,136
-344,650	379,532	0,021	-0,031
-343,635	-200,000	-0,055	0,202
-342,620	-77,531	0,133	0,033
-341,606	-179,731	0,084	-0,001
-340,591	581,491	-0,020	0,034
-339,577	166,505	0,104	0,106
-338,562	-41,140	0,053	0,019
-337,548	-37,540	-0,097	0,037
-336,533	33,170	0,044	-0,027
-335,518	112,841	0,117	0,101
-334,504	-101,563	-0,078	0,013
-333,489	615,685	-0,069	0,123
-332,475	-134,400	-0,050	-0,004
-331,460	9,391	0,135	-0,073
-330,445	333,384	0,022	0,031
-329,431	-200,000	0,048	-0,165
-328,416	-87,129	0,083	-0,018
-327,402	-200,000	0,024	0,131
-326,387	0,538	0,023	0,012
-325,372	416,764	0,022	-0,034
-324,358	-200,000	-0,060	-0,229
-323,343	80,231	-0,092	-0,071
-322,329	-11,485	0,052	-0,024
-321,314	-36,418	-0,028	-0,011
-320,299	-200,000	-0,025	0,103
-319,285	451,402	-0,069	0,109
-318,270	593,458	-0,010	0,017
-317,256	34,371	0,062	-0,039
-316,241	2,789	0,053	0,027
-315,226	-200,000	0,004	0,064
-314,212	588,473	-0,046	0,081
-313,197	-128,954	0,084	-0,008
-312,183	511,061	-0,017	-0,028
-311,168	-200,000	-0,019	-0,155
-310,153	800,000	-0,010	-0,024
-309,139	800,000	-0,027	-0,061
-308,124	768,828	-0,027	0,053
-307,110	601,544	0,049	0,088
-306,095	304,736	0,098	0,129
-305,080	67,071	-0,059	-0,043
-304,066	-133,763	-0,129	-0,011
-303,051	147,585	-0,061	0,059
-302,037	413,911	-0,020	0,030
-301,022	121,919	-0,065	0,058
-300,008	736,042	0,056	0,108
-298,993	-3,695	-0,058	0,028
-297,978	-22,803	-0,064	-0,028
-296,964	286,373	-0,124	-0,160
-295,949	-200,000	0,019	-0,185
-294,935	-72,108	-0,109	-0,029
-293,920	220,502	-0,085	-0,097
-292,905	73,247	-0,051	-0,038
-291,891	-59,269	-0,186	-0,057
-290,876	-7,062	-0,068	0,033
-289,862	123,045	0,049	-0,044
-288,847	-62,930	-0,083	-0,024
-287,832	-200,000	0,014	0,096
-286,818	-200,000	-0,019	0,062
-285,803	-200,000	0,019	-0,077
-284,789	-159,999	0,075	0,003
-283,774	-129,582	-0,077	0,007
-282,759	-161,200	0,138	-0,005
-281,745	-84,112	0,033	-0,007
-280,730	-69,266	-0,093	0,025
-279,716	17,033	0,038	0,022
-278,701	-200,000	-0,002	0,049
-277,686	800,000	0,043	-0,099
-276,672	800,000	-0,021	0,052
-275,657	-200,000	0,006	0,020
-274,643	279,165	-0,055	0,070
-273,628	-200,000	0,026	0,092
-272,613	-47,760	0,050	-0,017
-271,599	800,000	0,046	-0,114
-270,584	519,062	0,065	0,109
-269,570	-81,101	0,111	0,026
-268,555	37,493	-0,078	0,049
-267,540	800,000	0,037	0,115
-266,526	800,000	-0,059	0,139
-265,511	192,415	0,045	0,048
-264,497	-150,957	0,084	0,004
-263,482	418,642	0,046	-0,071
-262,467	-73,247	0,126	-0,033
-261,453	-200,000	-0,001	0,037
-260,438	598,412	-0,089	-0,158
-259,424	-71,304	0,129	-0,034
-258,409	-200,000	-0,004	-0,040
-257,395	107,046	-0,056	-0,047
-256,380	-129,632	0,144	0,014
-255,365	-88,656	0,063	0,013
-254,351	-200,000	0,003	-0,045
-253,336	136,253	-0,045	0,042
-252,322	-17,675	-0,044	-0,019
-251,307	-16,407	-0,085	-0,038
-250,292	-109,547	0,104	0,015
-249,278	75,511	0,037	-0,028
-248,263	-70,875	0,173	-0,046
-247,249	17,751	-0,041	0,023
-246,234	172,885	0,121	-0,124
-245,219	800,000	0,033	-0,067
-244,205	-141,609	0,033	0,002
-243,190	800,000	0,017	-0,044
-242,176	-76,429	0,103	0,026
-241,161	-123,344	-0,148	0,017
-240,146	36,000	0,047	0,029
-239,132	-200,000	0,024	0,095
-238,117	800,000	-0,050	-0,128
-237,103	185,467	0,025	-0,027
-236,088	-38,019	0,113	0,042
-235,073	592,031	-0,065	0,115
-234,059	-132,120	0,164	-0,015
-233,044	800,000	0,055	0,116
-232,030	122,983	0,108	-0,096
-231,015	-200,000	-0,006	-0,136
-230,000	-14,467	-0,119	0,054
-228,986	78,674	0,038	-0,029
-227,971	34,584	0,062	0,038
-226,957	401,505	-0,068	-0,102
-225,942	800,000	0,044	0,092
-224,927	226,386	-0,056	0,065
-223,913	672,471	0,012	0,023
-222,898	2,730	-0,133	-0,068
-221,884	22,020	-0,034	-0,020
-220,869	800,000	-0,026	0,075
-219,855	800,000	-0,072	0,166
-218,840	49,858	0,045	0,030
-217,825	219,651	-0,047	-0,053
-216,811	456,942	0,011	0,017
-215,796	194,694	-0,108	0,116
-214,782	-59,754	-0,140	-0,042
-213,767	177,243	-0,077	-0,079
-212,752	504,482	0,058	0,095
-211,738	-200,000	0,037	0,117
-210,723	282,110	0,042	0,053
-209,709	-104,987	-0,122	0,020
-208,694	-18,770	0,158	-0,070
-207,679	19,655	0,078	-0,044
-206,665	800,000	-0,020	0,059
-205,650	-200,000	0,002	-0,027
-204,636	72,557	0,132	0,098
-203,621	454,933	-0,060	0,094
-202,606	-200,000	-0,012	0,091
-201,592	151,367	-0,102	-0,098
-200,577	-200,000	-0,009	-0,058
-199,563	651,786	0,026	0,047
-198,548	353,138	-0,110	0,156
-197,533	800,000	0,051	0,115
-196,519	531,750	-0,085	0,143
-195,504	281,088	-0,112	-0,143
-194,490	-168,876	-0,073	-0,002
-193,475	654,468	-0,039	0,071
-192,460	104,426	-0,032	0,027
-191,446	52,858	-0,061	0,042
-190,431	-200,000	0,003	0,093
-189,417	800,000	-0,016	0,048
-188,402	-71,373	-0,079	-0,021
-187,387	-200,000	0,005	-0,042
-186,373	-64,768	-0,071	-0,020
-185,358	251,335	-0,033	-0,040
-184,344	800,000	0,080	0,183
-183,329	142,700	0,077	-0,073
-182,315	-83,335	-0,081	-0,018
-181,300	800,000	-0,040	0,097
-180,285	-7,897	-0,074	0,035
-179,271	-200,000	0,018	0,083
-178,256	83,961	0,011	0,008
-177,242	-200,000	-0,003	0,103
-176,227	-200,000	0,018	0,208
-175,212	-200,000	0,004	-0,070
-174,198	138,543	-0,068	-0,063
-173,183	22,211	-0,079	0,045
-172,169	-44,217	-0,147	-0,052
-171,154	92,989	-0,054	0,043
-170,139	43,728	0,032	-0,021
-169,125	-165,333	0,125	0,004
-168,110	56,924	-0,129	0,089
-167,096	800,000	-0,022	0,065
-166,081	-200,000	-0,016	0,072
-165,066	-200,000	0,010	0,101
-164,052	367,870	0,052	-0,074
-163,037	90,390	-0,075	0,059
-162,023	-200,000	0,049	0,158
-161,008	26,898	0,122	-0,072
-159,993	115,354	-0,142	0,123
-158,979	800,000	-0,021	0,065
-157,964	-31,424	-0,094	0,037
-156,950	800,000	0,034	0,091
-155,935	407,255	0,051	-0,076
-154,920	303,419	0,053	0,070
-153,906	130,921	0,170	-0,155
-152,891	8,959	0,082	-0,043
-151,877	800,000	-0,019	0,049
-150,862	105,490	-0,077	0,065
-149,847	231,357	-0,062	-0,072
-148,833	-13,581	0,145	-0,066
-147,818	-7,239	0,067	0,032
-146,804	-128,695	-0,128	-0,013
-145,789	-27,291	-0,118	0,049
-144,775	295,779	0,039	-0,050
-143,760	186,906	-0,106	0,112
-142,745	570,646	-0,067	-0,116
-141,731	-61,766	0,084	-0,025
-140,716	268,383	0,079	0,099
-139,702	800,000	-0,044	0,094
-138,687	-200,000	0,005	0,246
-137,672	258,961	0,029	-0,036
-136,658	800,000	-0,046	-0,110
-135,643	-200,000	-0,018	-0,074
-134,629	-42,435	0,086	-0,031
-133,614	-200,000	-0,026	0,172
-132,599	4,516	0,082	-0,042
-131,585	-181,884	0,077	0,001
-130,570	132,862	-0,067	0,061
-129,556	800,000	0,082	-0,167
-128,541	116,629	0,056	-0,049
-127,526	-200,000	-0,027	-0,124
-126,512	193,716	0,037	0,040
-125,497	800,000	0,046	0,112
-124,483	-98,737	0,037	-0,007
-123,468	-1,368	-0,115	-0,057
-122,453	-200,000	-0,028	-0,129
-121,439	-200,000	-0,007	-0,159
-120,424	463,237	0,042	-0,067
-119,410	487,476	0,073	0,119
-118,395	380,050	0,062	0,091
-117,380	506,904	0,111	0,182
-116,366	-200,000	0,026	0,135
-115,351	-2,079	0,060	-0,030
-114,337	-10,184	-0,116	0,054
-113,322	-200,000	0,006	0,019
-112,307	137,663	0,106	0,098
-111,293	144,907	-0,137	0,130
-110,278	102,246	0,069	0,057
-109,264	-200,000	-0,021	0,141
-108,249	179,184	0,064	0,066
-107,234	-200,000	-0,006	-0,076
-106,220	490,107	-0,046	-0,074
-105,205	-71,157	-0,109	-0,029
-104,191	431,185	0,053	-0,082
-103,176	12,844	0,111	-0,061
-102,162	-200,000	-0,026	0,118
-101,147	-56,285	0,146	-0,046
-100,132	135,591	0,006	-0,006
-99,118	-81,791	0,022	0,005
-98,103	-129,434	-0,055	0,005
-97,089	-200,000	-0,001	-0,023
-96,074	-200,000	0,004	0,020
-95,059	-122,679	-0,067	0,008
-94,045	93,629	-0,133	-0,106
-93,030	-200,000	-0,004	-0,096
-92,016	27,076	-0,115	-0,068
-91,001	800,000	0,059	-0,125
-89,986	708,135	-0,126	0,236
-88,972	5,741	0,148	-0,077
-87,957	-29,648	0,074	-0,030
-86,943	62,553	-0,035	-0,025
-85,928	-200,000	0,010	-0,058
-84,913	800,000	-0,022	0,064
-83,899	252,642	-0,122	-0,147
-82,884	800,000	0,049	0,127
-81,870	-28,948	-0,018	0,007
-80,855	-200,000	-0,010	0,079
-79,840	-19,618	-0,135	0,059
-78,826	-200,000	-0,020	-0,098
-77,811	87,457	-0,109	0,085
-76,797	20,493	-0,072	-0,041
-75,782	-200,000	0,005	0,028
-74,767	-141,664	0,192	0,013
-73,753	235,016	-0,054	0,063
-72,738	82,097	-0,100	0,077
-71,724	27,280	-0,126	-0,075
-70,709	-125,399	-0,064	0,007
-69,694	572,517	-0,043	-0,075
-68,680	-200,000	0,004	-0,027
-67,665	-200,000	-0,024	0,081
-66,651	-88,215	0,149	0,031
-65,636	19,594	0,073	0,041
-64,622	-200,000	-0,041	0,197
-63,607	52,985	-0,130	-0,088
-62,592	-200,000	0,033	-0,125
-61,578	-200,000	0,035	0,111
-60,563	175,667	0,036	-0,036
-59,549	57,916	-0,066	0,045
-58,534	9,025	-2,142	-1,138
-57,519	496,593	-1,193	-1,943
-56,505	-200,000	-0,322	-4,319
-55,490	604,718	0,835	1,474
-54,476	800,000	4,954	11,234
-53,461	-200,000	21,055	338,602
-52,446	800,000	758,875	2352,779
-51,432	558,286	1661,892	2840,750
-50,417	73,606	1661,725	1227,181
-49,403	18,152	1534,963	861,808
-48,388	12,061	1458,453	789,396
-47,373	19,317	1449,419	819,288
-46,359	15,455	1438,789	794,885
-45,344	10,396	1434,373	768,333
-44,330	10,334	1432,722	767,124
-43,315	10,303	1430,932	765,988
-42,300	10,275	1429,253	764,923
-41,286	10,329	1427,860	764,404
-40,271	10,274	1426,744	763,518
-39,257	10,285	1425,308	762,769
-38,242	10,303	1424,440	762,359
-37,227	10,308	1423,325	761,755
-36,213	10,285	1422,255	761,045
-35,198	10,298	1420,863	760,332
-34,184	10,414	1419,749	760,252
-33,169	10,288	1418,620	759,023
-32,154	10,330	1417,612	758,652
-31,140	10,382	1416,092	758,051
-30,125	10,388	1415,134	757,538
-29,111	10,358	1414,007	756,765
-28,096	10,367	1412,988	756,230
-27,082	10,268	1411,795	755,098
-26,067	10,282	1410,801	754,602
-25,052	10,302	1409,797	754,128
-24,038	10,313	1408,611	753,516
-23,023	10,290	1407,682	752,882
-22,009	10,263	1406,713	752,206
-20,994	10,301	1405,533	751,725
-19,979	10,253	1404,790	751,071
-18,965	10,223	1403,842	750,396
-17,950	10,212	1403,039	749,887
-16,936	10,183	1402,289	749,317
-15,921	10,132	1401,420	748,588
-14,906	10,223	1400,384	748,426
-13,892	10,243	1399,139	747,826
-12,877	10,205	1398,426	747,237
-11,863	10,202	1397,550	746,725
-10,848	10,141	1396,631	745,921
-9,833	10,106	1395,786	745,280
-8,819	10,069	1395,216	744,774
-7,804	10,082	1394,146	744,234
-6,790	10,128	1392,970	743,789
-5,775	10,115	1391,942	743,150
-4,760	10,081	1391,155	742,543
-3,746	10,112	1390,212	742,156
-2,731	10,072	1389,242	741,422
-1,717	10,111	1388,328	741,084
-0,702	10,112	1386,445	740,056
0,313	14,206	1299,561	712,390
1,327	30,520	690,216	415,334
2,342	47,274	119,498	78,355
3,356	-0,142	16,508	8,257
4,371	-1,529	3,545	1,757
5,386	34,988	0,881	0,543
6,400	-200,000	0,104	0,576
7,415	-147,159	-0,207	-0,012
8,429	23,611	-0,256	-0,148
9,444	23,258	-0,268	-0,155
10,459	-46,085	-0,411	-0,142
11,473	91,158	-0,390	-0,308
12,488	-80,562	-0,343	-0,080
13,502	-14,997	-0,253	-0,114
14,517	102,509	-0,293	-0,241
15,531	-28,858	-0,489	-0,197
16,546	-47,694	-0,324	-0,110
17,561	237,421	-0,313	-0,366
18,575	-66,139	-0,164	-0,046
19,590	171,655	-0,336	-0,340
20,604	-57,049	-0,182	-0,056
21,619	60,217	-0,407	-0,283
22,634	26,300	-0,382	-0,224
23,648	47,767	-0,385	-0,253
24,663	157,184	-0,344	-0,335
25,677	102,067	-0,346	-0,285
26,692	210,071	-0,238	-0,263
27,707	66,491	-0,376	-0,268
28,721	75,168	-0,319	-0,237
29,736	58,812	-0,407	-0,281
30,750	77,127	-0,333	-0,248
31,765	82,799	-0,476	-0,363
32,780	208,671	-0,321	-0,353
33,794	127,141	-0,309	-0,276
34,809	97,221	-0,336	-0,271
35,823	69,772	-0,337	-0,244
36,838	-78,113	-0,401	-0,096
37,853	39,501	-0,370	-0,233
38,867	23,390	-0,394	-0,227
39,882	32,824	-0,405	-0,246
40,896	71,499	-0,309	-0,225
41,911	208,820	-0,252	-0,278
42,926	121,285	-0,324	-0,284
43,940	119,937	-0,361	-0,315
44,955	31,238	-0,473	-0,284
45,969	74,831	-0,389	-0,288
46,984	71,020	-0,328	-0,238
47,999	-26,804	-0,296	-0,121
49,013	800,000	-0,109	-0,218
50,028	31,193	-0,318	-0,191
51,042	81,985	-0,293	-0,223
52,057	220,558	-0,245	-0,277
53,071	12,416	-0,310	-0,167
54,086	32,529	-0,417	-0,253
55,101	294,397	-0,207	-0,266
56,115	22,510	-0,360	-0,206
57,130	92,247	-0,332	-0,262
58,144	256,193	-0,238	-0,287
59,159	62,935	-0,378	-0,265
60,174	101,323	-0,367	-0,300
61,188	228,756	-0,300	-0,343
62,203	13,195	-0,415	-0,225
63,217	27,325	-0,375	-0,220
64,232	-32,906	-0,355	-0,138
65,247	-43,851	-0,485	-0,170
66,261	74,001	-0,426	-0,314
67,276	-14,819	-0,376	-0,169
68,290	99,613	-0,195	-0,159
69,305	310,761	-0,231	-0,304
70,320	-39,787	-0,269	-0,098
71,334	9,786	-0,351	-0,186
72,349	45,759	-0,376	-0,243
73,363	60,512	-0,377	-0,262
74,378	-2,307	-0,408	-0,200
75,393	5,390	-0,323	-0,166
76,407	-91,091	-0,384	-0,077
77,422	94,399	-0,187	-0,149
78,436	-9,599	-0,316	-0,147
79,451	-2,535	-0,186	-0,091
80,466	-26,006	-0,301	-0,123
81,480	19,189	-0,392	-0,220
82,495	114,098	-0,323	-0,275
83,509	-15,818	-0,257	-0,114
84,524	-16,714	-0,261	-0,115
85,539	57,410	-0,384	-0,263
86,553	-69,228	-0,315	-0,084
87,568	66,907	-0,247	-0,176
88,582	90,274	-0,298	-0,233
89,597	126,416	-0,345	-0,306
90,611	137,712	-0,274	-0,251
91,626	8,474	-0,277	-0,146
92,641	44,281	-0,285	-0,183
93,655	238,858	-0,177	-0,206
94,670	32,072	-0,370	-0,223
95,684	64,495	-0,354	-0,249
96,699	164,441	-0,167	-0,165
97,714	66,127	-0,340	-0,241
98,728	78,386	-0,279	-0,208
99,743	-5,794	-0,331	-0,158
100,757	63,562	-0,377	-0,264
101,772	-63,008	-0,412	-0,118
102,787	227,120	-0,235	-0,267
103,801	84,589	-0,346	-0,265
104,816	153,233	-0,214	-0,204
105,830	-120,501	-0,256	0,030
106,845	47,956	-0,344	-0,224
107,860	-14,711	-0,179	-0,080
108,874	85,431	-0,334	-0,256
109,889	-8,913	-0,209	-0,097
110,903	-109,012	-0,365	0,054
111,918	170,924	-0,253	-0,253
112,933	52,995	-0,142	-0,095
113,947	-74,792	-0,182	-0,045
114,962	161,492	-0,229	-0,224
115,976	39,254	-0,232	-0,145
116,991	-58,539	-0,219	-0,066
118,006	23,496	-0,313	-0,179
119,020	-22,520	-0,301	-0,127
120,035	45,502	-0,189	-0,121
121,049	-200,000	-0,290	-0,000
122,064	-100,031	-0,257	-0,044
123,079	86,639	-0,179	-0,138
124,093	83,407	-0,264	-0,201
125,108	77,309	-0,250	-0,185
126,122	113,611	-0,303	-0,257
127,137	96,924	-0,163	-0,130
128,151	593,175	-0,093	-0,161
129,166	194,454	-0,171	-0,181
130,181	101,712	-0,270	-0,220
131,195	173,018	-0,258	-0,259
132,210	175,329	-0,281	-0,285
133,224	255,774	-0,153	-0,183
134,239	-92,157	-0,235	-0,046
135,254	-35,064	-0,274	-0,104
136,268	21,491	-0,143	-0,081
137,283	-85,504	-0,323	-0,069
138,297	29,457	-0,230	-0,136
139,312	277,286	-0,134	-0,166
140,327	120,591	-0,264	-0,228
141,341	200,898	-0,094	-0,101
142,356	-4,045	-0,172	-0,083
143,370	43,275	-0,113	-0,072
144,385	-38,550	-0,256	-0,094
145,400	78,431	-0,336	-0,249
146,414	24,850	-0,378	-0,217
147,429	701,391	-0,119	-0,220
148,443	481,059	-0,155	-0,245
149,458	175,937	-0,216	-0,219
150,473	380,553	-0,093	-0,133
151,487	218,372	-0,158	-0,176
152,502	688,659	-0,177	-0,323
153,516	517,354	-0,176	-0,288
154,531	66,079	-0,269	-0,190
155,546	-142,837	-0,293	-0,020
156,560	14,209	-0,337	-0,182
157,575	-36,912	-0,204	-0,076
158,589	26,040	-0,154	-0,089
159,604	243,347	-0,226	-0,264
160,619	17,766	-0,280	-0,154
161,633	15,597	-0,213	-0,116
162,648	123,925	-0,204	-0,178
163,662	-80,856	-0,272	-0,062
164,677	153,230	-0,157	-0,150
165,692	110,618	-0,208	-0,174
166,706	157,799	-0,161	-0,155
167,721	5,292	-0,199	-0,102
168,735	39,488	-0,377	-0,234
169,750	87,455	-0,056	-0,043
170,764	-124,037	-0,157	-0,017
171,779	65,352	-0,154	-0,108
172,794	124,139	-0,140	-0,123
173,808	368,556	-0,169	-0,238
174,823	79,986	-0,286	-0,214
175,837	37,961	-0,350	-0,216
176,852	194,135	-0,155	-0,164
177,867	327,592	-0,187	-0,250
178,881	108,644	-0,208	-0,172
179,896	-44,460	-0,208	-0,072
180,910	0,445	-0,190	-0,094
181,925	87,997	-0,242	-0,186
182,940	260,871	-0,173	-0,208
183,954	194,798	-0,177	-0,187
184,969	-46,131	-0,244	-0,083
185,983	9,594	-0,226	-0,119
186,998	549,673	-0,189	-0,315
188,013	-23,276	-0,246	-0,102
189,027	454,965	-0,155	-0,240
190,042	337,493	-0,131	-0,177
191,056	212,255	-0,281	-0,308
192,071	49,356	-0,238	-0,155
193,086	368,137	-0,187	-0,263
194,100	-21,273	-0,354	-0,149
195,115	231,620	-0,234	-0,266
196,129	37,177	-0,109	-0,067
197,144	204,774	-0,233	-0,251
198,159	-51,683	-0,239	-0,077
199,173	-58,778	-0,190	-0,057
200,188	39,285	-0,192	-0,119
201,202	-0,764	-0,211	-0,103
202,217	458,893	-0,166	-0,257
203,232	-38,388	-0,261	-0,095
204,246	31,525	-0,169	-0,100
205,261	800,000	-0,154	-0,301
206,275	13,447	-0,197	-0,106
207,290	-87,643	-0,122	-0,025
208,304	576,283	-0,167	-0,284
209,319	66,141	-0,240	-0,169
210,334	-56,899	-0,254	-0,077
211,348	51,829	-0,339	-0,223
212,363	514,004	-0,203	-0,329
213,377	23,970	-0,295	-0,168
214,392	-55,198	-0,251	-0,078
215,407	-49,602	-0,146	-0,048
216,421	128,832	-0,200	-0,177
217,436	28,042	-0,201	-0,117
218,450	498,844	-0,229	-0,366
219,465	370,149	-0,148	-0,208
220,480	59,452	-0,221	-0,151
221,494	73,159	-0,181	-0,131
222,509	154,239	-0,028	-0,026
223,523	57,714	-0,233	-0,157
224,538	-1,097	-0,238	-0,116
225,553	85,195	-0,224	-0,170
226,567	67,557	-0,259	-0,182
227,582	204,316	-0,277	-0,297
228,596	161,167	-0,220	-0,212
229,611	34,324	-0,138	0,083
230,626	74,194	-0,247	-0,179
231,640	96,734	-0,315	-0,249
232,655	-5,479	-0,257	-0,122
233,669	800,000	-0,108	-0,223
234,684	-26,986	-0,114	-0,046
235,699	140,945	-0,153	-0,140
236,713	512,386	-0,137	-0,221
237,728	800,000	-0,087	-0,220
238,742	-118,826	-0,146	-0,018
239,757	22,858	-0,267	-0,151
240,772	87,882	-0,193	-0,148
241,786	800,000	-0,056	-0,143
242,801	103,865	-0,124	-0,100
243,815	-88,233	-0,181	-0,037
244,830	22,744	-0,166	-0,094
245,844	-87,774	-0,231	-0,048
246,859	253,074	-0,143	-0,169
247,874	-113,764	-0,280	-0,037
248,888	-11,655	-0,167	-0,076
249,903	-108,834	-0,217	-0,032
250,917	-200,000	-0,047	-0,182
251,932	67,487	-0,125	-0,088
252,947	-92,640	-0,042	0,008
253,961	-79,406	-0,221	-0,051
254,976	90,479	-0,361	-0,279
255,990	73,498	-0,217	-0,157
257,005	-71,000	-0,059	-0,015
258,020	-26,025	-0,159	-0,064
259,034	-25,751	-0,171	-0,069
260,049	-25,061	-0,237	-0,097
261,063	-64,332	-0,239	-0,067
262,078	800,000	-0,032	-0,063
263,093	-2,582	-0,228	-0,110
264,107	21,633	-0,153	-0,085
265,122	-16,288	-0,096	-0,042
266,136	-74,893	-0,138	-0,034
267,151	182,461	-0,129	-0,131
268,166	800,000	-0,089	-0,213
269,180	-69,446	-0,241	-0,063
270,195	-200,000	-0,060	-0,184
271,209	3,042	-0,292	-0,146
272,224	403,501	-0,155	-0,225
273,239	206,175	-0,069	-0,074
274,253	-10,080	-0,193	-0,088
275,268	-52,248	-0,215	-0,068
276,282	94,480	-0,110	-0,086
277,297	98,350	-0,112	-0,089
278,312	409,809	-0,198	-0,290
279,326	205,029	-0,182	-0,195
280,341	97,470	-0,073	-0,058
281,355	155,221	-0,104	-0,098
282,370	99,637	-0,180	-0,144
283,384	-74,725	-0,193	-0,047
284,399	250,626	-0,163	-0,191
285,414	85,582	-0,125	-0,094
286,428	64,000	-0,146	-0,101
287,443	800,000	-0,064	-0,139
288,457	382,691	-0,121	-0,171
289,472	800,000	-0,020	-0,060
290,487	187,971	-0,231	-0,238
291,501	-66,147	-0,155	-0,042
292,516	-64,098	-0,204	-0,057
293,530	62,856	-0,113	-0,078
294,545	-200,000	-0,032	-0,100
295,560	-200,000	0,006	-0,175
296,574	170,328	-0,183	-0,181
297,589	19,559	-0,253	-0,139
298,603	411,005	-0,122	-0,179
299,618	196,318	-0,194	-0,204
300,633	-124,712	-0,096	-0,010
301,647	-4,963	-0,217	-0,102
302,662	201,631	-0,109	-0,115
303,676	-42,151	-0,112	0,039
304,691	128,040	-0,064	-0,056
305,706	59,361	-0,181	-0,122
306,720	91,155	-0,209	-0,161
307,735	299,333	-0,091	-0,116
308,749	109,339	-0,048	-0,039
309,764	800,000	-0,077	-0,177
310,779	800,000	-0,076	-0,190
311,793	-58,013	-0,172	-0,051
312,808	105,736	-0,057	-0,046
313,822	-49,836	-0,168	-0,054
314,837	113,686	-0,094	-0,079
315,852	74,250	-0,125	-0,090
316,866	293,881	-0,121	-0,151
317,881	396,874	-0,072	-0,103
318,895	-200,000	-0,008	-0,148
319,910	123,141	-0,144	0,124
320,925	-16,393	-0,164	-0,071
321,939	-200,000	-0,006	-0,204
322,954	-85,661	-0,108	-0,023
323,968	-25,611	-0,135	0,055
324,983	-66,768	-0,146	0,039
325,997	207,547	-0,144	-0,154
327,012	-82,664	-0,150	-0,033
328,027	67,698	-0,118	-0,082
329,041	-23,801	-0,172	-0,070
330,056	96,102	-0,131	-0,103
331,070	-28,671	-0,109	-0,043
332,085	-140,942	-0,128	0,009
333,100	800,000	-0,092	-0,203
334,114	225,815	-0,239	-0,266
335,129	148,996	-0,113	-0,105
336,143	800,000	-0,056	-0,134
337,158	15,735	-0,073	-0,039
338,173	-116,294	-0,082	-0,010
339,187	211,577	-0,052	-0,056
340,202	211,468	-0,053	-0,057
341,216	71,818	-0,164	-0,117
342,231	197,508	-0,110	-0,116
343,246	-69,136	-0,231	0,060
344,260	154,322	-0,126	0,118
345,275	-200,000	-0,036	-0,119
346,289	211,830	-0,057	-0,061
347,304	333,069	0,009	0,012
348,319	45,437	-0,243	-0,153
349,333	39,094	-0,195	-0,119
350,348	800,000	-0,072	-0,188
351,362	-11,330	-0,157	-0,071
352,377	800,000	-0,034	-0,094
353,392	800,000	-0,090	-0,182
354,406	179,614	-0,123	-0,123
355,421	206,781	1310,762	1398,326
356,435	159,044	1470,967	1398,797
