DTS Sentinel unit serial number:	SN410029Multiplexer serial number:	ORYXHardware model number:	OX2-SRSoftware version number:	ORYX F/W v4,00 Oryx Data Collector v3.7.2.0data status	okinstallation	B3 Nyhavnadifferential loss correction	single-endedforward channel	channel 1reverse channel	N/Adate	2023/11/29time	06:02:30forward acquisition time	300,00reverse acquisition time	0,00gamma	499,1914k internal	0,3211k external	0,3211temperature offset calibration	1,0000default loss term (dB/km)	0,3820temperature slope calibration	1,0000multiplexer offset coefficient	1,0000multiplexer slope coefficient	1,0000fibre end	0,00T internal ref (°C)	9,00T ext. ref 1 (°C)	-6,48T ext. ref 2 (°C)	-6,60length (m)	temperature (°C)	Stokes	anti-Stokes-744,400	-200,000	-0,038	-0,158
-743,385	-200,000	-0,001	0,276
-742,371	209,480	-0,171	-0,195
-741,356	-200,000	0,023	0,294
-740,342	60,915	-0,306	-0,220
-739,327	-200,000	-0,020	0,238
-738,312	176,449	-0,239	-0,252
-737,298	-200,000	-0,064	0,351
-736,283	90,477	-0,277	-0,224
-735,269	-200,000	0,057	0,280
-734,254	12,936	-0,196	-0,110
-733,239	11,449	-0,204	0,113
-732,225	254,714	-0,088	-0,110
-731,210	800,000	0,066	0,211
-730,196	-13,297	-0,093	-0,044
-729,181	-159,795	-0,060	-0,002
-728,167	377,964	0,029	-0,043
-727,152	-10,945	-0,132	-0,063
-726,137	-168,589	-0,106	-0,003
-725,123	41,145	-0,065	-0,043
-724,108	-200,000	-0,028	-0,097
-723,094	27,928	-0,161	-0,098
-722,079	-200,000	-0,009	-0,051
-721,064	300,247	0,013	0,017
-720,050	-160,679	0,127	0,005
-719,035	198,608	-0,075	-0,083
-718,021	20,389	-0,098	-0,057
-717,006	-58,529	-0,030	-0,009
-715,991	247,270	-0,069	0,085
-714,977	-64,509	-0,033	-0,010
-713,962	-200,000	0,004	-0,090
-712,948	263,945	-0,074	0,094
-711,933	-200,000	-0,028	-0,136
-710,918	-133,166	-0,022	0,002
-709,904	800,000	-0,020	-0,057
-708,889	-200,000	-0,019	-0,082
-707,875	-52,835	-0,117	-0,039
-706,860	-200,000	0,002	-0,066
-705,845	-122,948	-0,075	-0,009
-704,831	81,529	0,085	-0,066
-703,816	-200,000	-0,013	0,049
-702,802	118,422	0,072	-0,064
-701,787	37,831	0,103	-0,066
-700,772	-69,348	-0,111	-0,031
-699,758	-200,000	0,025	0,088
-698,743	-123,245	-0,051	-0,006
-697,729	361,815	0,040	-0,058
-696,714	55,910	-0,076	-0,053
-695,699	743,470	0,064	-0,125
-694,685	-8,752	-0,175	-0,085
-693,670	-200,000	0,001	-0,024
-692,656	148,623	-0,021	0,020
-691,641	240,930	0,077	0,093
-690,627	-200,000	-0,014	0,193
-689,612	-139,130	0,105	-0,008
-688,597	424,889	0,095	-0,149
-687,583	58,074	-0,148	-0,105
-686,568	-108,776	-0,139	-0,021
-685,554	86,179	-0,076	0,061
-684,539	486,840	0,018	0,030
-683,524	153,181	-0,100	0,099
-682,510	34,943	-0,063	0,040
-681,495	800,000	-0,056	0,130
-680,481	18,063	-0,116	-0,067
-679,466	-68,309	0,114	0,032
-678,451	-69,626	-0,090	0,025
-677,437	800,000	0,068	-0,139
-676,422	313,735	0,021	0,029
-675,408	179,328	0,018	0,019
-674,393	-96,088	-0,151	0,029
-673,378	-200,000	-0,013	-0,065
-672,364	-200,000	0,020	-0,142
-671,349	3,114	0,113	0,059
-670,335	-200,000	0,001	-0,035
-669,320	-70,907	0,024	0,006
-668,305	-120,177	-0,140	-0,017
-667,291	-60,392	-0,071	-0,022
-666,276	502,410	0,086	-0,144
-665,262	24,157	-0,070	-0,042
-664,247	-67,392	0,041	0,012
-663,232	-83,784	-0,039	-0,009
-662,218	213,276	-0,072	-0,082
-661,203	-1,346	-0,069	-0,035
-660,189	245,677	0,078	-0,095
-659,174	176,332	-0,096	-0,101
-658,159	36,249	-0,028	0,018
-657,145	800,000	0,010	-0,021
-656,130	98,856	0,114	0,095
-655,116	-200,000	0,027	-0,146
-654,101	-85,350	-0,020	-0,005
-653,086	181,475	-0,090	0,095
-652,072	331,937	-0,031	0,044
-651,057	800,000	-0,047	-0,103
-650,043	-200,000	-0,012	0,116
-649,028	141,308	-0,024	-0,023
-648,014	-200,000	-0,017	-0,113
-646,999	338,368	-0,011	-0,016
-645,984	318,432	-0,050	0,069
-644,970	-200,000	0,020	0,188
-643,955	-82,213	-0,126	0,029
-642,941	11,427	0,169	0,093
-641,926	-104,143	0,057	-0,009
-640,911	28,715	0,119	0,073
-639,897	800,000	-0,037	0,113
-638,882	-0,510	0,100	0,051
-637,868	-200,000	0,001	0,138
-636,853	-151,321	-0,186	0,010
-635,838	-200,000	-0,008	0,128
-634,824	-200,000	0,011	-0,039
-633,809	377,523	-0,121	0,179
-632,795	-200,000	-0,010	-0,118
-631,780	800,000	0,028	0,067
-630,765	156,905	-0,114	-0,113
-629,751	118,716	-0,130	-0,116
-628,736	-200,000	-0,019	0,089
-627,722	-84,600	0,027	0,006
-626,707	270,131	-0,088	0,112
-625,692	-200,000	-0,003	0,150
-624,678	130,399	0,098	0,091
-623,663	-0,781	0,067	-0,034
-622,649	568,965	-0,089	-0,156
-621,634	-200,000	-0,020	-0,160
-620,619	-50,192	-0,168	0,057
-619,605	107,395	-0,068	-0,059
-618,590	-200,000	-0,001	0,137
-617,576	800,000	-0,034	0,099
-616,561	-200,000	-0,008	-0,048
-615,546	-19,596	-0,072	0,032
-614,532	186,228	-0,104	0,112
-613,517	57,824	-0,003	-0,002
-612,503	56,634	-0,097	-0,068
-611,488	800,000	0,020	-0,057
-610,474	737,514	0,018	-0,035
-609,459	-102,254	0,084	-0,014
-608,444	376,988	-0,050	-0,075
-607,430	68,188	-0,010	0,007
-606,415	-24,012	0,013	-0,006
-605,401	32,042	0,028	-0,017
-604,386	-24,207	-0,032	-0,014
-603,371	326,190	0,060	0,082
-602,357	284,304	-0,023	0,030
-601,342	800,000	-0,035	-0,090
-600,328	-200,000	0,022	-0,084
-599,313	735,531	0,031	-0,061
-598,298	-200,000	0,006	0,094
-597,284	800,000	0,026	0,056
-596,269	-86,988	0,066	0,014
-595,255	-200,000	-0,008	0,034
-594,240	238,623	0,047	-0,056
-593,225	-52,842	0,062	0,021
-592,211	-96,345	0,019	-0,004
-591,196	-40,566	-0,018	-0,007
-590,182	15,426	0,084	0,048
-589,167	-7,030	0,116	0,057
-588,152	170,530	0,073	-0,075
-587,138	800,000	-0,032	0,081
-586,123	430,509	-0,053	0,083
-585,109	323,661	-0,156	-0,215
-584,094	352,962	0,098	-0,141
-583,079	-200,000	0,005	-0,055
-582,065	733,476	-0,090	-0,174
-581,050	42,002	0,102	-0,066
-580,036	-200,000	-0,040	0,139
-579,021	-46,212	-0,149	0,053
-578,006	-200,000	0,015	-0,097
-576,992	-73,225	-0,028	-0,007
-575,977	9,475	0,024	0,013
-574,963	306,451	-0,057	0,077
-573,948	8,657	0,103	0,056
-572,934	-5,099	-0,122	0,060
-571,919	-46,604	-0,133	0,047
-570,904	-78,096	-0,089	0,022
-569,890	-36,043	0,111	0,043
-568,875	104,318	0,040	-0,034
-567,861	315,361	0,030	0,040
-566,846	314,205	0,119	0,161
-565,831	-56,220	-0,145	0,046
-564,817	-2,764	-0,059	-0,030
-563,802	-129,103	0,147	0,015
-562,788	614,622	0,080	-0,145
-561,773	800,000	-0,001	0,004
-560,758	-200,000	0,022	0,127
-559,744	-44,660	0,035	-0,012
-558,729	489,052	-0,093	0,153
-557,715	-115,648	-0,092	0,012
-556,700	-101,542	-0,091	-0,016
-555,685	353,025	-0,093	-0,133
-554,671	-0,996	-0,022	0,011
-553,656	19,033	0,034	-0,020
-552,642	-60,550	0,065	0,020
-551,627	94,278	-0,034	0,028
-550,612	34,156	-0,086	-0,054
-549,598	-184,045	0,024	-0,000
-548,583	145,414	0,075	0,072
-547,569	-200,000	0,004	0,079
-546,554	3,422	0,053	0,028
-545,539	641,440	0,022	-0,040
-544,525	-83,964	0,079	-0,018
-543,510	-117,322	-0,083	-0,011
-542,496	-200,000	-0,011	-0,106
-541,481	63,469	-0,081	-0,058
-540,466	-3,986	-0,057	-0,028
-539,452	100,950	-0,051	0,043
-538,437	-68,838	0,056	0,015
-537,423	358,950	-0,045	0,065
-536,408	789,449	0,055	0,108
-535,393	150,892	-0,080	0,078
-534,379	-200,000	0,006	-0,093
-533,364	111,855	-0,091	0,079
-532,350	-20,692	0,124	0,054
-531,335	-200,000	0,001	0,103
-530,321	664,402	-0,011	-0,021
-529,306	-143,013	-0,015	-0,001
-528,291	-144,490	0,026	-0,002
-527,277	-200,000	0,004	-0,090
-526,262	800,000	-0,022	-0,046
-525,248	-59,112	-0,028	-0,009
-524,233	-200,000	-0,046	0,148
-523,218	-77,105	-0,041	-0,010
-522,204	-48,172	-0,056	0,019
-521,189	23,331	-0,112	-0,066
-520,175	121,900	0,099	-0,089
-519,160	800,000	0,024	-0,056
-518,145	172,953	0,110	0,114
-517,131	-109,356	-0,038	0,006
-516,116	-136,989	0,131	-0,011
-515,102	39,631	-0,015	0,010
-514,087	13,128	0,053	0,030
-513,072	-34,584	-0,072	-0,028
-512,058	258,851	-0,055	-0,068
-511,043	-200,000	-0,015	-0,173
-510,029	800,000	0,036	0,072
-509,014	166,991	0,047	0,048
-507,999	-86,395	0,143	-0,031
-506,985	-200,000	0,001	-0,140
-505,970	147,639	-0,068	-0,066
-504,956	189,607	0,012	-0,013
-503,941	192,868	0,051	0,055
-502,926	695,403	-0,063	0,119
-501,912	-31,861	0,135	0,054
-500,897	297,190	-0,080	0,106
-499,883	800,000	-0,026	0,069
-498,868	270,891	-0,035	0,044
-497,853	154,101	-0,059	-0,058
-496,839	-200,000	-0,015	-0,051
-495,824	65,035	0,092	0,067
-494,810	64,926	0,141	-0,102
-493,795	-200,000	0,012	0,066
-492,781	-69,247	-0,090	0,025
-491,766	-200,000	0,010	-0,178
-490,751	215,654	-0,045	-0,052
-489,737	-200,000	0,019	-0,066
-488,722	-78,318	-0,024	-0,006
-487,708	-200,000	0,014	-0,087
-486,693	243,734	0,073	-0,088
-485,678	-131,222	-0,012	0,001
-484,664	161,543	-0,108	0,108
-483,649	112,192	0,039	-0,034
-482,635	266,345	0,030	0,038
-481,620	-200,000	-0,005	-0,116
-480,605	-128,322	-0,136	0,014
-479,591	-200,000	0,019	0,084
-478,576	147,137	0,044	-0,043
-477,562	343,636	0,073	-0,103
-476,547	-200,000	-0,019	-0,075
-475,532	800,000	-0,015	0,034
-474,518	-200,000	0,032	-0,135
-473,503	46,053	-0,041	0,027
-472,489	10,863	-0,169	0,092
-471,474	800,000	0,019	-0,045
-470,459	63,972	0,059	-0,043
-469,445	-80,837	-0,197	-0,047
-468,430	-26,653	0,048	0,020
-467,416	-100,757	0,066	0,011
-466,401	103,503	-0,074	0,062
-465,386	-35,515	0,101	-0,039
-464,372	-40,888	0,084	-0,031
-463,357	124,040	0,044	0,039
-462,343	-200,000	0,013	-0,129
-461,328	9,157	-0,151	0,081
-460,313	-200,000	0,018	-0,062
-459,299	-119,202	-0,070	-0,009
-458,284	-200,000	0,007	-0,072
-457,270	-6,117	-0,078	-0,038
-456,255	-133,693	-0,053	0,005
-455,241	800,000	-0,033	-0,098
-454,226	223,495	-0,034	0,039
-453,211	620,503	-0,054	0,098
-452,197	-200,000	0,005	-0,116
-451,182	-200,000	0,001	-0,140
-450,168	800,000	-0,023	-0,060
-449,153	-140,632	-0,088	0,006
-448,138	598,861	-0,023	-0,041
-447,124	-31,334	-0,120	-0,048
-446,109	-200,000	-0,003	-0,016
-445,095	64,235	0,026	-0,019
-444,080	437,942	0,064	0,100
-443,065	158,340	-0,109	0,108
-442,051	-200,000	-0,013	-0,062
-441,036	-13,834	-0,088	-0,041
-440,022	-112,370	-0,026	0,004
-439,007	800,000	0,022	0,066
-437,992	-40,419	0,088	0,033
-436,978	275,802	-0,040	0,051
-435,963	-45,258	0,106	-0,038
-434,949	22,600	-0,060	-0,035
-433,934	-59,711	-0,107	0,033
-432,919	-200,000	0,005	-0,139
-431,905	-200,000	-0,002	-0,030
-430,890	800,000	0,014	-0,041
-429,876	3,753	0,082	0,043
-428,861	456,696	-0,008	-0,013
-427,846	800,000	0,034	-0,085
-426,832	614,595	-0,072	-0,129
-425,817	-200,000	0,026	-0,092
-424,803	-96,375	0,047	0,009
-423,788	-23,897	0,107	-0,046
-422,773	-140,653	-0,046	0,003
-421,759	-175,640	0,141	-0,003
-420,744	215,559	0,067	0,076
-419,730	782,767	-0,088	0,173
-418,715	-125,615	-0,180	-0,019
-417,701	-5,794	0,135	0,066
-416,686	800,000	0,027	0,074
-415,671	109,097	0,063	-0,054
-414,657	-200,000	0,015	0,056
-413,642	386,711	-0,070	-0,104
-412,628	1,163	-0,120	-0,062
-411,613	-200,000	-0,028	-0,167
-410,598	-200,000	-0,017	-0,112
-409,584	800,000	-0,077	0,166
-408,569	800,000	0,031	0,077
-407,555	-200,000	-0,034	0,125
-406,540	-200,000	0,004	0,049
-405,525	-200,000	0,023	0,093
-404,511	117,724	-0,048	0,042
-403,496	-38,799	0,096	0,036
-402,482	-8,226	-0,078	0,037
-401,467	41,364	0,075	-0,048
-400,452	-200,000	-0,007	0,076
-399,438	210,659	0,085	0,096
-398,423	-103,292	-0,101	-0,017
-397,409	-200,000	0,028	0,118
-396,394	-200,000	-0,039	-0,131
-395,379	180,382	0,105	-0,110
-394,365	206,004	0,044	-0,049
-393,350	800,000	0,036	0,080
-392,336	-93,524	-0,175	0,034
-391,321	-155,779	0,037	0,002
-390,306	-95,520	-0,061	-0,012
-389,292	-200,000	0,007	-0,161
-388,277	800,000	-0,020	-0,055
-387,263	69,977	0,101	-0,075
-386,248	-115,754	-0,042	-0,006
-385,233	176,423	0,062	0,064
-384,219	-83,883	-0,038	-0,008
-383,204	-200,000	-0,005	-0,023
-382,190	21,263	-0,078	-0,045
-381,175	-66,661	-0,060	0,017
-380,160	230,514	0,042	-0,050
-379,146	173,249	0,047	0,049
-378,131	-200,000	0,002	0,039
-377,117	800,000	-0,061	0,122
-376,102	-200,000	0,057	0,000
-375,088	800,000	-0,029	0,060
-374,073	800,000	0,055	-0,122
-373,058	-102,193	0,099	-0,017
-372,044	800,000	0,036	-0,090
-371,029	-200,000	-0,028	-0,093
-370,015	-200,000	0,002	-0,072
-369,000	615,815	0,023	-0,042
-367,985	115,425	-0,072	-0,063
-366,971	55,288	-0,076	0,053
-365,956	147,290	-0,014	-0,013
-364,942	-200,000	-0,035	0,133
-363,927	62,375	0,051	-0,037
-362,912	51,394	-0,196	0,133
-361,898	195,308	0,116	-0,127
-360,883	-200,000	-0,013	0,063
-359,869	800,000	-0,066	-0,194
-358,854	5,613	-0,046	0,024
-357,839	-120,758	0,081	0,010
-356,825	143,228	0,092	0,088
-355,810	-200,000	0,005	-0,034
-354,796	326,806	-0,025	0,034
-353,781	800,000	-0,068	0,155
-352,766	-94,242	-0,126	0,024
-351,752	-200,000	0,010	0,158
-350,737	-200,000	-0,065	0,243
-349,723	-200,000	0,012	0,126
-348,708	335,330	0,030	-0,041
-347,693	16,444	-0,136	0,077
-346,679	-94,290	-0,096	-0,019
-345,664	800,000	-0,007	-0,020
-344,650	-19,068	0,036	0,016
-343,635	-25,529	0,142	0,060
-342,620	-200,000	0,011	-0,057
-341,606	497,788	-0,038	-0,063
-340,591	-149,556	-0,071	0,004
-339,577	-160,395	0,154	-0,006
-338,562	-168,169	-0,113	0,003
-337,548	-17,906	0,131	-0,059
-336,533	-200,000	-0,003	0,013
-335,518	245,487	0,038	-0,046
-334,504	-26,577	0,139	0,058
-333,489	-200,000	0,018	0,094
-332,475	-101,475	-0,027	0,005
-331,460	99,250	-0,011	-0,009
-330,445	408,878	-0,027	0,041
-329,431	-183,675	0,112	0,001
-328,416	-200,000	0,005	-0,153
-327,402	-200,000	0,005	0,076
-326,387	245,553	-0,034	-0,040
-325,372	-200,000	0,012	0,053
-324,358	-9,008	-0,090	-0,043
-323,343	-200,000	0,002	-0,083
-322,329	38,973	0,151	0,096
-321,314	-118,248	0,061	-0,008
-320,299	116,191	-0,044	0,039
-319,285	-87,309	-0,067	-0,014
-318,270	590,017	0,039	-0,069
-317,256	25,044	-0,221	-0,130
-316,241	-40,021	-0,051	0,019
-315,226	-200,000	-0,005	0,049
-314,212	372,731	0,051	0,074
-313,197	18,235	0,183	0,104
-312,183	64,428	0,113	-0,081
-311,168	-200,000	-0,013	-0,165
-310,153	248,756	-0,108	-0,131
-309,139	73,423	0,033	-0,024
-308,124	-200,000	-0,007	0,113
-307,110	31,621	0,098	0,060
-306,095	410,676	0,084	-0,128
-305,080	158,598	-0,046	0,046
-304,066	800,000	-0,030	-0,063
-303,051	-200,000	0,024	0,101
-302,037	192,008	-0,042	-0,045
-301,022	-200,000	-0,005	-0,091
-300,008	81,686	0,016	-0,012
-298,993	800,000	-0,050	0,150
-297,978	-15,877	-0,096	0,043
-296,964	800,000	0,029	0,086
-295,949	-130,900	-0,159	0,015
-294,935	194,112	0,085	0,092
-293,920	-200,000	0,004	-0,146
-292,905	800,000	-0,017	0,038
-291,891	-17,531	0,136	-0,061
-290,876	91,593	0,064	0,051
-289,862	144,550	-0,103	0,098
-288,847	-82,896	-0,017	-0,004
-287,832	17,405	-0,087	0,049
-286,818	-160,121	0,156	-0,006
-285,803	-27,318	0,184	0,076
-284,789	800,000	0,032	0,068
-283,774	54,768	0,106	0,073
-282,759	800,000	0,050	-0,109
-281,745	800,000	0,033	-0,080
-280,730	-117,526	-0,057	-0,007
-279,716	-200,000	-0,018	-0,099
-278,701	581,958	0,049	0,086
-277,686	-85,226	0,113	0,025
-276,672	57,515	-0,148	0,103
-275,657	-20,336	-0,006	-0,003
-274,643	-57,350	-0,073	0,023
-273,628	-200,000	-0,005	-0,077
-272,613	170,900	-0,103	-0,106
-271,599	-164,512	0,063	-0,002
-270,584	-180,359	0,099	0,001
-269,570	265,963	-0,102	-0,126
-268,555	-183,101	-0,076	-0,001
-267,540	-200,000	0,001	-0,057
-266,526	-200,000	0,014	-0,062
-265,511	-200,000	0,004	0,118
-264,497	91,891	0,124	-0,099
-263,482	-200,000	-0,004	-0,073
-262,467	-200,000	0,009	-0,078
-261,453	-109,654	-0,046	0,007
-260,438	800,000	0,022	-0,067
-259,424	217,915	0,083	-0,094
-258,409	-200,000	0,034	-0,124
-257,395	236,642	-0,052	0,061
-256,380	566,088	0,024	-0,041
-255,365	456,089	0,055	0,088
-254,351	800,000	0,028	0,062
-253,336	-64,906	-0,092	0,026
-252,322	300,701	-0,041	-0,054
-251,307	800,000	0,030	0,080
-250,292	-200,000	-0,007	-0,121
-249,278	-200,000	-0,003	0,041
-248,263	5,843	0,035	0,019
-247,249	-200,000	0,018	-0,083
-246,234	-200,000	0,005	-0,047
-245,219	-154,568	-0,080	0,004
-244,205	-55,688	-0,146	0,046
-243,190	265,873	0,038	-0,047
-242,176	-103,552	-0,010	0,002
-241,161	-78,245	0,155	0,038
-240,146	563,911	-0,076	0,131
-239,132	133,466	0,062	0,057
-238,117	189,220	-0,000	-0,000
-237,103	800,000	0,018	-0,053
-236,088	800,000	0,091	0,243
-235,073	81,274	0,003	-0,002
-234,059	218,122	0,053	-0,060
-233,044	-134,465	-0,096	0,008
-232,030	800,000	0,015	-0,045
-231,015	235,236	0,036	0,043
-230,000	800,000	-0,017	0,038
-228,986	-80,933	-0,033	0,008
-227,971	688,051	0,115	0,215
-226,957	62,448	0,171	0,121
-225,942	207,858	0,009	0,010
-224,927	800,000	0,024	-0,049
-223,913	-200,000	0,008	-0,070
-222,898	217,978	-0,111	-0,125
-221,884	-80,767	0,051	-0,012
-220,869	-51,586	-0,107	0,035
-219,855	-159,902	-0,026	0,001
-218,840	800,000	0,025	-0,056
-217,825	771,404	0,015	0,029
-216,811	-200,000	0,006	0,150
-215,796	800,000	-0,046	-0,108
-214,782	-24,460	-0,067	-0,028
-213,767	5,776	0,071	-0,037
-212,752	-33,468	0,104	0,041
-211,738	258,471	-0,100	-0,123
-210,723	159,312	-0,017	-0,017
-209,709	-200,000	0,027	-0,138
-208,694	317,839	-0,125	-0,168
-207,679	-200,000	0,033	-0,105
-206,665	-200,000	0,018	0,171
-205,650	-130,025	0,148	0,014
-204,636	132,094	0,071	0,065
-203,621	-118,128	0,074	-0,009
-202,606	35,555	0,063	-0,039
-201,592	751,112	-0,049	0,093
-200,577	800,000	0,026	-0,077
-199,563	4,223	-0,116	-0,060
-198,548	-31,369	0,148	-0,059
-197,533	411,198	-0,035	0,053
-196,519	-79,080	0,159	-0,038
-195,504	-160,620	-0,161	0,006
-194,490	174,592	0,024	-0,024
-193,475	-15,018	-0,170	0,077
-192,460	-200,000	0,019	0,129
-191,446	-200,000	0,013	0,087
-190,431	268,465	0,039	-0,048
-189,417	101,544	0,102	0,084
-188,402	82,494	0,078	-0,060
-187,387	171,633	0,029	-0,029
-186,373	39,248	-0,126	-0,080
-185,358	-43,554	0,088	0,031
-184,344	130,271	0,102	-0,092
-183,329	-200,000	0,026	0,228
-182,315	-200,000	-0,008	0,105
-181,300	-119,710	0,240	-0,029
-180,285	800,000	0,034	-0,077
-179,271	800,000	-0,034	-0,069
-178,256	800,000	-0,061	-0,141
-177,242	-42,207	0,046	0,016
-176,227	-67,110	0,061	-0,017
-175,212	-200,000	0,031	0,120
-174,198	-200,000	-0,020	0,098
-173,183	85,706	0,123	-0,096
-172,169	-142,923	-0,130	0,009
-171,154	800,000	-0,078	-0,202
-170,139	-99,912	0,062	-0,011
-169,125	-200,000	0,010	0,094
-168,110	267,912	0,114	0,141
-167,096	-200,000	0,023	-0,118
-166,081	800,000	0,018	-0,056
-165,066	-13,570	-0,122	-0,056
-164,052	446,982	0,042	-0,066
-163,037	78,602	-0,067	-0,050
-162,023	-200,000	-0,004	0,028
-161,008	73,279	0,138	0,102
-159,993	-200,000	0,010	-0,045
-158,979	313,506	-0,054	-0,072
-157,964	-200,000	-0,004	-0,061
-156,950	19,619	0,087	-0,050
-155,935	-200,000	0,006	0,105
-154,920	-200,000	0,008	0,045
-153,906	800,000	0,030	0,075
-152,891	-200,000	0,011	0,059
-151,877	-92,699	0,070	0,014
-150,862	90,371	-0,079	0,063
-149,847	800,000	0,038	-0,094
-148,833	265,932	-0,059	0,073
-147,818	693,347	0,130	0,243
-146,804	-3,866	-0,101	0,049
-145,789	-34,470	0,132	0,051
-144,775	-200,000	0,002	-0,062
-143,760	800,000	-0,036	-0,075
-142,745	678,379	-0,053	0,098
-141,731	21,881	-0,138	-0,080
-140,716	-200,000	0,003	-0,014
-139,702	315,570	0,042	-0,056
-138,687	44,242	-0,078	0,050
-137,672	5,839	-0,053	-0,028
-136,658	-200,000	-0,007	-0,093
-135,643	-200,000	-0,003	-0,032
-134,629	452,675	-0,076	-0,120
-133,614	-200,000	0,003	0,070
-132,599	-200,000	0,001	0,095
-131,585	114,927	0,040	0,034
-130,570	-200,000	-0,045	-0,172
-129,556	-200,000	-0,004	0,038
-128,541	-34,267	0,031	0,012
-127,526	-13,952	0,045	-0,021
-126,512	150,811	-0,072	-0,069
-125,497	800,000	-0,026	0,053
-124,483	800,000	-0,085	0,190
-123,468	-79,321	-0,097	0,023
-122,453	-97,941	-0,221	-0,040
-121,439	-130,115	0,097	-0,009
-120,424	800,000	0,012	-0,028
-119,410	800,000	0,025	-0,072
-118,395	129,065	0,154	-0,139
-117,380	-99,397	0,049	0,009
-116,366	-200,000	-0,002	-0,043
-115,351	800,000	-0,018	0,045
-114,337	345,647	-0,043	-0,060
-113,322	-42,146	0,105	0,038
-112,307	-45,754	-0,124	-0,043
-111,293	316,945	0,051	-0,068
-110,278	800,000	0,030	-0,066
-109,264	158,126	0,076	0,075
-108,249	800,000	0,025	-0,058
-107,234	189,842	0,043	-0,046
-106,220	-200,000	0,012	-0,104
-105,205	337,489	0,057	0,079
-104,191	644,209	-0,022	0,039
-103,176	35,086	-0,100	0,062
-102,162	-200,000	0,005	0,097
-101,147	710,792	0,026	0,048
-100,132	800,000	0,001	0,004
-99,118	67,044	-0,040	0,029
-98,103	761,440	0,033	-0,063
-97,089	-200,000	0,057	0,000
-96,074	129,114	-0,035	0,031
-95,059	-200,000	-0,018	0,126
-94,045	136,917	-0,131	-0,121
-93,030	378,816	0,078	-0,113
-92,016	-200,000	0,006	-0,069
-91,001	-97,692	0,022	0,004
-89,986	395,662	0,031	-0,046
-88,972	800,000	0,014	0,043
-87,957	93,820	-0,102	0,082
-86,943	-66,109	-0,108	-0,030
-85,928	-91,975	-0,080	-0,016
-84,913	-200,000	-0,007	0,032
-83,899	174,322	0,062	0,064
-82,884	800,000	0,048	0,122
-81,870	455,988	0,070	-0,111
-80,855	24,236	-0,040	0,023
-79,840	-200,000	-0,022	0,074
-78,826	-200,000	0,022	0,075
-77,811	644,732	-0,103	-0,187
-76,797	145,343	0,098	0,093
-75,782	-200,000	0,005	-0,046
-74,767	469,164	0,015	0,023
-73,753	-200,000	0,032	0,179
-72,738	-200,000	0,041	0,144
-71,724	-82,269	-0,181	0,041
-70,709	58,829	-0,083	0,058
-69,694	-44,540	-0,193	0,068
-68,680	-200,000	0,016	0,054
-67,665	-200,000	-0,009	0,064
-66,651	-92,405	0,103	0,020
-65,636	800,000	-0,026	-0,063
-64,622	-31,390	-0,059	-0,024
-63,607	78,369	-0,107	-0,081
-62,592	-153,595	-0,010	0,000
-61,578	800,000	0,056	-0,112
-60,563	114,586	-0,042	0,037
-59,549	-200,000	-0,026	0,098
-58,534	54,870	-2,117	-1,440
-57,519	682,607	-1,064	-1,966
-56,505	-200,000	-0,306	-4,394
-55,490	549,011	0,912	1,548
-54,476	800,000	5,168	11,232
-53,461	-200,000	21,817	337,725
-52,446	800,000	759,162	2298,522
-51,432	533,858	1653,159	2774,529
-50,417	69,342	1651,012	1197,440
-49,403	16,622	1525,676	848,758
-48,388	10,826	1449,995	778,752
-47,373	18,968	1442,027	813,331
-46,359	14,157	1431,134	784,387
-45,344	9,110	1426,941	758,137
-44,330	9,111	1424,858	757,003
-43,315	9,099	1423,168	756,017
-42,300	9,113	1421,366	755,096
-41,286	9,116	1420,116	754,416
-40,271	9,067	1418,911	753,515
-39,257	9,094	1417,566	752,898
-38,242	9,090	1416,628	752,354
-37,227	9,130	1415,411	751,866
-36,213	9,111	1414,128	751,065
-35,198	9,103	1412,936	750,362
-34,184	9,132	1412,208	750,082
-33,169	9,007	1410,715	748,672
-32,154	9,069	1409,844	748,474
-31,140	9,042	1408,662	747,690
-30,125	9,104	1407,247	747,200
-29,111	9,065	1406,204	746,435
-28,096	9,067	1405,178	745,866
-27,082	9,069	1403,765	745,098
-26,067	9,032	1402,791	744,380
-25,052	9,043	1401,699	743,820
-24,038	9,079	1400,695	743,427
-23,023	9,007	1399,825	742,597
-22,009	9,042	1398,891	742,237
-20,994	8,997	1397,918	741,481
-19,979	8,995	1396,997	740,955
-18,965	9,048	1395,867	740,574
-17,950	8,972	1395,236	739,854
-16,936	8,943	1394,368	739,232
-15,921	8,927	1393,107	738,460
-14,906	8,941	1392,309	738,072
-13,892	8,987	1391,137	737,636
-12,877	8,945	1390,690	737,172
-11,863	8,947	1389,761	736,660
-10,848	8,927	1388,657	735,954
-9,833	8,888	1387,772	735,275
-8,819	8,848	1386,879	734,589
-7,804	8,879	1385,960	734,217
-6,790	8,842	1385,020	733,521
-5,775	8,881	1383,801	733,025
-4,760	8,862	1383,157	732,564
-3,746	8,828	1382,336	731,946
-2,731	8,914	1381,087	731,650
-1,717	8,876	1380,275	731,015
-0,702	8,844	1378,708	730,013
0,313	12,831	1290,154	701,250
1,327	28,786	682,580	406,822
2,342	44,472	117,658	76,084
3,356	-0,364	16,446	8,213
4,371	4,227	3,684	1,896
5,386	-10,989	1,225	0,568
6,400	-200,000	0,134	0,591
7,415	97,653	-0,205	-0,166
8,429	144,381	-0,252	-0,237
9,444	121,214	-0,301	-0,264
10,459	180,881	-0,099	-0,103
11,473	-108,863	-0,401	-0,060
12,488	-51,074	-0,274	-0,090
13,502	-1,001	-0,228	-0,113
14,517	-84,705	-0,231	-0,051
15,531	-24,919	-0,483	-0,201
16,546	278,682	-0,255	-0,321
17,561	149,913	-0,374	-0,357
18,575	-21,479	-0,205	-0,088
19,590	38,087	-0,308	-0,192
20,604	-134,016	-0,110	-0,009
21,619	43,696	-0,520	-0,334
22,634	79,732	-0,554	-0,419
23,648	46,386	-0,466	-0,304
24,663	-42,203	-0,365	-0,131
25,677	39,732	-0,365	-0,230
26,692	35,700	-0,297	-0,183
27,707	110,292	-0,369	-0,312
28,721	57,331	-0,328	-0,225
29,736	98,762	-0,383	-0,311
30,750	280,559	-0,321	-0,404
31,765	222,972	-0,221	-0,251
32,780	240,036	-0,288	-0,338
33,794	24,601	-0,330	-0,192
34,809	224,117	-0,324	-0,368
35,823	79,860	-0,362	-0,273
36,838	223,785	-0,324	-0,369
37,853	171,325	-0,290	-0,293
38,867	-9,250	-0,498	-0,233
39,882	28,503	-0,363	-0,215
40,896	47,418	-0,299	-0,195
41,911	123,968	-0,237	-0,209
42,926	-35,936	-0,286	-0,108
43,940	69,371	-0,324	-0,234
44,955	209,092	-0,352	-0,387
45,969	-28,918	-0,308	-0,124
46,984	-7,768	-0,356	-0,168
47,999	51,824	-0,372	-0,248
49,013	-65,924	-0,313	-0,087
50,028	180,162	-0,165	-0,170
51,042	169,785	-0,406	-0,408
52,057	121,347	-0,374	-0,327
53,071	-46,395	-0,363	-0,124
54,086	87,627	-0,377	-0,293
55,101	66,706	-0,343	-0,245
56,115	47,626	-0,463	-0,303
57,130	125,583	-0,435	-0,385
58,144	3,953	-0,468	-0,239
59,159	-24,994	-0,401	-0,166
60,174	56,720	-0,353	-0,241
61,188	219,314	-0,268	-0,302
62,203	-46,805	-0,269	-0,092
63,217	99,022	-0,250	-0,203
64,232	-7,250	-0,340	-0,161
65,247	532,841	-0,157	-0,262
66,261	-11,133	-0,438	-0,202
67,276	55,710	-0,389	-0,264
68,290	23,508	-0,429	-0,247
69,305	-16,372	-0,393	-0,174
70,320	39,078	-0,244	-0,153
71,334	-24,963	-0,315	-0,131
72,349	-50,193	-0,428	-0,141
73,363	-115,712	-0,277	-0,036
74,378	30,083	-0,380	-0,226
75,393	57,843	-0,347	-0,237
76,407	201,299	-0,154	-0,166
77,422	53,816	-0,228	-0,153
78,436	204,184	-0,172	-0,187
79,451	8,578	-0,341	-0,179
80,466	268,573	-0,255	-0,313
81,480	341,968	-0,201	-0,277
82,495	-22,516	-0,394	-0,166
83,509	-158,323	-0,169	-0,007
84,524	-47,833	-0,221	-0,074
85,539	-33,070	-0,232	-0,089
86,553	-41,355	-0,362	-0,130
87,568	-90,517	-0,264	-0,053
88,582	39,485	-0,283	-0,177
89,597	183,556	-0,214	-0,222
90,611	-45,534	-0,213	-0,074
91,626	-5,217	-0,264	-0,126
92,641	-92,600	-0,357	-0,069
93,655	4,259	-0,276	-0,141
94,670	107,175	-0,232	-0,193
95,684	28,605	-0,233	-0,137
96,699	33,394	-0,366	-0,221
97,714	75,655	-0,340	-0,251
98,728	11,547	-0,115	-0,061
99,743	90,729	-0,193	-0,151
100,757	188,513	-0,166	-0,173
101,772	43,190	-0,422	-0,269
102,787	97,851	-0,302	-0,243
103,801	53,036	-0,414	-0,276
104,816	-62,890	-0,262	-0,075
105,830	800,000	-0,084	-0,227
106,845	177,152	-0,218	-0,222
107,860	-60,576	-0,365	-0,108
108,874	45,186	-0,194	-0,125
109,889	166,189	-0,385	-0,381
110,903	-4,987	-0,239	-0,115
111,918	-109,583	-0,289	-0,042
112,933	330,931	-0,175	-0,236
113,947	-55,245	-0,194	-0,060
114,962	-38,852	-0,189	-0,069
115,976	270,080	-0,186	-0,228
116,991	175,723	-0,238	-0,241
118,006	11,224	-0,238	-0,127
119,020	-27,885	-0,210	-0,085
120,035	152,382	-0,232	-0,222
121,049	531,889	-0,162	-0,268
122,064	23,901	-0,290	-0,166
123,079	591,083	-0,119	-0,205
124,093	-13,556	-0,259	-0,117
125,108	157,822	-0,295	-0,285
126,122	587,529	-0,129	-0,222
127,137	141,396	-0,228	-0,210
128,151	47,586	-0,197	-0,128
129,166	-59,616	-0,328	-0,097
130,181	-161,439	-0,265	-0,009
131,195	78,428	-0,206	-0,154
132,210	255,790	-0,182	-0,217
133,224	-48,069	-0,201	0,067
134,239	295,937	-0,177	-0,227
135,254	52,819	-0,176	-0,117
136,268	-55,973	-0,233	-0,072
137,283	123,084	-0,144	-0,125
138,297	139,939	-0,297	-0,273
139,312	359,465	-0,137	-0,192
140,327	449,836	-0,121	-0,187
141,341	711,557	-0,167	-0,309
142,356	63,317	-0,278	-0,194
143,370	12,923	-0,114	-0,061
144,385	-36,640	-0,142	-0,053
145,400	800,000	-0,118	-0,261
146,414	143,029	-0,264	-0,244
147,429	106,623	-0,189	-0,156
148,443	214,491	-0,229	-0,252
149,458	-51,034	-0,226	-0,074
150,473	254,295	-0,132	-0,157
151,487	99,906	-0,298	-0,240
152,502	26,470	-0,162	-0,094
153,516	112,841	-0,334	-0,281
154,531	73,361	-0,290	-0,211
155,546	122,548	-0,138	-0,120
156,560	-54,187	-0,225	-0,071
157,575	-72,472	-0,207	-0,053
158,589	-111,105	-0,213	-0,030
159,604	295,330	-0,122	-0,156
160,619	-56,491	-0,250	-0,077
161,633	26,856	-0,303	-0,176
162,648	61,420	-0,183	-0,126
163,662	-25,802	-0,352	-0,144
164,677	-151,846	-0,115	0,006
165,692	15,238	-0,225	-0,122
166,706	231,981	-0,141	-0,161
167,721	79,908	-0,252	-0,188
168,735	-37,763	-0,403	-0,148
169,750	163,366	-0,193	-0,188
170,764	340,192	-0,132	-0,179
171,779	-9,451	-0,237	-0,110
172,794	53,790	-0,232	-0,154
173,808	-75,413	-0,253	-0,062
174,823	539,704	-0,177	-0,293
175,837	387,422	-0,214	-0,308
176,852	38,724	-0,328	-0,203
177,867	124,004	-0,203	-0,177
178,881	-40,839	-0,215	-0,077
179,896	-72,428	-0,159	-0,040
180,910	95,025	-0,127	-0,100
181,925	63,725	-0,198	-0,138
182,940	131,251	-0,309	-0,276
183,954	-34,940	-0,245	-0,092
184,969	223,232	-0,183	-0,205
185,983	800,000	-0,084	-0,229
186,998	142,748	-0,150	-0,139
188,013	247,344	-0,085	-0,100
189,027	162,763	-0,137	-0,134
190,042	-36,480	-0,288	-0,107
191,056	-129,226	-0,220	-0,021
192,071	-80,712	-0,105	-0,024
193,086	116,796	-0,194	-0,165
194,100	107,407	-0,183	-0,151
195,115	-4,552	-0,305	-0,146
196,129	-40,891	-0,303	-0,108
197,144	349,519	-0,187	-0,257
198,159	83,154	-0,322	-0,243
199,173	36,809	-0,205	-0,125
200,188	404,718	-0,110	-0,160
201,202	187,601	-0,224	-0,232
202,217	64,289	-0,255	-0,178
203,232	-10,262	-0,256	-0,117
204,246	-154,297	-0,154	0,007
205,261	391,169	-0,147	-0,212
206,275	35,556	-0,154	-0,094
207,290	-88,812	-0,218	-0,044
208,304	303,439	-0,159	-0,205
209,319	38,330	-0,198	-0,122
210,334	204,942	-0,113	-0,121
211,348	61,846	-0,224	-0,155
212,363	63,738	-0,346	-0,240
213,377	146,634	-0,243	-0,226
214,392	52,197	-0,164	-0,108
215,407	-23,529	-0,189	-0,078
216,421	-113,579	-0,131	0,018
217,436	-94,831	-0,168	-0,031
218,450	169,407	-0,233	-0,230
219,465	242,284	-0,198	-0,229
220,480	119,402	-0,164	-0,140
221,494	-56,374	-0,171	-0,052
222,509	102,383	-0,264	-0,213
223,523	251,650	-0,209	-0,247
224,538	300,045	-0,110	-0,140
225,553	52,218	-0,128	-0,085
226,567	0,340	-0,242	-0,119
227,582	16,634	-0,272	-0,148
228,596	107,756	-0,159	-0,131
229,611	-71,213	-0,105	-0,027
230,626	-25,214	-0,166	-0,068
231,640	186,433	-0,139	-0,143
232,655	527,299	-0,184	-0,302
233,669	0,185	-0,246	-0,121
234,684	308,648	-0,102	-0,132
235,699	-44,996	-0,151	-0,052
236,713	-96,249	-0,180	-0,033
237,728	65,953	-0,129	-0,090
238,742	-4,576	-0,197	-0,093
239,757	341,200	-0,190	-0,257
240,772	-53,757	-0,244	-0,076
241,786	800,000	-0,114	-0,341
242,801	456,524	-0,147	-0,226
243,815	9,521	-0,229	-0,119
244,830	168,994	-0,107	0,106
245,844	-80,615	-0,175	-0,040
246,859	11,215	-0,225	-0,119
247,874	-36,940	-0,204	-0,075
248,888	800,000	-0,062	-0,161
249,903	196,372	-0,168	-0,176
250,917	13,140	-0,172	-0,092
251,932	315,968	-0,082	-0,107
252,947	49,856	-0,274	-0,178
253,961	237,314	-0,166	-0,190
254,976	61,115	-0,209	-0,143
255,990	144,257	-0,168	-0,155
257,005	4,574	-0,185	-0,093
258,020	29,834	-0,094	-0,055
259,034	210,141	-0,133	-0,144
260,049	-119,537	-0,203	-0,024
261,063	119,008	-0,116	-0,099
262,078	170,698	-0,117	-0,116
263,093	-22,750	-0,202	-0,084
264,107	1,859	-0,160	-0,079
265,122	132,222	-0,105	-0,093
266,136	-19,983	-0,111	-0,047
267,151	-68,363	-0,237	-0,063
268,166	201,324	-0,127	-0,135
269,180	-108,945	-0,163	0,024
270,195	-23,783	-0,090	-0,037
271,209	-62,216	-0,218	-0,062
272,224	66,591	-0,138	-0,096
273,239	-58,701	-0,179	-0,053
274,253	-100,553	-0,091	-0,015
275,268	-67,423	-0,191	-0,051
276,282	14,681	-0,179	-0,096
277,297	-11,046	-0,229	-0,103
278,312	189,509	-0,083	-0,086
279,326	151,004	-0,086	-0,081
280,341	18,192	-0,208	0,114
281,355	114,218	-0,046	0,039
282,370	-74,798	-0,167	-0,041
283,384	-172,608	-0,190	0,004
284,399	59,825	-0,191	-0,130
285,414	-161,908	-0,325	-0,011
286,428	-105,535	-0,102	0,016
287,443	-106,919	-0,141	0,021
288,457	-49,592	-0,098	0,032
289,472	-136,856	-0,189	0,015
290,487	-16,921	-0,195	-0,084
291,501	-110,289	-0,296	-0,042
292,516	-200,000	0,012	-0,178
293,530	153,922	-0,080	-0,075
294,545	129,097	-0,173	-0,151
295,560	-43,459	-0,086	-0,030
296,574	-4,720	-0,151	-0,072
297,589	-2,724	-0,198	-0,095
298,603	-19,526	-0,236	-0,100
299,618	-24,825	-0,145	-0,059
300,633	357,475	-0,138	-0,189
301,647	-99,125	-0,154	-0,027
302,662	800,000	-0,056	-0,111
303,676	498,945	-0,123	-0,196
304,691	87,360	-0,172	-0,131
305,706	259,208	-0,114	-0,135
306,720	-200,000	0,019	-0,166
307,735	27,311	-0,122	-0,070
308,749	-48,632	-0,163	-0,053
309,764	3,868	-0,183	-0,092
310,779	-57,836	-0,086	-0,026
311,793	-200,000	-0,024	-0,115
312,808	49,299	-0,151	-0,097
313,822	390,309	-0,101	-0,144
314,837	162,489	-0,068	-0,066
315,852	-174,943	-0,182	-0,003
316,866	-156,206	-0,296	0,013
317,881	47,141	-0,166	-0,105
318,895	504,525	-0,067	-0,106
319,910	65,559	-0,168	-0,117
320,925	145,099	-0,187	-0,172
321,939	682,739	-0,109	-0,196
322,954	800,000	-0,035	-0,078
323,968	-154,111	-0,077	-0,004
324,983	-200,000	0,014	-0,165
325,997	32,362	-0,111	-0,065
327,012	129,730	-0,068	-0,060
328,027	-161,450	-0,170	-0,006
329,041	-85,958	-0,092	-0,019
330,056	-200,000	-0,011	-0,102
331,070	-14,239	-0,123	-0,054
332,085	95,523	-0,062	-0,048
333,100	540,576	-0,059	-0,096
334,114	70,811	-0,139	-0,099
335,129	33,181	-0,113	-0,067
336,143	192,648	-0,130	-0,135
337,158	298,271	-0,093	-0,118
338,173	-16,683	-0,205	-0,088
339,187	-10,336	-0,080	-0,036
340,202	138,612	-0,137	0,124
341,216	-39,920	-0,075	-0,027
342,231	-35,316	-0,179	-0,066
343,246	-88,997	-0,117	0,023
344,260	-57,969	-0,110	-0,033
345,275	12,791	-0,090	-0,048
346,289	136,274	-0,123	-0,110
347,304	87,899	-0,103	-0,078
348,319	-58,240	-0,059	-0,017
349,333	-76,329	-0,054	-0,013
350,348	628,037	-0,012	0,021
351,362	-200,000	-0,008	-0,034
352,377	-50,616	-0,151	-0,048
353,392	-200,000	0,017	-0,064
354,406	189,624	-0,138	-0,142
355,421	207,039	1306,560	1394,420
356,435	159,254	1466,238	1394,881
