DTS Sentinel unit serial number:	SN410029Multiplexer serial number:	ORYXHardware model number:	OX2-SRSoftware version number:	ORYX F/W v4,00 Oryx Data Collector v3.7.2.0data status	okinstallation	B3 Nyhavnadifferential loss correction	single-endedforward channel	channel 1reverse channel	N/Adate	2023/12/04time	04:47:30forward acquisition time	300,00reverse acquisition time	0,00gamma	499,1914k internal	0,3206k external	0,3206temperature offset calibration	1,0000default loss term (dB/km)	0,3820temperature slope calibration	1,0000multiplexer offset coefficient	1,0000multiplexer slope coefficient	1,0000fibre end	0,00T internal ref (°C)	11,95T ext. ref 1 (°C)	-3,09T ext. ref 2 (°C)	-3,11length (m)	temperature (°C)	Stokes	anti-Stokes-744,400	668,125	-0,150	-0,283
-743,385	800,000	-0,127	0,291
-742,371	272,911	-0,145	-0,186
-741,356	800,000	0,126	0,256
-740,342	144,577	-0,196	-0,190
-739,327	-200,000	0,010	0,257
-738,312	156,440	-0,235	-0,235
-737,298	-200,000	-0,074	0,338
-736,283	539,435	-0,124	-0,214
-735,269	-200,000	0,081	0,407
-734,254	200,520	-0,196	-0,218
-733,239	-118,981	-0,331	0,042
-732,225	-200,000	-0,039	-0,192
-731,210	-200,000	0,031	0,160
-730,196	-81,000	0,063	0,015
-729,181	-200,000	0,014	-0,061
-728,167	-118,363	-0,139	0,018
-727,152	-129,908	0,124	0,012
-726,137	-39,152	-0,059	-0,022
-725,123	126,628	-0,066	-0,061
-724,108	374,455	-0,088	-0,130
-723,094	-177,968	-0,170	-0,003
-722,079	62,400	-0,108	-0,079
-721,064	750,058	0,038	-0,075
-720,050	273,631	-0,067	-0,087
-719,035	-200,000	0,014	-0,058
-718,021	472,924	-0,073	0,119
-717,006	800,000	-0,028	-0,058
-715,991	-57,819	-0,113	-0,036
-714,977	-72,910	0,105	-0,028
-713,962	-66,217	-0,161	-0,046
-712,948	800,000	0,083	0,214
-711,933	213,360	0,085	-0,098
-710,918	645,791	0,031	-0,058
-709,904	800,000	0,030	0,077
-708,889	182,621	-0,056	-0,060
-707,875	-200,000	0,016	-0,101
-706,860	-15,252	0,013	-0,006
-705,845	153,096	-0,037	-0,037
-704,831	-80,131	0,114	0,027
-703,816	-81,309	-0,140	0,033
-702,802	-200,000	0,007	0,129
-701,787	-200,000	-0,016	-0,098
-700,772	788,903	0,047	-0,094
-699,758	-128,165	0,049	-0,005
-698,743	-107,265	0,087	-0,014
-697,729	22,133	0,055	-0,032
-696,714	-90,478	-0,022	-0,004
-695,699	-26,965	0,080	-0,034
-694,685	-200,000	-0,010	0,038
-693,670	800,000	-0,028	-0,066
-692,656	164,687	0,099	-0,102
-691,641	-55,423	-0,095	0,031
-690,627	44,805	0,119	0,079
-689,612	-27,734	0,058	0,024
-688,597	22,096	0,027	0,016
-687,583	-58,739	-0,029	-0,009
-686,568	274,230	-0,033	0,043
-685,554	317,685	-0,098	-0,135
-684,539	-62,035	-0,023	-0,007
-683,524	-200,000	-0,020	0,117
-682,510	137,361	0,041	-0,039
-681,495	-200,000	0,002	0,021
-680,481	-96,170	-0,022	-0,004
-679,466	63,493	-0,095	-0,069
-678,451	-65,920	-0,157	0,045
-677,437	-200,000	0,041	-0,141
-676,422	-47,358	-0,070	0,024
-675,408	-170,750	-0,080	-0,002
-674,393	-55,230	-0,169	0,055
-673,378	-200,000	0,027	-0,210
-672,364	-83,136	-0,146	0,034
-671,349	132,933	0,009	0,009
-670,335	262,136	-0,069	-0,087
-669,320	3,920	-0,163	0,086
-668,305	205,752	-0,013	-0,014
-667,291	35,633	-0,097	0,061
-666,276	27,971	-0,086	0,052
-665,262	-33,086	-0,045	-0,018
-664,247	-200,000	0,001	-0,083
-663,232	-200,000	-0,009	0,115
-662,218	-200,000	0,013	0,055
-661,203	-144,219	-0,083	-0,006
-660,189	-200,000	-0,005	0,093
-659,174	-34,544	-0,085	-0,034
-658,159	285,658	-0,079	-0,104
-657,145	800,000	0,044	-0,122
-656,130	71,242	0,043	-0,032
-655,116	371,000	-0,027	-0,039
-654,101	800,000	0,033	0,086
-653,086	-109,451	0,091	-0,014
-652,072	138,389	-0,087	0,083
-651,057	134,591	-0,095	0,090
-650,043	-200,000	0,014	0,057
-649,028	-68,053	0,073	-0,020
-648,014	693,860	0,039	-0,074
-646,999	800,000	-0,022	-0,052
-645,984	35,307	-0,033	0,021
-644,970	-52,495	-0,062	-0,021
-643,955	316,995	-0,060	-0,082
-642,941	124,471	-0,122	-0,111
-641,926	-51,055	-0,026	-0,009
-640,911	71,309	0,049	0,037
-639,897	-200,000	0,006	-0,047
-638,882	171,515	-0,073	-0,076
-637,868	27,222	0,146	-0,088
-636,853	47,854	-0,075	-0,051
-635,838	-99,570	0,025	-0,004
-634,824	463,211	0,052	0,084
-633,809	-10,440	-0,096	0,046
-632,795	-88,324	-0,078	0,017
-631,780	-77,942	-0,058	-0,014
-630,765	-85,353	-0,112	0,025
-629,751	137,453	-0,075	-0,071
-628,736	87,422	0,093	-0,075
-627,722	-200,000	0,018	-0,169
-626,707	668,745	-0,022	-0,042
-625,692	800,000	0,062	0,179
-624,678	800,000	-0,035	0,100
-623,663	-116,544	-0,034	-0,004
-622,649	800,000	0,039	-0,079
-621,634	66,054	0,051	-0,037
-620,619	-200,000	-0,094	0,000
-619,605	-147,932	-0,145	-0,009
-618,590	229,145	-0,090	-0,106
-617,576	-200,000	-0,000	-0,023
-616,561	-200,000	0,025	0,125
-615,546	-117,328	-0,069	0,009
-614,532	-200,000	0,015	0,063
-613,517	137,512	0,065	-0,062
-612,503	800,000	0,050	0,115
-611,488	-200,000	-0,012	0,045
-610,474	60,699	0,100	0,071
-609,459	800,000	-0,023	0,062
-608,444	138,716	0,058	-0,055
-607,430	-187,601	0,111	-0,001
-606,415	-43,845	-0,017	-0,006
-605,401	800,000	-0,010	-0,023
-604,386	37,229	0,106	-0,067
-603,371	-200,000	-0,001	-0,023
-602,357	73,139	-0,067	0,050
-601,342	31,915	0,080	-0,050
-600,328	172,658	-0,126	-0,131
-599,313	800,000	-0,043	-0,104
-598,298	800,000	0,025	-0,062
-597,284	800,000	0,034	0,091
-596,269	91,942	-0,053	0,043
-595,255	-65,063	-0,220	0,064
-594,240	-92,662	-0,070	0,014
-593,225	181,432	0,043	0,046
-592,211	-200,000	-0,004	0,042
-591,196	-200,000	0,003	-0,057
-590,182	360,166	-0,078	-0,113
-589,167	-77,601	0,038	0,009
-588,152	-200,000	0,047	0,000
-587,138	349,391	-0,026	0,037
-586,123	20,082	-0,119	-0,069
-585,109	194,762	-0,091	0,100
-584,094	-200,000	0,006	-0,039
-583,079	-200,000	-0,002	-0,020
-582,065	333,471	-0,055	0,077
-581,050	800,000	-0,055	-0,161
-580,036	800,000	0,030	0,068
-579,021	82,458	-0,045	0,036
-578,006	28,251	0,073	-0,045
-576,992	33,891	-0,050	-0,031
-575,977	800,000	-0,061	0,192
-574,963	-91,515	0,086	-0,018
-573,948	-116,943	0,156	-0,020
-572,934	-200,000	0,013	0,163
-571,919	-61,705	-0,164	0,049
-570,904	-119,685	0,058	0,007
-569,890	-200,000	-0,002	-0,063
-568,875	-145,234	0,092	-0,006
-567,861	77,051	-0,039	-0,030
-566,846	-200,000	-0,015	0,084
-565,831	426,729	0,039	0,061
-564,817	-200,000	-0,029	-0,115
-563,802	116,013	-0,086	-0,076
-562,788	80,407	-0,046	0,036
-561,773	800,000	0,024	-0,070
-560,758	-200,000	0,003	-0,079
-559,744	-22,406	0,033	-0,014
-558,729	-9,429	0,045	-0,021
-557,715	-4,214	-0,031	-0,015
-556,700	-200,000	0,015	-0,100
-555,685	90,520	-0,100	-0,080
-554,671	363,050	-0,080	0,116
-553,656	800,000	-0,035	0,084
-552,642	777,084	-0,062	0,123
-551,627	-92,638	-0,115	-0,023
-550,612	-200,000	-0,002	-0,022
-549,598	-200,000	0,002	-0,136
-548,583	15,644	-0,056	0,032
-547,569	-200,000	0,014	0,045
-546,554	26,732	-0,024	0,014
-545,539	58,855	-0,033	0,023
-544,525	80,848	0,038	0,029
-543,510	112,657	-0,071	-0,062
-542,496	800,000	0,017	-0,048
-541,481	-20,228	-0,013	-0,006
-540,466	43,464	-0,088	0,058
-539,452	504,456	0,087	0,146
-538,437	26,559	0,023	-0,014
-537,423	73,970	0,076	-0,057
-536,408	-39,544	-0,197	0,074
-535,393	-69,688	-0,066	0,018
-534,379	13,019	-0,072	0,040
-533,364	-121,359	0,107	-0,013
-532,350	-43,588	0,037	0,013
-531,335	97,517	0,108	-0,089
-530,321	-144,438	0,163	0,011
-529,306	159,427	0,097	0,098
-528,291	228,004	-0,070	-0,082
-527,277	-200,000	-0,011	-0,040
-526,262	-200,000	-0,023	-0,131
-525,248	-117,385	-0,116	-0,015
-524,233	-174,571	0,083	0,002
-523,218	-22,823	0,053	0,023
-522,204	800,000	-0,010	0,021
-521,189	-200,000	-0,026	-0,085
-520,175	-200,000	-0,015	-0,130
-519,160	-200,000	0,004	-0,171
-518,145	800,000	-0,010	0,023
-517,131	421,211	-0,050	0,077
-516,116	12,813	0,181	0,101
-515,102	-200,000	0,093	-0,000
-514,087	-119,852	-0,111	-0,014
-513,072	-87,342	0,049	0,011
-512,058	122,257	0,028	-0,026
-511,043	800,000	-0,021	-0,062
-510,029	-200,000	-0,005	-0,059
-509,014	-46,220	0,037	0,013
-507,999	-200,000	0,021	-0,089
-506,985	-31,360	0,082	-0,033
-505,970	-120,638	-0,149	-0,018
-504,956	-94,036	0,161	-0,031
-503,941	96,937	-0,044	-0,036
-502,926	-200,000	-0,000	0,091
-501,912	106,117	-0,032	0,028
-500,897	-102,946	-0,073	-0,012
-499,883	-2,247	-0,017	0,008
-498,868	800,000	0,030	-0,066
-497,853	423,950	-0,028	-0,043
-496,839	800,000	-0,031	0,081
-495,824	-200,000	0,018	0,083
-494,810	15,302	0,116	0,065
-493,795	-200,000	-0,013	-0,111
-492,781	227,590	-0,025	-0,030
-491,766	800,000	0,013	0,028
-490,751	553,508	-0,072	-0,125
-489,737	-200,000	0,010	-0,083
-488,722	-18,977	0,146	0,065
-487,708	70,145	-0,119	0,088
-486,693	-200,000	-0,021	0,088
-485,678	800,000	0,056	0,130
-484,664	-183,322	-0,149	0,002
-483,649	-200,000	0,027	-0,153
-482,635	-140,781	0,161	0,012
-481,620	-42,654	-0,041	-0,015
-480,605	-35,879	-0,194	-0,075
-479,591	-9,808	0,056	-0,027
-478,576	-49,020	-0,062	0,021
-477,562	27,055	-0,032	-0,019
-476,547	-20,845	-0,039	0,017
-475,532	558,866	-0,049	0,085
-474,518	56,359	0,062	0,043
-473,503	800,000	0,016	0,041
-472,489	-123,221	-0,108	0,012
-471,474	-81,910	-0,036	0,008
-470,459	800,000	-0,064	-0,134
-469,445	-32,871	-0,069	-0,027
-468,430	468,399	0,065	-0,105
-467,416	-200,000	-0,004	0,157
-466,401	-157,028	0,113	-0,005
-465,386	-131,357	0,175	0,016
-464,372	800,000	0,024	0,050
-463,357	800,000	-0,016	-0,044
-462,343	-101,206	0,084	0,015
-461,328	-200,000	-0,009	-0,046
-460,313	-200,000	-0,001	0,019
-459,299	-200,000	0,011	-0,052
-458,284	182,857	0,102	0,108
-457,270	800,000	-0,003	-0,007
-456,255	198,217	-0,094	0,103
-455,241	175,790	-0,042	-0,044
-454,226	800,000	-0,114	-0,290
-453,211	800,000	-0,041	-0,124
-452,197	-74,634	-0,029	0,008
-451,182	800,000	-0,022	0,053
-450,168	800,000	-0,089	0,206
-449,153	121,105	-0,050	-0,045
-448,138	618,563	0,036	-0,065
-447,124	45,527	-0,021	-0,014
-446,109	404,896	-0,028	-0,043
-445,095	800,000	-0,042	-0,123
-444,080	143,709	-0,062	0,059
-443,065	-77,067	-0,094	0,023
-442,051	6,660	-0,058	-0,031
-441,036	393,131	0,045	0,067
-440,022	-90,816	-0,089	0,018
-439,007	-115,040	-0,075	0,010
-437,992	-200,000	-0,013	-0,090
-436,978	800,000	-0,018	0,052
-435,963	240,749	-0,072	0,086
-434,949	-200,000	0,001	-0,017
-433,934	-200,000	0,046	-0,163
-432,919	800,000	0,008	-0,019
-431,905	800,000	0,045	0,105
-430,890	-87,264	-0,054	0,012
-429,876	-200,000	-0,009	0,043
-428,861	183,964	-0,059	0,063
-427,846	-200,000	0,002	0,110
-426,832	1,812	0,069	0,035
-425,817	481,638	0,038	-0,062
-424,803	-200,000	-0,009	-0,081
-423,788	478,079	0,054	0,088
-422,773	-200,000	0,016	0,075
-421,759	-200,000	-0,013	0,124
-420,744	-16,914	0,044	0,020
-419,730	-44,157	0,039	0,014
-418,715	401,105	0,042	-0,063
-417,701	99,803	-0,044	-0,037
-416,686	-21,830	0,018	-0,008
-415,671	309,260	-0,065	0,087
-414,657	466,629	0,083	0,135
-413,642	-200,000	0,023	0,110
-412,628	-111,321	0,061	0,009
-411,613	-154,551	-0,206	0,010
-410,598	277,169	-0,034	0,044
-409,584	617,735	0,039	-0,071
-408,569	-200,000	0,011	0,125
-407,555	103,364	-0,034	0,028
-406,540	3,863	0,034	-0,018
-405,525	-142,243	-0,073	0,005
-404,511	800,000	-0,031	-0,073
-403,496	-123,031	0,071	0,008
-402,482	229,695	0,027	-0,031
-401,467	800,000	-0,048	0,141
-400,452	800,000	0,071	0,186
-399,438	229,770	-0,053	-0,062
-398,423	-145,084	-0,034	0,002
-397,409	-91,153	0,066	0,013
-396,394	447,127	-0,034	-0,054
-395,379	-17,700	0,078	-0,035
-394,365	79,709	0,071	0,055
-393,350	36,146	0,013	0,008
-392,336	-98,330	0,078	0,014
-391,321	-200,000	-0,021	-0,082
-390,306	-200,000	0,018	-0,099
-389,292	-200,000	-0,045	-0,148
-388,277	-200,000	0,013	-0,114
-387,263	109,779	0,044	-0,038
-386,248	-166,929	-0,066	-0,002
-385,233	62,875	0,068	0,049
-384,219	40,673	0,032	0,021
-383,204	-73,179	0,173	-0,045
-382,190	-40,614	-0,095	-0,035
-381,175	-63,483	0,090	0,026
-380,160	25,837	0,099	-0,059
-379,146	218,559	0,027	0,031
-378,131	-6,740	-0,028	-0,014
-377,117	-200,000	-0,006	0,025
-376,102	800,000	-0,023	0,054
-375,088	51,744	-0,073	-0,050
-374,073	284,480	-0,024	-0,031
-373,058	72,497	0,089	0,067
-372,044	52,212	0,088	0,060
-371,029	-34,072	-0,085	-0,033
-370,015	510,339	-0,033	0,054
-369,000	-3,380	0,084	-0,041
-367,985	-200,000	-0,034	-0,113
-366,971	800,000	0,042	-0,085
-365,956	213,312	0,101	0,115
-364,942	2,262	-0,146	-0,075
-363,927	156,643	0,093	-0,092
-362,912	165,032	0,046	-0,046
-361,898	214,057	0,071	-0,080
-360,883	-200,000	0,025	-0,105
-359,869	-43,208	0,092	-0,033
-358,854	-124,538	-0,087	0,010
-357,839	161,551	-0,034	0,034
-356,825	318,371	0,109	0,148
-355,810	214,564	0,122	0,138
-354,796	211,079	-0,081	0,091
-353,781	800,000	-0,094	0,211
-352,766	192,223	-0,045	0,048
-351,752	-57,038	0,176	0,055
-350,737	-200,000	0,005	0,040
-349,723	800,000	0,041	0,081
-348,708	499,083	0,025	-0,041
-347,693	-10,918	-0,045	-0,021
-346,679	37,086	0,064	0,040
-345,664	-200,000	0,008	0,053
-344,650	88,289	0,016	0,013
-343,635	800,000	0,048	0,129
-342,620	-200,000	-0,002	-0,070
-341,606	-200,000	-0,009	-0,075
-340,591	502,859	-0,154	0,256
-339,577	2,638	-0,072	0,037
-338,562	800,000	0,011	-0,025
-337,548	-79,606	0,148	0,035
-336,533	-161,232	0,234	0,009
-335,518	-200,000	0,006	0,030
-334,504	-42,764	-0,115	0,042
-333,489	-131,991	0,103	0,009
-332,475	16,593	-0,111	-0,063
-331,460	519,680	0,015	-0,025
-330,445	-200,000	0,008	-0,070
-329,431	-138,285	-0,028	0,002
-328,416	-73,964	0,100	0,026
-327,402	482,921	0,024	0,039
-326,387	-200,000	0,009	0,034
-325,372	-133,858	-0,045	-0,004
-324,358	-24,676	-0,158	-0,067
-323,343	800,000	-0,011	0,022
-322,329	800,000	-0,031	-0,078
-321,314	596,313	0,032	-0,057
-320,299	20,910	-0,022	0,013
-319,285	681,335	-0,036	-0,067
-318,270	-136,659	0,244	-0,020
-317,256	-200,000	-0,028	-0,170
-316,241	-62,900	0,142	0,042
-315,226	800,000	0,016	-0,038
-314,212	168,637	0,107	0,109
-313,197	-200,000	-0,023	0,074
-312,183	-116,606	0,041	0,005
-311,168	-200,000	0,002	-0,071
-310,153	-44,635	0,080	-0,029
-309,139	-200,000	-0,020	-0,138
-308,124	122,419	0,118	-0,105
-307,110	-200,000	0,011	0,043
-306,095	3,374	0,051	0,027
-305,080	-6,250	0,065	0,032
-304,066	259,280	-0,027	-0,033
-303,051	45,442	-0,047	0,031
-302,037	492,764	0,074	-0,121
-301,022	215,237	-0,093	-0,106
-300,008	800,000	0,026	0,066
-298,993	274,404	0,082	0,104
-297,978	229,468	-0,041	0,048
-296,964	-48,459	-0,069	-0,024
-295,949	-40,279	-0,054	0,020
-294,935	-41,756	-0,084	0,031
-293,920	-79,162	0,115	-0,028
-292,905	-200,000	0,015	0,104
-291,891	-200,000	-0,020	0,083
-290,876	24,237	0,083	0,049
-289,862	255,029	-0,050	0,061
-288,847	-200,000	-0,018	-0,087
-287,832	-200,000	0,008	-0,127
-286,818	-200,000	-0,024	0,132
-285,803	45,250	-0,099	0,065
-284,789	-166,654	-0,042	0,001
-283,774	-170,642	-0,050	-0,001
-282,759	-200,000	0,005	-0,025
-281,745	-61,787	-0,036	0,011
-280,730	103,114	-0,081	0,068
-279,716	376,593	-0,077	0,112
-278,701	592,500	0,029	0,052
-277,686	-200,000	-0,017	0,095
-276,672	88,962	0,056	0,045
-275,657	76,044	0,102	-0,077
-274,643	-200,000	-0,003	0,012
-273,628	-15,100	-0,081	0,037
-272,613	140,931	0,062	-0,058
-271,599	-93,888	0,072	0,014
-270,584	26,223	-0,028	0,016
-269,570	199,511	0,096	0,106
-268,555	-13,213	-0,091	-0,042
-267,540	800,000	-0,042	-0,125
-266,526	121,090	-0,136	0,121
-265,511	-200,000	-0,009	0,066
-264,497	117,530	-0,092	0,080
-263,482	-168,763	0,250	0,007
-262,467	232,377	-0,044	-0,052
-261,453	-200,000	-0,004	0,064
-260,438	800,000	0,018	0,056
-259,424	800,000	-0,047	0,094
-258,409	151,152	-0,048	-0,047
-257,395	-200,000	-0,012	0,055
-256,380	81,248	0,054	0,041
-255,365	79,833	0,093	-0,071
-254,351	-87,497	-0,047	-0,010
-253,336	-104,797	-0,132	0,021
-252,322	-17,748	-0,069	-0,031
-251,307	-143,134	0,088	-0,006
-250,292	-116,248	0,138	0,018
-249,278	130,461	0,077	-0,071
-248,263	310,025	-0,073	0,098
-247,249	800,000	-0,079	0,179
-246,234	158,762	-0,046	-0,045
-245,219	401,858	-0,050	0,075
-244,205	-200,000	0,000	-0,040
-243,190	146,312	0,073	0,070
-242,176	63,438	0,073	-0,052
-241,161	239,482	0,029	0,034
-240,146	-127,442	-0,049	-0,005
-239,132	-131,645	0,060	0,005
-238,117	30,474	-0,055	-0,033
-237,103	-200,000	0,017	-0,133
-236,088	-200,000	0,014	-0,072
-235,073	-200,000	-0,001	0,009
-234,059	222,726	-0,053	0,061
-233,044	72,293	0,049	0,036
-232,030	800,000	-0,033	-0,071
-231,015	-85,163	-0,139	0,031
-230,000	-200,000	0,019	0,092
-228,986	76,475	0,023	-0,018
-227,971	239,607	-0,037	-0,044
-226,957	111,983	-0,022	0,019
-225,942	-192,989	0,042	0,000
-224,927	1,659	0,083	-0,043
-223,913	54,835	-0,072	0,050
-222,898	-49,417	-0,036	0,012
-221,884	-86,699	-0,114	0,025
-220,869	-145,094	-0,090	0,006
-219,855	-146,891	0,060	0,004
-218,840	6,003	-0,049	0,026
-217,825	-118,769	0,096	-0,012
-216,811	-199,482	-0,183	-0,001
-215,796	-107,872	0,088	-0,013
-214,782	-200,000	-0,018	-0,080
-213,767	-200,000	-0,021	0,142
-212,752	291,584	0,013	-0,017
-211,738	800,000	0,065	0,172
-210,723	206,116	0,106	0,118
-209,709	-74,147	-0,027	-0,007
-208,694	187,562	-0,042	-0,045
-207,679	320,029	0,022	-0,030
-206,665	-54,990	-0,065	0,021
-205,650	-22,068	0,091	0,039
-204,636	-119,946	-0,036	0,004
-203,621	-21,643	-0,015	-0,006
-202,606	249,504	-0,035	-0,042
-201,592	309,296	0,028	-0,037
-200,577	-200,000	-0,011	-0,073
-199,563	800,000	0,029	-0,085
-198,548	-164,965	0,073	0,002
-197,533	-23,060	0,090	-0,038
-196,519	-200,000	0,029	0,145
-195,504	-200,000	-0,009	0,036
-194,490	-64,016	-0,121	-0,035
-193,475	-35,177	-0,042	0,016
-192,460	200,591	-0,095	-0,104
-191,446	-10,944	0,056	-0,026
-190,431	179,354	0,033	0,034
-189,417	800,000	0,018	0,036
-188,402	18,482	-0,119	-0,067
-187,387	-200,000	-0,013	-0,201
-186,373	587,240	-0,069	-0,121
-185,358	180,093	0,120	-0,125
-184,344	21,021	0,094	0,054
-183,329	-200,000	0,011	0,035
-182,315	-106,521	0,099	-0,015
-181,300	320,291	-0,099	0,134
-180,285	-200,000	0,049	-0,161
-179,271	-26,266	-0,067	0,028
-178,256	-87,134	0,144	0,031
-177,242	-22,632	-0,059	0,025
-176,227	-200,000	0,006	0,176
-175,212	-25,167	0,127	0,053
-174,198	50,433	0,057	0,038
-173,183	-191,974	0,006	0,000
-172,169	79,972	0,102	-0,078
-171,154	-15,602	-0,061	-0,027
-170,139	328,832	0,084	-0,115
-169,125	85,759	0,012	-0,009
-168,110	800,000	-0,030	0,073
-167,096	-200,000	-0,008	0,069
-166,081	251,506	-0,083	-0,100
-165,066	-200,000	0,017	-0,181
-164,052	-113,911	-0,005	-0,001
-163,037	800,000	-0,064	-0,164
-162,023	-200,000	-0,000	0,040
-161,008	-87,233	0,114	0,024
-159,993	-200,000	0,007	-0,181
-158,979	117,648	0,094	-0,082
-157,964	-174,224	-0,022	-0,000
-156,950	-14,445	0,114	-0,052
-155,935	-200,000	0,004	-0,039
-154,920	-24,933	0,136	0,057
-153,906	-200,000	0,025	0,106
-152,891	-200,000	-0,004	-0,045
-151,877	164,252	-0,041	0,041
-150,862	111,112	0,044	0,037
-149,847	265,117	-0,045	-0,056
-148,833	-200,000	0,016	0,067
-147,818	-200,000	0,006	-0,081
-146,804	800,000	-0,032	0,066
-145,789	-200,000	0,004	0,200
-144,775	-22,166	-0,070	0,030
-143,760	-1,551	0,181	-0,090
-142,745	-200,000	0,045	-0,162
-141,731	-9,059	0,103	-0,048
-140,716	-98,047	0,032	-0,006
-139,702	-54,126	0,082	-0,026
-138,687	-200,000	0,005	-0,028
-137,672	-117,555	0,084	0,011
-136,658	70,565	-0,097	0,071
-135,643	197,761	0,084	0,091
-134,629	800,000	-0,033	0,082
-133,614	-154,968	0,109	-0,005
-132,599	-200,000	0,045	0,151
-131,585	295,547	-0,038	0,050
-130,570	-8,194	-0,068	-0,032
-129,556	-62,848	-0,138	0,040
-128,541	210,384	-0,032	-0,035
-127,526	99,415	-0,060	0,049
-126,512	-2,535	-0,156	0,077
-125,497	-200,000	0,008	-0,052
-124,483	612,544	-0,017	0,030
-123,468	-200,000	-0,002	-0,048
-122,453	800,000	-0,022	-0,044
-121,439	-200,000	-0,011	-0,119
-120,424	-33,444	-0,044	-0,017
-119,410	254,573	0,061	0,074
-118,395	-200,000	0,003	-0,072
-117,380	283,539	-0,012	0,015
-116,366	-200,000	0,039	0,128
-115,351	544,176	0,029	-0,048
-114,337	143,335	0,013	-0,012
-113,322	469,364	-0,072	0,114
-112,307	-200,000	0,030	0,129
-111,293	178,913	0,063	0,065
-110,278	1,019	0,126	-0,064
-109,264	508,596	-0,037	0,061
-108,249	-58,316	0,061	0,019
-107,234	58,201	-0,061	-0,042
-106,220	-200,000	-0,016	-0,238
-105,205	800,000	-0,004	0,009
-104,191	800,000	0,054	0,140
-103,176	-200,000	0,038	-0,156
-102,162	-19,105	-0,109	-0,048
-101,147	699,635	-0,066	-0,123
-100,132	-200,000	0,018	-0,089
-99,118	800,000	-0,026	0,059
-98,103	-129,264	0,098	-0,010
-97,089	42,309	0,095	0,061
-96,074	480,743	0,066	0,106
-95,059	172,146	-0,088	-0,090
-94,045	57,786	-0,049	-0,034
-93,030	-200,000	0,015	-0,062
-92,016	-200,000	0,005	-0,028
-91,001	-200,000	0,048	0,154
-89,986	-15,779	-0,022	0,010
-88,972	-200,000	0,005	0,124
-87,957	-200,000	0,003	0,214
-86,943	-200,000	-0,018	0,080
-85,928	36,339	0,012	-0,007
-84,913	-54,094	-0,096	-0,031
-83,899	-200,000	0,014	0,153
-82,884	-200,000	0,020	-0,152
-81,870	580,136	0,025	0,043
-80,855	800,000	-0,021	0,052
-79,840	-200,000	0,000	0,116
-78,826	46,735	0,005	-0,003
-77,811	-200,000	0,009	-0,048
-76,797	-200,000	-0,003	0,015
-75,782	-200,000	-0,009	0,034
-74,767	-88,769	0,108	-0,023
-73,753	-129,495	0,073	0,007
-72,738	362,247	-0,037	-0,053
-71,724	477,759	-0,086	-0,138
-70,709	40,912	0,048	-0,031
-69,694	46,232	0,010	-0,007
-68,680	-196,682	0,069	0,000
-67,665	-167,010	0,124	0,003
-66,651	740,548	-0,056	0,106
-65,636	19,371	-0,071	0,040
-64,622	-28,918	-0,157	-0,064
-63,607	149,226	-0,123	-0,118
-62,592	-59,959	-0,108	-0,033
-61,578	78,797	0,060	-0,045
-60,563	800,000	-0,053	0,107
-59,549	20,337	-0,148	0,084
-58,534	-8,753	-1,819	-0,860
-57,519	326,016	-1,377	-1,869
-56,505	-200,000	-0,556	-4,734
-55,490	376,421	0,929	1,344
-54,476	800,000	4,854	11,116
-53,461	-200,000	20,312	325,830
-52,446	800,000	753,074	2313,995
-51,432	548,747	1663,761	2828,704
-50,417	74,639	1672,260	1242,235
-49,403	19,824	1545,255	877,512
-48,388	13,816	1467,867	804,321
-47,373	18,583	1457,962	821,897
-46,359	16,357	1447,589	805,350
-45,344	12,093	1443,068	782,376
-44,330	11,995	1441,260	780,895
-43,315	11,971	1439,484	779,787
-42,300	12,029	1437,498	778,956
-41,286	12,036	1436,436	778,385
-40,271	11,967	1435,081	777,288
-39,257	12,012	1433,798	776,778
-38,242	12,005	1432,803	776,176
-37,227	12,011	1431,505	775,468
-36,213	12,045	1430,121	774,850
-35,198	12,034	1429,009	774,164
-34,184	12,051	1428,096	773,719
-33,169	12,038	1426,668	772,853
-32,154	12,073	1425,608	772,413
-31,140	12,064	1424,228	771,596
-30,125	12,039	1423,224	770,900
-29,111	12,030	1422,216	770,283
-28,096	12,086	1421,056	769,887
-27,082	12,015	1419,759	768,819
-26,067	12,007	1418,667	768,161
-25,052	12,022	1417,581	767,614
-24,038	12,027	1416,576	767,060
-23,023	11,986	1415,646	766,335
-22,009	11,985	1414,645	765,760
-20,994	11,975	1413,680	765,157
-19,979	11,929	1413,065	764,581
-18,965	11,920	1412,155	764,013
-17,950	11,917	1411,035	763,364
-16,936	11,917	1410,229	762,897
-15,921	11,837	1409,216	761,945
-14,906	11,890	1408,396	761,720
-13,892	11,920	1407,179	761,172
-12,877	11,896	1406,416	760,616
-11,863	11,849	1405,649	759,949
-10,848	11,881	1404,425	759,409
-9,833	11,852	1403,908	758,961
-8,819	11,814	1402,972	758,252
-7,804	11,792	1402,068	757,627
-6,790	11,829	1400,643	757,001
-5,775	11,797	1399,969	756,458
-4,760	11,795	1399,033	755,911
-3,746	11,858	1397,741	755,476
-2,731	11,779	1397,482	754,941
-1,717	11,779	1396,303	754,272
-0,702	11,795	1394,649	753,425
0,313	15,763	1309,272	725,622
1,327	32,073	699,439	425,099
2,342	49,609	121,756	80,869
3,356	-1,636	16,553	8,210
4,371	6,635	3,253	1,704
5,386	-4,605	0,639	0,310
6,400	-200,000	-0,005	0,619
7,415	-84,697	-0,215	-0,047
8,429	63,365	-0,318	-0,225
9,444	-0,069	-0,199	-0,100
10,459	-105,861	-0,394	-0,062
11,473	-128,941	-0,374	-0,037
12,488	-143,077	-0,184	-0,012
13,502	83,186	-0,239	-0,183
14,517	149,918	-0,254	-0,243
15,531	30,447	-0,394	-0,237
16,546	168,004	-0,294	-0,296
17,561	331,559	-0,295	-0,402
18,575	-2,623	-0,206	-0,101
19,590	24,854	-0,304	-0,177
20,604	13,364	-0,266	-0,145
21,619	182,882	-0,338	-0,352
22,634	55,719	-0,453	-0,309
23,648	115,274	-0,437	-0,377
24,663	42,253	-0,346	-0,221
25,677	58,394	-0,432	-0,298
26,692	70,523	-0,304	-0,221
27,707	105,955	-0,312	-0,260
28,721	167,388	-0,271	-0,271
29,736	73,786	-0,369	-0,272
30,750	124,833	-0,401	-0,356
31,765	102,315	-0,299	-0,246
32,780	50,188	-0,471	-0,313
33,794	58,780	-0,367	-0,254
34,809	156,506	-0,311	-0,303
35,823	13,460	-0,326	-0,178
36,838	119,379	-0,441	-0,384
37,853	19,477	-0,399	-0,225
38,867	78,640	-0,353	-0,265
39,882	-21,845	-0,323	-0,138
40,896	-12,295	-0,392	-0,180
41,911	17,885	-0,396	-0,221
42,926	253,356	-0,335	-0,404
43,940	76,117	-0,429	-0,319
44,955	85,770	-0,336	-0,260
45,969	161,325	-0,278	-0,274
46,984	-28,113	-0,416	-0,169
47,999	345,556	-0,206	-0,286
49,013	283,080	-0,194	-0,246
50,028	-6,712	-0,339	-0,162
51,042	60,797	-0,301	-0,210
52,057	-24,416	-0,276	-0,115
53,071	159,055	-0,301	-0,294
54,086	85,858	-0,269	-0,208
55,101	65,032	-0,386	-0,274
56,115	186,730	-0,274	-0,288
57,130	-0,318	-0,254	-0,127
58,144	126,743	-0,321	-0,286
59,159	62,943	-0,428	-0,301
60,174	146,422	-0,227	-0,214
61,188	18,482	-0,219	-0,123
62,203	20,940	-0,308	-0,175
63,217	129,543	-0,133	-0,120
64,232	-65,703	-0,407	-0,114
65,247	35,798	-0,321	-0,198
66,261	20,575	-0,366	-0,207
67,276	138,852	-0,349	-0,322
68,290	-157,808	-0,374	-0,015
69,305	800,000	-0,122	-0,250
70,320	-34,937	-0,387	-0,147
71,334	406,058	-0,164	-0,244
72,349	167,495	-0,330	-0,329
73,363	159,185	-0,301	-0,294
74,378	168,564	-0,287	-0,288
75,393	35,076	-0,298	-0,183
76,407	113,184	-0,320	-0,272
77,422	69,116	-0,319	-0,230
78,436	-2,806	-0,349	-0,171
79,451	4,602	-0,326	-0,167
80,466	345,462	-0,167	-0,230
81,480	5,673	-0,425	-0,220
82,495	-47,323	-0,437	-0,148
83,509	211,789	-0,279	-0,309
84,524	-74,029	-0,230	-0,058
85,539	34,473	-0,281	-0,172
86,553	6,619	-0,222	-0,116
87,568	36,729	-0,418	-0,258
88,582	51,462	-0,381	-0,253
89,597	-59,279	-0,410	-0,123
90,611	-98,992	-0,436	-0,077
91,626	185,026	-0,213	-0,221
92,641	164,204	-0,200	-0,197
93,655	42,443	-0,252	-0,161
94,670	134,791	-0,313	-0,285
95,684	517,279	-0,152	-0,250
96,699	31,402	-0,186	-0,112
97,714	245,600	-0,255	-0,301
98,728	-35,594	-0,329	-0,124
99,743	-17,414	-0,265	-0,117
100,757	-69,163	-0,226	-0,061
101,772	3,726	-0,357	-0,182
102,787	9,217	-0,340	-0,180
103,801	92,530	-0,143	-0,113
104,816	96,901	-0,221	-0,177
105,830	201,718	-0,179	-0,193
106,845	-96,722	-0,187	-0,034
107,860	-62,723	-0,277	-0,080
108,874	-54,854	-0,360	-0,113
109,889	6,607	-0,259	-0,134
110,903	17,575	-0,331	-0,184
111,918	800,000	-0,119	-0,253
112,933	-19,401	-0,278	-0,120
113,947	106,912	-0,262	-0,217
114,962	-54,658	-0,278	-0,087
115,976	6,885	-0,350	-0,182
116,991	327,457	-0,207	-0,278
118,006	43,950	-0,243	-0,155
119,020	-8,422	-0,331	-0,155
120,035	89,347	-0,220	-0,171
121,049	163,820	-0,236	-0,232
122,064	36,503	-0,222	-0,137
123,079	315,178	-0,219	-0,289
124,093	32,208	-0,289	-0,174
125,108	337,642	-0,233	-0,317
126,122	191,068	-0,210	-0,221
127,137	-78,808	-0,289	-0,068
128,151	615,891	-0,107	-0,189
129,166	331,513	-0,153	-0,207
130,181	386,636	-0,120	-0,173
131,195	114,285	-0,234	-0,199
132,210	519,550	-0,229	-0,377
133,224	183,664	-0,216	-0,223
134,239	20,577	-0,225	-0,127
135,254	70,413	-0,186	-0,134
136,268	147,403	-0,280	-0,264
137,283	-72,736	-0,271	-0,069
138,297	27,070	-0,362	-0,211
139,312	-33,892	-0,265	-0,101
140,327	800,000	-0,075	-0,213
141,341	-5,994	-0,269	-0,128
142,356	537,363	-0,148	-0,246
143,370	648,228	-0,158	-0,283
144,385	30,636	-0,134	-0,080
145,400	-8,112	-0,247	-0,116
146,414	548,486	-0,205	-0,344
147,429	-5,063	-0,368	-0,176
148,443	639,402	-0,117	-0,208
149,458	30,991	-0,240	-0,143
150,473	5,386	-0,233	-0,119
151,487	46,541	-0,349	-0,226
152,502	2,670	-0,299	-0,151
153,516	222,080	-0,212	-0,238
154,531	73,944	-0,283	-0,207
155,546	284,530	-0,184	-0,231
156,560	-95,051	-0,200	-0,037
157,575	11,031	-0,171	-0,091
158,589	66,736	-0,190	-0,135
159,604	-50,776	-0,280	-0,091
160,619	439,977	-0,235	-0,359
161,633	-50,803	-0,244	-0,079
162,648	-89,110	-0,147	-0,030
163,662	171,092	-0,218	-0,218
164,677	-71,429	-0,132	-0,034
165,692	-18,586	-0,225	-0,097
166,706	161,269	-0,195	-0,190
167,721	169,922	-0,252	-0,251
168,735	262,342	-0,286	-0,346
169,750	2,379	-0,313	-0,157
170,764	-119,484	-0,232	-0,028
171,779	207,464	-0,160	-0,174
172,794	-2,593	-0,168	-0,081
173,808	-2,616	-0,242	-0,118
174,823	-42,906	-0,325	-0,114
175,837	-21,744	-0,266	-0,112
176,852	115,252	-0,287	-0,243
177,867	-98,373	-0,244	-0,043
178,881	48,884	-0,250	-0,163
179,896	16,853	-0,256	-0,141
180,910	20,699	-0,244	-0,137
181,925	201,157	-0,148	-0,159
182,940	65,062	-0,284	-0,199
183,954	31,028	-0,215	-0,128
184,969	19,487	-0,228	-0,127
185,983	-10,495	-0,317	-0,145
186,998	-171,022	-0,266	0,006
188,013	11,653	-0,271	-0,144
189,027	23,664	-0,262	-0,149
190,042	-23,377	-0,278	-0,115
191,056	486,170	-0,186	-0,296
192,071	-164,832	-0,228	-0,007
193,086	-1,093	-0,208	-0,102
194,100	1,453	-0,143	-0,071
195,115	-108,365	-0,180	-0,027
196,129	63,742	-0,251	-0,175
197,144	142,284	-0,201	-0,186
198,159	150,300	-0,240	-0,227
199,173	61,230	-0,169	-0,117
200,188	-141,776	-0,227	0,016
201,202	110,127	-0,163	-0,136
202,217	-137,183	-0,261	-0,020
203,232	717,372	-0,134	-0,248
204,246	222,269	-0,245	-0,275
205,261	643,113	-0,160	-0,284
206,275	123,807	-0,125	-0,108
207,290	49,255	-0,209	-0,136
208,304	203,091	-0,248	-0,267
209,319	-142,893	-0,225	-0,015
210,334	391,698	-0,145	-0,209
211,348	61,119	-0,234	-0,161
212,363	157,937	-0,326	-0,313
213,377	-200,000	0,016	-0,213
214,392	-156,346	-0,178	0,008
215,407	520,839	-0,099	-0,161
216,421	-43,017	-0,056	-0,020
217,436	800,000	-0,072	-0,145
218,450	200,561	-0,166	-0,177
219,465	114,708	-0,168	-0,142
220,480	35,847	-0,330	-0,201
221,494	-9,859	-0,249	-0,114
222,509	-78,259	-0,096	0,023
223,523	-200,000	-0,021	-0,158
224,538	-9,994	-0,220	-0,101
225,553	-36,644	-0,238	-0,088
226,567	180,526	-0,113	-0,115
227,582	-147,167	-0,178	-0,010
228,596	710,322	-0,067	-0,124
229,611	-108,044	-0,246	-0,037
230,626	505,819	-0,176	-0,284
231,640	-64,125	-0,308	-0,087
232,655	69,058	-0,256	-0,182
233,669	10,645	-0,091	-0,048
234,684	564,609	-0,140	-0,235
235,699	159,852	-0,221	-0,213
236,713	345,849	-0,050	-0,069
237,728	-171,236	-0,180	-0,004
238,742	-181,507	-0,120	-0,002
239,757	194,337	-0,173	-0,182
240,772	70,390	-0,192	-0,137
241,786	-27,792	-0,348	-0,139
242,801	-50,322	-0,323	-0,105
243,815	-23,093	-0,114	-0,047
244,830	-16,362	-0,170	-0,074
245,844	514,733	-0,150	-0,242
246,859	374,383	-0,170	-0,240
247,874	207,618	-0,189	-0,205
248,888	44,381	-0,219	-0,139
249,903	177,962	-0,133	-0,135
250,917	291,328	-0,082	-0,104
251,932	69,012	-0,183	-0,129
252,947	-30,349	-0,267	0,104
253,961	800,000	-0,142	-0,317
254,976	485,678	-0,169	-0,267
255,990	32,263	-0,234	-0,139
257,005	-154,861	-0,146	-0,007
258,020	216,445	-0,071	-0,078
259,034	-135,835	-0,104	-0,008
260,049	240,729	-0,100	-0,116
261,063	142,155	-0,227	-0,208
262,078	306,270	-0,189	-0,244
263,093	16,814	-0,209	-0,114
264,107	-119,357	-0,271	-0,032
265,122	-108,584	-0,111	0,016
266,136	-112,636	-0,245	-0,033
267,151	-85,675	-0,064	0,014
268,166	-52,899	-0,222	-0,070
269,180	-72,542	-0,236	-0,060
270,195	-99,328	-0,196	-0,034
271,209	66,138	-0,158	-0,110
272,224	-200,000	-0,002	-0,227
273,239	-200,000	-0,040	-0,186
274,253	214,693	-0,132	-0,144
275,268	-98,018	-0,067	-0,012
276,282	8,888	-0,249	-0,129
277,297	-92,260	-0,192	-0,037
278,312	80,237	-0,100	-0,074
279,326	-82,783	-0,276	-0,061
280,341	407,915	-0,076	-0,112
281,355	-166,905	-0,177	0,005
282,370	85,582	-0,147	-0,112
283,384	50,239	-0,238	-0,155
284,399	280,129	-0,169	-0,209
285,414	17,645	-0,146	-0,080
286,428	14,843	-0,191	-0,103
287,443	-133,417	-0,170	-0,015
288,457	-97,860	-0,211	-0,037
289,472	28,065	-0,137	0,079
290,487	-67,862	-0,301	-0,081
291,501	-50,328	-0,243	-0,079
292,516	92,506	-0,167	-0,130
293,530	39,632	-0,080	-0,049
294,545	22,197	0,025	-0,014
295,560	352,821	-0,145	-0,199
296,574	9,851	-0,120	-0,063
297,589	-38,077	-0,229	-0,083
298,603	81,870	-0,220	-0,164
299,618	-45,433	-0,211	-0,071
300,633	148,598	-0,194	-0,180
301,647	-43,994	-0,078	-0,027
302,662	59,479	-0,088	-0,060
303,676	206,133	-0,161	-0,173
304,691	285,066	-0,217	-0,269
305,706	10,197	-0,172	-0,090
306,720	206,952	-0,157	-0,169
307,735	136,852	-0,209	-0,187
308,749	243,720	-0,114	-0,132
309,764	421,249	-0,076	-0,113
310,779	19,937	-0,191	-0,106
311,793	69,349	-0,169	-0,119
312,808	800,000	-0,086	-0,194
313,822	-200,000	-0,069	-0,264
314,837	-200,000	-0,021	-0,276
315,852	-4,671	-0,075	-0,035
316,866	92,479	-0,093	-0,072
317,881	62,609	-0,086	-0,059
318,895	368,869	-0,106	-0,148
319,910	800,000	-0,134	-0,256
320,925	-200,000	-0,060	-0,270
321,939	-87,054	-0,071	-0,015
322,954	-164,314	-0,122	0,004
323,968	-46,874	-0,027	0,009
324,983	-25,959	-0,167	-0,067
325,997	221,948	-0,133	-0,147
327,012	-200,000	-0,048	-0,322
328,027	-90,717	-0,082	-0,016
329,041	-84,027	-0,171	-0,037
330,056	-49,925	-0,140	-0,045
331,070	169,410	-0,082	-0,081
332,085	-27,722	-0,194	-0,077
333,100	-200,000	-0,048	-0,183
334,114	-161,090	-0,217	-0,008
335,129	96,471	-0,312	-0,245
336,143	94,060	-0,160	-0,125
337,158	226,492	-0,121	-0,135
338,173	205,407	-0,121	-0,129
339,187	-71,919	-0,106	-0,027
340,202	-59,315	-0,180	-0,053
341,216	108,006	-0,140	-0,114
342,231	-200,000	-0,026	-0,109
343,246	32,956	-0,246	-0,146
344,260	-105,966	-0,106	-0,016
345,275	800,000	0,017	-0,039
346,289	532,181	-0,114	-0,185
347,304	-64,442	-0,075	-0,021
348,319	-61,273	-0,167	-0,048
349,333	232,917	-0,108	-0,122
350,348	120,475	-0,160	-0,136
351,362	-75,857	-0,217	-0,052
352,377	-125,907	-0,179	0,018
353,392	-200,000	0,003	-0,189
354,406	-24,525	-0,182	-0,074
355,421	207,585	1314,844	1407,365
356,435	159,690	1475,575	1407,844
