DTS Sentinel unit serial number:	SN410029Multiplexer serial number:	ORYXHardware model number:	OX2-SRSoftware version number:	ORYX F/W v4,00 Oryx Data Collector v3.7.2.0data status	okinstallation	B3 Nyhavnadifferential loss correction	single-endedforward channel	channel 1reverse channel	N/Adate	2023/12/03time	07:02:30forward acquisition time	300,00reverse acquisition time	0,00gamma	499,1914k internal	0,3202k external	0,3202temperature offset calibration	1,0000default loss term (dB/km)	0,3820temperature slope calibration	1,0000multiplexer offset coefficient	1,0000multiplexer slope coefficient	1,0000fibre end	0,00T internal ref (°C)	13,30T ext. ref 1 (°C)	-1,76T ext. ref 2 (°C)	-1,77length (m)	temperature (°C)	Stokes	anti-Stokes-744,400	273,200	-0,152	-0,195
-743,385	-200,000	-0,046	0,273
-742,371	240,088	-0,171	-0,208
-741,356	-200,000	-0,023	0,170
-740,342	359,038	-0,204	-0,298
-739,327	-200,000	0,118	0,430
-738,312	80,094	-0,111	-0,087
-737,298	800,000	-0,112	0,252
-736,283	481,079	-0,179	-0,297
-735,269	-200,000	0,020	0,267
-734,254	486,422	-0,121	-0,201
-733,239	404,870	-0,101	0,155
-732,225	526,508	-0,145	-0,248
-731,210	-176,406	0,153	-0,003
-730,196	-200,000	-0,003	0,025
-729,181	303,875	0,095	-0,128
-728,167	548,323	-0,058	0,101
-727,152	-200,000	-0,009	-0,065
-726,137	672,202	-0,093	0,176
-725,123	-114,557	-0,125	-0,017
-724,108	-200,000	-0,023	-0,084
-723,094	-200,000	0,001	0,020
-722,079	800,000	-0,067	-0,137
-721,064	-36,284	-0,096	0,037
-720,050	-89,641	-0,060	-0,013
-719,035	15,839	0,102	0,058
-718,021	-167,495	-0,075	0,002
-717,006	-200,000	0,010	-0,071
-715,991	-144,986	-0,178	0,012
-714,977	800,000	-0,018	-0,044
-713,962	190,620	-0,079	-0,087
-712,948	-104,596	-0,115	-0,019
-711,933	429,574	-0,011	0,017
-710,918	-79,468	0,101	0,025
-709,904	-200,000	-0,009	-0,083
-708,889	800,000	0,023	-0,068
-707,875	800,000	-0,045	-0,116
-706,860	-200,000	-0,012	-0,188
-705,845	517,120	0,079	-0,135
-704,831	-139,735	0,108	0,008
-703,816	-200,000	0,016	-0,117
-702,802	-200,000	0,012	-0,077
-701,787	-122,684	-0,102	0,012
-700,772	422,620	-0,064	0,100
-699,758	359,884	-0,020	-0,029
-698,743	188,913	-0,062	-0,068
-697,729	459,532	0,042	0,068
-696,714	-200,000	0,005	0,077
-695,699	-200,000	0,036	-0,149
-694,685	663,322	0,048	-0,091
-693,670	-138,937	-0,059	0,005
-692,656	27,062	0,069	-0,042
-691,641	63,302	-0,059	-0,043
-690,627	-42,593	-0,112	0,041
-689,612	160,788	0,075	0,076
-688,597	800,000	-0,106	0,217
-687,583	86,740	0,017	-0,014
-686,568	207,939	-0,095	-0,108
-685,554	-200,000	0,032	-0,187
-684,539	10,698	0,069	0,038
-683,524	-200,000	-0,017	0,080
-682,510	-80,519	-0,059	-0,014
-681,495	265,741	-0,109	0,138
-680,481	-200,000	0,001	-0,032
-679,466	75,822	0,040	-0,031
-678,451	194,411	-0,019	-0,021
-677,437	800,000	0,080	-0,204
-676,422	800,000	0,056	-0,137
-675,408	73,113	-0,032	-0,025
-674,393	24,976	0,098	0,059
-673,378	1,831	-0,103	-0,054
-672,364	269,249	-0,078	-0,100
-671,349	-8,409	0,029	0,014
-670,335	292,623	0,035	0,046
-669,320	-200,000	-0,032	0,109
-668,305	177,830	0,147	-0,156
-667,291	126,732	-0,125	0,115
-666,276	33,566	-0,135	0,085
-665,262	172,223	-0,122	-0,127
-664,247	228,866	-0,034	0,040
-663,232	800,000	-0,013	0,035
-662,218	800,000	0,055	0,118
-661,203	-176,796	-0,046	0,001
-660,189	800,000	0,048	0,109
-659,174	382,262	-0,062	-0,092
-658,159	-50,708	0,055	0,019
-657,145	-134,400	-0,037	-0,003
-656,130	-200,000	-0,037	-0,141
-655,116	48,159	0,138	-0,093
-654,101	444,823	-0,043	0,069
-653,086	279,753	-0,060	-0,078
-652,072	-72,373	0,064	-0,017
-651,057	-88,973	-0,060	-0,013
-650,043	92,062	0,044	0,036
-649,028	-24,954	0,086	0,037
-648,014	381,599	0,059	0,087
-646,999	144,690	0,108	-0,105
-645,984	-64,072	0,147	0,043
-644,970	164,889	-0,072	0,074
-643,955	-200,000	-0,032	-0,134
-642,941	596,045	-0,066	-0,119
-641,926	-100,876	-0,102	-0,018
-640,911	800,000	-0,027	0,079
-639,897	-200,000	-0,001	0,012
-638,882	481,648	-0,026	-0,043
-637,868	-200,000	0,027	-0,088
-636,853	-60,007	-0,168	0,052
-635,838	128,910	0,038	-0,035
-634,824	147,860	-0,105	0,102
-633,809	-108,070	0,035	0,006
-632,795	265,614	-0,019	0,024
-631,780	127,987	0,046	0,043
-630,765	-17,234	0,147	-0,067
-629,751	31,554	0,015	0,009
-628,736	-200,000	-0,006	-0,034
-627,722	14,691	0,084	-0,048
-626,707	-200,000	0,014	0,054
-625,692	282,456	0,029	0,038
-624,678	-14,031	0,073	0,034
-623,663	-99,131	-0,033	0,006
-622,649	305,753	-0,079	-0,106
-621,634	-22,363	-0,129	-0,056
-620,619	500,805	-0,034	0,057
-619,605	-200,000	0,016	0,093
-618,590	-57,509	0,050	-0,016
-617,576	-141,501	0,015	-0,001
-616,561	362,519	-0,051	-0,074
-615,546	-200,000	-0,018	-0,092
-614,532	-200,000	-0,004	0,026
-613,517	-31,125	-0,096	0,039
-612,503	-2,865	-0,064	-0,032
-611,488	-141,493	0,077	-0,006
-610,474	-200,000	0,026	-0,097
-609,459	734,660	-0,049	0,096
-608,444	-72,084	0,079	0,021
-607,430	-20,616	-0,103	0,045
-606,415	186,218	-0,059	-0,064
-605,401	-200,000	0,027	-0,087
-604,386	-200,000	-0,003	0,098
-603,371	-110,914	-0,008	0,001
-602,357	-200,000	-0,012	0,112
-601,342	800,000	-0,044	0,090
-600,328	-104,271	-0,203	-0,034
-599,313	-200,000	-0,001	-0,068
-598,298	485,140	-0,075	0,123
-597,284	-200,000	-0,005	0,165
-596,269	610,721	-0,035	0,064
-595,255	-95,642	-0,183	-0,035
-594,240	-93,873	-0,125	-0,025
-593,225	157,942	-0,116	-0,116
-592,211	-24,430	-0,085	-0,036
-591,196	-132,585	0,031	-0,003
-590,182	-116,638	0,068	-0,009
-589,167	-200,000	-0,001	0,084
-588,152	132,312	-0,039	0,036
-587,138	-200,000	-0,003	-0,098
-586,123	800,000	-0,088	-0,189
-585,109	-81,235	-0,116	-0,027
-584,094	35,547	0,128	-0,081
-583,079	-200,000	-0,008	-0,054
-582,065	-46,254	0,113	-0,040
-581,050	-200,000	-0,015	0,049
-580,036	114,937	-0,085	-0,075
-579,021	322,242	-0,092	-0,128
-578,006	800,000	-0,029	-0,080
-576,992	190,647	-0,105	-0,114
-575,977	-200,000	-0,013	0,042
-574,963	-200,000	0,001	0,165
-573,948	-200,000	0,042	0,211
-572,934	21,292	-0,065	0,038
-571,919	-51,902	0,058	-0,019
-570,904	800,000	0,045	-0,094
-569,890	-59,364	0,096	-0,030
-568,875	-125,152	0,075	-0,008
-567,861	800,000	0,029	0,085
-566,846	800,000	-0,045	0,092
-565,831	267,593	0,041	0,052
-564,817	-200,000	0,017	-0,068
-563,802	-55,156	-0,142	-0,046
-562,788	-200,000	0,007	-0,155
-561,773	58,361	0,030	0,021
-560,758	-48,703	-0,085	-0,029
-559,744	282,336	0,061	-0,079
-558,729	-30,542	0,122	-0,050
-557,715	0,021	0,106	-0,054
-556,700	210,250	-0,051	-0,058
-555,685	-109,116	-0,176	-0,027
-554,671	-200,000	-0,004	0,064
-553,656	-33,201	0,153	0,061
-552,642	-200,000	0,002	-0,068
-551,627	227,692	0,051	-0,060
-550,612	-94,815	-0,060	-0,012
-549,598	753,946	-0,043	-0,084
-548,583	-200,000	-0,002	-0,128
-547,569	800,000	0,074	-0,154
-546,554	800,000	-0,024	0,071
-545,539	-200,000	0,008	0,044
-544,525	800,000	-0,028	-0,075
-543,510	-89,844	0,145	0,030
-542,496	16,950	-0,091	-0,052
-541,481	-200,000	0,001	0,117
-540,466	-200,000	0,001	-0,160
-539,452	240,835	0,084	0,102
-538,437	-200,000	-0,004	0,030
-537,423	192,402	0,072	0,078
-536,408	-200,000	0,005	-0,043
-535,393	-200,000	0,023	-0,118
-534,379	49,565	-0,085	-0,057
-533,364	-100,433	-0,151	0,027
-532,350	-140,588	0,183	0,013
-531,335	800,000	-0,061	0,127
-530,321	141,346	0,098	0,093
-529,306	-200,000	0,007	-0,085
-528,291	92,288	0,039	-0,032
-527,277	271,112	-0,075	-0,095
-526,262	-74,731	-0,110	0,028
-525,248	-200,000	-0,041	0,133
-524,233	99,400	0,068	0,057
-523,218	560,681	0,011	0,020
-522,204	-133,448	-0,028	-0,002
-521,189	-200,000	-0,018	-0,148
-520,175	-0,501	-0,096	-0,049
-519,160	-200,000	0,018	-0,057
-518,145	-200,000	0,008	0,055
-517,131	-200,000	-0,004	-0,099
-516,116	660,029	-0,026	-0,048
-515,102	-200,000	0,002	-0,022
-514,087	160,374	0,042	-0,042
-513,072	-78,398	-0,105	-0,026
-512,058	800,000	0,042	-0,087
-511,043	398,082	-0,058	-0,087
-510,029	-148,297	-0,133	0,008
-509,014	-105,024	0,195	-0,032
-507,999	192,339	-0,039	-0,042
-506,985	-200,000	0,015	-0,082
-505,970	37,992	-0,148	-0,095
-504,956	-11,943	-0,053	0,025
-503,941	299,634	-0,029	0,038
-502,926	-170,737	0,068	-0,002
-501,912	-200,000	-0,035	-0,114
-500,897	-74,810	-0,122	-0,031
-499,883	800,000	0,032	0,102
-498,868	-200,000	0,022	-0,217
-497,853	-200,000	-0,004	-0,063
-496,839	-200,000	-0,002	-0,032
-495,824	370,426	0,048	-0,070
-494,810	-103,290	-0,032	-0,005
-493,795	44,456	-0,055	0,036
-492,781	-45,570	0,110	-0,039
-491,766	261,738	-0,046	0,057
-490,751	-194,311	-0,159	-0,001
-489,737	194,237	0,030	-0,032
-488,722	800,000	0,044	-0,088
-487,708	-200,000	-0,030	-0,248
-486,693	-200,000	0,027	0,138
-485,678	-76,162	-0,088	-0,022
-484,664	96,407	-0,069	0,057
-483,649	3,614	-0,135	0,071
-482,635	800,000	-0,055	-0,132
-481,620	-200,000	-0,010	0,210
-480,605	-200,000	0,025	0,125
-479,591	-0,626	-0,011	-0,006
-478,576	800,000	0,059	0,122
-477,562	27,247	-0,074	-0,045
-476,547	-200,000	-0,007	0,074
-475,532	289,566	0,036	0,048
-474,518	-200,000	-0,004	0,028
-473,503	482,805	-0,021	0,034
-472,489	119,885	0,065	0,058
-471,474	-30,611	-0,081	0,033
-470,459	-200,000	-0,038	-0,132
-469,445	120,663	0,085	-0,076
-468,430	800,000	0,083	-0,174
-467,416	103,279	0,056	-0,047
-466,401	234,587	0,028	-0,034
-465,386	161,544	0,048	0,048
-464,372	800,000	-0,031	-0,089
-463,357	-122,125	-0,065	0,008
-462,343	267,343	0,086	-0,109
-461,328	800,000	-0,057	-0,114
-460,313	-61,114	-0,044	0,013
-459,299	-95,375	0,070	-0,013
-458,284	-200,000	0,024	0,083
-457,270	-115,527	0,144	0,019
-456,255	185,989	-0,076	-0,081
-455,241	-200,000	0,017	-0,063
-454,226	532,839	0,019	0,032
-453,211	-200,000	0,002	0,069
-452,197	448,752	0,026	0,042
-451,182	14,841	-0,014	0,008
-450,168	20,069	0,071	0,041
-449,153	-200,000	-0,024	0,102
-448,138	-200,000	0,021	-0,116
-447,124	800,000	0,042	-0,101
-446,109	-10,148	-0,070	0,033
-445,095	-167,611	0,112	-0,003
-444,080	800,000	0,019	0,043
-443,065	800,000	0,013	-0,033
-442,051	-46,277	0,105	-0,037
-441,036	94,235	-0,137	-0,112
-440,022	800,000	-0,049	-0,110
-439,007	-158,478	-0,201	0,008
-437,992	474,048	0,023	-0,037
-436,978	426,981	0,086	0,134
-435,963	102,501	0,016	0,013
-434,949	-50,120	-0,072	-0,024
-433,934	800,000	0,024	0,074
-432,919	-62,386	0,074	0,022
-431,905	-87,538	-0,117	-0,025
-430,890	145,434	0,031	-0,029
-429,876	800,000	0,039	0,093
-428,861	800,000	-0,056	0,161
-427,846	800,000	-0,044	0,128
-426,832	197,943	-0,079	-0,087
-425,817	-200,000	-0,017	-0,154
-424,803	-89,277	0,036	-0,008
-423,788	67,655	-0,055	0,040
-422,773	-200,000	-0,019	0,127
-421,759	-200,000	-0,006	0,148
-420,744	6,347	0,090	-0,048
-419,730	45,551	-0,079	-0,052
-418,715	452,685	0,093	-0,149
-417,701	-200,000	-0,021	-0,138
-416,686	-113,345	-0,098	0,014
-415,671	51,831	0,056	-0,038
-414,657	798,027	0,054	0,107
-413,642	-33,277	0,049	-0,019
-412,628	-144,027	-0,153	0,010
-411,613	369,044	-0,136	-0,197
-410,598	-200,000	-0,009	-0,066
-409,584	-200,000	-0,045	0,155
-408,569	96,546	0,048	-0,040
-407,555	800,000	0,052	-0,119
-406,540	-93,491	0,076	0,015
-405,525	-16,662	0,070	-0,031
-404,511	760,814	-0,066	-0,129
-403,496	800,000	-0,038	-0,077
-402,482	800,000	0,014	-0,037
-401,467	44,395	-0,054	-0,035
-400,452	-200,000	-0,040	-0,157
-399,438	281,128	0,078	0,101
-398,423	-30,282	-0,096	-0,039
-397,409	8,756	0,004	-0,002
-396,394	112,671	-0,061	-0,053
-395,379	-200,000	-0,020	0,101
-394,365	-174,427	0,075	0,002
-393,350	-14,831	0,057	0,026
-392,336	123,373	-0,100	0,090
-391,321	68,434	-0,064	-0,047
-390,306	81,908	-0,118	-0,091
-389,292	115,388	-0,050	0,044
-388,277	-32,099	0,075	0,030
-387,263	-82,468	-0,011	0,002
-386,248	299,181	0,070	0,093
-385,233	-200,000	0,025	0,115
-384,219	775,241	0,040	0,080
-383,204	-200,000	0,004	0,111
-382,190	-200,000	0,002	0,122
-381,175	71,784	-0,039	0,029
-380,160	-99,869	-0,139	-0,025
-379,146	416,756	-0,038	0,059
-378,131	800,000	-0,049	-0,110
-377,117	-134,283	0,060	0,005
-376,102	-75,028	-0,074	-0,019
-375,088	-16,778	-0,109	0,049
-374,073	-200,000	0,017	0,063
-373,058	-200,000	-0,012	0,062
-372,044	-45,422	0,010	-0,003
-371,029	-125,322	-0,028	-0,003
-370,015	-139,752	0,102	0,008
-369,000	382,135	-0,017	0,025
-367,985	800,000	-0,031	-0,064
-366,971	153,876	-0,041	0,040
-365,956	147,547	0,043	-0,042
-364,942	188,269	0,104	0,112
-363,927	-86,051	0,096	-0,021
-362,912	-200,000	0,006	0,101
-361,898	-200,000	-0,003	0,072
-360,883	-200,000	0,029	-0,112
-359,869	151,352	0,070	-0,068
-358,854	-200,000	-0,000	-0,023
-357,839	311,197	0,037	0,049
-356,825	-58,973	0,076	-0,023
-355,810	-200,000	-0,019	0,142
-354,796	-73,684	-0,043	-0,011
-353,781	-187,633	-0,130	-0,001
-352,766	-200,000	-0,020	-0,068
-351,752	-153,775	0,045	0,002
-350,737	251,720	0,052	-0,063
-349,723	-74,820	-0,123	0,031
-348,708	-90,037	-0,112	0,023
-347,693	-118,406	0,089	0,011
-346,679	-200,000	-0,055	-0,174
-345,664	-200,000	0,039	-0,139
-344,650	-200,000	-0,006	-0,029
-343,635	269,512	-0,051	0,064
-342,620	-200,000	0,011	-0,053
-341,606	-200,000	-0,004	-0,060
-340,591	-43,064	-0,071	0,026
-339,577	800,000	0,049	-0,105
-338,562	300,115	-0,085	0,112
-337,548	166,800	0,076	-0,077
-336,533	-147,872	0,028	-0,002
-335,518	800,000	0,037	0,076
-334,504	-50,605	0,093	0,031
-333,489	-161,229	-0,094	0,003
-332,475	-118,974	-0,156	-0,019
-331,460	800,000	-0,043	0,118
-330,445	800,000	0,038	-0,096
-329,431	95,418	0,143	0,117
-328,416	-105,491	0,049	-0,008
-327,402	650,938	0,039	-0,071
-326,387	198,227	0,036	-0,039
-325,372	528,457	0,045	-0,076
-324,358	-135,100	-0,168	-0,014
-323,343	-35,267	-0,087	-0,034
-322,329	800,000	-0,022	-0,054
-321,314	-47,505	0,126	0,044
-320,299	230,967	0,081	-0,095
-319,285	-111,281	0,116	0,017
-318,270	14,789	-0,040	-0,022
-317,256	800,000	0,032	-0,083
-316,241	18,029	-0,069	0,039
-315,226	-200,000	0,019	0,126
-314,212	383,322	0,056	0,083
-313,197	800,000	0,048	0,097
-312,183	316,201	-0,051	0,069
-311,168	85,192	0,001	-0,001
-310,153	-200,000	-0,034	-0,194
-309,139	499,839	-0,118	-0,196
-308,124	329,280	0,047	-0,065
-307,110	-200,000	-0,008	0,060
-306,095	-124,906	0,125	-0,014
-305,080	-200,000	0,006	0,054
-304,066	800,000	0,090	-0,221
-303,051	-107,135	0,093	0,015
-302,037	-200,000	-0,004	0,015
-301,022	102,085	-0,099	-0,082
-300,008	-85,561	0,018	0,004
-298,993	347,855	0,059	0,083
-297,978	159,043	0,046	-0,045
-296,964	365,099	0,041	0,059
-295,949	425,145	-0,026	0,040
-294,935	-184,231	0,038	-0,000
-293,920	-200,000	-0,006	0,104
-292,905	-0,948	0,125	-0,063
-291,891	-200,000	0,000	0,002
-290,876	413,604	0,056	0,085
-289,862	-66,818	0,091	0,026
-288,847	-146,402	0,088	0,005
-287,832	-4,098	0,154	-0,076
-286,818	7,678	-0,040	0,021
-285,803	39,695	-0,029	0,019
-284,789	-44,480	0,074	-0,026
-283,774	-200,000	-0,001	-0,006
-282,759	-200,000	0,021	0,135
-281,745	-145,926	-0,096	0,006
-280,730	-200,000	0,006	-0,023
-279,716	-30,031	0,093	0,038
-278,701	391,411	0,061	-0,091
-277,686	145,637	0,053	0,051
-276,672	-200,000	-0,017	-0,109
-275,657	309,854	-0,086	0,115
-274,643	80,643	0,095	0,073
-273,628	97,633	0,067	0,055
-272,613	-200,000	0,009	0,000
-271,599	-134,858	0,102	-0,009
-270,584	-200,000	0,029	0,127
-269,570	-81,509	-0,123	0,029
-268,555	-200,000	-0,002	-0,039
-267,540	-37,190	-0,082	0,031
-266,526	-160,725	0,067	-0,002
-265,511	161,044	0,066	0,066
-264,497	67,872	0,073	-0,053
-263,482	-200,000	0,002	-0,041
-262,467	378,344	0,029	-0,042
-261,453	-55,471	0,068	0,022
-260,438	24,712	-0,036	-0,021
-259,424	-200,000	-0,009	0,036
-258,409	-65,038	-0,102	-0,029
-257,395	8,382	0,015	0,008
-256,380	-200,000	-0,006	0,039
-255,365	-124,760	0,150	0,016
-254,351	-11,619	0,142	0,066
-253,336	776,178	-0,037	0,072
-252,322	244,021	-0,107	0,129
-251,307	48,092	-0,054	0,036
-250,292	9,634	-0,022	0,012
-249,278	-200,000	0,020	-0,087
-248,263	800,000	-0,025	0,070
-247,249	168,733	0,116	0,118
-246,234	-35,570	0,162	-0,062
-245,219	-39,199	-0,079	0,030
-244,205	-200,000	-0,026	0,117
-243,190	160,348	-0,057	0,057
-242,176	700,525	-0,069	0,131
-241,161	-58,102	-0,111	0,034
-240,146	105,695	-0,033	0,027
-239,132	-40,557	0,086	0,032
-238,117	800,000	-0,058	0,138
-237,103	167,856	-0,023	-0,024
-236,088	800,000	0,050	-0,144
-235,073	43,663	-0,082	0,053
-234,059	158,541	-0,070	0,069
-233,044	185,571	-0,032	0,033
-232,030	-143,313	0,092	-0,006
-231,015	-155,055	0,097	-0,004
-230,000	-15,339	0,082	0,037
-228,986	-200,000	0,014	0,139
-227,971	800,000	0,075	0,213
-226,957	-200,000	0,027	0,161
-225,942	-200,000	-0,017	0,068
-224,927	651,024	-0,047	0,086
-223,913	-125,630	-0,007	-0,001
-222,898	800,000	-0,015	0,039
-221,884	25,365	0,091	0,054
-220,869	-200,000	0,010	0,205
-219,855	-200,000	-0,017	0,082
-218,840	94,628	0,041	0,033
-217,825	73,262	-0,123	-0,092
-216,811	150,525	-0,103	0,100
-215,796	-90,557	-0,045	-0,009
-214,782	-87,466	0,102	0,022
-213,767	-200,000	0,032	-0,160
-212,752	-200,000	-0,004	-0,021
-211,738	-200,000	-0,008	0,124
-210,723	597,239	-0,027	-0,049
-209,709	-100,768	-0,113	-0,020
-208,694	570,389	0,075	0,130
-207,679	-85,472	0,079	-0,017
-206,665	5,576	-0,030	-0,016
-205,650	800,000	0,080	0,241
-204,636	-200,000	0,023	0,083
-203,621	224,018	0,114	0,131
-202,606	92,651	-0,093	-0,075
-201,592	-91,411	0,049	-0,010
-200,577	92,321	-0,041	0,033
-199,563	240,978	0,105	0,124
-198,548	800,000	0,039	0,099
-197,533	-200,000	-0,005	-0,091
-196,519	412,993	-0,047	0,072
-195,504	347,303	0,078	-0,109
-194,490	-50,362	0,079	-0,026
-193,475	800,000	0,024	-0,049
-192,460	-36,117	0,122	0,047
-191,446	50,399	0,082	0,055
-190,431	-136,703	0,125	0,010
-189,417	-87,476	0,154	0,033
-188,402	-200,000	0,010	-0,037
-187,387	410,219	0,019	0,029
-186,373	64,338	-0,104	-0,074
-185,358	26,116	-0,082	-0,048
-184,344	-200,000	0,003	-0,027
-183,329	8,019	0,078	0,041
-182,315	160,823	0,135	0,134
-181,300	69,603	0,082	-0,060
-180,285	1,221	-0,125	0,064
-179,271	800,000	-0,013	0,027
-178,256	178,358	0,102	-0,107
-177,242	-18,397	0,099	0,044
-176,227	7,734	0,059	-0,031
-175,212	209,590	-0,058	0,065
-174,198	137,462	-0,021	0,020
-173,183	-86,984	-0,173	-0,037
-172,169	-24,960	-0,009	0,004
-171,154	-84,425	0,090	-0,020
-170,139	-200,000	-0,005	0,051
-169,125	-200,000	0,026	0,088
-168,110	-200,000	-0,021	-0,124
-167,096	30,669	-0,017	-0,010
-166,081	-123,973	-0,086	0,009
-165,066	107,871	-0,121	-0,102
-164,052	294,699	0,090	-0,117
-163,037	-60,679	-0,064	-0,019
-162,023	-143,101	0,099	0,007
-161,008	561,030	-0,042	0,073
-159,993	94,917	0,047	-0,038
-158,979	147,623	0,030	-0,029
-157,964	692,960	-0,043	-0,080
-156,950	289,078	-0,117	-0,151
-155,935	-200,000	0,032	-0,117
-154,920	-200,000	0,035	0,149
-153,906	-198,122	-0,089	-0,000
-152,891	800,000	-0,023	0,060
-151,877	-200,000	-0,003	-0,165
-150,862	800,000	-0,061	0,121
-149,847	800,000	-0,024	-0,065
-148,833	-55,499	0,115	-0,036
-147,818	-200,000	0,020	0,192
-146,804	74,810	0,127	0,095
-145,789	285,518	0,036	-0,047
-144,775	-200,000	-0,009	-0,075
-143,760	-159,428	-0,049	0,002
-142,745	401,769	0,057	0,085
-141,731	-200,000	-0,013	-0,044
-140,716	295,064	0,074	0,096
-139,702	-200,000	-0,009	0,228
-138,687	-200,000	0,050	0,159
-137,672	268,531	0,011	-0,013
-136,658	-200,000	-0,004	0,055
-135,643	-114,272	-0,040	0,005
-134,629	-200,000	-0,011	0,048
-133,614	800,000	0,068	0,140
-132,599	381,823	0,094	0,137
-131,585	-34,319	-0,044	0,017
-130,570	64,835	0,106	-0,076
-129,556	675,044	-0,072	-0,133
-128,541	800,000	0,076	-0,156
-127,526	800,000	-0,020	-0,045
-126,512	800,000	0,042	-0,105
-125,497	40,040	-0,069	-0,044
-124,483	3,283	-0,078	0,040
-123,468	-102,443	-0,087	-0,015
-122,453	-7,748	0,057	-0,027
-121,439	455,245	-0,055	0,087
-120,424	-2,137	0,058	-0,029
-119,410	80,852	0,062	0,047
-118,395	800,000	-0,017	-0,042
-117,380	-200,000	-0,001	-0,098
-116,366	11,283	0,156	0,084
-115,351	-200,000	0,024	-0,199
-114,337	800,000	0,046	-0,106
-113,322	800,000	0,022	-0,066
-112,307	-71,198	-0,124	0,033
-111,293	227,114	0,014	-0,016
-110,278	-47,703	0,096	-0,033
-109,264	-200,000	0,029	0,197
-108,249	604,091	-0,035	0,063
-107,234	-98,719	-0,129	0,023
-106,220	33,973	-0,025	0,015
-105,205	-135,412	0,055	-0,005
-104,191	264,543	-0,072	0,089
-103,176	145,407	-0,079	0,075
-102,162	-200,000	0,010	0,219
-101,147	104,523	-0,129	-0,107
-100,132	-188,688	0,090	-0,001
-99,118	76,989	-0,032	-0,024
-98,103	-127,065	0,186	0,019
-97,089	-200,000	-0,007	0,066
-96,074	-200,000	0,006	0,176
-95,059	465,172	0,006	-0,009
-94,045	65,867	0,148	0,107
-93,030	-34,896	-0,108	-0,042
-92,016	66,663	-0,121	-0,087
-91,001	-89,166	-0,103	0,021
-89,986	110,439	0,065	0,056
-88,972	-94,331	0,110	-0,021
-87,957	-200,000	0,001	-0,011
-86,943	22,612	-0,056	0,032
-85,928	-14,458	0,021	0,010
-84,913	-200,000	-0,007	-0,029
-83,899	-77,386	0,095	0,023
-82,884	-200,000	-0,017	0,094
-81,870	154,522	0,052	-0,051
-80,855	-2,980	0,120	0,059
-79,840	9,586	-0,053	-0,029
-78,826	-176,521	0,141	-0,003
-77,811	62,437	-0,163	0,115
-76,797	132,861	-0,049	-0,045
-75,782	-94,765	0,096	0,018
-74,767	544,490	0,021	0,036
-73,753	77,851	-0,112	0,085
-72,738	-77,363	0,076	0,019
-71,724	-200,000	0,005	-0,145
-70,709	233,381	-0,098	-0,114
-69,694	-82,132	-0,062	-0,014
-68,680	24,440	0,068	0,039
-67,665	-11,581	0,187	0,087
-66,651	292,670	0,073	0,094
-65,636	-99,073	0,078	-0,014
-64,622	388,075	-0,060	-0,088
-63,607	-92,541	-0,096	-0,019
-62,592	86,886	-0,076	-0,060
-61,578	-145,520	0,131	-0,008
-60,563	-64,137	0,085	-0,024
-59,549	301,159	0,095	0,125
-58,534	-24,586	-1,638	-0,687
-57,519	387,983	-1,374	-2,018
-56,505	-200,000	-0,549	-4,324
-55,490	114,657	1,090	0,940
-54,476	800,000	5,126	11,326
-53,461	-200,000	19,091	319,769
-52,446	-200,000	740,815	2333,815
-51,432	573,655	1655,508	2869,062
-50,417	78,242	1671,142	1261,414
-49,403	21,294	1544,053	885,449
-48,388	15,214	1466,313	811,308
-47,373	17,934	1456,774	819,144
-46,359	16,703	1446,483	807,422
-45,344	13,461	1441,863	789,285
-44,330	13,375	1440,001	787,820
-43,315	13,337	1438,536	786,809
-42,300	13,330	1436,767	785,774
-41,286	13,370	1435,565	785,276
-40,271	13,327	1434,042	784,210
-39,257	13,328	1432,807	783,505
-38,242	13,386	1431,505	783,038
-37,227	13,398	1430,246	782,375
-36,213	13,396	1429,096	781,708
-35,198	13,402	1427,818	781,007
-34,184	13,405	1426,989	780,535
-33,169	13,358	1425,554	779,497
-32,154	13,461	1424,351	779,298
-31,140	13,404	1423,190	778,359
-30,125	13,463	1421,978	777,946
-29,111	13,377	1421,134	777,048
-28,096	13,392	1420,035	776,483
-27,082	13,337	1418,945	775,599
-26,067	13,300	1417,627	774,671
-25,052	13,339	1416,649	774,291
-24,038	13,318	1415,736	773,663
-23,023	13,287	1414,727	772,935
-22,009	13,326	1413,531	772,437
-20,994	13,318	1412,642	771,881
-19,979	13,275	1411,844	771,211
-18,965	13,282	1410,711	770,596
-17,950	13,258	1409,967	770,046
-16,936	13,286	1408,989	769,614
-15,921	13,267	1407,931	768,915
-14,906	13,222	1407,062	768,198
-13,892	13,287	1405,898	767,837
-12,877	13,247	1405,419	767,358
-11,863	13,246	1404,406	766,768
-10,848	13,243	1403,356	766,151
-9,833	13,193	1402,602	765,476
-8,819	13,188	1401,614	764,883
-7,804	13,153	1400,779	764,237
-6,790	13,122	1399,927	763,597
-5,775	13,180	1398,729	763,181
-4,760	13,134	1397,826	762,444
-3,746	13,141	1396,873	761,929
-2,731	13,173	1395,965	761,549
-1,717	13,114	1395,221	760,841
-0,702	13,106	1393,381	759,771
0,313	16,932	1310,265	732,179
1,327	33,193	703,806	430,867
2,342	51,001	123,190	82,471
3,356	0,227	16,620	8,358
4,371	9,780	3,236	1,731
5,386	16,983	0,588	0,329
6,400	-200,000	0,027	0,210
7,415	4,435	-0,240	-0,124
8,429	13,116	-0,392	-0,214
9,444	800,000	-0,094	-0,207
10,459	178,040	-0,281	-0,290
11,473	61,527	-0,195	-0,137
12,488	82,496	-0,289	-0,222
13,502	23,194	-0,307	-0,178
14,517	128,578	-0,270	-0,243
15,531	39,015	-0,383	-0,241
16,546	-44,928	-0,436	-0,153
17,561	288,708	-0,299	-0,384
18,575	77,465	-0,243	-0,183
19,590	98,287	-0,199	-0,162
20,604	-43,349	-0,349	-0,124
21,619	63,936	-0,416	-0,295
22,634	86,992	-0,456	-0,356
23,648	76,839	-0,443	-0,331
24,663	-27,485	-0,472	-0,193
25,677	68,651	-0,266	-0,192
26,692	51,701	-0,409	-0,274
27,707	27,852	-0,440	-0,261
28,721	415,521	-0,293	-0,442
29,736	23,539	-0,323	-0,187
30,750	68,181	-0,389	-0,281
31,765	204,070	-0,330	-0,361
32,780	36,264	-0,412	-0,256
33,794	-65,095	-0,451	-0,127
34,809	-53,478	-0,405	-0,130
35,823	0,625	-0,427	-0,214
36,838	-115,757	-0,409	-0,053
37,853	88,247	-0,319	-0,250
38,867	-17,768	-0,447	-0,197
39,882	88,290	-0,375	-0,293
40,896	75,986	-0,278	-0,207
41,911	25,348	-0,260	-0,152
42,926	-64,529	-0,354	-0,101
43,940	41,323	-0,433	-0,275
44,955	57,781	-0,368	-0,254
45,969	-21,745	-0,466	-0,199
46,984	137,876	-0,316	-0,292
47,999	-2,525	-0,307	-0,151
49,013	131,642	-0,238	-0,215
50,028	185,091	-0,211	-0,221
51,042	100,073	-0,434	-0,354
52,057	89,827	-0,317	-0,249
53,071	346,453	-0,286	-0,397
54,086	199,619	-0,287	-0,310
55,101	274,755	-0,263	-0,328
56,115	-66,483	-0,384	-0,106
57,130	202,632	-0,210	-0,228
58,144	-9,718	-0,433	-0,202
59,159	28,336	-0,403	-0,239
60,174	192,894	-0,334	-0,355
61,188	251,532	-0,252	-0,302
62,203	149,833	-0,327	-0,313
63,217	-94,639	-0,261	-0,049
64,232	16,777	-0,452	-0,251
65,247	72,071	-0,287	-0,210
66,261	43,987	-0,355	-0,228
67,276	8,699	-0,423	-0,224
68,290	214,023	-0,222	-0,247
69,305	-28,782	-0,336	-0,135
70,320	24,466	-0,347	-0,201
71,334	161,464	-0,300	-0,295
72,349	-69,621	-0,353	-0,094
73,363	30,597	-0,389	-0,233
74,378	38,867	-0,370	-0,232
75,393	-26,307	-0,360	-0,148
76,407	110,322	-0,292	-0,246
77,422	-9,840	-0,259	-0,121
78,436	-2,305	-0,316	-0,155
79,451	36,064	-0,368	-0,227
80,466	43,398	-0,320	-0,205
81,480	116,041	-0,357	-0,307
82,495	0,633	-0,286	-0,143
83,509	79,548	-0,254	-0,191
84,524	19,053	-0,181	-0,102
85,539	13,990	-0,287	-0,157
86,553	37,394	-0,335	-0,208
87,568	134,363	-0,258	-0,234
88,582	-31,568	-0,477	-0,187
89,597	-55,860	-0,437	-0,136
90,611	82,839	-0,163	-0,124
91,626	52,269	-0,268	-0,179
92,641	-55,235	-0,317	-0,099
93,655	-8,381	-0,315	-0,148
94,670	218,129	-0,172	-0,192
95,684	101,417	-0,314	-0,257
96,699	86,385	-0,223	-0,172
97,714	147,700	-0,254	-0,241
98,728	-113,156	-0,275	-0,038
99,743	-57,848	-0,346	-0,106
100,757	168,386	-0,238	-0,238
101,772	141,945	-0,301	-0,280
102,787	432,628	-0,150	-0,229
103,801	141,993	-0,340	-0,316
104,816	521,433	-0,167	-0,276
105,830	-17,649	-0,329	-0,144
106,845	342,701	-0,193	-0,265
107,860	212,987	-0,276	-0,306
108,874	-27,325	-0,286	-0,116
109,889	103,798	-0,252	-0,208
110,903	-4,717	-0,334	-0,161
111,918	74,211	-0,363	-0,267
112,933	215,417	-0,203	-0,226
113,947	-1,550	-0,284	-0,140
114,962	120,681	-0,170	-0,148
115,976	764,848	-0,162	-0,309
116,991	317,220	-0,265	-0,352
118,006	64,427	-0,362	-0,255
119,020	-9,895	-0,228	-0,106
120,035	61,927	-0,282	-0,197
121,049	6,945	-0,205	-0,107
122,064	-67,365	-0,224	-0,061
123,079	-63,790	-0,209	-0,060
124,093	95,929	-0,212	-0,169
125,108	130,609	-0,346	-0,310
126,122	-43,678	-0,352	-0,124
127,137	-12,246	-0,197	-0,090
128,151	-62,385	-0,299	-0,086
129,166	-60,121	-0,164	-0,049
130,181	64,912	-0,214	-0,151
131,195	136,907	-0,268	-0,245
132,210	214,214	-0,283	-0,314
133,224	57,353	-0,203	-0,138
134,239	-49,019	-0,283	-0,094
135,254	146,901	-0,276	-0,259
136,268	62,665	-0,210	-0,146
137,283	-70,937	-0,303	-0,079
138,297	22,183	-0,255	-0,145
139,312	126,974	-0,210	-0,186
140,327	74,899	-0,207	-0,152
141,341	-95,676	-0,269	-0,050
142,356	-105,509	-0,282	-0,044
143,370	800,000	-0,114	-0,225
144,385	-80,224	-0,386	-0,090
145,400	-92,598	-0,398	-0,077
146,414	17,979	-0,324	-0,180
147,429	431,846	-0,249	-0,378
148,443	363,156	-0,162	-0,229
149,458	598,161	-0,125	-0,217
150,473	102,125	-0,210	-0,171
151,487	-63,742	-0,341	-0,097
152,502	42,342	-0,421	-0,266
153,516	126,142	-0,268	-0,236
154,531	99,503	-0,300	-0,242
155,546	334,593	-0,187	-0,254
156,560	-35,425	-0,191	-0,072
157,575	34,650	-0,246	-0,150
158,589	160,952	-0,245	-0,239
159,604	428,471	-0,118	-0,179
160,619	-36,759	-0,334	-0,124
161,633	27,318	-0,355	-0,208
162,648	48,015	-0,182	-0,118
163,662	52,598	-0,138	-0,092
164,677	151,657	-0,185	-0,176
165,692	128,127	-0,269	-0,239
166,706	47,662	-0,360	-0,234
167,721	275,221	-0,169	-0,209
168,735	474,866	-0,190	-0,299
169,750	294,943	-0,106	-0,135
170,764	142,557	-0,198	-0,183
171,779	-101,785	-0,250	-0,042
172,794	472,298	-0,123	-0,193
173,808	0,336	-0,226	-0,112
174,823	281,689	-0,218	-0,272
175,837	184,361	-0,143	-0,148
176,852	11,154	-0,295	-0,157
177,867	143,434	-0,165	-0,153
178,881	226,283	-0,125	-0,142
179,896	-36,452	-0,222	-0,083
180,910	59,743	-0,242	-0,166
181,925	-145,607	-0,268	-0,016
182,940	132,994	-0,206	-0,186
183,954	127,305	-0,295	-0,260
184,969	225,360	-0,162	-0,183
185,983	24,328	-0,280	-0,160
186,998	-136,614	-0,126	0,010
188,013	15,645	-0,323	-0,176
189,027	93,517	-0,208	-0,164
190,042	327,346	-0,170	-0,228
191,056	22,529	-0,286	-0,162
192,071	-153,839	-0,120	0,006
193,086	35,538	-0,265	-0,161
194,100	-200,000	-0,094	-0,294
195,115	8,448	-0,205	-0,107
196,129	462,905	-0,103	-0,161
197,144	38,347	-0,253	-0,156
198,159	134,365	-0,193	-0,174
199,173	145,762	-0,145	-0,135
200,188	226,599	-0,188	-0,213
201,202	800,000	-0,059	-0,165
202,217	18,094	-0,256	-0,141
203,232	18,300	-0,261	-0,144
204,246	95,517	-0,318	-0,252
205,261	183,945	-0,087	-0,090
206,275	-27,958	-0,230	-0,092
207,290	28,154	-0,230	-0,135
208,304	414,429	-0,093	-0,138
209,319	127,735	-0,302	-0,266
210,334	800,000	-0,082	-0,162
211,348	800,000	-0,062	-0,146
212,363	-43,374	-0,187	-0,065
213,377	-9,983	-0,202	-0,093
214,392	72,359	-0,119	-0,086
215,407	-164,802	-0,227	-0,007
216,421	800,000	-0,111	-0,234
217,436	483,605	-0,073	-0,115
218,450	800,000	-0,070	-0,157
219,465	128,756	-0,218	-0,193
220,480	55,453	-0,196	-0,131
221,494	21,624	-0,132	0,074
222,509	61,370	-0,027	0,019
223,523	599,191	-0,035	-0,061
224,538	29,453	-0,233	-0,137
225,553	-8,069	-0,270	-0,126
226,567	29,201	-0,174	-0,102
227,582	-119,941	-0,208	-0,024
228,596	-106,506	-0,173	-0,026
229,611	36,356	-0,146	-0,089
230,626	142,307	-0,143	-0,132
231,640	433,970	-0,140	-0,211
232,655	800,000	-0,111	-0,270
233,669	-68,400	-0,313	-0,084
234,684	341,836	-0,116	-0,157
235,699	244,451	-0,140	-0,163
236,713	369,907	-0,169	-0,238
237,728	19,928	-0,177	-0,099
238,742	-27,256	-0,152	-0,061
239,757	800,000	-0,140	-0,298
240,772	104,554	-0,161	-0,131
241,786	800,000	-0,098	-0,195
242,801	625,504	-0,079	-0,138
243,815	-134,578	-0,201	-0,017
244,830	-43,525	-0,120	-0,042
245,844	-117,603	-0,259	-0,032
246,859	83,805	-0,281	-0,212
247,874	3,377	-0,259	-0,130
248,888	395,480	-0,170	-0,247
249,903	114,641	-0,271	-0,229
250,917	213,816	-0,189	-0,208
251,932	-70,703	-0,155	-0,040
252,947	-185,187	-0,145	-0,002
253,961	294,787	-0,124	-0,158
254,976	50,831	-0,195	-0,128
255,990	64,576	-0,206	-0,144
257,005	-98,740	-0,101	-0,018
258,020	410,134	-0,068	-0,100
259,034	63,944	-0,173	-0,120
260,049	355,896	-0,127	-0,175
261,063	138,273	-0,156	-0,142
262,078	144,753	-0,095	-0,088
263,093	-5,791	-0,200	-0,094
264,107	-102,743	-0,255	-0,042
265,122	91,354	-0,205	-0,159
266,136	800,000	-0,065	-0,163
267,151	800,000	-0,086	-0,179
268,166	179,012	-0,220	-0,222
269,180	-41,318	-0,363	-0,129
270,195	-0,028	-0,195	-0,095
271,209	126,222	-0,072	-0,063
272,224	-39,265	-0,143	-0,051
273,239	-89,671	-0,110	0,022
274,253	-122,705	-0,133	0,015
275,268	-111,954	-0,173	-0,024
276,282	42,535	-0,251	-0,157
277,297	278,756	-0,177	-0,218
278,312	218,347	-0,153	-0,169
279,326	-19,707	-0,133	-0,057
280,341	12,601	-0,151	-0,080
281,355	-43,018	-0,151	-0,052
282,370	17,147	-0,204	-0,111
283,384	800,000	-0,055	-0,126
284,399	193,743	-0,184	-0,192
285,414	-105,380	-0,236	-0,037
286,428	800,000	-0,056	-0,162
287,443	-66,694	-0,163	0,044
288,457	-89,892	-0,202	-0,040
289,472	332,470	-0,124	-0,166
290,487	-13,887	-0,101	-0,045
291,501	-154,460	-0,076	0,003
292,516	182,438	-0,241	-0,245
293,530	800,000	-0,094	-0,265
294,545	17,658	-0,208	-0,114
295,560	141,767	-0,187	-0,171
296,574	190,748	-0,099	-0,102
297,589	422,701	-0,121	-0,179
298,603	-109,705	-0,163	-0,023
299,618	800,000	-0,075	-0,174
300,633	-86,753	-0,136	-0,028
301,647	-56,479	-0,137	-0,041
302,662	-61,254	-0,228	0,066
303,676	-131,283	-0,175	-0,016
304,691	-26,913	-0,260	-0,104
305,706	473,678	-0,100	-0,156
306,720	433,902	-0,167	-0,251
307,735	1,236	-0,187	-0,092
308,749	176,938	-0,119	-0,119
309,764	173,316	-0,115	-0,114
310,779	60,142	-0,133	-0,090
311,793	-30,987	-0,212	-0,082
312,808	88,237	-0,209	-0,159
313,822	116,498	-0,047	-0,040
314,837	40,084	-0,073	-0,045
315,852	-108,554	-0,103	-0,015
316,866	-200,000	-0,051	-0,238
317,881	29,071	-0,106	-0,061
318,895	-75,822	-0,205	-0,049
319,910	108,022	-0,063	-0,052
320,925	-118,919	-0,151	-0,018
321,939	164,559	-0,226	-0,219
322,954	119,204	-0,127	-0,108
323,968	-200,000	-0,021	-0,107
324,983	209,148	-0,193	-0,208
325,997	-200,000	-0,044	-0,307
327,012	570,064	-0,134	-0,226
328,027	678,910	-0,140	-0,251
329,041	800,000	-0,060	-0,126
330,056	161,430	-0,142	-0,137
331,070	-69,346	-0,196	-0,051
332,085	-142,626	-0,173	-0,011
333,100	-200,000	-0,047	-0,145
334,114	260,244	-0,104	-0,123
335,129	21,652	-0,173	-0,096
336,143	489,414	-0,190	-0,300
337,158	96,708	-0,167	-0,131
338,173	-38,603	-0,095	-0,034
339,187	21,646	-0,064	-0,036
340,202	-154,192	-0,223	-0,010
341,216	41,879	-0,169	-0,105
342,231	254,290	-0,128	-0,150
343,246	289,718	-0,149	-0,186
344,260	-200,000	-0,067	-0,241
345,275	-3,701	-0,186	-0,089
346,289	330,431	-0,099	-0,131
347,304	168,706	-0,130	-0,127
348,319	-63,018	-0,177	-0,050
349,333	444,402	-0,117	-0,177
350,348	69,011	-0,151	-0,106
351,362	442,918	-0,097	-0,147
352,377	-200,000	-0,008	-0,045
353,392	-200,000	0,003	-0,065
354,406	94,059	-0,137	0,107
355,421	209,985	1312,762	1414,203
356,435	161,631	1473,264	1414,693
