DTS Sentinel unit serial number:	SN410029Multiplexer serial number:	ORYXHardware model number:	OX2-SRSoftware version number:	ORYX F/W v4,00 Oryx Data Collector v3.7.2.0data status	okinstallation	B3 Nyhavnadifferential loss correction	single-endedforward channel	channel 1reverse channel	N/Adate	2023/12/05time	00:12:30forward acquisition time	300,00reverse acquisition time	0,00gamma	499,1914k internal	0,3200k external	0,3200temperature offset calibration	1,0000default loss term (dB/km)	0,3820temperature slope calibration	1,0000multiplexer offset coefficient	1,0000multiplexer slope coefficient	1,0000fibre end	0,00T internal ref (°C)	13,93T ext. ref 1 (°C)	-1,33T ext. ref 2 (°C)	-1,34length (m)	temperature (°C)	Stokes	anti-Stokes-744,400	72,233	-0,229	-0,173
-743,385	-200,000	0,072	0,401
-742,371	800,000	-0,096	-0,270
-741,356	-200,000	-0,080	0,277
-740,342	754,018	-0,148	-0,293
-739,327	800,000	0,088	0,268
-738,312	16,964	-0,341	-0,196
-737,298	-200,000	-0,028	0,355
-736,283	108,663	-0,295	-0,257
-735,269	-200,000	-0,090	0,326
-734,254	290,716	-0,119	-0,158
-733,239	-21,789	-0,208	0,092
-732,225	-200,000	-0,005	-0,041
-731,210	228,463	0,170	0,202
-730,196	166,369	-0,098	0,101
-729,181	-65,253	-0,111	0,032
-728,167	800,000	0,020	0,060
-727,152	382,814	0,017	-0,025
-726,137	24,141	-0,058	-0,035
-725,123	800,000	-0,019	-0,048
-724,108	-116,490	-0,068	-0,009
-723,094	800,000	-0,035	0,090
-722,079	-200,000	0,011	0,149
-721,064	22,895	0,050	-0,029
-720,050	117,359	-0,047	-0,042
-719,035	-91,311	-0,133	-0,027
-718,021	800,000	-0,047	0,127
-717,006	44,322	-0,079	0,052
-715,991	221,888	0,040	-0,047
-714,977	-96,958	0,072	0,014
-713,962	-200,000	-0,007	0,091
-712,948	200,434	-0,063	0,071
-711,933	800,000	-0,014	0,038
-710,918	-200,000	0,011	-0,119
-709,904	-84,613	-0,085	0,019
-708,889	-46,311	-0,130	-0,046
-707,875	-1,824	-0,052	0,026
-706,860	800,000	-0,036	0,111
-705,845	-152,152	0,198	0,010
-704,831	-200,000	0,034	0,112
-703,816	-19,879	-0,143	0,064
-702,802	-96,807	-0,181	-0,034
-701,787	-200,000	0,009	-0,072
-700,772	-200,000	-0,033	0,000
-699,758	127,839	-0,107	-0,099
-698,743	-151,558	-0,114	-0,006
-697,729	186,330	-0,010	-0,011
-696,714	-133,831	-0,025	0,002
-695,699	511,647	-0,054	0,092
-694,685	800,000	-0,043	-0,104
-693,670	800,000	-0,009	0,022
-692,656	15,690	-0,045	-0,025
-691,641	-149,470	-0,075	-0,004
-690,627	800,000	0,049	0,110
-689,612	144,331	-0,073	0,071
-688,597	-200,000	-0,017	0,134
-687,583	-200,000	-0,020	0,088
-686,568	-95,928	-0,081	-0,016
-685,554	-70,165	-0,045	-0,012
-684,539	800,000	0,010	-0,026
-683,524	-136,483	-0,067	-0,006
-682,510	-1,893	-0,039	0,020
-681,495	40,166	-0,116	-0,075
-680,481	-200,000	0,031	-0,172
-679,466	-200,000	-0,017	-0,062
-678,451	25,991	-0,108	-0,065
-677,437	450,862	0,078	-0,125
-676,422	212,768	0,025	-0,029
-675,408	-112,604	0,132	0,019
-674,393	31,228	-0,036	0,022
-673,378	90,357	-0,168	0,136
-672,364	-200,000	-0,005	-0,051
-671,349	-65,960	-0,133	0,038
-670,335	17,219	-0,061	0,035
-669,320	-200,000	-0,005	0,128
-668,305	800,000	-0,014	0,028
-667,291	193,118	-0,045	-0,049
-666,276	-175,953	-0,171	-0,003
-665,262	-111,883	-0,172	-0,025
-664,247	171,979	-0,054	-0,056
-663,232	-69,245	0,105	-0,029
-662,218	-51,422	-0,064	0,022
-661,203	-44,999	-0,116	0,042
-660,189	800,000	-0,001	-0,002
-659,174	800,000	-0,046	-0,103
-658,159	800,000	0,039	0,090
-657,145	299,978	0,090	0,121
-656,130	-119,045	-0,029	-0,004
-655,116	-200,000	0,017	-0,060
-654,101	194,698	0,060	0,066
-653,086	800,000	0,047	0,129
-652,072	-52,884	-0,045	-0,015
-651,057	5,941	-0,128	0,068
-650,043	-0,079	-0,017	-0,009
-649,028	-77,152	-0,224	-0,056
-648,014	-156,792	0,147	-0,006
-646,999	-47,805	-0,062	-0,022
-645,984	571,518	-0,060	-0,107
-644,970	800,000	0,030	-0,061
-643,955	-200,000	-0,040	-0,134
-642,941	19,510	0,042	-0,024
-641,926	292,225	0,049	0,064
-640,911	559,902	0,043	-0,075
-639,897	-179,839	0,108	0,002
-638,882	-56,245	-0,024	-0,008
-637,868	112,675	-0,064	-0,056
-636,853	-200,000	-0,010	-0,122
-635,838	-45,952	-0,080	-0,028
-634,824	-200,000	-0,004	0,110
-633,809	-200,000	0,006	0,055
-632,795	-58,721	0,085	0,027
-631,780	-64,749	-0,083	-0,024
-630,765	-200,000	0,014	0,104
-629,751	311,918	-0,043	-0,059
-628,736	184,325	0,071	-0,076
-627,722	-60,161	0,076	-0,023
-626,707	800,000	-0,042	-0,096
-625,692	-200,000	-0,011	-0,114
-624,678	84,474	0,055	-0,043
-623,663	-99,622	-0,109	0,020
-622,649	631,228	-0,082	-0,151
-621,634	800,000	-0,072	-0,171
-620,619	-96,263	-0,144	0,027
-619,605	132,197	0,044	0,041
-618,590	-200,000	-0,019	0,072
-617,576	-200,000	0,002	-0,024
-616,561	-200,000	0,009	0,044
-615,546	11,740	-0,021	0,012
-614,532	-62,159	-0,111	-0,033
-613,517	-200,000	-0,054	-0,189
-612,503	-200,000	0,003	-0,152
-611,488	-33,801	0,047	0,019
-610,474	800,000	-0,049	0,120
-609,459	800,000	-0,018	0,039
-608,444	800,000	-0,042	0,114
-607,430	62,808	-0,141	-0,102
-606,415	-17,717	0,107	-0,049
-605,401	-200,000	0,001	0,080
-604,386	166,716	-0,011	-0,011
-603,371	-7,067	0,093	0,046
-602,357	-200,000	-0,023	-0,101
-601,342	-27,300	-0,120	0,050
-600,328	-108,001	0,104	0,016
-599,313	49,813	0,186	-0,127
-598,298	-51,279	-0,118	0,040
-597,284	258,745	-0,031	0,039
-596,269	-200,000	-0,026	0,137
-595,255	-200,000	-0,034	0,185
-594,240	800,000	-0,043	0,124
-593,225	23,306	-0,088	0,052
-592,211	800,000	-0,042	-0,099
-591,196	-200,000	-0,013	-0,070
-590,182	755,069	-0,011	-0,023
-589,167	800,000	0,051	0,133
-588,152	-78,926	-0,030	0,007
-587,138	-31,597	0,028	0,011
-586,123	110,279	-0,137	-0,119
-585,109	-119,245	-0,104	0,013
-584,094	192,215	-0,108	-0,118
-583,079	357,927	0,059	-0,086
-582,065	-85,240	0,098	-0,022
-581,050	-200,000	0,025	0,084
-580,036	686,227	0,047	-0,089
-579,021	-81,112	-0,059	-0,014
-578,006	421,002	0,060	0,094
-576,992	800,000	-0,018	0,036
-575,977	-54,122	0,077	0,025
-574,963	70,687	-0,069	-0,051
-573,948	-121,808	-0,104	-0,012
-572,934	61,598	-0,075	0,054
-571,919	800,000	-0,033	-0,070
-570,904	197,021	0,024	0,027
-569,890	800,000	-0,045	0,099
-568,875	13,036	-0,014	-0,008
-567,861	-144,181	0,115	0,008
-566,846	31,049	0,066	-0,041
-565,831	-144,250	0,109	0,007
-564,817	-163,193	0,051	0,002
-563,802	-104,584	0,047	-0,008
-562,788	12,885	-0,047	-0,026
-561,773	-200,000	0,008	-0,037
-560,758	800,000	0,020	-0,054
-559,744	410,276	-0,030	0,046
-558,729	414,740	-0,028	-0,043
-557,715	314,903	0,071	0,097
-556,700	-200,000	-0,017	-0,078
-555,685	800,000	-0,023	-0,060
-554,671	-33,295	0,036	0,014
-553,656	460,449	0,057	-0,091
-552,642	131,246	0,125	0,116
-551,627	207,087	-0,069	-0,078
-550,612	396,911	-0,105	-0,159
-549,598	-8,667	-0,188	0,091
-548,583	327,059	0,012	0,017
-547,569	400,615	0,047	0,072
-546,554	-200,000	-0,015	0,089
-545,539	-96,325	0,046	-0,009
-544,525	-138,761	0,070	0,005
-543,510	95,929	0,045	0,037
-542,496	800,000	-0,024	-0,073
-541,481	-13,630	-0,081	0,038
-540,466	-112,959	0,031	0,004
-539,452	782,064	0,039	0,078
-538,437	674,288	0,025	-0,048
-537,423	312,011	-0,060	0,081
-536,408	-139,012	0,104	0,008
-535,393	340,937	-0,054	-0,076
-534,379	589,558	-0,034	0,061
-533,364	-155,642	0,148	-0,007
-532,350	-200,000	-0,007	0,118
-531,335	800,000	-0,028	0,080
-530,321	-200,000	0,006	0,103
-529,306	800,000	0,033	-0,088
-528,291	41,762	-0,091	0,060
-527,277	800,000	0,013	0,034
-526,262	407,675	-0,009	-0,014
-525,248	-200,000	0,000	-0,069
-524,233	-200,000	0,013	0,113
-523,218	-41,522	0,114	0,042
-522,204	-200,000	0,018	0,119
-521,189	-200,000	0,002	-0,010
-520,175	-53,843	-0,106	-0,035
-519,160	-200,000	0,008	-0,178
-518,145	-200,000	0,010	0,091
-517,131	-200,000	0,054	0,207
-516,116	-141,433	0,096	0,007
-515,102	54,770	-0,088	0,061
-514,087	-200,000	0,034	-0,120
-513,072	10,968	-0,062	-0,034
-512,058	288,812	-0,083	-0,109
-511,043	-91,934	0,080	0,016
-510,029	513,433	-0,043	-0,073
-509,014	-75,536	0,056	-0,014
-507,999	-200,000	-0,018	0,141
-506,985	-91,600	-0,065	-0,013
-505,970	-10,370	-0,029	0,014
-504,956	-53,901	-0,094	-0,031
-503,941	800,000	0,049	-0,109
-502,926	-200,000	0,004	0,044
-501,912	-200,000	-0,001	0,028
-500,897	312,954	0,038	0,051
-499,883	-200,000	0,006	-0,141
-498,868	-195,312	-0,149	-0,001
-497,853	-200,000	0,018	0,071
-496,839	52,168	0,063	0,043
-495,824	-200,000	-0,028	0,129
-494,810	800,000	-0,058	0,151
-493,795	-121,082	-0,051	0,006
-492,781	-200,000	0,001	0,077
-491,766	-91,566	-0,037	0,008
-490,751	-81,510	-0,163	0,038
-489,737	411,161	0,034	-0,052
-488,722	-49,102	0,088	0,030
-487,708	800,000	0,028	-0,080
-486,693	53,180	-0,043	-0,030
-485,678	-200,000	-0,007	0,050
-484,664	-24,816	0,113	-0,048
-483,649	-18,553	-0,110	-0,049
-482,635	172,157	0,079	-0,082
-481,620	253,266	0,111	0,137
-480,605	199,064	0,104	0,114
-479,591	49,752	-0,057	-0,038
-478,576	290,150	0,050	0,065
-477,562	-200,000	-0,012	-0,045
-476,547	-132,718	-0,045	-0,004
-475,532	103,265	0,163	-0,137
-474,518	62,270	0,154	0,111
-473,503	-56,350	-0,088	-0,028
-472,489	6,377	0,077	0,041
-471,474	692,359	-0,057	0,107
-470,459	352,427	-0,012	-0,017
-469,445	-200,000	-0,014	-0,043
-468,430	-200,000	0,031	-0,104
-467,416	-200,000	0,016	0,189
-466,401	177,560	-0,075	0,078
-465,386	67,979	-0,076	-0,056
-464,372	-145,217	-0,088	-0,006
-463,357	73,950	-0,130	-0,098
-462,343	-93,420	0,140	0,028
-461,328	215,307	-0,100	0,115
-460,313	-113,973	0,064	0,009
-459,299	382,446	0,030	0,044
-458,284	-47,112	0,048	0,017
-457,270	-85,765	0,101	-0,022
-456,255	166,619	-0,074	0,076
-455,241	-113,585	-0,067	0,009
-454,226	34,649	0,097	-0,061
-453,211	726,496	0,035	0,067
-452,197	452,581	0,035	-0,056
-451,182	800,000	0,032	0,093
-450,168	-122,836	-0,059	0,007
-449,153	800,000	-0,058	-0,159
-448,138	800,000	-0,034	0,081
-447,124	-101,764	-0,140	0,024
-446,109	140,496	0,016	-0,015
-445,095	-6,065	0,060	-0,029
-444,080	800,000	-0,032	-0,077
-443,065	-200,000	0,011	0,129
-442,051	168,311	0,051	-0,053
-441,036	-116,242	-0,112	0,015
-440,022	-171,103	0,067	0,002
-439,007	130,457	0,088	-0,081
-437,992	-129,623	0,151	-0,015
-436,978	-137,992	0,028	-0,002
-435,963	-166,856	0,077	0,002
-434,949	800,000	-0,010	0,024
-433,934	-28,673	-0,088	-0,036
-432,919	-200,000	-0,024	-0,128
-431,905	-200,000	-0,027	-0,087
-430,890	-72,448	0,168	0,044
-429,876	-200,000	-0,019	0,067
-428,861	35,710	0,043	0,027
-427,846	-26,309	0,103	-0,043
-426,832	-200,000	0,029	-0,101
-425,817	117,627	-0,073	0,064
-424,803	202,661	-0,066	-0,073
-423,788	8,511	0,070	-0,038
-422,773	20,750	-0,152	-0,088
-421,759	-115,221	0,110	-0,015
-420,744	-63,113	-0,037	-0,011
-419,730	-200,000	-0,022	-0,138
-418,715	800,000	-0,007	0,017
-417,701	-200,000	-0,076	-0,243
-416,686	800,000	-0,030	-0,070
-415,671	156,267	-0,048	0,047
-414,657	-200,000	-0,014	0,058
-413,642	800,000	0,017	-0,041
-412,628	214,097	-0,085	-0,097
-411,613	800,000	-0,084	-0,176
-410,598	46,307	0,067	0,044
-409,584	11,963	-0,060	-0,033
-408,569	-51,141	-0,032	-0,011
-407,555	800,000	-0,043	0,110
-406,540	493,177	0,031	-0,051
-405,525	-200,000	-0,017	0,077
-404,511	-62,878	-0,111	0,033
-403,496	-200,000	0,008	-0,096
-402,482	130,071	-0,118	-0,108
-401,467	-113,723	0,086	0,012
-400,452	216,128	-0,058	0,067
-399,438	-200,000	0,032	0,102
-398,423	59,208	0,086	-0,061
-397,409	-53,373	-0,151	-0,049
-396,394	645,216	0,024	-0,045
-395,379	-200,000	-0,019	0,089
-394,365	69,105	0,024	0,018
-393,350	-200,000	0,042	0,136
-392,336	78,626	0,072	0,056
-391,321	800,000	0,020	0,051
-390,306	800,000	-0,061	-0,169
-389,292	-200,000	0,015	0,101
-388,277	-200,000	-0,020	-0,087
-387,263	511,404	-0,005	-0,008
-386,248	714,938	-0,075	0,144
-385,233	-200,000	0,035	0,131
-384,219	610,128	-0,039	-0,069
-383,204	6,317	-0,098	0,052
-382,190	800,000	0,062	-0,154
-381,175	694,537	-0,029	0,054
-380,160	800,000	0,077	0,161
-379,146	515,330	0,078	0,132
-378,131	-200,000	0,024	0,170
-377,117	800,000	-0,027	-0,055
-376,102	-85,593	-0,136	-0,030
-375,088	-67,576	0,122	-0,034
-374,073	83,587	0,056	0,043
-373,058	800,000	0,060	0,156
-372,044	800,000	0,037	-0,079
-371,029	167,991	-0,063	0,065
-370,015	162,396	-0,116	-0,117
-369,000	800,000	0,007	-0,017
-367,985	446,546	-0,064	0,101
-366,971	-9,323	0,066	-0,032
-365,956	-142,042	0,115	-0,008
-364,942	234,692	-0,029	-0,034
-363,927	167,195	-0,039	-0,039
-362,912	-200,000	-0,027	-0,128
-361,898	-200,000	0,021	-0,109
-360,883	-200,000	-0,018	-0,101
-359,869	-151,883	0,083	-0,004
-358,854	84,442	-0,027	0,021
-357,839	-200,000	0,007	-0,153
-356,825	-116,024	-0,109	-0,014
-355,810	-200,000	0,005	-0,101
-354,796	800,000	0,035	-0,071
-353,781	-33,899	-0,116	-0,046
-352,766	-200,000	0,022	-0,096
-351,752	800,000	0,037	-0,105
-350,737	800,000	-0,037	0,106
-349,723	-200,000	0,011	0,084
-348,708	-44,935	-0,077	-0,027
-347,693	800,000	-0,016	0,048
-346,679	-70,371	-0,078	0,021
-345,664	-200,000	-0,005	0,124
-344,650	-60,166	-0,146	-0,044
-343,635	-97,754	0,064	0,012
-342,620	691,975	0,091	0,172
-341,606	-50,060	0,039	-0,013
-340,591	800,000	-0,035	-0,082
-339,577	-200,000	0,008	0,106
-338,562	35,282	0,185	-0,116
-337,548	-21,839	0,041	-0,018
-336,533	118,322	-0,084	-0,075
-335,518	-47,512	0,067	-0,023
-334,504	-94,207	-0,102	-0,020
-333,489	-200,000	-0,012	-0,136
-332,475	382,523	0,075	-0,111
-331,460	-69,269	-0,112	-0,031
-330,445	-200,000	-0,011	-0,112
-329,431	12,137	0,062	0,034
-328,416	800,000	-0,022	-0,053
-327,402	-200,000	-0,018	0,059
-326,387	-90,494	-0,073	-0,015
-325,372	-200,000	0,001	-0,053
-324,358	-176,604	0,007	-0,000
-323,343	-114,514	0,166	-0,023
-322,329	116,865	0,027	-0,024
-321,314	364,111	0,039	0,057
-320,299	67,177	0,105	0,076
-319,285	180,815	-0,141	-0,148
-318,270	800,000	-0,063	-0,155
-317,256	-200,000	-0,003	-0,058
-316,241	425,250	0,091	-0,141
-315,226	-200,000	0,017	0,133
-314,212	800,000	-0,057	0,128
-313,197	800,000	0,066	-0,132
-312,183	-200,000	0,007	-0,040
-311,168	112,183	-0,094	-0,082
-310,153	125,649	0,018	-0,016
-309,139	-82,686	0,052	-0,012
-308,124	800,000	-0,023	0,048
-307,110	683,677	0,104	0,195
-306,095	-200,000	0,012	0,040
-305,080	61,463	0,018	0,013
-304,066	-200,000	-0,011	-0,055
-303,051	321,721	0,128	-0,175
-302,037	129,012	-0,076	0,069
-301,022	94,240	0,036	0,029
-300,008	-106,529	0,217	0,034
-298,993	-71,246	0,093	0,025
-297,978	-8,628	0,077	0,037
-296,964	800,000	0,018	0,048
-295,949	-200,000	-0,015	0,100
-294,935	-200,000	0,005	-0,091
-293,920	101,831	-0,050	-0,041
-292,905	-106,309	-0,130	0,021
-291,891	-13,746	-0,015	0,007
-290,876	-128,027	-0,040	-0,004
-289,862	-29,595	0,061	0,025
-288,847	326,957	0,122	0,168
-287,832	800,000	-0,012	0,031
-286,818	33,558	-0,100	-0,062
-285,803	402,469	0,037	-0,056
-284,789	-152,480	0,252	-0,013
-283,774	31,804	0,040	-0,024
-282,759	34,022	0,116	0,072
-281,745	392,090	-0,093	-0,138
-280,730	-200,000	0,017	0,070
-279,716	779,154	-0,040	-0,078
-278,701	129,029	0,107	0,098
-277,686	73,136	0,114	0,085
-276,672	-200,000	-0,006	0,036
-275,657	-62,688	-0,089	0,026
-274,643	-133,058	-0,095	-0,009
-273,628	-200,000	-0,008	-0,041
-272,613	-51,436	0,102	0,034
-271,599	-200,000	-0,007	-0,072
-270,584	-104,796	0,212	0,034
-269,570	-18,419	0,138	0,061
-268,555	253,536	-0,017	0,021
-267,540	208,250	0,041	-0,046
-266,526	-75,569	-0,133	-0,034
-265,511	629,136	-0,040	-0,072
-264,497	630,463	-0,048	0,088
-263,482	61,344	0,142	0,101
-262,467	800,000	-0,032	0,077
-261,453	187,038	-0,101	0,108
-260,438	643,096	0,043	-0,079
-259,424	-102,480	-0,045	0,008
-258,409	173,727	-0,097	0,100
-257,395	-173,903	0,098	0,002
-256,380	-117,045	-0,050	0,006
-255,365	157,367	-0,053	0,052
-254,351	-200,000	-0,009	0,092
-253,336	-84,763	-0,081	-0,018
-252,322	-200,000	-0,025	-0,082
-251,307	-93,254	-0,224	0,044
-250,292	-144,655	-0,047	0,003
-249,278	118,342	0,086	0,076
-248,263	-200,000	0,022	0,125
-247,249	46,229	-0,133	0,088
-246,234	-200,000	-0,010	0,077
-245,219	493,345	-0,016	-0,026
-244,205	342,283	0,020	-0,028
-243,190	-86,021	0,047	0,010
-242,176	800,000	0,042	0,114
-241,161	163,079	-0,049	0,049
-240,146	1,440	-0,083	-0,042
-239,132	800,000	-0,025	0,068
-238,117	226,856	-0,047	0,055
-237,103	111,952	-0,027	-0,024
-236,088	350,014	0,063	0,089
-235,073	800,000	0,021	-0,048
-234,059	800,000	-0,062	0,189
-233,044	-200,000	-0,009	-0,103
-232,030	72,277	0,091	-0,067
-231,015	65,574	-0,036	-0,026
-230,000	648,920	-0,011	-0,021
-228,986	110,766	0,065	0,056
-227,971	201,861	-0,062	-0,068
-226,957	800,000	-0,029	-0,064
-225,942	800,000	0,047	0,094
-224,927	-52,109	0,034	0,011
-223,913	800,000	-0,063	-0,141
-222,898	800,000	-0,014	-0,040
-221,884	-136,981	0,045	0,004
-220,869	136,522	-0,040	0,037
-219,855	-28,515	0,113	-0,046
-218,840	-85,809	0,161	0,035
-217,825	-0,756	0,120	-0,060
-216,811	234,091	-0,059	-0,070
-215,796	203,897	-0,024	0,026
-214,782	800,000	-0,009	-0,018
-213,767	74,743	0,092	0,069
-212,752	800,000	0,052	0,147
-211,738	-85,791	-0,005	-0,001
-210,723	-47,222	0,066	0,023
-209,709	800,000	-0,008	0,018
-208,694	36,468	-0,064	0,040
-207,679	-117,389	-0,056	0,007
-206,665	368,876	0,030	0,043
-205,650	-200,000	0,003	-0,046
-204,636	42,500	-0,048	-0,031
-203,621	-156,571	0,047	-0,002
-202,606	-24,075	-0,052	-0,022
-201,592	-41,878	-0,095	-0,035
-200,577	-65,641	-0,056	0,016
-199,563	-161,856	0,104	0,004
-198,548	-69,291	0,049	-0,013
-197,533	-200,000	0,018	0,143
-196,519	105,952	0,113	0,095
-195,504	271,163	0,056	0,071
-194,490	800,000	0,022	0,047
-193,475	137,310	-0,099	0,093
-192,460	699,636	-0,038	0,072
-191,446	-106,694	0,010	0,002
-190,431	-168,345	0,148	0,004
-189,417	-200,000	0,001	-0,016
-188,402	-122,355	-0,138	0,016
-187,387	-167,545	-0,090	0,003
-186,373	84,573	-0,123	-0,096
-185,358	800,000	-0,024	-0,071
-184,344	-144,580	0,073	0,005
-183,329	10,242	0,097	0,052
-182,315	-50,482	-0,074	-0,025
-181,300	-200,000	0,002	-0,030
-180,285	55,587	0,102	0,070
-179,271	292,953	-0,038	-0,049
-178,256	800,000	0,012	0,026
-177,242	-200,000	-0,014	0,059
-176,227	-145,834	0,088	0,005
-175,212	-200,000	-0,030	0,109
-174,198	-200,000	0,028	0,159
-173,183	-39,790	-0,022	-0,008
-172,169	-200,000	0,007	0,061
-171,154	124,743	-0,085	-0,076
-170,139	800,000	0,064	-0,141
-169,125	118,401	0,071	-0,062
-168,110	89,045	-0,071	-0,056
-167,096	-200,000	0,053	0,000
-166,081	-160,463	0,092	0,003
-165,066	154,845	-0,036	-0,036
-164,052	122,894	-0,121	-0,108
-163,037	-200,000	0,003	-0,040
-162,023	-112,357	0,045	0,006
-161,008	-178,891	0,111	0,002
-159,993	277,565	0,065	-0,083
-158,979	411,299	-0,020	0,030
-157,964	-32,903	-0,161	-0,063
-156,950	-143,033	0,115	0,008
-155,935	155,694	-0,031	0,030
-154,920	-200,000	-0,006	-0,073
-153,906	-5,157	0,098	-0,048
-152,891	800,000	-0,047	0,145
-151,877	-60,842	-0,057	0,017
-150,862	-82,561	-0,108	0,025
-149,847	-2,903	-0,093	0,046
-148,833	39,714	0,071	-0,045
-147,818	-200,000	0,014	0,115
-146,804	-200,000	-0,020	-0,083
-145,789	800,000	0,005	-0,014
-144,775	-28,353	-0,062	0,025
-143,760	-200,000	0,017	-0,069
-142,745	264,171	0,065	0,081
-141,731	351,306	-0,071	0,100
-140,716	800,000	-0,007	0,017
-139,702	-45,435	0,178	-0,062
-138,687	185,314	0,054	-0,057
-137,672	104,870	-0,097	0,081
-136,658	376,230	-0,016	-0,024
-135,643	-43,358	-0,037	0,013
-134,629	-200,000	-0,022	-0,148
-133,614	259,589	0,083	0,102
-132,599	-148,035	-0,033	-0,002
-131,585	-17,900	0,104	0,046
-130,570	-84,474	-0,071	-0,016
-129,556	-200,000	-0,011	-0,141
-128,541	-200,000	-0,014	-0,082
-127,526	54,554	-0,051	-0,035
-126,512	13,794	-0,085	-0,047
-125,497	-129,508	0,203	-0,020
-124,483	-40,168	-0,136	-0,050
-123,468	-200,000	0,025	0,086
-122,453	-65,081	-0,084	-0,024
-121,439	180,918	0,077	0,080
-120,424	112,748	-0,044	-0,038
-119,410	22,481	0,070	-0,041
-118,395	800,000	-0,046	0,097
-117,380	-163,419	0,113	0,004
-116,366	53,780	-0,073	0,049
-115,351	-71,068	-0,084	0,022
-114,337	-55,649	-0,142	0,045
-113,322	-200,000	0,022	-0,088
-112,307	-23,843	0,148	-0,062
-111,293	-200,000	-0,029	-0,107
-110,278	-200,000	-0,003	-0,017
-109,264	267,199	-0,032	0,040
-108,249	-90,577	-0,106	0,022
-107,234	-200,000	-0,008	-0,087
-106,220	-200,000	0,019	-0,064
-105,205	-200,000	0,012	-0,104
-104,191	-60,891	0,105	0,031
-103,176	237,032	-0,024	0,028
-102,162	800,000	0,032	-0,072
-101,147	-100,143	0,028	-0,005
-100,132	93,815	0,081	0,065
-99,118	182,435	-0,044	0,046
-98,103	-108,570	-0,076	-0,011
-97,089	344,546	0,096	0,134
-96,074	6,185	0,143	0,075
-95,059	-200,000	-0,002	0,015
-94,045	-200,000	-0,006	0,076
-93,030	-200,000	0,026	0,147
-92,016	85,635	-0,059	0,046
-91,001	800,000	-0,023	0,060
-89,986	706,625	-0,025	0,046
-88,972	-200,000	0,020	0,162
-87,957	362,853	-0,089	0,128
-86,943	292,506	-0,044	0,057
-85,928	800,000	0,039	0,106
-84,913	-200,000	-0,006	-0,045
-83,899	800,000	0,041	-0,087
-82,884	416,285	0,055	-0,084
-81,870	-105,319	0,083	-0,013
-80,855	800,000	-0,049	0,118
-79,840	-200,000	-0,021	0,202
-78,826	800,000	-0,028	0,063
-77,811	447,994	0,015	-0,024
-76,797	-86,106	-0,025	0,005
-75,782	-77,622	-0,140	0,034
-74,767	354,066	0,050	-0,071
-73,753	296,849	-0,042	-0,055
-72,738	64,293	-0,018	0,013
-71,724	-49,323	-0,062	-0,021
-70,709	-200,000	-0,024	0,080
-69,694	466,541	-0,075	-0,120
-68,680	-200,000	-0,009	-0,057
-67,665	554,159	-0,024	-0,041
-66,651	800,000	0,038	0,081
-65,636	-200,000	-0,023	0,074
-64,622	277,209	0,052	0,066
-63,607	95,544	0,078	0,063
-62,592	82,772	0,184	-0,141
-61,578	-200,000	0,013	-0,054
-60,563	27,170	0,060	0,036
-59,549	7,418	0,096	0,051
-58,534	-13,881	-1,618	-0,738
-57,519	371,328	-1,402	-2,020
-56,505	-200,000	-0,544	-4,488
-55,490	165,292	1,016	1,018
-54,476	800,000	4,938	11,463
-53,461	-200,000	18,852	311,704
-52,446	-200,000	738,691	2318,529
-51,432	573,705	1655,246	2869,974
-50,417	79,089	1671,744	1266,742
-49,403	21,939	1544,258	889,243
-48,388	15,804	1467,049	814,951
-47,373	17,864	1457,036	819,315
-46,359	16,849	1447,171	808,864
-45,344	14,080	1442,559	792,983
-44,330	13,995	1440,662	791,501
-43,315	13,984	1438,866	790,434
-42,300	13,975	1437,276	789,486
-41,286	14,000	1436,050	788,899
-40,271	13,965	1434,847	788,039
-39,257	14,003	1433,297	787,339
-38,242	13,991	1432,276	786,690
-37,227	14,045	1431,024	786,229
-36,213	14,035	1429,609	785,368
-35,198	13,989	1428,634	784,584
-34,184	14,058	1427,600	784,316
-33,169	14,005	1426,263	783,297
-32,154	14,038	1425,053	782,758
-31,140	14,052	1423,913	782,165
-30,125	14,024	1422,880	781,438
-29,111	14,084	1421,668	781,024
-28,096	14,066	1420,250	780,126
-27,082	13,939	1419,506	779,091
-26,067	13,979	1418,452	778,668
-25,052	13,955	1417,418	777,955
-24,038	13,924	1416,391	777,218
-23,023	13,954	1415,315	776,735
-22,009	13,951	1414,492	776,241
-20,994	13,899	1413,529	775,437
-19,979	13,892	1412,664	774,896
-18,965	13,906	1411,558	774,327
-17,950	13,889	1410,779	773,787
-16,936	13,908	1409,612	773,206
-15,921	13,911	1408,510	772,585
-14,906	13,844	1407,869	771,889
-13,892	13,853	1406,787	771,308
-12,877	13,870	1405,943	770,894
-11,863	13,840	1405,089	770,256
-10,848	13,853	1404,222	769,811
-9,833	13,802	1403,430	769,108
-8,819	13,791	1402,527	768,532
-7,804	13,789	1401,433	767,892
-6,790	13,783	1400,359	767,244
-5,775	13,768	1399,581	766,718
-4,760	13,768	1398,523	766,105
-3,746	13,768	1397,533	765,536
-2,731	13,809	1396,794	765,289
-1,717	13,761	1395,965	764,585
-0,702	13,717	1394,231	763,400
0,313	17,555	1311,743	736,035
1,327	33,810	705,757	433,668
2,342	51,837	123,959	83,353
3,356	3,568	16,480	8,476
4,371	2,420	3,341	1,705
5,386	-37,365	0,540	0,203
6,400	800,000	0,062	0,132
7,415	45,444	-0,230	-0,150
8,429	16,047	-0,247	-0,137
9,444	13,007	-0,301	-0,164
10,459	17,436	-0,238	-0,134
11,473	-5,174	-0,282	-0,137
12,488	-57,193	-0,282	-0,087
13,502	22,508	-0,405	-0,234
14,517	0,873	-0,410	-0,207
15,531	56,415	-0,311	-0,213
16,546	56,274	-0,276	-0,189
17,561	104,403	-0,287	-0,239
18,575	-78,481	-0,149	-0,036
19,590	314,097	-0,198	-0,264
20,604	-158,052	-0,255	-0,010
21,619	64,585	-0,410	-0,291
22,634	94,922	-0,373	-0,300
23,648	-2,618	-0,354	-0,174
24,663	-23,106	-0,346	-0,146
25,677	-42,210	-0,423	-0,152
26,692	67,970	-0,342	-0,247
27,707	2,984	-0,232	-0,119
28,721	361,802	-0,243	-0,345
29,736	121,640	-0,474	-0,417
30,750	228,701	-0,300	-0,346
31,765	137,562	-0,335	-0,309
32,780	200,858	-0,408	-0,443
33,794	90,254	-0,453	-0,358
34,809	490,248	-0,164	-0,266
35,823	71,452	-0,333	-0,244
36,838	71,344	-0,331	-0,242
37,853	-21,081	-0,329	-0,142
38,867	138,968	-0,367	-0,340
39,882	-3,795	-0,412	-0,201
40,896	-60,888	-0,355	-0,105
41,911	5,001	-0,421	-0,218
42,926	2,143	-0,351	-0,178
43,940	67,507	-0,316	-0,227
44,955	64,215	-0,394	-0,279
45,969	189,723	-0,341	-0,361
46,984	-19,240	-0,463	-0,202
47,999	115,128	-0,305	-0,262
49,013	14,492	-0,225	-0,123
50,028	67,701	-0,278	-0,200
51,042	56,251	-0,376	-0,257
52,057	69,486	-0,549	-0,398
53,071	37,745	-0,427	-0,267
54,086	134,911	-0,351	-0,321
55,101	-34,598	-0,459	-0,176
56,115	-59,202	-0,337	-0,102
57,130	-38,407	-0,380	-0,141
58,144	26,961	-0,421	-0,248
59,159	96,592	-0,348	-0,280
60,174	91,670	-0,380	-0,300
61,188	117,064	-0,222	-0,192
62,203	202,078	-0,261	-0,284
63,217	115,659	-0,354	-0,304
64,232	20,962	-0,330	-0,188
65,247	64,651	-0,458	-0,324
66,261	165,658	-0,406	-0,404
67,276	47,338	-0,341	-0,223
68,290	-53,411	-0,510	-0,163
69,305	74,451	-0,457	-0,337
70,320	-10,361	-0,211	-0,098
71,334	3,600	-0,266	-0,136
72,349	24,699	-0,296	-0,172
73,363	46,299	-0,394	-0,256
74,378	81,799	-0,386	-0,293
75,393	67,277	-0,322	-0,231
76,407	60,255	-0,399	-0,277
77,422	196,492	-0,224	-0,240
78,436	202,204	-0,256	-0,278
79,451	92,623	-0,253	-0,200
80,466	93,603	-0,292	-0,233
81,480	82,201	-0,348	-0,265
82,495	20,109	-0,313	-0,177
83,509	147,803	-0,231	-0,219
84,524	-121,047	-0,316	-0,037
85,539	42,204	-0,264	-0,168
86,553	-47,619	-0,288	-0,098
87,568	44,793	-0,331	-0,214
88,582	0,444	-0,389	-0,194
89,597	181,472	-0,218	-0,225
90,611	283,082	-0,198	-0,250
91,626	55,732	-0,226	-0,154
92,641	115,467	-0,267	-0,229
93,655	-5,996	-0,303	-0,145
94,670	10,204	-0,405	-0,215
95,684	-44,631	-0,356	-0,124
96,699	18,797	-0,385	-0,216
97,714	-20,905	-0,379	-0,162
98,728	51,193	-0,252	-0,167
99,743	221,049	-0,202	-0,228
100,757	35,811	-0,227	-0,140
101,772	98,272	-0,358	-0,289
102,787	154,548	-0,363	-0,350
103,801	69,083	-0,319	-0,229
104,816	296,058	-0,178	-0,230
105,830	97,070	-0,250	-0,201
106,845	116,557	-0,144	-0,124
107,860	60,523	-0,155	-0,107
108,874	-68,142	-0,362	-0,098
109,889	103,473	-0,200	-0,165
110,903	326,688	-0,178	-0,240
111,918	-57,714	-0,304	-0,093
112,933	57,426	-0,245	-0,168
113,947	22,040	-0,269	-0,153
114,962	139,122	-0,259	-0,239
115,976	-38,665	-0,388	-0,143
116,991	453,390	-0,143	-0,222
118,006	-23,189	-0,326	-0,137
119,020	1,260	-0,142	-0,071
120,035	800,000	-0,056	-0,137
121,049	-1,212	-0,286	-0,141
122,064	-26,591	-0,349	-0,142
123,079	32,989	-0,263	-0,159
124,093	29,604	-0,291	-0,173
125,108	73,328	-0,241	-0,176
126,122	800,000	-0,148	-0,288
127,137	-71,166	-0,292	-0,076
128,151	68,438	-0,228	-0,163
129,166	60,165	-0,245	-0,169
130,181	-20,097	-0,215	-0,093
131,195	46,751	-0,250	-0,162
132,210	100,062	-0,293	-0,238
133,224	250,955	-0,244	-0,291
134,239	-73,366	-0,203	-0,052
135,254	14,757	-0,245	-0,134
136,268	-87,839	-0,285	-0,059
137,283	136,442	-0,196	-0,178
138,297	-71,178	-0,243	-0,063
139,312	122,669	-0,413	-0,361
140,327	129,204	-0,240	-0,214
141,341	205,001	-0,211	-0,229
142,356	60,875	-0,255	-0,176
143,370	-7,376	-0,293	-0,138
144,385	123,496	-0,176	-0,154
145,400	45,536	-0,333	-0,215
146,414	289,282	-0,218	-0,276
147,429	123,231	-0,223	-0,196
148,443	156,013	-0,166	-0,160
149,458	-108,222	-0,295	-0,044
150,473	108,622	-0,182	-0,152
151,487	-172,839	-0,171	-0,004
152,502	-16,948	-0,337	-0,148
153,516	192,965	-0,182	-0,192
154,531	258,323	-0,270	-0,325
155,546	-60,821	-0,300	-0,088
156,560	184,698	-0,169	-0,175
157,575	155,965	-0,167	-0,160
158,589	-59,502	-0,280	-0,083
159,604	-59,919	-0,281	-0,083
160,619	-5,121	-0,215	-0,103
161,633	267,731	-0,124	-0,151
162,648	449,062	-0,177	-0,273
163,662	42,646	-0,211	-0,134
164,677	-137,021	-0,136	0,011
165,692	-20,570	-0,319	-0,136
166,706	94,780	-0,178	-0,141
167,721	-97,129	-0,249	-0,045
168,735	-20,779	-0,277	-0,118
169,750	203,802	-0,134	-0,145
170,764	-71,962	-0,132	-0,034
171,779	0,926	-0,204	-0,101
172,794	35,365	-0,264	-0,161
173,808	-53,625	-0,312	-0,099
174,823	-1,115	-0,219	-0,108
175,837	59,624	-0,355	-0,244
176,852	247,718	-0,125	-0,148
177,867	37,070	-0,336	-0,207
178,881	80,775	-0,210	-0,157
179,896	98,234	-0,161	-0,129
180,910	9,735	-0,236	-0,124
181,925	189,738	-0,168	-0,175
182,940	20,367	-0,275	-0,155
183,954	-139,752	-0,275	-0,020
184,969	800,000	-0,129	-0,307
185,983	-116,383	-0,283	0,036
186,998	161,090	-0,235	-0,229
188,013	-28,029	-0,172	-0,069
189,027	-112,106	-0,272	-0,038
190,042	109,889	-0,305	-0,255
191,056	12,178	-0,277	-0,148
192,071	-41,335	-0,230	-0,082
193,086	157,353	-0,186	-0,179
194,100	103,210	-0,084	-0,068
195,115	-149,154	-0,262	-0,014
196,129	3,121	-0,339	-0,171
197,144	145,739	-0,272	-0,254
198,159	59,375	-0,270	-0,185
199,173	165,700	-0,196	-0,193
200,188	800,000	-0,089	-0,208
201,202	121,600	-0,152	-0,132
202,217	-46,856	-0,186	-0,063
203,232	800,000	-0,109	-0,264
204,246	-20,620	-0,219	-0,093
205,261	418,039	-0,142	-0,212
206,275	800,000	-0,098	-0,250
207,290	-59,140	-0,162	-0,048
208,304	-148,830	-0,227	0,013
209,319	128,818	-0,137	-0,121
210,334	82,709	-0,364	-0,274
211,348	58,281	-0,283	-0,192
212,363	-136,552	-0,200	-0,016
213,377	51,592	-0,127	-0,084
214,392	52,733	-0,140	-0,093
215,407	234,710	-0,141	-0,162
216,421	39,306	-0,233	-0,145
217,436	-144,006	-0,143	0,009
218,450	-111,055	-0,280	-0,039
219,465	240,595	-0,201	-0,234
220,480	239,846	-0,171	-0,198
221,494	152,902	-0,123	-0,116
222,509	37,879	-0,200	-0,123
223,523	-40,193	-0,113	-0,041
224,538	-131,423	-0,253	-0,023
225,553	258,370	-0,164	-0,196
226,567	-8,918	-0,288	-0,134
227,582	26,097	-0,189	-0,109
228,596	251,315	-0,169	-0,200
229,611	-200,000	-0,034	-0,317
230,626	108,382	-0,225	-0,186
231,640	26,122	-0,264	-0,153
232,655	28,494	-0,230	-0,135
233,669	516,251	-0,106	-0,173
234,684	81,929	-0,198	-0,148
235,699	27,085	-0,238	-0,138
236,713	144,610	-0,207	-0,191
237,728	5,502	-0,245	-0,125
238,742	-12,368	-0,273	-0,123
239,757	240,330	-0,133	-0,153
240,772	42,345	-0,228	-0,143
241,786	245,130	-0,117	-0,136
242,801	80,690	-0,146	-0,109
243,815	150,688	-0,126	-0,119
244,830	88,338	-0,213	-0,164
245,844	-31,955	-0,204	-0,079
246,859	247,909	-0,243	-0,285
247,874	-21,848	-0,308	-0,129
248,888	341,761	-0,143	-0,194
249,903	31,269	-0,120	-0,071
250,917	3,308	-0,201	-0,101
251,932	95,084	-0,178	-0,140
252,947	73,128	-0,167	-0,121
253,961	46,205	-0,328	-0,210
254,976	114,650	-0,220	-0,186
255,990	445,822	-0,157	-0,240
257,005	130,930	-0,174	-0,154
258,020	-122,852	-0,188	-0,021
259,034	300,597	-0,154	-0,197
260,049	303,837	-0,137	-0,176
261,063	-43,377	-0,193	-0,067
262,078	-104,841	-0,260	-0,041
263,093	-29,027	-0,272	-0,108
264,107	206,392	-0,238	-0,257
265,122	43,881	-0,141	0,089
266,136	407,588	-0,170	-0,249
267,151	-134,304	-0,270	0,023
268,166	-171,937	-0,180	0,004
269,180	341,936	-0,166	-0,225
270,195	141,373	-0,128	-0,117
271,209	100,986	-0,112	-0,090
272,224	-4,453	-0,115	0,055
273,239	-87,337	-0,141	-0,029
274,253	166,002	-0,082	-0,080
275,268	-111,011	-0,155	-0,022
276,282	83,574	-0,221	-0,166
277,297	99,142	-0,151	-0,121
278,312	-9,150	-0,188	-0,087
279,326	-6,140	-0,083	-0,039
280,341	12,846	-0,247	-0,131
281,355	15,200	-0,191	-0,103
282,370	-78,583	-0,218	-0,051
283,384	-112,453	-0,167	-0,023
284,399	107,535	-0,148	-0,122
285,414	-27,427	-0,255	-0,102
286,428	-82,796	-0,156	-0,035
287,443	800,000	-0,094	-0,257
288,457	-194,714	-0,119	0,001
289,472	23,184	-0,172	-0,097
290,487	-6,133	-0,216	-0,101
291,501	220,881	-0,180	-0,200
292,516	221,749	-0,165	-0,183
293,530	42,011	-0,222	-0,139
294,545	-70,698	-0,025	-0,006
295,560	84,074	-0,104	-0,078
296,574	-12,277	-0,110	-0,050
297,589	310,365	-0,183	-0,237
298,603	542,812	-0,122	-0,201
299,618	558,415	-0,176	-0,294
300,633	-60,809	-0,202	-0,059
301,647	133,554	-0,142	-0,127
302,662	85,454	-0,123	-0,093
303,676	150,538	-0,165	-0,155
304,691	800,000	-0,037	-0,090
305,706	69,563	-0,210	-0,149
306,720	-141,185	-0,191	-0,013
307,735	41,962	-0,075	-0,047
308,749	75,083	-0,095	-0,069
309,764	-9,495	-0,189	-0,086
310,779	-65,528	-0,144	0,040
311,793	-7,905	-0,305	-0,141
312,808	361,210	-0,092	-0,127
313,822	223,036	-0,090	-0,100
314,837	-200,000	-0,035	-0,110
315,852	-29,588	-0,183	-0,072
316,866	53,546	-0,123	-0,081
317,881	413,277	-0,069	-0,102
318,895	427,246	-0,070	-0,105
319,910	-26,362	-0,309	-0,124
320,925	371,554	-0,112	-0,157
321,939	61,986	-0,206	-0,141
322,954	35,195	-0,223	-0,134
323,968	-37,165	-0,128	-0,047
324,983	297,197	-0,089	-0,113
325,997	800,000	-0,066	-0,138
327,012	127,198	-0,182	-0,159
328,027	104,962	-0,153	-0,124
329,041	-52,894	-0,193	-0,061
330,056	-200,000	-0,058	-0,206
331,070	800,000	-0,067	-0,157
332,085	81,166	-0,185	-0,137
333,100	-21,313	-0,216	-0,090
334,114	-35,641	-0,178	-0,066
335,129	60,979	-0,273	-0,186
336,143	-5,491	-0,125	-0,059
337,158	-132,373	-0,155	-0,014
338,173	800,000	-0,037	-0,095
339,187	534,968	-0,086	-0,140
340,202	613,182	-0,123	-0,212
341,216	800,000	-0,042	-0,088
342,231	800,000	-0,033	-0,096
343,246	-119,641	-0,198	-0,023
344,260	5,942	-0,089	-0,045
345,275	272,437	-0,156	-0,189
346,289	-46,270	-0,178	-0,060
347,304	118,308	-0,108	-0,091
348,319	-36,820	-0,145	-0,053
349,333	800,000	-0,084	-0,183
350,348	-22,752	-0,241	-0,100
351,362	-101,681	-0,075	-0,012
352,377	302,414	-0,062	-0,079
353,392	347,039	-0,046	0,063
354,406	-183,819	-0,069	0,001
355,421	208,599	1316,280	1414,409
356,435	160,512	1477,186	1414,888
