DTS Sentinel unit serial number:	SN410029Multiplexer serial number:	ORYXHardware model number:	OX2-SRSoftware version number:	ORYX F/W v4,00 Oryx Data Collector v3.7.2.0data status	okinstallation	B3 Nyhavnadifferential loss correction	single-endedforward channel	channel 1reverse channel	N/Adate	2023/12/01time	11:12:30forward acquisition time	300,00reverse acquisition time	0,00gamma	499,1914k internal	0,3213k external	0,3213temperature offset calibration	1,0000default loss term (dB/km)	0,3820temperature slope calibration	1,0000multiplexer offset coefficient	1,0000multiplexer slope coefficient	1,0000fibre end	0,00T internal ref (°C)	8,31T ext. ref 1 (°C)	-5,84T ext. ref 2 (°C)	-5,94length (m)	temperature (°C)	Stokes	anti-Stokes-744,400	800,000	-0,070	-0,161
-743,385	-200,000	0,038	0,229
-742,371	-200,000	0,015	-0,121
-741,356	800,000	-0,099	0,254
-740,342	680,640	-0,125	-0,237
-739,327	800,000	-0,088	0,197
-738,312	393,226	-0,162	-0,245
-737,298	-200,000	0,024	0,237
-736,283	800,000	-0,141	-0,306
-735,269	-200,000	-0,036	0,271
-734,254	105,796	-0,140	-0,120
-733,239	8,801	-0,219	0,119
-732,225	800,000	-0,079	-0,171
-731,210	-19,971	0,146	0,065
-730,196	-200,000	-0,006	0,054
-729,181	519,349	-0,127	-0,215
-728,167	800,000	0,018	-0,057
-727,152	762,969	-0,034	-0,068
-726,137	244,169	-0,019	0,024
-725,123	-200,000	-0,006	-0,111
-724,108	241,594	-0,055	-0,067
-723,094	800,000	-0,055	-0,139
-722,079	25,883	0,100	-0,060
-721,064	-200,000	-0,035	-0,111
-720,050	-200,000	-0,043	0,160
-719,035	-200,000	-0,012	-0,095
-718,021	-200,000	0,002	-0,168
-717,006	718,772	0,022	-0,042
-715,991	60,569	-0,200	-0,143
-714,977	635,310	-0,068	-0,126
-713,962	-200,000	0,024	-0,080
-712,948	68,701	-0,073	0,055
-711,933	215,742	0,058	-0,067
-710,918	-200,000	-0,069	-0,224
-709,904	800,000	0,027	0,063
-708,889	-178,270	-0,136	0,002
-707,875	-200,000	-0,055	-0,176
-706,860	-23,218	0,066	0,029
-705,845	-27,753	0,144	0,060
-704,831	-50,722	0,125	0,042
-703,816	-200,000	-0,004	-0,090
-702,802	117,754	0,102	0,091
-701,787	202,778	0,057	-0,064
-700,772	-16,240	0,051	-0,023
-699,758	-130,011	0,101	0,010
-698,743	-101,340	0,081	-0,014
-697,729	-200,000	-0,020	-0,066
-696,714	44,437	-0,106	0,070
-695,699	-8,652	0,073	-0,035
-694,685	73,132	0,068	-0,052
-693,670	-132,155	-0,084	-0,008
-692,656	222,353	0,066	0,077
-691,641	-62,981	-0,106	-0,032
-690,627	-200,000	-0,004	0,021
-689,612	397,124	0,044	0,066
-688,597	-141,688	-0,074	0,005
-687,583	-114,647	-0,031	0,004
-686,568	780,324	0,064	-0,128
-685,554	-87,559	-0,077	-0,017
-684,539	90,258	-0,092	-0,074
-683,524	-200,000	0,022	-0,161
-682,510	14,613	-0,076	0,043
-681,495	-118,646	-0,164	0,021
-680,481	-15,505	-0,127	0,058
-679,466	-45,943	-0,026	-0,009
-678,451	748,258	-0,066	-0,129
-677,437	4,198	0,047	0,025
-676,422	-200,000	-0,029	-0,101
-675,408	-70,956	-0,092	0,025
-674,393	-185,039	-0,070	-0,001
-673,378	20,259	0,066	-0,039
-672,364	268,055	-0,084	-0,106
-671,349	-200,000	-0,005	0,102
-670,335	-200,000	0,018	0,096
-669,320	-200,000	-0,039	0,210
-668,305	-200,000	0,006	0,076
-667,291	212,415	0,048	0,054
-666,276	-200,000	-0,008	0,031
-665,262	-200,000	0,027	-0,092
-664,247	800,000	-0,019	-0,051
-663,232	325,359	0,038	-0,053
-662,218	22,000	-0,070	-0,041
-661,203	-134,099	-0,117	-0,010
-660,189	-87,310	0,043	-0,009
-659,174	-37,547	-0,091	-0,035
-658,159	211,266	-0,091	-0,104
-657,145	-200,000	-0,029	-0,135
-656,130	104,403	-0,085	-0,072
-655,116	-84,772	0,078	0,018
-654,101	565,632	0,040	0,070
-653,086	3,170	0,027	-0,014
-652,072	515,996	-0,019	-0,033
-651,057	87,802	-0,058	-0,046
-650,043	-117,900	0,072	-0,009
-649,028	19,232	0,087	0,050
-648,014	165,840	0,043	-0,044
-646,999	-200,000	-0,012	-0,181
-645,984	406,613	-0,030	0,045
-644,970	110,738	0,078	0,068
-643,955	21,161	-0,046	-0,027
-642,941	-122,418	-0,056	0,006
-641,926	3,690	0,088	-0,046
-640,911	-200,000	0,004	0,026
-639,897	256,127	-0,030	0,037
-638,882	-170,888	-0,021	0,001
-637,868	-200,000	0,000	0,019
-636,853	-200,000	-0,025	-0,114
-635,838	-89,771	-0,159	-0,033
-634,824	57,833	0,036	-0,026
-633,809	-200,000	0,011	0,076
-632,795	42,131	-0,080	0,053
-631,780	-5,505	0,177	-0,087
-630,765	-200,000	-0,043	-0,192
-629,751	55,973	0,085	-0,059
-628,736	78,104	-0,054	0,042
-627,722	-200,000	-0,027	-0,086
-626,707	112,510	-0,093	-0,082
-625,692	201,780	0,095	-0,106
-624,678	-200,000	-0,003	-0,011
-623,663	-27,924	-0,089	-0,037
-622,649	54,770	-0,091	-0,063
-621,634	800,000	-0,023	-0,062
-620,619	-73,858	-0,155	-0,040
-619,605	800,000	0,049	0,125
-618,590	-105,547	0,103	0,017
-617,576	800,000	-0,048	-0,102
-616,561	800,000	-0,042	-0,111
-615,546	-75,740	-0,090	-0,023
-614,532	-200,000	-0,016	-0,090
-613,517	38,535	-0,153	0,098
-612,503	672,370	-0,004	0,007
-611,488	-58,887	0,124	0,039
-610,474	800,000	0,046	0,106
-609,459	-200,000	0,003	0,050
-608,444	800,000	0,030	0,064
-607,430	-160,518	0,100	-0,004
-606,415	-200,000	0,004	0,015
-605,401	-200,000	-0,010	0,148
-604,386	72,386	0,033	-0,024
-603,371	16,070	0,035	-0,020
-602,357	613,141	0,014	-0,025
-601,342	-56,202	-0,112	0,036
-600,328	46,753	-0,071	-0,048
-599,313	-185,319	0,039	0,000
-598,298	800,000	-0,068	-0,202
-597,284	-46,392	0,107	-0,037
-596,269	-200,000	-0,023	0,090
-595,255	265,223	0,041	-0,051
-594,240	-200,000	0,018	-0,067
-593,225	98,428	0,037	-0,031
-592,211	83,933	0,052	-0,041
-591,196	-200,000	0,015	-0,053
-590,182	256,155	0,062	-0,076
-589,167	44,624	0,102	-0,068
-588,152	-139,732	-0,097	0,007
-587,138	-200,000	0,006	0,025
-586,123	-29,783	-0,149	-0,061
-585,109	-120,820	0,041	0,005
-584,094	187,542	0,025	-0,027
-583,079	-14,544	0,055	0,025
-582,065	-200,000	-0,020	0,064
-581,050	137,911	0,045	0,043
-580,036	24,075	-0,053	-0,031
-579,021	-143,895	-0,118	0,008
-578,006	163,281	0,062	0,062
-576,992	565,971	0,068	-0,120
-575,977	89,197	-0,199	-0,159
-574,963	-200,000	0,125	-0,000
-573,948	-200,000	-0,039	0,134
-572,934	800,000	-0,049	0,104
-571,919	-75,676	-0,078	0,020
-570,904	-200,000	-0,015	-0,104
-569,890	287,890	-0,034	-0,045
-568,875	167,178	0,079	0,081
-567,861	-18,648	-0,120	0,054
-566,846	-136,271	-0,090	-0,007
-565,831	800,000	0,033	0,086
-564,817	292,299	-0,020	-0,027
-563,802	800,000	-0,032	-0,085
-562,788	17,078	-0,131	-0,074
-561,773	579,617	-0,029	-0,051
-560,758	288,523	-0,036	0,048
-559,744	57,712	0,086	0,060
-558,729	49,215	-0,036	0,024
-557,715	800,000	-0,047	-0,096
-556,700	-57,074	-0,105	-0,033
-555,685	217,664	-0,097	0,111
-554,671	-200,000	0,017	-0,072
-553,656	800,000	-0,054	0,130
-552,642	800,000	0,042	-0,086
-551,627	180,924	0,060	0,064
-550,612	386,845	0,093	-0,138
-549,598	-200,000	0,008	0,085
-548,583	-67,969	0,054	0,015
-547,569	59,277	0,096	0,068
-546,554	27,482	-0,124	-0,075
-545,539	-200,000	0,024	-0,085
-544,525	-200,000	0,046	0,172
-543,510	-200,000	-0,004	-0,057
-542,496	94,195	-0,011	-0,009
-541,481	800,000	-0,025	-0,050
-540,466	800,000	0,049	-0,118
-539,452	800,000	0,078	0,162
-538,437	299,064	-0,065	0,087
-537,423	-31,385	-0,025	0,010
-536,408	83,978	-0,050	-0,039
-535,393	-200,000	0,003	-0,145
-534,379	800,000	0,034	-0,092
-533,364	-36,626	0,099	0,038
-532,350	-43,987	-0,103	-0,037
-531,335	102,792	0,040	0,034
-530,321	81,381	-0,057	0,044
-529,306	91,771	0,082	0,067
-528,291	800,000	-0,017	-0,037
-527,277	-6,052	-0,203	0,099
-526,262	91,859	0,044	-0,036
-525,248	363,869	-0,075	0,109
-524,233	-200,000	0,009	-0,179
-523,218	-68,544	0,071	-0,020
-522,204	280,788	-0,085	0,110
-521,189	58,554	0,062	-0,044
-520,175	-200,000	-0,009	0,135
-519,160	203,565	-0,101	-0,113
-518,145	71,470	0,135	-0,100
-517,131	-72,678	0,087	0,023
-516,116	81,729	0,146	0,114
-515,102	312,757	-0,045	0,060
-514,087	108,035	0,068	0,059
-513,072	100,002	-0,072	-0,060
-512,058	47,197	0,035	-0,024
-511,043	-74,767	0,083	0,021
-510,029	-200,000	-0,010	0,079
-509,014	-28,435	0,132	0,055
-507,999	-5,056	-0,166	-0,082
-506,985	20,236	0,038	-0,022
-505,970	511,221	-0,032	-0,054
-504,956	-200,000	0,004	-0,035
-503,941	800,000	-0,062	0,168
-502,926	75,970	0,100	0,076
-501,912	800,000	0,021	-0,042
-500,897	-200,000	-0,003	0,035
-499,883	75,532	-0,068	-0,052
-498,868	452,932	-0,021	0,033
-497,853	-87,648	0,105	-0,023
-496,839	-78,334	0,122	-0,030
-495,824	359,429	0,099	0,143
-494,810	215,265	-0,043	0,050
-493,795	-30,699	-0,023	-0,009
-492,781	-200,000	-0,009	-0,068
-491,766	800,000	-0,091	-0,187
-490,751	-200,000	0,016	-0,061
-489,737	800,000	-0,056	0,113
-488,722	82,023	-0,037	0,029
-487,708	800,000	0,048	0,111
-486,693	-96,257	0,070	0,013
-485,678	73,109	-0,093	-0,069
-484,664	-200,000	0,016	-0,075
-483,649	60,677	-0,059	-0,042
-482,635	715,122	0,014	0,026
-481,620	451,360	-0,078	-0,124
-480,605	236,181	0,063	0,075
-479,591	-200,000	0,008	0,088
-478,576	-200,000	-0,002	0,076
-477,562	517,336	0,024	-0,041
-476,547	-106,265	-0,227	0,036
-475,532	-22,396	0,080	-0,035
-474,518	520,651	0,046	-0,078
-473,503	34,430	-0,146	0,091
-472,489	-200,000	-0,006	0,146
-471,474	-200,000	-0,031	0,101
-470,459	-200,000	0,042	-0,141
-469,445	190,834	-0,074	0,080
-468,430	10,628	-0,072	-0,039
-467,416	45,012	0,052	0,035
-466,401	-180,613	0,141	0,002
-465,386	-200,000	0,011	0,100
-464,372	-4,119	0,073	-0,036
-463,357	-200,000	-0,007	-0,055
-462,343	-112,644	-0,102	-0,014
-461,328	-52,518	-0,145	-0,048
-460,313	212,131	0,061	0,069
-459,299	-193,599	0,038	-0,000
-458,284	240,064	0,081	-0,097
-457,270	-160,095	0,060	-0,002
-456,255	339,354	-0,065	-0,091
-455,241	64,358	-0,120	-0,087
-454,226	800,000	-0,031	-0,089
-453,211	800,000	0,038	-0,098
-452,197	-57,644	0,081	0,025
-451,182	193,539	0,068	0,074
-450,168	-132,580	0,097	-0,009
-449,153	-75,913	-0,112	0,028
-448,138	81,597	-0,079	-0,061
-447,124	800,000	-0,035	-0,081
-446,109	56,489	-0,058	0,040
-445,095	-200,000	0,027	-0,102
-444,080	509,153	0,075	0,125
-443,065	800,000	-0,008	-0,020
-442,051	52,566	-0,068	0,046
-441,036	330,444	-0,101	-0,140
-440,022	-2,671	0,005	-0,002
-439,007	-200,000	0,022	0,076
-437,992	23,842	-0,111	0,065
-436,978	-133,761	0,070	0,006
-435,963	149,490	-0,060	0,058
-434,949	260,891	0,028	0,035
-433,934	192,437	-0,088	-0,096
-432,919	-77,495	-0,189	-0,047
-431,905	-200,000	-0,037	0,195
-430,890	-200,000	0,002	0,055
-429,876	-87,562	0,085	0,018
-428,861	-200,000	0,005	0,030
-427,846	-151,028	-0,116	0,006
-426,832	481,389	0,045	-0,074
-425,817	787,727	0,063	0,124
-424,803	-59,021	-0,130	0,040
-423,788	800,000	-0,046	-0,093
-422,773	-77,093	-0,046	0,011
-421,759	627,266	0,043	0,077
-420,744	-200,000	-0,010	-0,031
-419,730	-11,551	0,028	0,013
-418,715	390,813	-0,028	-0,042
-417,701	-200,000	0,007	-0,053
-416,686	-53,853	0,059	-0,019
-415,671	66,011	0,080	0,058
-414,657	800,000	0,075	-0,172
-413,642	-81,529	-0,121	0,028
-412,628	-145,717	-0,112	-0,007
-411,613	-29,965	-0,092	0,037
-410,598	-200,000	0,001	-0,049
-409,584	62,519	0,081	0,058
-408,569	341,833	-0,063	0,089
-407,555	800,000	-0,023	0,059
-406,540	153,204	-0,127	0,124
-405,525	-98,954	0,049	-0,009
-404,511	166,134	0,096	-0,097
-403,496	669,199	0,040	-0,074
-402,482	93,082	-0,085	-0,069
-401,467	-41,846	0,142	0,052
-400,452	79,513	0,136	0,104
-399,438	185,192	0,040	0,043
-398,423	-74,186	-0,064	-0,016
-397,409	800,000	-0,037	-0,101
-396,394	119,146	-0,027	-0,023
-395,379	-45,452	0,012	-0,004
-394,365	86,345	-0,046	-0,037
-393,350	-5,830	-0,126	-0,061
-392,336	-200,000	-0,022	-0,088
-391,321	383,874	-0,051	0,075
-390,306	-123,122	-0,088	-0,010
-389,292	-200,000	0,034	-0,182
-388,277	-200,000	-0,010	0,109
-387,263	259,799	0,031	-0,039
-386,248	586,594	0,045	0,079
-385,233	114,904	0,053	0,046
-384,219	-91,167	-0,077	0,016
-383,204	-56,550	0,031	-0,010
-382,190	800,000	0,017	-0,048
-381,175	21,564	-0,119	-0,069
-380,160	99,036	-0,138	0,114
-379,146	-200,000	0,019	0,088
-378,131	-200,000	-0,005	-0,062
-377,117	253,656	-0,053	0,065
-376,102	6,304	0,102	-0,054
-375,088	-21,264	-0,121	0,053
-374,073	-23,795	0,162	-0,069
-373,058	-178,244	0,021	-0,000
-372,044	-200,000	-0,013	0,151
-371,029	237,187	0,084	-0,100
-370,015	258,447	-0,021	0,026
-369,000	-116,046	0,045	0,006
-367,985	-88,404	0,026	0,006
-366,971	-129,213	-0,093	0,009
-365,956	70,242	0,066	0,048
-364,942	-43,045	-0,048	0,017
-363,927	-200,000	-0,022	0,083
-362,912	-200,000	-0,010	-0,047
-361,898	-67,807	0,050	0,014
-360,883	497,404	0,068	-0,112
-359,869	74,106	-0,162	-0,121
-358,854	-94,315	0,097	-0,019
-357,839	800,000	0,070	0,157
-356,825	673,124	0,029	0,055
-355,810	-63,720	0,071	0,021
-354,796	34,833	0,198	0,123
-353,781	-132,615	0,061	0,005
-352,766	1,043	0,080	-0,041
-351,752	90,122	0,151	-0,121
-350,737	-200,000	0,007	-0,113
-349,723	727,401	-0,028	0,053
-348,708	-200,000	0,016	-0,086
-347,693	-200,000	-0,008	-0,072
-346,679	-200,000	-0,001	0,027
-345,664	114,465	-0,062	0,053
-344,650	81,738	0,107	0,083
-343,635	652,552	0,040	0,073
-342,620	-2,059	0,099	0,049
-341,606	276,191	0,074	-0,094
-340,591	-142,198	0,042	-0,003
-339,577	254,229	-0,110	0,135
-338,562	-200,000	0,049	-0,164
-337,548	102,811	-0,048	0,040
-336,533	-133,766	0,032	-0,003
-335,518	139,265	-0,029	-0,027
-334,504	207,284	0,087	0,096
-333,489	-77,391	0,051	-0,012
-332,475	464,926	-0,072	-0,114
-331,460	-25,652	0,127	-0,053
-330,445	385,582	-0,084	-0,125
-329,431	164,458	-0,028	-0,028
-328,416	549,380	0,076	0,130
-327,402	22,512	0,070	0,041
-326,387	242,182	-0,073	-0,087
-325,372	-200,000	-0,006	-0,085
-324,358	-140,786	-0,047	-0,003
-323,343	-122,652	-0,178	-0,020
-322,329	800,000	0,055	0,133
-321,314	72,826	0,080	0,059
-320,299	-81,616	0,118	-0,027
-319,285	-200,000	-0,002	0,117
-318,270	-200,000	-0,012	-0,073
-317,256	-200,000	0,036	-0,143
-316,241	132,747	-0,086	-0,079
-315,226	189,846	-0,068	0,073
-314,212	234,157	-0,028	0,033
-313,197	-78,171	0,160	-0,039
-312,183	-200,000	-0,002	-0,008
-311,168	-200,000	-0,016	0,087
-310,153	292,428	0,061	-0,079
-309,139	-200,000	0,025	0,089
-308,124	-75,924	0,049	-0,012
-307,110	259,197	0,044	0,054
-306,095	-85,510	-0,123	0,027
-305,080	445,983	0,059	0,092
-304,066	-84,533	-0,007	-0,002
-303,051	243,199	0,059	-0,071
-302,037	522,359	-0,039	0,066
-301,022	243,018	0,086	0,103
-300,008	-110,049	0,060	-0,009
-298,993	-200,000	0,023	0,121
-297,978	-200,000	0,002	0,061
-296,964	-200,000	0,006	-0,048
-295,949	-200,000	-0,000	-0,040
-294,935	800,000	-0,030	-0,082
-293,920	6,106	0,070	0,037
-292,905	28,144	-0,103	0,062
-291,891	-87,284	0,213	0,046
-290,876	129,761	-0,048	-0,043
-289,862	134,861	0,048	-0,044
-288,847	-29,833	-0,197	-0,079
-287,832	38,305	-0,077	-0,049
-286,818	-156,289	0,067	-0,003
-285,803	800,000	0,019	-0,040
-284,789	-91,983	0,072	-0,014
-283,774	-26,310	-0,075	0,031
-282,759	-98,457	-0,040	-0,007
-281,745	142,035	-0,091	-0,086
-280,730	134,539	-0,075	-0,070
-279,716	-37,876	-0,085	-0,032
-278,701	362,245	-0,048	0,068
-277,686	-58,216	0,139	0,043
-276,672	-22,295	0,117	0,050
-275,657	-200,000	-0,006	-0,047
-274,643	-19,088	-0,090	0,040
-273,628	-33,461	-0,106	-0,041
-272,613	41,633	0,144	-0,093
-271,599	-3,607	-0,044	-0,022
-270,584	29,580	0,236	0,142
-269,570	268,676	0,083	0,103
-268,555	-200,000	-0,000	-0,074
-267,540	-91,080	-0,035	-0,007
-266,526	-200,000	-0,015	-0,158
-265,511	129,140	-0,047	-0,043
-264,497	-90,196	0,111	0,023
-263,482	22,221	0,131	-0,076
-262,467	800,000	-0,036	-0,090
-261,453	-169,760	0,149	0,004
-260,438	-200,000	0,012	-0,135
-259,424	6,667	0,020	-0,010
-258,409	29,641	0,105	-0,063
-257,395	-132,861	0,149	-0,013
-256,380	-117,170	0,139	-0,018
-255,365	180,562	0,021	-0,022
-254,351	-6,431	-0,025	0,012
-253,336	67,675	-0,169	-0,123
-252,322	800,000	-0,011	0,032
-251,307	-89,357	-0,160	-0,033
-250,292	800,000	-0,047	-0,104
-249,278	800,000	0,059	0,119
-248,263	136,193	0,070	0,065
-247,249	187,178	-0,012	-0,013
-246,234	180,240	0,036	0,038
-245,219	67,258	-0,111	-0,080
-244,205	74,644	0,014	-0,010
-243,190	-200,000	-0,017	0,056
-242,176	-200,000	-0,010	0,112
-241,161	-200,000	0,015	0,068
-240,146	-68,738	-0,106	0,029
-239,132	-58,801	-0,028	-0,009
-238,117	800,000	-0,032	-0,084
-237,103	57,457	-0,133	-0,092
-236,088	46,876	0,067	0,044
-235,073	-58,789	-0,034	0,010
-234,059	-200,000	0,012	0,119
-233,044	-180,787	0,059	0,001
-232,030	361,530	-0,024	0,034
-231,015	478,627	-0,067	0,108
-230,000	325,804	-0,044	0,059
-228,986	-200,000	-0,016	-0,132
-227,971	254,410	-0,004	-0,005
-226,957	389,747	0,066	0,098
-225,942	109,610	-0,083	0,071
-224,927	-200,000	0,031	-0,106
-223,913	-200,000	-0,018	-0,063
-222,898	-169,942	-0,090	0,002
-221,884	-168,199	0,032	0,001
-220,869	158,159	0,042	0,041
-219,855	200,931	0,016	0,017
-218,840	800,000	0,025	0,076
-217,825	-153,892	0,138	-0,007
-216,811	800,000	0,015	0,043
-215,796	800,000	-0,077	-0,209
-214,782	-200,000	0,009	0,110
-213,767	392,643	0,046	-0,069
-212,752	145,787	0,082	0,078
-211,738	255,399	0,035	0,043
-210,723	-7,681	0,034	0,016
-209,709	184,640	-0,107	-0,113
-208,694	12,898	-0,090	-0,049
-207,679	800,000	-0,021	0,044
-206,665	-200,000	-0,010	0,132
-205,650	-200,000	0,087	-0,000
-204,636	800,000	0,005	0,011
-203,621	118,850	0,127	0,112
-202,606	-200,000	-0,005	0,020
-201,592	-2,560	0,055	-0,027
-200,577	800,000	0,028	-0,062
-199,563	-200,000	-0,014	0,047
-198,548	-200,000	0,002	0,085
-197,533	800,000	-0,046	0,101
-196,519	160,103	-0,082	-0,081
-195,504	-183,831	-0,045	0,001
-194,490	-200,000	-0,004	-0,017
-193,475	-200,000	-0,026	-0,115
-192,460	-200,000	-0,010	-0,047
-191,446	800,000	0,030	0,077
-190,431	327,831	-0,037	0,050
-189,417	-200,000	0,007	0,039
-188,402	457,390	0,063	0,099
-187,387	56,907	-0,091	-0,063
-186,373	566,877	-0,002	0,004
-185,358	-64,028	-0,070	-0,020
-184,344	286,659	-0,029	-0,037
-183,329	619,561	0,061	-0,109
-182,315	261,621	0,033	0,040
-181,300	33,621	-0,049	0,030
-180,285	80,792	0,103	-0,079
-179,271	196,235	-0,095	-0,102
-178,256	91,078	0,050	0,040
-177,242	20,013	0,057	0,033
-176,227	437,047	-0,094	0,145
-175,212	555,254	0,056	0,095
-174,198	235,672	-0,063	0,074
-173,183	-200,000	-0,012	0,091
-172,169	586,960	0,037	-0,065
-171,154	212,074	-0,038	-0,042
-170,139	-200,000	-0,004	-0,040
-169,125	800,000	0,061	0,138
-168,110	-200,000	0,024	0,099
-167,096	-200,000	0,025	-0,142
-166,081	-200,000	-0,005	-0,020
-165,066	298,554	0,016	0,021
-164,052	-66,230	0,044	0,012
-163,037	-200,000	-0,000	0,076
-162,023	526,262	-0,032	0,054
-161,008	-200,000	-0,039	0,153
-159,993	148,817	0,065	-0,062
-158,979	249,433	-0,059	0,071
-157,964	800,000	-0,035	-0,109
-156,950	19,029	-0,064	0,036
-155,935	-200,000	0,023	0,163
-154,920	-200,000	0,002	0,104
-153,906	-200,000	-0,004	0,064
-152,891	-13,300	0,088	0,040
-151,877	-200,000	-0,033	-0,104
-150,862	-53,391	0,131	0,042
-149,847	60,896	0,046	-0,033
-148,833	-4,577	-0,138	0,067
-147,818	-157,090	0,095	-0,004
-146,804	444,212	0,088	-0,137
-145,789	66,552	-0,083	-0,060
-144,775	-200,000	-0,023	-0,095
-143,760	-200,000	0,003	-0,076
-142,745	-155,285	-0,151	-0,007
-141,731	418,847	-0,084	0,128
-140,716	-95,728	0,096	0,018
-139,702	117,875	0,153	0,133
-138,687	596,128	-0,062	-0,110
-137,672	-43,849	-0,142	-0,050
-136,658	-168,128	-0,069	-0,002
-135,643	-200,000	0,010	-0,057
-134,629	-200,000	-0,009	-0,091
-133,614	38,130	0,111	0,070
-132,599	262,937	-0,078	0,096
-131,585	354,499	-0,045	0,064
-130,570	582,363	0,040	-0,070
-129,556	-73,073	-0,115	-0,030
-128,541	-16,759	0,026	-0,012
-127,526	8,440	-0,053	-0,028
-126,512	-200,000	0,003	0,098
-125,497	-29,114	0,180	-0,072
-124,483	562,278	-0,078	-0,133
-123,468	114,109	-0,127	0,109
-122,453	598,962	0,054	0,096
-121,439	80,487	-0,085	-0,065
-120,424	-200,000	-0,012	0,149
-119,410	168,673	-0,042	0,042
-118,395	-0,060	0,072	0,036
-117,380	-200,000	-0,012	0,049
-116,366	87,205	-0,100	0,078
-115,351	-200,000	-0,029	0,116
-114,337	210,034	-0,033	-0,036
-113,322	-139,967	-0,199	-0,015
-112,307	-48,221	-0,025	0,008
-111,293	-200,000	0,004	0,102
-110,278	-200,000	0,007	-0,087
-109,264	-200,000	-0,015	-0,102
-108,249	-24,874	-0,136	-0,057
-107,234	52,043	0,140	-0,094
-106,220	800,000	-0,021	0,055
-105,205	800,000	0,050	0,149
-104,191	-200,000	-0,011	-0,045
-103,176	222,077	0,012	0,013
-102,162	800,000	0,104	0,222
-101,147	800,000	-0,065	0,176
-100,132	-200,000	-0,014	-0,100
-99,118	422,558	-0,032	-0,049
-98,103	-149,072	0,170	0,009
-97,089	621,241	0,062	0,111
-96,074	288,746	0,077	-0,099
-95,059	-200,000	-0,029	0,146
-94,045	8,285	-0,075	-0,040
-93,030	-200,000	0,029	-0,168
-92,016	-132,122	0,122	-0,011
-91,001	532,534	-0,057	0,096
-89,986	800,000	0,022	0,066
-88,972	380,066	0,044	-0,064
-87,957	151,570	0,041	-0,040
-86,943	148,077	-0,074	-0,071
-85,928	-200,000	-0,012	0,067
-84,913	800,000	-0,018	-0,037
-83,899	-200,000	0,000	-0,108
-82,884	-39,121	-0,065	0,024
-81,870	331,175	-0,036	0,049
-80,855	-200,000	-0,008	-0,041
-79,840	-200,000	-0,015	0,049
-78,826	-129,538	-0,117	-0,011
-77,811	181,385	0,040	0,041
-76,797	563,322	-0,076	-0,130
-75,782	651,223	0,033	-0,059
-74,767	702,476	-0,030	0,057
-73,753	-200,000	0,008	0,239
-72,738	-184,839	-0,111	-0,001
-71,724	-62,578	-0,063	0,018
-70,709	460,764	-0,066	-0,105
-69,694	127,066	0,111	-0,100
-68,680	419,245	0,042	-0,064
-67,665	-69,177	-0,099	0,027
-66,651	169,439	0,041	0,041
-65,636	-21,697	-0,015	0,006
-64,622	60,939	0,088	-0,062
-63,607	397,148	-0,128	-0,190
-62,592	-200,000	-0,017	-0,080
-61,578	-1,179	-0,102	0,051
-60,563	-200,000	0,002	0,053
-59,549	800,000	-0,055	0,169
-58,534	48,362	-2,225	-1,467
-57,519	493,940	-1,128	-1,832
-56,505	-200,000	-0,410	-4,586
-55,490	773,837	0,908	1,756
-54,476	800,000	5,213	11,222
-53,461	-200,000	22,411	346,336
-52,446	800,000	759,318	2301,850
-51,432	534,100	1649,399	2766,869
-50,417	68,549	1647,697	1190,196
-49,403	15,979	1523,781	843,895
-48,388	10,167	1449,227	774,645
-47,373	19,335	1441,661	814,324
-46,359	13,622	1430,491	780,971
-45,344	8,467	1426,210	754,186
-44,330	8,406	1424,259	752,834
-43,315	8,393	1422,708	751,922
-42,300	8,351	1420,719	750,643
-41,286	8,473	1419,243	750,408
-40,271	8,389	1418,453	749,565
-39,257	8,360	1417,173	748,725
-38,242	8,412	1415,884	748,259
-37,227	8,405	1414,914	747,681
-36,213	8,423	1413,543	747,013
-35,198	8,441	1412,285	746,403
-34,184	8,400	1411,554	745,793
-33,169	8,353	1410,184	744,820
-32,154	8,417	1409,103	744,519
-31,140	8,399	1407,862	743,750
-30,125	8,462	1406,424	743,258
-29,111	8,399	1405,412	742,398
-28,096	8,357	1404,493	741,686
-27,082	8,320	1403,205	740,806
-26,067	8,306	1401,950	740,045
-25,052	8,337	1400,997	739,658
-24,038	8,342	1400,010	739,132
-23,023	8,322	1399,141	738,552
-22,009	8,298	1398,153	737,888
-20,994	8,353	1396,867	737,436
-19,979	8,292	1396,111	736,725
-18,965	8,257	1395,181	736,042
-17,950	8,269	1394,322	735,614
-16,936	8,256	1393,456	735,070
-15,921	8,258	1392,137	734,352
-14,906	8,284	1391,284	733,993
-13,892	8,301	1390,418	733,587
-12,877	8,280	1389,601	733,027
-11,863	8,233	1389,225	732,585
-10,848	8,264	1387,917	732,010
-9,833	8,177	1387,071	731,134
-8,819	8,133	1386,324	730,508
-7,804	8,155	1385,260	730,017
-6,790	8,193	1384,190	729,601
-5,775	8,189	1383,344	729,108
-4,760	8,182	1382,308	728,499
-3,746	8,209	1381,253	728,041
-2,731	8,178	1380,555	727,501
-1,717	8,201	1379,569	727,059
-0,702	8,168	1377,597	725,836
0,313	12,264	1288,534	697,474
1,327	28,221	679,988	403,751
2,342	43,999	116,997	75,429
3,356	0,095	16,616	8,318
4,371	9,173	3,884	2,062
5,386	39,180	1,360	0,855
6,400	-200,000	0,191	0,662
7,415	73,772	-0,178	-0,132
8,429	157,115	-0,297	-0,290
9,444	303,767	-0,207	-0,270
10,459	64,715	-0,318	-0,226
11,473	14,435	-0,316	-0,173
12,488	89,641	-0,254	-0,199
13,502	-115,569	-0,197	-0,026
14,517	-87,261	-0,283	-0,060
15,531	35,357	-0,519	-0,320
16,546	301,098	-0,301	-0,393
17,561	-1,658	-0,381	-0,188
18,575	-166,391	-0,176	-0,005
19,590	15,375	-0,299	-0,165
20,604	713,469	-0,112	-0,209
21,619	20,005	-0,572	-0,324
22,634	1,261	-0,443	-0,223
23,648	277,252	-0,380	-0,477
24,663	166,235	-0,341	-0,340
25,677	51,529	-0,356	-0,237
26,692	148,444	-0,238	-0,226
27,707	13,834	-0,336	-0,183
28,721	-120,926	-0,292	-0,034
29,736	9,699	-0,348	-0,185
30,750	245,109	-0,318	-0,377
31,765	339,461	-0,278	-0,381
32,780	42,036	-0,378	-0,241
33,794	-106,280	-0,260	-0,041
34,809	33,822	-0,442	-0,270
35,823	-56,752	-0,365	-0,113
36,838	176,606	-0,320	-0,327
37,853	162,202	-0,432	-0,426
38,867	106,746	-0,375	-0,313
39,882	141,075	-0,200	-0,186
40,896	68,492	-0,390	-0,280
41,911	311,513	-0,234	-0,309
42,926	254,744	-0,267	-0,321
43,940	164,450	-0,326	-0,323
44,955	705,710	-0,235	-0,437
45,969	201,578	-0,325	-0,352
46,984	131,332	-0,251	-0,226
47,999	43,968	-0,315	-0,202
49,013	-7,719	-0,371	-0,175
50,028	96,721	-0,371	-0,298
51,042	24,606	-0,373	-0,216
52,057	75,047	-0,323	-0,239
53,071	12,592	-0,497	-0,268
54,086	428,064	-0,271	-0,412
55,101	17,857	-0,324	-0,180
56,115	-0,310	-0,394	-0,196
57,130	73,786	-0,373	-0,274
58,144	115,984	-0,326	-0,280
59,159	119,253	-0,397	-0,344
60,174	95,704	-0,249	-0,199
61,188	139,663	-0,296	-0,274
62,203	-9,841	-0,210	-0,098
63,217	80,144	-0,313	-0,236
64,232	69,938	-0,375	-0,271
65,247	88,002	-0,312	-0,242
66,261	82,101	-0,295	-0,224
67,276	400,813	-0,188	-0,277
68,290	140,450	-0,298	-0,276
69,305	89,800	-0,374	-0,293
70,320	-94,456	-0,268	-0,051
71,334	30,538	-0,280	-0,168
72,349	57,667	-0,334	-0,229
73,363	125,859	-0,266	-0,236
74,378	40,158	-0,267	-0,168
75,393	59,399	-0,323	-0,223
76,407	82,640	-0,306	-0,232
77,422	74,259	-0,373	-0,274
78,436	19,307	-0,291	-0,163
79,451	165,480	-0,277	-0,274
80,466	93,414	-0,335	-0,265
81,480	-73,601	-0,259	-0,066
82,495	-23,945	-0,301	-0,125
83,509	40,086	-0,385	-0,241
84,524	-60,631	-0,297	-0,088
85,539	-66,857	-0,358	-0,098
86,553	4,998	-0,276	-0,141
87,568	116,008	-0,303	-0,260
88,582	116,369	-0,276	-0,236
89,597	292,104	-0,227	-0,290
90,611	-2,917	-0,235	-0,115
91,626	105,665	-0,151	-0,125
92,641	127,602	-0,216	-0,192
93,655	-4,173	-0,230	-0,111
94,670	133,992	-0,264	-0,239
95,684	148,060	-0,235	-0,222
96,699	18,002	-0,440	-0,244
97,714	52,698	-0,309	-0,206
98,728	108,221	-0,200	-0,167
99,743	-38,658	-0,245	-0,090
100,757	22,236	-0,221	-0,126
101,772	-58,645	-0,210	-0,063
102,787	210,973	-0,219	-0,241
103,801	141,042	-0,290	-0,268
104,816	-58,332	-0,391	-0,118
105,830	30,367	-0,272	-0,162
106,845	51,937	-0,190	-0,126
107,860	81,221	-0,205	-0,154
108,874	-86,117	-0,215	-0,046
109,889	-20,506	-0,284	-0,122
110,903	-15,063	-0,208	-0,093
111,918	119,722	-0,204	-0,176
112,933	6,137	-0,330	-0,170
113,947	20,387	-0,249	-0,140
114,962	-6,269	-0,340	-0,161
115,976	109,930	-0,253	-0,212
116,991	137,923	-0,217	-0,198
118,006	150,406	-0,277	-0,262
119,020	800,000	-0,054	-0,117
120,035	134,210	-0,165	-0,149
121,049	90,013	-0,238	-0,186
122,064	49,233	-0,262	-0,171
123,079	145,576	-0,294	-0,275
124,093	75,340	-0,216	-0,159
125,108	39,696	-0,360	-0,225
126,122	249,743	-0,223	-0,264
127,137	65,007	-0,261	-0,183
128,151	-140,489	-0,274	-0,020
129,166	800,000	-0,077	-0,203
130,181	133,923	-0,204	-0,184
131,195	-48,970	-0,375	-0,124
132,210	449,399	-0,157	-0,241
133,224	24,846	-0,329	-0,190
134,239	16,954	-0,364	-0,200
135,254	800,000	-0,046	-0,109
136,268	85,976	-0,177	-0,136
137,283	222,303	-0,183	-0,205
138,297	118,230	-0,247	-0,212
139,312	216,543	-0,238	-0,263
140,327	44,601	-0,148	-0,095
141,341	8,293	-0,330	-0,172
142,356	-46,140	-0,188	-0,064
143,370	-189,633	-0,140	-0,001
144,385	-2,787	-0,143	-0,070
145,400	12,155	-0,273	-0,146
146,414	191,575	-0,224	-0,235
147,429	52,299	-0,353	-0,234
148,443	147,784	-0,271	-0,254
149,458	408,110	-0,184	-0,272
150,473	420,567	-0,117	-0,175
151,487	287,378	-0,135	-0,170
152,502	-1,197	-0,234	-0,115
153,516	-43,466	-0,296	-0,103
154,531	40,845	-0,262	-0,164
155,546	182,134	-0,223	-0,229
156,560	56,635	-0,221	-0,149
157,575	44,928	-0,308	-0,197
158,589	342,885	-0,136	-0,186
159,604	14,308	-0,247	-0,133
160,619	-68,623	-0,221	-0,059
161,633	-121,666	-0,260	-0,030
162,648	-44,546	-0,217	-0,075
163,662	68,057	-0,252	-0,179
164,677	-92,804	-0,182	0,035
165,692	97,797	-0,238	-0,190
166,706	139,211	-0,246	-0,225
167,721	176,059	-0,174	-0,176
168,735	23,204	-0,332	-0,189
169,750	-19,856	-0,231	-0,099
170,764	73,852	-0,177	-0,129
171,779	4,769	-0,261	-0,133
172,794	115,878	-0,123	-0,105
173,808	27,146	-0,209	-0,122
174,823	-128,880	-0,255	-0,025
175,837	34,393	-0,211	-0,128
176,852	-1,034	-0,285	-0,140
177,867	128,093	-0,142	-0,125
178,881	195,099	-0,154	-0,162
179,896	-134,919	-0,321	-0,027
180,910	-38,055	-0,175	-0,064
181,925	-107,340	-0,206	-0,031
182,940	125,976	-0,179	-0,157
183,954	800,000	-0,068	-0,197
184,969	109,789	-0,222	-0,184
185,983	131,368	-0,190	-0,169
186,998	264,950	-0,198	-0,239
188,013	-26,192	-0,193	-0,078
189,027	46,796	-0,146	-0,094
190,042	315,561	-0,218	-0,286
191,056	307,149	-0,168	-0,217
192,071	54,921	-0,208	-0,139
193,086	-142,279	-0,100	0,007
194,100	72,501	-0,067	-0,048
195,115	108,411	-0,323	-0,267
196,129	567,070	-0,112	-0,189
197,144	39,464	-0,264	-0,163
198,159	-116,102	-0,248	0,032
199,173	-22,403	-0,231	-0,096
200,188	-61,333	-0,345	-0,100
201,202	30,625	-0,134	-0,079
202,217	718,963	-0,138	-0,255
203,232	263,716	-0,177	-0,214
204,246	-3,398	-0,260	-0,125
205,261	315,661	-0,118	-0,154
206,275	-26,431	-0,226	-0,091
207,290	-88,178	-0,089	-0,018
208,304	-17,574	-0,137	-0,059
209,319	590,571	-0,081	-0,138
210,334	27,468	-0,231	-0,134
211,348	351,198	-0,157	-0,216
212,363	83,078	-0,261	-0,196
213,377	313,182	-0,239	-0,311
214,392	165,674	-0,219	-0,215
215,407	-4,594	-0,122	0,058
216,421	38,293	-0,133	-0,082
217,436	765,928	-0,136	-0,258
218,450	449,400	-0,146	-0,224
219,465	619,672	-0,151	-0,263
220,480	65,905	-0,219	-0,153
221,494	98,819	-0,190	0,151
222,509	-61,183	-0,128	-0,037
223,523	-200,000	-0,014	-0,165
224,538	390,494	-0,098	-0,140
225,553	483,567	-0,163	-0,257
226,567	200,643	-0,214	-0,228
227,582	-56,785	-0,143	-0,044
228,596	264,174	-0,109	-0,131
229,611	47,624	-0,166	-0,107
230,626	154,332	-0,088	-0,083
231,640	-130,246	-0,267	-0,025
232,655	638,017	-0,143	-0,252
233,669	191,990	-0,157	-0,164
234,684	-81,859	-0,224	-0,050
235,699	746,268	-0,110	-0,205
236,713	-200,000	-0,030	-0,190
237,728	58,598	-0,097	-0,066
238,742	146,961	-0,236	-0,219
239,757	-72,777	-0,165	-0,042
240,772	80,394	-0,229	-0,170
241,786	113,055	-0,163	-0,137
242,801	83,686	-0,138	-0,104
243,815	58,086	-0,262	-0,177
244,830	46,499	-0,126	-0,081
245,844	-67,487	-0,180	-0,048
246,859	-19,513	-0,192	-0,082
247,874	37,333	-0,169	-0,103
248,888	56,220	-0,212	-0,142
249,903	-12,161	-0,160	-0,072
250,917	36,399	-0,143	-0,087
251,932	-154,706	-0,158	0,007
252,947	-42,015	-0,155	-0,055
253,961	96,727	-0,148	-0,117
254,976	-29,059	-0,241	-0,095
255,990	311,124	-0,198	-0,257
257,005	164,322	-0,171	-0,166
258,020	185,136	-0,127	-0,130
259,034	65,515	-0,129	-0,090
260,049	7,770	-0,221	-0,114
261,063	-58,035	-0,157	-0,047
262,078	201,524	-0,090	-0,096
263,093	-57,686	-0,224	-0,067
264,107	43,789	-0,145	-0,091
265,122	249,538	-0,046	-0,053
266,136	-70,921	-0,176	-0,045
267,151	139,388	-0,169	-0,153
268,166	107,996	-0,139	-0,114
269,180	800,000	-0,097	-0,227
270,195	250,182	-0,066	-0,078
271,209	34,927	-0,219	-0,132
272,224	193,631	-0,124	-0,129
273,239	147,230	-0,133	-0,123
274,253	-137,191	-0,196	-0,015
275,268	102,074	-0,248	-0,199
276,282	-35,666	-0,340	-0,126
277,297	252,289	-0,173	-0,203
278,312	-48,223	-0,146	-0,048
279,326	27,672	-0,176	-0,102
280,341	75,836	-0,189	-0,137
281,355	-41,789	-0,099	0,035
282,370	260,172	-0,125	-0,149
283,384	195,078	-0,180	-0,188
284,399	250,669	-0,162	-0,190
285,414	-36,867	-0,189	-0,069
286,428	220,115	-0,118	-0,130
287,443	-200,000	0,003	-0,110
288,457	-46,810	-0,149	-0,050
289,472	-52,553	-0,286	-0,090
290,487	58,235	-0,117	-0,079
291,501	-7,717	-0,312	-0,144
292,516	800,000	-0,049	-0,097
293,530	56,241	-0,094	-0,063
294,545	144,698	-0,117	-0,108
295,560	20,139	-0,139	-0,077
296,574	320,552	-0,101	-0,132
297,589	91,899	-0,144	-0,111
298,603	800,000	-0,065	-0,162
299,618	235,637	-0,182	-0,207
300,633	88,385	-0,095	-0,072
301,647	-45,116	-0,119	-0,041
302,662	34,741	-0,098	-0,059
303,676	-24,587	-0,127	-0,052
304,691	-0,054	-0,240	-0,117
305,706	-26,215	-0,114	-0,046
306,720	245,767	-0,175	-0,203
307,735	98,344	-0,152	-0,120
308,749	183,570	-0,093	-0,094
309,764	188,096	-0,117	-0,120
310,779	276,448	-0,140	-0,171
311,793	286,382	-0,151	-0,188
312,808	800,000	-0,104	-0,221
313,822	-200,000	-0,059	-0,273
314,837	113,618	-0,112	-0,093
315,852	-200,000	-0,007	0,030
316,866	-200,000	0,019	-0,071
317,881	752,930	-0,086	-0,159
318,895	-104,881	-0,334	-0,052
319,910	-32,565	-0,259	-0,098
320,925	194,517	-0,152	-0,158
321,939	83,219	-0,234	-0,175
322,954	35,448	0,045	-0,027
323,968	-85,132	-0,198	-0,042
324,983	800,000	-0,073	-0,184
325,997	84,963	-0,068	-0,051
327,012	189,199	-0,155	-0,159
328,027	72,092	-0,178	-0,127
329,041	325,299	-0,079	-0,104
330,056	-57,345	-0,142	-0,042
331,070	-200,000	-0,049	-0,171
332,085	-117,995	-0,135	-0,016
333,100	-13,162	-0,157	-0,069
334,114	-200,000	-0,007	-0,113
335,129	149,702	-0,197	-0,183
336,143	229,032	-0,129	-0,145
337,158	800,000	-0,036	-0,077
338,173	-200,000	-0,013	-0,074
339,187	-149,796	-0,141	0,007
340,202	-55,067	-0,192	-0,059
341,216	423,530	-0,104	-0,154
342,231	800,000	-0,101	-0,259
343,246	320,259	-0,150	-0,196
344,260	-26,437	-0,240	-0,096
345,275	306,636	-0,138	-0,176
346,289	-7,607	-0,119	-0,055
347,304	-200,000	-0,011	-0,127
348,319	257,957	-0,187	-0,220
349,333	30,204	-0,181	-0,106
350,348	-200,000	-0,014	-0,267
351,362	267,657	-0,133	-0,160
352,377	-26,482	-0,124	-0,049
353,392	247,656	-0,180	-0,208
354,406	-108,603	-0,181	-0,026
355,421	207,235	1311,957	1399,832
356,435	159,405	1472,287	1400,258
