DTS Sentinel unit serial number:	SN410029Multiplexer serial number:	ORYXHardware model number:	OX2-SRSoftware version number:	ORYX F/W v4,00 Oryx Data Collector v3.7.2.0data status	okinstallation	B3 Nyhavnadifferential loss correction	single-endedforward channel	channel 1reverse channel	N/Adate	2023/11/30time	00:57:31forward acquisition time	300,00reverse acquisition time	0,00gamma	499,1914k internal	0,3210k external	0,3210temperature offset calibration	1,0000default loss term (dB/km)	0,3820temperature slope calibration	1,0000multiplexer offset coefficient	1,0000multiplexer slope coefficient	1,0000fibre end	0,00T internal ref (°C)	10,75T ext. ref 1 (°C)	-4,72T ext. ref 2 (°C)	-4,83length (m)	temperature (°C)	Stokes	anti-Stokes-744,400	573,630	-0,157	-0,279
-743,385	800,000	-0,107	0,243
-742,371	800,000	-0,129	-0,269
-741,356	-200,000	0,068	0,431
-740,342	386,935	-0,120	-0,181
-739,327	800,000	0,097	0,213
-738,312	786,369	-0,138	-0,276
-737,298	300,423	-0,159	0,214
-736,283	-200,000	-0,080	-0,313
-735,269	-200,000	-0,035	0,233
-734,254	129,655	-0,294	-0,273
-733,239	-34,277	-0,198	0,078
-732,225	800,000	-0,111	-0,335
-731,210	-200,000	0,008	0,136
-730,196	-3,916	0,157	-0,079
-729,181	270,647	-0,080	-0,102
-728,167	-200,000	-0,021	-0,074
-727,152	117,664	-0,082	-0,073
-726,137	233,288	0,028	0,034
-725,123	56,075	-0,091	-0,064
-724,108	137,621	-0,131	-0,124
-723,094	9,487	-0,117	-0,064
-722,079	-200,000	0,012	-0,075
-721,064	495,504	0,057	0,095
-720,050	793,154	0,045	0,090
-719,035	-136,247	-0,141	0,012
-718,021	-55,405	-0,063	0,020
-717,006	384,137	-0,065	-0,098
-715,991	-200,000	-0,005	-0,127
-714,977	-200,000	-0,016	0,092
-713,962	210,380	0,106	-0,120
-712,948	-34,368	-0,058	0,023
-711,933	69,994	0,148	-0,111
-710,918	-126,323	-0,137	0,015
-709,904	-32,227	-0,015	-0,006
-708,889	-200,000	0,022	-0,083
-707,875	-29,303	-0,148	0,061
-706,860	-142,739	-0,029	-0,002
-705,845	-21,975	0,168	0,074
-704,831	-166,429	-0,059	0,002
-703,816	-118,764	-0,107	0,013
-702,802	-96,747	-0,097	0,018
-701,787	-200,000	-0,020	-0,172
-700,772	-200,000	0,022	-0,126
-699,758	800,000	0,043	-0,097
-698,743	63,214	-0,057	-0,041
-697,729	-200,000	-0,005	-0,066
-696,714	225,623	0,101	0,118
-695,699	-200,000	-0,018	-0,062
-694,685	83,979	0,031	-0,024
-693,670	-200,000	0,008	0,129
-692,656	-5,136	-0,061	-0,030
-691,641	800,000	0,071	0,209
-690,627	559,071	0,039	0,068
-689,612	800,000	-0,040	0,086
-688,597	-200,000	-0,002	-0,078
-687,583	800,000	-0,038	0,111
-686,568	800,000	-0,085	-0,179
-685,554	800,000	0,024	0,052
-684,539	19,970	0,058	0,034
-683,524	161,272	-0,047	-0,047
-682,510	-200,000	-0,001	0,078
-681,495	800,000	-0,062	0,170
-680,481	460,262	0,006	0,010
-679,466	-95,331	-0,059	0,011
-678,451	-200,000	0,007	0,047
-677,437	299,258	-0,076	0,101
-676,422	153,777	0,061	-0,061
-675,408	39,836	0,070	0,046
-674,393	-200,000	-0,038	-0,132
-673,378	-200,000	-0,019	-0,106
-672,364	73,788	-0,082	-0,062
-671,349	-200,000	-0,033	-0,120
-670,335	11,420	0,062	0,034
-669,320	156,442	0,085	-0,085
-668,305	202,741	0,049	0,055
-667,291	-151,277	-0,076	-0,004
-666,276	-127,363	0,032	0,003
-665,262	-34,089	-0,072	0,028
-664,247	-91,799	-0,203	0,041
-663,232	800,000	-0,039	-0,113
-662,218	42,247	-0,047	-0,031
-661,203	58,393	-0,051	-0,036
-660,189	128,589	-0,009	0,008
-659,174	33,789	-0,082	-0,051
-658,159	-145,408	-0,048	-0,003
-657,145	140,724	-0,055	-0,052
-656,130	-94,877	0,078	-0,015
-655,116	793,765	-0,011	0,022
-654,101	-65,968	0,102	0,029
-653,086	-105,719	0,056	-0,009
-652,072	-96,235	-0,142	0,027
-651,057	-12,382	-0,077	-0,036
-650,043	-70,630	-0,113	-0,031
-649,028	54,573	0,102	-0,071
-648,014	-98,460	-0,139	0,026
-646,999	13,197	0,049	-0,027
-645,984	-95,559	0,115	0,022
-644,970	-200,000	0,002	0,080
-643,955	800,000	-0,033	-0,079
-642,941	800,000	-0,060	-0,127
-641,926	-200,000	-0,001	-0,002
-640,911	-88,018	0,126	0,027
-639,897	-8,471	0,059	0,029
-638,882	38,749	-0,059	-0,038
-637,868	-109,287	0,197	0,030
-636,853	-200,000	-0,004	-0,031
-635,838	205,376	-0,073	-0,082
-634,824	76,487	0,068	0,052
-633,809	20,711	-0,065	0,038
-632,795	-52,644	0,098	-0,032
-631,780	252,533	0,040	0,050
-630,765	-12,656	0,108	-0,050
-629,751	161,045	0,038	-0,039
-628,736	-200,000	-0,097	0,000
-627,722	301,426	-0,044	0,058
-626,707	-19,923	0,067	0,030
-625,692	-33,276	-0,186	-0,074
-624,678	63,395	-0,138	-0,099
-623,663	-60,291	0,082	0,025
-622,649	-90,800	-0,118	0,024
-621,634	198,053	0,034	0,037
-620,619	438,030	0,025	-0,039
-619,605	800,000	0,026	-0,072
-618,590	-98,448	-0,079	0,015
-617,576	633,190	-0,034	0,062
-616,561	-153,685	-0,083	-0,004
-615,546	28,352	-0,074	0,045
-614,532	-144,560	-0,029	0,002
-613,517	800,000	-0,022	-0,068
-612,503	-26,460	-0,075	-0,032
-611,488	692,383	-0,043	0,082
-610,474	800,000	-0,025	-0,072
-609,459	14,080	0,062	-0,035
-608,444	-0,912	-0,093	-0,047
-607,430	245,815	0,032	0,039
-606,415	800,000	-0,046	-0,136
-605,401	89,217	0,018	-0,015
-604,386	800,000	-0,007	0,021
-603,371	70,704	0,095	-0,070
-602,357	70,187	-0,060	0,045
-601,342	-200,000	0,002	-0,128
-600,328	341,596	0,108	-0,152
-599,313	330,272	0,023	-0,032
-598,298	-200,000	0,000	-0,010
-597,284	-200,000	-0,004	0,029
-596,269	-49,328	-0,041	-0,014
-595,255	-200,000	-0,001	0,055
-594,240	194,608	-0,036	0,039
-593,225	-200,000	-0,074	0,000
-592,211	-200,000	0,045	-0,147
-591,196	226,044	-0,070	-0,082
-590,182	-200,000	0,017	0,074
-589,167	-9,650	0,081	0,039
-588,152	255,410	-0,006	0,008
-587,138	-92,818	-0,105	-0,021
-586,123	-200,000	0,014	0,081
-585,109	-80,534	-0,076	0,018
-584,094	577,334	-0,027	0,047
-583,079	121,971	0,033	0,030
-582,065	-200,000	0,007	0,150
-581,050	-106,072	0,043	0,007
-580,036	-43,906	-0,070	-0,025
-579,021	-76,429	-0,213	-0,054
-578,006	263,162	-0,032	0,040
-576,992	173,338	-0,051	-0,053
-575,977	6,797	0,054	-0,029
-574,963	-84,743	0,134	0,030
-573,948	-24,754	-0,087	-0,037
-572,934	341,234	-0,036	-0,051
-571,919	800,000	0,011	-0,027
-570,904	5,746	0,032	-0,017
-569,890	4,409	-0,124	-0,065
-568,875	-12,166	-0,036	0,017
-567,861	-84,886	0,088	0,020
-566,846	-200,000	-0,024	0,120
-565,831	-111,905	0,175	0,025
-564,817	800,000	-0,075	-0,157
-563,802	-67,850	0,040	-0,011
-562,788	52,701	-0,021	-0,014
-561,773	-200,000	-0,028	-0,110
-560,758	253,454	0,089	-0,109
-559,744	547,180	0,112	0,194
-558,729	-123,982	-0,104	-0,012
-557,715	-200,000	-0,032	0,146
-556,700	343,174	-0,033	-0,046
-555,685	208,873	-0,076	0,086
-554,671	-200,000	0,009	0,151
-553,656	800,000	0,025	0,054
-552,642	120,283	0,074	0,066
-551,627	-200,000	0,010	-0,111
-550,612	113,231	-0,131	0,114
-549,598	-84,780	-0,095	-0,021
-548,583	241,630	-0,077	-0,093
-547,569	-200,000	0,003	-0,071
-546,554	154,329	0,104	0,103
-545,539	-200,000	-0,001	-0,036
-544,525	800,000	0,034	-0,090
-543,510	800,000	0,034	0,091
-542,496	1,436	-0,128	0,066
-541,481	-200,000	-0,008	-0,029
-540,466	97,884	-0,064	-0,053
-539,452	-5,580	0,078	0,038
-538,437	283,705	0,028	-0,036
-537,423	800,000	-0,043	0,106
-536,408	-47,549	-0,151	-0,052
-535,393	800,000	-0,042	-0,089
-534,379	165,004	-0,111	-0,113
-533,364	-57,815	0,096	0,030
-532,350	-87,597	0,154	-0,033
-531,335	793,982	0,050	-0,099
-530,321	55,564	-0,085	0,059
-529,306	-124,141	-0,048	-0,005
-528,291	-22,090	-0,148	-0,065
-527,277	800,000	0,067	-0,169
-526,262	-45,374	0,174	-0,062
-525,248	570,341	0,049	-0,086
-524,233	-200,000	0,026	0,096
-523,218	189,581	0,105	-0,113
-522,204	-188,819	-0,028	0,000
-521,189	208,309	-0,025	0,028
-520,175	151,060	-0,048	0,047
-519,160	303,992	0,038	-0,051
-518,145	-16,051	0,191	0,087
-517,131	26,749	0,077	0,046
-516,116	358,517	0,110	0,159
-515,102	59,079	-0,066	0,047
-514,087	38,817	0,212	0,136
-513,072	-200,000	-0,028	-0,118
-512,058	473,798	0,060	-0,098
-511,043	-21,841	0,078	0,034
-510,029	52,720	-0,089	0,061
-509,014	76,330	-0,152	-0,115
-507,999	-133,000	0,210	-0,019
-506,985	-200,000	0,006	-0,041
-505,970	367,945	-0,046	0,066
-504,956	-200,000	-0,028	-0,144
-503,941	285,295	0,030	0,039
-502,926	448,101	-0,032	0,050
-501,912	-84,876	0,138	-0,031
-500,897	-26,538	0,129	0,054
-499,883	149,330	-0,079	0,076
-498,868	208,075	-0,067	-0,076
-497,853	-26,474	0,070	-0,029
-496,839	447,971	0,036	-0,057
-495,824	-200,000	-0,017	0,152
-494,810	-51,062	0,209	-0,070
-493,795	167,766	-0,078	-0,080
-492,781	467,289	0,044	0,071
-491,766	800,000	-0,011	-0,028
-490,751	-125,591	-0,062	-0,007
-489,737	17,636	-0,056	0,032
-488,722	457,193	0,040	0,064
-487,708	110,001	0,096	-0,082
-486,693	-200,000	0,013	-0,060
-485,678	-200,000	-0,030	0,136
-484,664	45,852	-0,008	0,005
-483,649	800,000	-0,017	-0,042
-482,635	-200,000	0,041	0,170
-481,620	-200,000	-0,039	0,140
-480,605	800,000	-0,074	0,183
-479,591	368,773	0,039	-0,056
-478,576	-8,037	0,059	-0,028
-477,562	-200,000	-0,001	0,076
-476,547	626,389	-0,031	-0,056
-475,532	-4,690	0,083	0,041
-474,518	-200,000	0,006	0,022
-473,503	-55,273	0,072	0,023
-472,489	800,000	0,033	0,072
-471,474	84,904	0,031	-0,024
-470,459	800,000	-0,015	0,047
-469,445	147,424	0,090	-0,087
-468,430	800,000	-0,025	-0,052
-467,416	-107,828	-0,065	0,010
-466,401	269,025	0,062	-0,079
-465,386	594,339	0,017	-0,031
-464,372	121,356	-0,037	-0,033
-463,357	-200,000	0,003	-0,053
-462,343	85,135	-0,049	-0,038
-461,328	-200,000	0,005	-0,034
-460,313	127,888	0,081	-0,074
-459,299	189,456	-0,047	0,051
-458,284	41,030	0,128	0,082
-457,270	-130,140	0,081	0,008
-456,255	-113,952	-0,132	-0,018
-455,241	-200,000	-0,036	-0,161
-454,226	-200,000	-0,016	-0,132
-453,211	-200,000	-0,018	0,088
-452,197	-18,947	0,051	0,023
-451,182	-200,000	-0,006	-0,042
-450,168	-200,000	-0,001	0,013
-449,153	293,972	0,112	-0,147
-448,138	-168,609	0,035	0,001
-447,124	188,955	-0,047	0,050
-446,109	-193,055	-0,081	0,001
-445,095	118,015	0,144	-0,127
-444,080	-140,444	0,089	-0,007
-443,065	800,000	0,076	0,160
-442,051	-200,000	0,004	0,015
-441,036	800,000	-0,027	-0,082
-440,022	800,000	-0,109	-0,221
-439,007	800,000	-0,036	-0,092
-437,992	96,460	0,092	-0,075
-436,978	-81,069	0,055	-0,013
-435,963	-48,304	0,031	-0,011
-434,949	-200,000	0,005	-0,172
-433,934	-114,777	-0,048	0,006
-432,919	-200,000	0,088	0,000
-431,905	259,864	0,035	0,044
-430,890	-13,625	0,057	0,026
-429,876	-90,441	0,039	-0,008
-428,861	-200,000	-0,016	-0,066
-427,846	172,354	0,110	-0,114
-426,832	782,100	-0,047	-0,093
-425,817	102,712	-0,025	-0,021
-424,803	201,173	0,025	0,027
-423,788	800,000	0,031	-0,076
-422,773	800,000	-0,015	0,039
-421,759	566,473	0,100	0,174
-420,744	198,546	0,071	0,078
-419,730	33,384	0,059	-0,037
-418,715	800,000	-0,051	-0,126
-417,701	-200,000	-0,019	-0,141
-416,686	235,441	0,013	0,016
-415,671	-200,000	0,001	-0,031
-414,657	5,087	-0,153	0,080
-413,642	146,501	0,093	0,089
-412,628	152,641	-0,046	-0,045
-411,613	800,000	-0,026	0,055
-410,598	-48,225	-0,041	-0,014
-409,584	800,000	0,055	0,122
-408,569	-25,492	0,025	0,011
-407,555	-52,528	-0,032	-0,010
-406,540	68,155	-0,050	0,037
-405,525	141,260	0,044	0,042
-404,511	800,000	-0,008	-0,021
-403,496	800,000	-0,056	-0,121
-402,482	162,541	-0,045	-0,045
-401,467	-200,000	0,015	0,062
-400,452	-20,048	0,045	-0,020
-399,438	800,000	-0,021	-0,050
-398,423	113,695	0,093	0,081
-397,409	-127,570	-0,101	0,010
-396,394	-89,820	0,031	0,007
-395,379	685,813	0,038	-0,071
-394,365	-170,949	0,046	0,001
-393,350	-200,000	-0,062	0,219
-392,336	-200,000	0,018	0,115
-391,321	71,966	-0,160	0,119
-390,306	800,000	0,016	0,050
-389,292	-200,000	-0,018	-0,071
-388,277	800,000	0,006	0,020
-387,263	123,074	-0,068	-0,061
-386,248	206,582	-0,031	0,035
-385,233	179,858	-0,065	0,069
-384,219	753,578	0,046	-0,089
-383,204	-90,504	0,090	0,019
-382,190	800,000	0,022	0,050
-381,175	185,920	-0,053	-0,056
-380,160	52,706	0,130	-0,089
-379,146	-45,013	-0,035	0,012
-378,131	-200,000	0,001	0,013
-377,117	-21,033	0,039	0,017
-376,102	-200,000	-0,018	0,078
-375,088	-200,000	-0,012	-0,048
-374,073	-200,000	-0,001	-0,027
-373,058	-92,324	0,148	-0,030
-372,044	-85,392	-0,056	0,012
-371,029	585,819	-0,042	0,074
-370,015	-34,533	-0,088	0,034
-369,000	-200,000	0,000	-0,039
-367,985	737,101	0,016	0,031
-366,971	349,883	0,115	0,163
-365,956	-200,000	0,004	-0,024
-364,942	-140,301	-0,052	-0,004
-363,927	17,952	-0,095	-0,054
-362,912	-17,279	0,106	0,047
-361,898	-24,071	-0,124	-0,053
-360,883	-74,927	-0,060	-0,015
-359,869	-200,000	0,002	0,008
-358,854	-112,030	0,079	0,011
-357,839	657,007	0,030	0,055
-356,825	44,770	-0,081	0,053
-355,810	-170,502	0,110	-0,003
-354,796	-200,000	-0,016	0,067
-353,781	800,000	-0,030	-0,074
-352,766	323,247	0,044	-0,060
-351,752	-200,000	-0,017	0,060
-350,737	800,000	0,027	0,079
-349,723	105,388	-0,122	0,103
-348,708	-200,000	0,001	0,023
-347,693	710,507	-0,062	0,117
-346,679	256,753	0,054	0,067
-345,664	-75,251	-0,151	0,038
-344,650	-153,007	0,132	-0,007
-343,635	34,064	-0,085	0,053
-342,620	-84,153	0,135	-0,030
-341,606	-200,000	-0,015	0,091
-340,591	-200,000	0,008	-0,032
-339,577	-200,000	0,001	-0,203
-338,562	335,875	-0,059	-0,082
-337,548	2,443	-0,092	0,047
-336,533	134,134	0,079	-0,073
-335,518	364,569	0,057	0,082
-334,504	800,000	-0,036	-0,102
-333,489	-2,598	-0,059	-0,029
-332,475	363,436	0,017	-0,025
-331,460	-200,000	-0,005	-0,014
-330,445	553,319	-0,017	-0,028
-329,431	313,438	0,082	0,111
-328,416	121,195	0,067	0,060
-327,402	-182,222	0,131	-0,002
-326,387	-107,239	-0,100	-0,015
-325,372	651,223	0,005	-0,009
-324,358	208,126	0,050	0,055
-323,343	-70,051	-0,067	0,018
-322,329	-200,000	0,016	0,134
-321,314	404,020	0,050	0,076
-320,299	219,428	0,055	0,062
-319,285	228,793	-0,055	0,064
-318,270	19,634	-0,043	0,024
-317,256	-102,019	-0,116	-0,020
-316,241	72,426	-0,080	-0,059
-315,226	141,255	0,054	0,051
-314,212	800,000	0,068	0,136
-313,197	58,760	0,102	0,072
-312,183	-200,000	-0,000	0,006
-311,168	135,343	0,043	-0,039
-310,153	-58,511	-0,025	-0,008
-309,139	428,225	-0,062	-0,096
-308,124	237,504	0,097	0,115
-307,110	-200,000	-0,001	0,113
-306,095	203,062	-0,071	-0,079
-305,080	-200,000	-0,000	-0,073
-304,066	-80,000	0,096	0,023
-303,051	-4,523	-0,131	-0,064
-302,037	-43,175	-0,043	-0,016
-301,022	381,023	-0,029	0,043
-300,008	35,120	0,062	-0,038
-298,993	-200,000	-0,002	0,031
-297,978	-200,000	0,023	0,094
-296,964	-139,597	0,084	0,006
-295,949	259,280	0,015	0,019
-294,935	127,042	-0,032	0,029
-293,920	83,570	0,042	-0,033
-292,905	-200,000	-0,006	-0,023
-291,891	-14,380	-0,106	0,049
-290,876	358,468	-0,014	-0,020
-289,862	154,400	0,035	-0,034
-288,847	-200,000	0,006	0,029
-287,832	-200,000	0,010	0,080
-286,818	770,260	0,037	0,072
-285,803	59,143	-0,048	0,034
-284,789	-62,309	0,098	0,029
-283,774	271,158	0,008	0,010
-282,759	158,517	0,026	-0,025
-281,745	760,163	0,053	0,104
-280,730	1,390	0,027	-0,014
-279,716	120,633	0,101	-0,090
-278,701	145,044	0,074	0,070
-277,686	-200,000	0,001	0,127
-276,672	370,041	-0,074	-0,107
-275,657	-200,000	-0,005	0,108
-274,643	-77,907	-0,051	-0,013
-273,628	-152,728	-0,073	0,004
-272,613	-73,463	-0,094	0,024
-271,599	-108,146	0,126	0,019
-270,584	-200,000	0,026	0,151
-269,570	800,000	-0,011	0,024
-268,555	72,055	-0,117	0,087
-267,540	-200,000	-0,009	0,074
-266,526	-200,000	0,035	-0,113
-265,511	4,230	0,083	0,043
-264,497	-72,415	-0,121	-0,032
-263,482	800,000	-0,035	0,095
-262,467	232,316	-0,106	0,124
-261,453	800,000	0,061	0,124
-260,438	-53,908	-0,061	-0,020
-259,424	800,000	-0,027	0,056
-258,409	-72,362	0,062	0,016
-257,395	-77,657	-0,149	-0,037
-256,380	209,529	0,080	-0,089
-255,365	-180,350	-0,085	-0,001
-254,351	-23,828	-0,052	0,022
-253,336	157,537	0,021	-0,021
-252,322	-15,938	-0,160	-0,072
-251,307	48,352	0,069	0,046
-250,292	-77,779	-0,044	0,011
-249,278	-85,883	-0,101	-0,022
-248,263	-150,697	0,114	0,006
-247,249	-200,000	0,001	0,074
-246,234	-0,917	0,115	0,058
-245,219	-200,000	0,008	-0,048
-244,205	92,322	-0,128	-0,103
-243,190	-168,994	0,051	-0,001
-242,176	262,880	0,046	0,057
-241,161	800,000	0,029	-0,057
-240,146	-200,000	-0,014	-0,086
-239,132	800,000	0,006	0,018
-238,117	-200,000	-0,004	-0,023
-237,103	377,705	0,064	0,094
-236,088	-200,000	-0,018	-0,085
-235,073	190,663	0,070	-0,075
-234,059	-14,945	0,069	0,031
-233,044	-200,000	0,010	0,046
-232,030	-166,837	-0,125	0,004
-231,015	4,282	-0,103	-0,054
-230,000	12,799	0,004	-0,002
-228,986	-95,466	-0,047	0,009
-227,971	-167,244	0,001	0,000
-226,957	-60,054	0,065	0,020
-225,942	137,556	-0,061	-0,057
-224,927	3,407	-0,092	0,047
-223,913	63,999	-0,052	-0,037
-222,898	-200,000	-0,017	-0,072
-221,884	-172,521	0,131	-0,003
-220,869	-79,334	-0,151	-0,036
-219,855	-135,967	0,135	-0,011
-218,840	521,579	-0,071	-0,118
-217,825	800,000	0,027	0,079
-216,811	-97,537	-0,132	0,024
-215,796	-200,000	-0,046	-0,160
-214,782	-200,000	0,022	-0,131
-213,767	105,718	0,055	-0,046
-212,752	583,462	-0,086	0,150
-211,738	-152,175	0,104	-0,005
-210,723	-161,010	-0,178	-0,007
-209,709	-200,000	0,005	-0,017
-208,694	403,903	0,051	-0,077
-207,679	-200,000	-0,002	-0,022
-206,665	-200,000	-0,030	-0,138
-205,650	379,639	-0,065	0,095
-204,636	-113,187	0,225	0,031
-203,621	490,531	0,047	-0,077
-202,606	241,956	-0,033	0,040
-201,592	-167,509	-0,079	0,002
-200,577	-40,425	-0,126	0,046
-199,563	-82,792	-0,144	0,033
-198,548	-200,000	-0,011	0,052
-197,533	-77,232	-0,050	0,012
-196,519	246,719	-0,028	0,034
-195,504	343,580	0,017	0,023
-194,490	264,454	-0,061	0,075
-193,475	-54,382	0,078	-0,025
-192,460	64,037	0,120	0,085
-191,446	101,958	0,113	0,093
-190,431	44,460	-0,077	0,050
-189,417	85,479	0,107	0,083
-188,402	472,994	-0,018	0,029
-187,387	-200,000	-0,023	-0,119
-186,373	173,689	-0,070	-0,072
-185,358	-200,000	-0,017	-0,132
-184,344	-95,080	-0,042	0,008
-183,329	-55,180	-0,147	0,047
-182,315	27,559	0,118	-0,070
-181,300	345,447	-0,020	0,029
-180,285	800,000	-0,045	0,092
-179,271	800,000	-0,047	-0,145
-178,256	-7,960	-0,174	0,083
-177,242	-200,000	-0,018	0,080
-176,227	-97,106	0,069	0,013
-175,212	800,000	0,048	0,129
-174,198	-200,000	0,005	-0,038
-173,183	492,463	-0,035	0,057
-172,169	-200,000	-0,023	-0,076
-171,154	246,158	-0,049	-0,059
-170,139	120,984	0,076	-0,067
-169,125	-57,918	0,033	0,010
-168,110	93,635	-0,032	-0,025
-167,096	43,120	0,140	-0,090
-166,081	34,695	-0,118	-0,073
-165,066	800,000	-0,062	-0,170
-164,052	800,000	-0,038	-0,078
-163,037	64,155	0,153	-0,109
-162,023	43,156	-0,086	-0,056
-161,008	-108,348	0,026	-0,004
-159,993	-200,000	-0,030	0,116
-158,979	181,732	-0,052	0,054
-157,964	-200,000	-0,004	-0,053
-156,950	-145,953	0,118	-0,007
-155,935	-99,121	-0,132	-0,023
-154,920	65,592	0,083	0,060
-153,906	58,216	-0,020	0,014
-152,891	5,179	0,019	-0,010
-151,877	200,301	-0,051	0,056
-150,862	33,236	-0,106	-0,065
-149,847	-68,746	-0,073	0,020
-148,833	373,770	-0,015	-0,021
-147,818	800,000	-0,045	-0,128
-146,804	-151,877	0,016	-0,001
-145,789	-200,000	-0,020	0,080
-144,775	-81,922	0,118	0,027
-143,760	-200,000	-0,038	-0,185
-142,745	114,809	-0,123	-0,106
-141,731	16,347	0,064	0,036
-140,716	-200,000	0,017	-0,133
-139,702	800,000	0,048	0,107
-138,687	-117,733	-0,103	-0,013
-137,672	476,680	0,022	0,036
-136,658	800,000	-0,057	-0,144
-135,643	164,130	-0,041	-0,041
-134,629	29,288	-0,060	-0,036
-133,614	-200,000	-0,004	0,013
-132,599	180,515	-0,097	0,101
-131,585	-7,074	0,100	0,048
-130,570	96,853	-0,031	0,025
-129,556	-164,733	-0,091	-0,003
-128,541	-200,000	0,005	0,088
-127,526	800,000	0,036	-0,073
-126,512	-33,729	-0,174	-0,067
-125,497	800,000	-0,026	0,065
-124,483	67,400	0,096	0,069
-123,468	-148,695	-0,129	0,007
-122,453	173,042	0,061	0,063
-121,439	48,387	-0,107	-0,071
-120,424	-100,091	0,097	0,017
-119,410	202,342	-0,056	0,061
-118,395	-61,947	-0,044	-0,013
-117,380	-95,810	0,119	-0,022
-116,366	186,908	0,018	-0,019
-115,351	349,550	0,031	0,044
-114,337	221,153	0,025	-0,029
-113,322	405,301	0,067	-0,100
-112,307	-67,175	0,128	0,036
-111,293	-11,843	0,079	0,036
-110,278	-54,767	-0,030	0,010
-109,264	235,401	-0,050	-0,058
-108,249	-70,658	-0,224	-0,059
-107,234	-169,160	-0,073	-0,002
-106,220	-178,361	-0,169	0,003
-105,205	-54,448	0,106	-0,034
-104,191	766,517	-0,031	0,059
-103,176	-64,471	0,088	-0,025
-102,162	-92,837	-0,149	0,029
-101,147	-98,000	-0,054	0,010
-100,132	301,858	-0,055	-0,072
-99,118	800,000	-0,035	0,095
-98,103	126,236	-0,029	-0,026
-97,089	-200,000	0,007	0,042
-96,074	-17,314	-0,033	-0,015
-95,059	-200,000	-0,008	-0,044
-94,045	-49,839	-0,060	0,020
-93,030	-200,000	-0,014	-0,061
-92,016	-31,132	-0,052	-0,021
-91,001	107,206	-0,064	-0,054
-89,986	84,892	0,064	0,049
-88,972	308,146	0,125	-0,165
-87,957	6,670	-0,084	-0,044
-86,943	-200,000	0,039	0,135
-85,928	-200,000	-0,030	0,106
-84,913	330,600	-0,082	-0,112
-83,899	-0,073	-0,024	0,012
-82,884	-200,000	-0,031	-0,145
-81,870	776,658	-0,036	0,070
-80,855	641,694	-0,065	-0,118
-79,840	278,430	0,012	0,016
-78,826	-77,080	-0,038	-0,009
-77,811	613,355	-0,045	-0,081
-76,797	-200,000	0,013	-0,049
-75,782	36,582	-0,066	0,041
-74,767	-23,686	0,115	0,049
-73,753	800,000	-0,026	0,080
-72,738	-103,944	0,116	-0,019
-71,724	-94,939	-0,165	0,031
-70,709	189,839	-0,045	-0,048
-69,694	111,045	-0,026	0,022
-68,680	-86,159	-0,099	-0,021
-67,665	50,109	0,160	0,106
-66,651	-177,370	-0,047	-0,001
-65,636	-191,084	-0,034	0,000
-64,622	-200,000	0,001	0,111
-63,607	-29,286	-0,109	-0,044
-62,592	230,170	0,084	0,097
-61,578	35,678	-0,026	0,016
-60,563	-132,681	-0,112	-0,010
-59,549	262,875	-0,030	0,037
-58,534	28,985	-1,870	-1,117
-57,519	348,227	-1,452	-2,027
-56,505	-200,000	-0,289	-4,325
-55,490	465,260	0,890	1,412
-54,476	800,000	5,050	11,090
-53,461	-200,000	20,923	330,436
-52,446	800,000	757,790	2327,123
-51,432	551,229	1662,189	2827,656
-50,417	73,400	1663,729	1228,030
-49,403	18,607	1536,825	865,457
-48,388	12,568	1459,846	792,876
-47,373	19,090	1450,840	819,284
-46,359	15,823	1439,960	797,559
-45,344	10,841	1436,009	771,596
-44,330	10,795	1433,998	770,265
-43,315	10,751	1432,340	769,137
-42,300	10,809	1430,478	768,382
-41,286	10,790	1429,177	767,562
-40,271	10,800	1427,887	766,885
-39,257	10,757	1426,715	766,020
-38,242	10,762	1425,771	765,506
-37,227	10,802	1424,496	764,984
-36,213	10,847	1422,993	764,359
-35,198	10,849	1421,984	763,796
-34,184	10,856	1421,273	763,416
-33,169	10,816	1419,753	762,381
-32,154	10,840	1418,913	762,012
-31,140	10,870	1417,594	761,415
-30,125	10,872	1416,553	760,837
-29,111	10,897	1415,124	760,157
-28,096	10,857	1414,126	759,402
-27,082	10,787	1412,937	758,405
-26,067	10,782	1412,028	757,861
-25,052	10,772	1411,080	757,278
-24,038	10,787	1410,009	756,740
-23,023	10,771	1408,865	756,021
-22,009	10,748	1407,870	755,352
-20,994	10,793	1406,713	754,909
-19,979	10,788	1405,826	754,380
-18,965	10,765	1405,192	753,903
-17,950	10,739	1404,252	753,247
-16,936	10,684	1403,522	752,570
-15,921	10,661	1402,098	751,670
-14,906	10,688	1401,285	751,329
-13,892	10,718	1400,375	750,951
-12,877	10,708	1399,491	750,402
-11,863	10,711	1398,668	749,945
-10,848	10,649	1397,928	749,232
-9,833	10,617	1396,950	748,529
-8,819	10,576	1396,247	747,930
-7,804	10,601	1395,244	747,481
-6,790	10,625	1394,307	747,062
-5,775	10,655	1393,025	746,481
-4,760	10,613	1392,180	745,805
-3,746	10,570	1391,506	745,215
-2,731	10,606	1390,506	744,818
-1,717	10,580	1389,637	744,201
-0,702	10,573	1387,873	743,196
0,313	14,532	1301,401	715,050
1,327	30,811	692,368	417,430
2,342	47,524	120,084	78,861
3,356	0,565	16,405	8,248
4,371	-2,743	3,408	1,676
5,386	13,010	0,913	0,497
6,400	800,000	0,177	0,459
7,415	800,000	-0,158	-0,314
8,429	-10,597	-0,249	-0,116
9,444	33,431	-0,425	-0,259
10,459	32,958	-0,274	-0,167
11,473	-29,224	-0,311	-0,125
12,488	450,113	-0,136	-0,213
13,502	109,661	-0,194	-0,164
14,517	283,174	-0,249	-0,316
15,531	486,978	-0,245	-0,395
16,546	60,203	-0,270	-0,188
17,561	-15,629	-0,410	-0,184
18,575	-76,073	-0,192	-0,047
19,590	200,724	-0,257	-0,279
20,604	-42,756	-0,337	-0,120
21,619	-28,026	-0,498	-0,202
22,634	-64,456	-0,471	-0,134
23,648	42,802	-0,457	-0,293
24,663	98,492	-0,345	-0,280
25,677	140,916	-0,424	-0,395
26,692	79,160	-0,354	-0,267
27,707	45,296	-0,280	-0,181
28,721	-36,018	-0,426	-0,161
29,736	340,684	-0,322	-0,444
30,750	99,945	-0,403	-0,329
31,765	17,482	-0,433	-0,242
32,780	103,892	-0,396	-0,327
33,794	35,953	-0,386	-0,239
34,809	233,930	-0,298	-0,346
35,823	-17,866	-0,409	-0,180
36,838	120,523	-0,297	-0,260
37,853	90,263	-0,340	-0,267
38,867	78,184	-0,326	-0,245
39,882	59,365	-0,393	-0,272
40,896	59,022	-0,314	-0,217
41,911	197,753	-0,321	-0,346
42,926	-47,343	-0,395	-0,134
43,940	6,099	-0,459	-0,238
44,955	182,150	-0,373	-0,387
45,969	115,770	-0,383	-0,329
46,984	175,875	-0,252	-0,258
47,999	-5,807	-0,357	-0,171
49,013	17,730	-0,422	-0,236
50,028	26,508	-0,336	-0,197
51,042	49,233	-0,393	-0,259
52,057	28,734	-0,447	-0,265
53,071	64,182	-0,358	-0,253
54,086	564,548	-0,157	-0,269
55,101	177,827	-0,211	-0,217
56,115	68,388	-0,360	-0,259
57,130	103,137	-0,306	-0,252
58,144	135,985	-0,351	-0,321
59,159	62,251	-0,322	-0,225
60,174	746,424	-0,193	-0,367
61,188	14,878	-0,422	-0,231
62,203	179,578	-0,277	-0,285
63,217	-83,416	-0,356	-0,079
64,232	27,294	-0,297	-0,174
65,247	-15,879	-0,336	-0,150
66,261	-16,462	-0,302	-0,134
67,276	69,049	-0,267	-0,192
68,290	5,089	-0,381	-0,196
69,305	-122,091	-0,338	-0,038
70,320	15,624	-0,276	-0,152
71,334	-152,941	-0,229	-0,011
72,349	187,454	-0,321	-0,336
73,363	-10,657	-0,427	-0,197
74,378	-61,916	-0,404	-0,118
75,393	132,531	-0,344	-0,311
76,407	-80,534	-0,285	-0,066
77,422	-19,637	-0,248	-0,107
78,436	-65,788	-0,325	-0,090
79,451	8,897	-0,375	-0,198
80,466	108,096	-0,302	-0,253
81,480	80,640	-0,330	-0,249
82,495	73,279	-0,345	-0,253
83,509	-77,067	-0,311	-0,076
84,524	22,080	-0,259	-0,148
85,539	82,814	-0,194	-0,147
86,553	64,930	-0,229	-0,161
87,568	41,100	-0,269	-0,170
88,582	118,694	-0,317	-0,274
89,597	124,860	-0,295	-0,260
90,611	-93,755	-0,322	-0,062
91,626	-34,645	-0,195	-0,074
92,641	-43,250	-0,230	-0,081
93,655	155,362	-0,198	-0,191
94,670	366,750	-0,262	-0,371
95,684	106,849	-0,360	-0,299
96,699	109,065	-0,312	-0,261
97,714	265,081	-0,250	-0,306
98,728	155,555	-0,247	-0,238
99,743	364,728	-0,162	-0,229
100,757	-5,913	-0,445	-0,212
101,772	41,457	-0,310	-0,196
102,787	348,814	-0,167	-0,231
103,801	481,149	-0,183	-0,292
104,816	86,371	-0,274	-0,211
105,830	286,991	-0,111	-0,140
106,845	-60,125	-0,275	-0,082
107,860	-6,650	-0,203	-0,096
108,874	-27,120	-0,321	-0,130
109,889	16,086	-0,280	-0,154
110,903	84,126	-0,336	-0,257
111,918	259,342	-0,178	-0,215
112,933	-62,155	-0,249	-0,072
113,947	-30,589	-0,326	-0,128
114,962	54,549	-0,137	-0,092
115,976	-48,103	-0,283	-0,095
116,991	-70,226	-0,285	-0,075
118,006	-43,364	-0,261	-0,092
119,020	377,726	-0,160	-0,229
120,035	226,873	-0,165	-0,187
121,049	176,295	-0,192	-0,195
122,064	96,786	-0,246	-0,196
123,079	-36,053	-0,486	-0,183
124,093	336,883	-0,211	-0,287
125,108	86,533	-0,258	-0,198
126,122	299,283	-0,098	-0,126
127,137	123,828	-0,216	-0,189
128,151	60,535	-0,269	-0,186
129,166	89,810	-0,241	-0,188
130,181	1,043	-0,323	-0,161
131,195	29,327	-0,294	-0,174
132,210	67,103	-0,182	-0,129
133,224	-56,079	-0,294	-0,091
134,239	92,296	-0,342	-0,269
135,254	50,446	-0,336	-0,221
136,268	196,378	-0,177	-0,188
137,283	-37,144	-0,304	-0,113
138,297	96,938	-0,214	-0,171
139,312	70,353	-0,374	-0,269
140,327	257,994	-0,247	-0,298
141,341	-18,562	-0,275	-0,119
142,356	-69,088	-0,316	-0,084
143,370	40,236	-0,176	-0,110
144,385	-60,657	-0,208	-0,061
145,400	16,031	-0,308	-0,169
146,414	6,483	-0,305	-0,157
147,429	123,009	-0,310	-0,271
148,443	216,320	-0,187	-0,207
149,458	800,000	-0,066	-0,159
150,473	94,400	-0,190	-0,150
151,487	-26,623	-0,216	-0,088
152,502	-90,757	-0,385	-0,077
153,516	176,288	-0,324	-0,328
154,531	106,398	-0,220	-0,182
155,546	174,120	-0,149	-0,150
156,560	2,712	-0,322	-0,162
157,575	73,462	-0,191	-0,139
158,589	94,547	-0,248	-0,196
159,604	136,324	-0,174	-0,158
160,619	547,811	-0,201	-0,336
161,633	-23,628	-0,330	-0,137
162,648	111,507	-0,241	-0,202
163,662	-46,029	-0,243	-0,083
164,677	347,584	-0,166	-0,228
165,692	-52,792	-0,228	-0,073
166,706	29,875	-0,290	-0,172
167,721	90,403	-0,210	-0,164
168,735	91,577	-0,238	-0,186
169,750	-6,423	-0,237	-0,112
170,764	-120,368	-0,215	-0,025
171,779	-125,802	-0,343	0,036
172,794	90,223	-0,140	-0,109
173,808	197,757	-0,294	-0,312
174,823	168,038	-0,246	-0,243
175,837	233,322	-0,257	-0,295
176,852	-108,096	-0,263	-0,039
177,867	478,887	-0,077	-0,122
178,881	28,749	-0,251	-0,147
179,896	84,761	-0,256	-0,195
180,910	-88,892	-0,407	-0,083
181,925	-41,748	-0,216	-0,076
182,940	299,095	-0,210	-0,269
183,954	800,000	-0,102	-0,268
184,969	-43,446	-0,197	-0,069
185,983	5,819	-0,304	-0,156
186,998	302,646	-0,117	-0,151
188,013	246,158	-0,128	-0,150
189,027	185,076	-0,142	-0,146
190,042	800,000	-0,121	-0,356
191,056	97,013	-0,263	-0,209
192,071	27,384	-0,216	-0,126
193,086	71,787	-0,200	-0,144
194,100	21,195	-0,303	-0,170
195,115	34,918	-0,141	-0,085
196,129	74,265	-0,309	-0,225
197,144	800,000	-0,106	-0,205
198,159	183,497	-0,234	-0,240
199,173	800,000	-0,125	-0,253
200,188	-72,081	-0,127	-0,033
201,202	-58,451	-0,083	-0,025
202,217	20,797	-0,166	-0,093
203,232	268,479	-0,239	-0,291
204,246	260,910	-0,196	-0,236
205,261	37,868	-0,310	-0,191
206,275	129,193	-0,132	-0,117
207,290	-9,344	-0,215	-0,099
208,304	43,708	-0,188	-0,119
209,319	2,313	-0,169	-0,084
210,334	21,820	-0,215	-0,121
211,348	78,947	-0,275	-0,204
212,363	143,497	-0,255	-0,236
213,377	26,961	-0,223	-0,129
214,392	-13,412	-0,141	-0,063
215,407	-16,631	-0,136	-0,060
216,421	-94,175	-0,220	-0,041
217,436	32,450	-0,324	-0,193
218,450	190,718	-0,202	-0,210
219,465	-77,221	-0,315	-0,075
220,480	800,000	-0,143	-0,292
221,494	224,015	-0,083	-0,093
222,509	800,000	-0,123	-0,239
223,523	47,243	-0,153	-0,098
224,538	-28,648	-0,193	-0,077
225,553	800,000	-0,099	-0,297
226,567	-28,453	-0,236	-0,094
227,582	334,975	-0,185	-0,248
228,596	59,816	-0,184	-0,126
229,611	323,086	-0,156	-0,207
230,626	110,612	-0,157	-0,131
231,640	-6,260	-0,290	-0,136
232,655	549,040	-0,183	-0,305
233,669	-12,414	-0,267	-0,120
234,684	406,134	-0,099	-0,145
235,699	119,781	-0,126	-0,108
236,713	55,248	-0,143	-0,096
237,728	-200,000	0,004	-0,068
238,742	64,383	-0,213	-0,148
239,757	650,957	-0,121	-0,215
240,772	40,559	-0,255	-0,158
241,786	10,068	-0,213	-0,111
242,801	73,053	-0,162	-0,117
243,815	238,275	-0,165	-0,190
244,830	82,922	-0,224	-0,168
245,844	147,602	-0,197	-0,183
246,859	147,431	-0,150	-0,140
247,874	212,707	-0,224	-0,244
248,888	-10,324	-0,190	-0,087
249,903	108,850	-0,125	-0,103
250,917	-2,986	-0,164	-0,079
251,932	129,189	-0,158	-0,139
252,947	-162,645	-0,183	0,006
253,961	92,833	-0,109	-0,085
254,976	141,384	-0,206	-0,188
255,990	-29,615	-0,216	-0,085
257,005	70,232	-0,280	-0,199
258,020	-29,008	-0,223	-0,088
259,034	-102,954	-0,116	-0,019
260,049	-78,020	-0,144	-0,034
261,063	60,023	-0,108	-0,074
262,078	95,443	-0,226	-0,178
263,093	325,513	-0,177	-0,233
264,107	-103,934	-0,163	0,026
265,122	-127,401	-0,252	-0,025
266,136	332,654	-0,086	-0,115
267,151	-25,994	-0,231	-0,093
268,166	67,644	-0,157	-0,110
269,180	161,486	-0,196	-0,189
270,195	-200,000	-0,017	-0,061
271,209	23,283	-0,208	-0,118
272,224	66,764	-0,188	-0,132
273,239	73,274	-0,155	-0,112
274,253	157,647	-0,146	-0,140
275,268	-200,000	-0,010	-0,112
276,282	276,189	-0,196	-0,240
277,297	64,068	-0,324	-0,224
278,312	541,592	-0,101	-0,167
279,326	16,081	-0,173	-0,094
280,341	-87,998	-0,119	-0,024
281,355	595,145	-0,162	-0,277
282,370	68,283	-0,241	-0,170
283,384	130,327	-0,205	-0,181
284,399	-65,596	-0,193	-0,053
285,414	322,477	-0,149	-0,196
286,428	674,861	-0,063	-0,113
287,443	800,000	-0,049	-0,112
288,457	-200,000	-0,021	-0,183
289,472	-8,874	-0,151	-0,069
290,487	800,000	-0,066	-0,171
291,501	282,948	-0,078	-0,096
292,516	-98,197	-0,177	-0,031
293,530	378,578	-0,057	-0,080
294,545	-200,000	-0,048	-0,195
295,560	-200,000	-0,034	-0,145
296,574	427,593	-0,118	-0,176
297,589	179,357	-0,131	-0,132
298,603	35,691	-0,179	-0,108
299,618	87,481	-0,303	-0,230
300,633	525,176	-0,072	-0,116
301,647	37,062	-0,130	0,079
302,662	354,841	-0,146	-0,199
303,676	431,584	-0,187	-0,279
304,691	-59,469	-0,137	-0,040
305,706	216,035	-0,164	-0,179
306,720	136,148	-0,098	-0,088
307,735	33,425	-0,155	-0,092
308,749	-200,000	-0,018	-0,073
309,764	-9,271	-0,084	-0,038
310,779	-200,000	-0,011	-0,125
311,793	358,958	-0,075	-0,103
312,808	-28,389	-0,204	-0,080
313,822	-14,373	-0,203	0,089
314,837	30,122	-0,159	-0,093
315,852	78,866	-0,156	-0,114
316,866	63,703	0,138	-0,095
317,881	-38,070	-0,075	-0,027
318,895	-2,175	-0,171	-0,082
319,910	452,971	-0,157	-0,239
320,925	20,232	-0,162	-0,089
321,939	800,000	-0,094	-0,275
322,954	133,768	-0,211	-0,188
323,968	5,827	-0,140	-0,071
324,983	800,000	-0,044	-0,096
325,997	11,315	-0,115	-0,060
327,012	687,399	-0,075	-0,135
328,027	114,718	-0,210	-0,176
329,041	479,133	-0,087	-0,136
330,056	501,285	-0,051	-0,082
331,070	244,657	-0,099	-0,114
332,085	39,164	-0,089	-0,054
333,100	84,478	-0,173	-0,129
334,114	-200,000	-0,004	-0,093
335,129	138,507	-0,212	-0,190
336,143	-111,083	-0,212	-0,029
337,158	-89,013	-0,189	-0,038
338,173	-157,154	-0,151	0,006
339,187	-200,000	-0,038	-0,167
340,202	64,493	-0,206	-0,142
341,216	-26,572	-0,142	-0,057
342,231	72,961	-0,127	-0,091
343,246	392,368	-0,112	-0,161
344,260	203,114	-0,200	-0,211
345,275	152,115	-0,060	-0,056
346,289	11,769	-0,111	-0,058
347,304	9,408	-0,153	-0,079
348,319	-200,000	-0,063	-0,338
349,333	800,000	-0,102	-0,201
350,348	56,089	-0,117	-0,078
351,362	800,000	-0,084	-0,232
352,377	127,832	-0,159	-0,139
353,392	76,950	-0,115	0,083
354,406	259,931	-0,101	0,120
355,421	206,700	1313,990	1402,001
356,435	158,983	1474,590	1402,490
