DTS Sentinel unit serial number:	SN410029Multiplexer serial number:	ORYXHardware model number:	OX2-SRSoftware version number:	ORYX F/W v4,00 Oryx Data Collector v3.7.2.0data status	okinstallation	B3 Nyhavnadifferential loss correction	single-endedforward channel	channel 1reverse channel	N/Adate	2023/12/02time	17:52:30forward acquisition time	300,00reverse acquisition time	0,00gamma	499,1914k internal	0,3199k external	0,3199temperature offset calibration	1,0000default loss term (dB/km)	0,3820temperature slope calibration	1,0000multiplexer offset coefficient	1,0000multiplexer slope coefficient	1,0000fibre end	0,00T internal ref (°C)	13,74T ext. ref 1 (°C)	-1,63T ext. ref 2 (°C)	-1,65length (m)	temperature (°C)	Stokes	anti-Stokes-744,400	221,255	-0,220	-0,258
-743,385	-200,000	-0,042	0,233
-742,371	130,407	-0,223	-0,208
-741,356	-200,000	-0,013	0,355
-740,342	111,474	-0,156	-0,137
-739,327	-200,000	0,016	0,307
-738,312	165,462	-0,294	-0,303
-737,298	-200,000	0,065	0,291
-736,283	156,281	-0,287	-0,288
-735,269	800,000	0,147	0,355
-734,254	199,197	-0,142	-0,158
-733,239	-28,142	-0,158	0,066
-732,225	144,080	-0,085	-0,083
-731,210	-122,924	0,160	-0,019
-730,196	-200,000	0,014	0,047
-729,181	800,000	-0,017	-0,048
-728,167	355,021	0,056	-0,082
-727,152	-20,553	-0,090	0,040
-726,137	6,751	0,129	-0,070
-725,123	-146,262	0,171	0,011
-724,108	-66,197	-0,141	-0,041
-723,094	-200,000	-0,026	-0,156
-722,079	300,757	-0,030	-0,040
-721,064	-78,337	-0,068	-0,017
-720,050	141,456	0,125	0,120
-719,035	-15,691	-0,041	-0,019
-718,021	126,891	0,016	-0,015
-717,006	-107,595	-0,197	0,031
-715,991	135,609	0,177	-0,167
-714,977	110,318	0,098	-0,086
-713,962	57,842	0,162	0,115
-712,948	800,000	-0,056	0,153
-711,933	-87,527	-0,024	0,005
-710,918	800,000	-0,057	0,115
-709,904	-8,188	-0,081	-0,040
-708,889	87,533	-0,061	0,049
-707,875	-89,797	0,017	-0,004
-706,860	-106,675	-0,031	0,005
-705,845	-56,164	-0,079	-0,025
-704,831	-200,000	0,030	0,184
-703,816	22,980	-0,028	0,016
-702,802	131,456	-0,075	-0,070
-701,787	176,212	-0,055	-0,059
-700,772	794,979	0,076	-0,153
-699,758	-131,282	0,110	0,010
-698,743	386,893	0,037	0,056
-697,729	19,423	-0,026	-0,015
-696,714	211,274	-0,031	0,035
-695,699	-142,028	0,096	0,007
-694,685	-100,813	-0,046	0,008
-693,670	163,430	-0,073	-0,074
-692,656	-200,000	-0,003	-0,071
-691,641	800,000	0,008	0,022
-690,627	-34,738	0,088	0,035
-689,612	-87,931	-0,131	-0,028
-688,597	800,000	0,039	0,121
-687,583	-107,594	-0,099	0,016
-686,568	354,949	0,042	-0,060
-685,554	-200,000	0,013	0,105
-684,539	377,772	-0,019	0,028
-683,524	-200,000	0,015	-0,128
-682,510	-200,000	-0,002	-0,084
-681,495	-46,887	-0,095	0,033
-680,481	-125,258	-0,158	-0,017
-679,466	2,762	-0,148	-0,078
-678,451	4,304	0,063	0,033
-677,437	29,335	0,058	0,036
-676,422	-11,862	-0,108	0,051
-675,408	-200,000	-0,013	0,052
-674,393	-54,962	-0,118	-0,038
-673,378	-94,747	-0,116	-0,023
-672,364	100,157	0,046	0,038
-671,349	-200,000	0,028	-0,165
-670,335	-47,027	0,081	0,029
-669,320	-116,334	0,161	0,021
-668,305	627,819	-0,029	-0,054
-667,291	767,782	-0,032	0,063
-666,276	-115,297	-0,140	0,019
-665,262	34,127	-0,065	-0,041
-664,247	-81,380	0,109	0,026
-663,232	-13,396	0,107	-0,050
-662,218	-200,000	-0,003	-0,103
-661,203	-200,000	0,006	0,053
-660,189	800,000	0,069	0,159
-659,174	-200,000	-0,040	-0,174
-658,159	725,275	0,024	-0,047
-657,145	-200,000	0,005	0,085
-656,130	459,431	-0,083	-0,134
-655,116	-200,000	-0,012	-0,125
-654,101	136,642	-0,061	0,058
-653,086	258,939	-0,020	0,024
-652,072	-200,000	0,020	-0,080
-651,057	175,751	-0,147	-0,154
-650,043	-80,102	0,097	-0,023
-649,028	291,314	-0,048	-0,063
-648,014	-6,513	0,103	0,051
-646,999	800,000	0,039	0,106
-645,984	-200,000	0,039	0,130
-644,970	-200,000	-0,009	-0,139
-643,955	112,459	-0,056	-0,049
-642,941	122,744	0,006	0,005
-641,926	-200,000	0,010	0,033
-640,911	-200,000	-0,001	-0,072
-639,897	-35,272	0,111	-0,043
-638,882	411,065	0,011	0,018
-637,868	-124,274	-0,022	-0,002
-636,853	-31,255	-0,074	0,030
-635,838	-200,000	0,001	-0,055
-634,824	-98,622	0,080	0,015
-633,809	117,406	-0,045	-0,040
-632,795	800,000	0,034	0,095
-631,780	-200,000	-0,003	0,031
-630,765	449,908	0,020	-0,033
-629,751	-41,063	0,071	0,026
-628,736	-155,372	-0,123	0,006
-627,722	800,000	0,052	0,129
-626,707	-55,396	0,118	-0,038
-625,692	-174,727	-0,121	-0,002
-624,678	-11,032	0,161	-0,077
-623,663	-200,000	-0,024	-0,118
-622,649	-35,638	-0,067	0,026
-621,634	-40,637	0,052	0,020
-620,619	-53,570	-0,140	-0,046
-619,605	3,332	0,108	-0,057
-618,590	47,882	0,026	-0,017
-617,576	214,623	0,072	0,083
-616,561	-16,053	-0,054	-0,025
-615,546	-173,199	-0,137	0,003
-614,532	-68,905	-0,046	-0,013
-613,517	172,393	0,078	-0,081
-612,503	-159,806	-0,062	0,002
-611,488	83,443	-0,133	0,104
-610,474	84,237	0,112	0,088
-609,459	35,681	0,077	-0,049
-608,444	69,171	0,073	-0,054
-607,430	-200,000	-0,009	0,067
-606,415	-24,385	0,106	-0,046
-605,401	61,323	-0,038	-0,027
-604,386	98,749	0,073	-0,061
-603,371	212,641	-0,056	-0,064
-602,357	66,447	0,069	0,051
-601,342	-97,575	0,041	0,008
-600,328	-200,000	0,014	0,076
-599,313	137,792	-0,062	-0,059
-598,298	-133,889	-0,188	-0,017
-597,284	800,000	-0,027	0,060
-596,269	-103,828	-0,081	-0,014
-595,255	800,000	0,023	0,048
-594,240	-22,338	-0,083	0,036
-593,225	244,454	-0,074	-0,090
-592,211	20,682	-0,091	0,053
-591,196	-130,364	-0,056	0,005
-590,182	188,658	0,100	0,108
-589,167	47,655	-0,020	-0,014
-588,152	800,000	0,021	0,063
-587,138	412,594	0,024	-0,037
-586,123	-200,000	-0,001	-0,024
-585,109	800,000	0,025	0,060
-584,094	0,242	0,090	-0,046
-583,079	41,713	-0,009	0,006
-582,065	101,214	0,099	0,084
-581,050	800,000	0,038	0,085
-580,036	3,183	-0,088	-0,046
-579,021	-108,355	0,102	-0,016
-578,006	-77,611	-0,191	-0,047
-576,992	-200,000	-0,029	-0,104
-575,977	143,664	0,041	-0,039
-574,963	151,843	-0,014	-0,013
-573,948	61,415	0,015	0,011
-572,934	-89,148	0,039	-0,008
-571,919	-200,000	-0,007	0,032
-570,904	582,128	0,013	0,024
-569,890	16,740	-0,079	-0,045
-568,875	-200,000	0,001	0,050
-567,861	538,434	0,047	0,081
-566,846	-6,011	0,090	-0,045
-565,831	-62,781	-0,109	-0,032
-564,817	-94,084	-0,064	-0,013
-563,802	-9,601	0,062	-0,030
-562,788	22,805	0,029	-0,017
-561,773	-54,624	0,130	-0,042
-560,758	-148,630	0,081	0,005
-559,744	-132,809	-0,080	-0,007
-558,729	-200,000	0,006	0,130
-557,715	75,552	0,039	-0,030
-556,700	-40,863	0,061	-0,023
-555,685	92,668	-0,109	-0,089
-554,671	800,000	-0,033	-0,080
-553,656	-17,252	0,086	-0,039
-552,642	-200,000	0,029	-0,110
-551,627	99,714	0,034	-0,028
-550,612	-143,726	-0,129	0,009
-549,598	800,000	0,033	-0,094
-548,583	330,174	0,034	-0,047
-547,569	-61,837	-0,051	-0,015
-546,554	11,833	0,081	0,045
-545,539	114,158	0,107	0,094
-544,525	42,730	-0,092	0,060
-543,510	236,706	-0,047	-0,057
-542,496	-200,000	-0,013	-0,110
-541,481	-200,000	-0,021	-0,136
-540,466	800,000	0,051	-0,147
-539,452	-82,035	0,144	-0,034
-538,437	-53,195	-0,054	0,018
-537,423	172,910	0,022	0,022
-536,408	-124,901	-0,030	0,003
-535,393	290,425	-0,037	0,049
-534,379	-200,000	0,011	-0,042
-533,364	152,612	0,086	-0,085
-532,350	43,499	0,067	0,044
-531,335	-200,000	0,036	0,209
-530,321	111,627	0,068	-0,059
-529,306	-200,000	0,011	0,056
-528,291	-200,000	-0,002	-0,066
-527,277	-67,549	-0,081	-0,023
-526,262	-93,616	-0,015	-0,003
-525,248	179,212	-0,070	0,074
-524,233	-200,000	0,046	-0,175
-523,218	46,801	0,031	-0,020
-522,204	800,000	0,020	0,051
-521,189	-200,000	-0,037	-0,126
-520,175	473,985	-0,139	-0,227
-519,160	-200,000	-0,013	-0,060
-518,145	-102,285	0,005	-0,001
-517,131	228,283	0,067	0,078
-516,116	-200,000	0,008	0,056
-515,102	395,431	-0,088	-0,132
-514,087	-115,318	-0,132	-0,018
-513,072	542,859	-0,044	0,076
-512,058	-200,000	-0,000	-0,044
-511,043	264,411	0,030	-0,038
-510,029	-126,649	0,072	-0,008
-509,014	228,260	0,099	0,117
-507,999	-200,000	-0,005	0,017
-506,985	-200,000	0,006	0,031
-505,970	-200,000	0,013	-0,070
-504,956	-88,805	-0,177	-0,038
-503,941	-155,032	0,178	0,008
-502,926	-77,103	0,127	0,032
-501,912	-200,000	0,027	0,119
-500,897	-154,835	-0,119	-0,006
-499,883	23,855	-0,077	-0,046
-498,868	74,734	-0,018	-0,014
-497,853	48,492	0,024	0,016
-496,839	800,000	-0,038	0,119
-495,824	292,340	-0,028	-0,037
-494,810	134,631	-0,129	0,121
-493,795	-29,240	0,057	-0,024
-492,781	118,059	0,070	0,062
-491,766	-6,371	-0,054	-0,026
-490,751	3,901	-0,062	-0,032
-489,737	-185,610	0,127	0,001
-488,722	397,578	0,129	0,195
-487,708	91,710	0,076	0,062
-486,693	800,000	0,008	0,022
-485,678	257,341	-0,082	0,101
-484,664	800,000	0,020	0,045
-483,649	122,989	0,044	0,040
-482,635	435,465	0,035	-0,056
-481,620	800,000	-0,057	0,131
-480,605	-24,374	-0,078	0,033
-479,591	585,217	-0,025	0,045
-478,576	-200,000	-0,019	-0,112
-477,562	210,020	0,042	0,047
-476,547	-12,819	-0,145	-0,068
-475,532	28,506	0,060	0,036
-474,518	-56,613	-0,008	0,002
-473,503	-140,242	0,069	0,005
-472,489	-122,496	-0,166	0,019
-471,474	123,082	0,139	-0,125
-470,459	594,706	-0,012	0,021
-469,445	-200,000	-0,018	-0,066
-468,430	800,000	0,051	0,125
-467,416	-109,765	0,073	0,011
-466,401	137,367	-0,017	-0,016
-465,386	-200,000	-0,004	-0,067
-464,372	3,762	-0,071	-0,037
-463,357	786,705	0,020	0,040
-462,343	2,351	-0,149	-0,077
-461,328	-115,529	-0,115	0,015
-460,313	-200,000	0,015	-0,123
-459,299	68,120	0,054	-0,039
-458,284	-200,000	-0,006	-0,172
-457,270	800,000	-0,032	0,077
-456,255	-56,962	-0,053	-0,017
-455,241	-80,503	-0,125	-0,030
-454,226	156,902	-0,069	-0,069
-453,211	-96,994	0,059	0,011
-452,197	-59,335	0,065	-0,020
-451,182	502,349	-0,018	0,030
-450,168	-66,357	0,085	0,024
-449,153	-107,911	0,095	-0,015
-448,138	800,000	-0,046	0,111
-447,124	24,765	-0,087	-0,052
-446,109	-43,681	0,074	0,027
-445,095	-200,000	0,018	0,129
-444,080	-22,551	0,034	0,015
-443,065	-200,000	0,008	0,026
-442,051	98,573	0,045	0,038
-441,036	-80,428	-0,064	-0,015
-440,022	-112,022	-0,077	0,011
-439,007	39,212	0,037	-0,023
-437,992	376,283	-0,058	0,086
-436,978	450,994	0,079	0,126
-435,963	-200,000	0,011	0,099
-434,949	198,139	-0,076	0,084
-433,934	412,148	0,081	-0,124
-432,919	-136,575	-0,057	-0,005
-431,905	-200,000	0,005	-0,068
-430,890	80,318	-0,047	-0,036
-429,876	-200,000	-0,002	-0,043
-428,861	-131,748	0,078	0,007
-427,846	-200,000	-0,016	-0,065
-426,832	-160,730	-0,016	0,001
-425,817	800,000	-0,028	-0,074
-424,803	-200,000	0,030	-0,159
-423,788	-200,000	0,006	-0,031
-422,773	298,404	0,061	0,081
-421,759	800,000	0,004	0,010
-420,744	-200,000	0,031	0,103
-419,730	-134,857	-0,058	0,005
-418,715	-200,000	0,026	-0,099
-417,701	-115,000	-0,126	-0,017
-416,686	63,200	-0,045	0,032
-415,671	464,423	0,055	0,088
-414,657	-200,000	0,003	0,201
-413,642	-200,000	-0,003	0,082
-412,628	-200,000	-0,000	-0,219
-411,613	284,413	-0,056	-0,073
-410,598	-200,000	0,001	0,034
-409,584	-130,835	-0,040	0,004
-408,569	-200,000	0,008	-0,108
-407,555	10,821	0,134	0,073
-406,540	800,000	-0,003	-0,007
-405,525	-200,000	0,002	-0,054
-404,511	800,000	-0,056	-0,139
-403,496	-13,581	0,027	-0,012
-402,482	-200,000	0,033	-0,127
-401,467	-200,000	0,069	0,249
-400,452	445,710	0,028	0,045
-399,438	16,351	-0,153	-0,086
-398,423	182,156	-0,039	-0,041
-397,409	-94,504	-0,031	-0,006
-396,394	32,619	0,148	-0,092
-395,379	800,000	0,028	0,063
-394,365	-120,694	0,021	0,003
-393,350	52,645	0,081	0,056
-392,336	123,834	-0,051	-0,046
-391,321	-200,000	0,039	0,136
-390,306	-158,769	-0,039	-0,002
-389,292	27,950	-0,044	-0,027
-388,277	800,000	0,011	0,034
-387,263	119,981	-0,120	0,107
-386,248	-200,000	0,037	0,143
-385,233	-200,000	-0,007	0,054
-384,219	-29,113	-0,069	-0,028
-383,204	-173,065	0,048	-0,001
-382,190	135,623	-0,109	-0,102
-381,175	800,000	-0,009	-0,018
-380,160	-200,000	-0,004	0,064
-379,146	-27,882	0,121	-0,050
-378,131	691,233	0,052	0,098
-377,117	175,444	-0,049	0,051
-376,102	-68,562	-0,080	-0,022
-375,088	-200,000	0,021	0,106
-374,073	-100,214	0,084	-0,015
-373,058	202,306	0,138	0,153
-372,044	-111,520	0,092	0,013
-371,029	800,000	-0,035	0,077
-370,015	-11,140	-0,045	-0,021
-369,000	122,557	0,074	0,066
-367,985	568,767	-0,025	0,043
-366,971	513,235	-0,051	-0,085
-365,956	229,252	-0,082	0,096
-364,942	-200,000	-0,012	0,078
-363,927	-94,299	0,173	0,034
-362,912	-38,423	0,099	-0,037
-361,898	315,282	-0,096	-0,131
-360,883	-200,000	0,020	-0,105
-359,869	-93,185	0,128	0,025
-358,854	800,000	-0,055	0,133
-357,839	800,000	-0,043	0,121
-356,825	532,226	0,081	0,137
-355,810	128,104	0,043	0,039
-354,796	-144,040	0,068	0,004
-353,781	800,000	0,029	0,069
-352,766	235,271	-0,064	-0,076
-351,752	800,000	-0,015	0,033
-350,737	45,727	0,052	-0,034
-349,723	245,541	0,024	-0,029
-348,708	-200,000	0,015	-0,188
-347,693	-134,602	-0,065	0,006
-346,679	103,799	-0,046	-0,039
-345,664	800,000	0,042	-0,117
-344,650	-28,823	-0,092	-0,038
-343,635	531,853	-0,063	0,108
-342,620	420,872	0,067	-0,103
-341,606	131,057	0,115	0,106
-340,591	-200,000	0,011	-0,101
-339,577	-143,425	-0,046	0,003
-338,562	198,260	0,025	-0,027
-337,548	-72,544	0,037	0,010
-336,533	716,584	0,052	0,098
-335,518	-35,476	-0,028	-0,011
-334,504	135,062	0,032	-0,030
-333,489	87,757	-0,026	-0,021
-332,475	-66,692	-0,126	-0,035
-331,460	800,000	0,023	0,047
-330,445	-106,609	0,056	0,009
-329,431	210,040	0,047	0,053
-328,416	-167,694	0,076	-0,002
-327,402	-12,645	0,043	0,020
-326,387	800,000	-0,023	-0,055
-325,372	100,556	-0,133	-0,110
-324,358	57,149	-0,035	0,024
-323,343	141,729	0,087	0,083
-322,329	-200,000	0,005	-0,037
-321,314	800,000	-0,048	0,108
-320,299	478,506	0,064	0,104
-319,285	800,000	-0,026	0,056
-318,270	158,604	0,014	-0,013
-317,256	-200,000	-0,019	-0,092
-316,241	-77,545	-0,057	0,014
-315,226	-200,000	0,022	0,136
-314,212	-200,000	0,015	-0,050
-313,197	800,000	0,027	-0,075
-312,183	-56,067	0,174	-0,055
-311,168	-40,383	-0,136	-0,050
-310,153	-200,000	0,022	-0,127
-309,139	565,569	-0,040	-0,069
-308,124	142,808	0,102	0,097
-307,110	800,000	-0,037	0,084
-306,095	-108,018	-0,094	0,015
-305,080	800,000	-0,037	-0,078
-304,066	18,969	-0,080	-0,046
-303,051	800,000	-0,023	-0,052
-302,037	-68,013	-0,083	0,023
-301,022	30,253	-0,078	-0,048
-300,008	207,240	0,059	-0,066
-298,993	212,043	-0,103	0,117
-297,978	-200,000	-0,023	-0,081
-296,964	-9,647	-0,162	-0,077
-295,949	174,430	0,013	0,013
-294,935	-76,318	-0,092	-0,023
-293,920	-200,000	0,007	0,113
-292,905	197,609	0,040	0,044
-291,891	800,000	0,024	-0,075
-290,876	17,305	0,138	0,078
-289,862	-182,237	0,095	0,001
-288,847	800,000	-0,033	0,069
-287,832	-200,000	-0,015	-0,048
-286,818	-78,955	-0,092	0,022
-285,803	-200,000	0,000	-0,064
-284,789	130,577	0,056	0,051
-283,774	15,642	0,009	0,005
-282,759	-200,000	0,002	0,084
-281,745	-200,000	0,001	0,084
-280,730	-200,000	0,008	-0,033
-279,716	732,806	0,056	-0,108
-278,701	263,910	0,074	-0,093
-277,686	248,134	0,041	0,049
-276,672	490,541	-0,040	-0,066
-275,657	225,758	-0,073	-0,085
-274,643	-37,418	0,061	0,023
-273,628	213,071	-0,036	-0,041
-272,613	322,615	0,051	-0,070
-271,599	-162,343	-0,079	-0,003
-270,584	143,256	-0,123	-0,117
-269,570	800,000	0,021	0,054
-268,555	-200,000	0,010	0,067
-267,540	198,633	-0,089	0,097
-266,526	216,348	0,023	-0,026
-265,511	223,847	-0,073	0,084
-264,497	-162,220	0,045	-0,002
-263,482	399,750	0,066	0,099
-262,467	800,000	0,073	0,153
-261,453	241,169	-0,020	0,024
-260,438	263,766	-0,111	0,138
-259,424	-200,000	-0,011	-0,063
-258,409	-200,000	0,000	0,071
-257,395	-17,965	0,066	-0,029
-256,380	-172,369	0,041	0,001
-255,365	65,651	0,072	0,052
-254,351	-200,000	-0,001	-0,031
-253,336	140,147	0,087	-0,082
-252,322	-200,000	-0,008	0,029
-251,307	-200,000	-0,042	-0,162
-250,292	-200,000	-0,005	-0,052
-249,278	87,088	0,069	-0,054
-248,263	751,789	0,074	0,144
-247,249	-101,113	-0,153	-0,027
-246,234	393,800	0,019	0,028
-245,219	70,211	-0,050	0,037
-244,205	-200,000	0,030	-0,120
-243,190	-200,000	0,002	0,174
-242,176	-106,484	0,105	0,017
-241,161	-200,000	0,012	0,090
-240,146	623,992	0,029	0,052
-239,132	-21,098	0,013	0,006
-238,117	-24,488	-0,126	0,053
-237,103	300,512	-0,044	-0,058
-236,088	749,690	0,028	0,053
-235,073	-200,000	0,001	0,136
-234,059	-200,000	-0,005	-0,076
-233,044	-43,389	0,111	0,040
-232,030	-200,000	0,005	-0,059
-231,015	711,121	-0,062	-0,118
-230,000	-142,822	0,121	-0,008
-228,986	212,173	0,083	0,094
-227,971	314,120	-0,018	0,024
-226,957	-58,726	0,051	-0,016
-225,942	90,852	-0,010	-0,008
-224,927	579,340	0,102	-0,179
-223,913	-200,000	0,007	-0,155
-222,898	-15,227	0,140	-0,064
-221,884	396,575	0,054	-0,081
-220,869	-76,696	0,130	0,032
-219,855	133,471	-0,005	-0,005
-218,840	-101,759	0,092	0,016
-217,825	377,344	-0,044	0,065
-216,811	343,707	-0,107	-0,150
-215,796	-200,000	0,038	-0,126
-214,782	4,937	0,144	-0,075
-213,767	22,445	-0,141	0,082
-212,752	9,806	0,104	0,056
-211,738	18,069	-0,043	0,024
-210,723	800,000	-0,085	0,213
-209,709	800,000	0,022	-0,058
-208,694	800,000	-0,029	-0,078
-207,679	10,511	-0,034	-0,018
-206,665	-200,000	0,017	0,076
-205,650	239,209	0,028	0,033
-204,636	-25,572	0,027	-0,011
-203,621	154,197	0,016	0,016
-202,606	-200,000	0,008	0,111
-201,592	-105,592	-0,202	-0,032
-200,577	-200,000	0,011	0,078
-199,563	-38,170	-0,076	0,029
-198,548	-200,000	-0,012	0,063
-197,533	-200,000	-0,024	0,089
-196,519	-200,000	0,029	0,149
-195,504	800,000	-0,040	-0,112
-194,490	800,000	-0,050	-0,128
-193,475	-200,000	0,003	-0,180
-192,460	-85,293	-0,105	0,023
-191,446	-200,000	-0,008	0,095
-190,431	29,918	-0,043	0,026
-189,417	238,117	0,096	0,114
-188,402	266,572	-0,094	-0,117
-187,387	-200,000	0,037	0,127
-186,373	-64,575	-0,164	-0,047
-185,358	85,075	-0,016	0,013
-184,344	-28,706	0,130	-0,053
-183,329	-200,000	0,007	0,106
-182,315	-67,494	0,072	0,020
-181,300	335,784	0,026	-0,036
-180,285	49,400	-0,097	-0,065
-179,271	-200,000	-0,008	0,101
-178,256	16,580	-0,046	0,026
-177,242	641,121	-0,023	-0,043
-176,227	-200,000	-0,009	0,031
-175,212	-200,000	0,009	-0,087
-174,198	800,000	0,046	-0,106
-173,183	800,000	-0,010	-0,033
-172,169	89,978	-0,064	-0,051
-171,154	-25,568	0,058	-0,024
-170,139	-200,000	-0,003	0,080
-169,125	800,000	0,056	-0,153
-168,110	-66,502	-0,043	-0,012
-167,096	-200,000	-0,023	-0,143
-166,081	45,292	-0,095	-0,062
-165,066	-143,768	-0,118	0,008
-164,052	800,000	0,025	-0,051
-163,037	-8,242	0,181	0,087
-162,023	400,143	-0,048	0,073
-161,008	-44,843	0,093	-0,033
-159,993	595,869	0,053	-0,093
-158,979	-182,335	-0,172	-0,002
-157,964	-87,904	0,017	-0,004
-156,950	-87,159	-0,228	-0,049
-155,935	-200,000	0,007	0,028
-154,920	34,085	-0,099	0,061
-153,906	33,722	-0,045	0,028
-152,891	-200,000	-0,010	0,051
-151,877	800,000	-0,075	-0,158
-150,862	226,879	-0,069	-0,080
-149,847	-173,193	-0,093	0,002
-148,833	-200,000	-0,015	0,060
-147,818	-99,270	0,044	0,008
-146,804	-141,357	-0,037	0,003
-145,789	-121,812	0,069	-0,008
-144,775	224,188	0,054	-0,062
-143,760	75,751	0,103	0,077
-142,745	52,145	-0,158	0,107
-141,731	-46,631	0,085	0,030
-140,716	-117,657	0,035	0,004
-139,702	192,990	-0,034	-0,037
-138,687	-21,817	-0,030	-0,013
-137,672	-105,323	0,056	-0,009
-136,658	145,420	0,102	-0,097
-135,643	-9,283	-0,132	-0,062
-134,629	-200,000	-0,003	-0,038
-133,614	800,000	0,013	-0,030
-132,599	-200,000	-0,019	0,223
-131,585	-0,254	0,028	-0,014
-130,570	800,000	0,012	-0,034
-129,556	-200,000	0,051	0,000
-128,541	-200,000	-0,014	-0,070
-127,526	-200,000	0,009	0,029
-126,512	-200,000	-0,009	0,054
-125,497	-200,000	0,016	0,081
-124,483	53,495	0,077	0,052
-123,468	800,000	-0,020	0,058
-122,453	-200,000	-0,022	-0,204
-121,439	-8,588	0,133	-0,063
-120,424	-52,874	0,076	-0,025
-119,410	-200,000	0,004	-0,039
-118,395	-56,472	-0,034	0,011
-117,380	-72,681	-0,097	-0,025
-116,366	200,289	-0,120	-0,131
-115,351	-98,828	-0,107	-0,019
-114,337	800,000	-0,065	-0,165
-113,322	144,099	0,026	-0,025
-112,307	144,892	-0,047	-0,044
-111,293	150,154	0,056	-0,054
-110,278	-10,039	0,146	-0,068
-109,264	125,487	-0,075	0,067
-108,249	112,575	0,120	-0,103
-107,234	272,244	-0,090	0,113
-106,220	-92,567	-0,034	0,007
-105,205	254,956	0,037	-0,045
-104,191	18,689	0,025	-0,014
-103,176	-55,506	0,035	-0,011
-102,162	318,765	0,038	0,051
-101,147	-200,000	0,020	-0,092
-100,132	136,501	-0,069	-0,063
-99,118	-200,000	-0,026	-0,114
-98,103	-4,968	-0,030	-0,015
-97,089	-200,000	-0,004	0,121
-96,074	-200,000	0,004	0,064
-95,059	37,961	-0,044	0,028
-94,045	-65,685	0,043	0,012
-93,030	13,939	0,081	0,045
-92,016	-200,000	0,004	-0,077
-91,001	-116,573	-0,096	0,012
-89,986	-126,288	-0,119	-0,012
-88,972	-200,000	-0,029	0,141
-87,957	800,000	-0,013	0,038
-86,943	-18,751	0,099	-0,044
-85,928	-200,000	0,047	0,164
-84,913	4,170	0,138	-0,071
-83,899	-200,000	-0,016	-0,127
-82,884	-74,224	-0,039	-0,010
-81,870	586,068	0,042	0,073
-80,855	-121,248	0,062	-0,007
-79,840	-32,291	0,075	-0,030
-78,826	110,745	-0,076	-0,065
-77,811	800,000	0,012	-0,034
-76,797	729,179	-0,053	-0,101
-75,782	117,173	-0,029	0,025
-74,767	167,651	-0,047	0,047
-73,753	800,000	0,078	0,158
-72,738	66,377	-0,113	0,081
-71,724	165,020	0,054	-0,054
-70,709	-200,000	-0,015	0,118
-69,694	96,969	-0,092	0,075
-68,680	-200,000	0,015	0,073
-67,665	-200,000	-0,038	0,124
-66,651	-200,000	0,010	0,130
-65,636	218,373	-0,040	0,045
-64,622	122,543	0,100	0,089
-63,607	85,929	-0,048	0,038
-62,592	87,045	-0,013	-0,011
-61,578	-200,000	-0,010	-0,050
-60,563	-49,993	0,125	-0,042
-59,549	-24,464	0,133	0,056
-58,534	-10,658	-1,604	-0,749
-57,519	453,886	-1,272	-2,003
-56,505	-200,000	-0,429	-4,518
-55,490	193,010	0,975	1,045
-54,476	800,000	4,915	11,430
-53,461	-200,000	19,002	315,245
-52,446	-200,000	739,631	2329,444
-51,432	575,524	1655,421	2874,711
-50,417	78,892	1671,177	1265,665
-49,403	21,730	1543,729	888,123
-48,388	15,589	1466,194	813,654
-47,373	17,914	1456,324	819,385
-46,359	16,780	1446,649	808,466
-45,344	13,893	1441,725	791,850
-44,330	13,804	1439,666	790,260
-43,315	13,781	1437,996	789,204
-42,300	13,789	1436,453	788,365
-41,286	13,817	1435,167	787,762
-40,271	13,785	1433,769	786,807
-39,257	13,758	1432,638	786,031
-38,242	13,808	1431,371	785,540
-37,227	13,838	1430,143	784,978
-36,213	13,849	1428,702	784,207
-35,198	13,868	1427,468	783,588
-34,184	13,890	1426,781	783,286
-33,169	13,787	1425,398	782,010
-32,154	13,870	1424,130	781,672
-31,140	13,828	1423,058	780,855
-30,125	13,847	1422,020	780,344
-29,111	13,845	1420,904	779,693
-28,096	13,856	1419,483	778,932
-27,082	13,774	1418,505	777,980
-26,067	13,803	1417,294	777,422
-25,052	13,763	1416,496	776,766
-24,038	13,757	1415,309	776,057
-23,023	13,749	1414,362	775,468
-22,009	13,776	1413,216	774,932
-20,994	13,726	1412,534	774,297
-19,979	13,715	1411,686	773,749
-18,965	13,718	1410,803	773,249
-17,950	13,691	1409,772	772,525
-16,936	13,752	1408,668	772,174
-15,921	13,682	1407,480	771,165
-14,906	13,674	1406,874	770,764
-13,892	13,686	1405,808	770,207
-12,877	13,654	1405,020	769,595
-11,863	13,736	1404,009	769,395
-10,848	13,678	1403,209	768,652
-9,833	13,630	1402,168	767,830
-8,819	13,575	1401,426	767,138
-7,804	13,608	1400,449	766,725
-6,790	13,578	1399,388	765,974
-5,775	13,561	1398,521	765,392
-4,760	13,589	1397,441	764,900
-3,746	13,591	1396,646	764,443
-2,731	13,570	1395,827	763,867
-1,717	13,556	1394,988	763,312
-0,702	13,543	1393,151	762,215
0,313	17,220	1310,719	734,210
1,327	33,253	705,221	432,182
2,342	51,130	123,590	82,850
3,356	-0,480	16,751	8,390
4,371	5,917	3,232	1,688
5,386	2,789	0,579	0,296
6,400	-200,000	0,001	0,078
7,415	-150,642	-0,221	0,012
8,429	309,147	-0,150	-0,199
9,444	-20,670	-0,442	-0,191
10,459	34,271	-0,243	-0,150
11,473	97,593	-0,320	-0,260
12,488	28,404	-0,301	-0,180
13,502	19,728	-0,316	-0,180
14,517	-64,800	-0,348	-0,099
15,531	75,659	-0,449	-0,335
16,546	178,862	-0,252	-0,261
17,561	110,184	-0,492	-0,418
18,575	2,111	-0,243	-0,124
19,590	161,885	-0,141	-0,139
20,604	-126,447	-0,300	-0,031
21,619	-19,761	-0,498	-0,217
22,634	56,558	-0,490	-0,337
23,648	-11,287	-0,398	-0,184
24,663	74,800	-0,384	-0,285
25,677	94,637	-0,269	-0,216
26,692	323,106	-0,257	-0,347
27,707	295,733	-0,323	-0,419
28,721	85,975	-0,347	-0,269
29,736	-16,188	-0,364	-0,163
30,750	87,032	-0,426	-0,332
31,765	72,883	-0,326	-0,240
32,780	216,945	-0,299	-0,337
33,794	-79,966	-0,504	-0,119
34,809	155,651	-0,371	-0,361
35,823	47,851	-0,461	-0,303
36,838	119,750	-0,325	-0,284
37,853	77,586	-0,271	-0,203
38,867	69,454	-0,430	-0,312
39,882	55,314	-0,289	-0,197
40,896	86,450	-0,364	-0,283
41,911	164,137	-0,321	-0,319
42,926	-20,822	-0,459	-0,197
43,940	274,141	-0,298	-0,373
44,955	145,287	-0,469	-0,443
45,969	151,301	-0,350	-0,336
46,984	78,482	-0,434	-0,326
47,999	41,900	-0,353	-0,226
49,013	34,959	-0,304	-0,187
50,028	-54,274	-0,308	-0,098
51,042	116,397	-0,347	-0,300
52,057	119,478	-0,355	-0,310
53,071	275,777	-0,249	-0,312
54,086	12,199	-0,329	-0,178
55,101	97,114	-0,321	-0,259
56,115	-2,261	-0,365	-0,180
57,130	-97,906	-0,392	-0,071
58,144	-7,812	-0,358	-0,170
59,159	62,027	-0,322	-0,226
60,174	177,245	-0,326	-0,334
61,188	1,037	-0,362	-0,182
62,203	102,859	-0,304	-0,251
63,217	144,658	-0,259	-0,243
64,232	43,146	-0,347	-0,223
65,247	108,930	-0,364	-0,306
66,261	14,110	-0,361	-0,197
67,276	174,447	-0,281	-0,286
68,290	408,163	-0,233	-0,349
69,305	213,026	-0,307	-0,341
70,320	77,311	-0,275	-0,206
71,334	-46,296	-0,384	-0,132
72,349	41,898	-0,406	-0,258
73,363	7,870	-0,423	-0,222
74,378	-87,123	-0,372	-0,079
75,393	76,674	-0,299	-0,223
76,407	37,952	-0,275	-0,171
77,422	149,082	-0,180	-0,171
78,436	-19,167	-0,231	-0,100
79,451	65,970	-0,165	-0,117
80,466	-1,857	-0,414	-0,204
81,480	324,144	-0,173	-0,233
82,495	130,025	-0,305	-0,275
83,509	19,732	-0,265	-0,149
84,524	67,646	-0,208	-0,149
85,539	38,137	-0,308	-0,192
86,553	53,249	-0,353	-0,237
87,568	22,369	-0,305	-0,174
88,582	-200,000	-0,123	-0,424
89,597	55,802	-0,395	-0,269
90,611	-110,352	-0,384	-0,055
91,626	97,624	-0,366	-0,295
92,641	-11,019	-0,269	-0,124
93,655	96,951	-0,254	-0,205
94,670	33,497	-0,236	-0,143
95,684	-70,765	-0,330	-0,087
96,699	264,890	-0,332	-0,407
97,714	280,159	-0,191	-0,240
98,728	-25,827	-0,213	-0,088
99,743	-132,155	-0,263	-0,024
100,757	173,719	-0,173	-0,176
101,772	22,539	-0,278	-0,159
102,787	-181,948	-0,237	-0,003
103,801	196,801	-0,247	-0,265
104,816	-24,732	-0,247	-0,102
105,830	70,978	-0,241	-0,175
106,845	93,623	-0,188	-0,149
107,860	218,710	-0,193	-0,216
108,874	127,727	-0,285	-0,254
109,889	153,848	-0,323	-0,311
110,903	1,727	-0,306	-0,154
111,918	192,211	-0,135	-0,143
112,933	14,907	-0,283	-0,155
113,947	304,045	-0,172	-0,224
114,962	377,971	-0,208	-0,300
115,976	6,664	-0,269	-0,140
116,991	71,699	-0,295	-0,215
118,006	55,066	-0,317	-0,214
119,020	34,289	-0,235	-0,143
120,035	-39,100	-0,333	-0,122
121,049	-42,101	-0,335	-0,119
122,064	406,127	-0,211	-0,312
123,079	60,785	-0,248	-0,172
124,093	77,264	-0,200	-0,149
125,108	189,936	-0,158	-0,166
126,122	-81,421	-0,361	-0,083
127,137	179,578	-0,201	-0,206
128,151	-0,077	-0,139	-0,069
129,166	67,095	-0,262	-0,187
130,181	-43,109	-0,281	-0,099
131,195	28,200	-0,285	-0,168
132,210	-74,386	-0,307	-0,077
133,224	115,698	-0,218	-0,187
134,239	-15,313	-0,221	-0,099
135,254	373,270	-0,226	-0,323
136,268	-1,389	-0,258	-0,127
137,283	-13,959	-0,145	-0,065
138,297	-200,000	-0,070	-0,251
139,312	79,957	-0,340	-0,255
140,327	330,379	-0,179	-0,241
141,341	800,000	-0,158	-0,320
142,356	-9,414	-0,250	-0,116
143,370	272,938	-0,137	-0,169
144,385	199,945	-0,108	-0,116
145,400	-93,288	-0,182	-0,035
146,414	58,717	-0,335	-0,230
147,429	-8,842	-0,304	-0,142
148,443	83,152	-0,238	-0,181
149,458	190,430	-0,185	-0,195
150,473	-4,402	-0,209	-0,100
151,487	-2,189	-0,210	-0,103
152,502	30,063	-0,280	-0,166
153,516	27,938	-0,334	-0,196
154,531	145,266	-0,252	-0,236
155,546	-32,881	-0,206	-0,080
156,560	274,809	-0,161	-0,200
157,575	26,277	-0,183	-0,107
158,589	341,727	-0,188	-0,257
159,604	168,203	-0,248	-0,247
160,619	171,294	-0,243	-0,244
161,633	-24,168	-0,289	-0,120
162,648	157,862	-0,144	-0,140
163,662	800,000	-0,096	-0,188
164,677	13,703	-0,214	-0,116
165,692	118,949	-0,175	-0,151
166,706	-72,478	-0,316	-0,081
167,721	631,517	-0,210	-0,372
168,735	-35,961	-0,191	-0,072
169,750	9,245	-0,210	-0,111
170,764	213,871	-0,174	-0,192
171,779	27,641	-0,136	-0,080
172,794	-57,207	-0,172	-0,052
173,808	132,673	-0,206	-0,185
174,823	20,190	-0,250	-0,140
175,837	111,910	-0,251	-0,211
176,852	352,740	-0,199	-0,276
177,867	-57,932	-0,137	-0,042
178,881	-112,606	-0,187	-0,026
179,896	181,100	-0,186	-0,190
180,910	411,562	-0,161	-0,239
181,925	252,850	-0,119	-0,142
182,940	39,909	-0,277	-0,173
183,954	-26,744	-0,276	-0,112
184,969	75,685	-0,284	-0,209
185,983	-200,000	-0,039	-0,232
186,998	15,630	-0,164	-0,089
188,013	84,683	-0,166	-0,126
189,027	128,089	-0,211	-0,187
190,042	-32,897	-0,372	-0,143
191,056	-35,665	-0,278	-0,104
192,071	8,811	-0,280	-0,147
193,086	8,993	-0,244	-0,128
194,100	-28,262	-0,175	-0,070
195,115	132,083	-0,127	-0,114
196,129	186,672	-0,239	-0,248
197,144	33,177	-0,268	-0,162
198,159	-31,446	-0,215	-0,084
199,173	632,104	-0,148	-0,262
200,188	6,233	-0,184	-0,095
201,202	-107,103	-0,138	-0,021
202,217	-36,491	-0,041	-0,015
203,232	479,175	-0,125	-0,198
204,246	800,000	-0,089	-0,185
205,261	31,810	-0,229	-0,137
206,275	-200,000	-0,077	-0,258
207,290	-66,154	-0,118	-0,032
208,304	70,737	-0,210	-0,151
209,319	800,000	-0,054	-0,158
210,334	51,859	-0,136	-0,090
211,348	261,369	-0,221	-0,267
212,363	122,565	-0,179	-0,156
213,377	103,572	-0,235	-0,192
214,392	98,696	-0,167	-0,133
215,407	-116,145	-0,279	-0,036
216,421	106,733	-0,211	-0,174
217,436	103,716	-0,198	-0,162
218,450	281,214	-0,142	-0,177
219,465	-10,408	-0,216	-0,099
220,480	62,157	-0,231	-0,159
221,494	296,949	-0,160	-0,204
222,509	-200,000	-0,089	-0,300
223,523	226,210	-0,224	-0,253
224,538	107,966	-0,157	-0,130
225,553	48,733	-0,270	-0,176
226,567	44,320	-0,273	-0,174
227,582	-52,409	-0,093	-0,030
228,596	-109,401	-0,166	-0,024
229,611	29,133	-0,162	-0,095
230,626	-82,637	-0,134	-0,030
231,640	150,496	-0,073	0,069
232,655	-16,090	-0,230	-0,101
233,669	11,686	-0,262	-0,139
234,684	210,043	-0,247	-0,270
235,699	381,194	-0,119	-0,169
236,713	800,000	-0,079	-0,236
237,728	277,747	-0,116	-0,144
238,742	357,828	-0,163	-0,226
239,757	106,240	-0,190	-0,156
240,772	97,429	-0,260	-0,207
241,786	-126,511	-0,130	-0,013
242,801	92,125	-0,116	-0,090
243,815	-34,266	-0,127	-0,048
244,830	167,832	-0,170	-0,168
245,844	13,662	-0,149	0,080
246,859	-24,579	-0,210	-0,086
247,874	129,462	-0,221	-0,195
248,888	141,766	-0,212	-0,194
249,903	104,092	-0,078	-0,063
250,917	92,732	-0,161	-0,126
251,932	-122,944	-0,137	-0,015
252,947	14,578	-0,226	-0,122
253,961	-0,294	-0,180	-0,088
254,976	107,041	-0,183	-0,150
255,990	-89,176	-0,258	-0,052
257,005	22,440	-0,264	-0,149
258,020	148,722	-0,154	-0,144
259,034	-12,480	-0,150	-0,068
260,049	800,000	-0,058	-0,121
261,063	101,534	-0,132	-0,107
262,078	105,736	-0,260	-0,213
263,093	-55,120	-0,260	-0,080
264,107	-33,175	-0,226	-0,086
265,122	122,527	-0,201	-0,174
266,136	-32,558	-0,215	-0,082
267,151	317,086	-0,151	-0,197
268,166	-29,220	-0,138	-0,055
269,180	-150,209	-0,216	0,011
270,195	636,059	-0,106	-0,186
271,209	294,328	-0,120	-0,152
272,224	489,147	-0,154	-0,244
273,239	-3,511	-0,093	-0,045
274,253	-200,000	-0,005	-0,069
275,268	-200,000	0,013	-0,202
276,282	186,566	-0,121	-0,124
277,297	800,000	-0,108	-0,237
278,312	65,338	-0,215	-0,150
279,326	800,000	-0,105	-0,212
280,341	-48,932	0,020	-0,006
281,355	-29,459	-0,095	-0,037
282,370	60,972	-0,134	-0,092
283,384	125,459	-0,213	-0,186
284,399	82,570	-0,228	-0,171
285,414	255,061	-0,134	-0,159
286,428	52,493	-0,063	0,042
287,443	63,612	-0,148	-0,102
288,457	200,770	-0,097	-0,103
289,472	467,628	-0,051	-0,079
290,487	468,334	-0,096	-0,149
291,501	405,168	-0,132	-0,192
292,516	42,189	-0,193	-0,121
293,530	-151,457	-0,093	-0,005
294,545	-102,553	-0,165	-0,027
295,560	66,884	-0,184	-0,129
296,574	245,533	-0,138	-0,161
297,589	96,440	-0,195	-0,154
298,603	334,711	-0,110	-0,148
299,618	340,490	-0,064	-0,087
300,633	114,360	-0,122	-0,102
301,647	-7,485	-0,140	0,065
302,662	-30,294	-0,128	-0,050
303,676	800,000	-0,041	-0,084
304,691	800,000	-0,095	-0,198
305,706	28,865	-0,322	-0,188
306,720	271,573	-0,027	-0,033
307,735	-200,000	-0,074	-0,248
308,749	62,744	0,048	-0,033
309,764	-200,000	-0,034	-0,113
310,779	-25,529	-0,136	0,055
311,793	238,309	-0,140	-0,160
312,808	-87,825	-0,096	0,020
313,822	800,000	-0,083	-0,178
314,837	-200,000	-0,029	-0,112
315,852	-138,819	-0,213	-0,016
316,866	16,947	-0,083	-0,045
317,881	-128,234	-0,146	-0,014
318,895	-51,676	-0,115	0,037
319,910	501,654	-0,132	-0,211
320,925	158,396	-0,253	-0,242
321,939	281,987	-0,088	-0,108
322,954	-200,000	0,011	-0,165
323,968	800,000	-0,094	-0,189
324,983	176,067	-0,186	-0,186
325,997	349,624	-0,069	-0,094
327,012	-79,464	-0,195	0,045
328,027	-200,000	-0,045	-0,182
329,041	-29,455	-0,264	-0,103
330,056	-60,570	-0,218	-0,063
331,070	800,000	-0,109	-0,299
332,085	-47,328	-0,173	-0,058
333,100	51,071	-0,177	-0,115
334,114	-200,000	-0,065	-0,221
335,129	531,014	-0,076	-0,125
336,143	-13,932	-0,145	-0,064
337,158	517,324	-0,085	-0,137
338,173	-29,949	-0,181	-0,071
339,187	-4,842	-0,188	0,089
340,202	113,409	-0,116	-0,097
341,216	800,000	-0,046	-0,101
342,231	7,183	-0,147	-0,075
343,246	6,521	-0,127	-0,065
344,260	527,271	-0,084	-0,137
345,275	34,277	-0,136	-0,081
346,289	-106,310	-0,122	-0,019
347,304	-72,788	-0,215	-0,054
348,319	116,437	-0,095	-0,080
349,333	800,000	-0,048	-0,112
350,348	-163,624	-0,107	0,003
351,362	-171,021	-0,158	0,004
352,377	21,100	-0,111	-0,062
353,392	442,485	-0,019	0,029
354,406	-200,000	-0,059	-0,204
355,421	209,920	1312,559	1414,808
356,435	161,582	1473,022	1415,299
