DTS Sentinel unit serial number:	SN410029Multiplexer serial number:	ORYXHardware model number:	OX2-SRSoftware version number:	ORYX F/W v4,00 Oryx Data Collector v3.7.2.0data status	okinstallation	B3 Nyhavnadifferential loss correction	single-endedforward channel	channel 1reverse channel	N/Adate	2023/11/29time	13:27:30forward acquisition time	300,00reverse acquisition time	0,00gamma	499,1914k internal	0,3212k external	0,3212temperature offset calibration	1,0000default loss term (dB/km)	0,3820temperature slope calibration	1,0000multiplexer offset coefficient	1,0000multiplexer slope coefficient	1,0000fibre end	0,00T internal ref (°C)	10,35T ext. ref 1 (°C)	-3,64T ext. ref 2 (°C)	-3,77length (m)	temperature (°C)	Stokes	anti-Stokes-744,400	425,872	-0,186	-0,292
-743,385	357,608	-0,157	0,228
-742,371	-200,000	-0,090	-0,301
-741,356	-200,000	-0,042	0,287
-740,342	67,617	-0,177	-0,131
-739,327	-200,000	0,012	0,296
-738,312	180,563	-0,186	-0,198
-737,298	-200,000	0,002	0,139
-736,283	-200,000	-0,092	-0,306
-735,269	-200,000	0,035	0,367
-734,254	98,633	-0,182	-0,152
-733,239	4,497	-0,288	0,153
-732,225	256,486	-0,202	-0,252
-731,210	-107,133	0,272	-0,043
-730,196	233,195	-0,062	0,074
-729,181	-95,046	0,097	-0,019
-728,167	28,724	-0,105	-0,064
-727,152	-76,475	-0,109	0,028
-726,137	-200,000	-0,027	-0,109
-725,123	90,547	-0,115	-0,093
-724,108	800,000	0,019	0,050
-723,094	436,547	-0,105	-0,166
-722,079	800,000	-0,085	-0,262
-721,064	-200,000	-0,012	0,073
-720,050	-138,910	0,158	-0,012
-719,035	-200,000	0,015	-0,061
-718,021	-134,413	-0,160	-0,014
-717,006	152,827	-0,058	-0,058
-715,991	207,436	-0,129	-0,146
-714,977	-200,000	0,014	-0,057
-713,962	-46,613	-0,061	-0,022
-712,948	-98,650	-0,021	0,004
-711,933	-65,264	-0,080	-0,023
-710,918	-200,000	-0,003	-0,022
-709,904	-200,000	0,012	-0,179
-708,889	458,956	-0,078	-0,126
-707,875	800,000	-0,087	-0,209
-706,860	-2,331	0,022	0,011
-705,845	-35,973	-0,044	-0,017
-704,831	-106,124	0,051	-0,008
-703,816	-31,683	-0,081	0,033
-702,802	46,775	0,029	0,019
-701,787	-147,623	-0,122	-0,007
-700,772	12,655	0,055	-0,031
-699,758	-200,000	-0,001	-0,213
-698,743	-49,247	0,109	-0,037
-697,729	205,609	0,049	-0,055
-696,714	215,595	-0,070	0,080
-695,699	-90,464	0,100	-0,021
-694,685	-20,505	-0,171	0,076
-693,670	-200,000	0,013	-0,044
-692,656	-155,278	0,144	-0,007
-691,641	133,294	-0,079	-0,074
-690,627	-6,148	-0,068	0,033
-689,612	9,269	-0,161	-0,088
-688,597	735,983	-0,010	0,019
-687,583	-200,000	-0,024	-0,159
-686,568	-103,539	-0,064	-0,011
-685,554	-200,000	0,009	-0,058
-684,539	-200,000	-0,006	0,109
-683,524	205,411	0,029	-0,032
-682,510	-200,000	-0,010	0,058
-681,495	143,971	-0,109	-0,105
-680,481	-129,561	0,166	-0,016
-679,466	-21,891	-0,109	0,048
-678,451	30,114	-0,109	0,067
-677,437	-200,000	0,013	-0,145
-676,422	-200,000	-0,020	0,076
-675,408	-200,000	0,003	-0,045
-674,393	-200,000	0,010	0,032
-673,378	-200,000	0,011	-0,100
-672,364	-84,501	-0,120	-0,027
-671,349	-200,000	-0,011	0,056
-670,335	800,000	-0,009	-0,025
-669,320	479,924	-0,007	-0,012
-668,305	-87,999	0,118	0,025
-667,291	23,445	-0,147	-0,087
-666,276	130,242	-0,010	0,009
-665,262	-200,000	0,001	-0,035
-664,247	425,458	0,041	-0,064
-663,232	-102,935	-0,154	0,026
-662,218	-90,497	0,029	0,006
-661,203	-45,456	-0,053	0,019
-660,189	-74,564	0,045	0,012
-659,174	-200,000	-0,029	-0,128
-658,159	-96,081	0,089	-0,017
-657,145	-200,000	-0,022	-0,077
-656,130	303,164	0,024	-0,032
-655,116	131,678	0,068	-0,063
-654,101	800,000	0,085	0,184
-653,086	800,000	-0,095	0,204
-652,072	-150,165	-0,168	-0,009
-651,057	-61,731	-0,142	-0,043
-650,043	7,543	-0,210	-0,113
-649,028	-43,715	0,067	-0,024
-648,014	-120,979	0,074	-0,009
-646,999	7,540	-0,052	-0,028
-645,984	177,275	-0,052	0,055
-644,970	-48,501	0,064	0,022
-643,955	-52,543	0,081	-0,027
-642,941	162,103	-0,031	0,032
-641,926	-200,000	-0,021	-0,073
-640,911	412,223	-0,044	0,067
-639,897	656,214	0,029	-0,053
-638,882	-200,000	0,015	0,077
-637,868	-200,000	0,004	-0,037
-636,853	-37,799	-0,143	-0,055
-635,838	400,898	0,029	-0,044
-634,824	-37,801	0,115	0,044
-633,809	-113,433	0,045	0,006
-632,795	-38,369	-0,113	0,043
-631,780	469,327	0,029	0,047
-630,765	-35,650	0,117	0,046
-629,751	-45,576	-0,160	-0,057
-628,736	-113,386	-0,125	-0,018
-627,722	82,027	-0,078	0,061
-626,707	-200,000	0,005	0,082
-625,692	-50,908	0,023	-0,008
-624,678	-200,000	-0,025	0,089
-623,663	210,015	-0,050	0,057
-622,649	-186,344	-0,047	-0,000
-621,634	-144,605	0,092	-0,006
-620,619	86,089	0,054	-0,043
-619,605	-200,000	-0,005	0,132
-618,590	-116,866	0,062	-0,008
-617,576	46,202	0,116	-0,078
-616,561	-200,000	0,004	-0,030
-615,546	449,795	-0,059	-0,094
-614,532	91,426	0,164	-0,133
-613,517	87,996	0,027	0,022
-612,503	-200,000	-0,004	0,056
-611,488	-68,375	0,103	0,029
-610,474	355,208	0,040	0,057
-609,459	-200,000	-0,024	-0,089
-608,444	-47,002	0,033	0,012
-607,430	710,806	-0,035	-0,067
-606,415	-15,815	-0,207	-0,095
-605,401	-150,280	0,113	0,006
-604,386	-200,000	0,016	0,074
-603,371	-37,083	0,052	0,020
-602,357	234,106	0,019	-0,023
-601,342	800,000	0,022	-0,045
-600,328	600,011	-0,066	-0,118
-599,313	-73,667	-0,159	-0,041
-598,298	-87,176	-0,058	-0,013
-597,284	-6,687	0,069	-0,034
-596,269	-200,000	0,030	0,102
-595,255	-89,312	-0,029	0,006
-594,240	326,578	-0,061	-0,085
-593,225	800,000	0,065	-0,140
-592,211	275,275	-0,063	-0,081
-591,196	-34,768	-0,034	0,013
-590,182	6,786	0,115	-0,061
-589,167	-200,000	0,014	0,061
-588,152	15,995	-0,125	0,071
-587,138	91,552	-0,092	0,074
-586,123	313,153	-0,024	0,032
-585,109	135,062	-0,045	0,042
-584,094	-200,000	0,001	0,004
-583,079	800,000	0,020	0,052
-582,065	-200,000	0,005	0,066
-581,050	197,467	0,094	0,104
-580,036	-200,000	0,005	0,067
-579,021	545,708	-0,027	-0,047
-578,006	169,715	-0,142	-0,146
-576,992	29,250	0,149	-0,091
-575,977	153,514	-0,028	0,027
-574,963	140,727	-0,031	0,029
-573,948	800,000	0,051	0,161
-572,934	259,073	0,049	0,061
-571,919	141,267	-0,010	-0,010
-570,904	-126,786	-0,148	0,016
-569,890	800,000	-0,037	-0,082
-568,875	-200,000	-0,006	-0,058
-567,861	102,325	-0,074	0,062
-566,846	-200,000	-0,010	0,088
-565,831	111,706	-0,070	0,061
-564,817	49,146	0,068	-0,046
-563,802	-97,504	0,098	-0,018
-562,788	-200,000	0,033	-0,156
-561,773	800,000	0,092	-0,188
-560,758	332,826	-0,026	-0,036
-559,744	-111,588	0,052	0,008
-558,729	-200,000	0,020	-0,084
-557,715	132,633	-0,064	-0,060
-556,700	-176,537	-0,091	0,002
-555,685	-184,136	0,116	0,001
-554,671	-200,000	-0,006	0,065
-553,656	-200,000	0,029	-0,112
-552,642	141,414	-0,093	0,089
-551,627	-20,905	0,084	-0,037
-550,612	138,897	-0,101	0,095
-549,598	98,298	-0,146	-0,121
-548,583	6,071	-0,107	0,057
-547,569	96,921	-0,041	-0,034
-546,554	-33,188	0,121	0,048
-545,539	-200,000	0,001	0,066
-544,525	399,229	-0,059	0,090
-543,510	-200,000	-0,001	-0,052
-542,496	81,908	0,063	-0,049
-541,481	122,612	-0,068	0,061
-540,466	-200,000	0,005	0,128
-539,452	344,772	0,043	0,061
-538,437	-9,125	-0,067	0,032
-537,423	753,414	0,035	-0,069
-536,408	182,235	-0,031	0,033
-535,393	1,047	0,092	-0,047
-534,379	596,394	-0,047	-0,085
-533,364	-200,000	0,007	0,084
-532,350	-10,678	0,084	0,040
-531,335	-69,493	0,130	0,035
-530,321	-23,538	-0,087	0,037
-529,306	800,000	0,047	0,110
-528,291	-2,010	0,056	-0,028
-527,277	-12,660	-0,057	-0,027
-526,262	456,108	0,068	0,109
-525,248	126,427	-0,139	0,127
-524,233	-200,000	0,012	0,058
-523,218	337,503	0,128	0,179
-522,204	74,908	0,059	-0,044
-521,189	-82,985	-0,147	-0,034
-520,175	800,000	0,008	-0,020
-519,160	471,081	0,015	0,024
-518,145	-39,211	0,085	-0,032
-517,131	236,382	0,024	-0,029
-516,116	-113,882	0,121	-0,017
-515,102	-26,686	0,017	0,007
-514,087	521,037	0,049	-0,084
-513,072	-139,906	0,103	0,008
-512,058	208,730	-0,023	0,026
-511,043	-39,111	0,077	-0,029
-510,029	394,641	-0,049	0,074
-509,014	-200,000	-0,023	-0,082
-507,999	-162,057	0,104	0,004
-506,985	45,446	-0,084	-0,056
-505,970	595,146	-0,073	-0,130
-504,956	-67,499	-0,102	0,029
-503,941	800,000	-0,049	0,146
-502,926	37,230	0,020	0,012
-501,912	-94,191	0,080	-0,016
-500,897	800,000	-0,078	-0,164
-499,883	-100,655	0,009	0,002
-498,868	-200,000	-0,034	-0,221
-497,853	72,051	-0,098	0,073
-496,839	-64,008	0,079	0,023
-495,824	78,466	0,038	0,029
-494,810	800,000	-0,033	0,080
-493,795	17,545	-0,022	-0,013
-492,781	-117,348	-0,187	-0,024
-491,766	73,995	0,083	-0,063
-490,751	800,000	-0,057	-0,119
-489,737	-135,395	0,094	0,008
-488,722	-200,000	0,019	0,109
-487,708	-39,044	0,078	0,029
-486,693	761,050	-0,008	0,016
-485,678	-44,328	-0,075	-0,027
-484,664	319,647	-0,018	0,025
-483,649	221,355	-0,084	-0,097
-482,635	800,000	0,016	0,040
-481,620	-128,695	-0,115	-0,012
-480,605	-21,703	0,007	0,003
-479,591	-77,696	0,038	0,009
-478,576	468,657	-0,025	0,040
-477,562	-105,235	-0,115	0,019
-476,547	-5,928	0,021	-0,010
-475,532	64,900	0,033	-0,024
-474,518	-114,654	0,063	0,009
-473,503	-164,212	0,017	0,001
-472,489	-200,000	0,005	0,103
-471,474	52,429	-0,096	0,066
-470,459	800,000	-0,025	0,056
-469,445	-200,000	0,010	-0,038
-468,430	-200,000	-0,008	0,038
-467,416	719,021	0,085	0,163
-466,401	-200,000	0,014	0,118
-465,386	800,000	0,049	0,145
-464,372	432,174	0,083	0,130
-463,357	800,000	-0,094	0,215
-462,343	-66,204	0,031	0,009
-461,328	455,646	0,098	-0,156
-460,313	-152,160	0,066	-0,003
-459,299	-200,000	0,034	0,118
-458,284	-90,680	0,144	0,030
-457,270	-200,000	0,017	-0,127
-456,255	-191,037	-0,172	0,001
-455,241	-0,360	0,060	0,030
-454,226	-200,000	-0,013	-0,076
-453,211	175,461	0,036	0,037
-452,197	-19,202	0,102	0,045
-451,182	-32,676	-0,070	-0,028
-450,168	-92,509	0,012	0,002
-449,153	800,000	-0,003	0,008
-448,138	488,952	-0,083	-0,137
-447,124	-200,000	-0,032	-0,132
-446,109	800,000	-0,095	0,235
-445,095	-200,000	0,017	0,118
-444,080	227,610	-0,091	0,106
-443,065	800,000	-0,039	0,118
-442,051	800,000	0,032	-0,079
-441,036	652,189	0,051	0,094
-440,022	91,130	-0,079	0,063
-439,007	-19,363	0,023	-0,010
-437,992	87,226	0,064	0,051
-436,978	-92,014	0,115	0,023
-435,963	-200,000	-0,014	0,097
-434,949	661,689	0,052	0,095
-433,934	-7,106	-0,099	-0,048
-432,919	-11,866	-0,051	-0,024
-431,905	-165,126	0,051	0,002
-430,890	528,293	0,021	0,035
-429,876	254,781	-0,014	0,017
-428,861	57,060	-0,014	0,010
-427,846	70,418	-0,072	0,053
-426,832	403,384	0,017	-0,025
-425,817	236,894	-0,059	-0,070
-424,803	32,529	0,072	-0,044
-423,788	52,085	0,088	-0,060
-422,773	-81,664	0,198	0,046
-421,759	800,000	0,013	0,036
-420,744	525,515	0,011	-0,018
-419,730	-176,582	0,219	-0,004
-418,715	9,623	-0,052	-0,028
-417,701	-200,000	0,021	0,084
-416,686	477,830	0,045	-0,073
-415,671	-200,000	-0,005	0,037
-414,657	779,129	-0,040	0,079
-413,642	388,139	0,069	0,102
-412,628	-200,000	-0,001	-0,008
-411,613	800,000	0,046	-0,118
-410,598	415,190	0,041	-0,063
-409,584	-69,435	-0,022	0,006
-408,569	-23,923	-0,074	0,032
-407,555	-70,836	0,068	0,018
-406,540	-122,647	0,042	0,005
-405,525	-200,000	-0,004	-0,047
-404,511	800,000	-0,090	-0,270
-403,496	-87,389	-0,097	-0,021
-402,482	362,724	-0,034	0,049
-401,467	-200,000	0,007	-0,029
-400,452	71,308	0,059	0,044
-399,438	477,865	0,061	-0,099
-398,423	180,687	-0,042	-0,044
-397,409	229,408	-0,070	-0,082
-396,394	-67,371	-0,073	0,020
-395,379	-177,908	0,236	0,004
-394,365	193,267	-0,091	-0,099
-393,350	671,730	-0,026	0,048
-392,336	296,504	0,021	0,028
-391,321	-200,000	-0,001	0,065
-390,306	234,989	-0,025	-0,029
-389,292	486,016	-0,107	-0,175
-388,277	-0,022	-0,070	-0,035
-387,263	-24,295	0,066	-0,028
-386,248	-200,000	-0,011	0,039
-385,233	52,843	-0,043	0,029
-384,219	-137,274	-0,087	-0,007
-383,204	-94,809	0,060	0,012
-382,190	376,449	0,010	-0,014
-381,175	78,974	0,028	0,022
-380,160	-200,000	0,023	0,116
-379,146	-68,874	0,060	-0,017
-378,131	800,000	0,043	0,094
-377,117	114,151	-0,017	0,015
-376,102	13,925	-0,094	-0,052
-375,088	-93,470	0,076	-0,015
-374,073	800,000	-0,035	-0,075
-373,058	-96,610	0,118	0,022
-372,044	340,199	-0,018	-0,025
-371,029	-55,591	-0,066	0,021
-370,015	185,081	0,022	0,023
-369,000	-139,162	-0,113	0,009
-367,985	-200,000	-0,002	-0,078
-366,971	83,851	0,017	0,013
-365,956	-120,803	-0,029	-0,003
-364,942	370,798	-0,098	0,143
-363,927	800,000	-0,025	0,058
-362,912	-200,000	0,020	-0,070
-361,898	212,397	-0,042	-0,047
-360,883	800,000	0,055	-0,136
-359,869	63,485	-0,031	0,022
-358,854	-86,178	0,118	0,026
-357,839	90,053	0,094	0,075
-356,825	-200,000	-0,012	0,091
-355,810	510,505	0,028	-0,046
-354,796	263,578	0,081	-0,101
-353,781	-200,000	0,011	-0,079
-352,766	-27,874	0,108	-0,045
-351,752	106,153	0,034	-0,029
-350,737	28,416	-0,047	-0,028
-349,723	197,687	0,193	0,210
-348,708	-110,766	-0,093	0,014
-347,693	-91,256	0,100	-0,020
-346,679	102,730	-0,096	0,081
-345,664	-200,000	0,004	-0,126
-344,650	-76,740	-0,052	0,013
-343,635	-200,000	-0,011	-0,091
-342,620	800,000	0,048	0,150
-341,606	397,409	-0,037	0,056
-340,591	-79,223	-0,059	0,014
-339,577	262,257	-0,048	-0,059
-338,562	33,411	-0,137	0,085
-337,548	440,989	0,005	-0,007
-336,533	-64,031	-0,051	-0,015
-335,518	188,424	0,025	-0,027
-334,504	123,307	0,158	0,141
-333,489	-11,247	-0,067	0,031
-332,475	-200,000	0,000	-0,011
-331,460	109,274	-0,160	-0,137
-330,445	-200,000	0,040	-0,129
-329,431	619,086	-0,043	-0,077
-328,416	800,000	-0,028	-0,083
-327,402	-1,920	0,123	-0,061
-326,387	-35,271	-0,105	-0,041
-325,372	-200,000	0,033	-0,184
-324,358	-200,000	0,000	-0,122
-323,343	800,000	-0,020	0,054
-322,329	-200,000	-0,001	0,117
-321,314	523,711	-0,015	-0,025
-320,299	72,763	-0,041	-0,031
-319,285	777,325	-0,038	-0,075
-318,270	-100,687	-0,069	-0,012
-317,256	97,626	-0,063	0,052
-316,241	378,364	0,058	0,085
-315,226	256,380	-0,026	0,032
-314,212	-200,000	-0,019	0,062
-313,197	65,995	-0,064	0,046
-312,183	800,000	-0,015	0,036
-311,168	800,000	-0,021	-0,050
-310,153	-30,424	0,118	-0,048
-309,139	-200,000	-0,032	-0,165
-308,124	-82,641	-0,123	0,028
-307,110	-147,108	0,191	0,011
-306,095	14,960	0,063	-0,035
-305,080	-61,279	-0,070	0,021
-304,066	427,299	0,075	-0,115
-303,051	253,479	-0,063	-0,077
-302,037	-200,000	0,031	-0,156
-301,022	-200,000	-0,030	0,100
-300,008	-73,429	-0,098	0,025
-298,993	53,427	0,072	0,049
-297,978	-112,932	-0,031	-0,004
-296,964	800,000	0,046	-0,120
-295,949	-155,678	-0,107	0,005
-294,935	123,764	-0,094	-0,084
-293,920	45,563	0,080	0,053
-292,905	295,391	-0,026	0,034
-291,891	800,000	0,055	0,111
-290,876	9,219	-0,070	0,037
-289,862	-164,173	-0,119	-0,004
-288,847	-104,924	0,135	-0,022
-287,832	11,802	-0,024	0,013
-286,818	-200,000	0,008	0,033
-285,803	-21,239	0,078	-0,034
-284,789	-11,796	-0,104	0,048
-283,774	297,847	0,050	0,065
-282,759	-57,192	-0,152	0,047
-281,745	-192,647	-0,111	0,001
-280,730	543,454	0,107	-0,183
-279,716	176,884	0,043	-0,044
-278,701	-31,486	0,137	0,054
-277,686	-200,000	0,020	-0,072
-276,672	322,313	-0,121	0,165
-275,657	124,150	0,083	0,075
-274,643	-81,639	0,076	0,018
-273,628	372,527	0,042	0,061
-272,613	136,176	-0,124	0,115
-271,599	800,000	0,050	-0,112
-270,584	-85,676	0,110	0,024
-269,570	-200,000	-0,006	0,090
-268,555	120,450	-0,060	-0,053
-267,540	-200,000	0,008	-0,112
-266,526	171,896	0,116	-0,118
-265,511	-92,384	-0,097	-0,019
-264,497	-28,981	0,132	0,053
-263,482	-95,500	0,263	-0,050
-262,467	-108,079	0,225	-0,034
-261,453	-32,181	-0,089	0,035
-260,438	-200,000	-0,013	-0,062
-259,424	80,428	0,031	-0,024
-258,409	-15,387	-0,029	-0,013
-257,395	800,000	-0,034	0,102
-256,380	58,831	-0,074	0,052
-255,365	-95,978	0,054	-0,010
-254,351	5,074	-0,104	0,054
-253,336	-71,291	-0,148	-0,039
-252,322	-41,911	0,082	0,030
-251,307	-19,943	-0,137	-0,060
-250,292	-155,250	0,086	0,004
-249,278	-111,029	0,211	0,030
-248,263	800,000	0,029	0,061
-247,249	-51,893	-0,073	0,024
-246,234	-172,668	0,147	-0,003
-245,219	223,247	-0,067	-0,077
-244,205	-71,339	0,088	-0,023
-243,190	104,966	0,012	-0,010
-242,176	587,338	0,027	0,047
-241,161	14,949	0,099	0,055
-240,146	35,185	-0,052	0,032
-239,132	-200,000	-0,011	-0,126
-238,117	-200,000	-0,021	-0,164
-237,103	-200,000	-0,002	-0,042
-236,088	221,112	0,055	0,063
-235,073	104,722	0,067	-0,056
-234,059	-200,000	-0,009	0,091
-233,044	-200,000	0,006	0,077
-232,030	-200,000	0,012	-0,066
-231,015	800,000	-0,045	-0,120
-230,000	39,600	-0,063	-0,040
-228,986	-200,000	-0,015	-0,116
-227,971	-200,000	0,006	0,101
-226,957	800,000	0,049	0,121
-225,942	-7,203	-0,120	0,058
-224,927	-200,000	-0,020	0,110
-223,913	98,093	-0,155	-0,127
-222,898	-49,818	0,045	0,015
-221,884	-93,176	0,112	-0,022
-220,869	-200,000	0,009	0,080
-219,855	-200,000	0,006	0,082
-218,840	-55,710	-0,041	0,013
-217,825	800,000	-0,012	0,024
-216,811	-200,000	-0,021	-0,076
-215,796	-136,930	-0,097	-0,008
-214,782	-200,000	0,011	-0,047
-213,767	-34,773	-0,144	0,056
-212,752	312,463	0,012	-0,016
-211,738	272,818	0,017	0,021
-210,723	-200,000	0,000	-0,089
-209,709	-122,693	0,187	0,021
-208,694	-0,387	-0,019	-0,010
-207,679	387,563	-0,042	0,061
-206,665	-4,891	-0,038	0,018
-205,650	-200,000	0,045	-0,206
-204,636	-200,000	0,023	0,104
-203,621	-141,323	0,079	-0,006
-202,606	-30,357	-0,069	0,028
-201,592	-49,643	-0,066	-0,022
-200,577	50,830	-0,077	-0,051
-199,563	129,200	-0,064	0,058
-198,548	800,000	-0,069	0,145
-197,533	-200,000	0,006	0,080
-196,519	-189,587	0,048	0,000
-195,504	298,040	-0,055	0,072
-194,490	84,004	-0,125	-0,097
-193,475	-200,000	-0,010	-0,107
-192,460	-155,752	0,081	-0,004
-191,446	-126,224	0,057	0,006
-190,431	250,759	0,032	0,039
-189,417	-200,000	-0,033	0,159
-188,402	99,193	0,067	-0,055
-187,387	-20,323	-0,116	0,051
-186,373	-38,228	-0,192	0,072
-185,358	-200,000	0,001	0,041
-184,344	96,273	0,097	0,078
-183,329	626,234	-0,045	0,081
-182,315	218,624	-0,067	-0,076
-181,300	800,000	0,039	0,080
-180,285	352,189	0,021	-0,030
-179,271	222,566	-0,060	-0,069
-178,256	224,224	0,033	0,037
-177,242	200,713	0,079	0,087
-176,227	171,991	-0,030	-0,031
-175,212	-200,000	-0,007	-0,098
-174,198	-55,041	0,092	-0,029
-173,183	618,111	-0,046	0,082
-172,169	800,000	0,053	-0,113
-171,154	-30,050	-0,061	0,024
-170,139	-106,388	-0,038	0,006
-169,125	24,178	0,067	0,039
-168,110	700,186	-0,042	0,079
-167,096	293,091	-0,050	-0,065
-166,081	237,163	-0,065	-0,077
-165,066	322,359	-0,102	-0,137
-164,052	335,070	0,123	-0,170
-163,037	-200,000	-0,004	-0,181
-162,023	730,243	-0,055	-0,104
-161,008	340,549	0,059	0,082
-159,993	32,486	0,086	-0,052
-158,979	349,570	-0,125	-0,175
-157,964	800,000	-0,038	-0,088
-156,950	-200,000	-0,004	-0,109
-155,935	207,544	0,082	0,091
-154,920	12,758	-0,094	-0,051
-153,906	108,008	0,081	0,068
-152,891	-200,000	0,008	0,034
-151,877	74,948	-0,129	0,096
-150,862	731,402	-0,102	-0,194
-149,847	19,083	0,108	-0,061
-148,833	105,988	0,198	-0,166
-147,818	800,000	0,043	-0,128
-146,804	38,620	0,042	-0,027
-145,789	800,000	0,024	0,064
-144,775	190,782	-0,106	-0,113
-143,760	-200,000	-0,034	-0,122
-142,745	800,000	0,050	0,106
-141,731	-200,000	0,028	0,150
-140,716	213,706	0,056	0,063
-139,702	169,674	0,039	0,040
-138,687	576,143	-0,069	0,120
-137,672	-200,000	-0,003	0,034
-136,658	735,378	0,016	-0,031
-135,643	231,600	-0,079	-0,092
-134,629	-200,000	0,003	0,223
-133,614	285,452	0,096	0,122
-132,599	-62,578	-0,114	-0,033
-131,585	61,726	0,149	-0,105
-130,570	35,158	0,091	0,056
-129,556	12,698	-0,084	-0,046
-128,541	58,282	-0,210	-0,145
-127,526	-137,616	0,063	0,005
-126,512	800,000	-0,019	0,041
-125,497	-5,018	0,030	-0,015
-124,483	251,827	0,043	0,052
-123,468	223,176	-0,017	-0,019
-122,453	-200,000	-0,023	-0,084
-121,439	266,184	-0,038	0,048
-120,424	391,459	-0,056	-0,083
-119,410	76,085	0,092	-0,069
-118,395	-124,023	-0,066	-0,007
-117,380	-200,000	-0,015	-0,083
-116,366	800,000	-0,129	-0,297
-115,351	207,866	0,095	-0,105
-114,337	97,525	0,046	-0,037
-113,322	-200,000	0,008	0,073
-112,307	28,968	0,024	0,014
-111,293	5,538	0,087	0,045
-110,278	-200,000	-0,005	0,179
-109,264	140,004	-0,122	0,114
-108,249	167,064	0,068	-0,068
-107,234	-200,000	0,028	-0,128
-106,220	-77,435	-0,054	-0,013
-105,205	-176,139	0,057	0,001
-104,191	-112,842	0,075	-0,010
-103,176	73,792	-0,056	-0,041
-102,162	-200,000	0,001	0,053
-101,147	99,891	-0,049	-0,040
-100,132	-200,000	0,002	-0,067
-99,118	42,341	0,100	-0,064
-98,103	-124,977	0,110	-0,012
-97,089	-200,000	0,020	0,166
-96,074	-27,035	0,183	-0,075
-95,059	-64,506	-0,106	-0,030
-94,045	-18,974	0,043	-0,019
-93,030	364,016	-0,074	-0,106
-92,016	401,071	0,015	-0,023
-91,001	63,687	0,042	-0,030
-89,986	800,000	-0,026	-0,073
-88,972	-59,217	0,018	-0,006
-87,957	299,850	0,057	-0,075
-86,943	-200,000	-0,010	0,044
-85,928	800,000	-0,038	0,112
-84,913	227,175	0,132	-0,152
-83,899	49,619	0,064	0,042
-82,884	188,338	-0,033	0,035
-81,870	48,278	-0,134	0,088
-80,855	0,502	0,070	0,035
-79,840	-155,428	0,043	-0,002
-78,826	-200,000	-0,036	0,178
-77,811	-19,096	-0,078	-0,034
-76,797	444,839	0,026	-0,040
-75,782	203,946	0,044	-0,048
-74,767	-16,965	0,145	0,064
-73,753	85,502	-0,078	-0,060
-72,738	76,537	-0,076	-0,057
-71,724	-200,000	-0,009	0,076
-70,709	406,300	0,056	0,083
-69,694	758,636	-0,071	0,137
-68,680	800,000	-0,057	0,131
-67,665	271,025	0,089	0,110
-66,651	138,557	-0,112	0,103
-65,636	-200,000	0,021	0,091
-64,622	30,885	0,030	0,018
-63,607	89,524	-0,016	0,013
-62,592	305,029	-0,038	-0,050
-61,578	800,000	-0,027	-0,067
-60,563	-31,451	0,144	0,057
-59,549	11,620	-0,100	-0,054
-58,534	22,962	-2,047	-1,182
-57,519	628,612	-1,112	-1,992
-56,505	-200,000	-0,278	-4,491
-55,490	370,955	0,916	1,314
-54,476	800,000	5,126	11,330
-53,461	-200,000	21,053	335,583
-52,446	800,000	757,773	2340,346
-51,432	554,856	1660,676	2830,536
-50,417	73,409	1661,816	1225,776
-49,403	18,202	1535,026	861,769
-48,388	12,168	1458,186	789,469
-47,373	19,178	1449,106	818,135
-46,359	15,528	1438,484	794,761
-45,344	10,441	1434,348	768,238
-44,330	10,362	1432,530	766,861
-43,315	10,361	1430,602	765,790
-42,300	10,380	1428,715	764,840
-41,286	10,403	1427,517	764,278
-40,271	10,361	1426,280	763,388
-39,257	10,391	1424,960	762,791
-38,242	10,420	1423,916	762,342
-37,227	10,392	1422,908	761,638
-36,213	10,404	1421,687	761,010
-35,198	10,469	1420,417	760,609
-34,184	10,467	1419,454	760,054
-33,169	10,406	1418,363	759,150
-32,154	10,425	1416,995	758,476
-31,140	10,424	1415,927	757,874
-30,125	10,472	1414,895	757,516
-29,111	10,501	1413,595	756,925
-28,096	10,451	1412,526	756,087
-27,082	10,384	1411,579	755,239
-26,067	10,390	1410,292	754,545
-25,052	10,402	1409,404	754,097
-24,038	10,402	1408,207	753,428
-23,023	10,374	1407,420	752,846
-22,009	10,378	1406,310	752,239
-20,994	10,386	1405,271	751,691
-19,979	10,386	1404,292	751,138
-18,965	10,301	1403,555	750,317
-17,950	10,327	1402,464	749,824
-16,936	10,323	1401,809	749,430
-15,921	10,247	1400,922	748,571
-14,906	10,281	1399,874	748,140
-13,892	10,312	1398,832	747,694
-12,877	10,262	1398,225	747,109
-11,863	10,282	1397,122	746,582
-10,848	10,278	1396,230	746,058
-9,833	10,226	1395,378	745,332
-8,819	10,197	1394,734	744,824
-7,804	10,137	1393,991	744,122
-6,790	10,188	1392,767	743,674
-5,775	10,249	1391,531	743,266
-4,760	10,200	1390,693	742,564
-3,746	10,204	1389,785	742,069
-2,731	10,192	1388,788	741,448
-1,717	10,183	1387,898	740,902
-0,702	10,194	1386,104	739,970
0,313	14,242	1299,349	712,159
1,327	30,406	690,634	415,173
2,342	47,205	119,608	78,370
3,356	0,795	16,501	8,303
4,371	5,304	3,504	1,815
5,386	-34,091	1,019	0,393
6,400	-200,000	0,117	0,600
7,415	601,508	-0,136	-0,239
8,429	-127,411	-0,362	-0,037
9,444	140,473	-0,295	-0,275
10,459	-0,610	-0,388	-0,193
11,473	59,884	-0,293	-0,204
12,488	10,691	-0,273	-0,146
13,502	-25,206	-0,342	-0,142
14,517	74,813	-0,277	-0,205
15,531	106,722	-0,386	-0,323
16,546	8,807	-0,319	-0,169
17,561	38,640	-0,267	-0,168
18,575	-109,767	-0,317	-0,046
19,590	-200,000	-0,071	-0,295
20,604	800,000	-0,137	-0,289
21,619	94,280	-0,455	-0,364
22,634	3,812	-0,489	-0,250
23,648	1,060	-0,377	-0,190
24,663	227,977	-0,355	-0,407
25,677	69,951	-0,308	-0,223
26,692	51,093	-0,380	-0,253
27,707	62,116	-0,404	-0,283
28,721	318,215	-0,302	-0,403
29,736	-24,973	-0,494	-0,205
30,750	130,921	-0,311	-0,280
31,765	69,027	-0,431	-0,311
32,780	7,003	-0,339	-0,177
33,794	69,243	-0,344	-0,249
34,809	131,281	-0,215	-0,194
35,823	105,742	-0,371	-0,308
36,838	79,366	-0,304	-0,229
37,853	90,265	-0,366	-0,287
38,867	-1,259	-0,319	-0,158
39,882	21,827	-0,344	-0,196
40,896	127,141	-0,278	-0,247
41,911	30,039	-0,297	-0,177
42,926	130,060	-0,332	-0,299
43,940	175,805	-0,339	-0,345
44,955	62,134	-0,435	-0,305
45,969	46,315	-0,372	-0,242
46,984	66,128	-0,200	-0,142
47,999	124,860	-0,235	-0,208
49,013	171,676	-0,320	-0,323
50,028	-66,503	-0,360	-0,100
51,042	81,760	-0,399	-0,303
52,057	78,039	-0,387	-0,289
53,071	211,439	-0,315	-0,348
54,086	49,750	-0,267	-0,176
55,101	-65,086	-0,270	-0,076
56,115	37,187	-0,385	-0,239
57,130	110,397	-0,298	-0,251
58,144	60,908	-0,445	-0,309
59,159	100,919	-0,357	-0,291
60,174	14,318	-0,243	-0,133
61,188	-0,350	-0,342	-0,170
62,203	175,823	-0,192	-0,196
63,217	31,752	-0,321	-0,193
64,232	47,293	-0,293	-0,191
65,247	201,976	-0,299	-0,324
66,261	48,001	-0,309	-0,202
67,276	88,556	-0,417	-0,325
68,290	220,909	-0,338	-0,381
69,305	58,717	-0,262	-0,180
70,320	61,277	-0,286	-0,199
71,334	-19,527	-0,432	-0,187
72,349	-49,976	-0,392	-0,129
73,363	113,409	-0,276	-0,235
74,378	-7,191	-0,297	-0,141
75,393	-12,679	-0,375	-0,171
76,407	186,159	-0,322	-0,336
77,422	13,040	-0,201	-0,108
78,436	16,271	-0,208	-0,115
79,451	38,002	-0,429	-0,267
80,466	65,696	-0,311	-0,221
81,480	18,709	-0,432	-0,242
82,495	372,994	-0,164	-0,233
83,509	78,902	-0,289	-0,216
84,524	-119,691	-0,231	-0,028
85,539	-78,303	-0,370	-0,088
86,553	271,570	-0,300	-0,371
87,568	-41,118	-0,354	-0,127
88,582	300,701	-0,159	-0,205
89,597	-43,113	-0,269	-0,095
90,611	66,892	-0,345	-0,245
91,626	-70,231	-0,339	-0,089
92,641	-27,968	-0,204	-0,082
93,655	33,468	-0,261	-0,158
94,670	71,052	-0,206	-0,149
95,684	31,618	-0,251	-0,151
96,699	-110,018	-0,277	-0,040
97,714	95,641	-0,241	-0,192
98,728	-57,367	-0,246	-0,075
99,743	-40,786	-0,213	-0,077
100,757	151,552	-0,116	-0,111
101,772	48,564	-0,285	-0,187
102,787	57,003	-0,243	-0,165
103,801	-8,512	-0,345	-0,161
104,816	31,108	-0,230	-0,137
105,830	-106,130	-0,262	-0,041
106,845	41,553	-0,296	-0,187
107,860	-39,837	-0,386	-0,140
108,874	188,065	-0,213	-0,222
109,889	-14,428	-0,411	-0,184
110,903	-48,719	-0,391	-0,130
111,918	39,853	-0,334	-0,209
112,933	156,071	-0,158	-0,152
113,947	69,749	-0,297	-0,213
114,962	81,074	-0,202	-0,152
115,976	20,582	-0,322	-0,181
116,991	-59,941	-0,280	-0,083
118,006	172,360	-0,343	-0,344
119,020	-91,962	-0,449	-0,088
120,035	0,253	-0,265	-0,131
121,049	107,645	-0,189	-0,157
122,064	24,479	-0,330	-0,190
123,079	65,734	-0,185	-0,131
124,093	317,307	-0,269	-0,355
125,108	71,304	-0,214	-0,155
126,122	134,052	-0,237	-0,214
127,137	191,196	-0,214	-0,225
128,151	201,009	-0,199	-0,214
129,166	249,433	-0,154	-0,183
130,181	138,023	-0,189	-0,173
131,195	156,496	-0,163	-0,157
132,210	4,951	-0,277	-0,142
133,224	134,908	-0,287	-0,260
134,239	-3,568	-0,288	-0,139
135,254	-82,833	-0,226	-0,050
136,268	400,457	-0,138	-0,203
137,283	42,443	-0,313	-0,198
138,297	29,065	-0,359	-0,212
139,312	-14,368	-0,290	-0,130
140,327	265,943	-0,211	-0,257
141,341	141,726	-0,181	-0,167
142,356	-58,755	-0,285	-0,085
143,370	66,983	-0,241	-0,171
144,385	178,221	-0,212	-0,215
145,400	-29,178	-0,240	-0,095
146,414	186,353	-0,198	-0,205
147,429	55,772	-0,165	-0,111
148,443	30,462	-0,263	-0,156
149,458	272,999	-0,215	-0,265
150,473	-15,484	-0,165	-0,073
151,487	122,698	-0,247	-0,215
152,502	56,536	-0,308	-0,208
153,516	-9,681	-0,251	-0,116
154,531	-80,082	-0,299	-0,069
155,546	114,738	-0,253	-0,215
156,560	83,444	-0,244	-0,185
157,575	68,899	-0,167	-0,119
158,589	-102,102	-0,179	-0,030
159,604	-25,110	-0,308	-0,126
160,619	245,157	-0,215	-0,251
161,633	130,082	-0,177	-0,157
162,648	-119,394	-0,326	-0,039
163,662	-67,040	-0,219	-0,060
164,677	-60,220	-0,227	-0,067
165,692	-54,674	-0,300	-0,094
166,706	165,789	-0,133	-0,131
167,721	800,000	-0,143	-0,344
168,735	334,785	-0,200	-0,270
169,750	150,109	-0,299	-0,282
170,764	69,523	-0,146	-0,104
171,779	280,825	-0,113	-0,140
172,794	54,836	-0,170	-0,114
173,808	590,728	-0,212	-0,365
174,823	132,541	-0,231	-0,207
175,837	-23,966	-0,302	-0,125
176,852	170,619	-0,308	-0,307
177,867	-75,894	-0,254	-0,062
178,881	141,450	-0,168	-0,155
179,896	52,720	-0,204	-0,135
180,910	212,261	-0,286	-0,313
181,925	177,531	-0,176	-0,178
182,940	101,002	-0,283	-0,228
183,954	201,257	-0,278	-0,297
184,969	125,483	-0,258	-0,226
185,983	140,914	-0,120	-0,110
186,998	-100,711	-0,368	-0,062
188,013	131,136	-0,171	-0,152
189,027	190,716	-0,178	-0,186
190,042	182,697	-0,152	-0,155
191,056	216,393	-0,193	-0,213
192,071	276,088	-0,199	-0,246
193,086	-46,620	-0,159	-0,054
194,100	-9,800	-0,166	-0,077
195,115	-94,395	-0,224	-0,042
196,129	2,090	-0,150	-0,075
197,144	-50,091	-0,279	-0,091
198,159	800,000	-0,067	-0,162
199,173	48,091	-0,157	-0,102
200,188	-16,572	-0,092	-0,040
201,202	376,783	-0,177	-0,251
202,217	800,000	-0,163	-0,344
203,232	-63,335	-0,256	-0,072
204,246	41,704	-0,216	-0,135
205,261	-2,740	-0,287	-0,139
206,275	-3,923	-0,230	-0,110
207,290	763,020	-0,106	-0,200
208,304	85,233	-0,128	-0,097
209,319	-29,717	-0,293	-0,115
210,334	800,000	-0,078	-0,204
211,348	178,496	-0,139	-0,141
212,363	3,461	-0,272	-0,137
213,377	800,000	-0,045	-0,108
214,392	-14,411	-0,190	-0,084
215,407	-200,000	-0,060	-0,273
216,421	-12,671	-0,112	-0,051
217,436	54,658	-0,116	-0,078
218,450	33,160	-0,247	-0,148
219,465	99,166	-0,192	-0,154
220,480	180,217	-0,228	-0,231
221,494	-200,000	-0,046	-0,199
222,509	397,749	-0,097	-0,141
223,523	19,188	-0,317	-0,175
224,538	133,541	-0,221	-0,197
225,553	297,922	-0,219	-0,279
226,567	159,052	-0,129	-0,124
227,582	800,000	-0,062	-0,127
228,596	307,052	-0,139	-0,179
229,611	3,568	-0,159	-0,080
230,626	321,233	-0,166	-0,219
231,640	67,709	-0,269	-0,190
232,655	88,078	-0,206	-0,158
233,669	27,885	-0,197	-0,114
234,684	-200,000	-0,025	-0,252
235,699	80,018	-0,227	-0,169
236,713	-154,226	-0,268	-0,012
237,728	154,793	-0,097	-0,092
238,742	45,852	-0,121	0,077
239,757	-2,168	-0,271	-0,131
240,772	800,000	-0,060	-0,117
241,786	58,749	-0,220	-0,149
242,801	69,298	-0,220	-0,156
243,815	120,621	-0,110	-0,094
244,830	21,025	-0,139	-0,077
245,844	72,565	-0,134	-0,097
246,859	209,991	-0,146	-0,158
247,874	123,797	-0,238	-0,207
248,888	-20,966	-0,306	-0,129
249,903	702,584	-0,088	-0,161
250,917	-128,973	-0,059	0,006
251,932	182,004	-0,083	-0,085
252,947	44,830	-0,175	-0,111
253,961	-139,590	-0,159	-0,011
254,976	203,528	-0,156	-0,167
255,990	211,111	-0,124	-0,135
257,005	153,549	-0,083	-0,078
258,020	-53,661	-0,226	-0,071
259,034	-200,000	-0,022	-0,104
260,049	-87,926	-0,180	-0,037
261,063	446,811	-0,156	-0,238
262,078	-33,110	-0,152	-0,058
263,093	11,513	-0,155	-0,082
264,107	-26,045	-0,235	-0,095
265,122	240,045	-0,108	-0,124
266,136	800,000	-0,104	-0,215
267,151	177,799	-0,108	-0,108
268,166	70,496	-0,194	-0,138
269,180	64,450	-0,130	-0,090
270,195	246,545	-0,069	-0,080
271,209	-8,559	-0,258	-0,119
272,224	167,711	-0,063	-0,062
273,239	-200,000	-0,034	-0,283
274,253	-200,000	-0,014	-0,141
275,268	-149,518	-0,272	0,015
276,282	-1,023	-0,234	-0,113
277,297	66,766	-0,293	-0,205
278,312	62,420	-0,116	-0,080
279,326	-58,538	-0,100	-0,030
280,341	228,360	-0,109	-0,123
281,355	-36,989	-0,061	-0,022
282,370	99,047	-0,178	-0,142
283,384	-110,957	-0,162	-0,023
284,399	-22,253	-0,059	-0,025
285,414	-144,385	-0,148	0,009
286,428	85,181	-0,212	-0,160
287,443	-200,000	-0,009	-0,096
288,457	-98,911	-0,259	-0,045
289,472	-152,086	-0,186	-0,009
290,487	213,578	-0,189	-0,206
291,501	108,011	-0,162	-0,133
292,516	-13,201	-0,193	-0,086
293,530	64,811	-0,238	0,165
294,545	-200,000	0,009	0,030
295,560	562,895	-0,072	-0,120
296,574	-29,688	-0,110	-0,043
297,589	120,072	-0,187	-0,159
298,603	2,917	-0,228	-0,114
299,618	311,535	-0,090	-0,116
300,633	30,921	-0,153	-0,090
301,647	681,418	0,008	-0,015
302,662	50,585	-0,233	-0,151
303,676	450,386	-0,093	-0,142
304,691	-148,617	-0,138	0,008
305,706	17,097	-0,232	-0,126
306,720	-17,667	-0,158	-0,068
307,735	-200,000	0,017	-0,139
308,749	800,000	-0,110	-0,220
309,764	-200,000	-0,032	-0,215
310,779	800,000	-0,021	-0,056
311,793	187,777	-0,166	-0,170
312,808	41,120	-0,259	-0,160
313,822	184,922	-0,105	-0,107
314,837	-30,154	-0,115	0,045
315,852	223,471	-0,086	-0,095
316,866	26,135	-0,134	-0,076
317,881	-21,943	-0,215	-0,089
318,895	43,761	-0,142	-0,089
319,910	16,736	-0,126	-0,068
320,925	-200,000	-0,021	-0,115
321,939	296,621	-0,137	-0,173
322,954	54,120	-0,171	-0,113
323,968	800,000	0,034	-0,103
324,983	260,703	-0,164	-0,195
325,997	-46,720	-0,161	-0,054
327,012	-123,469	-0,208	-0,022
328,027	800,000	-0,136	-0,269
329,041	85,534	-0,184	-0,138
330,056	-200,000	0,029	-0,097
331,070	-82,128	-0,103	-0,023
332,085	-56,043	-0,085	0,026
333,100	-120,431	-0,150	-0,017
334,114	84,621	-0,189	-0,141
335,129	-22,978	-0,232	-0,095
336,143	-200,000	-0,018	-0,174
337,158	42,302	-0,205	-0,127
338,173	-106,654	-0,183	-0,028
339,187	-99,754	-0,073	-0,012
340,202	651,232	-0,120	-0,210
341,216	-200,000	-0,016	-0,084
342,231	800,000	-0,059	-0,112
343,246	-82,845	-0,101	0,022
344,260	53,210	0,022	-0,014
345,275	-200,000	-0,045	-0,151
346,289	-200,000	0,003	0,025
347,304	39,562	-0,053	0,032
348,319	47,399	-0,237	-0,151
349,333	479,784	-0,137	-0,213
350,348	0,326	-0,185	-0,090
351,362	-200,000	0,005	-0,080
352,377	800,000	-0,085	-0,214
353,392	5,763	-0,171	-0,086
354,406	137,115	-0,141	-0,126
355,421	207,844	1305,799	1395,702
356,435	159,902	1465,419	1396,180
