DTS Sentinel unit serial number:	SN410029Multiplexer serial number:	ORYXHardware model number:	OX2-SRSoftware version number:	ORYX F/W v4,00 Oryx Data Collector v3.7.2.0data status	okinstallation	B3 Nyhavnadifferential loss correction	single-endedforward channel	channel 1reverse channel	N/Adate	2023/12/02time	18:22:30forward acquisition time	300,00reverse acquisition time	0,00gamma	499,1914k internal	0,3200k external	0,3200temperature offset calibration	1,0000default loss term (dB/km)	0,3820temperature slope calibration	1,0000multiplexer offset coefficient	1,0000multiplexer slope coefficient	1,0000fibre end	0,00T internal ref (°C)	13,62T ext. ref 1 (°C)	-1,64T ext. ref 2 (°C)	-1,64length (m)	temperature (°C)	Stokes	anti-Stokes-744,400	327,982	-0,275	-0,386
-743,385	-200,000	-0,016	0,244
-742,371	-10,118	-0,146	-0,070
-741,356	-200,000	0,117	0,453
-740,342	-160,502	-0,253	0,010
-739,327	-200,000	0,035	0,240
-738,312	96,820	-0,284	-0,237
-737,298	-200,000	-0,025	0,168
-736,283	-14,497	-0,290	-0,135
-735,269	-200,000	0,034	0,327
-734,254	184,500	-0,213	-0,230
-733,239	131,623	-0,161	0,150
-732,225	606,311	-0,146	-0,266
-731,210	-59,918	-0,102	-0,031
-730,196	34,303	0,077	0,049
-729,181	181,324	0,064	-0,069
-728,167	-119,312	-0,090	-0,011
-727,152	232,007	0,066	0,079
-726,137	-52,887	-0,042	-0,014
-725,123	800,000	0,040	-0,121
-724,108	523,508	-0,056	-0,096
-723,094	-60,284	-0,175	-0,054
-722,079	123,117	-0,097	-0,089
-721,064	800,000	0,016	-0,039
-720,050	495,292	-0,019	0,031
-719,035	-124,193	0,057	0,006
-718,021	-83,753	-0,063	0,015
-717,006	-85,605	-0,074	0,016
-715,991	377,636	0,056	-0,084
-714,977	-103,649	-0,152	-0,026
-713,962	236,523	-0,070	0,085
-712,948	-134,940	0,064	0,006
-711,933	-200,000	-0,017	0,102
-710,918	198,505	0,030	0,033
-709,904	-200,000	0,002	-0,042
-708,889	-147,775	-0,050	0,003
-707,875	-11,662	-0,055	-0,026
-706,860	231,044	0,076	-0,091
-705,845	800,000	-0,052	0,111
-704,831	800,000	0,020	-0,044
-703,816	-105,642	-0,130	-0,021
-702,802	-200,000	-0,011	-0,166
-701,787	-97,347	-0,089	-0,017
-700,772	168,996	-0,104	-0,108
-699,758	-68,516	-0,078	-0,022
-698,743	-74,500	-0,047	-0,012
-697,729	16,334	-0,099	-0,056
-696,714	-107,227	0,034	0,005
-695,699	102,446	-0,093	-0,079
-694,685	81,124	0,035	-0,028
-693,670	41,065	0,020	-0,013
-692,656	-171,928	-0,088	0,002
-691,641	-65,566	-0,059	-0,017
-690,627	-200,000	-0,044	0,146
-689,612	14,075	0,084	0,047
-688,597	-46,813	-0,049	-0,017
-687,583	58,614	-0,093	-0,066
-686,568	-200,000	0,002	0,101
-685,554	126,460	-0,043	-0,040
-684,539	-173,896	-0,104	-0,002
-683,524	423,189	0,083	-0,130
-682,510	14,266	0,125	0,071
-681,495	-200,000	0,012	-0,096
-680,481	-138,346	0,125	-0,010
-679,466	-58,207	-0,094	0,030
-678,451	131,131	-0,075	-0,070
-677,437	800,000	-0,035	-0,093
-676,422	-200,000	0,008	-0,036
-675,408	-95,411	-0,065	-0,013
-674,393	469,217	-0,015	-0,024
-673,378	-200,000	-0,018	-0,133
-672,364	268,724	-0,060	-0,076
-671,349	800,000	0,008	-0,023
-670,335	366,156	0,040	-0,059
-669,320	88,617	-0,098	0,079
-668,305	-200,000	-0,010	0,071
-667,291	-200,000	0,006	0,121
-666,276	387,290	0,021	-0,031
-665,262	72,709	-0,091	-0,069
-664,247	-107,679	-0,130	-0,020
-663,232	116,268	-0,073	-0,065
-662,218	-154,867	0,028	-0,001
-661,203	-97,797	-0,049	0,009
-660,189	128,053	-0,028	0,026
-659,174	-137,194	-0,050	0,004
-658,159	-200,000	0,012	-0,145
-657,145	514,622	0,090	-0,152
-656,130	372,547	0,086	-0,127
-655,116	671,603	-0,063	0,118
-654,101	185,873	0,046	0,049
-653,086	800,000	0,018	0,038
-652,072	-58,019	-0,079	0,025
-651,057	331,601	0,023	0,033
-650,043	140,867	-0,035	-0,033
-649,028	-200,000	0,014	-0,241
-648,014	12,270	0,033	0,018
-646,999	800,000	-0,071	0,185
-645,984	69,674	0,041	0,031
-644,970	156,911	-0,072	0,072
-643,955	-57,687	-0,093	-0,029
-642,941	-200,000	0,003	-0,157
-641,926	800,000	-0,044	-0,100
-640,911	800,000	-0,025	0,056
-639,897	800,000	0,046	0,139
-638,882	-200,000	-0,006	0,022
-637,868	262,211	-0,028	0,036
-636,853	175,964	0,068	-0,072
-635,838	22,636	-0,141	-0,084
-634,824	406,923	-0,049	-0,075
-633,809	-200,000	-0,002	-0,008
-632,795	-78,164	-0,037	0,009
-631,780	-200,000	0,001	0,035
-630,765	-66,271	-0,065	0,019
-629,751	-200,000	-0,021	-0,112
-628,736	-200,000	0,001	-0,030
-627,722	-200,000	-0,021	0,127
-626,707	-123,069	-0,110	0,013
-625,692	17,536	0,139	-0,080
-624,678	592,209	0,042	0,075
-623,663	800,000	-0,057	-0,151
-622,649	739,057	0,067	0,131
-621,634	-28,062	-0,108	-0,045
-620,619	126,296	0,082	-0,075
-619,605	431,147	-0,072	-0,114
-618,590	12,845	-0,083	0,046
-617,576	356,430	-0,062	0,090
-616,561	-26,973	-0,048	-0,020
-615,546	-200,000	0,031	-0,152
-614,532	194,696	-0,083	0,091
-613,517	-200,000	-0,014	-0,098
-612,503	-200,000	0,002	0,068
-611,488	-200,000	0,037	0,123
-610,474	800,000	0,011	-0,029
-609,459	-149,894	-0,144	-0,008
-608,444	285,082	0,058	-0,076
-607,430	800,000	-0,034	-0,078
-606,415	799,456	0,023	-0,047
-605,401	-200,000	0,001	0,018
-604,386	-102,349	0,167	0,029
-603,371	800,000	0,045	-0,125
-602,357	193,137	-0,066	-0,073
-601,342	15,847	-0,223	0,126
-600,328	-3,272	0,044	0,022
-599,313	106,655	-0,086	-0,074
-598,298	-24,714	-0,054	0,023
-597,284	-200,000	-0,006	0,146
-596,269	635,986	0,037	0,067
-595,255	-1,747	-0,056	0,028
-594,240	800,000	-0,002	0,004
-593,225	800,000	0,052	-0,112
-592,211	-105,990	-0,138	-0,022
-591,196	800,000	-0,030	-0,094
-590,182	-92,202	-0,089	0,018
-589,167	-19,162	0,176	0,079
-588,152	378,337	-0,023	-0,034
-587,138	11,219	-0,100	-0,055
-586,123	-122,440	0,105	0,012
-585,109	-159,953	-0,166	0,006
-584,094	42,474	-0,097	-0,064
-583,079	532,606	0,048	-0,083
-582,065	313,573	0,081	0,110
-581,050	-125,737	0,277	-0,030
-580,036	800,000	-0,012	-0,027
-579,021	800,000	0,044	-0,120
-578,006	85,399	-0,115	-0,091
-576,992	166,999	0,058	0,060
-575,977	-102,363	0,108	-0,019
-574,963	195,902	0,138	0,152
-573,948	120,527	-0,046	-0,041
-572,934	23,049	0,017	-0,010
-571,919	-24,004	-0,085	-0,037
-570,904	231,290	-0,009	-0,011
-569,890	-151,417	-0,116	0,006
-568,875	124,413	-0,039	0,035
-567,861	76,934	-0,093	-0,071
-566,846	549,231	-0,035	0,061
-565,831	800,000	0,007	-0,015
-564,817	800,000	-0,053	-0,120
-563,802	-36,335	-0,058	-0,023
-562,788	288,519	-0,063	-0,082
-561,773	-200,000	0,030	0,107
-560,758	-85,567	0,031	-0,007
-559,744	247,033	-0,029	0,035
-558,729	118,675	0,086	-0,077
-557,715	13,165	0,019	0,010
-556,700	-139,411	-0,088	-0,007
-555,685	-76,386	-0,107	-0,027
-554,671	-119,847	0,116	-0,014
-553,656	-200,000	0,014	0,060
-552,642	-200,000	0,000	0,012
-551,627	214,652	-0,086	-0,099
-550,612	-48,165	0,051	0,018
-549,598	-200,000	0,042	-0,134
-548,583	800,000	0,016	0,040
-547,569	-5,721	0,115	0,057
-546,554	728,605	-0,059	0,114
-545,539	313,288	0,041	0,056
-544,525	60,907	0,018	-0,013
-543,510	-23,389	-0,082	0,036
-542,496	-30,005	-0,185	0,076
-541,481	26,527	-0,120	0,072
-540,466	-145,817	-0,051	0,003
-539,452	178,689	0,049	0,052
-538,437	130,882	0,136	0,126
-537,423	464,485	-0,061	-0,099
-536,408	-200,000	-0,027	0,101
-535,393	380,083	-0,053	0,078
-534,379	-71,663	0,168	0,045
-533,364	106,104	0,031	0,026
-532,350	-200,000	-0,031	0,188
-531,335	-200,000	-0,012	-0,050
-530,321	-200,000	0,005	-0,098
-529,306	-125,933	-0,057	0,006
-528,291	59,509	-0,129	0,092
-527,277	-200,000	-0,036	-0,122
-526,262	-200,000	0,018	0,061
-525,248	-173,233	0,103	0,002
-524,233	-4,921	0,101	0,050
-523,218	295,050	0,020	0,026
-522,204	191,537	-0,023	-0,025
-521,189	-113,092	-0,035	-0,005
-520,175	128,206	0,048	0,044
-519,160	800,000	0,007	0,017
-518,145	-46,027	0,106	-0,037
-517,131	-200,000	-0,036	0,118
-516,116	-150,671	0,184	-0,010
-515,102	144,634	0,094	0,091
-514,087	-200,000	0,004	-0,127
-513,072	15,144	-0,059	-0,034
-512,058	-81,953	0,106	0,025
-511,043	94,377	-0,131	-0,107
-510,029	800,000	0,017	0,052
-509,014	-57,963	0,059	0,018
-507,999	-124,648	0,043	0,005
-506,985	800,000	-0,037	-0,104
-505,970	-200,000	-0,011	-0,112
-504,956	-200,000	-0,022	-0,095
-503,941	-99,260	-0,053	0,009
-502,926	-35,227	0,074	-0,029
-501,912	748,918	0,016	0,031
-500,897	-200,000	0,021	0,242
-499,883	326,227	0,053	0,073
-498,868	196,664	-0,088	-0,097
-497,853	337,418	0,051	-0,071
-496,839	-62,194	0,076	-0,023
-495,824	355,525	-0,081	0,116
-494,810	-23,889	0,086	0,037
-493,795	-132,294	0,043	-0,004
-492,781	-94,006	0,040	0,008
-491,766	183,193	-0,088	0,093
-490,751	-3,870	-0,057	0,028
-489,737	-1,133	-0,020	-0,010
-488,722	-56,547	0,073	0,023
-487,708	-200,000	0,018	0,111
-486,693	225,861	0,055	0,064
-485,678	222,384	0,039	-0,046
-484,664	350,972	-0,113	-0,161
-483,649	-200,000	0,034	0,116
-482,635	-200,000	-0,043	0,162
-481,620	-78,725	0,126	0,031
-480,605	800,000	0,033	0,070
-479,591	55,009	0,126	0,088
-478,576	451,556	-0,038	-0,061
-477,562	-200,000	0,044	-0,156
-476,547	-200,000	0,003	-0,155
-475,532	332,918	-0,045	-0,063
-474,518	-200,000	-0,012	0,133
-473,503	-200,000	0,016	0,092
-472,489	-200,000	-0,013	0,074
-471,474	-86,092	0,059	0,013
-470,459	5,612	0,125	-0,066
-469,445	3,505	-0,082	-0,043
-468,430	273,320	-0,058	-0,074
-467,416	-36,260	0,110	-0,042
-466,401	-200,000	-0,006	-0,096
-465,386	-67,660	-0,044	-0,012
-464,372	-1,182	0,030	-0,015
-463,357	67,579	-0,063	-0,046
-462,343	-200,000	-0,013	-0,046
-461,328	-67,134	0,170	-0,048
-460,313	-200,000	0,019	0,136
-459,299	230,945	0,026	-0,030
-458,284	401,041	0,036	0,054
-457,270	800,000	0,043	0,096
-456,255	800,000	-0,015	0,035
-455,241	-90,840	0,029	0,006
-454,226	-200,000	0,025	-0,112
-453,211	800,000	0,013	-0,026
-452,197	321,932	0,023	-0,032
-451,182	460,300	0,036	0,058
-450,168	-117,215	0,071	-0,009
-449,153	800,000	-0,015	-0,046
-448,138	-106,716	0,110	0,017
-447,124	137,431	0,033	-0,031
-446,109	-24,470	-0,043	-0,018
-445,095	-25,839	0,147	-0,062
-444,080	47,807	-0,065	-0,043
-443,065	157,621	-0,043	-0,043
-442,051	-200,000	-0,038	0,128
-441,036	-200,000	-0,009	0,062
-440,022	295,294	0,081	-0,106
-439,007	462,949	0,055	0,088
-437,992	338,306	-0,064	0,090
-436,978	25,551	0,196	0,117
-435,963	117,471	-0,082	-0,072
-434,949	-200,000	0,018	-0,141
-433,934	134,862	0,038	-0,036
-432,919	-200,000	-0,010	-0,220
-431,905	258,195	0,090	-0,112
-430,890	-58,339	-0,038	-0,012
-429,876	-200,000	0,017	-0,146
-428,861	141,068	-0,014	-0,013
-427,846	227,329	-0,021	-0,025
-426,832	800,000	0,033	-0,090
-425,817	159,410	-0,107	-0,107
-424,803	176,508	-0,069	0,072
-423,788	-73,675	0,105	0,027
-422,773	30,783	0,078	-0,048
-421,759	337,511	0,039	0,054
-420,744	-200,000	0,003	-0,046
-419,730	-81,917	-0,112	0,026
-418,715	-170,714	-0,050	-0,001
-417,701	-200,000	-0,022	-0,077
-416,686	141,175	0,057	-0,054
-415,671	-117,148	-0,078	-0,010
-414,657	-10,579	0,152	0,072
-413,642	-7,336	0,047	-0,023
-412,628	-170,996	0,026	0,001
-411,613	190,015	-0,097	-0,105
-410,598	-200,000	-0,035	-0,149
-409,584	-200,000	-0,015	-0,070
-408,569	-41,035	0,068	0,025
-407,555	14,754	-0,106	0,059
-406,540	-144,459	-0,041	0,003
-405,525	140,680	0,014	-0,013
-404,511	800,000	-0,028	0,067
-403,496	525,816	-0,009	0,016
-402,482	89,846	0,066	-0,053
-401,467	-127,565	0,169	0,017
-400,452	-200,000	0,009	0,044
-399,438	2,780	0,036	-0,019
-398,423	48,638	0,081	0,055
-397,409	800,000	-0,074	-0,177
-396,394	146,643	0,026	0,025
-395,379	-178,585	0,304	-0,005
-394,365	-141,781	-0,103	0,007
-393,350	160,490	0,071	-0,071
-392,336	-200,000	-0,040	0,152
-391,321	518,002	0,049	0,083
-390,306	-112,738	-0,156	0,022
-389,292	800,000	0,038	-0,117
-388,277	108,870	-0,073	0,062
-387,263	13,007	0,105	0,058
-386,248	-200,000	-0,024	0,078
-385,233	121,467	0,218	0,195
-384,219	55,324	-0,103	-0,072
-383,204	247,370	-0,032	-0,039
-382,190	71,197	0,059	-0,044
-381,175	-200,000	0,000	-0,004
-380,160	-200,000	-0,035	-0,250
-379,146	483,279	-0,040	-0,066
-378,131	-200,000	-0,010	0,093
-377,117	727,856	0,033	-0,064
-376,102	384,159	-0,069	-0,103
-375,088	209,787	-0,045	-0,051
-374,073	800,000	0,041	-0,111
-373,058	-200,000	0,036	-0,137
-372,044	350,163	-0,028	-0,040
-371,029	-200,000	-0,028	0,095
-370,015	800,000	0,026	0,066
-369,000	-200,000	-0,002	0,095
-367,985	3,005	-0,039	-0,020
-366,971	-176,386	-0,098	-0,002
-365,956	-59,986	0,083	0,025
-364,942	160,336	0,082	0,082
-363,927	-200,000	-0,011	0,066
-362,912	-96,226	0,034	0,006
-361,898	284,886	-0,050	0,065
-360,883	-10,866	-0,134	-0,063
-359,869	-81,068	-0,021	0,005
-358,854	800,000	0,010	-0,025
-357,839	-10,191	0,068	0,032
-356,825	-33,635	0,104	0,041
-355,810	176,439	0,100	0,105
-354,796	130,083	0,069	-0,063
-353,781	-200,000	0,025	-0,089
-352,766	119,923	0,038	-0,034
-351,752	264,881	-0,108	-0,135
-350,737	-130,181	0,069	-0,007
-349,723	-0,755	-0,060	0,031
-348,708	-200,000	-0,030	0,110
-347,693	-200,000	-0,029	-0,126
-346,679	142,773	-0,085	-0,081
-345,664	-111,099	-0,045	-0,007
-344,650	0,386	0,048	-0,025
-343,635	450,757	-0,036	0,057
-342,620	800,000	0,009	0,027
-341,606	-64,641	-0,110	-0,032
-340,591	-200,000	-0,007	0,118
-339,577	140,949	0,042	0,040
-338,562	-85,040	-0,118	-0,026
-337,548	-200,000	-0,009	0,060
-336,533	-200,000	0,052	0,169
-335,518	149,687	0,050	0,049
-334,504	-200,000	0,136	0,000
-333,489	-200,000	0,019	0,101
-332,475	-200,000	-0,004	-0,023
-331,460	27,092	-0,050	0,030
-330,445	111,765	0,101	-0,088
-329,431	-24,466	0,011	0,005
-328,416	-77,358	0,071	-0,018
-327,402	289,531	0,058	0,075
-326,387	800,000	-0,064	0,142
-325,372	-56,327	0,102	-0,032
-324,358	-117,455	-0,055	0,007
-323,343	188,341	-0,040	-0,043
-322,329	95,767	0,179	0,146
-321,314	-200,000	0,027	0,116
-320,299	83,124	0,084	0,065
-319,285	-10,163	0,059	0,028
-318,270	70,885	-0,013	0,010
-317,256	188,577	0,024	-0,026
-316,241	800,000	0,033	-0,086
-315,226	152,851	0,023	0,023
-314,212	-200,000	-0,008	0,028
-313,197	-57,281	-0,168	-0,053
-312,183	-200,000	-0,006	0,111
-311,168	800,000	-0,053	-0,137
-310,153	800,000	-0,034	-0,101
-309,139	81,968	0,086	0,067
-308,124	558,776	-0,046	-0,080
-307,110	-102,866	0,076	-0,013
-306,095	-3,809	0,084	0,042
-305,080	518,339	0,062	-0,105
-304,066	-200,000	0,010	0,083
-303,051	95,830	-0,063	0,051
-302,037	-200,000	-0,001	0,009
-301,022	32,722	-0,120	0,074
-300,008	168,530	0,080	0,081
-298,993	576,004	0,027	0,048
-297,978	-50,104	-0,050	0,017
-296,964	4,942	0,131	-0,069
-295,949	25,148	-0,153	-0,091
-294,935	672,356	-0,059	0,110
-293,920	-200,000	-0,027	-0,159
-292,905	-200,000	0,003	-0,032
-291,891	-200,000	0,010	0,042
-290,876	411,607	-0,064	-0,097
-289,862	-160,763	0,080	-0,003
-288,847	800,000	-0,066	-0,158
-287,832	272,170	-0,162	-0,205
-286,818	-137,382	0,068	-0,005
-285,803	87,692	0,077	0,061
-284,789	112,404	-0,010	-0,009
-283,774	136,230	0,072	0,067
-282,759	-200,000	-0,041	0,150
-281,745	-200,000	0,020	-0,070
-280,730	-127,405	-0,040	0,004
-279,716	-200,000	0,000	-0,113
-278,701	798,326	0,029	-0,057
-277,686	630,334	0,097	0,177
-276,672	15,556	-0,034	-0,019
-275,657	800,000	0,026	-0,053
-274,643	498,869	0,039	-0,065
-273,628	545,696	0,071	0,121
-272,613	-141,117	0,050	-0,004
-271,599	-200,000	0,008	0,045
-270,584	108,382	-0,069	0,058
-269,570	257,435	0,062	0,076
-268,555	32,568	-0,029	0,018
-267,540	-137,690	-0,129	-0,010
-266,526	24,134	-0,134	-0,079
-265,511	105,105	0,065	0,055
-264,497	-200,000	-0,014	0,071
-263,482	-200,000	0,013	0,061
-262,467	800,000	0,014	0,041
-261,453	-118,992	0,151	0,019
-260,438	-122,834	-0,053	0,006
-259,424	-107,115	-0,057	-0,009
-258,409	-200,000	-0,091	0,000
-257,395	-200,000	0,002	0,030
-256,380	416,206	-0,038	0,058
-255,365	-144,623	-0,062	-0,004
-254,351	-200,000	-0,004	0,075
-253,336	800,000	-0,036	-0,074
-252,322	-200,000	0,043	-0,210
-251,307	-200,000	0,004	-0,073
-250,292	-200,000	0,005	-0,038
-249,278	528,109	0,005	0,009
-248,263	406,828	-0,060	0,091
-247,249	-110,325	-0,097	-0,014
-246,234	356,515	0,051	0,072
-245,219	-41,747	-0,031	0,011
-244,205	22,051	-0,111	0,064
-243,190	125,795	-0,087	0,078
-242,176	-35,070	0,119	0,046
-241,161	-75,823	0,106	-0,027
-240,146	398,270	0,098	0,147
-239,132	-200,000	0,066	0,209
-238,117	-200,000	0,004	-0,069
-237,103	-30,888	-0,027	-0,011
-236,088	-200,000	0,001	-0,055
-235,073	90,326	-0,081	-0,065
-234,059	-200,000	-0,011	0,038
-233,044	70,465	-0,086	0,063
-232,030	-102,073	-0,040	-0,007
-231,015	-134,537	-0,114	-0,010
-230,000	210,833	-0,037	0,042
-228,986	20,050	0,216	0,124
-227,971	800,000	0,006	0,016
-226,957	800,000	-0,017	0,035
-225,942	62,828	-0,086	0,061
-224,927	336,338	0,122	-0,169
-223,913	29,735	-0,014	0,009
-222,898	-167,190	-0,193	0,005
-221,884	-114,981	-0,227	0,030
-220,869	92,151	0,043	-0,034
-219,855	-75,283	0,137	-0,035
-218,840	-200,000	0,020	0,129
-217,825	-26,001	0,148	0,062
-216,811	48,023	-0,006	0,004
-215,796	156,447	-0,055	0,054
-214,782	800,000	-0,074	-0,170
-213,767	10,143	0,098	0,053
-212,752	797,883	-0,090	-0,177
-211,738	780,657	-0,041	0,081
-210,723	13,141	-0,125	0,069
-209,709	72,536	-0,035	-0,026
-208,694	30,520	-0,169	-0,103
-207,679	-46,963	0,062	0,021
-206,665	105,419	-0,068	0,057
-205,650	223,457	-0,040	-0,046
-204,636	800,000	0,060	0,143
-203,621	-18,959	0,056	0,025
-202,606	328,553	-0,031	0,042
-201,592	-110,739	-0,060	-0,009
-200,577	800,000	0,034	0,086
-199,563	51,080	-0,044	-0,029
-198,548	-121,171	-0,106	0,012
-197,533	61,407	-0,030	-0,021
-196,519	-32,218	-0,050	0,020
-195,504	425,862	-0,010	0,016
-194,490	-5,610	-0,040	-0,020
-193,475	180,725	-0,098	-0,103
-192,460	-200,000	-0,040	-0,138
-191,446	473,739	-0,026	-0,043
-190,431	268,816	0,053	0,066
-189,417	1,638	0,143	0,073
-188,402	167,070	0,061	0,062
-187,387	-43,271	-0,085	-0,030
-186,373	343,132	-0,023	0,032
-185,358	-200,000	-0,007	-0,151
-184,344	280,579	-0,041	-0,052
-183,329	-200,000	0,005	0,029
-182,315	444,771	-0,015	0,024
-181,300	56,681	-0,062	-0,043
-180,285	-200,000	0,025	0,095
-179,271	-162,910	-0,149	0,005
-178,256	-200,000	0,046	-0,273
-177,242	327,776	-0,006	0,008
-176,227	-200,000	-0,041	0,179
-175,212	800,000	-0,035	-0,078
-174,198	552,314	0,036	0,062
-173,183	15,268	-0,024	-0,013
-172,169	-13,334	0,085	0,039
-171,154	412,289	-0,094	-0,142
-170,139	74,256	-0,023	-0,017
-169,125	315,545	0,076	0,102
-168,110	-200,000	-0,029	-0,148
-167,096	45,117	0,117	-0,077
-166,081	-83,780	0,078	-0,018
-165,066	265,526	-0,041	-0,051
-164,052	-65,370	0,094	0,027
-163,037	-200,000	-0,001	0,094
-162,023	63,209	0,119	0,085
-161,008	-125,120	0,064	-0,007
-159,993	-192,730	-0,094	0,001
-158,979	-200,000	0,001	-0,095
-157,964	23,988	-0,085	-0,050
-156,950	-65,400	-0,037	0,010
-155,935	-200,000	0,046	0,166
-154,920	121,861	-0,079	0,070
-153,906	-86,713	0,106	0,023
-152,891	-200,000	0,003	0,048
-151,877	800,000	-0,011	-0,026
-150,862	-200,000	0,010	0,036
-149,847	51,386	-0,153	-0,103
-148,833	100,992	0,083	0,068
-147,818	699,210	0,086	0,161
-146,804	800,000	0,041	0,110
-145,789	54,683	0,130	0,089
-144,775	-83,660	-0,113	-0,025
-143,760	334,552	0,031	0,043
-142,745	-165,697	-0,132	0,004
-141,731	-200,000	-0,001	0,197
-140,716	-65,166	0,114	0,033
-139,702	14,734	-0,057	-0,032
-138,687	-7,938	-0,058	-0,028
-137,672	476,829	-0,051	0,082
-136,658	220,286	0,034	-0,038
-135,643	-196,399	0,011	0,000
-134,629	4,587	0,134	-0,069
-133,614	-113,936	0,089	0,012
-132,599	-14,445	0,072	0,033
-131,585	-200,000	0,015	0,087
-130,570	48,590	0,113	0,075
-129,556	-163,362	-0,076	0,003
-128,541	800,000	-0,059	-0,130
-127,526	-200,000	0,002	-0,036
-126,512	278,982	0,038	-0,048
-125,497	800,000	-0,054	0,127
-124,483	800,000	-0,032	0,083
-123,468	-27,935	-0,135	0,055
-122,453	792,448	0,041	-0,081
-121,439	109,839	0,069	-0,059
-120,424	-20,659	-0,021	-0,009
-119,410	-108,355	0,060	0,009
-118,395	363,220	0,087	-0,124
-117,380	66,043	-0,105	-0,076
-116,366	216,762	-0,016	0,019
-115,351	800,000	0,029	0,064
-114,337	129,902	-0,065	-0,059
-113,322	20,530	0,043	0,025
-112,307	-9,608	-0,154	-0,072
-111,293	33,115	0,109	-0,067
-110,278	-41,456	0,098	-0,035
-109,264	-69,233	-0,120	-0,032
-108,249	729,161	0,072	-0,136
-107,234	-139,125	-0,136	0,010
-106,220	-200,000	0,019	0,090
-105,205	150,325	0,067	0,065
-104,191	-200,000	0,020	0,083
-103,176	-82,026	0,132	-0,030
-102,162	-200,000	-0,024	0,095
-101,147	607,440	-0,067	-0,119
-100,132	-70,787	0,088	-0,023
-99,118	800,000	-0,023	-0,048
-98,103	-185,088	-0,122	-0,001
-97,089	-124,042	0,015	0,002
-96,074	-55,137	-0,059	0,019
-95,059	-108,322	-0,111	-0,017
-94,045	-185,318	0,099	0,001
-93,030	62,351	-0,104	-0,074
-92,016	800,000	0,017	-0,036
-91,001	755,645	0,040	-0,077
-89,986	143,806	0,075	0,071
-88,972	-200,000	0,036	0,139
-87,957	718,174	-0,082	0,155
-86,943	-150,107	-0,089	-0,005
-85,928	304,753	-0,137	0,181
-84,913	204,508	0,054	0,059
-83,899	-156,024	0,043	0,002
-82,884	-200,000	-0,025	0,093
-81,870	800,000	0,058	0,142
-80,855	-36,349	-0,033	-0,013
-79,840	454,211	-0,005	-0,007
-78,826	18,520	-0,096	-0,054
-77,811	11,758	-0,116	-0,063
-76,797	-125,997	-0,012	-0,001
-75,782	125,437	-0,089	0,080
-74,767	-13,890	0,143	0,065
-73,753	109,090	-0,059	0,050
-72,738	800,000	-0,044	-0,090
-71,724	800,000	-0,008	-0,025
-70,709	202,136	-0,034	0,037
-69,694	127,801	-0,054	-0,049
-68,680	-200,000	-0,003	0,107
-67,665	-0,735	-0,072	0,036
-66,651	39,478	0,064	0,040
-65,636	82,692	-0,027	0,020
-64,622	629,843	-0,006	-0,011
-63,607	800,000	0,059	-0,151
-62,592	-110,034	-0,034	-0,005
-61,578	34,701	-0,036	0,022
-60,563	-101,237	0,123	-0,021
-59,549	418,762	-0,093	0,141
-58,534	-21,855	-1,604	-0,688
-57,519	403,402	-1,379	-2,061
-56,505	-200,000	-0,417	-4,506
-55,490	225,720	0,931	1,071
-54,476	800,000	5,068	11,356
-53,461	-200,000	19,191	316,683
-52,446	-200,000	739,408	2333,514
-51,432	576,239	1655,594	2875,928
-50,417	78,859	1671,448	1265,480
-49,403	21,659	1544,057	887,793
-48,388	15,529	1466,340	813,302
-47,373	17,954	1456,488	819,525
-46,359	16,772	1446,559	808,235
-45,344	13,699	1442,153	791,017
-44,330	13,656	1440,078	789,639
-43,315	13,671	1438,270	788,688
-42,300	13,663	1436,682	787,750
-41,286	13,663	1435,472	787,056
-40,271	13,658	1434,190	786,297
-39,257	13,699	1432,648	785,614
-38,242	13,735	1431,385	785,061
-37,227	13,713	1430,346	784,357
-36,213	13,707	1429,025	783,575
-35,198	13,722	1427,813	782,949
-34,184	13,765	1426,769	782,547
-33,169	13,695	1425,577	781,532
-32,154	13,753	1424,324	781,091
-31,140	13,719	1423,288	780,331
-30,125	13,768	1422,016	779,834
-29,111	13,703	1420,985	778,928
-28,096	13,727	1419,806	778,364
-27,082	13,667	1418,673	777,430
-26,067	13,660	1417,540	776,746
-25,052	13,648	1416,554	776,118
-24,038	13,614	1415,582	775,395
-23,023	13,625	1414,597	774,876
-22,009	13,624	1413,448	774,210
-20,994	13,602	1412,613	773,618
-19,979	13,662	1411,649	773,341
-18,965	13,572	1411,050	772,560
-17,950	13,586	1409,987	772,015
-16,936	13,595	1408,872	771,414
-15,921	13,608	1407,854	770,885
-14,906	13,591	1406,834	770,219
-13,892	13,563	1405,894	769,545
-12,877	13,540	1405,233	769,045
-11,863	13,560	1404,105	768,490
-10,848	13,564	1403,316	768,045
-9,833	13,536	1402,378	767,373
-8,819	13,506	1401,479	766,708
-7,804	13,423	1400,746	765,890
-6,790	13,472	1399,714	765,525
-5,775	13,475	1398,573	764,885
-4,760	13,481	1397,621	764,359
-3,746	13,450	1396,890	763,788
-2,731	13,436	1396,099	763,258
-1,717	13,401	1395,227	762,591
-0,702	13,403	1393,432	761,587
0,313	17,196	1310,818	734,033
1,327	33,354	704,825	432,095
2,342	50,571	123,708	82,694
3,356	2,086	16,669	8,491
4,371	17,521	3,178	1,782
5,386	-18,640	0,618	0,271
6,400	-12,094	-0,097	0,045
7,415	137,620	-0,182	-0,169
8,429	-55,377	-0,248	-0,078
9,444	15,122	-0,349	-0,193
10,459	-165,616	-0,282	-0,008
11,473	-45,134	-0,393	-0,137
12,488	255,897	-0,167	-0,203
13,502	101,952	-0,328	-0,271
14,517	24,913	-0,426	-0,249
15,531	-38,461	-0,300	-0,112
16,546	71,394	-0,218	-0,160
17,561	167,756	-0,273	-0,275
18,575	84,433	-0,237	-0,183
19,590	67,075	-0,362	-0,260
20,604	-25,934	-0,253	-0,105
21,619	-17,340	-0,491	-0,218
22,634	117,304	-0,374	-0,325
23,648	126,959	-0,419	-0,375
24,663	161,937	-0,300	-0,297
25,677	180,444	-0,361	-0,375
26,692	171,930	-0,328	-0,333
27,707	53,804	-0,262	-0,177
28,721	36,010	-0,470	-0,291
29,736	39,204	-0,458	-0,289
30,750	-34,043	-0,446	-0,172
31,765	163,923	-0,358	-0,356
32,780	-12,046	-0,371	-0,171
33,794	-105,888	-0,380	-0,060
34,809	35,809	-0,364	-0,226
35,823	9,896	-0,486	-0,259
36,838	137,306	-0,376	-0,347
37,853	295,432	-0,249	-0,322
38,867	126,309	-0,365	-0,326
39,882	163,084	-0,285	-0,282
40,896	-61,418	-0,426	-0,126
41,911	-3,093	-0,378	-0,185
42,926	-85,761	-0,425	-0,092
43,940	213,277	-0,339	-0,379
44,955	104,862	-0,432	-0,359
45,969	45,314	-0,389	-0,253
46,984	98,244	-0,472	-0,383
47,999	305,748	-0,160	-0,210
49,013	42,132	-0,364	-0,233
50,028	165,251	-0,214	-0,213
51,042	8,866	-0,361	-0,191
52,057	118,976	-0,300	-0,261
53,071	82,468	-0,425	-0,325
54,086	72,640	-0,388	-0,285
55,101	91,804	-0,349	-0,277
56,115	800,000	-0,203	-0,413
57,130	73,560	-0,334	-0,246
58,144	29,104	-0,477	-0,284
59,159	-26,260	-0,368	-0,152
60,174	9,083	-0,511	-0,271
61,188	9,570	-0,324	-0,172
62,203	120,996	-0,356	-0,312
63,217	172,363	-0,305	-0,310
64,232	-77,076	-0,411	-0,100
65,247	57,058	-0,330	-0,226
66,261	149,280	-0,389	-0,370
67,276	328,069	-0,223	-0,302
68,290	112,240	-0,369	-0,314
69,305	209,827	-0,159	-0,176
70,320	26,749	-0,332	-0,195
71,334	137,143	-0,239	-0,219
72,349	-2,086	-0,368	-0,181
73,363	21,198	-0,268	-0,153
74,378	82,069	-0,306	-0,233
75,393	102,026	-0,360	-0,295
76,407	184,515	-0,257	-0,268
77,422	-44,046	-0,309	-0,109
78,436	-170,950	-0,355	-0,008
79,451	-60,174	-0,368	-0,110
80,466	118,945	-0,249	-0,216
81,480	51,763	-0,345	-0,230
82,495	72,083	-0,234	-0,171
83,509	345,766	-0,279	-0,386
84,524	-30,348	-0,336	-0,133
85,539	-31,073	-0,393	-0,155
86,553	187,949	-0,249	-0,261
87,568	-71,733	-0,296	-0,077
88,582	45,468	-0,228	-0,148
89,597	404,975	-0,221	-0,328
90,611	192,715	-0,251	-0,267
91,626	28,168	-0,271	-0,160
92,641	303,100	-0,152	-0,198
93,655	73,693	-0,256	-0,188
94,670	1,755	-0,285	-0,144
95,684	35,716	-0,316	-0,194
96,699	224,608	-0,156	-0,178
97,714	-84,247	-0,300	-0,066
98,728	27,905	-0,296	-0,175
99,743	-40,795	-0,261	-0,094
100,757	-79,260	-0,330	-0,078
101,772	50,994	-0,304	-0,202
102,787	106,561	-0,214	-0,178
103,801	217,482	-0,206	-0,230
104,816	80,393	-0,227	-0,171
105,830	105,817	-0,218	-0,181
106,845	292,622	-0,210	-0,269
107,860	31,913	-0,267	-0,161
108,874	-113,492	-0,259	-0,035
109,889	89,097	-0,284	-0,222
110,903	16,852	-0,329	-0,182
111,918	44,711	-0,208	-0,134
112,933	21,080	-0,153	-0,087
113,947	27,466	-0,228	-0,134
114,962	270,396	-0,243	-0,300
115,976	-182,252	-0,173	-0,002
116,991	54,169	-0,299	-0,201
118,006	105,114	-0,245	-0,203
119,020	178,601	-0,237	-0,243
120,035	72,254	-0,224	-0,163
121,049	50,356	-0,137	-0,091
122,064	800,000	-0,063	-0,147
123,079	183,371	-0,205	-0,212
124,093	179,065	-0,259	-0,265
125,108	502,474	-0,172	-0,280
126,122	41,130	-0,252	-0,159
127,137	62,203	-0,191	-0,133
128,151	188,268	-0,150	-0,157
129,166	77,750	-0,192	-0,143
130,181	-28,554	-0,218	-0,088
131,195	-15,955	-0,348	-0,154
132,210	-3,501	-0,262	-0,127
133,224	800,000	-0,186	-0,379
134,239	218,725	-0,197	-0,221
135,254	387,862	-0,148	-0,215
136,268	9,881	-0,149	-0,079
137,283	2,884	-0,223	-0,113
138,297	74,984	-0,373	-0,274
139,312	-17,993	-0,393	-0,171
140,327	-25,797	-0,270	-0,111
141,341	238,657	-0,219	-0,255
142,356	331,952	-0,180	-0,244
143,370	-53,151	-0,284	-0,091
144,385	54,375	-0,332	-0,223
145,400	61,399	-0,335	-0,233
146,414	100,921	-0,257	-0,209
147,429	267,875	-0,196	-0,241
148,443	26,328	-0,200	-0,116
149,458	244,903	-0,058	-0,068
150,473	-65,116	-0,322	-0,090
151,487	89,017	-0,171	-0,133
152,502	104,031	-0,282	-0,232
153,516	308,819	-0,143	-0,187
154,531	5,591	-0,266	-0,137
155,546	302,010	-0,235	-0,304
156,560	-0,760	-0,255	-0,126
157,575	798,474	-0,110	-0,213
158,589	172,308	-0,216	-0,217
159,604	55,359	-0,235	-0,158
160,619	666,127	-0,170	-0,307
161,633	389,561	-0,120	-0,175
162,648	-200,000	-0,062	-0,296
163,662	540,072	-0,162	-0,270
164,677	134,074	-0,144	-0,130
165,692	118,560	-0,129	-0,111
166,706	-73,114	-0,209	-0,053
167,721	-33,411	-0,307	-0,118
168,735	171,162	-0,127	-0,127
169,750	-23,408	-0,318	-0,133
170,764	-17,703	-0,232	-0,101
171,779	-148,152	-0,177	-0,010
172,794	-2,412	-0,222	-0,108
173,808	307,050	-0,105	-0,137
174,823	-86,150	-0,210	-0,045
175,837	178,947	-0,277	-0,283
176,852	-12,776	-0,260	-0,118
177,867	191,454	-0,243	-0,255
178,881	7,693	-0,259	-0,135
179,896	31,563	-0,246	-0,147
180,910	160,738	-0,171	-0,167
181,925	-8,319	-0,141	-0,066
182,940	76,693	-0,263	-0,194
183,954	-60,682	-0,288	-0,084
184,969	6,533	-0,300	-0,155
185,983	66,056	-0,146	-0,103
186,998	46,158	-0,147	-0,095
188,013	47,189	-0,294	-0,190
189,027	-95,943	-0,241	-0,044
190,042	280,942	-0,185	-0,231
191,056	594,789	-0,121	-0,210
192,071	147,798	-0,118	-0,111
193,086	690,433	-0,102	-0,187
194,100	-86,564	-0,257	-0,054
195,115	248,556	-0,173	-0,204
196,129	5,893	-0,201	-0,103
197,144	162,538	-0,194	-0,189
198,159	-120,576	-0,172	-0,020
199,173	219,096	-0,209	-0,233
200,188	108,151	-0,237	-0,197
201,202	232,096	-0,163	-0,187
202,217	73,969	-0,272	-0,198
203,232	124,509	-0,164	-0,143
204,246	-50,206	-0,210	-0,069
205,261	61,082	-0,244	-0,168
206,275	75,642	-0,243	-0,178
207,290	-8,373	-0,229	-0,107
208,304	119,427	-0,105	-0,091
209,319	499,282	-0,074	-0,118
210,334	35,572	-0,203	-0,124
211,348	1,948	-0,264	-0,132
212,363	191,110	-0,166	-0,173
213,377	64,028	-0,247	-0,173
214,392	-143,964	-0,193	0,012
215,407	72,106	-0,148	-0,107
216,421	-87,147	-0,273	-0,057
217,436	177,471	-0,176	-0,179
218,450	-200,000	-0,016	-0,094
219,465	-43,223	-0,247	-0,086
220,480	-200,000	-0,072	-0,223
221,494	357,435	-0,152	-0,211
222,509	14,132	-0,133	-0,072
223,523	-149,699	-0,186	0,010
224,538	13,098	-0,294	-0,157
225,553	51,143	-0,289	-0,190
226,567	-167,671	-0,137	-0,004
227,582	418,778	-0,187	-0,279
228,596	505,401	-0,110	-0,177
229,611	21,961	-0,207	-0,117
230,626	-13,542	-0,200	-0,089
231,640	116,587	-0,170	-0,145
232,655	589,057	-0,126	-0,216
233,669	800,000	-0,170	-0,333
234,684	581,556	-0,108	-0,185
235,699	-30,673	-0,218	-0,085
236,713	38,681	-0,075	-0,046
237,728	29,784	-0,309	-0,182
238,742	239,618	-0,159	-0,184
239,757	112,491	-0,143	-0,120
240,772	800,000	-0,079	-0,223
241,786	44,566	-0,174	-0,111
242,801	800,000	-0,151	-0,296
243,815	365,882	-0,120	-0,168
244,830	16,822	-0,119	0,065
245,844	432,809	-0,088	-0,133
246,859	39,153	-0,135	-0,084
247,874	131,066	-0,270	-0,240
248,888	149,344	-0,261	-0,245
249,903	-200,000	-0,034	-0,168
250,917	101,891	-0,150	-0,121
251,932	226,889	-0,154	-0,173
252,947	-33,834	-0,195	-0,074
253,961	40,308	-0,199	-0,124
254,976	162,883	-0,228	-0,221
255,990	186,997	-0,122	-0,126
257,005	179,328	-0,132	-0,134
258,020	268,492	-0,114	-0,139
259,034	550,862	-0,067	-0,112
260,049	322,230	-0,101	-0,134
261,063	158,167	-0,210	-0,201
262,078	574,857	-0,188	-0,319
263,093	333,322	-0,114	-0,153
264,107	288,180	-0,145	-0,182
265,122	196,990	-0,166	-0,175
266,136	-16,057	-0,187	-0,082
267,151	-57,096	-0,231	-0,070
268,166	260,381	-0,161	-0,193
269,180	-81,206	-0,283	-0,064
270,195	40,151	-0,242	-0,150
271,209	740,935	-0,112	-0,209
272,224	-12,591	-0,220	-0,099
273,239	6,665	-0,094	-0,048
274,253	-157,723	-0,202	0,008
275,268	86,168	-0,249	-0,190
276,282	-38,260	-0,265	-0,097
277,297	54,107	-0,168	-0,111
278,312	35,090	-0,183	-0,111
279,326	136,200	-0,139	-0,125
280,341	105,727	-0,166	-0,135
281,355	800,000	-0,035	-0,071
282,370	106,351	-0,147	-0,120
283,384	46,639	-0,235	-0,151
284,399	1,309	-0,216	-0,107
285,414	-83,342	-0,152	0,033
286,428	-37,666	-0,221	0,081
287,443	-200,000	-0,006	-0,074
288,457	-200,000	-0,010	-0,117
289,472	-49,559	-0,100	-0,033
290,487	154,923	-0,063	-0,059
291,501	-66,307	-0,143	0,039
292,516	800,000	-0,057	-0,170
293,530	-88,374	-0,076	0,016
294,545	-7,885	-0,138	-0,064
295,560	56,937	-0,172	-0,116
296,574	-151,814	-0,216	-0,011
297,589	-200,000	-0,084	-0,266
298,603	164,401	-0,109	-0,106
299,618	277,130	-0,136	-0,167
300,633	33,921	-0,142	-0,085
301,647	573,257	-0,131	-0,221
302,662	207,552	-0,094	-0,101
303,676	385,579	-0,105	-0,150
304,691	-22,103	-0,184	-0,076
305,706	800,000	-0,084	-0,236
306,720	45,601	-0,175	-0,111
307,735	-63,187	-0,043	-0,012
308,749	-126,970	-0,269	-0,027
309,764	119,264	-0,088	-0,075
310,779	3,724	-0,201	-0,101
311,793	271,345	-0,134	-0,162
312,808	-15,693	-0,175	-0,076
313,822	-120,666	-0,192	-0,022
314,837	42,828	-0,158	-0,099
315,852	-75,101	-0,168	0,041
316,866	-166,812	-0,219	-0,006
317,881	3,758	-0,085	0,042
318,895	44,959	-0,132	-0,083
319,910	128,133	-0,074	-0,064
320,925	244,701	-0,158	-0,183
321,939	-200,000	-0,006	-0,083
322,954	800,000	-0,043	-0,108
323,968	138,591	-0,152	-0,137
324,983	16,698	-0,148	-0,080
325,997	267,052	-0,202	-0,243
327,012	-46,774	-0,147	-0,049
328,027	-44,519	-0,169	0,058
329,041	108,015	-0,118	-0,096
330,056	130,923	-0,129	-0,114
331,070	100,706	-0,117	-0,094
332,085	-124,223	-0,058	-0,006
333,100	800,000	-0,044	-0,106
334,114	-86,382	-0,106	-0,022
335,129	-41,955	-0,264	-0,092
336,143	110,398	-0,101	-0,084
337,158	11,013	-0,125	-0,065
338,173	-102,402	-0,174	-0,028
339,187	156,065	-0,119	-0,113
340,202	-140,958	-0,100	-0,007
341,216	42,598	-0,187	-0,117
342,231	364,530	-0,160	-0,222
343,246	237,646	-0,136	-0,155
344,260	-97,845	-0,225	-0,040
345,275	217,514	-0,056	-0,061
346,289	101,792	-0,089	-0,072
347,304	-178,747	-0,067	0,001
348,319	58,757	-0,169	0,114
349,333	0,356	-0,142	-0,069
350,348	-41,755	-0,111	-0,039
351,362	292,599	-0,041	-0,051
352,377	800,000	-0,060	0,128
353,392	-125,460	-0,237	-0,024
354,406	800,000	-0,007	-0,017
355,421	210,363	1313,031	1416,408
356,435	161,942	1473,548	1416,902
