DTS Sentinel unit serial number:	SN410029Multiplexer serial number:	ORYXHardware model number:	OX2-SRSoftware version number:	ORYX F/W v4,00 Oryx Data Collector v3.7.2.0data status	okinstallation	B3 Nyhavnadifferential loss correction	single-endedforward channel	channel 1reverse channel	N/Adate	2023/12/03time	02:02:30forward acquisition time	300,00reverse acquisition time	0,00gamma	499,1914k internal	0,3201k external	0,3201temperature offset calibration	1,0000default loss term (dB/km)	0,3820temperature slope calibration	1,0000multiplexer offset coefficient	1,0000multiplexer slope coefficient	1,0000fibre end	0,00T internal ref (°C)	13,34T ext. ref 1 (°C)	-1,74T ext. ref 2 (°C)	-1,77length (m)	temperature (°C)	Stokes	anti-Stokes-744,400	800,000	-0,057	-0,129
-743,385	673,018	0,113	0,213
-742,371	188,114	-0,247	-0,268
-741,356	-200,000	-0,090	0,298
-740,342	43,872	-0,115	-0,077
-739,327	-200,000	-0,064	0,325
-738,312	474,107	-0,155	-0,255
-737,298	-200,000	-0,004	0,176
-736,283	800,000	-0,141	-0,325
-735,269	800,000	-0,128	0,315
-734,254	800,000	-0,086	-0,275
-733,239	-37,953	-0,237	0,091
-732,225	800,000	-0,069	-0,219
-731,210	-12,451	0,103	0,049
-730,196	800,000	0,020	-0,061
-729,181	354,143	-0,063	-0,091
-728,167	-118,449	0,037	-0,005
-727,152	256,402	0,019	0,023
-726,137	-96,322	-0,059	-0,011
-725,123	-200,000	-0,049	-0,224
-724,108	-200,000	-0,049	-0,180
-723,094	-75,219	-0,052	0,013
-722,079	-200,000	0,033	-0,115
-721,064	144,622	0,096	-0,093
-720,050	-14,689	0,034	-0,016
-719,035	608,346	0,043	-0,077
-718,021	-150,728	-0,105	-0,006
-717,006	800,000	-0,062	-0,161
-715,991	157,459	-0,035	0,035
-714,977	430,913	-0,044	-0,069
-713,962	-61,651	0,064	-0,019
-712,948	-200,000	-0,025	0,114
-711,933	-200,000	-0,005	0,048
-710,918	184,608	0,009	-0,010
-709,904	-23,723	-0,034	-0,015
-708,889	-77,337	0,167	0,042
-707,875	-123,360	-0,038	-0,004
-706,860	599,555	0,025	0,045
-705,845	71,279	0,051	-0,038
-704,831	16,789	0,062	-0,036
-703,816	158,014	-0,118	0,119
-702,802	-200,000	0,005	-0,163
-701,787	-200,000	-0,001	-0,032
-700,772	42,637	-0,063	-0,042
-699,758	800,000	0,031	0,086
-698,743	-32,594	-0,037	0,015
-697,729	-200,000	0,016	-0,136
-696,714	-200,000	-0,042	0,139
-695,699	-75,253	-0,053	-0,014
-694,685	-97,283	-0,066	0,012
-693,670	645,302	0,055	-0,103
-692,656	605,113	0,037	-0,067
-691,641	800,000	0,029	-0,092
-690,627	-16,003	0,038	0,018
-689,612	-200,000	0,009	-0,072
-688,597	800,000	-0,017	0,051
-687,583	800,000	0,023	-0,055
-686,568	-121,946	-0,102	0,012
-685,554	56,567	-0,135	0,095
-684,539	-200,000	0,010	0,043
-683,524	-24,255	0,133	-0,057
-682,510	222,978	0,011	0,013
-681,495	138,252	0,036	-0,034
-680,481	-200,000	-0,011	-0,039
-679,466	-8,209	-0,110	0,054
-678,451	-39,394	-0,043	0,016
-677,437	-200,000	-0,003	0,036
-676,422	-134,110	0,160	-0,014
-675,408	-156,794	0,003	-0,000
-674,393	-36,066	-0,084	0,033
-673,378	-136,425	-0,029	0,002
-672,364	-200,000	0,022	-0,086
-671,349	16,126	-0,088	-0,050
-670,335	32,140	0,036	0,023
-669,320	99,958	0,022	0,018
-668,305	-125,473	0,172	-0,019
-667,291	320,633	-0,088	0,122
-666,276	-169,697	0,060	0,002
-665,262	769,802	-0,012	-0,023
-664,247	54,850	-0,122	0,086
-663,232	-200,000	-0,005	-0,030
-662,218	-31,516	-0,133	-0,054
-661,203	463,864	-0,122	0,198
-660,189	262,859	-0,103	-0,130
-659,174	-200,000	-0,008	-0,131
-658,159	182,316	0,037	-0,039
-657,145	-158,674	-0,143	0,006
-656,130	-52,435	0,070	0,023
-655,116	800,000	-0,033	0,078
-654,101	-1,369	-0,059	0,030
-653,086	-37,703	-0,121	-0,046
-652,072	43,414	0,142	0,094
-651,057	22,573	-0,065	-0,038
-650,043	-51,918	0,078	-0,026
-649,028	-200,000	0,018	-0,077
-648,014	-130,050	-0,128	-0,012
-646,999	310,432	0,107	0,146
-645,984	-200,000	-0,029	-0,139
-644,970	-43,315	-0,078	-0,028
-643,955	-200,000	0,010	0,075
-642,941	13,026	0,088	-0,049
-641,926	-200,000	-0,031	-0,116
-640,911	88,988	-0,081	0,065
-639,897	800,000	-0,008	-0,023
-638,882	-200,000	-0,012	-0,039
-637,868	-43,441	0,083	0,030
-636,853	-61,465	-0,134	-0,041
-635,838	389,031	0,069	-0,104
-634,824	800,000	-0,047	-0,109
-633,809	116,517	0,016	-0,014
-632,795	-200,000	0,006	-0,101
-631,780	-41,779	-0,047	0,017
-630,765	46,740	0,027	0,018
-629,751	-71,843	-0,059	0,016
-628,736	119,256	-0,085	-0,076
-627,722	-200,000	-0,003	-0,146
-626,707	-200,000	-0,020	0,171
-625,692	-200,000	0,012	0,045
-624,678	75,543	-0,036	0,027
-623,663	800,000	-0,037	0,097
-622,649	-77,338	-0,064	-0,016
-621,634	-118,181	-0,069	-0,009
-620,619	2,799	-0,051	-0,027
-619,605	505,696	-0,022	-0,037
-618,590	418,359	0,030	0,047
-617,576	-177,807	-0,099	-0,002
-616,561	-200,000	0,009	-0,071
-615,546	621,870	0,036	-0,065
-614,532	-41,606	-0,036	-0,013
-613,517	22,825	0,051	-0,030
-612,503	-60,418	0,140	0,043
-611,488	800,000	0,067	0,156
-610,474	56,705	-0,062	0,044
-609,459	198,291	-0,052	0,058
-608,444	800,000	-0,014	0,039
-607,430	181,233	-0,065	-0,069
-606,415	64,942	-0,127	-0,092
-605,401	-200,000	-0,008	-0,087
-604,386	-200,000	0,009	0,038
-603,371	-200,000	0,037	-0,128
-602,357	378,296	-0,057	0,085
-601,342	18,602	-0,071	-0,041
-600,328	342,170	-0,018	-0,026
-599,313	-200,000	0,005	-0,062
-598,298	17,506	0,018	-0,010
-597,284	-89,846	-0,040	0,008
-596,269	179,613	0,068	-0,072
-595,255	9,352	-0,075	0,041
-594,240	-61,924	-0,070	-0,021
-593,225	-30,821	-0,051	-0,021
-592,211	7,682	-0,034	0,018
-591,196	350,803	-0,056	0,080
-590,182	-200,000	-0,000	0,003
-589,167	-200,000	0,010	0,067
-588,152	-161,101	-0,046	0,002
-587,138	-83,244	0,045	0,010
-586,123	565,977	-0,068	0,120
-585,109	-200,000	-0,023	-0,100
-584,094	-200,000	0,002	-0,020
-583,079	87,993	0,143	0,115
-582,065	800,000	-0,042	0,103
-581,050	-55,475	0,025	0,008
-580,036	-69,225	-0,101	-0,028
-579,021	90,175	0,045	0,036
-578,006	-200,000	0,001	-0,115
-576,992	27,468	0,051	0,031
-575,977	314,811	-0,055	-0,076
-574,963	501,025	0,111	0,186
-573,948	-200,000	0,057	0,000
-572,934	-200,000	0,024	0,084
-571,919	62,710	-0,110	-0,080
-570,904	-97,514	0,080	-0,015
-569,890	-28,123	-0,035	0,015
-568,875	-200,000	0,010	-0,091
-567,861	-44,922	0,034	-0,012
-566,846	169,213	0,113	0,117
-565,831	800,000	-0,064	-0,156
-564,817	442,004	0,014	0,022
-563,802	-200,000	-0,030	-0,138
-562,788	800,000	0,063	-0,129
-561,773	404,190	0,043	0,066
-560,758	-200,000	-0,007	-0,028
-559,744	472,450	0,019	0,032
-558,729	51,541	0,087	0,060
-557,715	-56,532	0,103	0,033
-556,700	800,000	-0,038	-0,103
-555,685	-167,425	-0,076	-0,002
-554,671	-200,000	-0,024	0,130
-553,656	179,634	0,063	-0,067
-552,642	-200,000	0,008	0,062
-551,627	800,000	0,034	0,103
-550,612	3,214	-0,109	-0,057
-549,598	-200,000	-0,003	-0,060
-548,583	800,000	0,010	-0,023
-547,569	-200,000	-0,055	-0,202
-546,554	-124,185	0,221	-0,025
-545,539	133,390	0,047	0,044
-544,525	119,486	-0,118	0,106
-543,510	800,000	0,068	-0,143
-542,496	-134,620	-0,044	0,004
-541,481	-200,000	0,001	-0,007
-540,466	611,922	0,061	-0,111
-539,452	606,946	-0,062	-0,113
-538,437	773,435	-0,053	-0,105
-537,423	154,326	0,107	-0,106
-536,408	91,785	0,103	-0,083
-535,393	67,395	0,063	-0,046
-534,379	-83,061	-0,075	0,017
-533,364	508,409	-0,049	0,083
-532,350	27,273	0,065	0,039
-531,335	-200,000	0,039	-0,174
-530,321	-122,552	0,079	-0,009
-529,306	91,790	0,076	0,062
-528,291	-200,000	0,026	0,098
-527,277	593,661	-0,081	-0,144
-526,262	-13,057	0,143	0,067
-525,248	482,328	0,111	0,182
-524,233	618,489	-0,019	-0,035
-523,218	-72,115	-0,112	-0,030
-522,204	413,349	0,057	-0,088
-521,189	-194,632	-0,195	0,001
-520,175	-200,000	0,001	-0,006
-519,160	-200,000	0,005	0,178
-518,145	-200,000	-0,006	0,022
-517,131	722,557	0,026	0,050
-516,116	52,732	0,069	0,048
-515,102	-124,911	-0,064	-0,007
-514,087	-200,000	-0,010	0,052
-513,072	800,000	-0,054	-0,122
-512,058	-2,839	-0,089	-0,045
-511,043	173,684	0,037	-0,038
-510,029	-49,661	-0,057	-0,019
-509,014	466,179	0,053	-0,086
-507,999	174,853	0,023	0,024
-506,985	-129,323	0,126	-0,012
-505,970	800,000	-0,031	-0,072
-504,956	-200,000	-0,036	-0,207
-503,941	-200,000	0,017	-0,085
-502,926	-200,000	0,022	0,128
-501,912	45,970	0,133	0,088
-500,897	419,863	-0,054	0,084
-499,883	671,456	-0,015	-0,028
-498,868	-44,974	0,155	-0,055
-497,853	386,464	0,021	-0,031
-496,839	692,926	-0,031	-0,059
-495,824	24,480	0,078	0,046
-494,810	800,000	0,032	0,092
-493,795	232,657	0,075	0,089
-492,781	-200,000	-0,036	0,117
-491,766	95,393	0,079	0,065
-490,751	405,085	0,075	-0,114
-489,737	-200,000	-0,026	-0,098
-488,722	29,386	-0,089	-0,054
-487,708	49,228	0,138	0,093
-486,693	122,035	-0,114	0,103
-485,678	-117,691	-0,090	-0,012
-484,664	-182,712	0,076	0,001
-483,649	493,660	-0,030	0,050
-482,635	42,593	-0,105	-0,068
-481,620	17,565	-0,048	0,027
-480,605	539,514	0,066	0,113
-479,591	59,308	0,062	-0,044
-478,576	48,121	0,025	0,017
-477,562	-108,662	0,057	0,009
-476,547	26,264	-0,075	-0,045
-475,532	-79,840	-0,054	-0,013
-474,518	204,216	0,100	0,111
-473,503	528,395	0,078	0,133
-472,489	504,168	0,074	0,124
-471,474	210,092	-0,032	0,036
-470,459	-73,853	-0,056	0,015
-469,445	800,000	0,040	-0,118
-468,430	276,980	-0,116	0,149
-467,416	-200,000	-0,028	0,115
-466,401	-132,950	0,102	-0,009
-465,386	-200,000	-0,045	0,174
-464,372	157,050	-0,092	0,092
-463,357	-161,212	-0,046	-0,002
-462,343	800,000	-0,063	0,138
-461,328	-200,000	-0,030	0,110
-460,313	93,896	0,068	0,055
-459,299	-200,000	-0,051	-0,000
-458,284	-80,739	0,137	-0,032
-457,270	124,112	0,023	0,021
-456,255	-108,308	-0,077	0,012
-455,241	58,851	-0,061	0,043
-454,226	-200,000	0,010	-0,091
-453,211	100,161	0,070	-0,058
-452,197	-149,675	0,076	-0,004
-451,182	129,716	-0,098	-0,090
-450,168	-200,000	-0,004	0,067
-449,153	-137,036	-0,190	-0,015
-448,138	-200,000	-0,012	-0,149
-447,124	633,329	0,061	-0,112
-446,109	-200,000	-0,013	-0,067
-445,095	-200,000	0,005	-0,052
-444,080	-67,448	0,122	-0,034
-443,065	-179,655	-0,237	0,004
-442,051	800,000	0,051	0,161
-441,036	225,384	-0,049	0,057
-440,022	4,570	0,023	-0,012
-439,007	56,626	0,069	-0,048
-437,992	800,000	-0,035	0,073
-436,978	-121,947	0,141	0,016
-435,963	-54,520	0,051	-0,016
-434,949	-36,807	0,087	0,033
-433,934	91,790	-0,124	0,100
-432,919	168,082	0,146	-0,149
-431,905	126,115	-0,133	-0,121
-430,890	-40,720	0,047	-0,018
-429,876	223,972	-0,069	0,081
-428,861	528,113	0,014	0,024
-427,846	-200,000	-0,004	-0,100
-426,832	-143,278	0,058	-0,004
-425,817	172,048	-0,065	-0,067
-424,803	-100,756	0,093	0,016
-423,788	100,667	-0,016	-0,014
-422,773	44,722	0,045	0,030
-421,759	281,295	-0,032	0,041
-420,744	-200,000	0,036	-0,125
-419,730	-7,409	0,017	-0,008
-418,715	234,143	0,015	0,018
-417,701	-107,185	-0,021	-0,003
-416,686	-104,154	0,049	0,008
-415,671	-99,684	0,053	-0,009
-414,657	-200,000	0,011	0,065
-413,642	-200,000	0,003	-0,109
-412,628	-106,073	0,053	-0,008
-411,613	71,053	0,065	-0,048
-410,598	13,151	-0,041	0,023
-409,584	-17,420	0,078	-0,035
-408,569	524,362	0,017	-0,029
-407,555	117,768	0,024	0,021
-406,540	419,321	0,035	0,054
-405,525	6,839	0,024	0,013
-404,511	225,885	0,097	-0,113
-403,496	721,170	-0,072	-0,138
-402,482	716,063	0,021	-0,039
-401,467	-200,000	0,006	0,107
-400,452	-22,912	0,022	0,010
-399,438	-42,261	0,101	-0,037
-398,423	32,623	-0,048	-0,030
-397,409	-69,627	-0,105	-0,029
-396,394	-41,671	0,028	-0,010
-395,379	-68,653	0,138	-0,038
-394,365	-200,000	0,014	0,064
-393,350	-146,392	0,009	0,001
-392,336	-56,274	0,042	0,013
-391,321	198,627	0,044	0,049
-390,306	-147,043	-0,095	0,006
-389,292	-47,871	-0,031	-0,011
-388,277	243,866	-0,028	-0,033
-387,263	-51,980	0,036	-0,012
-386,248	-168,866	0,116	0,003
-385,233	-83,657	-0,047	-0,011
-384,219	154,498	-0,078	0,077
-383,204	-21,666	-0,098	-0,043
-382,190	108,079	0,072	-0,062
-381,175	267,741	-0,031	0,039
-380,160	515,253	0,062	-0,105
-379,146	676,294	0,057	-0,107
-378,131	300,871	-0,102	-0,136
-377,117	58,981	0,023	-0,016
-376,102	116,986	-0,100	0,088
-375,088	77,050	-0,025	0,019
-374,073	-165,091	0,171	0,005
-373,058	-200,000	-0,011	-0,040
-372,044	-200,000	0,000	-0,038
-371,029	-93,131	0,079	0,016
-370,015	-60,248	0,078	0,024
-369,000	156,233	0,072	-0,071
-367,985	483,409	-0,023	0,037
-366,971	134,981	-0,083	-0,077
-365,956	89,485	0,058	0,047
-364,942	283,761	0,062	-0,080
-363,927	-200,000	-0,007	-0,029
-362,912	-139,112	-0,139	0,011
-361,898	267,788	-0,059	-0,075
-360,883	-87,651	-0,072	-0,015
-359,869	588,421	-0,080	-0,142
-358,854	-137,691	0,040	-0,003
-357,839	269,361	0,021	0,027
-356,825	-89,031	-0,026	-0,006
-355,810	-89,149	-0,075	0,016
-354,796	800,000	-0,045	-0,101
-353,781	-79,790	-0,149	-0,036
-352,766	453,102	0,078	-0,123
-351,752	-55,816	-0,137	-0,043
-350,737	-200,000	-0,003	0,077
-349,723	128,908	0,072	-0,066
-348,708	17,151	0,077	-0,044
-347,693	31,940	0,104	0,064
-346,679	50,275	-0,139	0,094
-345,664	-2,605	0,153	0,076
-344,650	22,206	0,045	0,026
-343,635	7,689	-0,005	-0,003
-342,620	-200,000	0,021	0,088
-341,606	-89,589	-0,044	-0,009
-340,591	-200,000	0,002	-0,018
-339,577	-101,039	0,235	-0,041
-338,562	160,264	-0,107	0,107
-337,548	666,256	0,070	0,131
-336,533	-107,749	-0,054	0,008
-335,518	-200,000	-0,022	0,221
-334,504	-200,000	0,013	0,061
-333,489	613,516	0,047	0,084
-332,475	328,728	0,053	0,073
-331,460	800,000	-0,086	-0,235
-330,445	-160,061	0,031	-0,001
-329,431	228,929	0,062	-0,072
-328,416	-11,216	0,147	0,069
-327,402	218,230	-0,034	0,039
-326,387	57,943	-0,042	0,029
-325,372	-200,000	0,031	-0,122
-324,358	385,922	-0,010	-0,015
-323,343	83,461	0,082	-0,064
-322,329	800,000	0,042	0,103
-321,314	-200,000	0,012	0,126
-320,299	226,680	-0,077	-0,090
-319,285	409,221	0,065	0,098
-318,270	83,056	0,021	0,016
-317,256	800,000	-0,109	-0,233
-316,241	-200,000	-0,001	0,088
-315,226	800,000	0,039	0,117
-314,212	27,736	-0,171	-0,103
-313,197	800,000	-0,027	0,074
-312,183	-200,000	-0,009	0,033
-311,168	538,770	0,066	0,113
-310,153	-91,640	-0,125	-0,025
-309,139	-133,116	0,110	-0,010
-308,124	133,620	-0,075	0,070
-307,110	500,545	0,005	-0,009
-306,095	67,925	-0,025	0,018
-305,080	-127,326	-0,103	0,011
-304,066	-200,000	0,006	0,040
-303,051	287,879	0,051	-0,066
-302,037	800,000	-0,022	-0,048
-301,022	117,444	-0,167	-0,147
-300,008	-141,264	0,219	-0,016
-298,993	-200,000	-0,014	0,045
-297,978	306,816	0,118	0,158
-296,964	-48,567	0,050	-0,017
-295,949	-200,000	0,022	0,136
-294,935	-69,663	-0,049	0,013
-293,920	340,933	-0,095	-0,134
-292,905	800,000	0,026	-0,058
-291,891	-200,000	0,016	0,095
-290,876	98,439	0,041	-0,033
-289,862	357,065	0,049	-0,071
-288,847	-114,493	-0,129	0,018
-287,832	387,934	-0,100	-0,149
-286,818	302,676	0,081	-0,108
-285,803	288,052	0,018	0,023
-284,789	289,904	0,069	0,089
-283,774	240,635	0,047	0,056
-282,759	22,624	0,095	0,055
-281,745	61,316	0,055	-0,039
-280,730	51,390	-0,044	-0,030
-279,716	128,709	0,085	0,077
-278,701	64,993	0,038	0,027
-277,686	-186,076	0,084	0,001
-276,672	379,750	-0,055	-0,080
-275,657	-64,510	-0,132	0,038
-274,643	-50,392	-0,198	-0,066
-273,628	-200,000	-0,007	-0,159
-272,613	-17,241	-0,018	-0,008
-271,599	-67,255	0,143	-0,040
-270,584	-18,537	0,068	0,030
-269,570	800,000	0,035	-0,086
-268,555	-200,000	0,003	0,012
-267,540	800,000	0,025	0,060
-266,526	8,219	-0,114	0,061
-265,511	411,659	0,033	0,051
-264,497	-18,587	0,060	0,027
-263,482	166,462	-0,096	0,097
-262,467	-133,508	0,028	-0,002
-261,453	407,818	0,050	-0,075
-260,438	-4,470	-0,129	0,063
-259,424	800,000	-0,053	0,130
-258,409	800,000	0,032	0,066
-257,395	310,418	-0,045	-0,060
-256,380	-147,454	0,096	-0,006
-255,365	1,087	-0,001	-0,001
-254,351	140,682	0,100	0,094
-253,336	15,144	-0,011	-0,006
-252,322	-14,594	-0,119	0,054
-251,307	-200,000	-0,006	-0,064
-250,292	239,693	-0,107	0,127
-249,278	329,049	0,048	-0,067
-248,263	-8,706	0,083	0,039
-247,249	574,861	0,049	-0,086
-246,234	54,276	-0,058	0,039
-245,219	196,231	0,054	-0,059
-244,205	800,000	-0,058	0,118
-243,190	-150,589	-0,157	-0,008
-242,176	-200,000	-0,002	0,013
-241,161	547,218	0,026	0,044
-240,146	-29,536	-0,016	0,006
-239,132	96,631	-0,109	0,089
-238,117	285,089	-0,045	-0,058
-237,103	-200,000	0,017	0,091
-236,088	800,000	-0,034	-0,086
-235,073	-121,604	-0,014	-0,002
-234,059	-53,569	-0,116	0,038
-233,044	14,003	0,071	0,039
-232,030	84,553	-0,175	0,136
-231,015	-200,000	-0,032	-0,132
-230,000	272,909	-0,042	-0,052
-228,986	-60,704	-0,034	0,010
-227,971	574,521	0,068	0,118
-226,957	-41,270	0,098	0,036
-225,942	-200,000	-0,005	0,033
-224,927	-126,023	0,100	0,011
-223,913	206,442	-0,188	-0,209
-222,898	35,626	-0,110	-0,068
-221,884	800,000	0,027	0,059
-220,869	145,281	0,019	0,018
-219,855	800,000	0,013	0,028
-218,840	-200,000	0,008	0,107
-217,825	-200,000	-0,025	0,098
-216,811	-7,375	-0,126	-0,061
-215,796	-51,856	-0,049	-0,016
-214,782	618,728	0,012	-0,021
-213,767	680,077	0,098	0,183
-212,752	800,000	0,080	0,206
-211,738	195,720	-0,072	0,078
-210,723	632,907	0,038	-0,069
-209,709	-200,000	-0,040	-0,155
-208,694	485,315	0,013	-0,022
-207,679	800,000	-0,045	0,112
-206,665	192,219	0,120	0,129
-205,650	186,858	0,044	-0,047
-204,636	155,479	-0,022	-0,022
-203,621	-79,857	-0,027	0,006
-202,606	-77,229	-0,115	0,028
-201,592	-86,509	-0,142	-0,031
-200,577	190,347	-0,057	-0,061
-199,563	28,308	-0,042	-0,025
-198,548	800,000	0,068	0,151
-197,533	800,000	0,021	-0,043
-196,519	34,694	-0,062	0,038
-195,504	-129,344	-0,163	0,016
-194,490	152,262	0,090	0,087
-193,475	32,570	0,070	0,043
-192,460	-37,817	0,109	-0,041
-191,446	-105,093	0,011	-0,002
-190,431	-86,430	0,105	0,023
-189,417	-200,000	-0,008	0,062
-188,402	-157,341	0,151	0,006
-187,387	176,466	-0,082	-0,085
-186,373	800,000	-0,004	0,011
-185,358	-200,000	0,010	-0,154
-184,344	203,492	0,117	0,129
-183,329	800,000	0,024	0,053
-182,315	-13,014	0,046	-0,021
-181,300	-106,708	-0,159	0,025
-180,285	618,156	-0,062	-0,112
-179,271	733,183	-0,045	-0,086
-178,256	-94,460	-0,051	0,010
-177,242	-200,000	0,001	0,023
-176,227	273,410	-0,030	0,038
-175,212	35,589	0,072	0,045
-174,198	6,545	-0,022	-0,012
-173,183	-200,000	0,003	-0,022
-172,169	800,000	0,007	-0,020
-171,154	-200,000	0,008	-0,057
-170,139	95,748	0,032	-0,026
-169,125	-200,000	0,012	-0,138
-168,110	652,839	0,021	0,038
-167,096	-68,260	-0,123	-0,034
-166,081	355,982	0,080	0,114
-165,066	800,000	-0,028	-0,063
-164,052	258,196	-0,048	0,058
-163,037	146,637	0,068	0,065
-162,023	40,051	0,112	0,071
-161,008	-29,673	-0,098	0,040
-159,993	4,471	0,079	0,041
-158,979	549,107	0,068	-0,116
-157,964	257,368	-0,068	-0,083
-156,950	-45,978	-0,167	-0,058
-155,935	-27,304	-0,023	0,010
-154,920	43,797	-0,044	0,028
-153,906	-200,000	0,009	0,060
-152,891	26,376	0,054	-0,032
-151,877	-200,000	0,012	0,136
-150,862	-59,912	-0,135	0,041
-149,847	800,000	-0,056	-0,119
-148,833	195,338	0,029	-0,031
-147,818	800,000	0,022	-0,053
-146,804	761,121	-0,017	-0,033
-145,789	320,180	0,088	0,118
-144,775	433,445	-0,052	0,081
-143,760	-173,733	0,006	-0,000
-142,745	258,188	-0,101	-0,124
-141,731	375,581	0,054	-0,079
-140,716	-200,000	-0,003	-0,052
-139,702	-105,728	-0,126	-0,020
-138,687	184,521	-0,073	0,077
-137,672	-200,000	0,006	-0,116
-136,658	-113,576	-0,080	-0,011
-135,643	-78,583	0,087	-0,021
-134,629	-200,000	-0,023	-0,130
-133,614	13,213	-0,143	-0,078
-132,599	530,666	-0,026	-0,044
-131,585	-94,446	0,010	-0,002
-130,570	712,573	0,058	0,110
-129,556	176,295	0,037	-0,038
-128,541	-65,645	0,031	-0,009
-127,526	-82,446	-0,179	0,041
-126,512	-200,000	-0,009	0,070
-125,497	-56,424	0,080	-0,025
-124,483	164,222	-0,047	0,047
-123,468	537,857	0,047	0,080
-122,453	55,565	-0,136	0,093
-121,439	795,205	0,115	-0,225
-120,424	-2,710	-0,101	-0,050
-119,410	-200,000	-0,003	-0,038
-118,395	800,000	0,044	0,088
-117,380	80,508	0,135	0,103
-116,366	154,824	-0,079	0,077
-115,351	800,000	0,009	-0,023
-114,337	168,290	-0,043	0,043
-113,322	279,726	-0,086	0,110
-112,307	393,672	0,063	-0,093
-111,293	-42,636	0,133	0,048
-110,278	6,646	0,081	-0,043
-109,264	24,536	0,026	0,015
-108,249	-13,696	-0,149	-0,068
-107,234	218,389	0,091	-0,103
-106,220	-142,572	-0,127	0,009
-105,205	-200,000	0,001	-0,084
-104,191	19,775	0,052	0,029
-103,176	-200,000	-0,021	-0,124
-102,162	800,000	-0,053	0,109
-101,147	-100,174	0,171	0,030
-100,132	26,444	-0,116	-0,069
-99,118	800,000	-0,029	0,061
-98,103	-200,000	0,029	-0,101
-97,089	800,000	0,048	0,149
-96,074	1,635	-0,089	0,046
-95,059	230,913	-0,023	0,026
-94,045	800,000	-0,022	0,061
-93,030	275,864	0,080	-0,101
-92,016	-200,000	0,019	-0,065
-91,001	800,000	-0,034	0,097
-89,986	661,640	-0,038	-0,070
-88,972	138,868	0,081	-0,075
-87,957	-200,000	-0,028	0,104
-86,943	62,134	-0,048	-0,034
-85,928	146,274	-0,050	-0,048
-84,913	8,128	-0,055	-0,029
-83,899	119,705	-0,044	-0,038
-82,884	37,100	0,121	-0,076
-81,870	150,308	-0,108	-0,104
-80,855	-69,880	-0,063	0,017
-79,840	-26,736	-0,051	0,021
-78,826	-26,185	-0,062	-0,026
-77,811	-200,000	-0,004	0,077
-76,797	164,941	-0,015	-0,015
-75,782	213,479	0,046	-0,051
-74,767	-6,612	0,124	0,060
-73,753	800,000	0,039	0,081
-72,738	-111,679	0,118	-0,017
-71,724	-161,865	-0,155	-0,005
-70,709	-155,386	0,163	0,007
-69,694	-73,385	0,144	0,037
-68,680	68,887	0,057	0,042
-67,665	-200,000	0,017	0,054
-66,651	800,000	0,008	-0,020
-65,636	81,982	-0,103	0,079
-64,622	-14,331	0,114	0,052
-63,607	-69,203	-0,143	-0,039
-62,592	24,267	0,085	-0,049
-61,578	29,541	0,106	0,064
-60,563	79,806	-0,028	-0,021
-59,549	-200,000	0,010	0,152
-58,534	-35,024	-1,732	-0,666
-57,519	398,703	-1,339	-1,991
-56,505	-200,000	-0,477	-4,511
-55,490	175,342	1,024	1,052
-54,476	800,000	4,906	11,492
-53,461	-200,000	19,172	319,721
-52,446	-200,000	740,439	2334,362
-51,432	573,841	1655,364	2869,678
-50,417	78,319	1670,883	1261,829
-49,403	21,328	1543,911	885,691
-48,388	15,234	1466,109	811,431
-47,373	17,940	1456,591	819,211
-46,359	16,689	1446,492	807,499
-45,344	13,433	1441,920	789,319
-44,330	13,395	1439,708	787,893
-43,315	13,402	1438,130	787,032
-42,300	13,405	1436,589	786,170
-41,286	13,446	1435,232	785,595
-40,271	13,386	1433,837	784,512
-39,257	13,331	1432,728	783,611
-38,242	13,434	1431,427	783,360
-37,227	13,446	1430,135	782,677
-36,213	13,427	1428,954	781,910
-35,198	13,456	1427,583	781,268
-34,184	13,472	1426,820	780,896
-33,169	13,426	1425,281	779,806
-32,154	13,478	1424,526	779,606
-31,140	13,481	1423,031	778,772
-30,125	13,504	1421,829	778,193
-29,111	13,450	1420,798	777,341
-28,096	13,425	1419,825	776,659
-27,082	13,386	1418,633	775,791
-26,067	13,364	1417,487	775,031
-25,052	13,403	1416,343	774,560
-24,038	13,396	1415,296	773,921
-23,023	13,307	1414,604	773,094
-22,009	13,335	1413,513	772,599
-20,994	13,292	1412,610	771,875
-19,979	13,383	1411,679	771,763
-18,965	13,312	1410,717	770,874
-17,950	13,350	1409,811	770,524
-16,936	13,345	1408,677	769,852
-15,921	13,255	1407,707	768,870
-14,906	13,264	1406,772	768,369
-13,892	13,292	1405,686	767,877
-12,877	13,277	1405,057	767,433
-11,863	13,254	1404,071	766,756
-10,848	13,298	1403,233	766,475
-9,833	13,238	1402,490	765,756
-8,819	13,195	1401,489	764,980
-7,804	13,189	1400,650	764,463
-6,790	13,173	1399,681	763,830
-5,775	13,192	1398,448	763,214
-4,760	13,209	1397,420	762,701
-3,746	13,159	1396,466	761,921
-2,731	13,187	1395,751	761,629
-1,717	13,138	1395,014	760,971
-0,702	13,084	1393,160	759,678
0,313	17,029	1309,885	732,511
1,327	33,216	703,868	431,031
2,342	51,486	123,166	82,660
3,356	0,794	16,792	8,478
4,371	10,198	3,265	1,751
5,386	-16,964	0,502	0,223
6,400	-200,000	0,031	0,311
7,415	-45,859	-0,223	-0,077
8,429	196,131	-0,224	-0,241
9,444	38,189	-0,311	-0,195
10,459	60,888	-0,247	-0,173
11,473	-41,128	-0,358	-0,130
12,488	-30,242	-0,171	-0,068
13,502	90,166	-0,345	-0,272
14,517	48,139	-0,287	-0,189
15,531	271,027	-0,287	-0,358
16,546	137,620	-0,320	-0,296
17,561	98,309	-0,452	-0,368
18,575	-84,031	-0,175	-0,039
19,590	502,088	-0,186	-0,305
20,604	-8,459	-0,298	-0,141
21,619	148,348	-0,402	-0,384
22,634	61,720	-0,460	-0,323
23,648	66,228	-0,505	-0,362
24,663	23,073	-0,481	-0,278
25,677	39,935	-0,261	-0,165
26,692	332,407	-0,232	-0,317
27,707	47,837	-0,400	-0,263
28,721	9,211	-0,424	-0,226
29,736	105,828	-0,320	-0,267
30,750	8,223	-0,499	-0,264
31,765	92,554	-0,279	-0,222
32,780	49,538	-0,339	-0,225
33,794	82,405	-0,413	-0,316
34,809	157,810	-0,281	-0,275
35,823	-1,268	-0,427	-0,212
36,838	36,171	-0,395	-0,245
37,853	24,247	-0,386	-0,224
38,867	-21,335	-0,397	-0,170
39,882	0,411	-0,338	-0,170
40,896	381,835	-0,243	-0,353
41,911	78,928	-0,283	-0,213
42,926	-30,696	-0,435	-0,173
43,940	32,340	-0,484	-0,294
44,955	-65,188	-0,341	-0,096
45,969	113,767	-0,304	-0,260
46,984	180,366	-0,194	-0,200
47,999	50,571	-0,418	-0,278
49,013	75,162	-0,372	-0,276
50,028	-68,419	-0,368	-0,100
51,042	180,210	-0,254	-0,262
52,057	120,050	-0,415	-0,363
53,071	-33,145	-0,246	-0,095
54,086	18,136	-0,258	-0,145
55,101	-5,206	-0,275	-0,133
56,115	-10,852	-0,199	-0,092
57,130	87,010	-0,274	-0,213
58,144	48,889	-0,263	-0,173
59,159	-57,874	-0,495	-0,151
60,174	-18,070	-0,428	-0,188
61,188	-46,200	-0,322	-0,111
62,203	115,979	-0,265	-0,228
63,217	38,858	-0,267	-0,167
64,232	84,056	-0,291	-0,223
65,247	-21,856	-0,424	-0,181
66,261	208,115	-0,290	-0,320
67,276	152,904	-0,321	-0,309
68,290	18,162	-0,372	-0,208
69,305	-116,260	-0,204	-0,026
70,320	-42,552	-0,261	-0,093
71,334	-16,812	-0,346	-0,153
72,349	262,033	-0,259	-0,316
73,363	312,915	-0,258	-0,342
74,378	85,526	-0,449	-0,346
75,393	-22,643	-0,294	-0,125
76,407	12,961	-0,290	-0,157
77,422	60,470	-0,258	-0,179
78,436	48,354	-0,324	-0,213
79,451	44,904	-0,297	-0,191
80,466	124,253	-0,281	-0,248
81,480	264,110	-0,220	-0,269
82,495	21,373	-0,251	-0,143
83,509	73,262	-0,229	-0,168
84,524	-65,353	-0,277	-0,078
85,539	-175,541	-0,220	0,004
86,553	76,055	-0,241	-0,179
87,568	171,375	-0,273	-0,275
88,582	200,494	-0,229	-0,247
89,597	133,938	-0,250	-0,227
90,611	-21,233	-0,301	-0,128
91,626	-114,270	-0,218	-0,029
92,641	234,798	-0,184	-0,214
93,655	-11,725	-0,188	-0,086
94,670	71,954	-0,320	-0,233
95,684	401,128	-0,216	-0,319
96,699	97,331	-0,381	-0,307
97,714	104,919	-0,256	-0,212
98,728	193,985	-0,170	-0,181
99,743	75,037	-0,300	-0,221
100,757	328,104	-0,172	-0,232
101,772	-38,330	-0,337	-0,124
102,787	161,966	-0,294	-0,289
103,801	154,044	-0,243	-0,234
104,816	-13,275	-0,257	-0,117
105,830	187,608	-0,312	-0,327
106,845	18,701	-0,187	-0,104
107,860	-90,801	-0,246	-0,049
108,874	-23,459	-0,450	-0,189
109,889	192,776	-0,243	-0,257
110,903	116,803	-0,350	-0,301
111,918	-19,776	-0,284	-0,122
112,933	-141,011	-0,121	0,009
113,947	-31,334	-0,407	-0,160
114,962	-18,794	-0,185	-0,080
115,976	-58,616	-0,325	-0,098
116,991	30,380	-0,204	-0,122
118,006	204,484	-0,224	-0,244
119,020	32,018	-0,258	-0,156
120,035	128,231	-0,155	-0,138
121,049	-78,785	-0,228	-0,054
122,064	-36,399	-0,249	-0,093
123,079	66,377	-0,335	-0,238
124,093	138,959	-0,227	-0,208
125,108	14,564	-0,224	-0,122
126,122	64,927	-0,176	-0,124
127,137	72,671	-0,258	-0,188
128,151	205,232	-0,200	-0,217
129,166	225,724	-0,182	-0,207
130,181	90,627	-0,241	-0,189
131,195	-64,734	-0,296	-0,083
132,210	34,235	-0,271	-0,165
133,224	62,400	-0,419	-0,293
134,239	19,996	-0,216	-0,122
135,254	74,908	-0,201	-0,148
136,268	36,834	-0,198	-0,122
137,283	205,325	-0,245	-0,266
138,297	37,668	-0,262	-0,162
139,312	90,388	-0,261	-0,204
140,327	-22,651	-0,228	-0,096
141,341	295,425	-0,220	-0,282
142,356	-134,686	-0,124	-0,010
143,370	116,717	-0,252	-0,216
144,385	139,174	-0,263	-0,242
145,400	147,323	-0,317	-0,298
146,414	49,459	-0,228	-0,149
147,429	-32,983	-0,414	-0,160
148,443	-36,335	-0,382	-0,143
149,458	82,061	-0,177	-0,134
150,473	331,103	-0,112	-0,151
151,487	112,149	-0,245	-0,207
152,502	-31,364	-0,220	-0,086
153,516	103,955	-0,284	-0,233
154,531	40,538	-0,282	-0,177
155,546	21,551	-0,260	-0,147
156,560	-153,809	-0,133	-0,006
157,575	-64,865	-0,323	-0,090
158,589	105,164	-0,239	-0,197
159,604	147,370	-0,214	-0,201
160,619	239,710	-0,177	-0,206
161,633	-75,957	-0,346	-0,085
162,648	238,838	-0,238	-0,277
163,662	402,756	-0,199	-0,293
164,677	-16,242	-0,226	-0,100
165,692	86,638	-0,219	-0,168
166,706	4,162	-0,241	-0,123
167,721	800,000	-0,194	-0,380
168,735	127,502	-0,310	-0,274
169,750	297,586	-0,309	-0,397
170,764	-51,287	-0,184	-0,060
171,779	-200,000	-0,026	-0,180
172,794	137,504	-0,194	-0,177
173,808	248,244	-0,225	-0,266
174,823	208,733	-0,194	-0,212
175,837	400,718	-0,204	-0,300
176,852	45,454	-0,307	-0,197
177,867	130,230	-0,195	-0,174
178,881	494,145	-0,090	-0,144
179,896	-28,460	-0,255	-0,102
180,910	133,160	-0,146	-0,131
181,925	-117,610	-0,289	0,036
182,940	546,267	-0,149	-0,249
183,954	300,049	-0,113	-0,146
184,969	-10,119	-0,251	-0,116
185,983	-38,524	-0,075	-0,028
186,998	273,893	-0,143	-0,177
188,013	66,185	-0,248	-0,175
189,027	-145,757	-0,136	0,008
190,042	197,703	-0,244	-0,259
191,056	-91,934	-0,320	-0,063
192,071	46,108	-0,199	-0,128
193,086	-57,757	-0,182	-0,055
194,100	211,182	-0,199	-0,219
195,115	800,000	-0,075	-0,175
196,129	53,379	-0,257	-0,171
197,144	87,415	-0,258	-0,199
198,159	105,345	-0,321	-0,264
199,173	-200,000	-0,038	-0,214
200,188	586,504	-0,205	-0,352
201,202	-125,796	-0,158	-0,016
202,217	-76,958	-0,244	0,059
203,232	-81,484	-0,248	0,056
204,246	-67,117	-0,217	-0,059
205,261	58,535	-0,202	-0,137
206,275	12,577	-0,146	-0,078
207,290	489,423	-0,136	-0,218
208,304	105,115	-0,183	-0,150
209,319	273,750	-0,200	-0,246
210,334	800,000	-0,078	-0,151
211,348	-9,198	-0,260	-0,120
212,363	-46,468	-0,310	-0,105
213,377	83,475	-0,164	-0,124
214,392	69,965	-0,292	-0,209
215,407	344,206	-0,156	-0,213
216,421	161,893	-0,155	-0,151
217,436	-27,746	-0,133	-0,053
218,450	8,986	-0,217	-0,113
219,465	-114,077	-0,121	0,016
220,480	77,223	-0,262	-0,193
221,494	-97,113	-0,188	-0,034
222,509	-200,000	0,011	-0,123
223,523	-83,538	-0,178	0,039
224,538	101,836	-0,165	-0,133
225,553	190,291	-0,149	-0,155
226,567	232,162	-0,111	-0,127
227,582	63,939	-0,163	-0,114
228,596	235,932	-0,102	-0,118
229,611	-165,317	-0,195	-0,006
230,626	-98,152	-0,118	-0,021
231,640	356,767	-0,099	-0,137
232,655	152,360	-0,322	-0,305
233,669	335,023	-0,246	-0,332
234,684	74,138	-0,164	-0,119
235,699	250,957	-0,071	-0,084
236,713	-49,855	-0,102	-0,033
237,728	249,812	-0,232	-0,273
238,742	-36,427	-0,144	-0,054
239,757	-5,968	-0,229	-0,108
240,772	152,746	-0,261	-0,247
241,786	800,000	-0,122	-0,234
242,801	30,205	-0,204	-0,121
243,815	-50,752	-0,163	0,053
244,830	45,939	-0,187	-0,120
245,844	-101,898	-0,194	-0,032
246,859	255,348	-0,185	-0,220
247,874	151,782	-0,172	-0,162
248,888	24,287	-0,229	-0,131
249,903	166,666	-0,219	-0,215
250,917	-102,840	-0,234	-0,038
251,932	-113,093	-0,241	0,033
252,947	-11,330	-0,202	-0,092
253,961	8,486	-0,177	-0,092
254,976	-71,473	-0,259	-0,066
255,990	378,544	-0,076	-0,107
257,005	-63,861	-0,260	-0,073
258,020	44,987	-0,162	-0,103
259,034	705,909	-0,133	-0,244
260,049	7,802	-0,173	-0,089
261,063	133,617	-0,231	-0,207
262,078	18,732	-0,295	-0,163
263,093	131,761	-0,144	-0,128
264,107	800,000	-0,081	-0,172
265,122	-200,000	-0,076	-0,232
266,136	-47,740	-0,189	-0,063
267,151	-12,714	-0,177	-0,079
268,166	235,977	-0,160	-0,183
269,180	140,341	-0,171	-0,156
270,195	151,779	-0,296	-0,279
271,209	800,000	-0,106	-0,219
272,224	432,966	-0,098	-0,148
273,239	15,851	-0,121	-0,066
274,253	-63,071	-0,295	-0,084
275,268	156,083	-0,149	-0,142
276,282	-117,234	-0,190	-0,024
277,297	24,548	-0,126	-0,072
278,312	267,509	-0,175	-0,212
279,326	456,552	-0,096	-0,147
280,341	646,759	-0,042	-0,074
281,355	800,000	-0,038	-0,103
282,370	253,540	-0,095	-0,113
283,384	42,433	-0,162	-0,102
284,399	61,697	-0,195	-0,134
285,414	352,808	-0,101	-0,139
286,428	566,791	-0,108	-0,181
287,443	-46,180	-0,226	-0,076
288,457	49,103	-0,186	-0,120
289,472	205,246	-0,100	-0,107
290,487	42,677	-0,207	-0,130
291,501	-51,678	-0,079	-0,025
292,516	-129,965	-0,065	-0,006
293,530	13,290	-0,123	-0,066
294,545	800,000	0,034	-0,067
295,560	165,882	-0,190	-0,185
296,574	298,471	-0,123	-0,157
297,589	800,000	-0,088	-0,219
298,603	47,686	-0,196	-0,126
299,618	-19,236	-0,224	-0,096
300,633	-131,972	-0,211	-0,019
301,647	595,426	-0,061	-0,104
302,662	-11,708	-0,160	-0,072
303,676	-172,127	-0,137	-0,003
304,691	800,000	-0,131	-0,292
305,706	5,345	-0,091	-0,046
306,720	85,149	-0,160	-0,120
307,735	137,416	-0,085	-0,076
308,749	-200,000	-0,071	-0,000
309,764	-43,334	-0,112	-0,039
310,779	-107,998	-0,168	-0,025
311,793	48,285	-0,208	-0,134
312,808	577,731	-0,131	-0,222
313,822	105,380	-0,180	-0,146
314,837	43,290	-0,162	-0,102
315,852	800,000	-0,047	-0,094
316,866	-39,195	-0,045	-0,016
317,881	133,316	-0,168	-0,150
318,895	110,927	-0,153	-0,127
319,910	81,565	-0,209	-0,156
320,925	-200,000	-0,043	-0,237
321,939	800,000	-0,134	-0,295
322,954	328,541	-0,131	-0,174
323,968	68,287	-0,117	-0,082
324,983	184,918	-0,075	-0,077
325,997	464,198	-0,085	-0,131
327,012	159,301	-0,099	-0,095
328,027	800,000	-0,148	-0,296
329,041	-38,111	-0,184	-0,067
330,056	800,000	-0,081	-0,209
331,070	-47,286	-0,055	-0,018
332,085	246,048	-0,084	0,097
333,100	50,541	-0,192	-0,125
334,114	-97,909	-0,041	0,007
335,129	-200,000	0,004	-0,048
336,143	380,371	-0,078	-0,110
337,158	800,000	-0,073	-0,162
338,173	475,295	-0,100	-0,155
339,187	-200,000	-0,018	-0,122
340,202	569,306	-0,075	-0,125
341,216	257,999	-0,148	-0,175
342,231	104,717	-0,145	-0,117
343,246	13,795	-0,176	-0,094
344,260	-26,401	-0,128	0,051
345,275	25,545	0,079	0,045
346,289	-83,164	-0,151	-0,033
347,304	176,437	-0,151	-0,151
348,319	84,229	-0,170	-0,127
349,333	-58,052	-0,224	-0,067
350,348	654,993	-0,118	-0,209
351,362	590,173	-0,048	-0,081
352,377	740,224	0,033	-0,062
353,392	-170,407	-0,134	-0,003
354,406	19,399	-0,132	-0,072
355,421	209,439	1313,987	1414,113
356,435	161,194	1474,610	1414,595
