DTS Sentinel unit serial number:	SN410029Multiplexer serial number:	ORYXHardware model number:	OX2-SRSoftware version number:	ORYX F/W v4,00 Oryx Data Collector v3.7.2.0data status	okinstallation	B3 Nyhavnadifferential loss correction	single-endedforward channel	channel 1reverse channel	N/Adate	2023/12/04time	07:32:30forward acquisition time	300,00reverse acquisition time	0,00gamma	499,1914k internal	0,3206k external	0,3206temperature offset calibration	1,0000default loss term (dB/km)	0,3820temperature slope calibration	1,0000multiplexer offset coefficient	1,0000multiplexer slope coefficient	1,0000fibre end	0,00T internal ref (°C)	12,28T ext. ref 1 (°C)	-2,11T ext. ref 2 (°C)	-2,15length (m)	temperature (°C)	Stokes	anti-Stokes-744,400	194,946	-0,166	-0,183
-743,385	-200,000	-0,001	0,169
-742,371	626,905	-0,115	-0,212
-741,356	800,000	-0,080	0,247
-740,342	-40,652	-0,242	-0,091
-739,327	-200,000	0,056	0,332
-738,312	652,234	-0,131	-0,246
-737,298	-200,000	-0,046	0,183
-736,283	256,544	-0,160	-0,199
-735,269	622,717	0,165	0,303
-734,254	55,137	-0,263	-0,184
-733,239	-138,892	-0,253	0,020
-732,225	192,012	-0,148	-0,162
-731,210	285,392	0,064	0,083
-730,196	-128,876	-0,057	0,006
-729,181	1,652	0,035	0,018
-728,167	800,000	-0,046	-0,118
-727,152	361,140	0,102	-0,149
-726,137	168,139	-0,097	-0,101
-725,123	-61,523	-0,072	-0,022
-724,108	-200,000	-0,007	-0,182
-723,094	138,896	-0,109	-0,104
-722,079	-200,000	0,013	-0,077
-721,064	364,376	0,051	-0,075
-720,050	374,887	-0,021	-0,031
-719,035	-154,179	-0,088	0,004
-718,021	-200,000	0,020	0,122
-717,006	9,399	-0,140	-0,077
-715,991	-63,970	-0,146	0,043
-714,977	466,856	-0,018	-0,029
-713,962	800,000	-0,059	-0,127
-712,948	-200,000	0,028	0,108
-711,933	-138,998	-0,060	0,005
-710,918	-200,000	0,000	0,061
-709,904	328,858	-0,049	-0,068
-708,889	-26,561	-0,096	-0,041
-707,875	100,919	-0,084	-0,071
-706,860	3,946	0,140	0,074
-705,845	207,251	-0,011	0,012
-704,831	79,484	-0,042	0,033
-703,816	157,980	0,144	-0,145
-702,802	-200,000	-0,011	-0,068
-701,787	256,875	-0,055	-0,069
-700,772	-88,526	-0,178	-0,038
-699,758	37,498	-0,056	-0,036
-698,743	-200,000	0,037	-0,152
-697,729	34,603	0,141	0,089
-696,714	800,000	0,005	0,010
-695,699	800,000	-0,070	-0,158
-694,685	-66,582	0,018	-0,005
-693,670	525,058	-0,060	-0,103
-692,656	-85,744	-0,118	-0,026
-691,641	-200,000	0,000	-0,029
-690,627	-200,000	-0,010	0,115
-689,612	-200,000	-0,027	0,113
-688,597	800,000	0,033	0,075
-687,583	-13,350	-0,185	-0,087
-686,568	609,062	0,044	-0,081
-685,554	-146,093	-0,031	0,002
-684,539	-52,145	0,031	0,010
-683,524	118,965	0,065	0,058
-682,510	-200,000	-0,009	-0,053
-681,495	203,905	0,032	0,036
-680,481	384,546	-0,062	0,093
-679,466	-68,110	-0,135	-0,038
-678,451	-38,117	-0,023	0,009
-677,437	-200,000	0,004	-0,096
-676,422	-100,987	0,143	-0,025
-675,408	-125,739	-0,128	0,014
-674,393	55,952	0,061	-0,043
-673,378	160,255	-0,025	-0,026
-672,364	-63,517	-0,114	0,034
-671,349	108,048	0,063	-0,055
-670,335	800,000	0,056	-0,129
-669,320	26,161	0,125	-0,075
-668,305	266,090	0,050	-0,064
-667,291	-48,438	0,062	0,022
-666,276	620,955	-0,054	-0,098
-665,262	800,000	-0,040	-0,125
-664,247	17,639	-0,140	0,080
-663,232	-128,323	-0,053	0,005
-662,218	-134,275	-0,133	0,012
-661,203	-200,000	0,001	0,032
-660,189	800,000	0,047	0,102
-659,174	82,319	-0,077	-0,061
-658,159	800,000	-0,024	-0,069
-657,145	-200,000	0,002	-0,099
-656,130	135,893	-0,024	-0,022
-655,116	-200,000	0,019	0,097
-654,101	608,584	0,020	0,037
-653,086	-18,974	0,162	0,072
-652,072	800,000	-0,031	0,091
-651,057	762,910	0,092	-0,182
-650,043	-30,458	-0,149	-0,061
-649,028	-200,000	-0,007	0,025
-648,014	10,605	0,059	-0,033
-646,999	86,436	0,050	-0,040
-645,984	800,000	0,015	-0,044
-644,970	-200,000	-0,010	0,090
-643,955	52,122	-0,076	-0,052
-642,941	273,588	-0,065	-0,083
-641,926	800,000	0,062	-0,163
-640,911	800,000	0,027	-0,065
-639,897	800,000	-0,036	0,079
-638,882	155,381	0,064	-0,064
-637,868	-200,000	-0,017	-0,114
-636,853	327,362	-0,068	-0,095
-635,838	-2,284	-0,018	0,009
-634,824	261,477	0,030	-0,038
-633,809	-107,695	-0,062	0,010
-632,795	-72,049	0,085	0,023
-631,780	-81,599	0,081	-0,019
-630,765	800,000	-0,033	0,078
-629,751	171,438	-0,082	-0,085
-628,736	254,553	0,081	-0,100
-627,722	-200,000	-0,013	0,109
-626,707	800,000	0,020	-0,051
-625,692	383,466	0,018	0,027
-624,678	-38,816	0,060	0,023
-623,663	-95,971	0,051	0,010
-622,649	-17,400	-0,203	-0,092
-621,634	486,220	0,032	0,054
-620,619	-200,000	-0,006	0,068
-619,605	365,873	-0,128	-0,188
-618,590	-200,000	-0,021	-0,139
-617,576	-22,584	0,114	0,050
-616,561	280,791	-0,012	-0,015
-615,546	-47,956	-0,043	-0,015
-614,532	-200,000	-0,022	0,079
-613,517	-7,369	0,107	0,052
-612,503	800,000	-0,074	-0,183
-611,488	-95,103	0,080	0,015
-610,474	-200,000	0,008	-0,122
-609,459	800,000	0,051	0,123
-608,444	-117,154	0,031	0,004
-607,430	-128,353	-0,100	0,010
-606,415	-200,000	0,029	0,098
-605,401	-157,666	0,166	0,007
-604,386	-33,705	-0,025	0,010
-603,371	-200,000	-0,012	0,058
-602,357	536,233	-0,029	-0,049
-601,342	-8,216	-0,163	-0,079
-600,328	86,669	0,043	0,034
-599,313	479,943	-0,076	-0,125
-598,298	257,891	-0,028	0,035
-597,284	-70,384	0,107	0,029
-596,269	-3,293	0,051	0,025
-595,255	-80,696	-0,154	0,037
-594,240	-118,273	0,180	0,023
-593,225	-37,754	0,033	-0,013
-592,211	-107,128	-0,173	0,027
-591,196	-200,000	-0,005	-0,066
-590,182	136,592	0,027	0,026
-589,167	-89,847	0,109	-0,023
-588,152	550,209	-0,023	0,040
-587,138	-54,031	-0,096	0,031
-586,123	10,786	-0,136	-0,075
-585,109	800,000	-0,022	0,056
-584,094	800,000	0,059	0,144
-583,079	10,249	-0,006	0,003
-582,065	18,117	0,044	-0,025
-581,050	-200,000	-0,002	0,141
-580,036	-65,252	-0,029	0,008
-579,021	456,724	0,043	-0,069
-578,006	18,003	-0,089	-0,051
-576,992	578,758	-0,040	-0,072
-575,977	288,869	-0,047	0,062
-574,963	55,700	0,022	0,015
-573,948	33,624	-0,065	-0,041
-572,934	800,000	0,006	-0,013
-571,919	-200,000	0,006	-0,093
-570,904	-127,137	-0,051	-0,005
-569,890	225,843	-0,058	-0,068
-568,875	-16,035	0,147	0,067
-567,861	16,410	0,034	0,020
-566,846	322,653	0,061	0,084
-565,831	278,498	-0,073	-0,094
-564,817	-200,000	-0,008	-0,110
-563,802	97,926	-0,005	-0,004
-562,788	-200,000	-0,044	-0,203
-561,773	9,010	0,068	-0,037
-560,758	-114,732	-0,139	-0,019
-559,744	800,000	0,006	0,015
-558,729	800,000	0,007	-0,020
-557,715	75,345	0,022	0,017
-556,700	800,000	-0,021	0,046
-555,685	800,000	-0,031	-0,092
-554,671	-51,868	-0,036	-0,012
-553,656	-200,000	-0,043	0,183
-552,642	-13,660	0,074	-0,034
-551,627	94,877	-0,055	-0,045
-550,612	493,994	-0,058	-0,097
-549,598	196,391	-0,076	-0,083
-548,583	-200,000	-0,033	-0,112
-547,569	-200,000	-0,023	0,076
-546,554	-175,274	0,116	-0,002
-545,539	-200,000	0,002	0,043
-544,525	85,768	0,166	0,132
-543,510	800,000	-0,011	-0,028
-542,496	45,796	-0,099	-0,066
-541,481	800,000	-0,047	-0,143
-540,466	-200,000	0,013	-0,140
-539,452	9,460	-0,097	-0,053
-538,437	-32,296	0,088	0,035
-537,423	-174,498	0,076	-0,002
-536,408	138,557	0,058	-0,055
-535,393	800,000	-0,020	-0,044
-534,379	-27,957	0,028	0,011
-533,364	9,953	-0,129	-0,071
-532,350	800,000	0,039	0,116
-531,335	-200,000	-0,010	0,044
-530,321	-200,000	-0,004	0,053
-529,306	42,434	-0,052	0,034
-528,291	-158,447	-0,203	0,008
-527,277	423,131	0,023	-0,035
-526,262	-164,415	-0,054	0,002
-525,248	125,317	0,146	0,132
-524,233	800,000	0,056	-0,142
-523,218	106,002	-0,074	0,063
-522,204	-61,879	-0,169	-0,051
-521,189	-77,534	-0,084	-0,021
-520,175	-168,095	-0,060	0,002
-519,160	170,443	0,023	-0,024
-518,145	800,000	0,029	-0,073
-517,131	-177,483	0,126	-0,002
-516,116	84,141	0,071	-0,056
-515,102	-112,211	0,127	0,018
-514,087	800,000	-0,037	0,096
-513,072	344,774	0,047	-0,066
-512,058	-111,358	-0,138	0,020
-511,043	-200,000	-0,002	0,121
-510,029	800,000	0,014	0,036
-509,014	-200,000	-0,006	0,083
-507,999	-91,377	-0,080	0,016
-506,985	-124,279	0,121	-0,013
-505,970	667,443	-0,053	-0,100
-504,956	-200,000	0,005	-0,047
-503,941	178,365	0,060	0,063
-502,926	156,278	0,090	0,090
-501,912	-150,573	0,034	-0,002
-500,897	28,173	0,125	-0,076
-499,883	193,830	-0,041	-0,045
-498,868	-200,000	-0,036	-0,143
-497,853	-85,139	0,054	-0,012
-496,839	226,627	0,025	-0,030
-495,824	-200,000	0,010	-0,034
-494,810	-111,405	0,153	0,022
-493,795	-200,000	0,025	0,094
-492,781	192,813	-0,024	-0,026
-491,766	800,000	-0,030	-0,081
-490,751	124,721	-0,026	-0,023
-489,737	56,272	-0,070	0,049
-488,722	342,319	-0,071	-0,100
-487,708	88,857	0,078	0,063
-486,693	800,000	-0,055	0,158
-485,678	680,466	0,054	-0,101
-484,664	-200,000	-0,015	-0,074
-483,649	-200,000	-0,024	0,081
-482,635	-200,000	0,001	-0,019
-481,620	200,889	0,081	0,090
-480,605	-200,000	-0,013	0,069
-479,591	-122,550	0,051	-0,006
-478,576	-200,000	-0,004	0,063
-477,562	16,420	-0,114	0,064
-476,547	255,689	0,048	-0,060
-475,532	-109,592	0,101	-0,015
-474,518	324,814	-0,013	0,018
-473,503	0,362	-0,030	-0,015
-472,489	215,226	-0,037	-0,042
-471,474	-73,800	-0,072	0,019
-470,459	-131,248	-0,020	0,002
-469,445	-69,021	-0,018	-0,005
-468,430	611,048	0,036	-0,065
-467,416	222,284	0,085	-0,098
-466,401	-146,381	0,089	-0,006
-465,386	800,000	-0,021	0,062
-464,372	-25,893	-0,038	0,016
-463,357	368,388	-0,093	-0,135
-462,343	-200,000	0,004	0,052
-461,328	397,171	0,040	0,060
-460,313	-48,923	0,049	-0,017
-459,299	-101,997	0,060	-0,010
-458,284	299,544	0,113	0,150
-457,270	20,621	-0,215	-0,125
-456,255	800,000	-0,055	-0,141
-455,241	800,000	-0,052	-0,142
-454,226	-89,879	0,096	0,020
-453,211	-1,313	0,122	-0,062
-452,197	-200,000	-0,020	-0,081
-451,182	-200,000	0,029	0,135
-450,168	-73,823	0,149	0,039
-449,153	-200,000	0,036	0,123
-448,138	173,101	-0,047	-0,049
-447,124	35,174	-0,066	0,042
-446,109	74,257	0,117	0,088
-445,095	-62,094	-0,070	0,021
-444,080	-200,000	0,004	-0,076
-443,065	2,077	0,106	0,055
-442,051	255,959	-0,098	-0,121
-441,036	-23,595	-0,075	0,032
-440,022	465,245	-0,095	-0,154
-439,007	-200,000	-0,003	0,082
-437,992	140,998	0,076	0,072
-436,978	202,647	-0,065	0,072
-435,963	276,751	0,089	0,113
-434,949	-100,451	-0,164	-0,029
-433,934	121,510	0,066	0,059
-432,919	-137,581	-0,117	0,009
-431,905	-200,000	-0,017	0,060
-430,890	102,566	0,052	-0,044
-429,876	270,919	0,106	0,134
-428,861	800,000	0,033	0,094
-427,846	-1,039	-0,066	0,033
-426,832	210,790	-0,106	-0,120
-425,817	800,000	-0,049	-0,140
-424,803	22,254	0,074	-0,043
-423,788	238,330	0,083	-0,098
-422,773	21,413	-0,067	0,039
-421,759	335,915	0,024	0,034
-420,744	67,932	0,166	0,122
-419,730	183,069	-0,141	-0,150
-418,715	-11,813	-0,158	0,074
-417,701	-24,067	-0,023	-0,010
-416,686	-168,809	0,114	-0,003
-415,671	17,799	-0,046	-0,026
-414,657	31,877	0,204	0,126
-413,642	-200,000	-0,009	0,115
-412,628	800,000	0,028	0,087
-411,613	42,189	0,063	0,041
-410,598	202,681	-0,078	-0,086
-409,584	430,541	-0,057	0,088
-408,569	-146,498	0,031	-0,002
-407,555	52,141	0,013	0,009
-406,540	-88,499	-0,027	-0,006
-405,525	-200,000	0,003	0,033
-404,511	-39,753	-0,056	-0,021
-403,496	-20,302	-0,093	-0,041
-402,482	800,000	0,055	0,128
-401,467	185,381	-0,067	-0,071
-400,452	482,093	-0,098	0,160
-399,438	-185,420	0,110	0,001
-398,423	-129,639	-0,050	0,005
-397,409	-79,056	-0,081	-0,020
-396,394	-200,000	-0,006	-0,078
-395,379	-200,000	-0,002	-0,173
-394,365	506,928	0,064	0,106
-393,350	-200,000	-0,083	0,000
-392,336	471,823	-0,035	0,056
-391,321	29,204	0,086	0,052
-390,306	800,000	-0,034	-0,087
-389,292	-11,682	-0,128	-0,060
-388,277	-62,626	0,026	-0,008
-387,263	63,369	-0,048	0,035
-386,248	-200,000	-0,032	0,119
-385,233	-18,996	-0,039	0,017
-384,219	185,352	0,053	0,056
-383,204	800,000	0,027	-0,081
-382,190	-27,966	-0,100	0,041
-381,175	163,955	-0,074	0,075
-380,160	89,794	-0,042	0,033
-379,146	611,264	0,016	-0,028
-378,131	-35,085	0,196	-0,076
-377,117	-21,511	-0,087	-0,038
-376,102	352,187	0,106	-0,150
-375,088	7,507	0,075	-0,040
-374,073	-200,000	0,041	0,160
-373,058	157,351	-0,030	-0,030
-372,044	17,872	0,105	0,060
-371,029	15,978	0,113	0,064
-370,015	26,945	-0,052	-0,031
-369,000	42,997	0,113	-0,073
-367,985	5,153	-0,061	0,032
-366,971	-14,453	0,034	-0,016
-365,956	800,000	-0,014	0,030
-364,942	-200,000	0,019	0,103
-363,927	-95,936	-0,123	-0,023
-362,912	-124,046	-0,063	-0,007
-361,898	558,683	-0,050	0,086
-360,883	-70,686	0,068	0,018
-359,869	405,345	-0,028	0,043
-358,854	-200,000	0,001	-0,084
-357,839	146,776	-0,055	0,053
-356,825	-85,869	0,146	-0,032
-355,810	138,318	0,011	0,011
-354,796	7,219	0,017	0,009
-353,781	37,755	-0,112	-0,071
-352,766	163,691	0,026	-0,027
-351,752	800,000	-0,020	-0,059
-350,737	-71,295	0,062	-0,016
-349,723	-200,000	0,011	0,148
-348,708	38,708	-0,077	-0,049
-347,693	-200,000	-0,030	-0,148
-346,679	-200,000	-0,007	0,033
-345,664	800,000	0,054	-0,118
-344,650	-56,127	-0,062	0,020
-343,635	-200,000	-0,004	0,222
-342,620	-124,738	-0,066	-0,007
-341,606	192,410	0,070	-0,076
-340,591	43,037	0,046	-0,030
-339,577	-62,963	0,053	-0,015
-338,562	-43,069	0,115	-0,042
-337,548	590,121	-0,040	0,070
-336,533	557,554	-0,063	0,110
-335,518	-43,709	0,108	-0,039
-334,504	800,000	-0,015	-0,033
-333,489	183,311	-0,052	0,055
-332,475	-6,386	0,072	-0,035
-331,460	-200,000	0,004	-0,176
-330,445	800,000	-0,051	-0,107
-329,431	647,873	0,090	0,166
-328,416	-200,000	-0,055	0,196
-327,402	75,679	0,088	-0,066
-326,387	105,530	0,027	0,023
-325,372	182,943	0,113	0,119
-324,358	-200,000	0,055	-0,208
-323,343	-121,905	-0,094	-0,011
-322,329	618,176	0,044	-0,080
-321,314	236,905	0,095	-0,112
-320,299	63,282	-0,063	-0,045
-319,285	778,128	0,029	-0,057
-318,270	-200,000	0,017	-0,107
-317,256	143,090	-0,150	-0,142
-316,241	258,476	0,025	0,031
-315,226	184,928	0,015	-0,016
-314,212	603,454	-0,044	0,079
-313,197	800,000	0,079	0,246
-312,183	-105,582	0,122	0,020
-311,168	70,498	-0,130	0,096
-310,153	800,000	-0,017	-0,037
-309,139	136,656	-0,100	0,093
-308,124	800,000	-0,019	0,059
-307,110	-200,000	-0,010	0,052
-306,095	-79,526	-0,084	0,020
-305,080	223,714	0,045	0,052
-304,066	224,873	0,023	0,027
-303,051	36,172	-0,041	-0,026
-302,037	273,400	-0,068	-0,087
-301,022	-17,420	-0,156	0,070
-300,008	-200,000	-0,002	0,082
-298,993	-56,329	0,130	0,041
-297,978	-200,000	0,001	0,036
-296,964	-200,000	-0,015	-0,049
-295,949	-130,386	-0,077	0,007
-294,935	297,129	-0,135	-0,177
-293,920	-200,000	-0,013	0,204
-292,905	-102,539	-0,078	-0,013
-291,891	38,197	-0,049	0,031
-290,876	19,190	-0,158	-0,090
-289,862	-111,012	-0,084	-0,012
-288,847	362,425	0,040	0,058
-287,832	-70,758	0,078	-0,021
-286,818	-41,754	0,133	0,048
-285,803	305,046	0,065	0,087
-284,789	0,773	-0,053	0,027
-283,774	800,000	0,053	0,154
-282,759	-200,000	-0,022	-0,120
-281,745	-200,000	0,002	-0,014
-280,730	-54,457	-0,086	0,028
-279,716	452,982	-0,024	0,039
-278,701	366,856	0,044	0,064
-277,686	-54,416	0,102	0,033
-276,672	193,128	-0,104	-0,112
-275,657	-200,000	0,006	0,106
-274,643	-200,000	-0,004	-0,112
-273,628	-96,161	-0,166	-0,031
-272,613	25,295	0,037	-0,022
-271,599	-95,200	0,088	0,017
-270,584	2,444	0,086	-0,044
-269,570	-112,049	-0,049	0,007
-268,555	-100,188	0,077	0,014
-267,540	-200,000	-0,047	-0,201
-266,526	800,000	0,046	0,135
-265,511	-68,849	0,068	-0,019
-264,497	54,249	0,063	-0,043
-263,482	198,803	-0,062	0,068
-262,467	-200,000	-0,007	0,034
-261,453	92,411	-0,050	-0,040
-260,438	181,303	-0,041	-0,043
-259,424	686,692	-0,054	-0,102
-258,409	447,442	-0,004	0,006
-257,395	-21,816	-0,109	-0,047
-256,380	73,085	0,079	0,059
-255,365	791,273	0,075	0,147
-254,351	173,722	0,105	0,108
-253,336	88,990	0,072	-0,057
-252,322	213,546	0,115	-0,130
-251,307	58,599	-0,124	-0,087
-250,292	-169,943	0,116	-0,003
-249,278	-200,000	0,027	0,091
-248,263	395,130	-0,087	0,130
-247,249	-200,000	-0,017	-0,136
-246,234	800,000	0,021	-0,063
-245,219	800,000	0,034	-0,069
-244,205	442,618	-0,054	-0,084
-243,190	800,000	-0,036	0,079
-242,176	800,000	0,035	0,071
-241,161	-74,336	0,077	-0,020
-240,146	-71,765	0,140	-0,037
-239,132	713,471	-0,037	-0,071
-238,117	-42,652	-0,119	0,043
-237,103	-88,785	-0,162	0,034
-236,088	-54,947	0,094	0,030
-235,073	256,961	-0,029	0,035
-234,059	800,000	-0,001	-0,003
-233,044	-200,000	0,002	0,057
-232,030	-105,473	-0,075	-0,012
-231,015	673,342	-0,045	-0,084
-230,000	264,211	0,033	-0,041
-228,986	92,250	-0,030	-0,024
-227,971	182,809	0,033	0,034
-226,957	79,103	0,083	0,063
-225,942	4,627	-0,098	0,051
-224,927	398,108	0,107	0,160
-223,913	-4,636	-0,185	-0,091
-222,898	800,000	-0,037	0,081
-221,884	57,443	0,131	-0,091
-220,869	800,000	-0,087	0,204
-219,855	-159,443	0,017	0,001
-218,840	501,579	-0,057	-0,094
-217,825	800,000	0,058	-0,118
-216,811	409,475	-0,093	-0,141
-215,796	75,510	0,045	-0,034
-214,782	-65,158	0,170	-0,048
-213,767	-25,118	0,080	-0,034
-212,752	-200,000	-0,014	0,119
-211,738	202,249	0,117	0,129
-210,723	194,563	0,030	0,033
-209,709	-28,918	-0,037	-0,015
-208,694	773,496	-0,037	0,072
-207,679	-200,000	-0,027	-0,106
-206,665	-200,000	-0,026	0,151
-205,650	394,258	0,061	0,090
-204,636	-200,000	-0,000	0,009
-203,621	503,045	-0,059	0,097
-202,606	18,868	0,125	0,071
-201,592	-135,555	-0,106	-0,009
-200,577	-200,000	-0,022	0,159
-199,563	243,202	0,089	-0,106
-198,548	-200,000	-0,011	0,049
-197,533	-150,063	0,062	0,003
-196,519	-200,000	0,014	0,078
-195,504	800,000	0,042	-0,112
-194,490	258,463	0,054	-0,066
-193,475	224,905	0,039	0,045
-192,460	100,983	-0,035	-0,029
-191,446	-200,000	-0,005	-0,047
-190,431	-44,743	0,059	-0,021
-189,417	-200,000	0,049	0,176
-188,402	-122,154	-0,095	0,011
-187,387	800,000	0,010	-0,031
-186,373	-34,182	-0,066	-0,026
-185,358	336,380	-0,113	-0,156
-184,344	-200,000	0,002	-0,081
-183,329	288,401	0,042	-0,054
-182,315	-105,874	-0,038	-0,006
-181,300	-197,838	0,056	0,000
-180,285	-200,000	-0,014	-0,050
-179,271	195,785	-0,052	-0,056
-178,256	-200,000	0,009	-0,060
-177,242	-108,396	0,056	0,008
-176,227	-200,000	0,049	0,160
-175,212	287,469	-0,023	0,029
-174,198	-43,493	0,042	0,015
-173,183	-42,024	0,086	-0,031
-172,169	800,000	0,027	0,056
-171,154	162,672	-0,065	-0,065
-170,139	419,865	0,058	0,088
-169,125	178,523	0,033	0,034
-168,110	-200,000	-0,011	0,146
-167,096	-48,533	-0,102	0,035
-166,081	-200,000	-0,008	-0,040
-165,066	237,743	0,034	-0,040
-164,052	-200,000	-0,010	-0,215
-163,037	-200,000	0,008	0,044
-162,023	16,917	0,142	0,080
-161,008	-200,000	-0,002	0,041
-159,993	152,030	0,061	0,059
-158,979	-200,000	-0,007	0,095
-157,964	266,846	-0,056	0,070
-156,950	-109,706	0,007	0,001
-155,935	492,362	0,055	0,090
-154,920	569,277	0,037	-0,064
-153,906	495,449	-0,034	0,056
-152,891	153,188	-0,036	-0,035
-151,877	800,000	0,009	-0,023
-150,862	-43,669	-0,053	-0,019
-149,847	43,809	-0,035	0,023
-148,833	457,519	0,008	-0,012
-147,818	-141,677	0,086	0,006
-146,804	800,000	0,031	0,064
-145,789	-63,481	0,126	-0,037
-144,775	-37,132	-0,032	-0,012
-143,760	49,295	-0,041	0,028
-142,745	-120,252	-0,097	0,012
-141,731	-53,244	0,088	-0,029
-140,716	88,004	-0,044	-0,035
-139,702	800,000	-0,038	-0,079
-138,687	800,000	-0,002	0,006
-137,672	-186,511	0,100	-0,001
-136,658	173,311	-0,086	0,088
-135,643	79,331	0,067	0,051
-134,629	-37,880	0,104	0,039
-133,614	-30,160	-0,075	-0,030
-132,599	638,379	0,057	-0,103
-131,585	12,818	0,074	-0,041
-130,570	-200,000	-0,005	0,075
-129,556	202,754	-0,040	-0,044
-128,541	-200,000	-0,047	-0,197
-127,526	-81,005	-0,065	-0,015
-126,512	-200,000	0,064	0,263
-125,497	26,708	0,076	0,045
-124,483	800,000	-0,024	-0,073
-123,468	-200,000	0,008	-0,045
-122,453	23,231	-0,075	0,043
-121,439	-51,312	-0,173	0,057
-120,424	121,517	0,095	0,084
-119,410	28,950	0,063	-0,038
-118,395	-126,915	0,154	-0,016
-117,380	-26,841	0,046	-0,019
-116,366	319,642	0,099	0,133
-115,351	-133,048	-0,046	0,004
-114,337	800,000	0,067	0,137
-113,322	55,539	0,070	0,048
-112,307	-200,000	0,001	0,067
-111,293	-72,939	0,109	-0,028
-110,278	37,213	0,168	-0,105
-109,264	35,315	-0,103	0,064
-108,249	-133,855	0,076	-0,007
-107,234	-163,853	-0,233	-0,008
-106,220	-200,000	0,004	-0,031
-105,205	-200,000	-0,018	0,121
-104,191	800,000	0,030	0,075
-103,176	-200,000	0,012	0,065
-102,162	315,218	0,027	0,036
-101,147	206,287	0,086	0,095
-100,132	-137,614	-0,124	0,010
-99,118	317,132	-0,125	-0,168
-98,103	3,551	0,145	0,075
-97,089	-200,000	-0,019	0,118
-96,074	84,163	0,145	0,112
-95,059	784,314	0,047	-0,091
-94,045	-200,000	0,011	-0,105
-93,030	-200,000	-0,005	0,114
-92,016	-200,000	0,001	-0,043
-91,001	-200,000	0,026	-0,136
-89,986	181,195	-0,149	0,155
-88,972	800,000	0,070	0,216
-87,957	-110,998	0,053	-0,008
-86,943	17,374	-0,094	0,052
-85,928	20,399	0,065	0,037
-84,913	800,000	-0,083	-0,163
-83,899	-32,976	-0,084	0,033
-82,884	800,000	-0,042	-0,106
-81,870	800,000	-0,042	0,118
-80,855	-200,000	0,010	0,124
-79,840	126,135	0,051	-0,046
-78,826	-200,000	0,004	-0,065
-77,811	305,860	0,050	-0,067
-76,797	800,000	-0,080	0,164
-75,782	248,539	0,054	-0,064
-74,767	-5,944	0,067	-0,033
-73,753	226,254	-0,065	0,075
-72,738	-30,316	0,068	0,027
-71,724	176,892	-0,080	-0,083
-70,709	-61,184	-0,013	-0,004
-69,694	-200,000	-0,008	-0,028
-68,680	-200,000	-0,035	-0,112
-67,665	222,181	-0,038	0,044
-66,651	-52,058	0,068	0,022
-65,636	-200,000	0,013	-0,043
-64,622	84,907	-0,062	-0,048
-63,607	-141,836	-0,020	-0,001
-62,592	-62,246	-0,131	-0,038
-61,578	-200,000	0,009	-0,042
-60,563	800,000	-0,049	0,103
-59,549	-58,972	-0,029	-0,009
-58,534	3,109	-1,694	-0,868
-57,519	376,221	-1,376	-1,991
-56,505	-200,000	-0,609	-4,610
-55,490	393,145	1,092	1,611
-54,476	800,000	4,666	11,107
-53,461	-200,000	19,904	324,888
-52,446	800,000	750,720	2316,341
-51,432	553,030	1661,583	2834,027
-50,417	75,414	1671,571	1245,744
-49,403	20,144	1544,204	878,586
-48,388	14,140	1466,760	805,325
-47,373	18,284	1456,877	819,879
-46,359	16,351	1446,509	804,755
-45,344	12,382	1441,969	783,196
-44,330	12,341	1439,994	781,897
-43,315	12,338	1438,291	780,926
-42,300	12,318	1436,669	779,920
-41,286	12,359	1435,382	779,389
-40,271	12,331	1433,949	778,444
-39,257	12,293	1432,720	777,565
-38,242	12,382	1431,531	777,311
-37,227	12,381	1430,394	776,659
-36,213	12,365	1428,903	775,741
-35,198	12,340	1428,022	775,116
-34,184	12,411	1426,892	774,806
-33,169	12,338	1425,486	773,667
-32,154	12,408	1424,378	773,367
-31,140	12,414	1423,364	772,815
-30,125	12,413	1422,019	772,048
-29,111	12,417	1420,835	771,396
-28,096	12,401	1419,828	770,740
-27,082	12,325	1418,861	769,827
-26,067	12,312	1417,711	769,110
-25,052	12,357	1416,580	768,678
-24,038	12,286	1415,726	767,852
-23,023	12,317	1414,549	767,328
-22,009	12,329	1413,341	766,697
-20,994	12,293	1412,627	766,110
-19,979	12,261	1411,888	765,532
-18,965	12,288	1410,836	765,057
-17,950	12,256	1409,788	764,306
-16,936	12,293	1409,046	764,050
-15,921	12,227	1407,928	763,105
-14,906	12,219	1407,318	762,708
-13,892	12,258	1406,141	762,220
-12,877	12,209	1405,332	761,521
-11,863	12,207	1404,299	760,923
-10,848	12,204	1403,559	760,479
-9,833	12,165	1402,651	759,774
-8,819	12,108	1401,848	759,045
-7,804	12,081	1401,054	758,456
-6,790	12,131	1399,888	758,029
-5,775	12,121	1398,813	757,372
-4,760	12,182	1397,619	756,976
-3,746	12,178	1396,582	756,368
-2,731	12,076	1396,142	755,626
-1,717	12,070	1395,492	755,216
-0,702	12,126	1393,401	754,312
0,313	16,010	1308,681	726,397
1,327	32,206	699,983	425,750
2,342	49,963	122,141	81,266
3,356	4,017	16,546	8,521
4,371	8,230	3,178	1,681
5,386	-32,786	0,771	0,301
6,400	-200,000	0,007	0,214
7,415	-31,478	-0,215	-0,085
8,429	-90,028	-0,311	-0,064
9,444	111,917	-0,330	-0,281
10,459	263,351	-0,211	-0,259
11,473	37,370	-0,324	-0,202
12,488	800,000	-0,047	-0,123
13,502	152,951	-0,162	-0,156
14,517	55,269	-0,286	-0,195
15,531	142,998	-0,258	-0,243
16,546	146,531	-0,231	-0,219
17,561	75,703	-0,431	-0,321
18,575	31,599	-0,274	-0,166
19,590	125,322	-0,115	-0,103
20,604	-109,546	-0,268	-0,040
21,619	84,828	-0,319	-0,246
22,634	82,012	-0,401	-0,306
23,648	167,759	-0,449	-0,451
24,663	128,257	-0,320	-0,287
25,677	-37,774	-0,433	-0,162
26,692	-1,953	-0,302	-0,149
27,707	7,122	-0,397	-0,208
28,721	9,534	-0,311	-0,166
29,736	60,531	-0,386	-0,269
30,750	105,482	-0,279	-0,232
31,765	154,659	-0,298	-0,289
32,780	176,919	-0,321	-0,329
33,794	39,773	-0,338	-0,213
34,809	205,416	-0,301	-0,330
35,823	126,870	-0,393	-0,351
36,838	539,154	-0,208	-0,350
37,853	32,958	-0,465	-0,283
38,867	13,380	-0,521	-0,283
39,882	153,393	-0,332	-0,320
40,896	113,844	-0,332	-0,284
41,911	-32,714	-0,377	-0,147
42,926	136,945	-0,307	-0,283
43,940	-8,919	-0,371	-0,174
44,955	12,870	-0,471	-0,256
45,969	34,905	-0,472	-0,290
46,984	140,162	-0,293	-0,272
47,999	85,771	-0,288	-0,223
49,013	254,514	-0,236	-0,285
50,028	45,295	-0,267	-0,173
51,042	144,781	-0,332	-0,312
52,057	14,159	-0,368	-0,201
53,071	68,627	-0,405	-0,292
54,086	-42,980	-0,363	-0,129
55,101	18,258	-0,378	-0,211
56,115	13,967	-0,327	-0,178
57,130	101,821	-0,302	-0,247
58,144	268,135	-0,268	-0,330
59,159	44,792	-0,346	-0,223
60,174	320,294	-0,262	-0,350
61,188	65,276	-0,407	-0,289
62,203	-37,991	-0,532	-0,198
63,217	-39,166	-0,314	-0,115
64,232	-30,045	-0,397	-0,158
65,247	137,166	-0,330	-0,304
66,261	53,728	-0,363	-0,244
67,276	146,253	-0,472	-0,445
68,290	195,899	-0,346	-0,370
69,305	-8,571	-0,399	-0,188
70,320	131,856	-0,238	-0,215
71,334	-37,520	-0,337	-0,125
72,349	-23,472	-0,296	-0,124
73,363	53,117	-0,376	-0,253
74,378	61,369	-0,276	-0,192
75,393	-52,882	-0,322	-0,103
76,407	517,108	-0,156	-0,257
77,422	125,027	-0,188	-0,167
78,436	22,228	-0,385	-0,220
79,451	99,555	-0,369	-0,299
80,466	-33,971	-0,274	-0,105
81,480	117,100	-0,239	-0,206
82,495	177,712	-0,287	-0,293
83,509	-21,683	-0,474	-0,202
84,524	-67,049	-0,362	-0,100
85,539	132,892	-0,248	-0,225
86,553	-90,767	-0,351	-0,070
87,568	128,760	-0,281	-0,251
88,582	-17,221	-0,345	-0,152
89,597	-1,995	-0,444	-0,218
90,611	86,010	-0,238	-0,184
91,626	40,732	-0,293	-0,185
92,641	-45,645	-0,337	-0,116
93,655	57,115	-0,285	-0,194
94,670	127,203	-0,234	-0,208
95,684	106,056	-0,254	-0,211
96,699	137,023	-0,222	-0,204
97,714	660,428	-0,173	-0,314
98,728	92,018	-0,308	-0,243
99,743	41,272	-0,300	-0,189
100,757	-0,824	-0,271	-0,134
101,772	190,152	-0,214	-0,225
102,787	-48,845	-0,317	-0,106
103,801	290,132	-0,283	-0,361
104,816	8,751	-0,196	-0,103
105,830	97,323	-0,173	-0,139
106,845	80,044	-0,199	-0,150
107,860	263,849	-0,182	-0,222
108,874	14,727	-0,355	-0,194
109,889	35,653	-0,330	-0,202
110,903	297,138	-0,218	-0,281
111,918	163,939	-0,241	-0,238
112,933	77,154	-0,163	-0,121
113,947	98,338	-0,242	-0,195
114,962	-49,052	-0,247	-0,082
115,976	54,669	-0,276	-0,186
116,991	73,397	-0,311	-0,227
118,006	107,291	-0,153	-0,127
119,020	59,775	-0,315	-0,217
120,035	103,936	-0,276	-0,227
121,049	85,154	-0,299	-0,229
122,064	68,975	-0,122	-0,087
123,079	-108,387	-0,353	-0,053
124,093	-18,482	-0,361	-0,157
125,108	-56,791	-0,283	-0,087
126,122	59,409	-0,267	-0,184
127,137	-82,877	-0,193	-0,043
128,151	800,000	-0,041	-0,121
129,166	49,457	-0,190	-0,125
130,181	298,069	-0,166	-0,214
131,195	40,456	-0,329	-0,206
132,210	96,631	-0,255	-0,204
133,224	120,041	-0,357	-0,309
134,239	-86,413	-0,252	-0,054
135,254	192,892	-0,253	-0,267
136,268	261,704	-0,228	-0,277
137,283	111,602	-0,229	-0,193
138,297	135,193	-0,211	-0,192
139,312	46,755	-0,322	-0,208
140,327	88,261	-0,314	-0,243
141,341	159,479	-0,277	-0,269
142,356	116,821	-0,191	-0,163
143,370	76,276	-0,190	-0,140
144,385	396,554	-0,108	-0,157
145,400	403,648	-0,206	-0,304
146,414	88,725	-0,285	-0,221
147,429	32,229	-0,279	-0,168
148,443	84,407	-0,214	-0,163
149,458	-200,000	-0,087	-0,290
150,473	380,773	-0,125	-0,180
151,487	15,483	-0,270	-0,147
152,502	155,457	-0,258	-0,248
153,516	387,266	-0,200	-0,289
154,531	137,994	-0,263	-0,240
155,546	-4,993	-0,276	-0,132
156,560	-46,874	-0,219	-0,074
157,575	120,635	-0,215	-0,186
158,589	259,077	-0,186	-0,224
159,604	-10,419	-0,372	-0,171
160,619	-8,136	-0,258	-0,121
161,633	-200,000	-0,134	-0,414
162,648	53,694	-0,320	-0,213
163,662	-51,023	-0,186	-0,060
164,677	28,606	-0,152	-0,089
165,692	275,779	-0,272	-0,337
166,706	239,604	-0,176	-0,205
167,721	70,233	-0,263	-0,189
168,735	188,821	-0,179	-0,187
169,750	39,980	-0,183	-0,114
170,764	505,821	-0,117	-0,189
171,779	94,341	-0,214	-0,169
172,794	800,000	-0,084	-0,248
173,808	800,000	-0,048	-0,115
174,823	101,194	-0,284	-0,230
175,837	-23,363	-0,307	-0,128
176,852	63,709	-0,256	-0,179
177,867	800,000	-0,143	-0,286
178,881	8,327	-0,215	-0,112
179,896	800,000	-0,100	-0,219
180,910	458,186	-0,202	-0,313
181,925	203,407	-0,180	-0,194
182,940	248,431	-0,264	-0,311
183,954	178,231	-0,214	-0,218
184,969	77,445	-0,235	-0,174
185,983	132,042	-0,191	-0,171
186,998	-200,000	-0,020	-0,148
188,013	170,001	-0,164	-0,163
189,027	63,986	-0,298	-0,208
190,042	144,449	-0,209	-0,194
191,056	218,282	-0,215	-0,239
192,071	-58,402	-0,282	-0,085
193,086	-50,963	-0,193	-0,063
194,100	0,464	-0,255	-0,126
195,115	-6,878	-0,213	-0,100
196,129	205,989	-0,164	-0,178
197,144	25,452	-0,327	-0,189
198,159	115,724	-0,188	-0,160
199,173	367,419	-0,138	-0,195
200,188	124,415	-0,219	-0,192
201,202	16,809	-0,316	-0,173
202,217	244,368	-0,110	-0,128
203,232	514,709	-0,103	-0,167
204,246	96,605	-0,161	-0,128
205,261	-28,700	-0,171	-0,068
206,275	-78,307	-0,104	-0,024
207,290	-0,185	-0,256	-0,126
208,304	105,845	-0,191	-0,157
209,319	-35,915	-0,166	-0,062
210,334	159,414	-0,170	-0,164
211,348	255,680	-0,203	-0,241
212,363	238,333	-0,143	-0,165
213,377	169,706	-0,201	-0,199
214,392	370,466	-0,105	-0,147
215,407	-132,893	-0,171	-0,015
216,421	51,502	-0,236	-0,155
217,436	38,409	-0,246	-0,152
218,450	156,947	-0,184	-0,176
219,465	247,421	-0,214	-0,251
220,480	136,579	-0,216	-0,196
221,494	-45,145	-0,231	-0,079
222,509	0,912	-0,219	-0,108
223,523	800,000	-0,063	-0,141
224,538	253,162	-0,193	-0,228
225,553	104,288	-0,162	-0,132
226,567	208,735	-0,214	-0,233
227,582	-66,369	-0,263	-0,072
228,596	336,747	-0,177	-0,238
229,611	337,078	-0,121	-0,164
230,626	-11,009	-0,113	-0,051
231,640	-80,972	-0,234	-0,053
232,655	-175,226	-0,255	0,005
233,669	800,000	-0,116	-0,240
234,684	57,493	-0,145	-0,098
235,699	-7,874	-0,255	-0,119
236,713	225,726	-0,096	-0,108
237,728	28,919	-0,199	-0,116
238,742	-65,916	-0,166	-0,046
239,757	44,341	-0,193	-0,122
240,772	-8,108	-0,348	-0,162
241,786	470,681	-0,158	-0,247
242,801	270,582	-0,154	-0,188
243,815	-45,365	-0,279	-0,095
244,830	-14,363	-0,252	-0,112
245,844	25,846	-0,184	-0,106
246,859	178,637	-0,169	-0,171
247,874	32,050	-0,177	-0,105
248,888	-13,765	-0,267	-0,119
249,903	117,091	-0,204	-0,173
250,917	234,140	-0,083	0,095
251,932	-165,635	-0,165	0,005
252,947	67,919	-0,110	-0,077
253,961	671,920	-0,119	-0,214
254,976	117,753	-0,076	-0,065
255,990	800,000	-0,091	-0,236
257,005	-8,756	-0,196	-0,090
258,020	800,000	-0,082	-0,162
259,034	106,020	-0,044	-0,036
260,049	164,451	-0,173	-0,168
261,063	181,392	-0,172	-0,175
262,078	44,080	-0,218	-0,138
263,093	186,391	-0,213	-0,219
264,107	36,161	-0,197	-0,119
265,122	70,180	-0,156	-0,111
266,136	66,356	-0,140	-0,098
267,151	70,090	-0,208	-0,148
268,166	185,530	-0,109	-0,111
269,180	163,957	-0,191	-0,186
270,195	285,816	-0,182	-0,227
271,209	28,370	-0,192	-0,112
272,224	-138,252	-0,221	0,017
273,239	-104,910	-0,178	-0,028
274,253	184,844	-0,170	-0,174
275,268	-99,038	-0,171	-0,030
276,282	-3,452	-0,226	-0,108
277,297	-5,572	-0,349	-0,164
278,312	-46,616	-0,193	-0,065
279,326	103,427	-0,124	-0,100
280,341	374,539	-0,044	-0,061
281,355	-73,345	-0,132	-0,033
282,370	-79,453	-0,211	-0,049
283,384	165,926	-0,258	-0,252
284,399	800,000	-0,057	-0,164
285,414	800,000	-0,079	-0,153
286,428	53,405	-0,104	-0,069
287,443	-124,813	-0,162	-0,017
288,457	1,501	-0,196	-0,097
289,472	105,328	-0,129	-0,105
290,487	-64,930	-0,126	0,035
291,501	330,902	-0,110	-0,146
292,516	-0,454	-0,210	-0,103
293,530	-200,000	-0,026	-0,155
294,545	194,953	-0,104	-0,109
295,560	-52,851	-0,232	-0,073
296,574	706,579	-0,104	-0,189
297,589	800,000	-0,049	-0,129
298,603	11,452	-0,141	-0,074
299,618	197,962	-0,127	-0,134
300,633	36,622	-0,277	-0,168
301,647	55,954	-0,135	-0,090
302,662	17,825	-0,106	0,058
303,676	-154,702	-0,311	0,014
304,691	251,337	-0,202	-0,237
305,706	281,043	-0,141	-0,174
306,720	21,032	-0,218	-0,121
307,735	362,179	-0,182	-0,251
308,749	115,411	-0,190	-0,160
309,764	-193,898	-0,036	-0,000
310,779	800,000	-0,014	-0,034
311,793	104,387	-0,077	-0,062
312,808	-86,735	-0,147	0,031
313,822	75,541	-0,156	-0,113
314,837	-180,309	-0,176	0,002
315,852	11,879	-0,167	-0,088
316,866	412,115	-0,019	0,028
317,881	17,763	-0,196	-0,107
318,895	-81,359	-0,235	-0,053
319,910	-67,939	-0,154	0,041
320,925	244,264	-0,202	-0,234
321,939	800,000	-0,026	-0,078
322,954	-48,964	-0,135	-0,044
323,968	111,778	-0,242	-0,200
324,983	58,020	-0,181	-0,121
325,997	213,230	-0,149	-0,162
327,012	-23,422	-0,103	-0,042
328,027	91,519	-0,164	-0,126
329,041	420,060	-0,055	-0,082
330,056	800,000	-0,128	-0,309
331,070	-200,000	0,013	-0,067
332,085	800,000	-0,068	-0,165
333,100	587,942	-0,147	-0,250
334,114	199,308	-0,237	-0,250
335,129	59,695	-0,224	-0,151
336,143	14,194	-0,044	0,023
337,158	-117,499	-0,086	-0,010
338,173	-122,955	-0,088	-0,010
339,187	241,839	-0,041	-0,047
340,202	47,868	-0,094	-0,060
341,216	121,905	-0,113	-0,097
342,231	800,000	-0,144	-0,332
343,246	139,671	-0,193	-0,174
344,260	-200,000	-0,009	-0,128
345,275	171,808	-0,152	-0,149
346,289	800,000	-0,075	-0,169
347,304	-71,654	-0,087	0,022
348,319	800,000	-0,055	-0,156
349,333	800,000	-0,083	-0,190
350,348	33,537	-0,113	-0,067
351,362	105,799	-0,160	-0,129
352,377	-127,227	-0,201	-0,020
353,392	440,296	-0,124	-0,186
354,406	268,690	-0,144	-0,173
355,421	209,401	1314,899	1412,993
356,435	161,163	1475,632	1413,474
