DTS Sentinel unit serial number:	SN410029Multiplexer serial number:	ORYXHardware model number:	OX2-SRSoftware version number:	ORYX F/W v4,00 Oryx Data Collector v3.7.2.0data status	okinstallation	B3 Nyhavnadifferential loss correction	single-endedforward channel	channel 1reverse channel	N/Adate	2023/12/01time	18:02:30forward acquisition time	300,00reverse acquisition time	0,00gamma	499,1914k internal	0,3203k external	0,3203temperature offset calibration	1,0000default loss term (dB/km)	0,3820temperature slope calibration	1,0000multiplexer offset coefficient	1,0000multiplexer slope coefficient	1,0000fibre end	0,00T internal ref (°C)	14,56T ext. ref 1 (°C)	0,64T ext. ref 2 (°C)	0,61length (m)	temperature (°C)	Stokes	anti-Stokes-744,400	251,936	-0,193	-0,240
-743,385	800,000	0,111	0,280
-742,371	86,142	-0,148	-0,119
-741,356	-200,000	-0,019	0,397
-740,342	463,891	-0,121	-0,197
-739,327	-200,000	0,031	0,330
-738,312	79,996	-0,286	-0,224
-737,298	-200,000	0,069	0,317
-736,283	182,087	-0,204	-0,218
-735,269	800,000	0,147	0,412
-734,254	699,023	-0,171	-0,328
-733,239	-60,549	-0,201	0,062
-732,225	725,698	-0,121	-0,235
-731,210	-108,250	0,088	0,014
-730,196	-200,000	-0,011	0,070
-729,181	-133,447	-0,043	0,004
-728,167	-200,000	-0,007	0,034
-727,152	115,658	-0,040	0,036
-726,137	-2,734	-0,180	-0,091
-725,123	-56,881	-0,069	0,022
-724,108	96,555	-0,050	-0,042
-723,094	8,447	-0,079	-0,043
-722,079	445,990	0,070	-0,112
-721,064	-136,696	0,086	0,007
-720,050	8,628	-0,064	-0,035
-719,035	800,000	0,056	-0,118
-718,021	-200,000	0,022	-0,110
-717,006	-163,235	-0,140	-0,005
-715,991	-65,374	-0,041	-0,012
-714,977	-44,142	0,072	0,026
-713,962	-200,000	-0,015	0,069
-712,948	-200,000	-0,010	0,161
-711,933	-71,198	0,054	-0,015
-710,918	-200,000	-0,044	0,181
-709,904	7,707	-0,067	-0,036
-708,889	283,299	-0,081	-0,106
-707,875	-142,087	-0,064	-0,005
-706,860	133,615	-0,053	0,050
-705,845	14,961	0,030	-0,017
-704,831	800,000	-0,069	-0,168
-703,816	183,637	-0,033	-0,036
-702,802	186,659	-0,105	0,113
-701,787	-200,000	0,006	-0,100
-700,772	-45,605	-0,053	-0,019
-699,758	267,697	0,062	0,079
-698,743	-17,363	-0,100	0,045
-697,729	185,153	0,123	0,132
-696,714	-200,000	-0,012	0,064
-695,699	39,208	-0,043	0,028
-694,685	96,564	-0,068	-0,056
-693,670	-200,000	-0,028	0,128
-692,656	422,751	-0,058	-0,091
-691,641	800,000	0,016	0,047
-690,627	621,879	-0,072	0,132
-689,612	49,694	-0,080	0,054
-688,597	800,000	-0,044	-0,111
-687,583	50,393	-0,121	-0,083
-686,568	-200,000	0,019	-0,072
-685,554	-200,000	-0,015	-0,093
-684,539	-114,396	-0,118	-0,016
-683,524	800,000	-0,049	0,099
-682,510	259,646	0,039	0,048
-681,495	-200,000	-0,002	-0,099
-680,481	286,714	0,096	-0,127
-679,466	213,304	0,050	-0,058
-678,451	500,144	-0,055	0,093
-677,437	800,000	0,037	-0,096
-676,422	-61,018	0,168	0,051
-675,408	135,851	-0,074	0,070
-674,393	-31,844	-0,181	-0,073
-673,378	-200,000	0,001	-0,055
-672,364	60,910	-0,033	-0,024
-671,349	-200,000	0,008	0,052
-670,335	241,042	0,088	-0,106
-669,320	398,075	0,062	-0,094
-668,305	-83,588	-0,058	-0,013
-667,291	800,000	-0,026	-0,073
-666,276	-156,061	-0,167	0,008
-665,262	763,425	-0,085	-0,168
-664,247	-48,456	-0,060	0,021
-663,232	-169,312	0,219	0,006
-662,218	800,000	0,064	0,138
-661,203	731,146	-0,021	-0,041
-660,189	800,000	-0,016	-0,040
-659,174	-200,000	-0,004	-0,057
-658,159	265,137	0,063	0,079
-657,145	57,654	0,068	0,048
-656,130	800,000	0,020	-0,042
-655,116	-200,000	-0,002	-0,119
-654,101	136,099	-0,071	0,067
-653,086	-200,000	-0,000	-0,017
-652,072	36,839	-0,059	-0,038
-651,057	374,749	0,045	-0,067
-650,043	-200,000	-0,010	0,092
-649,028	205,717	0,041	0,046
-648,014	-138,501	-0,065	-0,005
-646,999	326,724	0,038	0,052
-645,984	239,025	-0,031	-0,038
-644,970	-1,366	-0,109	-0,055
-643,955	-200,000	0,030	0,179
-642,941	800,000	0,011	-0,034
-641,926	-62,162	-0,090	0,027
-640,911	800,000	-0,039	0,102
-639,897	-200,000	0,030	-0,120
-638,882	331,827	-0,078	-0,110
-637,868	338,506	0,045	-0,063
-636,853	103,399	-0,033	0,028
-635,838	-75,106	0,105	-0,027
-634,824	-200,000	-0,026	-0,128
-633,809	102,419	0,085	0,072
-632,795	562,312	0,046	0,080
-631,780	194,365	0,058	0,064
-630,765	-200,000	-0,021	-0,069
-629,751	88,162	0,049	0,039
-628,736	-57,380	-0,115	-0,036
-627,722	599,960	0,027	0,049
-626,707	345,527	0,018	-0,026
-625,692	42,590	0,078	0,051
-624,678	800,000	-0,042	-0,118
-623,663	69,803	-0,029	-0,022
-622,649	-111,926	-0,085	0,012
-621,634	-200,000	0,030	-0,121
-620,619	127,793	-0,053	0,048
-619,605	-200,000	-0,006	-0,021
-618,590	799,186	-0,055	-0,111
-617,576	148,275	0,042	0,041
-616,561	-4,032	-0,044	0,022
-615,546	-200,000	0,020	0,136
-614,532	105,883	0,027	-0,023
-613,517	-100,428	0,104	-0,018
-612,503	-83,218	-0,053	-0,012
-611,488	800,000	0,044	-0,089
-610,474	-48,303	0,063	0,022
-609,459	-40,708	-0,026	0,010
-608,444	403,306	-0,025	0,038
-607,430	-3,883	-0,110	0,055
-606,415	-200,000	0,024	-0,106
-605,401	-200,000	-0,035	0,175
-604,386	111,675	0,057	0,050
-603,371	-81,849	-0,017	-0,004
-602,357	-200,000	0,025	0,165
-601,342	193,114	0,103	-0,113
-600,328	-123,032	-0,036	-0,004
-599,313	800,000	-0,039	-0,114
-598,298	800,000	0,070	-0,217
-597,284	322,101	-0,025	0,034
-596,269	-80,849	-0,039	-0,009
-595,255	800,000	0,048	-0,112
-594,240	-200,000	-0,034	-0,149
-593,225	304,817	-0,006	-0,008
-592,211	-200,000	-0,001	-0,086
-591,196	-44,050	-0,032	-0,012
-590,182	800,000	-0,017	0,037
-589,167	537,423	0,062	-0,106
-588,152	-51,327	0,126	-0,042
-587,138	-167,628	0,028	-0,001
-586,123	-26,764	-0,194	-0,082
-585,109	-53,259	-0,056	-0,018
-584,094	-200,000	-0,028	0,096
-583,079	-60,073	0,084	0,026
-582,065	800,000	-0,016	0,042
-581,050	-51,706	0,031	0,010
-580,036	-24,748	0,079	0,034
-579,021	-200,000	-0,005	0,085
-578,006	177,134	0,011	0,012
-576,992	-200,000	0,008	-0,044
-575,977	83,323	-0,025	0,020
-574,963	-200,000	0,003	-0,014
-573,948	333,011	0,079	0,111
-572,934	329,675	0,039	-0,054
-571,919	305,557	0,034	-0,046
-570,904	-41,584	0,077	0,028
-569,890	-2,690	-0,094	-0,048
-568,875	-127,099	0,096	-0,010
-567,861	800,000	0,085	0,191
-566,846	800,000	-0,018	0,047
-565,831	3,693	0,093	-0,049
-564,817	-200,000	-0,002	0,085
-563,802	136,296	-0,100	-0,094
-562,788	538,801	0,060	-0,103
-561,773	-23,460	-0,127	-0,055
-560,758	-200,000	-0,006	0,036
-559,744	-72,424	0,086	-0,023
-558,729	800,000	0,016	0,033
-557,715	376,903	-0,076	-0,112
-556,700	71,983	0,075	-0,056
-555,685	-80,890	-0,170	-0,040
-554,671	-200,000	-0,004	0,073
-553,656	293,891	0,081	-0,107
-552,642	19,582	0,058	0,034
-551,627	-200,000	0,011	0,065
-550,612	17,036	0,064	0,037
-549,598	20,369	-0,099	-0,058
-548,583	-200,000	0,006	-0,089
-547,569	-200,000	-0,029	0,099
-546,554	188,284	-0,040	0,043
-545,539	-200,000	0,001	0,128
-544,525	800,000	0,023	-0,052
-543,510	19,929	-0,200	0,116
-542,496	-72,678	0,064	-0,017
-541,481	486,299	0,039	-0,065
-540,466	353,850	-0,050	0,071
-539,452	-153,208	0,105	0,005
-538,437	-200,000	0,026	0,158
-537,423	-82,105	-0,030	-0,007
-536,408	-113,645	0,095	0,013
-535,393	-18,993	-0,165	-0,074
-534,379	-200,000	0,016	0,052
-533,364	83,836	-0,049	0,038
-532,350	125,692	0,106	0,097
-531,335	-200,000	-0,006	-0,084
-530,321	120,715	-0,033	0,030
-529,306	190,917	-0,116	0,126
-528,291	-200,000	-0,031	-0,105
-527,277	169,252	-0,076	-0,078
-526,262	43,831	-0,032	0,021
-525,248	-200,000	-0,014	-0,081
-524,233	71,197	0,104	0,078
-523,218	267,533	-0,072	0,091
-522,204	156,900	-0,059	-0,059
-521,189	171,311	0,101	-0,104
-520,175	-54,507	-0,064	-0,021
-519,160	-10,379	0,051	0,024
-518,145	616,824	0,056	0,101
-517,131	25,481	0,069	0,041
-516,116	-200,000	-0,003	0,061
-515,102	26,235	-0,013	-0,008
-514,087	-17,291	0,148	0,067
-513,072	-200,000	-0,011	0,088
-512,058	-54,416	-0,060	0,019
-511,043	424,888	0,031	0,048
-510,029	49,936	0,066	-0,044
-509,014	-75,022	-0,080	0,021
-507,999	168,324	0,103	0,105
-506,985	-47,227	0,105	0,037
-505,970	-55,476	-0,191	-0,061
-504,956	9,647	0,114	-0,062
-503,941	125,800	-0,058	-0,053
-502,926	633,201	0,054	-0,100
-501,912	115,915	0,067	0,059
-500,897	-200,000	-0,002	0,093
-499,883	-111,449	-0,140	0,020
-498,868	-200,000	-0,008	-0,065
-497,853	105,831	-0,097	-0,082
-496,839	800,000	0,016	-0,045
-495,824	800,000	0,025	0,078
-494,810	44,600	0,049	0,032
-493,795	18,995	0,010	0,006
-492,781	-35,527	-0,184	-0,072
-491,766	-93,747	-0,099	0,019
-490,751	-200,000	0,019	0,108
-489,737	-37,001	0,114	-0,044
-488,722	-200,000	0,039	0,184
-487,708	84,494	0,040	0,031
-486,693	-200,000	-0,015	0,122
-485,678	-200,000	-0,005	-0,063
-484,664	-42,800	0,116	0,042
-483,649	-200,000	-0,001	-0,016
-482,635	279,905	-0,064	-0,082
-481,620	142,690	0,091	0,087
-480,605	600,388	0,043	-0,077
-479,591	596,245	0,067	0,120
-478,576	62,708	0,078	0,056
-477,562	-196,372	-0,009	0,000
-476,547	610,433	-0,099	-0,179
-475,532	-200,000	0,083	-0,000
-474,518	-22,038	0,238	-0,103
-473,503	209,787	-0,079	0,089
-472,489	41,118	0,187	0,121
-471,474	-189,906	-0,101	-0,001
-470,459	-6,291	-0,070	-0,034
-469,445	73,099	-0,040	0,030
-468,430	800,000	0,040	0,083
-467,416	-200,000	-0,004	-0,068
-466,401	-200,000	0,147	-0,000
-465,386	317,439	-0,089	0,121
-464,372	-200,000	-0,005	-0,078
-463,357	-200,000	-0,001	0,085
-462,343	56,774	-0,045	0,031
-461,328	800,000	-0,034	-0,094
-460,313	427,223	0,056	-0,087
-459,299	-142,339	0,058	-0,004
-458,284	172,020	0,007	-0,008
-457,270	-7,223	-0,062	-0,030
-456,255	-200,000	0,006	-0,022
-455,241	-18,267	-0,093	-0,042
-454,226	-158,282	0,100	0,004
-453,211	-122,091	0,061	-0,007
-452,197	800,000	-0,044	0,108
-451,182	-128,437	0,094	-0,009
-450,168	-85,069	-0,065	0,014
-449,153	-200,000	0,007	0,072
-448,138	-200,000	-0,003	-0,118
-447,124	-38,758	-0,044	0,017
-446,109	418,477	-0,009	-0,014
-445,095	-55,539	0,071	-0,023
-444,080	-40,230	-0,044	0,017
-443,065	709,497	-0,021	0,041
-442,051	-200,000	0,001	-0,029
-441,036	800,000	0,067	-0,142
-440,022	35,509	-0,046	0,029
-439,007	16,770	0,137	-0,078
-437,992	-48,075	0,111	0,038
-436,978	-102,165	-0,103	-0,018
-435,963	288,636	0,057	0,074
-434,949	-85,386	-0,072	-0,016
-433,934	359,595	0,074	-0,107
-432,919	-200,000	0,010	-0,148
-431,905	31,035	-0,009	-0,006
-430,890	-20,315	0,101	0,044
-429,876	-200,000	0,021	0,104
-428,861	-10,674	0,032	-0,015
-427,846	-69,303	0,161	0,044
-426,832	-4,317	-0,129	0,064
-425,817	180,460	-0,115	0,121
-424,803	-200,000	-0,024	-0,146
-423,788	-172,329	0,154	0,003
-422,773	29,459	-0,022	0,013
-421,759	64,287	0,072	-0,052
-420,744	-127,244	-0,119	-0,012
-419,730	4,730	0,060	-0,031
-418,715	147,822	-0,027	-0,026
-417,701	-200,000	-0,019	-0,072
-416,686	800,000	0,066	-0,151
-415,671	124,673	0,047	-0,042
-414,657	-4,879	0,013	-0,007
-413,642	-186,007	-0,105	-0,001
-412,628	752,257	-0,082	-0,159
-411,613	198,817	0,036	-0,040
-410,598	-127,721	-0,069	-0,007
-409,584	-200,000	-0,044	0,191
-408,569	-200,000	0,012	-0,046
-407,555	755,888	-0,076	0,149
-406,540	-61,495	0,112	-0,034
-405,525	-200,000	0,033	0,122
-404,511	-200,000	-0,002	0,029
-403,496	39,030	0,084	0,054
-402,482	800,000	-0,045	0,140
-401,467	-81,845	0,022	0,005
-400,452	59,448	0,115	-0,081
-399,438	800,000	-0,021	0,057
-398,423	147,056	-0,039	0,038
-397,409	194,413	0,004	-0,004
-396,394	714,260	-0,048	-0,092
-395,379	-200,000	0,034	-0,144
-394,365	-109,126	0,002	-0,000
-393,350	-200,000	-0,004	-0,027
-392,336	-46,599	0,060	0,021
-391,321	-43,100	-0,039	-0,014
-390,306	800,000	-0,047	-0,126
-389,292	138,749	-0,125	-0,118
-388,277	-124,844	-0,124	0,014
-387,263	44,223	-0,037	-0,024
-386,248	800,000	-0,041	0,089
-385,233	-200,000	0,011	-0,083
-384,219	143,774	0,148	0,142
-383,204	26,800	-0,088	0,053
-382,190	296,034	-0,046	-0,061
-381,175	-200,000	-0,003	0,011
-380,160	310,350	-0,119	0,159
-379,146	800,000	-0,054	-0,132
-378,131	302,298	0,119	0,158
-377,117	30,607	0,090	-0,055
-376,102	-200,000	-0,028	-0,092
-375,088	171,213	0,096	-0,099
-374,073	-44,590	-0,043	-0,015
-373,058	-200,000	-0,026	0,126
-372,044	-181,463	0,090	-0,001
-371,029	-20,584	-0,047	0,020
-370,015	513,792	0,069	0,116
-369,000	-28,390	-0,039	0,016
-367,985	-82,563	-0,052	0,012
-366,971	-200,000	-0,026	0,122
-365,956	800,000	0,024	0,053
-364,942	-200,000	0,020	0,070
-363,927	800,000	0,015	0,040
-362,912	-146,698	-0,111	0,007
-361,898	207,676	0,037	-0,041
-360,883	-200,000	-0,066	-0,217
-359,869	800,000	0,032	0,076
-358,854	560,515	0,030	-0,052
-357,839	-75,741	-0,115	0,029
-356,825	-200,000	0,000	0,064
-355,810	-40,655	-0,104	-0,038
-354,796	40,092	-0,054	0,035
-353,781	-54,064	0,048	0,016
-352,766	-70,121	-0,191	-0,052
-351,752	-133,655	0,106	-0,009
-350,737	-200,000	0,030	0,127
-349,723	-55,908	-0,016	-0,005
-348,708	800,000	0,063	0,168
-347,693	-22,396	-0,093	0,040
-346,679	800,000	-0,017	-0,036
-345,664	91,459	0,126	0,102
-344,650	-96,981	-0,105	0,020
-343,635	-132,904	-0,028	0,003
-342,620	-10,327	0,104	-0,049
-341,606	276,872	0,046	0,059
-340,591	110,337	-0,044	-0,038
-339,577	312,964	0,067	-0,090
-338,562	800,000	-0,035	0,073
-337,548	-16,090	0,010	-0,005
-336,533	370,291	0,050	0,073
-335,518	-128,608	-0,050	0,005
-334,504	-141,572	-0,046	-0,003
-333,489	-156,284	0,077	-0,003
-332,475	-200,000	-0,018	-0,095
-331,460	235,198	0,036	0,043
-330,445	10,125	0,106	0,057
-329,431	-200,000	-0,026	-0,144
-328,416	26,380	0,101	0,060
-327,402	800,000	0,027	0,077
-326,387	578,587	-0,043	0,075
-325,372	-200,000	0,030	-0,110
-324,358	-200,000	-0,045	-0,244
-323,343	199,408	0,123	-0,135
-322,329	800,000	0,016	-0,042
-321,314	-200,000	-0,003	0,105
-320,299	-59,360	0,070	0,021
-319,285	-29,430	-0,031	0,013
-318,270	-88,350	-0,084	-0,018
-317,256	119,913	-0,072	-0,064
-316,241	-200,000	-0,017	-0,122
-315,226	-134,381	-0,031	0,003
-314,212	123,477	0,084	-0,075
-313,197	251,244	0,055	0,066
-312,183	21,808	-0,117	0,068
-311,168	-39,407	-0,035	-0,013
-310,153	-200,000	0,006	0,058
-309,139	102,382	-0,042	-0,035
-308,124	-200,000	0,013	0,089
-307,110	142,537	-0,138	0,131
-306,095	646,019	0,056	0,102
-305,080	118,627	-0,036	0,032
-304,066	-200,000	0,025	0,110
-303,051	-22,973	-0,113	-0,049
-302,037	602,578	-0,051	-0,090
-301,022	53,300	0,154	-0,105
-300,008	134,231	0,087	-0,081
-298,993	502,276	0,067	-0,111
-297,978	-35,194	-0,096	0,037
-296,964	161,444	0,102	-0,102
-295,949	20,695	-0,037	0,021
-294,935	800,000	-0,078	-0,175
-293,920	357,524	-0,092	0,131
-292,905	800,000	-0,015	0,035
-291,891	-103,279	-0,065	-0,011
-290,876	-9,282	0,139	0,066
-289,862	-200,000	-0,006	-0,091
-288,847	5,444	-0,123	0,065
-287,832	-63,968	0,118	-0,034
-286,818	-136,802	-0,063	0,005
-285,803	-136,887	0,074	-0,006
-284,789	-70,307	0,078	0,021
-283,774	175,660	-0,044	-0,045
-282,759	-83,132	0,108	-0,025
-281,745	-168,517	-0,194	-0,005
-280,730	-110,539	-0,147	0,021
-279,716	-74,937	0,071	-0,018
-278,701	-200,000	-0,004	0,087
-277,686	682,251	0,018	0,033
-276,672	585,237	-0,035	0,062
-275,657	-200,000	-0,002	-0,043
-274,643	296,288	-0,068	-0,090
-273,628	557,940	-0,016	0,028
-272,613	15,823	0,130	0,073
-271,599	474,650	-0,092	0,148
-270,584	800,000	0,024	-0,049
-269,570	-32,369	-0,031	-0,012
-268,555	153,917	0,052	-0,051
-267,540	325,683	0,044	0,061
-266,526	-100,459	-0,103	0,018
-265,511	-200,000	0,003	-0,039
-264,497	88,830	0,100	-0,080
-263,482	-200,000	-0,020	-0,074
-262,467	-30,996	-0,068	-0,027
-261,453	-127,097	0,159	-0,016
-260,438	111,816	-0,101	-0,087
-259,424	-200,000	0,013	-0,092
-258,409	-72,969	-0,169	0,044
-257,395	166,315	-0,036	-0,037
-256,380	9,714	0,085	-0,046
-255,365	253,524	0,107	0,131
-254,351	800,000	-0,095	0,198
-253,336	-127,937	-0,146	-0,015
-252,322	357,277	0,067	-0,096
-251,307	-200,000	-0,012	-0,107
-250,292	176,214	0,044	-0,046
-249,278	152,176	-0,046	0,044
-248,263	800,000	-0,035	0,071
-247,249	-17,900	-0,057	0,026
-246,234	-58,473	-0,221	-0,068
-245,219	-36,093	0,015	0,006
-244,205	560,566	0,073	-0,127
-243,190	-142,725	0,115	0,008
-242,176	197,645	-0,007	0,008
-241,161	-200,000	0,021	-0,079
-240,146	-200,000	0,001	-0,033
-239,132	35,898	-0,014	-0,009
-238,117	-200,000	0,005	-0,103
-237,103	-200,000	-0,001	-0,004
-236,088	19,542	0,079	-0,045
-235,073	-200,000	-0,013	0,091
-234,059	549,725	-0,053	0,091
-233,044	-200,000	-0,009	0,099
-232,030	577,132	0,076	0,133
-231,015	-200,000	-0,026	-0,083
-230,000	-0,840	-0,046	-0,023
-228,986	-200,000	0,011	-0,104
-227,971	800,000	-0,023	0,047
-226,957	414,410	0,033	0,050
-225,942	-200,000	-0,002	-0,088
-224,927	406,536	0,031	0,047
-223,913	-157,840	-0,105	-0,004
-222,898	-126,921	-0,138	0,014
-221,884	309,979	0,073	-0,098
-220,869	800,000	0,050	0,104
-219,855	-21,652	0,120	0,052
-218,840	-200,000	-0,003	0,102
-217,825	42,619	-0,040	0,026
-216,811	-200,000	0,008	0,065
-215,796	-65,036	-0,134	0,038
-214,782	-110,530	-0,089	-0,013
-213,767	386,806	-0,031	-0,046
-212,752	79,393	0,049	0,037
-211,738	219,061	0,062	-0,071
-210,723	23,429	-0,036	-0,021
-209,709	-18,579	-0,096	-0,042
-208,694	800,000	-0,038	-0,079
-207,679	800,000	0,044	-0,115
-206,665	-174,342	0,048	-0,001
-205,650	-200,000	0,005	-0,063
-204,636	-78,219	0,028	-0,007
-203,621	-200,000	-0,001	0,112
-202,606	-200,000	-0,022	-0,155
-201,592	-200,000	0,035	-0,163
-200,577	320,390	-0,047	-0,063
-199,563	-200,000	-0,050	0,159
-198,548	620,657	0,078	0,140
-197,533	-200,000	0,030	-0,132
-196,519	145,705	0,151	0,144
-195,504	-200,000	0,002	-0,130
-194,490	128,657	0,045	0,041
-193,475	-200,000	-0,008	-0,141
-192,460	60,974	-0,029	-0,020
-191,446	125,650	0,108	0,097
-190,431	-89,282	0,091	0,019
-189,417	477,144	0,044	-0,071
-188,402	-200,000	-0,043	-0,157
-187,387	-54,257	-0,133	0,043
-186,373	-100,902	-0,078	-0,014
-185,358	-200,000	0,010	-0,045
-184,344	373,051	0,064	0,092
-183,329	-200,000	0,010	0,109
-182,315	-102,104	0,083	-0,014
-181,300	303,397	-0,020	-0,027
-180,285	800,000	-0,027	-0,059
-179,271	147,793	-0,078	0,075
-178,256	-200,000	0,031	0,108
-177,242	-200,000	0,031	0,138
-176,227	-1,582	0,132	-0,066
-175,212	409,496	0,079	0,120
-174,198	-58,175	0,081	-0,025
-173,183	23,436	-0,095	-0,056
-172,169	-0,329	0,099	-0,050
-171,154	-80,050	-0,203	0,048
-170,139	-200,000	0,003	0,069
-169,125	-108,662	-0,159	-0,024
-168,110	-200,000	0,005	0,067
-167,096	438,804	-0,040	-0,063
-166,081	-200,000	0,018	-0,137
-165,066	-126,007	-0,114	-0,012
-164,052	140,849	-0,072	-0,067
-163,037	-40,963	0,078	0,028
-162,023	-200,000	0,016	0,065
-161,008	-182,772	-0,083	0,001
-159,993	-57,713	0,032	-0,010
-158,979	-130,780	-0,043	0,004
-157,964	-2,138	0,106	0,053
-156,950	-200,000	-0,001	0,096
-155,935	63,770	0,005	0,004
-154,920	144,289	-0,025	-0,024
-153,906	-200,000	-0,007	0,024
-152,891	190,745	-0,050	0,054
-151,877	379,922	0,066	0,096
-150,862	519,880	-0,036	0,060
-149,847	-200,000	0,032	0,185
-148,833	791,237	0,080	0,157
-147,818	-5,634	0,125	-0,061
-146,804	-200,000	-0,015	0,104
-145,789	130,496	-0,076	0,069
-144,775	120,675	0,037	0,032
-143,760	552,275	0,075	0,129
-142,745	13,205	-0,279	-0,153
-141,731	-106,652	0,053	-0,008
-140,716	800,000	-0,049	0,108
-139,702	-200,000	-0,016	0,169
-138,687	-200,000	0,017	0,122
-137,672	16,609	-0,068	-0,038
-136,658	152,749	-0,051	-0,050
-135,643	-74,667	-0,014	-0,004
-134,629	251,628	0,053	-0,065
-133,614	619,035	0,019	0,034
-132,599	-78,640	0,079	0,019
-131,585	-101,894	0,196	-0,033
-130,570	1,493	-0,120	-0,061
-129,556	100,580	-0,033	0,027
-128,541	-184,246	-0,136	-0,002
-127,526	8,124	0,058	0,031
-126,512	-24,347	0,075	0,032
-125,497	349,126	0,087	0,123
-124,483	-200,000	-0,011	-0,100
-123,468	800,000	-0,056	-0,116
-122,453	-25,161	0,178	-0,075
-121,439	-107,228	-0,075	-0,012
-120,424	-200,000	-0,032	-0,118
-119,410	92,417	0,140	0,112
-118,395	542,943	0,019	-0,033
-117,380	115,519	0,062	0,054
-116,366	53,194	-0,150	0,102
-115,351	215,949	-0,064	-0,072
-114,337	501,936	0,080	-0,131
-113,322	-200,000	0,035	-0,128
-112,307	-200,000	-0,007	-0,076
-111,293	-200,000	0,012	0,057
-110,278	-200,000	-0,002	0,070
-109,264	-12,208	-0,065	-0,030
-108,249	149,619	-0,088	0,085
-107,234	259,807	-0,033	0,041
-106,220	800,000	0,028	0,056
-105,205	-200,000	0,002	0,058
-104,191	-200,000	-0,077	0,000
-103,176	727,216	-0,017	0,032
-102,162	-79,094	-0,034	0,008
-101,147	187,637	0,076	-0,080
-100,132	-10,424	-0,169	-0,079
-99,118	-108,023	0,070	0,011
-98,103	-200,000	0,014	0,054
-97,089	-96,203	0,114	-0,021
-96,074	-116,725	-0,120	0,015
-95,059	295,392	0,067	0,087
-94,045	-31,141	-0,089	0,035
-93,030	6,358	-0,017	-0,009
-92,016	-183,166	-0,111	0,001
-91,001	-200,000	-0,004	0,034
-89,986	-109,495	0,083	-0,012
-88,972	117,311	0,142	0,124
-87,957	-200,000	0,005	-0,027
-86,943	307,712	0,018	-0,024
-85,928	-200,000	0,011	0,102
-84,913	-30,381	-0,104	0,042
-83,899	199,797	0,100	-0,109
-82,884	17,228	0,095	0,053
-81,870	185,011	-0,032	0,033
-80,855	-196,443	0,069	0,000
-79,840	-17,993	-0,074	0,033
-78,826	-69,514	-0,005	-0,001
-77,811	-185,492	-0,189	-0,002
-76,797	101,264	0,013	0,010
-75,782	800,000	-0,035	0,083
-74,767	146,364	-0,051	0,049
-73,753	9,299	0,047	-0,025
-72,738	-10,047	-0,135	-0,063
-71,724	-87,542	-0,061	0,013
-70,709	151,259	-0,013	0,013
-69,694	315,151	-0,019	0,025
-68,680	-81,465	-0,042	0,010
-67,665	-23,492	0,161	0,068
-66,651	-86,172	-0,124	0,027
-65,636	800,000	0,050	-0,120
-64,622	-27,597	-0,032	-0,013
-63,607	-200,000	0,019	-0,076
-62,592	305,868	-0,126	0,167
-61,578	-177,434	0,073	-0,001
-60,563	47,172	-0,081	-0,053
-59,549	-200,000	-0,049	0,177
-58,534	-41,219	-1,515	-0,550
-57,519	377,421	-1,531	-2,220
-56,505	-200,000	-0,440	-4,501
-55,490	168,259	0,975	0,983
-54,476	800,000	4,909	11,384
-53,461	-200,000	18,405	291,468
-52,446	800,000	728,082	2236,741
-51,432	556,532	1642,274	2810,066
-50,417	78,815	1663,201	1257,592
-49,403	22,488	1536,751	886,797
-48,388	16,422	1460,231	813,324
-47,373	17,807	1450,146	814,328
-46,359	17,097	1440,446	805,463
-45,344	14,714	1435,813	791,491
-44,330	14,565	1433,942	789,717
-43,315	14,629	1432,151	789,005
-42,300	14,618	1430,707	788,128
-41,286	14,660	1429,434	787,594
-40,271	14,637	1428,179	786,760
-39,257	14,590	1427,099	785,912
-38,242	14,693	1425,586	785,535
-37,227	14,632	1424,693	784,721
-36,213	14,669	1423,087	783,980
-35,198	14,676	1421,896	783,326
-34,184	14,684	1421,286	782,999
-33,169	14,637	1419,615	781,825
-32,154	14,648	1418,699	781,339
-31,140	14,700	1417,398	780,837
-30,125	14,663	1416,408	780,089
-29,111	14,644	1415,214	779,309
-28,096	14,657	1414,111	778,733
-27,082	14,609	1412,936	777,831
-26,067	14,581	1412,028	777,169
-25,052	14,566	1411,131	776,574
-24,038	14,536	1410,127	775,848
-23,023	14,556	1408,893	775,235
-22,009	14,600	1407,805	774,809
-20,994	14,542	1407,074	774,104
-19,979	14,519	1406,119	773,440
-18,965	14,493	1405,098	772,731
-17,950	14,543	1403,970	772,311
-16,936	14,519	1402,999	771,637
-15,921	14,493	1402,070	770,973
-14,906	14,463	1401,230	770,338
-13,892	14,540	1400,073	770,033
-12,877	14,509	1399,420	769,499
-11,863	14,470	1398,323	768,681
-10,848	14,486	1397,484	768,263
-9,833	14,433	1396,837	767,635
-8,819	14,438	1395,672	766,984
-7,804	14,437	1394,788	766,464
-6,790	14,439	1393,636	765,810
-5,775	14,388	1392,847	765,113
-4,760	14,390	1391,832	764,534
-3,746	14,363	1391,200	764,029
-2,731	14,329	1390,514	763,465
-1,717	14,403	1389,300	763,111
-0,702	14,378	1387,602	762,033
0,313	18,232	1306,593	735,324
1,327	34,482	704,745	434,142
2,342	52,666	124,212	83,764
3,356	4,019	16,537	8,522
4,371	6,870	3,135	1,645
5,386	-37,193	0,631	0,237
6,400	563,487	-0,049	0,083
7,415	20,520	-0,414	-0,236
8,429	87,445	-0,280	-0,219
9,444	200,147	-0,234	-0,255
10,459	156,478	-0,270	-0,264
11,473	564,262	-0,165	-0,283
12,488	-151,594	-0,345	0,018
13,502	-7,003	-0,259	-0,124
14,517	-14,221	-0,339	-0,154
15,531	105,538	-0,339	-0,283
16,546	254,601	-0,341	-0,412
17,561	100,574	-0,426	-0,349
18,575	187,022	-0,227	-0,239
19,590	207,373	-0,214	-0,236
20,604	-188,373	-0,238	-0,002
21,619	67,839	-0,421	-0,303
22,634	261,847	-0,372	-0,456
23,648	85,967	-0,427	-0,331
24,663	108,579	-0,405	-0,341
25,677	800,000	-0,215	-0,427
26,692	-15,207	-0,424	-0,191
27,707	71,849	-0,353	-0,259
28,721	71,161	-0,381	-0,278
29,736	76,611	-0,428	-0,320
30,750	16,311	-0,543	-0,302
31,765	95,812	-0,456	-0,367
32,780	11,783	-0,364	-0,196
33,794	-18,818	-0,228	-0,100
34,809	44,753	-0,327	-0,212
35,823	217,193	-0,344	-0,387
36,838	8,918	-0,295	-0,156
37,853	576,913	-0,198	-0,343
38,867	184,402	-0,316	-0,331
39,882	72,924	-0,335	-0,246
40,896	117,429	-0,286	-0,247
41,911	-51,611	-0,388	-0,127
42,926	44,907	-0,347	-0,225
43,940	276,013	-0,364	-0,457
44,955	-8,719	-0,321	-0,151
45,969	40,286	-0,443	-0,280
46,984	119,999	-0,237	-0,207
47,999	25,951	-0,420	-0,246
49,013	20,894	-0,362	-0,206
50,028	84,050	-0,249	-0,191
51,042	98,844	-0,259	-0,210
52,057	190,685	-0,330	-0,349
53,071	-1,794	-0,353	-0,174
54,086	-5,460	-0,382	-0,184
55,101	26,825	-0,348	-0,205
56,115	51,801	-0,449	-0,300
57,130	-30,228	-0,297	-0,118
58,144	-12,366	-0,401	-0,184
59,159	76,067	-0,312	-0,232
60,174	250,092	-0,265	-0,316
61,188	104,131	-0,490	-0,405
62,203	64,777	-0,316	-0,224
63,217	-26,238	-0,319	-0,131
64,232	-39,780	-0,435	-0,159
65,247	159,989	-0,317	-0,311
66,261	323,627	-0,236	-0,317
67,276	102,782	-0,359	-0,296
68,290	156,942	-0,346	-0,336
69,305	21,182	-0,420	-0,239
70,320	313,623	-0,204	-0,270
71,334	78,721	-0,289	-0,217
72,349	285,187	-0,289	-0,366
73,363	33,591	-0,321	-0,196
74,378	76,249	-0,280	-0,208
75,393	87,557	-0,302	-0,234
76,407	29,276	-0,247	-0,147
77,422	5,462	-0,262	-0,135
78,436	-7,366	-0,368	-0,175
79,451	56,199	-0,250	-0,170
80,466	-10,930	-0,394	-0,182
81,480	80,504	-0,307	-0,232
82,495	418,357	-0,328	-0,493
83,509	81,494	-0,327	-0,248
84,524	110,654	-0,315	-0,266
85,539	-24,818	-0,315	-0,131
86,553	-20,701	-0,305	-0,131
87,568	-79,992	-0,432	-0,101
88,582	800,000	-0,146	-0,300
89,597	-79,018	-0,475	-0,113
90,611	246,566	-0,191	-0,227
91,626	1,914	-0,302	-0,152
92,641	62,952	-0,271	-0,190
93,655	58,936	-0,271	-0,187
94,670	156,171	-0,280	-0,271
95,684	23,961	-0,268	-0,154
96,699	5,178	-0,272	-0,140
97,714	48,352	-0,386	-0,253
98,728	302,220	-0,190	-0,247
99,743	88,906	-0,197	-0,153
100,757	49,604	-0,331	-0,218
101,772	143,197	-0,304	-0,284
102,787	69,465	-0,300	-0,216
103,801	32,155	-0,349	-0,210
104,816	51,330	-0,263	-0,175
105,830	428,145	-0,177	-0,268
106,845	800,000	-0,122	-0,254
107,860	130,147	-0,305	-0,274
108,874	78,796	-0,249	-0,187
109,889	142,139	-0,261	-0,243
110,903	134,556	-0,249	-0,226
111,918	-36,993	-0,323	-0,120
112,933	4,270	-0,208	-0,107
113,947	-3,631	-0,350	-0,170
114,962	-100,118	-0,296	-0,051
115,976	-133,862	-0,301	-0,026
116,991	23,027	-0,270	-0,155
118,006	49,872	-0,287	-0,189
119,020	161,201	-0,209	-0,205
120,035	-29,609	-0,252	-0,100
121,049	27,121	-0,155	-0,091
122,064	94,231	-0,146	-0,116
123,079	14,992	-0,301	-0,164
124,093	332,810	-0,170	-0,231
125,108	-3,914	-0,434	-0,210
126,122	40,031	-0,329	-0,206
127,137	38,640	-0,159	-0,099
128,151	170,249	-0,232	-0,232
129,166	-57,956	-0,197	-0,060
130,181	-64,337	-0,335	-0,095
131,195	107,293	-0,295	-0,245
132,210	294,395	-0,188	-0,241
133,224	-62,645	-0,322	-0,093
134,239	57,327	-0,203	-0,138
135,254	12,274	-0,293	-0,157
136,268	-88,915	-0,276	-0,057
137,283	-28,390	-0,271	-0,109
138,297	566,331	-0,103	-0,176
139,312	187,385	-0,219	-0,229
140,327	-23,491	-0,245	-0,102
141,341	-91,506	-0,256	-0,051
142,356	650,030	-0,100	-0,179
143,370	-105,770	-0,240	-0,038
144,385	9,285	-0,227	-0,120
145,400	11,771	-0,211	-0,113
146,414	440,587	-0,159	-0,244
147,429	68,347	-0,176	-0,126
148,443	2,702	-0,192	-0,097
149,458	56,648	-0,333	-0,226
150,473	-200,000	-0,020	-0,168
151,487	36,582	-0,247	-0,152
152,502	29,267	-0,259	-0,153
153,516	241,979	-0,304	-0,355
154,531	11,883	-0,218	-0,117
155,546	170,501	-0,267	-0,267
156,560	221,669	-0,266	-0,299
157,575	-200,000	0,008	-0,205
158,589	78,933	-0,175	-0,130
159,604	142,392	-0,245	-0,227
160,619	2,737	-0,428	-0,216
161,633	254,141	-0,155	-0,185
162,648	300,905	-0,205	-0,264
163,662	351,330	-0,146	-0,202
164,677	-200,000	-0,003	-0,226
165,692	358,317	-0,167	-0,234
166,706	-77,170	-0,157	-0,038
167,721	105,842	-0,267	-0,220
168,735	275,093	-0,182	-0,226
169,750	142,947	-0,237	-0,220
170,764	436,232	-0,181	-0,276
171,779	800,000	-0,181	-0,353
172,794	-69,200	-0,235	-0,062
173,808	248,430	-0,214	-0,253
174,823	139,472	-0,162	-0,148
175,837	-36,036	-0,255	-0,095
176,852	106,092	-0,144	-0,119
177,867	98,146	-0,259	-0,208
178,881	44,623	-0,096	-0,062
179,896	90,693	-0,322	-0,251
180,910	85,842	-0,317	-0,242
181,925	77,522	-0,426	-0,315
182,940	232,447	-0,280	-0,321
183,954	192,145	-0,143	-0,150
184,969	-11,703	-0,159	-0,072
185,983	168,424	-0,136	-0,135
186,998	331,499	-0,130	-0,175
188,013	171,835	-0,198	-0,198
189,027	359,096	-0,232	-0,324
190,042	-8,573	-0,359	-0,167
191,056	-25,759	-0,303	-0,124
192,071	-173,573	-0,214	-0,004
193,086	-61,812	-0,283	-0,082
194,100	193,255	-0,177	-0,186
195,115	-13,680	-0,235	-0,105
196,129	-14,442	-0,271	-0,121
197,144	-200,000	-0,025	-0,172
198,159	40,233	-0,283	-0,177
199,173	2,437	-0,252	-0,126
200,188	41,944	-0,100	-0,063
201,202	-43,606	-0,209	0,073
202,217	800,000	-0,089	-0,250
203,232	334,703	-0,226	-0,305
204,246	193,143	-0,154	-0,162
205,261	649,150	-0,187	-0,334
206,275	-66,826	-0,320	-0,087
207,290	238,318	-0,116	-0,134
208,304	-87,695	-0,192	-0,040
209,319	453,787	-0,158	-0,243
210,334	123,125	-0,234	-0,204
211,348	-85,483	-0,314	-0,067
212,363	107,231	-0,169	-0,139
213,377	52,193	-0,223	-0,147
214,392	202,744	-0,107	-0,115
215,407	118,325	-0,111	-0,095
216,421	167,550	-0,182	-0,180
217,436	532,932	-0,131	-0,216
218,450	514,693	-0,197	-0,321
219,465	199,616	-0,176	-0,187
220,480	139,771	-0,260	-0,238
221,494	282,409	-0,149	-0,185
222,509	800,000	-0,092	-0,268
223,523	-29,511	-0,071	-0,028
224,538	5,188	-0,187	-0,095
225,553	330,906	-0,214	-0,286
226,567	119,223	-0,198	-0,169
227,582	29,803	-0,145	-0,085
228,596	-200,000	-0,019	-0,068
229,611	769,496	-0,132	-0,251
230,626	-75,736	-0,158	-0,038
231,640	-129,039	-0,218	-0,021
232,655	-40,607	-0,256	-0,092
233,669	110,800	-0,268	-0,223
234,684	70,981	-0,292	-0,209
235,699	20,473	-0,183	-0,102
236,713	250,819	-0,108	-0,127
237,728	800,000	-0,096	-0,185
238,742	585,529	-0,062	-0,106
239,757	51,854	-0,177	-0,117
240,772	-116,168	-0,224	-0,028
241,786	800,000	-0,076	-0,218
242,801	200,457	-0,199	-0,212
243,815	630,594	-0,071	-0,125
244,830	90,692	-0,156	-0,121
245,844	256,623	-0,163	-0,194
246,859	191,511	-0,191	-0,199
247,874	246,722	-0,150	-0,175
248,888	17,783	-0,213	-0,117
249,903	281,129	-0,110	-0,137
250,917	251,631	-0,168	-0,198
251,932	-200,000	-0,081	-0,266
252,947	128,250	-0,184	-0,162
253,961	7,560	-0,221	-0,114
254,976	800,000	-0,130	-0,278
255,990	104,139	-0,266	-0,216
257,005	365,196	-0,159	-0,223
258,020	-195,907	-0,204	0,001
259,034	-17,346	-0,218	-0,094
260,049	19,370	-0,168	-0,093
261,063	-105,371	-0,136	-0,021
262,078	429,268	-0,104	-0,155
263,093	466,186	-0,113	-0,175
264,107	116,141	-0,193	-0,163
265,122	-28,859	-0,144	-0,057
266,136	378,942	-0,175	-0,248
267,151	-65,074	-0,110	-0,030
268,166	-73,424	-0,143	-0,036
269,180	242,468	-0,168	-0,194
270,195	240,578	-0,205	-0,236
271,209	575,574	-0,044	-0,075
272,224	212,349	-0,120	-0,131
273,239	-6,897	-0,183	-0,085
274,253	129,792	-0,168	-0,148
275,268	2,186	-0,211	-0,105
276,282	800,000	-0,076	-0,163
277,297	-42,478	-0,251	-0,088
278,312	-89,664	-0,203	-0,041
279,326	-127,692	-0,206	0,020
280,341	-78,765	-0,243	-0,057
281,355	88,596	-0,107	-0,082
282,370	148,578	-0,093	-0,087
283,384	166,640	-0,133	-0,130
284,399	-135,702	-0,216	-0,017
285,414	11,775	-0,244	-0,129
286,428	175,777	-0,189	-0,189
287,443	99,578	-0,132	-0,105
288,457	578,429	-0,139	-0,235
289,472	629,864	-0,087	-0,153
290,487	570,576	-0,147	-0,248
291,501	-90,557	-0,233	-0,046
292,516	33,649	-0,203	-0,122
293,530	150,649	-0,092	-0,086
294,545	436,063	-0,079	-0,118
295,560	463,308	-0,128	-0,197
296,574	429,617	-0,126	-0,189
297,589	49,494	-0,197	-0,127
298,603	48,003	-0,188	-0,121
299,618	23,285	-0,226	-0,127
300,633	532,761	-0,120	-0,197
301,647	-104,548	-0,152	-0,024
302,662	-117,722	-0,201	-0,025
303,676	32,202	-0,266	-0,157
304,691	-10,457	-0,167	-0,076
305,706	168,241	-0,139	-0,136
306,720	188,645	-0,149	-0,154
307,735	35,195	-0,188	-0,113
308,749	-15,225	-0,210	-0,092
309,764	-63,943	-0,145	-0,040
310,779	97,713	-0,149	-0,118
311,793	-131,164	-0,255	-0,023
312,808	-0,745	-0,196	-0,095
313,822	-35,292	-0,201	-0,075
314,837	427,004	-0,128	-0,190
315,852	259,934	-0,101	-0,121
316,866	-200,000	-0,039	-0,173
317,881	-93,186	-0,198	0,038
318,895	9,861	-0,130	-0,067
319,910	211,977	-0,179	-0,194
320,925	-44,997	-0,217	-0,074
321,939	-166,289	-0,173	-0,005
322,954	-63,090	-0,231	-0,065
323,968	391,255	-0,015	0,022
324,983	-200,000	-0,069	-0,217
325,997	-105,409	-0,230	0,036
327,012	21,592	-0,159	-0,089
328,027	-200,000	-0,009	-0,108
329,041	-167,067	-0,134	-0,004
330,056	126,642	-0,153	0,133
331,070	108,935	-0,067	-0,055
332,085	-120,006	-0,153	-0,018
333,100	-46,764	-0,131	-0,044
334,114	-75,082	-0,217	-0,053
335,129	15,006	-0,208	-0,112
336,143	-60,698	-0,179	-0,052
337,158	-200,000	-0,024	-0,082
338,173	800,000	-0,031	-0,087
339,187	-102,208	-0,066	0,011
340,202	-133,863	-0,183	-0,015
341,216	-142,551	-0,186	-0,012
342,231	-200,000	-0,063	-0,289
343,246	800,000	-0,091	-0,217
344,260	4,739	-0,191	0,096
345,275	800,000	-0,072	-0,174
346,289	-102,625	-0,116	-0,019
347,304	-127,180	-0,096	-0,010
348,319	433,412	-0,098	-0,147
349,333	800,000	-0,104	-0,236
350,348	-200,000	-0,030	-0,182
351,362	36,022	-0,018	0,011
352,377	-200,000	-0,240	0,000
353,392	98,049	-0,088	-0,070
354,406	-200,000	-0,014	-0,059
355,421	209,455	1312,265	1411,240
356,435	161,212	1472,695	1411,755
