DTS Sentinel unit serial number:	SN410029Multiplexer serial number:	ORYXHardware model number:	OX2-SRSoftware version number:	ORYX F/W v4,00 Oryx Data Collector v3.7.2.0data status	okinstallation	B3 Nyhavnadifferential loss correction	single-endedforward channel	channel 1reverse channel	N/Adate	2023/11/30time	16:37:30forward acquisition time	300,00reverse acquisition time	0,00gamma	499,1914k internal	0,3204k external	0,3204temperature offset calibration	1,0000default loss term (dB/km)	0,3820temperature slope calibration	1,0000multiplexer offset coefficient	1,0000multiplexer slope coefficient	1,0000fibre end	0,00T internal ref (°C)	12,93T ext. ref 1 (°C)	-1,50T ext. ref 2 (°C)	-1,52length (m)	temperature (°C)	Stokes	anti-Stokes-744,400	119,426	-0,181	-0,163
-743,385	-200,000	0,001	0,125
-742,371	11,938	-0,281	-0,156
-741,356	-200,000	0,041	0,385
-740,342	-12,909	-0,264	-0,124
-739,327	800,000	-0,107	0,284
-738,312	236,245	-0,190	-0,229
-737,298	800,000	-0,085	0,232
-736,283	182,124	-0,268	-0,288
-735,269	-200,000	-0,025	0,334
-734,254	427,716	-0,185	-0,291
-733,239	800,000	-0,083	0,209
-732,225	58,679	-0,145	-0,103
-731,210	800,000	0,105	0,274
-730,196	-137,356	0,079	0,006
-729,181	110,905	0,014	0,012
-728,167	-17,738	0,057	-0,026
-727,152	89,061	-0,075	0,060
-726,137	43,253	-0,091	-0,060
-725,123	-59,087	0,110	0,034
-724,108	-126,186	0,101	-0,011
-723,094	-28,969	-0,134	-0,056
-722,079	338,892	0,055	-0,078
-721,064	-200,000	-0,004	0,067
-720,050	607,945	0,100	-0,182
-719,035	109,418	-0,036	0,031
-718,021	4,486	-0,065	0,035
-717,006	81,605	-0,109	-0,085
-715,991	800,000	-0,041	-0,109
-714,977	-80,305	-0,127	-0,031
-713,962	-73,896	-0,134	0,035
-712,948	54,137	0,138	-0,097
-711,933	800,000	-0,049	-0,104
-710,918	125,111	-0,157	0,143
-709,904	-100,029	-0,102	0,018
-708,889	254,126	0,073	0,090
-707,875	-200,000	-0,016	-0,091
-706,860	-200,000	0,008	-0,064
-705,845	-200,000	0,001	-0,021
-704,831	181,217	-0,032	0,035
-703,816	-200,000	-0,002	0,026
-702,802	-130,205	-0,065	0,006
-701,787	321,413	-0,080	-0,110
-700,772	57,946	-0,111	-0,079
-699,758	696,044	-0,037	-0,071
-698,743	-79,647	0,091	-0,022
-697,729	-11,467	-0,153	0,073
-696,714	-50,718	0,132	0,045
-695,699	13,737	-0,216	-0,121
-694,685	-89,013	-0,131	-0,028
-693,670	485,893	0,051	-0,084
-692,656	348,982	-0,059	0,084
-691,641	-13,318	-0,031	0,014
-690,627	273,612	-0,064	0,082
-689,612	3,024	-0,043	0,023
-688,597	1,650	-0,069	-0,036
-687,583	800,000	0,025	-0,074
-686,568	-200,000	0,045	-0,169
-685,554	-36,389	-0,070	-0,027
-684,539	800,000	0,065	0,149
-683,524	-122,015	0,073	0,009
-682,510	-42,714	0,043	0,016
-681,495	-200,000	-0,009	-0,069
-680,481	156,837	-0,025	-0,025
-679,466	-200,000	0,001	0,080
-678,451	-140,513	-0,152	-0,011
-677,437	-186,344	0,124	0,001
-676,422	-63,218	0,055	-0,016
-675,408	-79,425	-0,043	-0,010
-674,393	45,485	0,107	0,072
-673,378	800,000	0,062	-0,144
-672,364	206,001	-0,115	-0,130
-671,349	-67,830	-0,071	0,020
-670,335	-51,664	-0,010	-0,003
-669,320	-200,000	0,023	0,080
-668,305	303,687	-0,038	-0,051
-667,291	-101,694	-0,056	0,010
-666,276	800,000	-0,056	-0,127
-665,262	200,583	-0,033	0,037
-664,247	-142,483	0,055	-0,004
-663,232	-4,188	0,153	0,077
-662,218	-59,776	-0,013	0,004
-661,203	-200,000	0,044	-0,204
-660,189	712,326	-0,062	0,119
-659,174	800,000	0,021	-0,055
-658,159	-200,000	-0,023	-0,121
-657,145	584,671	-0,041	-0,073
-656,130	-71,626	-0,160	-0,043
-655,116	-200,000	0,013	-0,061
-654,101	482,745	-0,073	-0,121
-653,086	146,188	-0,060	0,058
-652,072	492,718	0,024	-0,040
-651,057	-122,037	-0,118	0,014
-650,043	67,015	-0,042	-0,031
-649,028	31,788	-0,148	-0,092
-648,014	31,786	0,094	0,058
-646,999	-200,000	-0,002	0,008
-645,984	52,171	-0,085	-0,059
-644,970	-194,243	-0,101	-0,001
-643,955	222,005	-0,131	-0,153
-642,941	-96,074	0,080	0,015
-641,926	18,025	-0,161	-0,092
-640,911	407,239	0,032	-0,049
-639,897	-82,272	-0,127	0,030
-638,882	145,904	-0,057	0,055
-637,868	-54,850	-0,014	-0,004
-636,853	-30,117	-0,109	-0,045
-635,838	29,755	0,040	-0,025
-634,824	-141,913	0,069	-0,005
-633,809	-114,634	0,052	-0,007
-632,795	19,361	0,118	-0,068
-631,780	-163,848	0,047	0,002
-630,765	-119,272	-0,183	0,023
-629,751	361,274	-0,087	-0,126
-628,736	-93,758	-0,106	0,021
-627,722	-111,819	-0,203	-0,029
-626,707	-200,000	-0,016	-0,099
-625,692	138,488	-0,080	-0,076
-624,678	27,625	-0,032	0,020
-623,663	126,147	0,033	-0,030
-622,649	-11,518	-0,161	-0,076
-621,634	-183,061	-0,014	-0,000
-620,619	800,000	-0,003	-0,007
-619,605	-139,090	-0,107	0,008
-618,590	337,444	0,026	0,036
-617,576	-98,630	0,091	0,017
-616,561	-185,868	0,069	0,001
-615,546	305,020	0,091	-0,123
-614,532	-200,000	-0,004	-0,085
-613,517	369,392	0,033	0,049
-612,503	-120,470	0,204	-0,025
-611,488	800,000	0,046	0,098
-610,474	783,180	0,041	0,082
-609,459	-120,820	0,095	-0,011
-608,444	-200,000	-0,026	-0,115
-607,430	-109,200	-0,104	-0,016
-606,415	-25,560	0,068	-0,029
-605,401	84,691	0,055	-0,043
-604,386	-200,000	-0,005	-0,036
-603,371	-200,000	0,013	0,041
-602,357	-130,208	0,112	0,011
-601,342	-19,408	-0,119	0,053
-600,328	285,829	-0,106	-0,138
-599,313	-38,621	-0,004	-0,002
-598,298	77,955	-0,066	-0,051
-597,284	2,580	0,109	0,057
-596,269	-135,766	-0,134	-0,011
-595,255	-200,000	0,018	0,074
-594,240	-200,000	0,002	0,007
-593,225	-4,484	0,107	0,053
-592,211	-200,000	-0,007	-0,094
-591,196	81,063	0,058	0,046
-590,182	-126,408	-0,025	-0,003
-589,167	-169,994	0,139	0,003
-588,152	610,803	-0,034	0,062
-587,138	-200,000	0,040	0,137
-586,123	64,456	-0,024	-0,018
-585,109	-136,366	0,066	0,005
-584,094	455,206	-0,038	0,061
-583,079	800,000	0,048	-0,130
-582,065	-4,716	0,033	-0,016
-581,050	-0,176	-0,041	-0,021
-580,036	-129,325	-0,093	-0,009
-579,021	-84,467	-0,074	0,017
-578,006	-200,000	-0,001	-0,124
-576,992	-112,373	-0,102	-0,015
-575,977	157,902	-0,023	-0,023
-574,963	-67,064	0,039	-0,011
-573,948	10,110	-0,051	-0,028
-572,934	-33,448	0,058	0,023
-571,919	357,096	0,021	-0,030
-570,904	58,504	0,081	0,057
-569,890	415,112	-0,019	-0,030
-568,875	182,691	-0,035	-0,038
-567,861	-200,000	-0,039	0,176
-566,846	-200,000	0,001	0,092
-565,831	-110,627	0,054	0,008
-564,817	34,174	0,072	-0,045
-563,802	633,906	0,063	-0,116
-562,788	453,730	-0,055	-0,088
-561,773	-200,000	0,039	-0,143
-560,758	800,000	-0,005	0,014
-559,744	-200,000	0,002	0,158
-558,729	800,000	0,038	-0,088
-557,715	-200,000	-0,038	-0,144
-556,700	-19,358	-0,071	-0,032
-555,685	60,385	-0,036	-0,026
-554,671	800,000	-0,041	0,120
-553,656	206,705	0,063	0,071
-552,642	54,141	0,039	0,027
-551,627	-3,416	0,088	0,044
-550,612	800,000	-0,027	0,072
-549,598	-200,000	-0,008	-0,090
-548,583	800,000	-0,027	-0,076
-547,569	215,219	0,022	0,025
-546,554	61,783	0,078	0,056
-545,539	516,524	0,085	-0,143
-544,525	42,526	0,047	0,031
-543,510	-109,006	-0,121	-0,018
-542,496	-200,000	0,033	-0,110
-541,481	-84,218	-0,084	-0,019
-540,466	-66,641	-0,023	-0,007
-539,452	800,000	0,067	0,189
-538,437	800,000	-0,003	-0,010
-537,423	23,667	-0,137	-0,081
-536,408	120,501	0,085	-0,076
-535,393	-84,150	-0,092	-0,021
-534,379	-110,791	0,075	-0,011
-533,364	-38,746	0,074	0,028
-532,350	-200,000	-0,016	0,062
-531,335	593,083	0,067	0,119
-530,321	69,088	-0,023	0,017
-529,306	-200,000	-0,000	0,126
-528,291	-145,258	0,011	-0,001
-527,277	24,431	-0,126	0,075
-526,262	105,753	-0,124	0,106
-525,248	-76,906	0,064	0,016
-524,233	800,000	0,019	-0,061
-523,218	-142,802	-0,021	-0,001
-522,204	-200,000	0,005	0,039
-521,189	23,388	-0,066	-0,039
-520,175	257,306	-0,050	-0,063
-519,160	-132,962	-0,042	-0,004
-518,145	-81,667	0,093	-0,022
-517,131	-200,000	0,012	-0,123
-516,116	-200,000	-0,004	0,044
-515,102	-144,294	-0,107	0,007
-514,087	-38,242	-0,115	0,044
-513,072	-30,605	-0,031	-0,012
-512,058	800,000	-0,018	-0,054
-511,043	-38,651	0,112	0,042
-510,029	129,273	0,081	0,075
-509,014	800,000	-0,070	0,191
-507,999	-200,000	0,005	0,032
-506,985	-200,000	-0,004	0,018
-505,970	-82,583	-0,101	0,023
-504,956	-200,000	-0,019	-0,125
-503,941	4,624	-0,016	-0,009
-502,926	800,000	-0,048	0,115
-501,912	-75,325	0,032	0,008
-500,897	169,133	0,087	-0,090
-499,883	35,597	-0,159	-0,100
-498,868	-200,000	0,002	-0,008
-497,853	-20,701	-0,160	-0,071
-496,839	378,305	-0,014	0,021
-495,824	354,096	0,057	0,081
-494,810	74,808	0,064	0,049
-493,795	7,900	-0,093	-0,050
-492,781	800,000	0,021	-0,049
-491,766	-200,000	-0,010	-0,065
-490,751	-57,903	-0,078	0,024
-489,737	-200,000	0,011	0,034
-488,722	-75,144	0,055	0,014
-487,708	-95,291	0,132	-0,025
-486,693	-56,848	0,105	-0,033
-485,678	-200,000	0,004	0,032
-484,664	143,626	-0,052	-0,049
-483,649	156,215	0,038	0,037
-482,635	217,436	0,067	-0,077
-481,620	702,237	0,050	0,094
-480,605	146,505	-0,046	0,045
-479,591	108,191	-0,055	0,047
-478,576	-197,531	0,134	-0,001
-477,562	800,000	-0,039	-0,095
-476,547	800,000	-0,030	-0,084
-475,532	-200,000	0,005	-0,046
-474,518	103,741	-0,124	0,104
-473,503	210,060	0,118	0,133
-472,489	83,011	-0,059	-0,046
-471,474	-200,000	0,001	0,090
-470,459	-173,811	-0,066	0,001
-469,445	-200,000	0,002	-0,101
-468,430	-200,000	0,005	-0,039
-467,416	-120,147	-0,063	-0,008
-466,401	-200,000	0,000	0,067
-465,386	220,505	0,043	-0,050
-464,372	36,679	-0,038	-0,024
-463,357	79,368	0,069	-0,053
-462,343	291,263	-0,125	-0,164
-461,328	-200,000	0,021	0,069
-460,313	-101,765	0,149	0,026
-459,299	360,490	0,049	-0,070
-458,284	-50,647	0,103	0,035
-457,270	338,153	0,020	0,028
-456,255	-102,296	0,057	0,010
-455,241	-200,000	-0,008	-0,138
-454,226	-200,000	-0,004	-0,093
-453,211	-200,000	-0,002	0,047
-452,197	21,139	0,030	-0,018
-451,182	-200,000	0,006	-0,225
-450,168	-144,811	-0,144	0,009
-449,153	224,928	0,045	-0,052
-448,138	419,143	-0,064	-0,098
-447,124	800,000	0,028	0,072
-446,109	-153,096	0,047	0,002
-445,095	13,036	-0,108	0,060
-444,080	-104,931	0,069	-0,011
-443,065	80,748	0,054	0,042
-442,051	-145,228	-0,125	-0,008
-441,036	371,501	-0,070	-0,102
-440,022	800,000	0,029	-0,067
-439,007	-52,107	-0,059	-0,020
-437,992	-200,000	0,013	0,066
-436,978	-197,432	0,084	0,000
-435,963	330,133	0,070	0,097
-434,949	211,030	0,061	0,069
-433,934	-200,000	0,026	-0,137
-432,919	-55,067	-0,038	0,012
-431,905	-13,081	0,119	0,055
-430,890	800,000	-0,045	0,125
-429,876	-45,456	0,030	0,011
-428,861	-200,000	-0,002	0,104
-427,846	2,590	0,051	0,027
-426,832	-10,266	-0,107	-0,051
-425,817	-200,000	-0,011	-0,090
-424,803	364,888	-0,072	-0,104
-423,788	-200,000	-0,033	0,131
-422,773	281,253	-0,003	-0,004
-421,759	-200,000	0,017	0,063
-420,744	-62,382	-0,051	-0,015
-419,730	227,544	0,034	-0,040
-418,715	136,891	-0,124	-0,116
-417,701	-200,000	-0,005	0,082
-416,686	800,000	0,026	0,068
-415,671	-143,158	-0,045	0,003
-414,657	11,249	-0,040	-0,022
-413,642	352,877	-0,029	0,041
-412,628	187,141	0,050	0,053
-411,613	117,139	-0,110	-0,097
-410,598	-200,000	0,024	-0,079
-409,584	508,240	-0,055	0,093
-408,569	-200,000	-0,004	0,079
-407,555	-200,000	-0,016	-0,096
-406,540	-200,000	-0,026	-0,127
-405,525	-29,532	0,026	0,011
-404,511	147,569	-0,063	-0,061
-403,496	-101,591	-0,009	-0,002
-402,482	800,000	-0,016	0,045
-401,467	37,097	0,093	0,059
-400,452	-200,000	0,020	0,138
-399,438	74,014	0,057	0,043
-398,423	133,568	-0,113	0,105
-397,409	-81,396	-0,064	0,015
-396,394	800,000	-0,049	0,120
-395,379	58,089	0,072	0,051
-394,365	-49,387	0,143	0,049
-393,350	-18,386	0,052	-0,023
-392,336	-68,405	0,087	0,024
-391,321	800,000	0,021	0,054
-390,306	536,858	0,036	0,062
-389,292	-200,000	0,005	-0,200
-388,277	800,000	-0,019	0,042
-387,263	361,779	0,121	0,175
-386,248	178,308	0,135	0,141
-385,233	55,323	-0,049	-0,034
-384,219	362,355	-0,029	-0,042
-383,204	554,836	0,050	-0,087
-382,190	-34,093	-0,086	0,034
-381,175	-32,929	-0,034	-0,014
-380,160	81,890	0,032	-0,025
-379,146	-117,522	0,117	0,015
-378,131	330,357	0,053	-0,074
-377,117	800,000	0,057	-0,115
-376,102	800,000	0,010	0,032
-375,088	800,000	-0,039	0,098
-374,073	800,000	0,005	0,013
-373,058	-200,000	0,032	0,227
-372,044	67,192	0,132	0,096
-371,029	800,000	-0,071	0,145
-370,015	168,146	-0,056	0,057
-369,000	-64,474	-0,090	0,026
-367,985	-1,112	-0,032	0,016
-366,971	-49,641	-0,032	0,011
-365,956	-200,000	-0,006	-0,092
-364,942	-200,000	0,013	0,074
-363,927	-152,939	0,088	0,004
-362,912	800,000	-0,048	0,117
-361,898	-200,000	-0,001	0,014
-360,883	96,459	0,110	0,090
-359,869	-12,997	0,046	0,022
-358,854	-13,592	0,079	-0,037
-357,839	800,000	-0,028	-0,061
-356,825	-200,000	-0,003	0,021
-355,810	-91,842	0,099	0,020
-354,796	184,798	0,029	-0,030
-353,781	-200,000	-0,050	-0,218
-352,766	153,417	-0,048	-0,047
-351,752	76,664	-0,076	-0,057
-350,737	-130,043	0,029	0,003
-349,723	249,239	0,062	0,075
-348,708	-200,000	-0,005	0,032
-347,693	-163,858	-0,163	0,005
-346,679	428,289	-0,018	-0,027
-345,664	640,731	0,061	0,111
-344,650	235,036	-0,040	-0,047
-343,635	102,704	0,105	-0,088
-342,620	100,386	0,168	0,140
-341,606	92,352	0,031	-0,025
-340,591	-113,896	-0,075	0,010
-339,577	800,000	0,038	-0,096
-338,562	-200,000	0,017	-0,146
-337,548	800,000	0,010	-0,021
-336,533	-5,768	-0,044	0,022
-335,518	-75,310	-0,173	0,044
-334,504	-125,286	0,104	-0,011
-333,489	-200,000	0,020	-0,104
-332,475	-200,000	0,045	-0,000
-331,460	372,495	-0,053	0,078
-330,445	112,053	0,045	-0,039
-329,431	46,994	0,073	-0,049
-328,416	59,043	0,062	-0,043
-327,402	-137,154	0,233	0,019
-326,387	11,921	-0,123	0,068
-325,372	-105,151	0,052	0,008
-324,358	397,990	-0,037	0,056
-323,343	269,000	0,091	0,114
-322,329	219,469	-0,166	0,190
-321,314	240,501	-0,045	0,053
-320,299	-73,682	0,119	0,031
-319,285	241,938	0,047	0,056
-318,270	-200,000	0,028	0,118
-317,256	-200,000	-0,022	0,084
-316,241	-200,000	-0,002	-0,013
-315,226	-200,000	-0,029	0,123
-314,212	145,484	0,066	0,063
-313,197	800,000	0,044	-0,091
-312,183	144,489	-0,045	-0,043
-311,168	-51,039	-0,162	-0,054
-310,153	-200,000	-0,003	-0,018
-309,139	648,156	-0,039	-0,071
-308,124	-158,813	-0,025	-0,001
-307,110	195,574	0,117	0,127
-306,095	-200,000	-0,008	-0,083
-305,080	800,000	0,014	-0,039
-304,066	178,099	-0,149	-0,155
-303,051	-33,659	-0,086	0,034
-302,037	-99,144	0,125	-0,022
-301,022	609,757	0,040	0,071
-300,008	-66,040	-0,034	-0,010
-298,993	-164,194	0,068	0,002
-297,978	-200,000	0,037	-0,140
-296,964	71,485	0,052	0,038
-295,949	-72,350	-0,141	0,037
-294,935	516,536	-0,078	-0,130
-293,920	-56,256	0,141	-0,045
-292,905	409,913	-0,058	-0,088
-291,891	14,306	-0,089	-0,049
-290,876	135,096	0,077	-0,071
-289,862	-29,291	0,050	-0,020
-288,847	-200,000	0,008	-0,093
-287,832	-71,990	0,094	0,025
-286,818	-19,294	-0,160	-0,071
-285,803	-7,460	0,132	0,063
-284,789	164,307	0,025	0,025
-283,774	-59,377	0,058	-0,018
-282,759	-81,468	0,124	0,029
-281,745	-200,000	0,005	-0,041
-280,730	-4,874	-0,054	-0,026
-279,716	-14,500	-0,064	0,029
-278,701	-83,848	-0,035	0,008
-277,686	110,743	0,159	0,137
-276,672	-92,786	0,039	-0,008
-275,657	-200,000	-0,007	0,047
-274,643	240,892	-0,002	0,002
-273,628	71,161	-0,102	-0,075
-272,613	82,434	0,023	-0,017
-271,599	417,363	0,048	-0,073
-270,584	-21,318	-0,125	0,054
-269,570	263,731	0,102	0,127
-268,555	-51,980	-0,142	0,047
-267,540	800,000	0,013	-0,027
-266,526	393,208	0,082	-0,123
-265,511	54,581	-0,043	-0,030
-264,497	-95,565	0,079	0,015
-263,482	-200,000	0,004	0,148
-262,467	-80,162	0,071	-0,017
-261,453	-7,725	-0,039	-0,019
-260,438	800,000	-0,029	0,064
-259,424	-32,411	-0,127	0,050
-258,409	-200,000	-0,004	-0,014
-257,395	13,566	0,124	-0,068
-256,380	322,425	0,077	0,105
-255,365	-200,000	0,007	0,042
-254,351	459,983	-0,039	-0,062
-253,336	-80,324	-0,025	-0,006
-252,322	-200,000	-0,028	-0,093
-251,307	-200,000	-0,040	-0,136
-250,292	-99,924	-0,087	-0,015
-249,278	-0,408	0,115	-0,058
-248,263	108,953	-0,050	0,043
-247,249	-200,000	0,041	0,151
-246,234	75,502	0,104	0,078
-245,219	-175,093	-0,041	-0,001
-244,205	243,349	0,029	0,034
-243,190	800,000	-0,033	0,100
-242,176	-172,522	-0,106	-0,002
-241,161	171,616	0,090	0,092
-240,146	-200,000	0,006	0,100
-239,132	593,708	-0,063	0,112
-238,117	-200,000	-0,012	-0,054
-237,103	800,000	0,021	0,052
-236,088	58,019	0,035	0,025
-235,073	-200,000	0,021	-0,093
-234,059	454,363	0,051	0,080
-233,044	-52,653	0,121	0,040
-232,030	-83,829	-0,022	0,005
-231,015	-106,089	-0,133	0,021
-230,000	800,000	-0,017	0,041
-228,986	800,000	0,015	0,045
-227,971	149,415	0,059	-0,057
-226,957	221,084	-0,010	-0,011
-225,942	510,176	0,073	0,121
-224,927	-15,821	-0,015	0,007
-223,913	-64,223	-0,068	-0,020
-222,898	-200,000	0,010	-0,056
-221,884	69,278	0,047	-0,035
-220,869	-33,810	0,032	-0,012
-219,855	-54,770	0,093	0,030
-218,840	-200,000	0,000	0,076
-217,825	61,223	-0,098	0,069
-216,811	800,000	0,026	-0,075
-215,796	-200,000	-0,001	-0,094
-214,782	18,413	-0,033	-0,019
-213,767	800,000	0,036	-0,103
-212,752	142,692	0,067	-0,063
-211,738	2,542	0,130	-0,067
-210,723	800,000	-0,070	0,176
-209,709	-113,315	-0,075	0,010
-208,694	402,703	0,044	0,065
-207,679	800,000	-0,043	-0,094
-206,665	-74,992	0,023	-0,006
-205,650	54,641	0,050	0,034
-204,636	65,267	-0,069	0,050
-203,621	-56,781	-0,051	-0,016
-202,606	800,000	-0,065	-0,149
-201,592	-200,000	-0,033	-0,169
-200,577	800,000	0,028	0,087
-199,563	500,403	-0,085	0,140
-198,548	22,719	0,052	0,030
-197,533	-132,372	-0,041	-0,004
-196,519	-43,252	-0,063	-0,022
-195,504	51,969	-0,117	0,079
-194,490	116,500	0,021	0,019
-193,475	800,000	0,043	-0,104
-192,460	-149,448	-0,128	0,007
-191,446	47,567	0,100	-0,066
-190,431	42,721	0,115	-0,074
-189,417	-81,494	0,103	-0,024
-188,402	-83,204	-0,109	0,025
-187,387	47,850	-0,162	-0,107
-186,373	443,555	-0,109	-0,170
-185,358	-200,000	0,005	0,057
-184,344	-185,714	0,131	0,001
-183,329	433,430	-0,046	0,072
-182,315	150,941	0,058	-0,056
-181,300	-200,000	-0,013	0,086
-180,285	410,268	-0,048	-0,073
-179,271	186,471	-0,056	-0,059
-178,256	800,000	-0,013	-0,037
-177,242	-200,000	0,002	-0,032
-176,227	737,591	0,065	-0,124
-175,212	800,000	0,058	0,144
-174,198	344,678	-0,090	0,126
-173,183	-81,657	-0,140	0,032
-172,169	-200,000	0,031	0,120
-171,154	-200,000	-0,013	-0,081
-170,139	-200,000	-0,020	-0,112
-169,125	434,134	-0,084	0,130
-168,110	-200,000	0,036	-0,130
-167,096	-66,222	-0,108	-0,030
-166,081	-200,000	0,028	-0,119
-165,066	415,216	-0,008	-0,013
-164,052	-200,000	-0,007	-0,043
-163,037	-200,000	0,031	-0,102
-162,023	-48,855	0,075	0,025
-161,008	-200,000	-0,017	0,102
-159,993	-200,000	-0,013	0,164
-158,979	800,000	0,025	-0,068
-157,964	15,783	-0,112	0,062
-156,950	-125,820	0,186	-0,020
-155,935	-45,304	0,028	-0,010
-154,920	29,653	0,032	0,019
-153,906	-200,000	0,039	0,129
-152,891	-59,895	0,142	0,043
-151,877	321,499	-0,032	-0,044
-150,862	-104,969	-0,022	0,003
-149,847	27,058	-0,070	-0,042
-148,833	-91,424	-0,133	-0,027
-147,818	-18,286	0,191	-0,084
-146,804	-200,000	-0,008	0,060
-145,789	266,985	0,029	-0,037
-144,775	-127,104	-0,039	0,004
-143,760	-163,670	-0,113	-0,004
-142,745	-200,000	-0,005	-0,216
-141,731	38,365	0,162	-0,102
-140,716	-100,459	0,026	0,004
-139,702	139,337	0,038	0,035
-138,687	-114,360	0,079	-0,011
-137,672	-182,477	0,071	-0,001
-136,658	-13,469	-0,081	-0,037
-135,643	-200,000	-0,012	0,053
-134,629	272,861	0,093	-0,117
-133,614	-200,000	-0,004	0,195
-132,599	28,745	0,097	0,058
-131,585	-200,000	-0,018	0,085
-130,570	-7,662	0,080	0,038
-129,556	184,906	-0,068	0,072
-128,541	-75,889	0,051	0,013
-127,526	-200,000	0,009	-0,098
-126,512	-141,680	0,134	0,009
-125,497	800,000	-0,034	0,080
-124,483	113,813	0,035	-0,031
-123,468	81,610	-0,109	0,084
-122,453	-200,000	0,004	-0,137
-121,439	-38,819	-0,056	-0,021
-120,424	78,618	0,058	0,044
-119,410	800,000	0,009	-0,018
-118,395	-102,923	-0,146	-0,024
-117,380	800,000	-0,023	0,061
-116,366	-200,000	-0,015	0,072
-115,351	-200,000	0,007	-0,124
-114,337	197,226	-0,077	-0,084
-113,322	-200,000	0,008	-0,030
-112,307	-85,701	0,037	0,008
-111,293	163,963	-0,044	0,043
-110,278	-200,000	-0,035	0,153
-109,264	245,188	-0,047	-0,057
-108,249	-200,000	-0,011	-0,179
-107,234	800,000	-0,061	-0,122
-106,220	7,699	-0,116	-0,061
-105,205	191,517	-0,011	-0,012
-104,191	-70,824	0,041	-0,011
-103,176	81,354	0,062	0,048
-102,162	-200,000	0,005	0,116
-101,147	19,274	-0,140	-0,079
-100,132	65,922	0,073	-0,052
-99,118	182,803	-0,049	-0,051
-98,103	293,045	-0,014	0,019
-97,089	-117,269	0,108	0,014
-96,074	-49,434	0,119	0,040
-95,059	800,000	-0,034	0,094
-94,045	-120,318	-0,069	-0,008
-93,030	800,000	-0,002	0,005
-92,016	-99,025	-0,029	0,005
-91,001	198,191	-0,047	0,051
-89,986	332,421	-0,096	0,131
-88,972	-16,537	0,099	-0,044
-87,957	41,922	0,155	-0,100
-86,943	-200,000	0,022	-0,072
-85,928	-19,277	0,068	0,030
-84,913	227,334	-0,055	0,064
-83,899	-96,868	-0,086	-0,016
-82,884	205,587	-0,036	0,039
-81,870	-0,931	0,195	-0,097
-80,855	-53,870	0,195	-0,063
-79,840	-200,000	-0,042	-0,148
-78,826	171,844	0,009	-0,009
-77,811	220,682	0,045	-0,051
-76,797	-70,097	0,111	-0,030
-75,782	-200,000	-0,001	0,043
-74,767	-200,000	-0,002	0,041
-73,753	-115,547	0,091	0,012
-72,738	679,173	0,047	-0,087
-71,724	800,000	0,041	-0,118
-70,709	547,231	-0,050	-0,084
-69,694	-157,585	0,113	-0,005
-68,680	-85,268	-0,037	-0,008
-67,665	-200,000	0,017	0,088
-66,651	-25,028	-0,058	0,024
-65,636	-187,314	0,065	-0,001
-64,622	-200,000	-0,004	0,031
-63,607	329,296	-0,036	-0,049
-62,592	24,519	-0,068	-0,040
-61,578	-17,931	0,022	0,010
-60,563	800,000	0,036	0,085
-59,549	175,173	-0,081	0,083
-58,534	-28,224	-1,755	-0,714
-57,519	480,696	-1,315	-2,117
-56,505	-200,000	-0,439	-4,424
-55,490	358,131	0,823	1,166
-54,476	800,000	4,908	11,353
-53,461	-200,000	19,314	325,051
-52,446	-200,000	740,352	2334,491
-51,432	572,107	1651,400	2856,376
-50,417	77,653	1666,271	1253,652
-49,403	20,916	1539,387	880,090
-48,388	14,823	1461,875	806,254
-47,373	18,307	1452,196	817,654
-46,359	16,773	1441,830	804,461
-45,344	13,074	1437,226	784,216
-44,330	13,008	1435,479	782,914
-43,315	12,990	1433,761	781,860
-42,300	12,979	1432,070	780,856
-41,286	13,035	1430,846	780,424
-40,271	12,945	1429,620	779,298
-39,257	12,989	1428,180	778,691
-38,242	13,009	1427,072	778,150
-37,227	13,041	1425,777	777,566
-36,213	13,031	1424,373	776,719
-35,198	13,018	1423,313	776,051
-34,184	13,082	1422,233	775,735
-33,169	13,000	1421,037	774,665
-32,154	13,040	1419,898	774,200
-31,140	13,050	1418,753	773,594
-30,125	13,106	1417,596	773,195
-29,111	13,017	1416,595	772,196
-28,096	12,963	1415,658	771,403
-27,082	12,980	1414,333	770,729
-26,067	12,990	1413,282	770,172
-25,052	12,975	1412,179	769,473
-24,038	12,979	1411,151	768,901
-23,023	12,894	1410,473	768,102
-22,009	12,996	1409,118	767,813
-20,994	12,911	1408,451	767,017
-19,979	12,908	1407,633	766,528
-18,965	12,909	1406,695	765,994
-17,950	12,898	1405,772	765,409
-16,936	12,907	1404,873	764,931
-15,921	12,882	1403,453	764,012
-14,906	12,873	1402,956	763,667
-13,892	12,932	1401,637	763,194
-12,877	12,855	1401,059	762,491
-11,863	12,863	1400,053	761,952
-10,848	12,882	1399,023	761,448
-9,833	12,829	1398,286	760,771
-8,819	12,755	1397,714	760,087
-7,804	12,753	1396,801	759,547
-6,790	12,774	1395,674	759,001
-5,775	12,813	1394,400	758,464
-4,760	12,806	1393,441	757,877
-3,746	12,740	1392,650	757,113
-2,731	12,737	1391,921	756,673
-1,717	12,757	1390,929	756,195
-0,702	12,738	1389,073	755,066
0,313	16,762	1305,587	728,197
1,327	33,377	700,466	428,870
2,342	51,623	122,568	82,226
3,356	2,026	16,703	8,493
4,371	16,741	3,236	1,804
5,386	-6,268	0,528	0,254
6,400	-200,000	-0,001	0,331
7,415	30,740	-0,227	-0,137
8,429	68,156	-0,261	-0,188
9,444	247,376	-0,273	-0,326
10,459	6,802	-0,268	-0,140
11,473	149,391	-0,307	-0,293
12,488	-54,018	-0,322	-0,103
13,502	-130,065	-0,297	-0,028
14,517	18,062	-0,341	-0,191
15,531	-27,441	-0,539	-0,220
16,546	45,005	-0,291	-0,189
17,561	-1,700	-0,467	-0,231
18,575	56,702	-0,238	-0,164
19,590	501,184	-0,162	-0,265
20,604	-16,170	-0,230	-0,103
21,619	202,466	-0,337	-0,367
22,634	40,223	-0,459	-0,291
23,648	140,798	-0,351	-0,327
24,663	124,590	-0,358	-0,318
25,677	-28,447	-0,282	-0,114
26,692	-31,216	-0,282	-0,112
27,707	127,941	-0,313	-0,281
28,721	-6,834	-0,370	-0,176
29,736	78,521	-0,351	-0,264
30,750	254,982	-0,362	-0,438
31,765	116,307	-0,401	-0,346
32,780	113,923	-0,321	-0,275
33,794	-37,308	-0,421	-0,158
34,809	32,344	-0,381	-0,231
35,823	194,679	-0,308	-0,330
36,838	196,902	-0,314	-0,338
37,853	48,498	-0,436	-0,288
38,867	103,628	-0,321	-0,265
39,882	134,922	-0,299	-0,274
40,896	-20,084	-0,432	-0,187
41,911	93,635	-0,211	-0,168
42,926	31,253	-0,435	-0,262
43,940	35,213	-0,341	-0,210
44,955	185,798	-0,429	-0,449
45,969	50,381	-0,457	-0,304
46,984	187,441	-0,276	-0,290
47,999	29,141	-0,267	-0,159
49,013	-55,231	-0,388	-0,122
50,028	62,257	-0,395	-0,277
51,042	78,141	-0,372	-0,279
52,057	99,906	-0,337	-0,274
53,071	111,756	-0,458	-0,388
54,086	32,357	-0,331	-0,200
55,101	155,460	-0,300	-0,291
56,115	152,517	-0,269	-0,259
57,130	65,893	-0,261	-0,186
58,144	38,464	-0,416	-0,261
59,159	10,111	-0,486	-0,259
60,174	167,659	-0,220	-0,220
61,188	111,808	-0,313	-0,266
62,203	-7,647	-0,292	-0,138
63,217	94,257	-0,237	-0,189
64,232	-18,042	-0,317	-0,139
65,247	174,583	-0,253	-0,257
66,261	168,227	-0,331	-0,332
67,276	-38,977	-0,363	-0,134
68,290	-89,304	-0,373	-0,077
69,305	-158,929	-0,309	-0,012
70,320	115,996	-0,303	-0,261
71,334	-168,563	-0,378	0,010
72,349	334,408	-0,191	-0,260
73,363	-60,687	-0,506	-0,150
74,378	84,272	-0,467	-0,358
75,393	309,669	-0,232	-0,305
76,407	20,237	-0,331	-0,187
77,422	2,978	-0,286	-0,146
78,436	57,961	-0,264	-0,181
79,451	73,433	-0,201	-0,147
80,466	158,755	-0,256	-0,250
81,480	143,291	-0,307	-0,286
82,495	-159,641	-0,321	0,012
83,509	-43,481	-0,321	-0,113
84,524	7,327	-0,373	-0,195
85,539	-131,673	-0,269	-0,024
86,553	-33,428	-0,305	-0,118
87,568	-2,522	-0,356	-0,174
88,582	-18,967	-0,322	-0,140
89,597	30,187	-0,231	-0,138
90,611	27,889	-0,286	-0,168
91,626	112,361	-0,240	-0,203
92,641	59,668	-0,206	-0,142
93,655	13,986	-0,262	-0,143
94,670	23,124	-0,312	-0,179
95,684	41,240	-0,401	-0,254
96,699	612,879	-0,153	-0,270
97,714	30,329	-0,235	-0,140
98,728	-50,440	-0,336	-0,110
99,743	18,641	-0,186	-0,104
100,757	-41,731	-0,247	-0,088
101,772	148,897	-0,229	-0,217
102,787	162,280	-0,303	-0,298
103,801	271,945	-0,186	-0,230
104,816	185,130	-0,242	-0,252
105,830	59,394	-0,320	-0,220
106,845	63,281	-0,193	-0,135
107,860	184,902	-0,298	-0,310
108,874	110,871	-0,297	-0,250
109,889	136,506	-0,219	-0,200
110,903	7,573	-0,280	-0,146
111,918	-89,688	-0,214	-0,043
112,933	261,801	-0,171	-0,208
113,947	-5,652	-0,221	-0,106
114,962	65,900	-0,195	-0,138
115,976	251,855	-0,191	-0,228
116,991	50,243	-0,331	-0,218
118,006	800,000	-0,164	-0,352
119,020	108,464	-0,228	-0,191
120,035	114,959	-0,180	-0,153
121,049	38,782	-0,179	-0,111
122,064	423,666	-0,220	-0,332
123,079	456,471	-0,148	-0,231
124,093	-65,238	-0,273	-0,076
125,108	41,861	-0,291	-0,184
126,122	736,410	-0,164	-0,309
127,137	-46,440	-0,261	-0,089
128,151	-43,620	-0,201	-0,070
129,166	371,714	-0,248	-0,353
130,181	27,943	-0,310	-0,182
131,195	97,613	-0,366	-0,294
132,210	176,866	-0,278	-0,283
133,224	61,284	-0,306	-0,212
134,239	66,312	-0,271	-0,192
135,254	216,705	-0,171	-0,190
136,268	-57,635	-0,274	-0,083
137,283	32,070	-0,296	-0,178
138,297	61,491	-0,270	-0,187
139,312	31,768	-0,206	-0,124
140,327	220,438	-0,226	-0,254
141,341	191,973	-0,193	-0,204
142,356	111,597	-0,211	-0,178
143,370	299,484	-0,109	-0,141
144,385	149,585	-0,214	-0,203
145,400	403,888	-0,139	-0,205
146,414	67,067	-0,298	-0,211
147,429	114,948	-0,240	-0,204
148,443	-22,676	-0,152	-0,064
149,458	369,121	-0,166	-0,235
150,473	288,918	-0,063	-0,080
151,487	7,614	-0,246	-0,128
152,502	29,196	-0,243	-0,143
153,516	-35,373	-0,287	-0,108
154,531	105,695	-0,255	-0,210
155,546	-105,625	-0,328	-0,051
156,560	-30,189	-0,197	-0,078
157,575	-44,051	-0,136	-0,047
158,589	-44,608	-0,252	-0,087
159,604	110,815	-0,254	-0,213
160,619	328,166	-0,145	-0,195
161,633	174,607	-0,210	-0,212
162,648	64,872	-0,268	-0,188
163,662	687,838	-0,078	-0,143
164,677	-33,003	-0,242	-0,093
165,692	-40,008	-0,316	-0,114
166,706	70,708	-0,141	-0,102
167,721	54,494	-0,224	-0,150
168,735	123,545	-0,275	-0,241
169,750	-13,330	-0,100	-0,045
170,764	21,538	-0,190	-0,107
171,779	-70,039	-0,344	-0,091
172,794	372,386	-0,176	-0,250
173,808	131,128	-0,257	-0,230
174,823	94,827	-0,244	-0,193
175,837	395,723	-0,199	-0,290
176,852	50,102	-0,199	-0,130
177,867	97,182	-0,099	-0,079
178,881	-54,002	-0,214	-0,067
179,896	473,967	-0,126	-0,198
180,910	334,013	-0,171	-0,231
181,925	-24,235	-0,187	-0,077
182,940	-63,344	-0,339	-0,096
183,954	-115,714	-0,223	-0,029
184,969	6,932	-0,144	-0,075
185,983	-31,868	-0,093	-0,036
186,998	-14,482	-0,148	-0,066
188,013	-200,000	-0,084	-0,283
189,027	-200,000	-0,039	-0,167
190,042	48,310	-0,229	-0,149
191,056	80,552	-0,364	-0,273
192,071	12,203	-0,270	-0,144
193,086	-69,651	-0,208	-0,055
194,100	64,407	-0,186	-0,130
195,115	62,216	-0,296	-0,205
196,129	247,599	-0,178	-0,210
197,144	-49,461	-0,336	-0,111
198,159	195,517	-0,217	-0,229
199,173	40,961	-0,198	-0,124
200,188	13,594	-0,179	-0,096
201,202	5,599	-0,226	-0,115
202,217	-33,999	-0,163	-0,062
203,232	226,035	-0,189	-0,213
204,246	18,374	-0,189	-0,104
205,261	-49,878	-0,277	-0,091
206,275	-145,854	-0,261	-0,016
207,290	155,975	-0,124	-0,119
208,304	27,466	-0,160	-0,093
209,319	186,521	-0,142	-0,146
210,334	56,851	-0,277	-0,187
211,348	209,849	-0,130	-0,142
212,363	114,995	-0,248	-0,210
213,377	-101,306	-0,175	0,029
214,392	-106,766	-0,269	0,041
215,407	163,692	-0,194	-0,190
216,421	-95,331	-0,249	-0,046
217,436	94,353	-0,264	-0,208
218,450	310,567	-0,144	-0,188
219,465	800,000	-0,076	-0,154
220,480	92,795	-0,179	-0,140
221,494	100,049	-0,174	-0,140
222,509	154,573	-0,156	-0,149
223,523	-16,360	-0,235	-0,103
224,538	-36,309	-0,155	-0,058
225,553	109,547	-0,242	-0,201
226,567	512,174	-0,102	-0,165
227,582	249,971	-0,105	-0,124
228,596	122,382	-0,213	-0,185
229,611	40,869	-0,167	-0,104
230,626	125,950	-0,174	-0,152
231,640	-82,364	-0,235	-0,053
232,655	63,130	-0,155	-0,108
233,669	246,834	-0,145	-0,169
234,684	-17,279	-0,146	-0,063
235,699	800,000	-0,080	-0,165
236,713	-200,000	0,004	-0,204
237,728	12,453	-0,171	-0,091
238,742	-26,133	-0,200	-0,081
239,757	178,728	-0,165	-0,167
240,772	249,045	-0,174	-0,204
241,786	160,998	-0,176	-0,170
242,801	550,341	-0,159	-0,265
243,815	-70,050	-0,174	-0,046
244,830	-200,000	-0,031	-0,165
245,844	345,997	-0,109	-0,149
246,859	405,783	-0,070	-0,102
247,874	68,411	-0,195	-0,138
248,888	-85,389	-0,176	-0,038
249,903	100,334	-0,262	-0,210
250,917	-200,000	-0,019	-0,113
251,932	-155,396	-0,128	-0,006
252,947	530,845	-0,079	-0,130
253,961	-47,833	-0,224	-0,074
254,976	105,626	-0,200	-0,163
255,990	59,369	-0,132	-0,090
257,005	84,560	-0,152	-0,115
258,020	142,957	-0,138	-0,127
259,034	-132,573	-0,131	0,011
260,049	-6,530	-0,079	-0,037
261,063	355,306	-0,137	-0,189
262,078	140,060	-0,191	-0,174
263,093	189,310	-0,184	-0,190
264,107	-15,796	-0,261	-0,114
265,122	10,378	-0,224	-0,118
266,136	-166,881	-0,208	0,006
267,151	-44,323	-0,184	-0,063
268,166	93,175	-0,198	-0,155
269,180	319,402	-0,194	-0,255
270,195	39,866	-0,146	-0,090
271,209	549,760	-0,121	-0,201
272,224	181,500	-0,124	-0,126
273,239	201,865	-0,127	-0,135
274,253	-25,347	-0,084	-0,034
275,268	138,799	-0,218	-0,198
276,282	13,307	-0,169	-0,090
277,297	1,844	-0,187	-0,093
278,312	-129,470	-0,171	-0,016
279,326	201,508	-0,157	-0,167
280,341	52,555	-0,221	-0,145
281,355	-78,265	-0,101	0,024
282,370	-200,000	-0,027	-0,099
283,384	178,063	-0,175	-0,177
284,399	167,216	-0,118	-0,116
285,414	444,295	-0,114	-0,173
286,428	-200,000	-0,012	-0,137
287,443	-24,895	-0,095	0,039
288,457	531,198	-0,125	-0,205
289,472	103,337	-0,198	-0,160
290,487	-200,000	-0,054	-0,204
291,501	250,510	-0,176	-0,206
292,516	800,000	-0,064	-0,183
293,530	41,889	-0,107	-0,066
294,545	-200,000	-0,013	-0,149
295,560	214,797	-0,195	-0,213
296,574	-98,889	-0,094	-0,016
297,589	-52,009	-0,172	-0,055
298,603	-23,338	-0,213	-0,088
299,618	-52,574	-0,250	-0,079
300,633	-45,768	-0,135	-0,046
301,647	-200,000	0,005	-0,141
302,662	326,384	-0,105	-0,139
303,676	800,000	-0,047	-0,106
304,691	-200,000	-0,049	-0,169
305,706	-200,000	0,054	-0,234
306,720	389,107	-0,164	-0,234
307,735	79,532	-0,166	-0,123
308,749	-47,345	-0,099	-0,033
309,764	-200,000	-0,003	-0,031
310,779	-134,537	-0,103	-0,009
311,793	-92,364	-0,142	-0,027
312,808	264,100	-0,129	-0,155
313,822	723,394	-0,113	-0,208
314,837	800,000	-0,050	0,114
315,852	-200,000	-0,031	-0,158
316,866	-164,923	-0,099	0,003
317,881	89,908	-0,185	-0,142
318,895	162,913	-0,119	-0,115
319,910	-4,996	-0,257	-0,121
320,925	79,380	-0,176	-0,130
321,939	-68,774	-0,049	-0,013
322,954	-86,520	-0,118	-0,025
323,968	-162,156	-0,123	-0,004
324,983	-74,182	-0,014	0,003
325,997	211,272	-0,065	-0,070
327,012	800,000	-0,094	-0,271
328,027	-200,000	-0,032	-0,165
329,041	-60,362	-0,171	-0,050
330,056	18,291	-0,147	-0,081
331,070	-145,231	-0,226	-0,014
332,085	-65,438	-0,134	-0,037
333,100	-114,299	-0,147	-0,019
334,114	-42,622	-0,028	-0,010
335,129	141,132	-0,168	-0,153
336,143	-26,725	-0,262	-0,105
337,158	75,152	-0,113	-0,082
338,173	-39,436	-0,340	-0,122
339,187	-38,495	-0,142	-0,051
340,202	800,000	0,083	-0,203
341,216	-148,226	-0,277	0,015
342,231	192,430	-0,060	-0,062
343,246	341,721	-0,105	-0,141
344,260	340,774	-0,118	-0,158
345,275	54,185	-0,131	-0,086
346,289	5,508	-0,110	-0,055
347,304	-18,593	-0,068	0,029
348,319	-130,731	-0,066	0,006
349,333	-20,371	-0,121	-0,051
350,348	-200,000	-0,056	-0,183
351,362	96,817	-0,148	-0,116
352,377	-108,026	-0,184	-0,027
353,392	-123,227	-0,098	-0,011
354,406	-89,052	-0,051	0,010
355,421	206,052	1313,125	1401,434
356,435	158,452	1473,658	1401,942
