DTS Sentinel unit serial number:	SN410029Multiplexer serial number:	ORYXHardware model number:	OX2-SRSoftware version number:	ORYX F/W v4,00 Oryx Data Collector v3.7.2.0data status	okinstallation	B3 Nyhavnadifferential loss correction	single-endedforward channel	channel 1reverse channel	N/Adate	2023/11/30time	05:47:30forward acquisition time	300,00reverse acquisition time	0,00gamma	499,1914k internal	0,3210k external	0,3210temperature offset calibration	1,0000default loss term (dB/km)	0,3820temperature slope calibration	1,0000multiplexer offset coefficient	1,0000multiplexer slope coefficient	1,0000fibre end	0,00T internal ref (°C)	10,25T ext. ref 1 (°C)	-4,97T ext. ref 2 (°C)	-5,06length (m)	temperature (°C)	Stokes	anti-Stokes-744,400	-80,037	-0,288	-0,069
-743,385	-200,000	-0,020	0,299
-742,371	89,409	-0,237	-0,191
-741,356	-200,000	-0,049	0,251
-740,342	106,741	-0,258	-0,222
-739,327	-200,000	-0,040	0,229
-738,312	236,501	-0,217	-0,260
-737,298	-200,000	-0,083	0,268
-736,283	71,861	-0,301	-0,227
-735,269	800,000	0,103	0,298
-734,254	5,815	-0,232	-0,124
-733,239	800,000	-0,098	0,257
-732,225	143,798	-0,103	-0,099
-731,210	721,323	0,032	0,062
-730,196	475,210	-0,072	-0,118
-729,181	362,438	-0,079	0,115
-728,167	86,367	0,047	-0,037
-727,152	118,291	0,110	-0,098
-726,137	78,544	-0,091	-0,071
-725,123	448,251	0,039	0,063
-724,108	133,101	-0,059	-0,055
-723,094	8,342	-0,176	-0,096
-722,079	-200,000	-0,014	-0,048
-721,064	800,000	-0,033	-0,088
-720,050	326,571	-0,027	0,038
-719,035	800,000	-0,017	0,036
-718,021	61,311	0,075	0,054
-717,006	800,000	-0,030	-0,066
-715,991	144,059	-0,090	-0,087
-714,977	-41,267	-0,051	-0,019
-713,962	-182,439	0,051	0,001
-712,948	37,869	0,034	0,022
-711,933	800,000	0,016	-0,047
-710,918	701,391	0,042	0,080
-709,904	-200,000	-0,007	0,041
-708,889	800,000	0,036	-0,074
-707,875	119,637	-0,105	-0,094
-706,860	-200,000	-0,030	0,121
-705,845	37,955	-0,047	0,030
-704,831	800,000	-0,021	0,061
-703,816	-98,323	0,073	-0,013
-702,802	-162,046	-0,063	0,002
-701,787	-92,054	-0,118	0,024
-700,772	6,535	-0,019	0,010
-699,758	-200,000	-0,015	0,068
-698,743	13,559	-0,057	0,032
-697,729	359,350	-0,025	0,036
-696,714	39,753	0,092	0,059
-695,699	-108,607	-0,138	0,021
-694,685	-99,169	-0,058	0,010
-693,670	383,954	-0,064	-0,096
-692,656	-49,770	-0,024	-0,008
-691,641	75,611	-0,082	-0,063
-690,627	147,667	0,050	0,049
-689,612	227,115	0,014	0,017
-688,597	590,095	0,065	-0,116
-687,583	118,177	-0,091	-0,081
-686,568	800,000	0,065	-0,169
-685,554	-94,690	-0,065	-0,013
-684,539	-200,000	-0,007	0,046
-683,524	648,552	0,050	0,093
-682,510	-200,000	-0,020	-0,184
-681,495	79,797	-0,052	0,041
-680,481	476,205	-0,061	-0,099
-679,466	800,000	-0,070	-0,218
-678,451	507,075	-0,037	-0,063
-677,437	800,000	0,043	-0,126
-676,422	-18,159	0,023	-0,010
-675,408	-200,000	0,003	0,052
-674,393	677,969	-0,068	-0,128
-673,378	147,193	-0,052	-0,051
-672,364	-200,000	0,016	-0,059
-671,349	69,056	0,058	-0,043
-670,335	21,501	0,044	-0,026
-669,320	-136,918	-0,118	0,010
-668,305	112,037	0,134	0,117
-667,291	-81,314	-0,031	-0,007
-666,276	800,000	0,056	0,154
-665,262	-200,000	0,020	-0,132
-664,247	21,505	-0,113	-0,066
-663,232	439,119	-0,064	0,101
-662,218	54,062	-0,070	0,049
-661,203	800,000	0,034	-0,103
-660,189	761,510	-0,046	0,091
-659,174	-55,337	0,087	-0,028
-658,159	631,330	-0,095	-0,174
-657,145	-200,000	-0,016	-0,142
-656,130	69,668	-0,073	0,054
-655,116	-200,000	-0,004	-0,050
-654,101	-200,000	-0,021	0,080
-653,086	228,824	0,089	-0,106
-652,072	800,000	-0,049	-0,115
-651,057	19,128	-0,037	-0,022
-650,043	549,368	-0,026	0,045
-649,028	-123,104	-0,089	0,010
-648,014	-200,000	0,001	0,053
-646,999	-148,235	0,105	-0,006
-645,984	-87,445	0,033	-0,007
-644,970	88,795	-0,063	0,050
-643,955	281,677	-0,082	-0,107
-642,941	800,000	0,048	-0,125
-641,926	-126,781	-0,161	0,017
-640,911	-163,291	0,106	0,004
-639,897	-200,000	0,026	0,119
-638,882	800,000	-0,049	0,126
-637,868	37,338	-0,028	0,018
-636,853	300,484	0,042	-0,056
-635,838	800,000	0,037	-0,113
-634,824	800,000	-0,032	-0,096
-633,809	-200,000	-0,010	0,033
-632,795	800,000	0,034	0,099
-631,780	265,511	0,053	0,067
-630,765	-53,233	-0,174	-0,057
-629,751	-29,022	-0,058	0,024
-628,736	-200,000	0,038	-0,191
-627,722	132,481	0,112	0,104
-626,707	269,496	0,073	0,092
-625,692	-160,435	-0,111	-0,004
-624,678	-200,000	0,009	0,068
-623,663	-88,401	-0,127	-0,027
-622,649	161,297	-0,104	0,105
-621,634	175,597	0,036	-0,038
-620,619	-200,000	0,015	-0,160
-619,605	-200,000	0,009	-0,050
-618,590	-200,000	0,037	0,141
-617,576	800,000	0,058	-0,118
-616,561	166,435	-0,020	-0,020
-615,546	15,881	-0,152	-0,086
-614,532	-200,000	-0,035	-0,117
-613,517	-200,000	-0,010	0,050
-612,503	65,650	0,104	-0,076
-611,488	800,000	-0,026	-0,068
-610,474	12,538	-0,038	0,021
-609,459	-112,540	0,102	0,014
-608,444	-200,000	0,012	-0,069
-607,430	77,362	-0,045	0,034
-606,415	800,000	-0,023	0,063
-605,401	-200,000	0,015	-0,104
-604,386	-200,000	0,009	0,133
-603,371	-200,000	0,028	0,090
-602,357	508,206	0,056	-0,094
-601,342	343,201	-0,048	-0,068
-600,328	-100,880	-0,044	0,008
-599,313	103,477	-0,102	0,087
-598,298	800,000	0,026	0,060
-597,284	123,073	0,106	0,096
-596,269	47,701	-0,103	0,069
-595,255	-54,300	-0,042	-0,014
-594,240	-200,000	0,010	-0,091
-593,225	149,777	-0,115	-0,112
-592,211	-200,000	-0,034	-0,129
-591,196	420,769	0,049	-0,077
-590,182	536,971	0,057	-0,098
-589,167	103,137	0,072	0,061
-588,152	-200,000	-0,001	0,076
-587,138	-105,577	0,131	0,021
-586,123	-0,998	-0,059	-0,030
-585,109	-200,000	-0,022	-0,161
-584,094	7,371	0,034	0,018
-583,079	142,918	0,115	0,111
-582,065	96,726	0,044	0,036
-581,050	78,729	-0,048	0,037
-580,036	-200,000	0,004	-0,024
-579,021	-169,000	-0,083	-0,002
-578,006	-200,000	-0,011	-0,094
-576,992	-200,000	-0,012	0,063
-575,977	104,037	-0,049	0,041
-574,963	621,015	0,049	0,090
-573,948	68,561	0,156	-0,115
-572,934	800,000	-0,035	0,071
-571,919	455,701	0,066	-0,106
-570,904	15,518	-0,087	0,049
-569,890	290,639	0,076	0,100
-568,875	-75,322	0,106	-0,027
-567,861	375,356	-0,064	0,094
-566,846	70,878	-0,019	0,014
-565,831	-200,000	-0,007	0,086
-564,817	120,163	-0,120	0,107
-563,802	124,699	-0,056	0,051
-562,788	221,009	-0,089	-0,103
-561,773	-91,500	0,170	0,035
-560,758	149,752	0,046	-0,045
-559,744	-200,000	0,004	0,033
-558,729	800,000	-0,047	0,099
-557,715	-200,000	0,002	0,032
-556,700	-200,000	-0,025	-0,115
-555,685	-200,000	-0,035	-0,134
-554,671	800,000	0,037	-0,087
-553,656	172,547	0,059	-0,062
-552,642	184,543	0,071	0,076
-551,627	17,259	-0,076	0,043
-550,612	800,000	-0,035	-0,093
-549,598	621,920	-0,042	0,076
-548,583	-200,000	-0,003	0,012
-547,569	448,248	0,063	-0,101
-546,554	-86,141	-0,135	-0,030
-545,539	211,689	0,086	0,097
-544,525	518,508	-0,052	0,087
-543,510	800,000	-0,031	-0,090
-542,496	-200,000	0,004	-0,233
-541,481	-138,721	0,042	-0,003
-540,466	-200,000	-0,001	-0,110
-539,452	-87,143	0,068	-0,015
-538,437	-145,872	-0,053	0,003
-537,423	800,000	0,022	0,046
-536,408	263,932	-0,035	0,044
-535,393	-190,730	-0,113	-0,001
-534,379	361,220	0,024	0,034
-533,364	-200,000	-0,010	-0,140
-532,350	-74,535	0,113	0,029
-531,335	800,000	0,036	0,072
-530,321	-102,916	0,056	0,009
-529,306	-113,122	-0,043	0,006
-528,291	800,000	0,033	-0,099
-527,277	-141,406	-0,091	0,007
-526,262	16,594	-0,038	-0,021
-525,248	13,153	0,077	-0,043
-524,233	800,000	-0,005	-0,016
-523,218	800,000	-0,056	0,175
-522,204	334,593	-0,022	0,031
-521,189	-12,741	-0,081	-0,038
-520,175	155,720	-0,141	-0,140
-519,160	22,228	-0,066	-0,038
-518,145	11,160	-0,092	-0,051
-517,131	800,000	0,044	0,091
-516,116	-54,559	-0,027	0,009
-515,102	-163,566	-0,114	0,004
-514,087	81,517	0,077	-0,060
-513,072	-122,368	0,145	-0,017
-512,058	-132,911	0,016	-0,001
-511,043	224,625	-0,081	0,095
-510,029	-200,000	0,001	-0,227
-509,014	-200,000	0,012	0,133
-507,999	70,730	0,108	0,080
-506,985	800,000	0,020	-0,042
-505,970	-96,638	-0,149	0,028
-504,956	147,484	0,031	0,030
-503,941	155,476	0,073	-0,072
-502,926	-200,000	-0,000	0,043
-501,912	315,341	0,038	-0,052
-500,897	-37,063	-0,020	-0,008
-499,883	-168,458	0,043	0,001
-498,868	-200,000	-0,006	-0,029
-497,853	16,463	0,049	0,028
-496,839	653,075	0,037	0,069
-495,824	-200,000	0,030	0,135
-494,810	223,537	0,098	0,114
-493,795	-200,000	0,017	0,127
-492,781	-83,382	-0,095	0,022
-491,766	-200,000	0,006	-0,042
-490,751	800,000	0,030	-0,075
-489,737	-200,000	0,009	-0,045
-488,722	-200,000	-0,029	0,124
-487,708	20,165	-0,085	0,049
-486,693	-200,000	-0,019	-0,097
-485,678	15,932	-0,056	-0,032
-484,664	-20,833	0,076	0,033
-483,649	32,836	0,075	-0,046
-482,635	289,218	-0,050	-0,065
-481,620	-154,937	0,107	0,005
-480,605	-200,000	0,017	0,201
-479,591	-200,000	-0,006	0,021
-478,576	20,812	-0,057	-0,033
-477,562	-200,000	0,027	0,142
-476,547	-200,000	-0,009	-0,100
-475,532	48,472	0,107	0,072
-474,518	61,945	-0,092	-0,066
-473,503	-200,000	0,009	-0,104
-472,489	-200,000	0,032	0,135
-471,474	221,000	-0,017	0,019
-470,459	64,776	0,035	-0,026
-469,445	88,119	-0,142	-0,113
-468,430	-106,670	-0,181	-0,029
-467,416	-200,000	0,010	0,121
-466,401	-186,739	0,152	-0,001
-465,386	63,408	0,131	0,094
-464,372	-200,000	0,015	0,134
-463,357	800,000	0,006	-0,017
-462,343	-108,029	-0,212	-0,033
-461,328	-63,959	-0,058	-0,017
-460,313	-55,778	-0,022	0,007
-459,299	412,102	0,096	0,147
-458,284	243,022	-0,039	0,047
-457,270	800,000	-0,025	0,074
-456,255	344,005	0,120	0,169
-455,241	34,184	-0,093	-0,058
-454,226	482,687	-0,057	-0,093
-453,211	460,342	0,045	-0,072
-452,197	-58,821	-0,131	-0,040
-451,182	504,173	-0,086	0,142
-450,168	-200,000	-0,003	0,118
-449,153	-200,000	-0,008	0,068
-448,138	-200,000	-0,013	-0,105
-447,124	-45,620	-0,162	0,057
-446,109	459,612	0,004	-0,007
-445,095	448,603	0,083	-0,132
-444,080	80,029	-0,033	-0,026
-443,065	-125,760	-0,136	0,015
-442,051	170,015	-0,053	0,054
-441,036	-200,000	-0,034	-0,145
-440,022	-72,559	-0,180	-0,047
-439,007	156,108	0,136	-0,135
-437,992	-200,000	0,006	-0,031
-436,978	800,000	0,050	0,148
-435,963	-200,000	-0,008	-0,033
-434,949	-200,000	0,022	0,142
-433,934	-200,000	-0,020	-0,073
-432,919	-200,000	-0,009	-0,213
-431,905	43,179	-0,090	-0,059
-430,890	201,275	0,041	0,045
-429,876	-143,198	0,069	0,005
-428,861	800,000	0,034	0,070
-427,846	-60,310	-0,063	0,019
-426,832	-200,000	0,023	0,135
-425,817	-200,000	0,016	-0,116
-424,803	-34,471	0,078	-0,031
-423,788	-93,952	0,046	-0,009
-422,773	51,901	-0,040	-0,028
-421,759	-171,032	0,073	0,002
-420,744	-129,801	0,084	0,008
-419,730	656,873	0,033	0,060
-418,715	-200,000	-0,011	0,055
-417,701	-28,156	-0,080	-0,033
-416,686	-66,414	-0,070	0,020
-415,671	800,000	-0,021	-0,053
-414,657	-200,000	-0,039	0,180
-413,642	354,056	0,050	-0,071
-412,628	79,242	0,034	0,026
-411,613	-200,000	0,021	0,092
-410,598	-78,243	-0,053	0,013
-409,584	-47,426	0,197	0,068
-408,569	-200,000	0,015	-0,048
-407,555	-48,293	0,081	0,028
-406,540	139,586	0,021	-0,019
-405,525	184,887	-0,165	-0,175
-404,511	800,000	-0,054	-0,129
-403,496	341,488	0,033	0,047
-402,482	-200,000	-0,005	-0,085
-401,467	200,753	0,018	0,020
-400,452	25,290	0,070	-0,042
-399,438	-18,762	0,064	-0,029
-398,423	-107,522	-0,145	0,022
-397,409	-124,213	0,109	-0,012
-396,394	-152,327	0,058	-0,003
-395,379	800,000	0,041	0,091
-394,365	374,387	0,099	0,145
-393,350	-15,410	0,070	-0,032
-392,336	-200,000	-0,037	0,187
-391,321	256,092	-0,087	0,107
-390,306	-93,688	0,099	-0,019
-389,292	36,106	-0,101	-0,063
-388,277	-200,000	-0,021	0,137
-387,263	-112,162	-0,021	-0,003
-386,248	61,217	0,090	0,064
-385,233	90,773	0,052	0,041
-384,219	-138,639	-0,114	-0,009
-383,204	-66,523	0,098	-0,028
-382,190	91,045	-0,060	0,048
-381,175	-106,682	-0,156	-0,025
-380,160	-200,000	0,007	-0,022
-379,146	-28,727	0,069	0,028
-378,131	-200,000	0,033	0,215
-377,117	514,386	-0,067	-0,113
-376,102	-105,645	-0,118	0,019
-375,088	270,355	-0,082	-0,104
-374,073	-121,515	-0,089	-0,010
-373,058	-200,000	-0,004	-0,014
-372,044	800,000	-0,013	-0,037
-371,029	630,815	0,009	-0,016
-370,015	36,764	-0,052	0,033
-369,000	-200,000	0,000	-0,031
-367,985	127,277	-0,068	-0,062
-366,971	-200,000	0,015	0,081
-365,956	61,921	0,168	0,119
-364,942	-200,000	-0,021	0,080
-363,927	39,438	0,127	0,081
-362,912	-200,000	-0,166	-0,000
-361,898	166,824	0,058	0,059
-360,883	-200,000	-0,018	0,181
-359,869	800,000	-0,093	-0,194
-358,854	-200,000	0,006	0,201
-357,839	35,015	0,175	0,109
-356,825	800,000	-0,014	0,041
-355,810	-88,641	0,156	0,033
-354,796	325,741	0,079	-0,108
-353,781	-200,000	0,004	-0,162
-352,766	-200,000	0,027	-0,090
-351,752	3,555	0,176	-0,091
-350,737	345,030	0,052	0,074
-349,723	-200,000	0,003	0,095
-348,708	800,000	0,020	-0,044
-347,693	-200,000	-0,007	-0,090
-346,679	-200,000	0,015	-0,194
-345,664	-1,828	0,036	0,018
-344,650	-81,997	-0,117	-0,027
-343,635	-99,172	0,093	-0,017
-342,620	800,000	0,041	0,117
-341,606	-200,000	-0,001	0,068
-340,591	768,228	-0,004	0,008
-339,577	-200,000	0,009	-0,076
-338,562	113,039	0,076	0,065
-337,548	-200,000	-0,181	0,000
-336,533	-6,820	0,184	-0,089
-335,518	-187,509	-0,044	0,000
-334,504	-15,605	0,099	-0,045
-333,489	51,700	-0,042	-0,028
-332,475	21,682	-0,198	0,115
-331,460	800,000	-0,047	-0,106
-330,445	128,071	-0,120	-0,109
-329,431	27,586	0,123	0,074
-328,416	800,000	0,068	0,136
-327,402	-200,000	-0,004	0,213
-326,387	-190,186	0,073	0,001
-325,372	133,812	0,069	-0,064
-324,358	800,000	0,065	0,137
-323,343	-132,876	0,048	-0,004
-322,329	493,939	0,058	-0,094
-321,314	-62,341	0,022	0,007
-320,299	-41,081	0,122	-0,045
-319,285	138,748	0,076	-0,071
-318,270	19,441	-0,157	-0,090
-317,256	800,000	-0,046	-0,130
-316,241	-200,000	-0,066	-0,229
-315,226	327,437	0,066	0,091
-314,212	-200,000	-0,014	0,158
-313,197	-42,688	0,077	0,028
-312,183	800,000	0,062	-0,185
-311,168	301,769	0,018	0,024
-310,153	260,794	-0,098	0,121
-309,139	481,020	0,050	-0,081
-308,124	75,147	0,121	-0,091
-307,110	-200,000	0,004	-0,096
-306,095	-94,403	0,103	0,020
-305,080	-200,000	-0,005	0,019
-304,066	800,000	0,046	-0,142
-303,051	800,000	0,005	0,013
-302,037	-200,000	0,042	-0,151
-301,022	-200,000	-0,014	-0,085
-300,008	-200,000	0,031	-0,129
-298,993	107,563	-0,040	-0,034
-297,978	-200,000	0,019	0,089
-296,964	211,123	-0,089	-0,099
-295,949	-200,000	0,015	-0,105
-294,935	207,450	-0,061	-0,068
-293,920	5,542	-0,022	0,011
-292,905	262,140	0,029	-0,036
-291,891	800,000	-0,009	0,019
-290,876	93,968	-0,065	0,052
-289,862	-200,000	0,002	0,016
-288,847	800,000	-0,051	-0,123
-287,832	-131,174	-0,135	-0,013
-286,818	-170,650	-0,129	0,003
-285,803	-200,000	-0,021	0,155
-284,789	-59,453	0,033	0,010
-283,774	-137,128	0,031	-0,002
-282,759	-71,109	0,036	0,010
-281,745	16,003	-0,086	0,048
-280,730	104,143	-0,133	-0,111
-279,716	-69,478	-0,029	-0,008
-278,701	97,404	0,051	-0,042
-277,686	-96,741	0,221	-0,041
-276,672	800,000	-0,033	-0,076
-275,657	371,788	0,027	0,039
-274,643	48,769	0,056	0,037
-273,628	-200,000	-0,013	0,049
-272,613	715,841	0,032	0,061
-271,599	-176,684	0,098	0,002
-270,584	109,856	0,047	-0,040
-269,570	-200,000	0,013	0,053
-268,555	-200,000	-0,003	-0,037
-267,540	-200,000	-0,039	-0,137
-266,526	137,872	-0,100	0,093
-265,511	-125,700	-0,144	-0,015
-264,497	124,707	-0,096	0,086
-263,482	-25,944	0,044	0,018
-262,467	0,105	0,079	-0,040
-261,453	119,867	-0,085	-0,075
-260,438	-200,000	0,019	-0,108
-259,424	-200,000	0,002	-0,016
-258,409	-200,000	0,011	-0,058
-257,395	280,107	0,088	-0,112
-256,380	9,217	-0,106	0,057
-255,365	-200,000	-0,021	0,103
-254,351	-157,468	0,065	-0,003
-253,336	519,216	-0,058	0,097
-252,322	-200,000	0,004	-0,051
-251,307	-30,312	0,064	-0,026
-250,292	-114,735	-0,034	-0,005
-249,278	-110,843	-0,036	0,005
-248,263	-200,000	0,028	0,162
-247,249	627,724	0,045	0,080
-246,234	-54,289	-0,099	-0,032
-245,219	-200,000	-0,003	-0,036
-244,205	554,401	-0,036	-0,062
-243,190	-200,000	-0,022	-0,132
-242,176	152,492	0,097	0,094
-241,161	800,000	0,017	0,038
-240,146	300,509	0,069	-0,090
-239,132	-55,918	-0,016	-0,005
-238,117	800,000	0,030	-0,062
-237,103	82,729	0,075	-0,058
-236,088	532,569	0,048	-0,080
-235,073	800,000	0,063	-0,140
-234,059	-127,968	0,064	-0,007
-233,044	240,590	-0,120	-0,143
-232,030	-200,000	0,003	0,076
-231,015	800,000	-0,021	0,045
-230,000	646,667	-0,082	-0,149
-228,986	-117,847	-0,014	0,002
-227,971	-98,151	0,040	-0,007
-226,957	100,803	0,148	0,122
-225,942	-200,000	-0,011	0,125
-224,927	-200,000	-0,019	-0,102
-223,913	-74,465	-0,167	-0,043
-222,898	704,271	0,024	-0,045
-221,884	-200,000	-0,034	-0,185
-220,869	377,700	-0,045	0,066
-219,855	-21,269	-0,040	-0,017
-218,840	-200,000	-0,017	0,090
-217,825	-200,000	0,019	0,112
-216,811	-16,131	-0,039	-0,017
-215,796	-200,000	-0,001	-0,053
-214,782	800,000	0,015	-0,046
-213,767	366,951	-0,063	0,091
-212,752	-200,000	0,011	0,034
-211,738	147,047	0,027	-0,026
-210,723	-198,067	-0,112	0,000
-209,709	-200,000	-0,001	-0,057
-208,694	800,000	0,004	0,010
-207,679	800,000	-0,005	-0,010
-206,665	387,210	-0,051	0,075
-205,650	-160,881	0,032	0,001
-204,636	284,338	-0,065	-0,083
-203,621	47,577	0,122	0,081
-202,606	47,613	-0,070	-0,047
-201,592	-200,000	-0,017	0,084
-200,577	800,000	0,022	0,066
-199,563	-142,267	-0,017	-0,001
-198,548	-200,000	0,003	0,099
-197,533	384,103	0,064	-0,094
-196,519	-63,258	0,181	0,053
-195,504	182,782	0,029	-0,030
-194,490	116,504	-0,055	0,048
-193,475	24,908	-0,146	0,086
-192,460	-71,191	0,059	-0,016
-191,446	741,464	0,033	0,063
-190,431	12,753	0,135	0,074
-189,417	171,934	-0,049	-0,050
-188,402	390,276	-0,080	-0,118
-187,387	-5,623	-0,144	-0,070
-186,373	338,745	0,021	0,029
-185,358	-200,000	0,004	0,014
-184,344	-200,000	0,006	0,233
-183,329	-200,000	0,002	0,032
-182,315	-96,207	0,060	0,011
-181,300	-61,609	0,104	-0,031
-180,285	-101,825	-0,082	-0,014
-179,271	-200,000	-0,000	-0,018
-178,256	48,713	0,091	-0,061
-177,242	-93,857	0,077	-0,015
-176,227	-65,646	0,126	0,036
-175,212	-200,000	0,067	0,218
-174,198	800,000	-0,023	0,044
-173,183	475,142	-0,025	-0,040
-172,169	222,111	-0,106	0,122
-171,154	-101,356	0,096	0,017
-170,139	160,327	0,024	0,023
-169,125	146,659	0,042	0,040
-168,110	382,903	0,035	0,051
-167,096	313,707	-0,010	-0,014
-166,081	-200,000	0,017	-0,177
-165,066	75,692	-0,191	-0,143
-164,052	-108,694	-0,124	0,019
-163,037	423,875	0,048	0,074
-162,023	112,606	-0,074	-0,063
-161,008	-21,264	0,158	0,068
-159,993	-76,659	-0,084	-0,021
-158,979	-93,143	-0,061	0,012
-157,964	-64,168	0,029	-0,008
-156,950	-200,000	0,047	0,155
-155,935	-100,026	0,066	0,012
-154,920	551,082	0,010	-0,016
-153,906	-200,000	-0,024	0,092
-152,891	-29,239	-0,049	0,020
-151,877	-200,000	0,036	-0,139
-150,862	-60,467	0,103	-0,031
-149,847	-19,800	0,058	0,025
-148,833	-200,000	0,022	0,128
-147,818	800,000	0,060	-0,125
-146,804	-200,000	0,000	-0,049
-145,789	-200,000	-0,001	0,048
-144,775	407,353	0,035	0,053
-143,760	-200,000	0,003	-0,017
-142,745	-200,000	0,013	-0,170
-141,731	47,363	0,094	-0,062
-140,716	800,000	-0,049	0,101
-139,702	-200,000	0,013	0,142
-138,687	-200,000	-0,005	-0,050
-137,672	452,119	-0,093	0,145
-136,658	-142,049	0,036	-0,003
-135,643	-24,654	-0,039	-0,016
-134,629	154,303	0,098	-0,095
-133,614	111,406	0,076	0,065
-132,599	-200,000	0,042	0,150
-131,585	-200,000	-0,019	0,180
-130,570	-200,000	-0,007	0,032
-129,556	99,619	0,074	-0,061
-128,541	89,819	0,101	0,080
-127,526	-200,000	-0,011	-0,100
-126,512	-47,845	-0,130	0,044
-125,497	-110,912	-0,150	0,022
-124,483	-4,846	-0,032	0,016
-123,468	-137,519	0,039	-0,003
-122,453	146,529	-0,058	0,055
-121,439	115,905	-0,110	-0,096
-120,424	8,551	-0,020	-0,011
-119,410	-62,273	0,156	-0,046
-118,395	-200,000	0,020	-0,099
-117,380	-47,028	-0,045	-0,016
-116,366	-200,000	-0,005	-0,079
-115,351	126,955	-0,030	-0,027
-114,337	-200,000	0,000	-0,075
-113,322	-200,000	0,014	-0,100
-112,307	90,806	0,103	-0,081
-111,293	-200,000	-0,017	-0,127
-110,278	-42,778	-0,078	0,028
-109,264	591,279	0,034	-0,059
-108,249	-200,000	-0,004	-0,146
-107,234	-125,517	-0,060	0,006
-106,220	800,000	-0,046	-0,131
-105,205	69,169	-0,058	-0,042
-104,191	-94,901	0,244	-0,046
-103,176	54,462	0,075	-0,051
-102,162	-200,000	-0,003	-0,055
-101,147	111,422	-0,098	0,083
-100,132	-150,725	0,142	0,008
-99,118	-118,401	-0,053	0,007
-98,103	-129,331	0,045	-0,004
-97,089	68,656	-0,061	0,044
-96,074	800,000	0,069	0,139
-95,059	-200,000	0,057	0,200
-94,045	27,028	-0,085	0,050
-93,030	47,078	-0,067	-0,044
-92,016	482,104	-0,069	-0,111
-91,001	-200,000	-0,009	-0,090
-89,986	-19,445	-0,034	0,015
-88,972	132,055	0,012	0,011
-87,957	576,243	-0,073	0,127
-86,943	-41,891	0,073	-0,026
-85,928	-141,225	-0,239	-0,017
-84,913	30,304	-0,090	-0,054
-83,899	800,000	-0,018	0,035
-82,884	-108,334	0,143	0,022
-81,870	405,033	0,095	0,142
-80,855	-200,000	-0,017	0,100
-79,840	138,208	-0,015	0,014
-78,826	-109,892	0,037	0,005
-77,811	-62,847	-0,115	0,033
-76,797	800,000	0,019	0,048
-75,782	800,000	0,038	-0,105
-74,767	800,000	0,109	0,215
-73,753	124,985	-0,031	0,027
-72,738	305,677	-0,074	0,098
-71,724	-41,475	-0,088	-0,032
-70,709	-95,819	0,174	-0,033
-69,694	-126,678	-0,070	-0,007
-68,680	-105,831	-0,070	0,011
-67,665	800,000	0,068	0,150
-66,651	-116,552	-0,074	0,010
-65,636	800,000	-0,012	0,028
-64,622	14,205	0,066	0,036
-63,607	420,197	-0,094	-0,143
-62,592	37,350	-0,115	-0,072
-61,578	800,000	0,051	-0,119
-60,563	0,352	0,064	0,032
-59,549	800,000	0,042	0,092
-58,534	40,834	-1,881	-1,196
-57,519	577,917	-1,235	-2,141
-56,505	-200,000	-0,414	-4,436
-55,490	421,248	0,952	1,446
-54,476	800,000	5,111	11,179
-53,461	-200,000	21,250	338,407
-52,446	800,000	758,845	2351,238
-51,432	557,602	1661,779	2839,505
-50,417	73,541	1661,820	1227,071
-49,403	18,143	1534,930	861,851
-48,388	12,065	1458,525	789,551
-47,373	19,233	1449,408	818,984
-46,359	15,487	1438,657	795,063
-45,344	10,361	1434,693	768,433
-44,330	10,330	1432,634	767,151
-43,315	10,273	1430,795	765,864
-42,300	10,315	1429,020	765,084
-41,286	10,324	1427,928	764,510
-40,271	10,270	1426,704	763,570
-39,257	10,258	1425,573	762,879
-38,242	10,329	1424,502	762,608
-37,227	10,340	1423,158	761,910
-36,213	10,292	1421,981	761,025
-35,198	10,323	1420,826	760,522
-34,184	10,368	1419,819	760,164
-33,169	10,319	1418,554	759,228
-32,154	10,316	1417,660	758,706
-31,140	10,334	1416,262	758,012
-30,125	10,364	1415,266	757,592
-29,111	10,346	1414,264	756,938
-28,096	10,343	1412,994	756,217
-27,082	10,283	1411,567	755,140
-26,067	10,268	1410,795	754,626
-25,052	10,308	1409,626	754,158
-24,038	10,330	1408,452	753,601
-23,023	10,281	1407,811	753,000
-22,009	10,281	1406,844	752,455
-20,994	10,315	1405,626	751,930
-19,979	10,252	1404,951	751,245
-18,965	10,232	1403,975	750,604
-17,950	10,272	1402,972	750,223
-16,936	10,211	1402,357	749,579
-15,921	10,171	1401,133	748,710
-14,906	10,215	1400,262	748,417
-13,892	10,236	1399,349	747,997
-12,877	10,209	1398,582	747,432
-11,863	10,172	1397,645	746,730
-10,848	10,136	1396,605	745,977
-9,833	10,165	1395,821	745,664
-8,819	10,115	1395,070	745,003
-7,804	10,096	1393,981	744,303
-6,790	10,086	1393,229	743,825
-5,775	10,085	1392,011	743,142
-4,760	10,111	1390,845	742,608
-3,746	10,090	1390,150	742,112
-2,731	10,058	1389,305	741,485
-1,717	10,093	1388,395	741,132
-0,702	10,090	1386,512	740,083
0,313	14,118	1299,597	712,119
1,327	30,435	689,983	415,055
2,342	47,193	119,465	78,312
3,356	2,203	16,444	8,355
4,371	9,639	3,469	1,849
5,386	-2,780	0,930	0,457
6,400	748,088	0,244	0,466
7,415	147,404	-0,116	-0,111
8,429	-132,042	-0,386	-0,035
9,444	67,761	-0,259	-0,187
10,459	-107,943	-0,408	-0,062
11,473	30,820	-0,346	-0,208
12,488	-21,543	-0,138	-0,059
13,502	-71,916	-0,392	-0,102
14,517	116,910	-0,233	-0,201
15,531	42,923	-0,439	-0,281
16,546	-4,676	-0,421	-0,204
17,561	288,999	-0,283	-0,362
18,575	-121,025	-0,186	-0,022
19,590	247,181	-0,224	-0,267
20,604	72,975	-0,243	-0,179
21,619	110,489	-0,381	-0,322
22,634	42,717	-0,417	-0,267
23,648	-14,644	-0,342	-0,154
24,663	41,967	-0,397	-0,253
25,677	33,249	-0,366	-0,223
26,692	27,969	-0,343	-0,203
27,707	311,379	-0,185	-0,245
28,721	-37,279	-0,360	-0,135
29,736	53,983	-0,538	-0,363
30,750	15,767	-0,430	-0,237
31,765	168,488	-0,307	-0,308
32,780	37,621	-0,272	-0,169
33,794	-71,403	-0,447	-0,117
34,809	-44,916	-0,270	-0,094
35,823	48,109	-0,358	-0,235
36,838	405,555	-0,263	-0,392
37,853	141,556	-0,406	-0,379
38,867	123,082	-0,325	-0,286
39,882	288,723	-0,249	-0,317
40,896	719,701	-0,173	-0,325
41,911	103,740	-0,328	-0,271
42,926	205,098	-0,289	-0,316
43,940	87,041	-0,327	-0,253
44,955	70,795	-0,284	-0,206
45,969	-20,676	-0,444	-0,191
46,984	210,303	-0,274	-0,302
47,999	172,516	-0,237	-0,240
49,013	181,563	-0,259	-0,268
50,028	-47,643	-0,230	-0,078
51,042	29,271	-0,372	-0,221
52,057	313,886	-0,270	-0,357
53,071	51,792	-0,371	-0,247
54,086	41,332	-0,298	-0,189
55,101	46,215	-0,314	-0,204
56,115	17,240	-0,473	-0,263
57,130	59,184	-0,333	-0,230
58,144	91,865	-0,322	-0,254
59,159	85,308	-0,366	-0,282
60,174	374,301	-0,296	-0,424
61,188	40,815	-0,330	-0,209
62,203	-29,098	-0,316	-0,126
63,217	-11,409	-0,305	-0,140
64,232	81,103	-0,203	-0,154
65,247	-34,116	-0,331	-0,127
66,261	78,253	-0,388	-0,290
67,276	37,476	-0,336	-0,208
68,290	93,776	-0,341	-0,271
69,305	-4,543	-0,225	-0,109
70,320	-81,695	-0,333	-0,076
71,334	66,286	-0,309	-0,220
72,349	112,464	-0,281	-0,238
73,363	9,117	-0,362	-0,191
74,378	-163,316	-0,282	0,009
75,393	412,842	-0,255	-0,381
76,407	-25,259	-0,183	-0,075
77,422	89,095	-0,316	-0,246
78,436	-97,616	-0,279	-0,050
79,451	-48,905	-0,270	-0,090
80,466	-24,319	-0,373	-0,155
81,480	169,521	-0,242	-0,242
82,495	-41,896	-0,428	-0,153
83,509	104,070	-0,267	-0,220
84,524	-77,429	-0,314	-0,076
85,539	-56,736	-0,270	-0,083
86,553	85,272	-0,263	-0,202
87,568	45,792	-0,316	-0,204
88,582	96,944	-0,252	-0,202
89,597	562,811	-0,153	-0,260
90,611	-40,831	-0,343	-0,124
91,626	45,868	-0,227	-0,147
92,641	-47,603	-0,400	-0,135
93,655	190,305	-0,152	-0,160
94,670	34,016	-0,193	-0,117
95,684	-16,159	-0,389	-0,172
96,699	-83,802	-0,245	-0,054
97,714	41,856	-0,349	-0,221
98,728	35,822	-0,269	-0,165
99,743	374,423	-0,212	-0,303
100,757	85,250	-0,212	-0,163
101,772	64,654	-0,242	-0,170
102,787	13,253	-0,442	-0,239
103,801	205,479	-0,175	-0,190
104,816	-110,815	-0,459	-0,065
105,830	-48,195	-0,158	-0,053
106,845	341,845	-0,131	-0,179
107,860	225,379	-0,242	-0,275
108,874	38,408	-0,337	-0,209
109,889	34,495	-0,239	-0,146
110,903	-26,553	-0,194	-0,079
111,918	26,619	-0,314	-0,183
112,933	-72,745	-0,306	-0,078
113,947	6,043	-0,282	-0,145
114,962	170,185	-0,176	-0,176
115,976	56,900	-0,217	-0,148
116,991	202,954	-0,238	-0,258
118,006	35,523	-0,265	-0,162
119,020	135,122	-0,286	-0,260
120,035	109,882	-0,178	-0,149
121,049	22,890	-0,086	-0,049
122,064	-52,859	-0,246	-0,079
123,079	166,257	-0,129	-0,128
124,093	242,121	-0,196	-0,230
125,108	255,979	-0,221	-0,265
126,122	125,728	-0,264	-0,233
127,137	-75,217	-0,117	-0,029
128,151	100,708	-0,187	-0,151
129,166	23,483	-0,305	-0,175
130,181	6,636	-0,283	-0,146
131,195	202,298	-0,229	-0,247
132,210	219,459	-0,146	-0,163
133,224	15,923	-0,220	-0,120
134,239	-49,600	-0,240	-0,079
135,254	59,487	-0,227	-0,156
136,268	-6,143	-0,131	-0,062
137,283	-62,162	-0,323	-0,093
138,297	157,602	-0,191	-0,185
139,312	800,000	-0,181	-0,377
140,327	10,549	-0,339	-0,180
141,341	6,440	-0,192	-0,099
142,356	150,273	-0,181	-0,171
143,370	97,632	-0,207	-0,165
144,385	103,195	-0,220	-0,180
145,400	139,094	-0,196	-0,179
146,414	20,879	-0,292	-0,164
147,429	380,076	-0,117	-0,167
148,443	32,805	-0,157	-0,095
149,458	265,711	-0,137	-0,166
150,473	186,304	-0,222	-0,231
151,487	4,341	-0,331	-0,168
152,502	68,797	-0,226	-0,162
153,516	267,083	-0,202	-0,246
154,531	78,575	-0,406	-0,301
155,546	27,773	-0,192	-0,112
156,560	266,802	-0,123	-0,150
157,575	-74,839	-0,132	-0,033
158,589	162,190	-0,177	-0,172
159,604	159,289	-0,301	-0,291
160,619	108,049	-0,358	-0,297
161,633	150,753	-0,196	-0,185
162,648	90,600	-0,176	-0,137
163,662	19,352	-0,143	-0,080
164,677	85,660	-0,174	-0,133
165,692	35,049	-0,226	-0,137
166,706	15,380	-0,176	-0,096
167,721	172,131	-0,272	-0,273
168,735	800,000	-0,106	-0,231
169,750	-36,554	-0,219	-0,081
170,764	344,004	-0,043	-0,058
171,779	-46,564	-0,245	-0,083
172,794	27,667	-0,185	-0,108
173,808	-76,747	-0,209	-0,051
174,823	800,000	-0,103	-0,227
175,837	-9,233	-0,275	-0,127
176,852	512,877	-0,079	-0,129
177,867	62,654	-0,201	-0,139
178,881	513,361	-0,225	-0,366
179,896	28,938	-0,195	-0,115
180,910	542,441	-0,078	-0,130
181,925	203,306	-0,214	-0,230
182,940	89,821	-0,198	-0,154
183,954	132,384	-0,199	-0,178
184,969	-132,838	-0,176	0,015
185,983	169,510	-0,161	-0,160
186,998	-149,045	-0,165	-0,009
188,013	-12,945	-0,231	-0,104
189,027	377,360	-0,110	-0,156
190,042	800,000	-0,053	-0,103
191,056	227,524	-0,150	-0,169
192,071	42,628	-0,187	-0,118
193,086	-69,584	-0,214	-0,056
194,100	75,568	-0,241	-0,176
195,115	134,091	-0,225	-0,202
196,129	218,447	-0,216	-0,240
197,144	238,098	-0,154	-0,178
198,159	224,813	-0,198	-0,222
199,173	-5,196	-0,282	-0,134
200,188	735,096	-0,061	-0,113
201,202	-67,929	-0,173	-0,047
202,217	351,524	-0,205	-0,282
203,232	-69,218	-0,214	-0,057
204,246	53,302	-0,155	-0,103
205,261	617,895	-0,184	-0,321
206,275	284,797	-0,173	-0,216
207,290	-121,419	-0,291	-0,033
208,304	-127,170	-0,234	-0,023
209,319	59,337	-0,114	-0,078
210,334	38,226	-0,157	-0,097
211,348	134,390	-0,223	-0,200
212,363	72,628	-0,150	-0,108
213,377	295,665	-0,155	-0,197
214,392	95,057	-0,231	-0,182
215,407	367,010	-0,139	-0,194
216,421	-150,909	-0,262	0,013
217,436	-200,000	-0,046	-0,213
218,450	443,146	-0,147	-0,224
219,465	-117,567	-0,140	0,017
220,480	-18,354	-0,080	-0,034
221,494	-99,794	-0,174	-0,030
222,509	781,246	-0,060	-0,114
223,523	800,000	-0,123	-0,253
224,538	-54,446	-0,149	-0,047
225,553	70,724	-0,144	-0,103
226,567	574,590	-0,089	-0,151
227,582	154,497	-0,174	-0,165
228,596	193,907	-0,187	-0,196
229,611	800,000	-0,157	-0,324
230,626	3,896	-0,252	-0,127
231,640	264,253	-0,133	-0,160
232,655	800,000	-0,061	-0,182
233,669	142,699	-0,165	-0,151
234,684	165,317	-0,244	-0,239
235,699	74,604	-0,232	-0,168
236,713	11,475	-0,160	-0,084
237,728	507,492	-0,102	-0,164
238,742	8,457	-0,211	-0,109
239,757	143,057	-0,250	-0,230
240,772	179,696	-0,346	-0,351
241,786	49,503	-0,152	-0,099
242,801	473,538	-0,122	-0,190
243,815	272,980	-0,025	-0,031
244,830	-76,738	-0,108	-0,026
245,844	794,012	-0,098	-0,188
246,859	-87,624	-0,083	-0,017
247,874	6,345	-0,278	-0,142
248,888	800,000	-0,068	-0,158
249,903	300,302	-0,130	-0,166
250,917	-8,687	-0,245	-0,113
251,932	23,372	-0,155	-0,088
252,947	20,239	-0,054	-0,030
253,961	800,000	-0,067	-0,185
254,976	114,823	-0,298	-0,251
255,990	-52,898	-0,321	-0,101
257,005	800,000	-0,061	-0,183
258,020	476,055	-0,088	-0,137
259,034	109,770	-0,176	-0,146
260,049	753,510	-0,066	-0,124
261,063	-93,545	-0,194	-0,037
262,078	344,373	-0,161	-0,218
263,093	394,189	-0,182	-0,262
264,107	800,000	-0,084	-0,171
265,122	10,647	-0,172	-0,090
266,136	85,542	-0,191	-0,145
267,151	308,955	-0,113	-0,146
268,166	185,908	-0,241	-0,247
269,180	102,449	-0,254	-0,205
270,195	-77,418	-0,282	-0,067
271,209	-35,186	-0,323	-0,121
272,224	37,071	-0,183	-0,111
273,239	116,149	-0,229	-0,194
274,253	-61,047	-0,182	-0,053
275,268	-160,283	-0,213	0,008
276,282	82,468	-0,149	-0,111
277,297	-109,819	-0,203	-0,029
278,312	-98,530	-0,103	0,018
279,326	219,705	-0,064	-0,070
280,341	-23,527	-0,063	0,026
281,355	39,209	-0,068	0,042
282,370	-109,803	-0,237	-0,034
283,384	1,086	-0,029	-0,014
284,399	107,828	-0,169	-0,138
285,414	800,000	-0,083	-0,231
286,428	-3,420	-0,249	-0,119
287,443	-15,605	-0,053	-0,023
288,457	-30,975	-0,242	-0,094
289,472	308,304	-0,077	-0,099
290,487	29,625	-0,331	-0,193
291,501	419,784	-0,085	-0,125
292,516	-157,601	-0,251	-0,010
293,530	191,848	-0,125	-0,130
294,545	214,014	-0,121	-0,132
295,560	-150,138	-0,081	-0,004
296,574	-3,001	-0,112	0,054
297,589	593,536	-0,059	-0,100
298,603	800,000	-0,069	-0,142
299,618	106,205	-0,175	-0,142
300,633	63,204	-0,160	-0,110
301,647	-121,378	-0,205	0,023
302,662	-137,123	-0,205	-0,016
303,676	57,779	-0,201	-0,135
304,691	75,933	-0,085	-0,062
305,706	540,068	-0,137	-0,224
306,720	-84,260	-0,125	-0,027
307,735	25,588	-0,092	-0,052
308,749	150,327	-0,087	-0,081
309,764	-200,000	-0,033	-0,124
310,779	104,787	-0,273	-0,221
311,793	234,550	-0,146	-0,165
312,808	800,000	-0,088	-0,231
313,822	35,046	-0,199	-0,119
314,837	406,168	-0,091	-0,132
315,852	519,219	-0,158	-0,254
316,866	800,000	-0,074	-0,166
317,881	800,000	-0,014	-0,030
318,895	-74,383	-0,112	-0,028
319,910	578,011	-0,061	-0,103
320,925	189,770	-0,130	-0,134
321,939	-50,922	-0,158	-0,051
322,954	121,792	-0,092	-0,079
323,968	6,392	-0,151	-0,077
324,983	436,250	-0,066	-0,099
325,997	526,948	-0,047	-0,076
327,012	-73,553	-0,084	0,021
328,027	-95,429	-0,135	-0,025
329,041	98,891	-0,226	-0,179
330,056	-89,795	0,061	0,012
331,070	596,439	0,016	0,028
332,085	108,007	-0,155	-0,127
333,100	123,152	-0,082	0,070
334,114	271,686	-0,117	0,142
335,129	21,222	-0,207	-0,115
336,143	-10,841	-0,147	-0,066
337,158	-108,450	-0,232	-0,034
338,173	-24,801	-0,121	-0,049
339,187	-153,919	-0,123	0,006
340,202	-128,170	-0,253	-0,024
341,216	2,566	-0,315	-0,156
342,231	191,253	-0,157	-0,162
343,246	194,967	-0,092	-0,096
344,260	42,118	-0,110	-0,068
345,275	-35,438	-0,207	-0,077
346,289	180,653	-0,138	-0,139
347,304	-19,420	-0,201	-0,085
348,319	53,440	-0,111	-0,072
349,333	-149,492	-0,273	-0,015
350,348	52,282	-0,180	-0,118
351,362	-200,000	0,011	-0,128
352,377	-200,000	-0,007	-0,051
353,392	378,706	0,008	0,012
354,406	800,000	-0,058	-0,115
355,421	206,671	1311,133	1398,563
356,435	158,956	1471,388	1399,043
