DTS Sentinel unit serial number:	SN410029Multiplexer serial number:	ORYXHardware model number:	OX2-SRSoftware version number:	ORYX F/W v4,00 Oryx Data Collector v3.7.2.0data status	okinstallation	B3 Nyhavnadifferential loss correction	single-endedforward channel	channel 1reverse channel	N/Adate	2023/11/29time	13:17:30forward acquisition time	300,00reverse acquisition time	0,00gamma	499,1914k internal	0,3212k external	0,3212temperature offset calibration	1,0000default loss term (dB/km)	0,3820temperature slope calibration	1,0000multiplexer offset coefficient	1,0000multiplexer slope coefficient	1,0000fibre end	0,00T internal ref (°C)	10,25T ext. ref 1 (°C)	-3,72T ext. ref 2 (°C)	-3,87length (m)	temperature (°C)	Stokes	anti-Stokes-744,400	231,080	-0,184	-0,219
-743,385	-200,000	-0,038	0,347
-742,371	419,282	-0,153	-0,237
-741,356	-200,000	0,015	0,349
-740,342	117,210	-0,194	-0,173
-739,327	-200,000	-0,113	0,378
-738,312	794,786	-0,201	-0,404
-737,298	-200,000	-0,053	0,195
-736,283	79,211	-0,238	-0,184
-735,269	632,791	0,131	0,241
-734,254	800,000	-0,155	-0,390
-733,239	115,863	-0,114	0,101
-732,225	51,048	-0,156	-0,107
-731,210	0,772	0,123	0,064
-730,196	800,000	-0,040	-0,095
-729,181	800,000	-0,050	-0,104
-728,167	413,893	-0,094	-0,145
-727,152	800,000	-0,028	-0,078
-726,137	-117,305	-0,056	-0,007
-725,123	-200,000	0,010	-0,087
-724,108	-65,405	-0,230	-0,066
-723,094	-200,000	-0,023	-0,125
-722,079	-66,846	0,085	0,024
-721,064	-27,671	-0,144	-0,060
-720,050	469,905	-0,090	-0,147
-719,035	800,000	0,015	-0,031
-718,021	73,291	-0,096	-0,073
-717,006	366,288	0,049	-0,071
-715,991	-200,000	-0,004	-0,108
-714,977	395,191	0,026	-0,039
-713,962	-90,081	-0,048	-0,010
-712,948	156,451	0,057	0,057
-711,933	-200,000	-0,009	-0,050
-710,918	-200,000	-0,029	-0,111
-709,904	-99,606	-0,039	0,007
-708,889	-68,864	-0,104	0,029
-707,875	-200,000	-0,045	-0,181
-706,860	-101,728	-0,099	-0,017
-705,845	-15,361	0,154	-0,071
-704,831	-135,023	-0,015	0,001
-703,816	323,875	-0,083	-0,115
-702,802	28,436	-0,102	0,062
-701,787	800,000	-0,058	-0,184
-700,772	-77,752	0,103	0,026
-699,758	-34,129	0,035	0,014
-698,743	-63,193	-0,003	-0,001
-697,729	431,679	-0,070	0,109
-696,714	121,781	-0,149	0,134
-695,699	331,433	-0,006	0,008
-694,685	81,012	-0,174	-0,136
-693,670	-200,000	0,010	-0,048
-692,656	397,686	-0,100	-0,152
-691,641	319,715	-0,118	-0,162
-690,627	-200,000	-0,015	-0,089
-689,612	-129,048	0,144	-0,014
-688,597	-200,000	-0,019	-0,072
-687,583	48,705	0,018	-0,012
-686,568	-140,863	-0,113	0,008
-685,554	627,796	-0,050	0,091
-684,539	-165,980	-0,071	0,002
-683,524	219,216	-0,108	0,125
-682,510	70,449	-0,034	-0,025
-681,495	800,000	-0,040	0,088
-680,481	-7,671	0,118	-0,057
-679,466	-169,433	0,058	0,001
-678,451	-200,000	-0,011	-0,128
-677,437	-200,000	0,047	-0,185
-676,422	621,861	-0,029	-0,053
-675,408	334,194	-0,040	0,056
-674,393	-200,000	0,006	-0,142
-673,378	-10,578	-0,061	-0,029
-672,364	93,412	-0,057	-0,047
-671,349	-35,272	-0,056	0,022
-670,335	-78,340	-0,138	0,034
-669,320	-49,242	0,130	0,045
-668,305	-172,771	-0,143	-0,003
-667,291	800,000	0,023	0,065
-666,276	-158,100	-0,151	-0,006
-665,262	-200,000	0,148	0,000
-664,247	-200,000	-0,012	-0,091
-663,232	136,741	-0,029	-0,028
-662,218	-167,469	0,031	-0,001
-661,203	-200,000	-0,000	-0,049
-660,189	-43,430	0,116	0,042
-659,174	-59,270	0,133	-0,041
-658,159	-105,555	-0,078	-0,013
-657,145	-48,726	-0,087	-0,030
-656,130	223,794	0,085	0,099
-655,116	437,947	0,090	0,142
-654,101	-51,664	-0,076	0,025
-653,086	-7,531	0,070	0,034
-652,072	-147,470	0,046	0,003
-651,057	84,683	-0,158	-0,125
-650,043	-200,000	0,011	-0,057
-649,028	-200,000	-0,001	0,010
-648,014	-156,592	0,184	0,008
-646,999	256,897	0,082	-0,102
-645,984	562,852	0,075	-0,132
-644,970	800,000	-0,044	-0,133
-643,955	-200,000	0,038	-0,122
-642,941	347,231	-0,066	-0,094
-641,926	16,331	-0,097	-0,055
-640,911	-104,871	0,084	-0,014
-639,897	74,058	-0,065	0,049
-638,882	-200,000	-0,014	0,145
-637,868	307,178	-0,059	-0,079
-636,853	14,404	-0,077	-0,043
-635,838	-117,771	0,189	0,024
-634,824	181,624	-0,131	-0,139
-633,809	196,441	0,027	0,030
-632,795	800,000	0,031	0,098
-631,780	49,263	0,083	0,056
-630,765	-160,600	-0,080	-0,003
-629,751	-121,763	-0,090	0,011
-628,736	266,639	0,072	0,091
-627,722	173,088	-0,103	-0,107
-626,707	-4,140	0,081	0,040
-625,692	-200,000	0,020	0,118
-624,678	-200,000	0,008	0,067
-623,663	98,866	-0,145	0,120
-622,649	116,093	0,028	0,025
-621,634	800,000	-0,056	-0,121
-620,619	-200,000	0,015	-0,057
-619,605	-144,326	0,083	0,005
-618,590	800,000	0,032	0,086
-617,576	-69,240	0,063	-0,017
-616,561	-135,252	-0,066	0,006
-615,546	180,347	-0,115	-0,122
-614,532	-123,955	-0,108	-0,012
-613,517	-200,000	-0,046	0,151
-612,503	432,088	0,027	0,042
-611,488	-56,132	0,029	0,009
-610,474	543,094	-0,088	0,152
-609,459	-163,763	0,133	0,004
-608,444	-200,000	0,003	-0,061
-607,430	-200,000	-0,019	-0,164
-606,415	53,008	0,096	0,066
-605,401	-33,657	-0,055	0,022
-604,386	22,650	-0,099	-0,058
-603,371	-101,991	0,126	0,022
-602,357	-200,000	0,035	-0,112
-601,342	-200,000	-0,007	-0,178
-600,328	800,000	-0,040	-0,117
-599,313	-20,225	0,066	-0,029
-598,298	117,536	0,011	-0,010
-597,284	23,123	-0,061	0,036
-596,269	-54,285	0,059	-0,019
-595,255	-70,962	-0,076	0,021
-594,240	-200,000	-0,040	-0,134
-593,225	-142,258	-0,181	0,013
-592,211	-200,000	0,001	0,075
-591,196	-65,926	0,131	-0,037
-590,182	194,005	-0,061	-0,067
-589,167	550,835	-0,067	0,116
-588,152	-4,806	-0,094	0,047
-587,138	-200,000	-0,012	-0,046
-586,123	191,794	0,115	-0,125
-585,109	178,751	-0,046	-0,049
-584,094	475,146	-0,018	-0,030
-583,079	-200,000	0,012	0,147
-582,065	-129,417	0,012	-0,001
-581,050	634,976	-0,012	0,021
-580,036	-77,701	-0,089	-0,022
-579,021	112,904	0,068	-0,060
-578,006	-200,000	-0,014	-0,055
-576,992	-40,121	0,116	0,043
-575,977	-200,000	0,011	-0,114
-574,963	-23,074	-0,012	-0,005
-573,948	-28,784	0,052	0,021
-572,934	-111,440	-0,049	-0,007
-571,919	111,988	-0,076	0,066
-570,904	800,000	0,029	0,067
-569,890	37,895	-0,139	-0,089
-568,875	-89,457	-0,124	0,026
-567,861	-200,000	-0,023	0,095
-566,846	-200,000	-0,012	0,060
-565,831	459,823	-0,016	-0,026
-564,817	58,722	-0,127	0,089
-563,802	214,052	-0,131	-0,149
-562,788	353,081	0,066	-0,094
-561,773	-200,000	0,016	-0,090
-560,758	-119,137	-0,130	-0,016
-559,744	-77,323	0,035	-0,009
-558,729	43,799	0,097	-0,064
-557,715	-98,203	-0,073	0,013
-556,700	90,124	-0,119	-0,096
-555,685	34,602	-0,184	0,116
-554,671	-200,000	-0,014	0,075
-553,656	-108,406	-0,093	0,014
-552,642	-200,000	-0,019	0,062
-551,627	276,567	0,115	-0,147
-550,612	-200,000	-0,011	0,155
-549,598	4,463	0,072	-0,038
-548,583	529,971	-0,006	0,010
-547,569	-163,131	-0,035	0,001
-546,554	-8,107	0,102	0,049
-545,539	-200,000	-0,034	0,115
-544,525	-21,987	0,038	0,017
-543,510	-17,212	0,023	-0,010
-542,496	800,000	-0,036	-0,086
-541,481	-200,000	0,031	-0,105
-540,466	-4,260	-0,089	0,044
-539,452	-200,000	0,021	0,083
-538,437	800,000	0,016	0,043
-537,423	16,904	0,106	0,060
-536,408	-200,000	-0,001	-0,047
-535,393	-200,000	-0,007	-0,122
-534,379	-200,000	0,001	-0,114
-533,364	46,321	-0,109	0,073
-532,350	572,984	-0,047	0,083
-531,335	5,538	0,113	0,060
-530,321	-96,226	-0,078	-0,015
-529,306	334,216	-0,045	-0,063
-528,291	25,319	-0,088	0,052
-527,277	800,000	-0,016	0,035
-526,262	-6,931	0,002	-0,001
-525,248	-113,603	-0,045	-0,006
-524,233	-105,938	-0,120	0,019
-523,218	-91,527	0,095	0,019
-522,204	-153,760	-0,053	0,003
-521,189	-87,885	-0,089	-0,019
-520,175	-134,962	0,092	-0,008
-519,160	-46,117	-0,091	0,032
-518,145	800,000	0,044	-0,091
-517,131	-58,591	0,021	0,007
-516,116	162,302	-0,107	-0,108
-515,102	-200,000	0,009	0,102
-514,087	70,432	0,038	-0,028
-513,072	203,862	-0,045	-0,050
-512,058	-27,425	-0,083	-0,035
-511,043	-82,599	0,118	-0,027
-510,029	-116,525	0,154	0,020
-509,014	-113,363	0,111	0,015
-507,999	-3,411	-0,090	-0,045
-506,985	800,000	-0,037	-0,102
-505,970	-200,000	-0,016	0,054
-504,956	800,000	0,045	-0,102
-503,941	-200,000	-0,016	0,073
-502,926	-102,440	-0,065	0,011
-501,912	800,000	-0,006	-0,016
-500,897	123,353	0,044	-0,039
-499,883	-83,718	0,021	0,005
-498,868	151,568	0,024	0,023
-497,853	-200,000	0,014	-0,069
-496,839	248,891	0,041	-0,050
-495,824	-103,099	-0,075	-0,013
-494,810	-56,277	-0,176	0,056
-493,795	547,863	0,095	0,163
-492,781	355,626	0,029	-0,041
-491,766	-160,308	-0,062	0,002
-490,751	800,000	-0,048	-0,109
-489,737	184,730	0,040	-0,043
-488,722	-200,000	0,005	0,119
-487,708	453,564	-0,096	0,153
-486,693	188,913	-0,075	-0,081
-485,678	-57,927	0,062	0,019
-484,664	-200,000	-0,013	-0,052
-483,649	109,647	0,032	-0,028
-482,635	-200,000	0,006	-0,042
-481,620	49,342	0,168	-0,113
-480,605	-200,000	-0,010	-0,104
-479,591	383,590	-0,021	-0,031
-478,576	-52,163	-0,133	-0,044
-477,562	-200,000	-0,001	-0,115
-476,547	-136,450	-0,130	0,011
-475,532	-119,286	-0,141	0,017
-474,518	-132,125	0,163	-0,015
-473,503	-200,000	0,017	0,121
-472,489	-118,279	0,055	0,007
-471,474	800,000	-0,022	0,051
-470,459	-109,642	-0,054	-0,008
-469,445	800,000	-0,058	-0,119
-468,430	-200,000	0,021	0,077
-467,416	-66,918	0,166	0,047
-466,401	301,894	0,090	-0,120
-465,386	154,081	0,038	-0,037
-464,372	800,000	0,041	0,119
-463,357	135,137	0,060	0,056
-462,343	390,387	-0,026	-0,039
-461,328	800,000	0,030	-0,062
-460,313	-170,751	0,049	0,001
-459,299	256,183	0,084	-0,103
-458,284	-75,820	0,086	0,022
-457,270	167,210	-0,058	-0,059
-456,255	689,939	-0,049	-0,093
-455,241	-12,658	0,057	0,026
-454,226	114,504	0,114	-0,099
-453,211	44,657	0,127	0,083
-452,197	-103,097	0,195	0,033
-451,182	-200,000	-0,044	0,140
-450,168	-200,000	0,006	-0,056
-449,153	-200,000	0,009	0,082
-448,138	-97,004	0,129	0,024
-447,124	105,290	-0,145	0,122
-446,109	-20,110	-0,065	0,029
-445,095	-48,460	0,134	-0,046
-444,080	7,598	-0,100	-0,053
-443,065	133,342	0,029	0,027
-442,051	-200,000	0,008	0,098
-441,036	-200,000	-0,006	-0,062
-440,022	-127,216	-0,148	0,015
-439,007	-29,984	0,089	0,036
-437,992	34,868	0,091	-0,057
-436,978	-13,360	0,145	-0,067
-435,963	-57,878	0,136	-0,042
-434,949	123,574	-0,105	0,094
-433,934	-200,000	-0,017	0,073
-432,919	-200,000	-0,050	-0,160
-431,905	-200,000	0,022	0,098
-430,890	157,875	-0,098	0,097
-429,876	-200,000	0,019	0,110
-428,861	288,350	0,060	-0,078
-427,846	116,488	0,041	0,036
-426,832	487,365	-0,029	-0,047
-425,817	-67,702	0,074	-0,021
-424,803	-1,901	0,116	0,058
-423,788	800,000	-0,034	0,095
-422,773	-146,920	-0,148	-0,009
-421,759	104,084	0,116	0,097
-420,744	800,000	0,004	-0,010
-419,730	155,980	0,047	-0,047
-418,715	637,145	0,036	-0,065
-417,701	189,716	-0,124	-0,133
-416,686	-97,952	0,077	-0,014
-415,671	800,000	-0,016	0,034
-414,657	-200,000	-0,002	0,097
-413,642	203,113	0,132	0,146
-412,628	570,076	0,055	-0,097
-411,613	-139,390	-0,090	0,007
-410,598	297,118	-0,062	-0,082
-409,584	-142,765	0,090	-0,006
-408,569	171,377	0,028	0,028
-407,555	-200,000	0,029	0,116
-406,540	800,000	-0,050	0,144
-405,525	316,997	-0,094	-0,127
-404,511	388,015	-0,081	-0,120
-403,496	-200,000	-0,019	-0,101
-402,482	-14,197	0,087	-0,040
-401,467	-200,000	0,004	0,017
-400,452	448,016	-0,066	0,104
-399,438	499,485	-0,081	-0,134
-398,423	800,000	-0,094	-0,190
-397,409	529,870	0,066	-0,112
-396,394	360,645	0,048	0,069
-395,379	-200,000	0,000	-0,036
-394,365	-113,648	0,037	-0,005
-393,350	-83,153	0,020	0,005
-392,336	11,763	0,087	-0,048
-391,321	-142,393	0,090	-0,006
-390,306	-100,084	-0,063	-0,011
-389,292	80,616	-0,072	0,055
-388,277	338,148	-0,015	0,021
-387,263	-200,000	0,008	-0,028
-386,248	-200,000	-0,022	0,289
-385,233	-104,453	-0,109	0,018
-384,219	-44,140	0,144	-0,051
-383,204	-200,000	0,015	0,061
-382,190	162,849	-0,127	-0,127
-381,175	800,000	-0,043	-0,091
-380,160	-49,455	0,019	-0,006
-379,146	-99,258	0,037	0,007
-378,131	97,153	0,099	0,081
-377,117	-200,000	-0,010	-0,134
-376,102	-200,000	-0,024	-0,157
-375,088	-200,000	0,017	0,056
-374,073	183,309	-0,164	-0,173
-373,058	450,324	0,056	-0,089
-372,044	-200,000	0,004	0,056
-371,029	79,583	0,043	0,033
-370,015	552,512	-0,102	0,176
-369,000	255,294	-0,020	-0,024
-367,985	502,124	-0,034	-0,056
-366,971	-200,000	0,004	-0,033
-365,956	-167,965	0,151	-0,004
-364,942	800,000	0,042	0,088
-363,927	-28,606	0,118	0,048
-362,912	-100,708	-0,107	0,019
-361,898	-200,000	0,005	0,055
-360,883	672,121	0,062	-0,116
-359,869	-200,000	-0,025	-0,097
-358,854	360,768	-0,030	0,043
-357,839	800,000	0,031	-0,073
-356,825	-200,000	0,022	0,072
-355,810	-200,000	-0,030	-0,130
-354,796	-200,000	-0,016	-0,086
-353,781	-21,361	-0,100	-0,043
-352,766	-60,866	-0,077	-0,023
-351,752	-124,255	0,108	0,012
-350,737	783,994	0,025	-0,050
-349,723	800,000	0,037	-0,111
-348,708	-200,000	-0,036	-0,000
-347,693	-69,017	-0,094	-0,026
-346,679	-53,862	-0,026	-0,008
-345,664	-200,000	0,005	-0,107
-344,650	-176,906	0,030	0,001
-343,635	315,819	-0,071	-0,095
-342,620	-133,423	0,072	0,006
-341,606	274,913	0,047	0,059
-340,591	259,094	-0,083	-0,102
-339,577	25,883	-0,045	-0,027
-338,562	118,295	-0,081	-0,072
-337,548	189,019	-0,043	0,046
-336,533	-200,000	-0,003	0,075
-335,518	421,177	0,055	0,084
-334,504	179,469	-0,023	0,024
-333,489	-58,363	0,096	-0,030
-332,475	74,781	-0,107	0,080
-331,460	102,046	0,084	0,070
-330,445	-166,542	-0,122	0,004
-329,431	-61,212	0,068	0,020
-328,416	194,792	-0,089	-0,096
-327,402	-43,958	0,126	0,045
-326,387	264,621	-0,080	0,099
-325,372	138,084	0,052	0,048
-324,358	-200,000	-0,008	-0,167
-323,343	-200,000	-0,009	-0,075
-322,329	800,000	-0,053	0,129
-321,314	753,951	0,040	0,078
-320,299	-92,399	-0,037	0,007
-319,285	-167,217	0,034	0,001
-318,270	-200,000	0,017	-0,064
-317,256	-186,914	0,099	0,001
-316,241	-200,000	-0,008	0,129
-315,226	-62,328	0,044	0,013
-314,212	-69,764	0,103	-0,028
-313,197	-11,029	-0,080	0,038
-312,183	3,282	-0,100	-0,052
-311,168	-200,000	0,015	0,124
-310,153	45,804	-0,066	0,043
-309,139	329,167	-0,042	-0,058
-308,124	424,713	-0,025	-0,039
-307,110	190,122	0,067	0,072
-306,095	70,835	0,101	-0,075
-305,080	49,007	-0,078	0,052
-304,066	-92,302	-0,019	-0,004
-303,051	363,964	-0,105	-0,151
-302,037	24,774	-0,030	-0,018
-301,022	110,634	-0,065	-0,056
-300,008	-200,000	0,000	0,053
-298,993	-200,000	-0,010	0,058
-297,978	450,835	0,116	0,183
-296,964	-200,000	0,003	-0,043
-295,949	-200,000	0,009	-0,084
-294,935	-95,800	-0,081	-0,015
-293,920	19,328	0,049	-0,028
-292,905	3,249	0,185	0,095
-291,891	268,946	0,087	0,109
-290,876	800,000	-0,070	0,166
-289,862	-127,084	0,071	-0,007
-288,847	-193,363	-0,033	0,000
-287,832	18,864	0,029	-0,016
-286,818	-73,692	-0,035	-0,009
-285,803	535,031	-0,012	0,021
-284,789	-176,633	0,116	-0,002
-283,774	173,968	0,079	0,081
-282,759	-84,777	-0,143	-0,032
-281,745	-200,000	-0,008	-0,063
-280,730	-48,942	-0,033	-0,011
-279,716	-200,000	-0,006	0,090
-278,701	-117,703	0,152	0,019
-277,686	-2,239	-0,028	-0,014
-276,672	122,887	0,019	0,017
-275,657	-3,857	-0,137	0,067
-274,643	-200,000	0,003	-0,174
-273,628	-200,000	0,008	-0,057
-272,613	-65,776	0,047	-0,013
-271,599	40,499	0,132	-0,084
-270,584	-19,920	0,058	-0,026
-269,570	253,843	0,036	0,044
-268,555	800,000	0,035	0,080
-267,540	-200,000	-0,025	0,088
-266,526	113,718	-0,133	0,115
-265,511	800,000	0,025	0,060
-264,497	-56,338	-0,069	0,022
-263,482	-200,000	0,031	-0,116
-262,467	344,327	0,111	0,155
-261,453	279,378	0,028	0,036
-260,438	484,602	0,051	-0,083
-259,424	57,469	0,060	-0,041
-258,409	-190,326	0,069	0,001
-257,395	-200,000	0,020	0,103
-256,380	184,772	-0,042	0,044
-255,365	-5,283	0,189	-0,092
-254,351	-5,766	0,023	0,011
-253,336	301,514	-0,057	0,076
-252,322	800,000	-0,021	0,042
-251,307	-1,100	0,077	-0,039
-250,292	73,767	-0,129	-0,096
-249,278	-200,000	0,030	0,150
-248,263	1,344	0,109	0,056
-247,249	800,000	0,026	0,080
-246,234	800,000	-0,051	0,105
-245,219	-40,748	0,072	-0,026
-244,205	258,514	0,061	0,075
-243,190	-48,841	-0,103	0,035
-242,176	-200,000	0,024	-0,164
-241,161	-200,000	-0,010	0,123
-240,146	259,457	0,025	-0,030
-239,132	-200,000	-0,005	-0,119
-238,117	632,107	0,054	0,097
-237,103	-200,000	-0,018	0,080
-236,088	-200,000	0,003	-0,056
-235,073	633,870	-0,066	0,120
-234,059	132,544	-0,036	-0,033
-233,044	373,952	0,048	0,070
-232,030	60,769	0,011	-0,008
-231,015	55,018	-0,032	-0,022
-230,000	-200,000	0,021	0,093
-228,986	-200,000	0,011	0,064
-227,971	-56,617	0,102	-0,032
-226,957	39,698	0,092	0,059
-225,942	-200,000	0,012	0,158
-224,927	-140,725	-0,114	-0,008
-223,913	68,324	-0,141	0,102
-222,898	197,218	0,002	-0,002
-221,884	-34,535	-0,014	-0,006
-220,869	-32,299	-0,114	0,045
-219,855	33,743	0,155	0,095
-218,840	10,976	0,150	0,081
-217,825	9,683	0,104	0,056
-216,811	336,725	-0,078	-0,108
-215,796	800,000	0,014	-0,037
-214,782	637,316	0,009	-0,017
-213,767	552,838	0,072	0,124
-212,752	800,000	-0,063	0,185
-211,738	-96,461	-0,208	0,039
-210,723	15,342	0,009	0,005
-209,709	800,000	-0,043	-0,111
-208,694	800,000	-0,014	0,042
-207,679	-200,000	-0,038	-0,274
-206,665	-34,859	0,092	-0,035
-205,650	376,745	0,038	0,055
-204,636	598,260	0,053	0,093
-203,621	800,000	0,008	0,018
-202,606	11,973	-0,061	0,033
-201,592	20,555	-0,123	-0,070
-200,577	693,458	0,087	-0,162
-199,563	-82,324	-0,067	0,015
-198,548	800,000	-0,040	0,094
-197,533	48,286	0,058	-0,038
-196,519	-117,732	0,140	-0,018
-195,504	138,828	-0,143	0,133
-194,490	16,026	-0,033	-0,018
-193,475	-115,507	0,053	-0,007
-192,460	-200,000	-0,011	0,108
-191,446	-67,617	0,099	0,027
-190,431	-166,387	0,167	-0,005
-189,417	-81,379	-0,073	0,017
-188,402	151,278	0,059	0,057
-187,387	117,670	-0,194	-0,169
-186,373	-200,000	0,019	-0,133
-185,358	10,106	-0,067	0,036
-184,344	800,000	-0,084	0,179
-183,329	382,308	0,043	0,064
-182,315	332,761	0,084	0,116
-181,300	69,675	0,100	-0,073
-180,285	229,066	-0,079	-0,091
-179,271	-11,259	-0,204	0,095
-178,256	800,000	0,028	0,055
-177,242	-94,029	0,078	0,015
-176,227	-34,940	0,116	-0,045
-175,212	800,000	0,043	-0,086
-174,198	413,789	-0,057	-0,086
-173,183	-37,807	-0,150	-0,056
-172,169	-30,272	-0,048	0,019
-171,154	90,526	-0,073	-0,058
-170,139	-42,913	0,079	0,028
-169,125	-137,846	0,102	-0,008
-168,110	800,000	-0,038	0,083
-167,096	-24,146	-0,078	0,033
-166,081	-200,000	0,007	-0,038
-165,066	-200,000	0,032	-0,117
-164,052	-172,068	-0,081	0,002
-163,037	-67,427	0,061	0,017
-162,023	-200,000	0,007	0,107
-161,008	800,000	0,008	-0,016
-159,993	-157,698	-0,041	0,002
-158,979	-200,000	-0,004	-0,129
-157,964	-200,000	-0,021	-0,089
-156,950	-95,165	-0,083	0,016
-155,935	-29,103	-0,124	0,050
-154,920	800,000	-0,019	0,053
-153,906	-56,910	0,117	0,036
-152,891	46,901	0,143	0,094
-151,877	342,839	-0,033	-0,045
-150,862	-41,099	0,111	0,040
-149,847	-200,000	-0,030	0,103
-148,833	42,568	0,077	0,050
-147,818	-200,000	-0,030	0,133
-146,804	193,357	0,066	0,070
-145,789	-84,826	0,026	0,006
-144,775	-119,175	0,150	0,018
-143,760	3,063	0,119	-0,061
-142,745	-70,622	-0,022	0,006
-141,731	-86,248	0,164	0,036
-140,716	-76,681	-0,202	-0,050
-139,702	-54,546	0,078	0,025
-138,687	264,159	-0,048	0,059
-137,672	-171,030	-0,175	-0,004
-136,658	85,710	0,129	-0,101
-135,643	-141,538	-0,106	0,007
-134,629	-154,541	0,109	0,005
-133,614	343,231	0,053	-0,074
-132,599	-200,000	0,017	0,062
-131,585	387,104	0,033	0,048
-130,570	-200,000	-0,001	0,039
-129,556	-200,000	0,001	-0,067
-128,541	147,854	-0,024	-0,023
-127,526	-200,000	0,019	-0,097
-126,512	-200,000	-0,028	0,111
-125,497	-134,949	0,127	0,011
-124,483	-200,000	0,035	0,147
-123,468	-122,993	-0,079	0,009
-122,453	-39,657	0,068	-0,025
-121,439	-48,235	-0,067	0,023
-120,424	116,334	-0,069	-0,060
-119,410	-50,878	0,193	0,064
-118,395	527,714	0,095	0,159
-117,380	678,670	-0,046	0,084
-116,366	-145,161	0,090	0,006
-115,351	800,000	0,028	0,082
-114,337	-132,445	-0,089	-0,008
-113,322	800,000	0,065	-0,156
-112,307	419,061	0,019	0,029
-111,293	11,395	0,096	-0,052
-110,278	-200,000	-0,054	0,199
-109,264	-87,490	-0,032	0,007
-108,249	-94,412	-0,170	-0,033
-107,234	355,088	0,068	-0,096
-106,220	202,790	0,069	-0,075
-105,205	28,248	0,113	0,068
-104,191	19,200	-0,098	-0,055
-103,176	-81,561	0,121	0,028
-102,162	-200,000	-0,015	-0,053
-101,147	43,169	-0,019	0,012
-100,132	800,000	-0,058	-0,121
-99,118	-200,000	-0,028	-0,096
-98,103	-200,000	0,002	-0,032
-97,089	-200,000	-0,007	0,056
-96,074	-191,617	0,098	-0,001
-95,059	145,827	-0,129	-0,122
-94,045	-90,040	-0,089	-0,018
-93,030	800,000	-0,028	-0,071
-92,016	-18,282	-0,059	0,026
-91,001	290,995	-0,013	0,017
-89,986	800,000	-0,037	-0,076
-88,972	-23,115	0,101	-0,043
-87,957	800,000	-0,057	0,151
-86,943	-200,000	0,008	-0,079
-85,928	-200,000	0,026	-0,084
-84,913	279,527	-0,092	0,116
-83,899	-146,458	0,035	0,002
-82,884	-200,000	-0,006	-0,054
-81,870	483,705	0,005	-0,008
-80,855	46,019	-0,083	0,054
-79,840	-200,000	0,024	0,105
-78,826	-183,563	-0,083	-0,001
-77,811	633,177	-0,011	-0,019
-76,797	800,000	-0,041	0,112
-75,782	-5,413	0,094	0,045
-74,767	-85,216	0,109	0,024
-73,753	-92,640	0,050	0,010
-72,738	-171,065	-0,070	-0,002
-71,724	-92,874	-0,030	0,006
-70,709	359,972	0,067	-0,095
-69,694	800,000	-0,023	0,050
-68,680	19,525	0,122	0,069
-67,665	547,869	-0,081	-0,138
-66,651	-86,745	0,066	0,014
-65,636	-91,944	0,046	0,009
-64,622	-200,000	0,035	-0,188
-63,607	175,987	-0,097	-0,099
-62,592	-200,000	0,032	0,144
-61,578	-75,496	-0,060	-0,015
-60,563	-60,309	0,117	-0,035
-59,549	-87,046	-0,156	-0,033
-58,534	17,988	-1,958	-1,098
-57,519	406,572	-1,325	-1,981
-56,505	-200,000	-0,376	-4,416
-55,490	495,287	0,911	1,483
-54,476	800,000	5,100	11,300
-53,461	-200,000	21,238	337,834
-52,446	800,000	758,214	2347,022
-51,432	556,439	1661,116	2834,741
-50,417	73,415	1661,502	1225,661
-49,403	18,077	1534,938	861,142
-48,388	12,062	1458,279	789,060
-47,373	19,302	1448,990	818,719
-46,359	15,476	1438,335	794,483
-45,344	10,371	1434,156	767,856
-44,330	10,300	1432,307	766,497
-43,315	10,245	1430,601	765,294
-42,300	10,282	1428,726	764,435
-41,286	10,298	1427,653	763,905
-40,271	10,280	1426,266	763,048
-39,257	10,262	1425,293	762,410
-38,242	10,348	1424,069	762,136
-37,227	10,315	1423,071	761,416
-36,213	10,347	1421,716	760,812
-35,198	10,349	1420,304	760,036
-34,184	10,329	1419,547	759,506
-33,169	10,271	1418,351	758,562
-32,154	10,319	1417,426	758,260
-31,140	10,371	1415,872	757,647
-30,125	10,419	1414,917	757,331
-29,111	10,391	1413,616	756,470
-28,096	10,351	1412,426	755,618
-27,082	10,263	1411,456	754,656
-26,067	10,248	1410,546	754,071
-25,052	10,310	1409,268	753,645
-24,038	10,301	1408,514	753,171
-23,023	10,281	1407,681	752,602
-22,009	10,294	1406,332	751,912
-20,994	10,284	1405,354	751,310
-19,979	10,247	1404,642	750,729
-18,965	10,264	1403,540	750,189
-17,950	10,315	1402,411	749,792
-16,936	10,233	1401,866	749,092
-15,921	10,174	1400,954	748,301
-14,906	10,162	1400,079	747,746
-13,892	10,246	1398,944	747,502
-12,877	10,218	1397,976	746,824
-11,863	10,191	1397,327	746,321
-10,848	10,155	1396,328	745,591
-9,833	10,182	1395,509	745,249
-8,819	10,079	1394,775	744,354
-7,804	10,049	1393,813	743,672
-6,790	10,072	1392,919	743,271
-5,775	10,112	1391,743	742,799
-4,760	10,089	1390,810	742,162
-3,746	10,091	1389,773	741,590
-2,731	10,102	1388,907	741,148
-1,717	10,056	1388,082	740,470
-0,702	10,096	1386,407	739,731
0,313	14,196	1299,102	711,873
1,327	30,353	690,255	414,854
2,342	46,854	119,546	78,202
3,356	-0,150	16,492	8,247
4,371	4,132	3,445	1,772
5,386	16,961	0,967	0,538
6,400	429,122	0,271	0,415
7,415	-154,787	-0,172	-0,008
8,429	126,931	-0,253	-0,226
9,444	-13,744	-0,353	-0,160
10,459	101,150	-0,224	-0,184
11,473	-174,502	-0,258	-0,005
12,488	-16,963	-0,317	-0,140
13,502	271,273	-0,159	-0,197
14,517	-105,825	-0,359	-0,056
15,531	8,261	-0,387	-0,204
16,546	-2,735	-0,271	-0,133
17,561	44,677	-0,393	-0,254
18,575	-26,756	-0,251	0,103
19,590	150,853	-0,270	-0,259
20,604	-40,024	-0,316	-0,115
21,619	20,458	-0,446	-0,253
22,634	175,568	-0,388	-0,396
23,648	127,032	-0,390	-0,348
24,663	81,305	-0,425	-0,323
25,677	52,447	-0,435	-0,292
26,692	-90,589	-0,263	-0,053
27,707	11,473	-0,371	-0,200
28,721	12,684	-0,469	-0,254
29,736	25,100	-0,467	-0,272
30,750	213,033	-0,327	-0,363
31,765	15,578	-0,358	-0,197
32,780	44,145	-0,354	-0,228
33,794	109,922	-0,213	-0,180
34,809	-7,430	-0,441	-0,209
35,823	0,316	-0,407	-0,203
36,838	213,240	-0,297	-0,330
37,853	209,967	-0,344	-0,380
38,867	100,510	-0,409	-0,334
39,882	-2,742	-0,430	-0,210
40,896	48,889	-0,266	-0,175
41,911	34,309	-0,298	-0,182
42,926	25,670	-0,366	-0,213
43,940	1,815	-0,454	-0,229
44,955	273,886	-0,308	-0,383
45,969	217,701	-0,284	-0,319
46,984	307,348	-0,335	-0,439
47,999	42,846	-0,315	-0,201
49,013	195,126	-0,328	-0,350
50,028	46,787	-0,338	-0,220
51,042	85,142	-0,277	-0,213
52,057	53,452	-0,254	-0,171
53,071	64,435	-0,317	-0,224
54,086	158,758	-0,270	-0,264
55,101	45,696	-0,272	-0,176
56,115	83,986	-0,345	-0,264
57,130	101,471	-0,363	-0,297
58,144	58,626	-0,381	-0,262
59,159	173,180	-0,332	-0,336
60,174	33,557	-0,416	-0,253
61,188	97,513	-0,401	-0,323
62,203	112,064	-0,349	-0,296
63,217	178,239	-0,292	-0,300
64,232	-20,622	-0,365	-0,157
65,247	377,275	-0,264	-0,379
66,261	57,484	-0,412	-0,282
67,276	-10,585	-0,363	-0,168
68,290	43,027	-0,300	-0,192
69,305	107,692	-0,324	-0,270
70,320	106,381	-0,329	-0,273
71,334	131,064	-0,275	-0,247
72,349	54,541	-0,229	-0,154
73,363	61,274	-0,351	-0,244
74,378	29,738	-0,332	-0,198
75,393	-41,882	-0,257	-0,092
76,407	125,512	-0,242	-0,214
77,422	55,209	-0,233	-0,157
78,436	-59,856	-0,331	-0,099
79,451	67,449	-0,273	-0,195
80,466	-26,564	-0,279	-0,114
81,480	225,348	-0,208	-0,236
82,495	227,186	-0,205	-0,233
83,509	143,985	-0,226	-0,211
84,524	-36,826	-0,464	-0,173
85,539	-185,382	-0,277	0,003
86,553	-73,772	-0,291	-0,073
87,568	369,681	-0,210	-0,299
88,582	60,992	-0,336	-0,233
89,597	80,467	-0,264	-0,199
90,611	18,005	-0,292	-0,162
91,626	-68,736	-0,298	-0,080
92,641	5,504	-0,371	-0,191
93,655	183,165	-0,165	-0,170
94,670	74,196	-0,260	-0,191
95,684	-56,499	-0,376	-0,116
96,699	126,857	-0,323	-0,286
97,714	299,868	-0,225	-0,291
98,728	154,227	-0,262	-0,251
99,743	148,835	-0,227	-0,215
100,757	24,846	-0,219	-0,127
101,772	157,726	-0,271	-0,263
102,787	188,826	-0,255	-0,267
103,801	100,783	-0,341	-0,277
104,816	65,822	-0,289	-0,204
105,830	11,527	-0,290	-0,155
106,845	-93,192	-0,386	-0,074
107,860	8,910	-0,321	-0,169
108,874	395,409	-0,165	-0,241
109,889	48,416	-0,415	-0,271
110,903	800,000	-0,123	-0,244
111,918	43,635	-0,319	-0,203
112,933	489,116	-0,167	-0,267
113,947	187,313	-0,240	-0,250
114,962	198,878	-0,266	-0,285
115,976	800,000	-0,142	-0,287
116,991	-3,476	-0,280	-0,135
118,006	25,132	-0,205	-0,118
119,020	77,466	-0,220	-0,163
120,035	-71,560	-0,415	-0,107
121,049	71,460	-0,199	-0,144
122,064	-154,205	-0,249	0,012
123,079	-24,056	-0,297	-0,123
124,093	-57,166	-0,298	-0,091
125,108	127,009	-0,230	-0,204
126,122	128,340	-0,238	-0,211
127,137	261,703	-0,157	-0,190
128,151	-10,387	-0,323	-0,149
129,166	291,683	-0,246	-0,313
130,181	93,123	-0,330	-0,260
131,195	-119,231	-0,235	-0,028
132,210	315,186	-0,141	-0,186
133,224	28,669	-0,233	-0,137
134,239	55,232	-0,221	-0,149
135,254	-50,281	-0,266	-0,087
136,268	-12,943	-0,344	-0,155
137,283	353,906	-0,295	-0,409
138,297	-8,128	-0,255	-0,119
139,312	105,160	-0,365	-0,300
140,327	265,313	-0,208	-0,253
141,341	240,528	-0,240	-0,279
142,356	-0,620	-0,316	-0,156
143,370	100,744	-0,204	-0,165
144,385	-106,018	-0,207	-0,032
145,400	26,329	-0,250	-0,145
146,414	183,227	-0,183	-0,188
147,429	-34,892	-0,342	-0,130
148,443	144,361	-0,207	-0,193
149,458	158,976	-0,174	-0,168
150,473	28,878	-0,223	-0,131
151,487	-200,000	-0,039	-0,223
152,502	-145,777	-0,165	-0,010
153,516	-54,317	-0,265	-0,083
154,531	34,877	-0,240	-0,146
155,546	687,100	-0,117	-0,214
156,560	-76,696	-0,194	-0,047
157,575	6,749	-0,235	-0,121
158,589	-29,199	-0,213	-0,085
159,604	62,466	-0,319	-0,221
160,619	73,771	-0,248	-0,181
161,633	-111,259	-0,227	-0,032
162,648	-5,897	-0,218	-0,103
163,662	60,406	-0,170	-0,117
164,677	142,455	-0,133	-0,122
165,692	-120,524	-0,244	-0,028
166,706	316,946	-0,215	-0,283
167,721	521,605	-0,142	-0,232
168,735	170,876	-0,290	-0,289
169,750	3,062	-0,187	-0,094
170,764	240,311	-0,090	-0,104
171,779	-42,087	-0,288	-0,102
172,794	358,930	-0,132	-0,184
173,808	-103,333	-0,214	0,035
174,823	109,655	-0,251	-0,209
175,837	84,191	-0,230	-0,174
176,852	49,020	-0,251	-0,164
177,867	559,579	-0,157	-0,264
178,881	111,292	-0,293	-0,245
179,896	206,182	-0,173	-0,187
180,910	131,565	-0,218	-0,194
181,925	697,719	-0,162	-0,297
182,940	598,638	-0,217	-0,375
183,954	255,560	-0,186	-0,222
184,969	288,164	-0,165	-0,208
185,983	-0,353	-0,231	-0,114
186,998	-78,879	-0,215	-0,050
188,013	97,929	-0,189	-0,151
189,027	114,918	-0,331	-0,280
190,042	477,226	-0,185	-0,291
191,056	205,796	-0,221	-0,238
192,071	81,221	-0,174	-0,130
193,086	159,042	-0,156	-0,150
194,100	210,162	-0,089	-0,097
195,115	24,877	-0,250	-0,143
196,129	122,711	-0,186	-0,161
197,144	365,957	-0,222	-0,312
198,159	131,353	-0,243	-0,217
199,173	158,773	-0,197	-0,190
200,188	800,000	-0,038	-0,074
201,202	92,215	-0,219	-0,171
202,217	182,134	-0,093	-0,095
203,232	50,719	-0,216	-0,142
204,246	40,000	-0,254	-0,158
205,261	116,446	-0,219	-0,186
206,275	374,012	-0,156	-0,220
207,290	139,936	-0,139	-0,127
208,304	22,264	-0,110	-0,062
209,319	241,538	-0,174	-0,201
210,334	-9,865	-0,295	-0,136
211,348	13,423	-0,248	-0,133
212,363	800,000	-0,066	-0,150
213,377	286,314	-0,071	-0,089
214,392	46,012	-0,155	-0,099
215,407	800,000	-0,123	-0,263
216,421	72,272	-0,295	-0,212
217,436	58,108	-0,127	-0,086
218,450	-162,213	-0,111	0,004
219,465	234,671	-0,120	-0,137
220,480	652,104	-0,097	-0,172
221,494	-28,438	-0,201	-0,080
222,509	-29,870	-0,162	0,064
223,523	-146,109	-0,139	-0,008
224,538	10,188	-0,163	-0,085
225,553	-42,051	-0,216	-0,076
226,567	86,701	-0,168	-0,128
227,582	-200,000	0,034	-0,138
228,596	113,320	-0,157	-0,132
229,611	-14,707	-0,248	-0,110
230,626	800,000	-0,074	-0,173
231,640	244,590	-0,128	-0,149
232,655	-135,082	-0,261	-0,021
233,669	-94,504	-0,179	-0,033
234,684	428,163	-0,104	-0,155
235,699	-200,000	-0,015	-0,219
236,713	419,960	-0,116	-0,172
237,728	-35,487	-0,174	-0,065
238,742	4,675	-0,218	-0,110
239,757	77,346	-0,142	-0,104
240,772	247,625	-0,186	-0,217
241,786	174,277	-0,155	-0,155
242,801	351,358	-0,113	-0,156
243,815	-38,278	-0,217	-0,079
244,830	537,222	-0,097	-0,159
245,844	41,230	-0,210	-0,131
246,859	49,432	-0,161	-0,104
247,874	109,824	-0,196	-0,162
248,888	251,483	-0,214	-0,251
249,903	-133,484	-0,070	-0,006
250,917	800,000	0,015	-0,036
251,932	-10,534	-0,220	-0,100
252,947	-129,107	-0,223	0,021
253,961	528,046	-0,111	-0,182
254,976	89,011	-0,068	-0,052
255,990	-53,245	-0,311	-0,098
257,005	284,495	-0,120	-0,149
258,020	72,425	-0,172	-0,123
259,034	-9,976	-0,126	-0,058
260,049	295,794	-0,213	-0,270
261,063	-18,044	-0,164	-0,071
262,078	-5,390	-0,237	-0,112
263,093	117,417	-0,204	-0,173
264,107	156,423	-0,239	-0,227
265,122	-200,000	-0,066	-0,248
266,136	2,047	-0,226	-0,112
267,151	148,828	-0,086	-0,080
268,166	112,124	-0,184	-0,153
269,180	128,583	-0,236	-0,207
270,195	273,890	-0,106	-0,129
271,209	-116,451	-0,059	-0,007
272,224	-64,050	-0,177	-0,049
273,239	15,139	-0,134	-0,072
274,253	445,751	-0,082	-0,125
275,268	-116,121	-0,271	-0,034
276,282	19,072	-0,072	-0,040
277,297	160,329	-0,263	-0,253
278,312	382,777	-0,128	-0,181
279,326	-200,000	-0,028	-0,095
280,341	37,925	-0,105	-0,064
281,355	119,158	-0,221	-0,188
282,370	38,194	-0,208	-0,127
283,384	104,266	-0,138	-0,112
284,399	252,950	-0,162	-0,190
285,414	800,000	-0,083	-0,178
286,428	226,562	-0,143	-0,160
287,443	63,111	-0,146	-0,101
288,457	-36,778	-0,217	-0,080
289,472	5,500	-0,127	-0,064
290,487	64,236	-0,143	-0,099
291,501	-165,622	-0,225	0,007
292,516	4,929	-0,141	0,071
293,530	600,189	-0,074	-0,127
294,545	65,401	-0,052	0,036
295,560	2,407	-0,111	0,055
296,574	263,319	-0,177	-0,212
297,589	-49,898	-0,121	-0,039
298,603	238,702	-0,123	-0,140
299,618	800,000	-0,090	-0,195
300,633	450,673	-0,113	-0,172
301,647	122,693	-0,111	-0,095
302,662	35,159	-0,183	-0,110
303,676	326,992	-0,086	-0,114
304,691	-86,577	-0,120	-0,025
305,706	31,318	-0,110	-0,065
306,720	-118,864	-0,268	-0,032
307,735	-49,207	-0,195	0,063
308,749	-84,523	-0,192	-0,041
309,764	-83,120	-0,137	-0,030
310,779	-90,703	-0,358	-0,070
311,793	219,147	-0,164	-0,180
312,808	800,000	-0,033	-0,085
313,822	-200,000	-0,037	-0,150
314,837	12,798	-0,191	-0,101
315,852	48,570	-0,084	-0,054
316,866	-50,236	-0,117	-0,038
317,881	-177,673	-0,112	0,002
318,895	-61,034	-0,135	-0,039
319,910	-109,649	-0,191	-0,027
320,925	25,036	-0,235	-0,133
321,939	-75,419	-0,165	-0,040
322,954	-165,790	-0,064	-0,002
323,968	-200,000	-0,009	-0,185
324,983	31,990	-0,100	-0,059
325,997	39,761	-0,219	-0,134
327,012	271,060	-0,215	-0,260
328,027	21,980	-0,086	-0,048
329,041	-0,126	-0,157	-0,076
330,056	35,447	-0,148	0,089
331,070	116,437	-0,140	-0,118
332,085	267,123	-0,118	-0,141
333,100	-54,825	-0,200	-0,061
334,114	23,977	-0,102	-0,057
335,129	196,103	-0,185	-0,193
336,143	224,978	-0,208	-0,230
337,158	800,000	-0,067	-0,138
338,173	-200,000	-0,015	-0,068
339,187	234,116	-0,062	-0,070
340,202	-51,181	-0,205	-0,065
341,216	-200,000	-0,041	-0,157
342,231	800,000	-0,061	-0,161
343,246	181,764	-0,174	-0,175
344,260	182,197	-0,214	-0,216
345,275	46,921	-0,075	-0,048
346,289	-21,062	-0,253	-0,105
347,304	-77,910	-0,239	-0,056
348,319	-5,534	-0,125	-0,059
349,333	800,000	-0,104	-0,232
350,348	434,248	-0,132	-0,197
351,362	383,288	-0,175	-0,246
352,377	-200,000	-0,034	-0,152
353,392	435,180	0,029	0,043
354,406	-131,317	-0,135	0,012
355,421	207,911	1306,469	1396,718
356,435	159,958	1466,176	1397,204
