DTS Sentinel unit serial number:	SN410029Multiplexer serial number:	ORYXHardware model number:	OX2-SRSoftware version number:	ORYX F/W v4,00 Oryx Data Collector v3.7.2.0data status	okinstallation	B3 Nyhavnadifferential loss correction	single-endedforward channel	channel 1reverse channel	N/Adate	2023/12/03time	11:07:30forward acquisition time	300,00reverse acquisition time	0,00gamma	499,1914k internal	0,3201k external	0,3201temperature offset calibration	1,0000default loss term (dB/km)	0,3820temperature slope calibration	1,0000multiplexer offset coefficient	1,0000multiplexer slope coefficient	1,0000fibre end	0,00T internal ref (°C)	13,47T ext. ref 1 (°C)	-1,33T ext. ref 2 (°C)	-1,33length (m)	temperature (°C)	Stokes	anti-Stokes-744,400	411,420	-0,199	-0,308
-743,385	-200,000	0,049	0,284
-742,371	408,783	-0,180	-0,278
-741,356	800,000	0,105	0,254
-740,342	39,080	-0,235	-0,152
-739,327	800,000	0,074	0,213
-738,312	380,745	-0,150	-0,224
-737,298	-200,000	-0,054	0,258
-736,283	388,448	-0,262	-0,395
-735,269	-200,000	0,065	0,341
-734,254	30,852	-0,230	-0,143
-733,239	-111,390	-0,225	-0,033
-732,225	-200,000	0,001	-0,223
-731,210	206,917	0,074	0,084
-730,196	-114,845	-0,156	0,021
-729,181	35,999	-0,113	-0,072
-728,167	43,186	0,081	-0,054
-727,152	-20,768	-0,061	-0,027
-726,137	-189,027	-0,127	-0,001
-725,123	327,361	-0,138	-0,194
-724,108	-200,000	-0,038	-0,133
-723,094	71,086	-0,137	-0,103
-722,079	369,534	-0,055	-0,081
-721,064	312,011	-0,042	-0,057
-720,050	124,505	-0,129	0,118
-719,035	30,707	-0,075	0,047
-718,021	96,482	0,054	0,045
-717,006	189,424	-0,065	-0,071
-715,991	39,073	-0,124	0,080
-714,977	-174,965	-0,169	0,003
-713,962	179,728	-0,057	-0,061
-712,948	25,094	0,050	0,030
-711,933	800,000	-0,024	-0,060
-710,918	-200,000	-0,006	0,035
-709,904	800,000	0,007	-0,017
-708,889	-31,821	-0,120	-0,049
-707,875	-17,462	0,046	-0,021
-706,860	-173,626	-0,081	0,002
-705,845	800,000	-0,037	0,094
-704,831	800,000	0,039	0,101
-703,816	319,541	0,031	0,042
-702,802	-200,000	0,020	-0,143
-701,787	371,910	0,060	0,088
-700,772	423,902	-0,029	-0,045
-699,758	-200,000	0,014	-0,155
-698,743	-200,000	0,036	0,137
-697,729	-200,000	0,001	0,142
-696,714	109,520	0,050	-0,043
-695,699	61,472	0,043	0,031
-694,685	-200,000	0,013	0,135
-693,670	-158,704	-0,032	0,001
-692,656	-200,000	-0,018	0,066
-691,641	-168,671	0,112	-0,003
-690,627	-200,000	0,048	0,156
-689,612	30,382	0,103	0,064
-688,597	-200,000	0,031	0,118
-687,583	-200,000	-0,000	-0,093
-686,568	17,104	-0,101	-0,058
-685,554	338,427	-0,055	-0,079
-684,539	119,010	0,067	0,060
-683,524	-66,843	0,191	0,054
-682,510	335,999	0,058	-0,082
-681,495	-200,000	-0,005	-0,060
-680,481	148,310	-0,115	-0,113
-679,466	-200,000	-0,017	-0,081
-678,451	84,517	-0,117	-0,093
-677,437	-200,000	-0,019	-0,163
-676,422	-9,740	-0,082	0,039
-675,408	743,337	0,010	-0,019
-674,393	-200,000	-0,010	-0,079
-673,378	800,000	0,014	-0,039
-672,364	431,673	-0,011	-0,017
-671,349	800,000	-0,061	-0,163
-670,335	-60,750	0,095	-0,029
-669,320	800,000	-0,039	0,096
-668,305	-58,442	-0,128	0,040
-667,291	800,000	0,013	-0,028
-666,276	-200,000	-0,000	-0,028
-665,262	227,960	-0,145	-0,171
-664,247	82,782	0,030	0,024
-663,232	-44,690	0,120	0,043
-662,218	554,015	-0,069	0,122
-661,203	-200,000	0,009	-0,032
-660,189	-200,000	0,001	0,079
-659,174	125,350	0,016	-0,015
-658,159	-200,000	0,003	-0,256
-657,145	26,930	-0,079	-0,048
-656,130	800,000	-0,016	-0,038
-655,116	-200,000	0,013	0,044
-654,101	-126,604	0,138	0,015
-653,086	800,000	0,018	-0,040
-652,072	96,570	-0,079	-0,065
-651,057	-200,000	-0,005	-0,024
-650,043	235,431	-0,074	-0,089
-649,028	532,887	-0,035	0,060
-648,014	-131,788	0,028	-0,003
-646,999	19,652	-0,062	0,036
-645,984	359,902	-0,068	0,098
-644,970	-200,000	-0,017	-0,081
-643,955	800,000	-0,056	-0,129
-642,941	-9,842	-0,012	0,006
-641,926	189,118	-0,137	-0,149
-640,911	-200,000	-0,066	-0,000
-639,897	233,557	0,103	-0,124
-638,882	-200,000	0,011	0,074
-637,868	-200,000	-0,026	0,116
-636,853	-200,000	0,006	0,076
-635,838	20,867	-0,163	-0,096
-634,824	-87,748	0,187	-0,040
-633,809	17,337	0,118	0,067
-632,795	-94,820	-0,041	0,008
-631,780	175,572	0,017	0,018
-630,765	-162,955	0,041	0,001
-629,751	-200,000	-0,056	-0,255
-628,736	-18,863	-0,221	-0,099
-627,722	-1,760	-0,079	-0,040
-626,707	-177,731	0,025	-0,000
-625,692	-111,878	0,193	-0,028
-624,678	800,000	0,033	0,085
-623,663	800,000	0,048	0,128
-622,649	746,030	-0,017	0,033
-621,634	135,144	-0,057	-0,054
-620,619	381,005	-0,058	0,087
-619,605	-139,350	0,092	-0,007
-618,590	-70,554	0,080	-0,022
-617,576	161,378	0,075	-0,076
-616,561	48,935	-0,079	0,053
-615,546	800,000	0,068	-0,169
-614,532	-76,278	0,027	0,007
-613,517	135,432	-0,030	0,028
-612,503	766,273	-0,057	-0,113
-611,488	-200,000	0,040	-0,167
-610,474	800,000	0,051	-0,145
-609,459	-200,000	-0,025	-0,151
-608,444	800,000	-0,053	-0,125
-607,430	-200,000	-0,128	0,000
-606,415	602,688	-0,072	0,131
-605,401	-42,412	0,116	-0,043
-604,386	38,725	0,113	-0,073
-603,371	135,769	0,041	0,038
-602,357	-200,000	0,017	0,076
-601,342	800,000	0,032	-0,099
-600,328	627,852	-0,026	0,049
-599,313	-57,718	-0,054	0,017
-598,298	800,000	-0,028	-0,077
-597,284	209,954	-0,024	-0,028
-596,269	-200,000	-0,003	0,011
-595,255	-169,441	0,150	-0,004
-594,240	-200,000	-0,029	0,109
-593,225	-200,000	-0,012	-0,087
-592,211	-200,000	0,015	-0,076
-591,196	194,536	0,052	-0,057
-590,182	-200,000	0,027	0,179
-589,167	102,168	0,152	0,128
-588,152	800,000	-0,070	0,211
-587,138	-200,000	0,001	0,026
-586,123	162,664	-0,048	0,049
-585,109	800,000	-0,021	0,044
-584,094	800,000	-0,040	0,104
-583,079	-68,432	0,025	0,007
-582,065	333,091	-0,072	-0,101
-581,050	92,342	0,072	0,059
-580,036	-77,627	-0,156	0,039
-579,021	5,077	-0,087	0,046
-578,006	-200,000	0,001	-0,083
-576,992	-90,396	-0,104	-0,022
-575,977	169,611	0,046	-0,048
-574,963	-200,000	0,025	0,106
-573,948	-40,518	0,048	0,018
-572,934	-103,925	-0,114	0,019
-571,919	-182,440	-0,133	0,002
-570,904	-200,000	0,006	-0,047
-569,890	-86,450	-0,125	-0,027
-568,875	-118,437	-0,035	0,004
-567,861	-30,165	0,085	-0,035
-566,846	-75,953	-0,109	0,028
-565,831	117,532	0,045	0,040
-564,817	-72,766	-0,090	0,024
-563,802	800,000	0,029	-0,076
-562,788	800,000	-0,025	-0,064
-561,773	298,882	0,045	-0,060
-560,758	143,476	0,037	0,035
-559,744	-86,146	-0,005	0,001
-558,729	800,000	0,047	-0,095
-557,715	-132,376	-0,120	0,011
-556,700	790,711	-0,042	0,083
-555,685	663,666	0,056	-0,104
-554,671	464,556	-0,060	-0,097
-553,656	631,878	0,038	-0,070
-552,642	72,822	0,063	-0,048
-551,627	-68,138	-0,044	0,012
-550,612	71,914	-0,061	-0,045
-549,598	57,696	-0,045	0,032
-548,583	-57,320	-0,103	0,032
-547,569	-131,088	-0,034	-0,003
-546,554	800,000	-0,029	-0,064
-545,539	-200,000	-0,021	-0,075
-544,525	-200,000	0,020	0,088
-543,510	800,000	-0,026	0,066
-542,496	-70,435	-0,108	0,029
-541,481	652,406	0,115	-0,214
-540,466	797,807	-0,040	-0,081
-539,452	-200,000	-0,005	0,066
-538,437	-56,217	-0,102	-0,032
-537,423	105,982	-0,063	0,054
-536,408	116,217	-0,074	-0,065
-535,393	-14,955	-0,093	-0,043
-534,379	-3,197	0,094	0,047
-533,364	-83,335	-0,071	0,016
-532,350	744,978	-0,031	0,061
-531,335	31,269	0,071	-0,044
-530,321	27,144	-0,049	-0,029
-529,306	179,602	-0,035	0,037
-528,291	253,093	-0,042	-0,052
-527,277	800,000	-0,040	-0,093
-526,262	263,713	-0,041	-0,052
-525,248	45,029	-0,119	0,079
-524,233	-121,335	0,125	-0,015
-523,218	-95,194	-0,211	-0,041
-522,204	-200,000	0,017	0,084
-521,189	800,000	-0,019	0,058
-520,175	-79,901	-0,074	0,018
-519,160	-146,712	-0,102	0,006
-518,145	49,234	0,072	-0,049
-517,131	94,731	0,056	0,046
-516,116	12,511	-0,028	0,015
-515,102	-162,444	0,126	0,004
-514,087	800,000	-0,031	-0,070
-513,072	200,210	0,069	-0,076
-512,058	96,896	0,030	-0,025
-511,043	167,627	-0,076	-0,077
-510,029	-81,161	0,036	-0,008
-509,014	242,623	0,034	0,041
-507,999	-65,623	-0,159	-0,046
-506,985	800,000	-0,037	-0,115
-505,970	-200,000	-0,072	-0,000
-504,956	-49,537	-0,112	0,038
-503,941	-185,358	0,010	-0,000
-502,926	107,488	0,051	0,043
-501,912	719,475	-0,070	0,135
-500,897	-200,000	-0,036	0,171
-499,883	-118,247	0,156	0,020
-498,868	49,516	0,139	-0,094
-497,853	-188,367	-0,049	0,000
-496,839	-30,003	-0,109	0,044
-495,824	9,902	-0,019	0,010
-494,810	138,689	-0,093	-0,088
-493,795	419,952	0,048	-0,074
-492,781	-152,835	-0,149	-0,007
-491,766	-200,000	-0,049	-0,164
-490,751	-53,398	-0,035	-0,011
-489,737	-47,285	0,005	0,002
-488,722	800,000	0,043	0,096
-487,708	-200,000	-0,008	0,094
-486,693	237,572	-0,014	0,016
-485,678	31,460	-0,065	-0,040
-484,664	-135,919	-0,053	-0,004
-483,649	219,326	-0,033	0,038
-482,635	428,549	0,027	0,042
-481,620	232,387	0,096	0,113
-480,605	204,671	0,028	0,032
-479,591	705,395	0,089	0,170
-478,576	61,054	-0,053	-0,037
-477,562	165,921	-0,049	-0,049
-476,547	-186,195	-0,212	-0,002
-475,532	-108,743	-0,091	0,014
-474,518	-58,003	0,056	0,017
-473,503	34,409	0,062	0,039
-472,489	366,226	-0,064	-0,093
-471,474	234,979	-0,045	0,054
-470,459	-80,629	-0,152	0,036
-469,445	194,904	-0,092	0,101
-468,430	-79,632	0,023	-0,006
-467,416	-11,902	0,104	0,049
-466,401	397,012	0,036	0,054
-465,386	-200,000	-0,001	0,069
-464,372	23,807	-0,055	0,032
-463,357	-76,783	0,069	-0,017
-462,343	-53,504	0,117	-0,038
-461,328	-200,000	-0,009	0,113
-460,313	13,836	-0,048	-0,027
-459,299	-22,040	0,111	0,048
-458,284	98,181	-0,064	-0,053
-457,270	259,004	0,066	0,082
-456,255	767,281	-0,029	-0,058
-455,241	172,275	-0,064	-0,066
-454,226	800,000	-0,018	-0,051
-453,211	-161,023	0,105	0,004
-452,197	800,000	0,034	-0,089
-451,182	73,835	-0,039	0,029
-450,168	-12,016	-0,034	-0,016
-449,153	113,933	0,031	0,027
-448,138	-200,000	0,022	0,143
-447,124	422,343	-0,064	-0,099
-446,109	-54,880	0,012	-0,004
-445,095	-73,267	0,099	0,026
-444,080	-200,000	0,056	0,195
-443,065	-0,670	-0,053	0,027
-442,051	145,671	-0,066	-0,064
-441,036	800,000	0,055	-0,117
-440,022	353,616	-0,073	0,104
-439,007	125,193	0,101	0,092
-437,992	79,261	-0,013	0,010
-436,978	-200,000	0,000	-0,052
-435,963	-58,321	0,108	-0,033
-434,949	29,461	0,061	-0,037
-433,934	800,000	0,036	-0,072
-432,919	101,344	-0,114	-0,096
-431,905	506,346	0,071	0,118
-430,890	496,621	0,064	0,106
-429,876	434,245	-0,035	0,055
-428,861	2,225	-0,021	-0,011
-427,846	-200,000	0,014	-0,055
-426,832	606,788	-0,042	-0,076
-425,817	230,292	0,100	0,118
-424,803	35,368	-0,106	-0,067
-423,788	102,939	0,114	-0,096
-422,773	34,531	0,017	-0,010
-421,759	372,283	0,035	0,051
-420,744	-140,265	0,083	0,006
-419,730	17,848	-0,108	0,062
-418,715	135,254	-0,108	0,101
-417,701	4,972	0,067	-0,035
-416,686	800,000	0,019	0,057
-415,671	800,000	-0,027	0,056
-414,657	324,040	0,089	0,123
-413,642	385,755	0,041	-0,060
-412,628	-65,950	-0,041	0,012
-411,613	-149,661	-0,062	-0,003
-410,598	189,831	-0,089	-0,096
-409,584	2,426	0,151	-0,078
-408,569	-200,000	0,007	0,076
-407,555	800,000	0,042	0,115
-406,540	32,186	-0,081	0,050
-405,525	191,692	-0,053	-0,058
-404,511	-53,042	0,026	0,008
-403,496	-123,553	0,079	0,009
-402,482	111,846	0,071	-0,062
-401,467	800,000	0,034	-0,076
-400,452	134,872	-0,101	0,094
-399,438	-200,000	0,001	-0,070
-398,423	74,021	-0,079	0,059
-397,409	-200,000	-0,035	0,147
-396,394	-200,000	0,006	-0,197
-395,379	-200,000	0,010	-0,062
-394,365	-184,289	0,047	-0,001
-393,350	24,307	0,077	-0,045
-392,336	800,000	-0,010	0,031
-391,321	-200,000	-0,016	-0,097
-390,306	28,533	0,036	-0,022
-389,292	-200,000	-0,019	-0,130
-388,277	145,213	-0,088	-0,084
-387,263	-113,696	0,119	-0,017
-386,248	108,643	-0,051	0,044
-385,233	-18,142	0,073	0,033
-384,219	-46,571	0,077	0,027
-383,204	-200,000	-0,010	-0,097
-382,190	319,880	0,037	-0,051
-381,175	-200,000	0,015	-0,075
-380,160	800,000	-0,027	0,079
-379,146	464,831	-0,041	0,065
-378,131	800,000	-0,019	0,042
-377,117	-16,097	0,176	-0,080
-376,102	-200,000	0,011	0,058
-375,088	-39,874	0,024	0,009
-374,073	273,724	0,035	0,045
-373,058	57,566	-0,107	-0,075
-372,044	-200,000	-0,006	0,032
-371,029	-200,000	0,012	0,099
-370,015	-200,000	-0,003	-0,138
-369,000	186,550	-0,026	0,028
-367,985	-155,663	-0,170	-0,008
-366,971	-179,189	-0,083	-0,001
-365,956	276,321	0,022	-0,028
-364,942	42,680	0,032	0,021
-363,927	800,000	-0,040	-0,119
-362,912	-200,000	-0,010	-0,174
-361,898	-63,300	-0,125	-0,037
-360,883	31,838	0,036	0,022
-359,869	4,462	0,075	-0,039
-358,854	43,219	-0,041	-0,026
-357,839	223,017	0,066	-0,076
-356,825	38,782	0,034	0,022
-355,810	-42,809	0,129	0,047
-354,796	245,920	-0,090	0,109
-353,781	-92,384	-0,064	-0,013
-352,766	35,961	-0,006	0,004
-351,752	-200,000	0,024	0,105
-350,737	800,000	-0,031	0,066
-349,723	235,937	0,074	0,087
-348,708	28,251	0,094	0,057
-347,693	-133,135	-0,045	-0,004
-346,679	121,457	0,086	0,077
-345,664	-73,034	-0,179	-0,047
-344,650	175,969	-0,013	0,013
-343,635	22,331	0,055	0,032
-342,620	-200,000	0,004	-0,049
-341,606	800,000	-0,034	0,093
-340,591	-200,000	0,002	0,178
-339,577	-133,747	0,036	0,003
-338,562	295,481	0,019	0,025
-337,548	-62,247	0,078	-0,023
-336,533	-200,000	0,013	-0,055
-335,518	-37,441	0,028	0,011
-334,504	-40,346	-0,105	0,039
-333,489	291,108	-0,051	-0,067
-332,475	490,652	0,033	-0,055
-331,460	-200,000	-0,026	-0,143
-330,445	-176,822	-0,085	0,002
-329,431	-125,036	0,161	-0,017
-328,416	-121,575	0,124	-0,015
-327,402	-200,000	0,025	0,111
-326,387	800,000	0,029	-0,064
-325,372	-81,973	0,141	0,033
-324,358	557,611	0,122	-0,211
-323,343	-200,000	-0,008	0,042
-322,329	-56,514	0,096	0,030
-321,314	-4,245	-0,026	0,013
-320,299	-200,000	-0,016	0,151
-319,285	800,000	-0,075	0,173
-318,270	225,346	-0,064	-0,074
-317,256	-109,846	0,093	0,014
-316,241	800,000	-0,028	-0,081
-315,226	-200,000	-0,005	0,068
-314,212	-37,205	-0,100	0,038
-313,197	549,031	-0,038	-0,065
-312,183	800,000	0,023	0,051
-311,168	-95,505	0,104	0,020
-310,153	-38,514	-0,109	-0,041
-309,139	181,648	0,063	-0,066
-308,124	-32,634	-0,117	0,046
-307,110	800,000	0,019	0,045
-306,095	78,829	0,029	-0,022
-305,080	380,344	-0,045	-0,066
-304,066	800,000	0,037	0,100
-303,051	-127,807	-0,038	0,004
-302,037	-200,000	-0,021	-0,135
-301,022	-154,934	0,068	-0,003
-300,008	468,148	0,071	0,114
-298,993	800,000	-0,080	0,197
-297,978	-27,061	0,106	0,044
-296,964	25,339	0,100	-0,059
-295,949	106,740	-0,033	0,028
-294,935	800,000	0,005	-0,011
-293,920	62,932	-0,060	0,043
-292,905	90,149	0,071	-0,056
-291,891	-51,090	-0,061	-0,020
-290,876	-154,633	0,111	-0,005
-289,862	119,832	-0,096	-0,085
-288,847	85,922	-0,115	0,090
-287,832	800,000	0,056	-0,168
-286,818	-200,000	-0,007	-0,088
-285,803	800,000	-0,056	-0,166
-284,789	194,171	0,077	-0,084
-283,774	198,089	-0,098	-0,107
-282,759	346,952	-0,101	-0,143
-281,745	388,404	0,081	-0,120
-280,730	-200,000	-0,016	-0,082
-279,716	-20,463	0,050	0,022
-278,701	-93,816	0,080	0,016
-277,686	116,621	0,063	-0,056
-276,672	175,751	0,041	0,043
-275,657	266,326	0,072	0,090
-274,643	23,617	-0,027	0,016
-273,628	-200,000	-0,007	-0,087
-272,613	-131,705	-0,008	0,001
-271,599	-100,276	0,058	0,010
-270,584	800,000	0,043	0,100
-269,570	-38,736	0,097	-0,037
-268,555	397,251	0,028	0,042
-267,540	43,907	-0,059	-0,038
-266,526	395,100	0,071	-0,107
-265,511	800,000	-0,028	-0,065
-264,497	-200,000	-0,005	0,078
-263,482	10,035	0,146	0,079
-262,467	-200,000	0,007	-0,027
-261,453	-181,538	-0,103	0,001
-260,438	800,000	-0,052	0,125
-259,424	-99,708	0,082	-0,015
-258,409	44,153	0,051	0,033
-257,395	57,785	-0,024	-0,017
-256,380	8,937	0,088	0,047
-255,365	-68,032	0,059	-0,016
-254,351	800,000	-0,031	-0,062
-253,336	-69,902	0,030	0,008
-252,322	-30,891	-0,081	0,033
-251,307	250,616	-0,008	0,010
-250,292	-200,000	-0,001	0,050
-249,278	64,216	-0,096	0,069
-248,263	114,461	0,061	-0,053
-247,249	800,000	-0,026	-0,081
-246,234	-200,000	0,000	-0,001
-245,219	401,496	-0,104	-0,156
-244,205	-200,000	0,009	0,037
-243,190	344,720	0,008	0,011
-242,176	-200,000	-0,004	-0,043
-241,161	387,258	0,067	0,099
-240,146	259,272	-0,063	0,078
-239,132	364,921	0,044	-0,064
-238,117	-93,569	-0,081	-0,016
-237,103	800,000	-0,023	-0,053
-236,088	-176,548	0,042	-0,001
-235,073	316,306	0,150	0,202
-234,059	-200,000	0,000	0,088
-233,044	-200,000	0,033	0,139
-232,030	39,586	-0,045	0,029
-231,015	800,000	0,025	-0,058
-230,000	-87,624	0,132	0,028
-228,986	-99,869	-0,051	-0,009
-227,971	8,657	0,119	0,064
-226,957	-65,619	-0,049	0,014
-225,942	800,000	-0,044	0,088
-224,927	-200,000	-0,008	0,039
-223,913	-200,000	0,001	0,079
-222,898	85,047	-0,055	-0,043
-221,884	310,067	-0,072	-0,096
-220,869	147,985	0,109	0,105
-219,855	-42,427	-0,124	0,045
-218,840	-200,000	-0,040	0,138
-217,825	-2,926	-0,098	-0,049
-216,811	-200,000	-0,002	0,052
-215,796	-200,000	0,000	-0,005
-214,782	800,000	-0,006	0,015
-213,767	94,369	-0,146	-0,118
-212,752	137,712	0,045	-0,042
-211,738	-200,000	0,024	0,141
-210,723	-90,198	0,136	0,028
-209,709	608,986	-0,072	-0,128
-208,694	-200,000	-0,015	-0,120
-207,679	653,391	-0,051	0,094
-206,665	745,645	0,005	-0,010
-205,650	-106,699	0,144	0,023
-204,636	600,061	0,044	0,078
-203,621	-200,000	-0,011	0,076
-202,606	-137,607	0,089	0,007
-201,592	117,392	-0,046	-0,040
-200,577	-200,000	-0,035	-0,136
-199,563	-119,350	-0,191	-0,023
-198,548	110,697	0,057	0,049
-197,533	120,306	0,062	0,055
-196,519	-172,565	0,083	0,002
-195,504	-200,000	-0,059	-0,275
-194,490	738,805	0,053	-0,102
-193,475	-50,066	0,092	0,031
-192,460	2,804	0,015	-0,008
-191,446	-5,137	0,027	-0,013
-190,431	-200,000	0,039	0,181
-189,417	-69,816	0,048	-0,013
-188,402	-200,000	-0,005	0,043
-187,387	-146,162	0,077	-0,005
-186,373	333,507	-0,018	0,025
-185,358	-200,000	-0,010	-0,053
-184,344	-43,705	0,091	-0,033
-183,329	800,000	0,040	0,099
-182,315	128,492	0,177	0,160
-181,300	-145,869	-0,066	-0,004
-180,285	-11,533	-0,078	-0,037
-179,271	-200,000	-0,001	-0,088
-178,256	-28,270	-0,133	-0,054
-177,242	200,410	0,114	0,125
-176,227	-33,994	0,109	0,042
-175,212	83,515	-0,052	0,040
-174,198	-53,266	0,177	0,057
-173,183	-200,000	0,026	-0,121
-172,169	618,239	-0,045	-0,081
-171,154	-200,000	0,010	0,048
-170,139	800,000	0,033	-0,095
-169,125	253,225	0,050	0,061
-168,110	-200,000	0,033	0,138
-167,096	45,358	0,030	0,019
-166,081	-200,000	0,011	0,061
-165,066	41,739	0,033	0,021
-164,052	-200,000	0,029	0,102
-163,037	800,000	0,029	0,081
-162,023	167,477	0,079	0,080
-161,008	-20,438	-0,080	0,035
-159,993	328,031	-0,059	-0,081
-158,979	80,607	-0,051	-0,039
-157,964	-200,000	0,018	-0,073
-156,950	-30,902	-0,143	-0,057
-155,935	169,753	0,065	0,067
-154,920	-146,723	0,200	-0,012
-153,906	-51,648	-0,050	0,017
-152,891	-67,990	0,143	0,039
-151,877	-124,375	-0,047	0,005
-150,862	192,671	-0,045	-0,048
-149,847	89,540	-0,025	-0,019
-148,833	131,315	0,117	-0,107
-147,818	-129,384	-0,059	-0,006
-146,804	800,000	0,022	-0,050
-145,789	-200,000	-0,007	0,081
-144,775	590,677	-0,048	0,084
-143,760	-200,000	0,017	-0,152
-142,745	-104,180	0,114	-0,019
-141,731	294,176	0,042	-0,054
-140,716	-200,000	0,004	0,020
-139,702	-59,264	-0,152	0,046
-138,687	-37,868	0,187	0,070
-137,672	-110,068	-0,121	-0,018
-136,658	-200,000	-0,003	-0,058
-135,643	-200,000	-0,003	0,044
-134,629	-200,000	0,014	-0,088
-133,614	-98,134	0,055	0,010
-132,599	-200,000	0,023	0,080
-131,585	-70,889	0,127	0,034
-130,570	-200,000	-0,001	0,066
-129,556	800,000	-0,031	-0,064
-128,541	-128,327	0,084	-0,008
-127,526	800,000	-0,024	-0,062
-126,512	-200,000	-0,021	0,164
-125,497	115,366	0,045	0,039
-124,483	497,903	0,072	0,119
-123,468	13,203	0,081	0,044
-122,453	-26,943	-0,043	-0,018
-121,439	727,389	-0,025	-0,048
-120,424	108,419	0,133	-0,113
-119,410	-159,840	0,087	0,003
-118,395	-45,594	-0,037	-0,013
-117,380	-200,000	-0,022	0,092
-116,366	233,586	0,090	0,105
-115,351	-10,082	0,127	-0,060
-114,337	-142,718	0,114	-0,008
-113,322	87,628	-0,139	0,109
-112,307	66,174	0,110	0,079
-111,293	-14,426	0,210	-0,095
-110,278	228,402	-0,089	0,103
-109,264	588,640	0,052	-0,092
-108,249	-200,000	-0,018	0,064
-107,234	800,000	-0,015	-0,042
-106,220	-200,000	0,016	-0,055
-105,205	162,033	0,036	-0,036
-104,191	242,231	0,049	0,059
-103,176	685,610	0,073	0,135
-102,162	-22,372	-0,093	0,040
-101,147	-106,869	-0,215	0,033
-100,132	800,000	-0,020	0,056
-99,118	800,000	0,041	-0,111
-98,103	-200,000	-0,012	-0,038
-97,089	-200,000	-0,002	0,117
-96,074	42,508	0,057	-0,037
-95,059	579,784	0,047	0,082
-94,045	61,765	-0,026	-0,018
-93,030	-200,000	-0,038	-0,125
-92,016	-41,565	0,120	-0,044
-91,001	-200,000	0,001	0,038
-89,986	623,513	0,038	0,068
-88,972	-200,000	-0,012	0,116
-87,957	20,681	0,087	0,050
-86,943	-70,717	-0,095	0,025
-85,928	258,301	-0,074	-0,091
-84,913	800,000	0,043	-0,134
-83,899	119,149	-0,056	0,049
-82,884	-142,702	-0,022	0,002
-81,870	53,451	0,142	0,096
-80,855	361,564	0,033	0,047
-79,840	2,765	-0,077	-0,039
-78,826	-62,340	-0,093	-0,027
-77,811	-95,083	0,063	-0,012
-76,797	638,053	-0,038	0,069
-75,782	-15,441	-0,014	0,006
-74,767	-97,580	0,092	-0,017
-73,753	-28,004	0,061	0,025
-72,738	256,126	0,009	0,010
-71,724	-71,272	-0,099	-0,026
-70,709	-117,353	-0,081	-0,010
-69,694	-86,644	-0,025	-0,005
-68,680	30,083	0,062	0,037
-67,665	800,000	0,030	0,064
-66,651	-200,000	-0,026	0,188
-65,636	68,278	0,094	0,068
-64,622	93,570	-0,040	0,032
-63,607	454,302	-0,031	-0,048
-62,592	-126,861	-0,084	-0,009
-61,578	-125,535	-0,042	0,004
-60,563	201,615	0,083	-0,091
-59,549	-200,000	-0,006	0,151
-58,534	-40,429	-1,679	-0,615
-57,519	456,246	-1,304	-2,057
-56,505	-200,000	-0,480	-4,623
-55,490	365,641	0,966	1,383
-54,476	800,000	4,861	11,036
-53,461	-200,000	19,177	318,460
-52,446	-200,000	739,595	2334,526
-51,432	575,635	1654,962	2872,944
-50,417	78,674	1670,925	1263,842
-49,403	21,458	1543,818	886,422
-48,388	15,325	1466,043	811,949
-47,373	17,939	1456,283	819,145
-46,359	16,737	1446,267	807,713
-45,344	13,633	1441,637	790,229
-44,330	13,506	1439,738	788,548
-43,315	13,550	1437,971	787,759
-42,300	13,570	1436,095	786,793
-41,286	13,553	1435,003	786,085
-40,271	13,538	1433,686	785,263
-39,257	13,491	1432,482	784,347
-38,242	13,559	1431,090	783,874
-37,227	13,563	1429,866	783,195
-36,213	13,568	1428,703	782,550
-35,198	13,579	1427,466	781,895
-34,184	13,607	1426,488	781,459
-33,169	13,568	1425,135	780,502
-32,154	13,586	1423,980	779,926
-31,140	13,592	1422,898	779,331
-30,125	13,650	1421,644	778,885
-29,111	13,583	1420,563	777,945
-28,096	13,562	1419,561	777,269
-27,082	13,450	1418,548	776,154
-26,067	13,511	1417,290	775,720
-25,052	13,485	1416,310	775,031
-24,038	13,531	1415,071	774,537
-23,023	13,459	1414,351	773,776
-22,009	13,441	1413,301	773,086
-20,994	13,432	1412,474	772,559
-19,979	13,425	1411,731	772,093
-18,965	13,423	1410,552	771,408
-17,950	13,454	1409,654	771,030
-16,936	13,476	1408,627	770,541
-15,921	13,396	1407,551	769,547
-14,906	13,392	1406,774	769,075
-13,892	13,406	1405,779	768,564
-12,877	13,405	1404,838	768,015
-11,863	13,437	1403,790	767,558
-10,848	13,370	1403,104	766,843
-9,833	13,402	1402,101	766,412
-8,819	13,372	1401,133	765,713
-7,804	13,331	1400,403	765,094
-6,790	13,344	1399,307	764,525
-5,775	13,335	1398,196	763,846
-4,760	13,314	1397,423	763,295
-3,746	13,321	1396,411	762,744
-2,731	13,303	1395,646	762,213
-1,717	13,286	1394,788	761,635
-0,702	13,261	1393,144	760,590
0,313	17,228	1310,085	733,586
1,327	33,701	704,151	432,374
2,342	51,927	123,538	83,094
3,356	2,240	16,600	8,463
4,371	0,975	3,256	1,646
5,386	-4,897	0,588	0,285
6,400	281,074	-0,082	0,103
7,415	198,289	-0,117	-0,126
8,429	101,239	-0,305	-0,251
9,444	6,624	-0,320	-0,168
10,459	82,378	-0,222	-0,171
11,473	-25,582	-0,333	-0,138
12,488	64,041	-0,282	-0,200
13,502	782,202	-0,113	-0,220
14,517	-28,325	-0,317	-0,129
15,531	10,071	-0,387	-0,207
16,546	-56,284	-0,223	-0,070
17,561	258,871	-0,226	-0,276
18,575	-145,931	-0,258	-0,016
19,590	65,469	-0,303	-0,217
20,604	-0,313	-0,235	-0,117
21,619	57,597	-0,339	-0,234
22,634	241,254	-0,328	-0,387
23,648	164,863	-0,358	-0,357
24,663	71,276	-0,459	-0,336
25,677	138,401	-0,369	-0,342
26,692	-82,408	-0,417	-0,095
27,707	-4,557	-0,293	-0,142
28,721	-32,290	-0,387	-0,152
29,736	106,891	-0,315	-0,264
30,750	293,831	-0,353	-0,456
31,765	106,868	-0,343	-0,288
32,780	99,399	-0,288	-0,235
33,794	33,845	-0,447	-0,274
34,809	-10,616	-0,382	-0,178
35,823	141,238	-0,390	-0,364
36,838	101,990	-0,319	-0,262
37,853	94,730	-0,278	-0,223
38,867	37,778	-0,425	-0,266
39,882	160,328	-0,301	-0,297
40,896	305,381	-0,263	-0,345
41,911	60,038	-0,330	-0,229
42,926	-0,228	-0,449	-0,224
43,940	-52,304	-0,397	-0,129
44,955	73,505	-0,391	-0,288
45,969	67,281	-0,450	-0,323
46,984	40,317	-0,226	-0,143
47,999	275,309	-0,284	-0,356
49,013	50,610	-0,352	-0,234
50,028	-200,000	-0,109	-0,347
51,042	227,356	-0,263	-0,302
52,057	-43,433	-0,400	-0,142
53,071	79,784	-0,296	-0,224
54,086	151,798	-0,348	-0,335
55,101	-34,526	-0,298	-0,114
56,115	-16,795	-0,345	-0,153
57,130	152,386	-0,349	-0,336
58,144	55,459	-0,374	-0,254
59,159	105,758	-0,285	-0,237
60,174	181,736	-0,328	-0,340
61,188	104,171	-0,404	-0,334
62,203	178,537	-0,419	-0,432
63,217	6,077	-0,379	-0,197
64,232	-87,561	-0,323	-0,068
65,247	-18,160	-0,423	-0,186
66,261	98,093	-0,451	-0,365
67,276	68,206	-0,325	-0,234
68,290	67,287	-0,358	-0,256
69,305	276,671	-0,221	-0,277
70,320	-16,896	-0,359	-0,159
71,334	80,167	-0,351	-0,265
72,349	-26,965	-0,288	-0,118
73,363	253,498	-0,301	-0,362
74,378	-20,379	-0,490	-0,211
75,393	-24,581	-0,394	-0,164
76,407	-83,283	-0,278	-0,062
77,422	164,294	-0,226	-0,224
78,436	92,942	-0,334	-0,265
79,451	16,068	-0,327	-0,180
80,466	77,706	-0,314	-0,235
81,480	-14,726	-0,397	-0,179
82,495	-51,831	-0,273	-0,089
83,509	71,888	-0,267	-0,195
84,524	11,777	-0,177	-0,095
85,539	148,047	-0,239	-0,227
86,553	-45,024	-0,285	-0,099
87,568	401,676	-0,272	-0,402
88,582	210,674	-0,253	-0,279
89,597	203,451	-0,273	-0,297
90,611	111,828	-0,159	-0,135
91,626	18,832	-0,247	-0,139
92,641	242,792	-0,214	-0,252
93,655	127,217	-0,310	-0,276
94,670	63,972	-0,239	-0,168
95,684	105,670	-0,284	-0,235
96,699	165,139	-0,282	-0,280
97,714	189,303	-0,197	-0,207
98,728	60,725	-0,185	-0,129
99,743	121,500	-0,280	-0,245
100,757	-43,221	-0,297	-0,105
101,772	163,982	-0,292	-0,288
102,787	88,867	-0,314	-0,245
103,801	257,893	-0,224	-0,271
104,816	80,089	-0,333	-0,251
105,830	-36,902	-0,220	-0,082
106,845	16,160	-0,243	-0,134
107,860	-132,152	-0,280	-0,025
108,874	-28,607	-0,208	-0,084
109,889	-25,283	-0,412	-0,170
110,903	99,706	-0,187	-0,152
111,918	383,473	-0,175	-0,253
112,933	-45,449	-0,207	-0,071
113,947	-72,933	-0,261	-0,067
114,962	27,034	-0,357	-0,209
115,976	218,004	-0,227	-0,254
116,991	430,840	-0,155	-0,236
118,006	13,814	-0,217	-0,118
119,020	800,000	-0,086	-0,231
120,035	520,908	-0,200	-0,329
121,049	4,407	-0,249	-0,127
122,064	-72,148	-0,288	-0,074
123,079	-7,255	-0,264	-0,125
124,093	126,631	-0,221	-0,196
125,108	140,796	-0,314	-0,290
126,122	346,294	-0,191	-0,264
127,137	137,132	-0,209	-0,191
128,151	110,828	-0,236	-0,198
129,166	0,483	-0,235	-0,117
130,181	-80,242	-0,383	-0,089
131,195	216,886	-0,223	-0,249
132,210	134,482	-0,206	-0,187
133,224	52,298	-0,300	-0,200
134,239	49,782	-0,324	-0,213
135,254	-3,388	-0,277	-0,134
136,268	60,464	-0,199	-0,137
137,283	143,529	-0,215	-0,200
138,297	487,302	-0,217	-0,347
139,312	61,718	-0,237	-0,165
140,327	49,416	-0,297	-0,195
141,341	13,890	-0,273	-0,148
142,356	0,043	-0,160	-0,079
143,370	-5,583	-0,194	-0,093
144,385	41,496	-0,272	-0,172
145,400	30,558	-0,325	-0,194
146,414	76,256	-0,285	-0,211
147,429	-45,580	-0,192	-0,066
148,443	29,052	-0,280	-0,165
149,458	7,952	-0,194	-0,101
150,473	-87,100	-0,276	-0,058
151,487	-94,766	-0,277	-0,052
152,502	213,367	-0,220	-0,243
153,516	30,717	-0,256	-0,152
154,531	80,426	-0,380	-0,286
155,546	56,523	-0,225	-0,152
156,560	146,435	-0,133	-0,125
157,575	295,086	-0,145	-0,186
158,589	-34,751	-0,236	-0,090
159,604	33,795	-0,204	-0,124
160,619	800,000	-0,108	-0,215
161,633	-17,874	-0,224	-0,098
162,648	39,639	-0,234	-0,146
163,662	-25,245	-0,251	-0,103
164,677	52,752	-0,251	-0,167
165,692	116,806	-0,144	-0,123
166,706	41,511	-0,220	-0,139
167,721	1,878	-0,224	-0,113
168,735	52,056	-0,208	-0,138
169,750	145,693	-0,155	-0,145
170,764	20,276	-0,170	-0,095
171,779	-28,547	-0,207	-0,083
172,794	24,610	-0,240	-0,138
173,808	25,750	-0,319	-0,185
174,823	641,284	-0,134	-0,239
175,837	214,974	-0,179	-0,198
176,852	662,652	-0,108	-0,194
177,867	5,034	-0,251	-0,128
178,881	-26,446	-0,298	-0,121
179,896	381,668	-0,145	-0,208
180,910	170,119	-0,147	-0,146
181,925	-41,215	-0,218	-0,078
182,940	227,116	-0,153	-0,173
183,954	-130,597	-0,249	-0,023
184,969	-28,664	-0,273	-0,109
185,983	0,647	-0,169	-0,084
186,998	614,644	-0,121	-0,212
188,013	289,592	-0,142	-0,179
189,027	800,000	-0,099	-0,202
190,042	374,462	-0,192	-0,272
191,056	273,059	-0,182	-0,224
192,071	112,042	-0,228	-0,192
193,086	25,302	-0,085	-0,049
194,100	17,141	-0,267	-0,147
195,115	-113,085	-0,245	-0,033
196,129	251,879	-0,191	-0,226
197,144	-12,477	-0,237	-0,107
198,159	143,672	-0,187	-0,173
199,173	-145,706	-0,088	0,005
200,188	-39,562	-0,278	-0,101
201,202	-83,954	-0,186	-0,041
202,217	114,256	-0,244	-0,207
203,232	800,000	-0,132	-0,271
204,246	800,000	-0,137	-0,265
205,261	275,885	-0,219	-0,270
206,275	-20,435	-0,181	-0,077
207,290	44,549	-0,174	-0,111
208,304	-122,353	-0,101	-0,011
209,319	92,263	-0,156	-0,122
210,334	321,070	-0,132	-0,175
211,348	29,100	-0,184	-0,108
212,363	275,245	-0,182	-0,224
213,377	-200,000	-0,055	-0,219
214,392	50,845	-0,197	-0,129
215,407	-14,369	-0,155	-0,069
216,421	-103,635	-0,101	0,016
217,436	-200,000	-0,083	-0,324
218,450	774,959	-0,193	-0,368
219,465	70,675	-0,162	-0,116
220,480	-46,291	-0,189	-0,064
221,494	-33,364	-0,136	-0,052
222,509	-45,448	-0,165	-0,057
223,523	500,100	-0,138	-0,221
224,538	-12,750	-0,164	-0,074
225,553	191,484	-0,259	-0,271
226,567	5,851	-0,180	-0,092
227,582	178,540	-0,163	-0,165
228,596	202,761	-0,114	-0,122
229,611	28,432	-0,067	-0,039
230,626	44,766	-0,224	-0,143
231,640	106,640	-0,202	-0,166
232,655	396,189	-0,215	-0,312
233,669	742,628	-0,134	-0,251
234,684	49,419	-0,239	-0,156
235,699	565,185	-0,146	-0,246
236,713	187,639	-0,078	0,080
237,728	190,791	-0,198	-0,207
238,742	-22,331	-0,228	-0,095
239,757	-10,471	0,018	0,008
240,772	173,709	-0,136	-0,136
241,786	88,046	-0,270	-0,208
242,801	-200,000	-0,015	-0,085
243,815	18,489	-0,118	-0,065
244,830	-68,865	-0,261	-0,069
245,844	-200,000	-0,024	-0,176
246,859	800,000	-0,074	-0,179
247,874	184,907	-0,275	-0,283
248,888	800,000	-0,022	-0,046
249,903	-200,000	-0,051	-0,219
250,917	739,146	-0,061	-0,114
251,932	70,596	-0,142	-0,102
252,947	87,227	-0,169	-0,129
253,961	-47,337	-0,358	-0,120
254,976	-78,426	-0,290	-0,068
255,990	21,454	-0,195	-0,109
257,005	-115,830	-0,090	0,011
258,020	81,082	-0,183	-0,137
259,034	-12,241	-0,028	-0,013
260,049	493,575	-0,150	-0,240
261,063	-90,152	-0,194	-0,039
262,078	233,791	-0,061	-0,070
263,093	-69,785	-0,200	-0,052
264,107	39,246	-0,131	-0,081
265,122	-115,171	-0,289	-0,037
266,136	-151,174	-0,176	-0,009
267,151	389,826	-0,165	-0,236
268,166	-41,745	-0,182	-0,064
269,180	68,605	-0,187	-0,133
270,195	-50,294	-0,214	-0,070
271,209	768,858	-0,109	-0,206
272,224	-59,092	-0,288	-0,085
273,239	21,064	-0,116	-0,065
274,253	-64,052	-0,114	-0,032
275,268	800,000	-0,069	-0,154
276,282	-73,627	-0,281	-0,070
277,297	800,000	-0,099	-0,217
278,312	1,473	-0,210	-0,104
279,326	-43,577	-0,026	-0,009
280,341	-113,434	-0,064	0,009
281,355	800,000	-0,016	-0,045
282,370	44,938	-0,257	-0,163
283,384	384,850	-0,160	-0,228
284,399	303,169	-0,161	-0,206
285,414	-200,000	-0,013	-0,096
286,428	800,000	-0,070	-0,155
287,443	-200,000	-0,005	-0,049
288,457	-176,929	-0,152	0,003
289,472	-121,644	-0,201	-0,023
290,487	-23,062	-0,188	-0,078
291,501	62,673	-0,267	-0,184
292,516	-104,618	-0,167	-0,026
293,530	-92,669	-0,135	0,026
294,545	-200,000	-0,061	-0,215
295,560	171,647	-0,149	-0,147
296,574	800,000	-0,113	-0,229
297,589	-53,879	-0,187	-0,058
298,603	-59,140	-0,192	-0,057
299,618	800,000	-0,098	-0,224
300,633	-58,960	-0,208	-0,062
301,647	-70,464	-0,181	-0,047
302,662	-158,206	-0,238	0,009
303,676	-200,000	-0,021	-0,139
304,691	-200,000	-0,070	0,000
305,706	448,987	-0,149	-0,227
306,720	160,430	-0,210	-0,202
307,735	509,715	-0,024	-0,038
308,749	495,947	-0,031	-0,049
309,764	717,623	-0,058	-0,107
310,779	128,769	-0,271	-0,238
311,793	155,426	-0,206	-0,195
312,808	-56,438	-0,140	-0,043
313,822	-30,135	-0,184	-0,072
314,837	-10,181	-0,095	0,043
315,852	149,407	-0,120	-0,112
316,866	641,034	-0,100	-0,176
317,881	-116,024	-0,135	0,017
318,895	9,090	-0,108	-0,056
319,910	-70,610	-0,196	0,051
320,925	24,665	-0,259	-0,147
321,939	800,000	-0,068	-0,176
322,954	-200,000	0,018	-0,099
323,968	122,035	-0,092	-0,079
324,983	-35,222	-0,143	0,053
325,997	-119,173	-0,073	-0,009
327,012	138,764	-0,094	-0,085
328,027	-150,770	-0,030	0,002
329,041	67,889	-0,129	-0,091
330,056	-37,559	-0,154	-0,056
331,070	-40,015	-0,220	-0,078
332,085	-14,037	-0,262	-0,116
333,100	-5,411	-0,310	-0,146
334,114	-58,289	-0,190	-0,057
335,129	-200,000	-0,082	-0,291
336,143	-43,806	-0,080	-0,028
337,158	242,289	-0,081	-0,094
338,173	58,926	-0,156	-0,106
339,187	17,032	-0,055	-0,030
340,202	211,704	-0,087	-0,094
341,216	523,302	-0,090	-0,145
342,231	-86,216	-0,267	-0,056
343,246	-176,189	-0,331	-0,006
344,260	49,564	-0,125	-0,080
345,275	113,584	-0,146	-0,121
346,289	232,872	-0,129	-0,145
347,304	235,901	-0,192	-0,218
348,319	449,440	-0,163	-0,248
349,333	761,930	-0,073	-0,136
350,348	738,829	-0,087	-0,161
351,362	800,000	-0,066	-0,175
352,377	-200,000	-0,017	-0,212
353,392	-43,833	-0,156	-0,054
354,406	-123,264	-0,074	-0,008
355,421	208,507	1314,421	1411,943
356,435	160,444	1475,104	1412,451
