DTS Sentinel unit serial number:	SN410029Multiplexer serial number:	ORYXHardware model number:	OX2-SRSoftware version number:	ORYX F/W v4,00 Oryx Data Collector v3.7.2.0data status	okinstallation	B3 Nyhavnadifferential loss correction	single-endedforward channel	channel 1reverse channel	N/Adate	2023/11/30time	18:02:30forward acquisition time	300,00reverse acquisition time	0,00gamma	499,1914k internal	0,3203k external	0,3203temperature offset calibration	1,0000default loss term (dB/km)	0,3820temperature slope calibration	1,0000multiplexer offset coefficient	1,0000multiplexer slope coefficient	1,0000fibre end	0,00T internal ref (°C)	12,93T ext. ref 1 (°C)	-2,27T ext. ref 2 (°C)	-2,36length (m)	temperature (°C)	Stokes	anti-Stokes-744,400	300,862	-0,225	-0,302
-743,385	-200,000	-0,015	0,294
-742,371	800,000	-0,074	-0,186
-741,356	-200,000	-0,064	0,233
-740,342	-57,107	-0,124	-0,039
-739,327	800,000	0,136	0,285
-738,312	203,869	-0,183	-0,206
-737,298	800,000	-0,095	0,209
-736,283	343,093	-0,251	-0,359
-735,269	-200,000	0,073	0,321
-734,254	-18,222	-0,254	-0,115
-733,239	-153,706	-0,238	0,012
-732,225	800,000	0,059	-0,147
-731,210	-38,514	0,093	0,036
-730,196	302,541	-0,056	0,075
-729,181	288,612	-0,097	0,128
-728,167	297,101	-0,062	-0,082
-727,152	-37,394	-0,061	0,024
-726,137	233,075	-0,058	-0,069
-725,123	218,714	-0,142	-0,165
-724,108	800,000	-0,055	-0,176
-723,094	-15,883	-0,142	-0,066
-722,079	-63,062	-0,098	-0,029
-721,064	425,051	-0,033	0,052
-720,050	-106,000	-0,064	-0,010
-719,035	-69,593	-0,079	-0,022
-718,021	191,824	0,025	-0,028
-717,006	142,828	-0,039	-0,038
-715,991	-200,000	-0,050	-0,206
-714,977	-39,570	-0,097	-0,037
-713,962	800,000	0,060	-0,170
-712,948	-200,000	0,035	-0,128
-711,933	-200,000	-0,024	0,078
-710,918	-70,658	-0,079	-0,022
-709,904	-200,000	-0,003	-0,239
-708,889	368,576	-0,074	-0,109
-707,875	-2,710	-0,109	-0,055
-706,860	169,020	0,077	-0,080
-705,845	-200,000	0,028	-0,121
-704,831	-200,000	0,013	-0,069
-703,816	800,000	0,034	-0,101
-702,802	800,000	-0,052	-0,127
-701,787	511,974	-0,024	-0,041
-700,772	-52,281	-0,036	-0,012
-699,758	-111,710	-0,157	0,023
-698,743	567,847	0,062	0,110
-697,729	499,814	0,044	0,073
-696,714	-200,000	0,007	-0,112
-695,699	522,330	-0,076	-0,130
-694,685	205,085	-0,098	-0,110
-693,670	46,047	-0,096	-0,064
-692,656	-200,000	-0,026	-0,088
-691,641	213,282	-0,028	-0,032
-690,627	37,352	0,036	-0,023
-689,612	222,720	0,079	0,093
-688,597	-41,211	-0,095	-0,035
-687,583	800,000	-0,046	-0,099
-686,568	-200,000	0,018	-0,148
-685,554	-46,174	-0,052	0,018
-684,539	800,000	-0,041	0,097
-683,524	52,261	0,081	0,056
-682,510	71,659	0,046	-0,035
-681,495	-200,000	-0,015	-0,180
-680,481	25,415	-0,074	0,045
-679,466	-118,052	-0,045	0,006
-678,451	313,103	0,096	-0,131
-677,437	-200,000	-0,018	-0,080
-676,422	172,909	-0,080	-0,084
-675,408	800,000	-0,042	0,118
-674,393	315,161	0,100	-0,136
-673,378	-45,874	0,065	0,023
-672,364	-200,000	-0,016	-0,079
-671,349	106,243	0,065	-0,056
-670,335	110,915	-0,082	-0,072
-669,320	104,814	0,052	0,044
-668,305	-46,263	0,140	0,050
-667,291	-200,000	0,010	-0,043
-666,276	55,522	-0,067	0,047
-665,262	56,094	-0,189	-0,133
-664,247	800,000	-0,042	-0,101
-663,232	-53,413	-0,008	-0,003
-662,218	177,635	-0,033	-0,035
-661,203	-200,000	-0,002	-0,053
-660,189	314,079	0,065	-0,089
-659,174	-200,000	-0,017	-0,129
-658,159	151,119	-0,051	-0,050
-657,145	256,020	-0,033	-0,041
-656,130	25,135	-0,038	0,023
-655,116	-37,778	0,096	-0,037
-654,101	-65,729	0,123	0,035
-653,086	-200,000	0,005	-0,062
-652,072	594,833	0,054	-0,097
-651,057	-200,000	0,003	-0,057
-650,043	178,684	-0,081	-0,086
-649,028	-98,493	-0,086	0,016
-648,014	-26,889	-0,090	-0,038
-646,999	800,000	-0,034	0,076
-645,984	-53,190	0,098	0,032
-644,970	124,005	0,083	-0,075
-643,955	-200,000	-0,005	0,034
-642,941	-101,914	-0,054	-0,009
-641,926	549,208	-0,057	0,100
-640,911	405,131	0,013	-0,020
-639,897	800,000	0,044	0,103
-638,882	196,350	-0,138	0,152
-637,868	23,016	0,033	-0,020
-636,853	-200,000	-0,003	-0,093
-635,838	-125,371	-0,033	-0,004
-634,824	800,000	-0,034	0,097
-633,809	57,262	0,055	-0,039
-632,795	-51,330	0,087	-0,029
-631,780	800,000	0,023	0,055
-630,765	604,672	0,036	-0,065
-629,751	212,569	-0,142	-0,162
-628,736	-200,000	-0,008	-0,105
-627,722	800,000	0,038	0,092
-626,707	800,000	-0,047	-0,136
-625,692	-39,238	-0,040	-0,015
-624,678	800,000	0,018	0,042
-623,663	-200,000	0,037	-0,235
-622,649	-29,835	-0,087	0,036
-621,634	800,000	0,023	-0,068
-620,619	377,209	-0,026	0,038
-619,605	383,289	-0,061	-0,092
-618,590	-200,000	0,000	0,131
-617,576	-200,000	-0,027	0,102
-616,561	-200,000	-0,003	0,079
-615,546	-119,354	-0,098	0,012
-614,532	-103,295	-0,061	-0,010
-613,517	162,887	-0,043	-0,044
-612,503	150,899	-0,061	-0,060
-611,488	-200,000	0,015	0,084
-610,474	-200,000	0,011	0,088
-609,459	-47,739	-0,056	0,019
-608,444	137,310	-0,061	0,058
-607,430	-3,667	-0,096	-0,048
-606,415	-184,163	-0,072	0,001
-605,401	-200,000	-0,005	-0,069
-604,386	-46,748	0,062	0,022
-603,371	800,000	0,016	0,040
-602,357	77,956	-0,141	0,108
-601,342	-36,814	0,011	0,004
-600,328	-61,660	-0,092	0,028
-599,313	-200,000	-0,009	-0,088
-598,298	10,366	0,121	-0,066
-597,284	-177,315	-0,072	-0,001
-596,269	-200,000	0,009	-0,135
-595,255	-54,052	0,005	0,002
-594,240	-83,473	-0,044	0,010
-593,225	80,837	-0,064	-0,050
-592,211	257,946	-0,050	-0,062
-591,196	197,831	-0,065	-0,072
-590,182	-20,086	0,045	-0,020
-589,167	3,222	0,051	0,027
-588,152	-200,000	-0,004	-0,019
-587,138	-64,223	0,102	0,030
-586,123	292,386	-0,043	0,057
-585,109	-125,078	-0,141	0,015
-584,094	605,120	-0,030	-0,054
-583,079	-25,144	0,094	-0,040
-582,065	-138,999	-0,131	0,010
-581,050	620,036	0,042	-0,077
-580,036	-126,148	-0,192	0,021
-579,021	42,965	-0,112	-0,074
-578,006	-10,552	0,115	-0,055
-576,992	-200,000	-0,005	0,056
-575,977	-121,508	0,092	-0,011
-574,963	-141,460	0,169	-0,012
-573,948	381,417	-0,052	-0,077
-572,934	-200,000	0,012	0,042
-571,919	-103,201	0,088	0,015
-570,904	800,000	0,011	-0,024
-569,890	2,188	0,045	-0,023
-568,875	-72,421	0,133	0,035
-567,861	-200,000	-0,029	0,103
-566,846	-200,000	0,015	0,097
-565,831	1,209	-0,027	0,014
-564,817	12,506	0,067	-0,037
-563,802	-200,000	0,000	0,017
-562,788	-183,743	-0,138	0,002
-561,773	-3,709	-0,145	-0,072
-560,758	129,987	0,088	0,082
-559,744	275,805	-0,084	0,108
-558,729	178,932	0,072	0,076
-557,715	800,000	-0,066	-0,138
-556,700	105,405	0,020	-0,017
-555,685	16,112	-0,144	-0,082
-554,671	-91,520	0,070	-0,014
-553,656	-29,979	-0,047	-0,019
-552,642	560,724	0,053	0,093
-551,627	23,855	0,057	-0,034
-550,612	800,000	0,064	0,141
-549,598	-146,525	-0,089	-0,006
-548,583	-200,000	0,010	0,087
-547,569	-65,071	0,081	-0,023
-546,554	-200,000	0,012	-0,039
-545,539	800,000	-0,007	0,017
-544,525	-104,810	-0,067	0,011
-543,510	94,726	-0,079	-0,064
-542,496	37,304	0,100	0,064
-541,481	-164,340	-0,046	0,001
-540,466	146,645	-0,086	-0,084
-539,452	-116,997	0,096	0,013
-538,437	-200,000	0,017	0,146
-537,423	-1,077	-0,079	-0,040
-536,408	800,000	0,050	-0,151
-535,393	57,066	0,037	0,026
-534,379	-24,069	-0,131	-0,056
-533,364	293,862	-0,034	0,045
-532,350	435,820	0,034	-0,053
-531,335	301,870	0,102	0,136
-530,321	-200,000	-0,005	0,019
-529,306	560,275	0,057	-0,099
-528,291	800,000	0,058	-0,148
-527,277	-130,941	0,085	0,008
-526,262	-200,000	-0,002	-0,096
-525,248	800,000	-0,038	-0,098
-524,233	43,844	0,049	0,032
-523,218	-200,000	0,016	0,076
-522,204	800,000	0,005	0,015
-521,189	-61,522	0,108	0,033
-520,175	124,468	-0,071	-0,064
-519,160	-75,319	-0,071	-0,018
-518,145	-200,000	-0,001	0,116
-517,131	-27,456	0,042	0,017
-516,116	152,761	0,141	0,139
-515,102	613,896	-0,072	0,131
-514,087	67,756	-0,045	0,033
-513,072	30,457	0,135	-0,083
-512,058	-200,000	-0,028	-0,091
-511,043	357,883	-0,067	-0,097
-510,029	-200,000	0,010	0,108
-509,014	422,897	-0,009	0,014
-507,999	109,337	0,042	-0,036
-506,985	-200,000	-0,025	-0,122
-505,970	-200,000	0,045	-0,151
-504,956	-186,236	0,115	0,001
-503,941	-200,000	-0,026	-0,207
-502,926	92,634	0,065	-0,053
-501,912	80,912	0,096	-0,074
-500,897	52,741	-0,074	-0,051
-499,883	364,179	-0,088	0,128
-498,868	-0,632	-0,068	0,035
-497,853	82,907	0,047	0,037
-496,839	147,382	0,110	0,107
-495,824	-50,147	-0,065	-0,022
-494,810	-200,000	-0,008	0,050
-493,795	-30,165	-0,050	0,021
-492,781	-29,847	0,100	0,041
-491,766	607,088	0,025	0,045
-490,751	229,843	0,056	-0,066
-489,737	-72,851	-0,151	-0,040
-488,722	138,983	0,045	-0,043
-487,708	-14,749	-0,027	-0,012
-486,693	272,241	-0,053	0,068
-485,678	800,000	0,084	-0,212
-484,664	703,135	-0,085	-0,161
-483,649	-85,576	-0,067	0,015
-482,635	-141,992	0,157	0,011
-481,620	-3,922	0,065	0,032
-480,605	-200,000	0,032	0,128
-479,591	121,011	0,040	0,035
-478,576	-69,006	-0,052	0,014
-477,562	120,031	-0,149	-0,133
-476,547	-133,255	0,100	0,009
-475,532	234,751	-0,171	-0,203
-474,518	800,000	0,033	-0,073
-473,503	48,684	0,047	-0,032
-472,489	-200,000	0,000	-0,007
-471,474	-186,895	0,125	0,001
-470,459	-39,763	-0,045	0,017
-469,445	421,318	-0,054	-0,083
-468,430	193,668	0,097	0,105
-467,416	800,000	-0,042	0,102
-466,401	-200,000	-0,011	0,076
-465,386	800,000	-0,025	0,058
-464,372	86,605	-0,081	0,065
-463,357	-200,000	-0,000	0,031
-462,343	800,000	0,021	0,043
-461,328	800,000	-0,022	-0,056
-460,313	-25,430	0,027	-0,011
-459,299	-87,569	-0,023	0,005
-458,284	204,698	0,021	-0,023
-457,270	47,777	-0,096	0,064
-456,255	-200,000	-0,004	0,092
-455,241	-64,412	-0,180	-0,052
-454,226	800,000	-0,053	-0,134
-453,211	114,691	-0,074	0,065
-452,197	-188,754	0,023	0,000
-451,182	-200,000	-0,002	0,087
-450,168	13,224	0,046	0,026
-449,153	800,000	-0,041	0,128
-448,138	800,000	-0,023	-0,046
-447,124	403,989	-0,061	0,093
-446,109	14,128	-0,127	-0,071
-445,095	82,138	0,033	0,026
-444,080	221,939	0,122	0,141
-443,065	12,226	-0,058	0,032
-442,051	800,000	0,017	-0,044
-441,036	536,323	0,070	0,119
-440,022	800,000	0,024	-0,063
-439,007	307,214	0,051	0,069
-437,992	-101,139	0,018	-0,003
-436,978	-200,000	-0,009	-0,050
-435,963	96,900	-0,092	0,075
-434,949	41,430	0,082	-0,053
-433,934	180,329	0,043	-0,045
-432,919	-200,000	0,009	0,038
-431,905	-200,000	-0,002	0,092
-430,890	-56,761	0,105	-0,033
-429,876	203,149	0,086	0,095
-428,861	65,746	-0,081	0,059
-427,846	800,000	0,038	0,088
-426,832	-55,209	0,019	-0,006
-425,817	800,000	0,029	-0,079
-424,803	-61,292	0,085	-0,025
-423,788	-155,511	0,125	0,006
-422,773	-200,000	-0,033	0,110
-421,759	-149,147	0,058	-0,003
-420,744	-32,023	-0,074	-0,029
-419,730	243,616	-0,011	0,013
-418,715	-200,000	0,018	-0,109
-417,701	-62,822	-0,045	-0,013
-416,686	-200,000	-0,003	0,072
-415,671	800,000	0,023	-0,064
-414,657	-200,000	0,019	0,193
-413,642	117,541	0,062	0,055
-412,628	-78,904	-0,072	0,017
-411,613	-119,576	0,031	-0,004
-410,598	227,040	-0,077	-0,090
-409,584	252,913	0,035	-0,042
-408,569	73,683	-0,035	-0,026
-407,555	-123,490	0,012	0,001
-406,540	-60,448	0,061	-0,019
-405,525	235,567	0,058	-0,069
-404,511	237,116	-0,158	-0,189
-403,496	-134,552	0,021	0,002
-402,482	-11,841	0,085	-0,040
-401,467	-107,589	0,176	-0,027
-400,452	-200,000	-0,001	0,055
-399,438	-7,778	-0,123	0,059
-398,423	-79,403	-0,035	0,008
-397,409	-54,358	-0,153	-0,050
-396,394	-25,682	0,121	0,051
-395,379	-200,000	-0,010	-0,045
-394,365	-160,221	-0,073	-0,003
-393,350	-200,000	0,012	0,093
-392,336	800,000	-0,031	0,099
-391,321	-131,514	0,118	0,011
-390,306	-161,581	-0,085	0,003
-389,292	96,579	0,057	-0,047
-388,277	-200,000	-0,026	0,125
-387,263	-200,000	0,021	-0,145
-386,248	-75,719	0,055	-0,014
-385,233	410,048	0,040	0,061
-384,219	56,599	0,031	0,021
-383,204	-71,570	-0,092	-0,025
-382,190	-85,431	-0,097	-0,021
-381,175	-52,700	0,071	0,023
-380,160	800,000	0,034	0,094
-379,146	-13,187	0,080	0,037
-378,131	-200,000	0,007	0,068
-377,117	-27,910	0,090	-0,037
-376,102	98,530	-0,035	-0,029
-375,088	-200,000	-0,001	-0,133
-374,073	-48,488	0,081	-0,028
-373,058	-22,625	0,051	0,022
-372,044	214,851	0,041	0,046
-371,029	-151,804	-0,115	0,006
-370,015	605,035	-0,013	-0,024
-369,000	800,000	-0,059	0,121
-367,985	231,827	-0,021	-0,025
-366,971	237,151	-0,012	-0,014
-365,956	700,707	0,055	0,104
-364,942	-47,072	-0,084	-0,029
-363,927	-73,415	0,137	0,036
-362,912	49,769	-0,029	0,020
-361,898	575,958	0,011	-0,019
-360,883	-63,661	-0,084	-0,024
-359,869	384,769	-0,104	-0,154
-358,854	-110,725	-0,074	0,011
-357,839	-130,633	0,073	-0,007
-356,825	123,195	0,129	0,116
-355,810	800,000	-0,037	0,076
-354,796	750,515	-0,048	-0,094
-353,781	-54,749	-0,115	-0,037
-352,766	217,830	-0,031	0,036
-351,752	-134,636	-0,078	0,007
-350,737	631,927	-0,032	0,058
-349,723	194,844	-0,047	0,051
-348,708	144,678	0,035	0,033
-347,693	72,142	-0,061	-0,045
-346,679	166,378	0,114	-0,115
-345,664	109,145	-0,062	-0,053
-344,650	-12,398	0,092	-0,043
-343,635	28,084	-0,034	0,021
-342,620	130,584	0,074	-0,068
-341,606	64,530	0,062	0,045
-340,591	270,303	-0,047	0,059
-339,577	800,000	-0,021	-0,064
-338,562	-93,859	-0,042	-0,008
-337,548	629,795	0,040	-0,073
-336,533	231,973	0,092	0,108
-335,518	-33,722	-0,038	-0,015
-334,504	-200,000	-0,009	-0,042
-333,489	-200,000	-0,016	-0,051
-332,475	800,000	0,005	-0,012
-331,460	34,645	-0,165	-0,103
-330,445	-200,000	-0,047	-0,175
-329,431	-200,000	0,007	-0,038
-328,416	-124,008	-0,023	0,003
-327,402	62,818	0,086	0,061
-326,387	-200,000	0,019	0,078
-325,372	-140,798	0,103	0,007
-324,358	-200,000	-0,023	-0,115
-323,343	-200,000	-0,021	-0,087
-322,329	-200,000	-0,002	-0,028
-321,314	800,000	0,068	0,143
-320,299	-200,000	0,031	0,147
-319,285	150,358	-0,011	0,011
-318,270	18,128	-0,089	-0,051
-317,256	230,004	0,108	-0,126
-316,241	199,042	0,045	0,049
-315,226	-200,000	-0,013	-0,107
-314,212	-87,272	-0,032	-0,007
-313,197	-70,409	0,213	0,057
-312,183	-0,946	-0,133	0,067
-311,168	-135,157	0,096	0,008
-310,153	-69,839	-0,057	0,015
-309,139	-200,000	0,004	0,061
-308,124	-113,192	0,059	0,008
-307,110	196,367	-0,019	-0,020
-306,095	-84,360	0,099	0,022
-305,080	116,700	-0,108	0,094
-304,066	561,705	-0,034	0,059
-303,051	30,075	0,022	0,013
-302,037	680,600	0,020	-0,037
-301,022	-200,000	0,026	0,093
-300,008	-136,040	0,043	0,004
-298,993	173,812	0,043	-0,045
-297,978	484,847	0,023	-0,037
-296,964	-129,145	0,084	0,008
-295,949	-128,716	-0,114	-0,011
-294,935	-121,475	0,088	-0,010
-293,920	-200,000	0,012	-0,181
-292,905	341,344	0,057	0,080
-291,891	-200,000	0,000	0,047
-290,876	-200,000	-0,003	-0,072
-289,862	800,000	-0,027	-0,081
-288,847	94,958	-0,038	-0,031
-287,832	178,685	-0,045	0,047
-286,818	800,000	0,007	-0,019
-285,803	421,933	0,077	0,118
-284,789	-200,000	0,024	0,077
-283,774	800,000	0,032	-0,065
-282,759	-92,353	-0,080	0,016
-281,745	-200,000	-0,006	-0,076
-280,730	671,711	-0,075	-0,140
-279,716	-154,809	0,053	0,002
-278,701	-200,000	-0,012	0,080
-277,686	103,327	-0,050	-0,042
-276,672	-4,713	0,043	-0,021
-275,657	64,363	0,036	0,026
-274,643	-139,473	0,175	0,013
-273,628	94,254	0,001	0,001
-272,613	348,703	0,032	-0,045
-271,599	221,129	0,061	-0,070
-270,584	17,273	0,074	-0,042
-269,570	190,907	0,055	0,060
-268,555	-200,000	-0,034	0,118
-267,540	800,000	-0,029	0,083
-266,526	466,516	0,036	-0,058
-265,511	-200,000	0,005	0,103
-264,497	-200,000	0,000	0,018
-263,482	-200,000	0,029	0,159
-262,467	137,684	-0,077	0,072
-261,453	-94,423	-0,122	-0,023
-260,438	36,557	0,151	0,095
-259,424	800,000	-0,050	-0,131
-258,409	26,015	-0,044	0,026
-257,395	-200,000	-0,027	-0,104
-256,380	-200,000	0,003	0,012
-255,365	63,351	0,067	0,048
-254,351	-200,000	0,022	0,108
-253,336	97,174	-0,089	0,072
-252,322	7,685	-0,104	-0,056
-251,307	800,000	-0,018	-0,045
-250,292	-143,631	-0,098	-0,007
-249,278	7,160	0,069	0,037
-248,263	5,417	0,103	-0,054
-247,249	-129,430	0,071	-0,007
-246,234	789,101	0,022	-0,044
-245,219	203,895	0,012	0,014
-244,205	-200,000	-0,003	-0,134
-243,190	22,510	0,108	-0,063
-242,176	-38,879	-0,107	-0,040
-241,161	167,997	0,111	0,112
-240,146	96,802	0,085	-0,069
-239,132	115,020	-0,029	0,026
-238,117	-22,120	0,027	-0,012
-237,103	14,564	-0,154	-0,086
-236,088	194,394	0,078	-0,084
-235,073	800,000	0,032	0,068
-234,059	192,644	0,079	0,085
-233,044	-200,000	-0,028	0,094
-232,030	-78,371	0,038	0,009
-231,015	96,232	-0,141	0,115
-230,000	403,143	0,050	-0,074
-228,986	162,628	0,064	0,064
-227,971	-3,663	-0,021	0,011
-226,957	50,934	-0,123	-0,083
-225,942	-71,355	-0,067	0,018
-224,927	-154,884	-0,155	-0,007
-223,913	-200,000	0,006	0,106
-222,898	-200,000	0,004	-0,038
-221,884	800,000	0,099	0,207
-220,869	-155,174	0,087	0,004
-219,855	800,000	0,023	-0,051
-218,840	277,567	0,070	0,090
-217,825	-126,837	-0,208	-0,022
-216,811	-69,258	-0,078	-0,021
-215,796	108,824	-0,086	-0,073
-214,782	-200,000	0,002	-0,060
-213,767	-6,676	0,048	-0,023
-212,752	593,005	0,059	-0,104
-211,738	753,510	-0,028	-0,055
-210,723	-145,509	0,117	-0,007
-209,709	252,462	0,032	-0,038
-208,694	-200,000	-0,005	0,211
-207,679	193,040	0,042	-0,045
-206,665	62,512	0,149	-0,106
-205,650	-121,597	0,082	-0,010
-204,636	-34,949	-0,082	0,032
-203,621	-200,000	-0,024	-0,095
-202,606	2,649	-0,142	0,073
-201,592	-112,554	-0,087	0,012
-200,577	800,000	0,020	-0,053
-199,563	454,817	-0,079	-0,124
-198,548	800,000	0,055	-0,127
-197,533	800,000	-0,036	0,086
-196,519	-50,596	-0,080	0,027
-195,504	20,376	-0,033	0,019
-194,490	38,432	-0,118	-0,075
-193,475	-117,113	-0,026	0,003
-192,460	-19,341	0,165	-0,072
-191,446	-200,000	-0,019	0,163
-190,431	-32,136	-0,126	0,050
-189,417	-156,672	0,111	0,005
-188,402	279,015	-0,067	-0,085
-187,387	-38,275	0,165	-0,062
-186,373	157,569	0,033	-0,032
-185,358	-33,599	-0,093	-0,036
-184,344	800,000	0,035	-0,101
-183,329	-200,000	0,010	0,091
-182,315	-200,000	-0,012	0,058
-181,300	-115,377	0,117	0,016
-180,285	-129,483	-0,040	0,004
-179,271	422,826	0,031	0,047
-178,256	261,858	-0,075	-0,093
-177,242	581,753	-0,041	0,071
-176,227	800,000	-0,020	-0,049
-175,212	-156,915	0,052	-0,002
-174,198	49,178	0,035	-0,024
-173,183	-140,668	-0,071	-0,005
-172,169	800,000	0,033	0,087
-171,154	-81,785	-0,087	0,020
-170,139	170,110	0,084	-0,085
-169,125	-39,049	0,106	-0,039
-168,110	42,233	0,141	0,091
-167,096	-200,000	0,001	-0,038
-166,081	253,623	0,011	-0,013
-165,066	14,433	-0,099	-0,055
-164,052	-89,635	-0,061	-0,013
-163,037	-200,000	-0,009	0,047
-162,023	-200,000	0,003	0,084
-161,008	-137,917	0,080	-0,006
-159,993	87,708	-0,071	0,055
-158,979	196,267	-0,027	0,030
-157,964	-72,633	0,047	0,012
-156,950	-120,537	-0,189	0,022
-155,935	205,354	0,096	0,106
-154,920	800,000	0,020	0,041
-153,906	-200,000	-0,004	0,032
-152,891	-81,880	0,154	-0,036
-151,877	800,000	0,047	-0,101
-150,862	217,247	-0,054	-0,061
-149,847	340,450	-0,073	0,101
-148,833	37,976	0,114	0,072
-147,818	-200,000	-0,007	-0,041
-146,804	130,934	0,036	0,033
-145,789	22,670	0,020	0,012
-144,775	20,450	-0,088	-0,050
-143,760	-200,000	0,045	-0,187
-142,745	786,918	-0,017	-0,033
-141,731	126,413	-0,084	-0,076
-140,716	800,000	0,031	-0,076
-139,702	-200,000	-0,003	0,050
-138,687	-200,000	-0,006	0,113
-137,672	15,196	-0,054	-0,030
-136,658	800,000	-0,019	0,053
-135,643	83,894	-0,020	0,016
-134,629	-33,659	-0,158	-0,061
-133,614	800,000	-0,039	0,105
-132,599	-200,000	-0,031	0,110
-131,585	50,094	0,071	0,048
-130,570	800,000	0,006	-0,019
-129,556	17,172	-0,216	-0,121
-128,541	-200,000	-0,027	-0,232
-127,526	-122,603	0,120	-0,014
-126,512	-139,071	0,137	-0,010
-125,497	37,482	-0,022	0,014
-124,483	800,000	-0,074	-0,149
-123,468	14,716	0,063	-0,035
-122,453	309,218	-0,031	-0,042
-121,439	-200,000	0,006	0,032
-120,424	-19,103	-0,051	-0,022
-119,410	85,583	0,111	-0,086
-118,395	124,183	-0,054	-0,048
-117,380	800,000	0,045	0,133
-116,366	-200,000	0,032	0,139
-115,351	-13,746	-0,148	-0,068
-114,337	388,627	0,051	-0,075
-113,322	-200,000	-0,024	-0,146
-112,307	-50,092	-0,052	-0,017
-111,293	-122,407	0,169	0,019
-110,278	226,696	-0,073	0,084
-109,264	-49,988	-0,085	-0,028
-108,249	-200,000	0,014	0,101
-107,234	-192,760	-0,158	-0,001
-106,220	800,000	0,034	-0,074
-105,205	269,947	-0,112	-0,139
-104,191	46,318	0,099	-0,065
-103,176	304,596	-0,075	0,099
-102,162	-200,000	-0,000	-0,102
-101,147	-200,000	-0,017	-0,113
-100,132	-167,562	0,069	-0,002
-99,118	177,550	-0,083	-0,086
-98,103	-84,266	0,024	-0,005
-97,089	238,959	-0,032	0,038
-96,074	-200,000	0,007	0,070
-95,059	463,753	-0,084	-0,134
-94,045	139,656	-0,051	-0,048
-93,030	-105,158	0,161	-0,026
-92,016	800,000	0,026	-0,070
-91,001	-200,000	0,021	-0,183
-89,986	800,000	0,043	-0,120
-88,972	65,379	0,054	0,038
-87,957	151,579	-0,036	-0,035
-86,943	-200,000	0,032	0,155
-85,928	42,511	-0,019	-0,012
-84,913	-200,000	-0,028	-0,104
-83,899	-64,319	0,120	0,034
-82,884	79,758	0,117	0,089
-81,870	-110,003	0,062	0,009
-80,855	23,843	0,091	0,053
-79,840	-200,000	-0,021	-0,190
-78,826	-200,000	-0,004	0,023
-77,811	-142,662	-0,136	-0,009
-76,797	-200,000	0,001	0,053
-75,782	224,962	0,029	0,033
-74,767	196,713	-0,052	0,056
-73,753	-200,000	-0,028	0,123
-72,738	121,891	-0,003	0,003
-71,724	-200,000	0,012	-0,039
-70,709	-43,256	-0,083	0,030
-69,694	800,000	-0,041	0,089
-68,680	-200,000	-0,000	-0,138
-67,665	1,125	-0,046	0,023
-66,651	-200,000	-0,011	-0,102
-65,636	-79,878	-0,086	0,020
-64,622	104,750	-0,102	-0,085
-63,607	19,804	-0,042	0,024
-62,592	153,553	0,048	-0,047
-61,578	-200,000	-0,010	-0,099
-60,563	205,973	-0,119	0,131
-59,549	-200,000	-0,002	0,174
-58,534	-30,352	-1,721	-0,688
-57,519	338,256	-1,510	-2,085
-56,505	-200,000	-0,370	-4,430
-55,490	302,613	0,925	1,214
-54,476	800,000	4,926	11,076
-53,461	-200,000	19,493	327,207
-52,446	-200,000	742,263	2338,228
-51,432	571,360	1652,409	2857,574
-50,417	77,582	1666,645	1253,989
-49,403	20,902	1540,089	880,706
-48,388	14,800	1462,432	806,714
-47,373	18,417	1452,961	818,882
-46,359	16,800	1442,706	805,344
-45,344	13,075	1437,976	784,890
-44,330	12,982	1436,239	783,465
-43,315	12,949	1434,624	782,394
-42,300	12,983	1432,638	781,443
-41,286	12,990	1431,565	780,862
-40,271	12,968	1430,329	780,051
-39,257	12,953	1429,134	779,295
-38,242	13,016	1427,642	778,752
-37,227	13,016	1426,442	778,064
-36,213	13,037	1425,024	777,360
-35,198	12,990	1424,059	776,581
-34,184	13,045	1423,139	776,308
-33,169	13,026	1421,830	775,472
-32,154	13,033	1420,747	774,886
-31,140	13,020	1419,480	774,100
-30,125	13,059	1418,451	773,694
-29,111	13,020	1417,327	772,868
-28,096	12,997	1416,503	772,277
-27,082	12,987	1415,139	771,455
-26,067	12,959	1414,046	770,700
-25,052	12,942	1413,115	770,084
-24,038	12,945	1412,058	769,487
-23,023	12,967	1410,692	768,819
-22,009	12,974	1409,776	768,320
-20,994	12,913	1408,966	767,564
-19,979	12,912	1408,221	767,123
-18,965	12,885	1407,372	766,504
-17,950	12,917	1406,303	766,039
-16,936	12,936	1405,259	765,529
-15,921	12,853	1404,368	764,626
-14,906	12,851	1403,605	764,173
-13,892	12,870	1402,511	763,635
-12,877	12,859	1401,636	763,074
-11,863	12,877	1400,706	762,623
-10,848	12,861	1399,777	762,012
-9,833	12,833	1399,066	761,466
-8,819	12,808	1398,008	760,745
-7,804	12,751	1397,270	760,047
-6,790	12,790	1396,217	759,624
-5,775	12,791	1395,167	759,030
-4,760	12,784	1394,225	758,454
-3,746	12,769	1393,205	757,797
-2,731	12,764	1392,672	757,456
-1,717	12,743	1391,715	756,808
-0,702	12,734	1389,661	755,619
0,313	16,745	1305,774	728,466
1,327	33,264	700,176	428,575
2,342	51,392	122,548	82,150
3,356	1,664	16,627	8,437
4,371	3,587	3,235	1,662
5,386	-39,031	0,599	0,222
6,400	-200,000	0,033	0,423
7,415	-38,487	-0,350	-0,130
8,429	12,862	-0,292	-0,159
9,444	17,244	-0,402	-0,225
10,459	-50,516	-0,431	-0,143
11,473	179,655	-0,226	-0,234
12,488	-53,019	-0,329	-0,106
13,502	237,019	-0,238	-0,279
14,517	0,681	-0,216	-0,109
15,531	282,194	-0,248	-0,315
16,546	222,155	-0,324	-0,369
17,561	163,523	-0,324	-0,322
18,575	-156,609	-0,148	0,006
19,590	-70,705	-0,334	-0,089
20,604	-92,488	-0,242	-0,048
21,619	-7,921	-0,489	-0,232
22,634	69,634	-0,383	-0,278
23,648	74,764	-0,393	-0,292
24,663	219,999	-0,353	-0,399
25,677	40,193	-0,383	-0,242
26,692	21,421	-0,370	-0,212
27,707	10,993	-0,341	-0,183
28,721	170,121	-0,313	-0,316
29,736	109,476	-0,476	-0,402
30,750	67,466	-0,515	-0,370
31,765	22,004	-0,435	-0,249
32,780	67,540	-0,369	-0,265
33,794	-38,060	-0,360	-0,134
34,809	-48,565	-0,407	-0,137
35,823	72,499	-0,375	-0,275
36,838	116,024	-0,383	-0,331
37,853	60,070	-0,423	-0,294
38,867	73,287	-0,353	-0,260
39,882	352,899	-0,224	-0,314
40,896	117,455	-0,208	-0,180
41,911	125,301	-0,347	-0,308
42,926	128,094	-0,342	-0,306
43,940	50,536	-0,393	-0,262
44,955	151,782	-0,407	-0,391
45,969	-8,001	-0,519	-0,246
46,984	10,808	-0,313	-0,168
47,999	141,012	-0,248	-0,231
49,013	87,533	-0,204	-0,159
50,028	183,342	-0,301	-0,313
51,042	59,600	-0,413	-0,286
52,057	-8,336	-0,386	-0,182
53,071	-13,864	-0,331	-0,150
54,086	262,913	-0,239	-0,292
55,101	227,032	-0,315	-0,361
56,115	-46,098	-0,363	-0,125
57,130	-21,513	-0,427	-0,182
58,144	23,066	-0,463	-0,267
59,159	20,631	-0,421	-0,239
60,174	-13,163	-0,455	-0,207
61,188	27,808	-0,506	-0,299
62,203	-73,658	-0,325	-0,083
63,217	94,132	-0,289	-0,230
64,232	4,063	-0,395	-0,202
65,247	-34,914	-0,410	-0,157
66,261	-2,190	-0,380	-0,187
67,276	-2,291	-0,434	-0,213
68,290	305,183	-0,208	-0,273
69,305	385,340	-0,263	-0,382
70,320	18,526	-0,303	-0,170
71,334	243,950	-0,113	-0,134
72,349	61,970	-0,353	-0,247
73,363	85,567	-0,265	-0,205
74,378	26,495	-0,335	-0,196
75,393	69,960	-0,260	-0,188
76,407	-62,481	-0,406	-0,118
77,422	-26,744	-0,305	-0,125
78,436	154,454	-0,250	-0,241
79,451	-22,607	-0,469	-0,198
80,466	66,165	-0,320	-0,228
81,480	-106,265	-0,375	-0,058
82,495	43,493	-0,204	-0,131
83,509	12,014	-0,312	-0,168
84,524	28,861	-0,226	-0,134
85,539	-25,681	-0,382	-0,157
86,553	-124,127	-0,427	-0,046
87,568	-114,442	-0,400	-0,053
88,582	-78,912	-0,189	-0,045
89,597	-40,005	-0,380	-0,138
90,611	98,862	-0,282	-0,229
91,626	274,630	-0,196	-0,244
92,641	-38,914	-0,284	-0,104
93,655	30,219	-0,359	-0,214
94,670	5,113	-0,297	-0,153
95,684	-78,520	-0,392	-0,093
96,699	227,972	-0,171	-0,196
97,714	248,408	-0,319	-0,379
98,728	63,771	-0,256	-0,180
99,743	101,206	-0,215	-0,175
100,757	-6,312	-0,236	-0,113
101,772	-13,399	-0,253	-0,115
102,787	-46,382	-0,311	-0,107
103,801	215,471	-0,192	-0,213
104,816	-24,585	-0,310	-0,129
105,830	147,955	-0,330	-0,312
106,845	42,782	-0,200	-0,128
107,860	101,985	-0,312	-0,255
108,874	88,105	-0,251	-0,195
109,889	-37,862	-0,331	-0,123
110,903	87,120	-0,271	-0,210
111,918	306,191	-0,137	-0,179
112,933	-1,013	-0,253	-0,125
113,947	-51,597	-0,227	-0,074
114,962	57,662	-0,171	-0,117
115,976	167,330	-0,238	-0,236
116,991	171,275	-0,188	-0,189
118,006	69,389	-0,209	-0,150
119,020	192,582	-0,335	-0,354
120,035	140,775	-0,276	-0,255
121,049	84,778	-0,257	-0,197
122,064	76,992	-0,284	-0,211
123,079	-134,551	-0,315	-0,027
124,093	162,302	-0,171	-0,168
125,108	29,458	-0,317	-0,188
126,122	7,577	-0,323	-0,168
127,137	33,747	-0,312	-0,189
128,151	83,323	-0,199	-0,152
129,166	343,925	-0,140	-0,193
130,181	-5,249	-0,344	-0,165
131,195	250,205	-0,208	-0,247
132,210	462,625	-0,178	-0,279
133,224	-95,443	-0,328	-0,061
134,239	-47,828	-0,230	-0,077
135,254	53,023	-0,194	-0,129
136,268	59,061	-0,191	-0,131
137,283	34,235	-0,240	-0,146
138,297	-49,267	-0,366	-0,121
139,312	223,682	-0,177	-0,200
140,327	63,173	-0,340	-0,238
141,341	191,992	-0,250	-0,264
142,356	-6,764	-0,230	-0,109
143,370	20,194	-0,249	-0,140
144,385	366,417	-0,254	-0,358
145,400	800,000	-0,055	-0,156
146,414	186,020	-0,388	-0,403
147,429	128,379	-0,145	-0,129
148,443	263,355	-0,150	-0,182
149,458	225,430	-0,102	-0,116
150,473	-30,504	-0,284	-0,112
151,487	45,740	-0,210	-0,136
152,502	7,890	-0,417	-0,217
153,516	152,754	-0,193	-0,184
154,531	420,082	-0,169	-0,254
155,546	146,429	-0,250	-0,234
156,560	800,000	-0,103	-0,231
157,575	213,228	-0,212	-0,234
158,589	288,682	-0,115	-0,145
159,604	27,170	-0,359	-0,210
160,619	145,593	-0,309	-0,288
161,633	279,696	-0,184	-0,229
162,648	-51,648	-0,256	-0,083
163,662	30,767	-0,111	-0,066
164,677	51,394	-0,205	-0,135
165,692	110,685	-0,170	-0,143
166,706	29,071	-0,159	-0,094
167,721	-86,885	-0,303	-0,064
168,735	209,535	-0,214	-0,234
169,750	-30,506	-0,140	-0,055
170,764	141,711	-0,188	-0,173
171,779	176,226	-0,167	-0,169
172,794	-9,263	-0,215	-0,100
173,808	-28,125	-0,219	-0,088
174,823	-59,918	-0,314	-0,093
175,837	280,304	-0,208	-0,259
176,852	45,298	-0,245	-0,157
177,867	77,183	-0,160	-0,119
178,881	64,124	-0,116	-0,081
179,896	217,893	-0,123	-0,137
180,910	44,392	-0,192	-0,123
181,925	64,423	-0,163	-0,114
182,940	800,000	-0,071	-0,216
183,954	124,654	-0,137	-0,120
184,969	170,319	-0,144	-0,144
185,983	-127,201	-0,237	-0,024
186,998	-36,518	-0,176	-0,066
188,013	161,620	-0,137	-0,133
189,027	29,383	-0,191	-0,113
190,042	-36,127	-0,221	-0,082
191,056	395,825	-0,109	-0,159
192,071	125,150	-0,150	-0,131
193,086	31,726	-0,119	-0,071
194,100	21,161	-0,229	-0,129
195,115	96,464	-0,214	-0,170
196,129	-0,049	-0,335	-0,165
197,144	199,873	-0,154	-0,164
198,159	51,617	-0,248	-0,164
199,173	92,848	-0,212	-0,167
200,188	800,000	-0,107	-0,219
201,202	-49,117	-0,239	-0,079
202,217	-81,953	-0,173	0,039
203,232	800,000	-0,119	-0,270
204,246	232,161	-0,208	-0,238
205,261	-67,298	-0,253	-0,069
206,275	189,601	-0,100	-0,104
207,290	421,520	-0,105	-0,157
208,304	-67,177	-0,211	0,057
209,319	-30,745	-0,138	-0,054
210,334	-119,274	-0,305	-0,036
211,348	176,081	-0,173	-0,174
212,363	-30,966	-0,263	-0,103
213,377	624,777	-0,116	-0,204
214,392	32,475	-0,200	-0,120
215,407	-71,928	-0,098	0,025
216,421	-122,039	-0,189	-0,021
217,436	18,062	-0,202	-0,111
218,450	-1,395	-0,288	-0,141
219,465	-34,399	-0,224	-0,085
220,480	-89,180	-0,206	-0,042
221,494	10,613	-0,165	-0,087
222,509	272,946	-0,148	-0,182
223,523	142,369	-0,195	-0,179
224,538	137,769	-0,236	-0,215
225,553	377,827	-0,166	-0,236
226,567	-7,490	-0,309	-0,145
227,582	800,000	-0,088	-0,195
228,596	104,511	-0,174	-0,142
229,611	106,795	-0,158	-0,130
230,626	1,759	-0,212	-0,105
231,640	-79,130	-0,201	-0,047
232,655	24,163	-0,075	-0,043
233,669	299,427	-0,177	-0,226
234,684	157,684	-0,180	-0,173
235,699	-3,972	-0,212	-0,102
236,713	-200,000	-0,065	-0,219
237,728	29,656	-0,056	0,033
238,742	62,295	-0,202	-0,139
239,757	177,864	-0,146	-0,147
240,772	-2,374	-0,255	-0,123
241,786	191,414	-0,086	-0,090
242,801	-33,884	-0,333	-0,126
243,815	131,777	-0,149	-0,133
244,830	393,192	-0,183	-0,265
245,844	105,548	-0,209	-0,171
246,859	800,000	-0,091	-0,265
247,874	748,169	-0,206	-0,385
248,888	479,521	-0,182	-0,286
249,903	91,158	-0,252	-0,195
250,917	-33,638	-0,153	-0,058
251,932	-100,422	-0,214	-0,036
252,947	-56,524	-0,181	-0,055
253,961	38,657	-0,204	-0,126
254,976	584,945	-0,157	-0,267
255,990	-182,248	-0,285	-0,004
257,005	-122,130	-0,287	-0,032
258,020	-34,579	-0,120	-0,045
259,034	6,740	-0,274	-0,140
260,049	40,848	-0,268	-0,167
261,063	800,000	-0,061	-0,168
262,078	-160,988	-0,234	-0,008
263,093	46,522	-0,159	-0,102
264,107	48,162	-0,186	-0,120
265,122	28,097	-0,120	-0,070
266,136	84,290	-0,168	-0,126
267,151	353,968	-0,130	-0,179
268,166	475,890	-0,131	-0,205
269,180	271,038	-0,151	-0,183
270,195	179,631	-0,177	-0,179
271,209	128,404	-0,110	-0,097
272,224	-63,384	-0,125	0,035
273,239	550,337	-0,054	-0,090
274,253	-2,594	-0,279	-0,134
275,268	92,921	-0,268	-0,209
276,282	167,061	-0,154	-0,151
277,297	-8,206	-0,148	-0,069
278,312	-73,535	-0,340	-0,085
279,326	42,988	-0,150	0,094
280,341	21,146	-0,143	-0,080
281,355	158,411	-0,183	-0,175
282,370	-169,618	-0,234	-0,006
283,384	108,009	-0,165	-0,136
284,399	-39,201	-0,064	-0,023
285,414	159,556	-0,166	-0,159
286,428	62,139	-0,195	-0,134
287,443	-181,518	-0,179	-0,002
288,457	-90,701	-0,242	-0,048
289,472	-44,240	-0,183	-0,063
290,487	-17,732	-0,145	-0,062
291,501	151,732	-0,163	-0,153
292,516	178,177	-0,214	-0,215
293,530	-34,565	-0,108	-0,041
294,545	303,330	-0,120	-0,153
295,560	-20,844	-0,200	-0,084
296,574	800,000	-0,051	-0,102
297,589	-200,000	-0,015	-0,105
298,603	327,184	-0,157	-0,208
299,618	204,601	-0,192	-0,205
300,633	228,362	-0,161	-0,181
301,647	-50,045	-0,305	-0,099
302,662	-24,403	-0,175	-0,071
303,676	359,442	-0,070	0,097
304,691	-58,553	-0,210	-0,062
305,706	183,057	-0,182	-0,186
306,720	187,830	-0,114	-0,118
307,735	220,236	-0,102	-0,113
308,749	54,874	-0,187	-0,124
309,764	60,989	-0,160	-0,109
310,779	333,602	-0,166	-0,221
311,793	-89,845	-0,234	-0,047
312,808	107,978	-0,200	-0,164
313,822	756,931	-0,126	-0,235
314,837	52,920	-0,100	0,066
315,852	179,325	-0,026	-0,026
316,866	406,339	-0,057	-0,083
317,881	-127,303	-0,065	0,006
318,895	13,147	-0,070	-0,037
319,910	98,021	-0,230	-0,182
320,925	209,257	-0,194	-0,210
321,939	212,421	-0,094	-0,102
322,954	-82,133	-0,194	0,043
323,968	121,614	-0,175	-0,150
324,983	-155,696	-0,218	-0,009
325,997	-18,983	-0,166	-0,070
327,012	-118,392	-0,184	-0,022
328,027	107,770	-0,209	-0,171
329,041	-158,367	-0,210	-0,008
330,056	367,466	-0,106	-0,147
331,070	-200,000	0,004	-0,049
332,085	-0,709	-0,240	-0,116
333,100	258,846	-0,158	-0,187
334,114	800,000	-0,085	-0,187
335,129	73,870	-0,180	-0,129
336,143	-18,595	-0,227	-0,097
337,158	-30,125	-0,182	-0,071
338,173	-38,570	-0,152	-0,055
339,187	187,050	-0,040	0,041
340,202	111,570	0,043	-0,036
341,216	102,349	-0,198	-0,159
342,231	304,441	-0,265	-0,338
343,246	82,721	-0,166	-0,124
344,260	190,310	-0,147	-0,152
345,275	82,598	0,018	-0,014
346,289	15,664	-0,121	-0,065
347,304	-29,454	-0,128	-0,050
348,319	314,736	-0,104	-0,135
349,333	132,703	-0,154	-0,136
350,348	23,005	-0,121	-0,068
351,362	685,628	-0,079	-0,142
352,377	16,989	-0,144	-0,078
353,392	-135,598	-0,155	-0,012
354,406	-85,712	-0,122	-0,026
355,421	207,874	1311,538	1405,737
356,435	159,927	1471,878	1406,240
