DTS Sentinel unit serial number:	SN410029Multiplexer serial number:	ORYXHardware model number:	OX2-SRSoftware version number:	ORYX F/W v4,00 Oryx Data Collector v3.7.2.0data status	okinstallation	B3 Nyhavnadifferential loss correction	single-endedforward channel	channel 1reverse channel	N/Adate	2023/11/30time	17:27:30forward acquisition time	300,00reverse acquisition time	0,00gamma	499,1914k internal	0,3203k external	0,3203temperature offset calibration	1,0000default loss term (dB/km)	0,3820temperature slope calibration	1,0000multiplexer offset coefficient	1,0000multiplexer slope coefficient	1,0000fibre end	0,00T internal ref (°C)	13,09T ext. ref 1 (°C)	-2,04T ext. ref 2 (°C)	-2,09length (m)	temperature (°C)	Stokes	anti-Stokes-744,400	800,000	-0,102	-0,262
-743,385	800,000	0,114	0,359
-742,371	282,706	-0,142	-0,186
-741,356	800,000	0,134	0,403
-740,342	311,559	-0,185	-0,253
-739,327	274,940	0,181	0,234
-738,312	51,518	-0,229	-0,158
-737,298	-200,000	0,051	0,266
-736,283	14,397	-0,254	-0,144
-735,269	-200,000	0,061	0,199
-734,254	261,036	-0,187	-0,236
-733,239	89,534	-0,176	0,142
-732,225	800,000	-0,086	-0,236
-731,210	-70,680	0,124	0,034
-730,196	8,242	0,038	-0,020
-729,181	-144,998	-0,122	-0,008
-728,167	35,481	0,084	0,054
-727,152	32,039	0,042	-0,026
-726,137	-41,728	0,117	-0,043
-725,123	98,453	-0,045	0,038
-724,108	-200,000	-0,010	-0,057
-723,094	-200,000	0,021	-0,099
-722,079	-44,102	-0,094	-0,034
-721,064	103,010	0,117	0,100
-720,050	-22,827	0,149	0,065
-719,035	707,386	0,048	0,093
-718,021	467,004	-0,004	-0,007
-717,006	204,931	-0,024	-0,027
-715,991	-20,698	-0,070	-0,031
-714,977	223,409	0,140	-0,164
-713,962	-122,900	-0,081	-0,009
-712,948	19,761	-0,058	-0,034
-711,933	-200,000	-0,024	0,079
-710,918	-200,000	0,001	0,124
-709,904	-163,230	-0,217	0,007
-708,889	-200,000	0,002	-0,009
-707,875	800,000	-0,035	-0,083
-706,860	75,283	0,134	-0,103
-705,845	800,000	0,037	-0,079
-704,831	-35,434	0,051	-0,020
-703,816	-200,000	0,009	-0,060
-702,802	-200,000	-0,010	-0,147
-701,787	339,672	-0,061	-0,087
-700,772	-172,236	-0,132	-0,003
-699,758	795,134	-0,049	0,099
-698,743	215,484	0,045	-0,051
-697,729	431,669	-0,013	-0,020
-696,714	-20,006	0,110	0,049
-695,699	65,112	-0,076	0,055
-694,685	-200,000	0,006	-0,153
-693,670	-108,932	0,108	0,016
-692,656	-200,000	0,025	0,111
-691,641	800,000	0,015	-0,043
-690,627	800,000	-0,034	0,069
-689,612	-200,000	0,008	0,127
-688,597	344,293	-0,020	-0,029
-687,583	200,027	0,075	-0,083
-686,568	-200,000	-0,008	-0,125
-685,554	311,661	0,034	0,047
-684,539	211,651	-0,047	-0,054
-683,524	24,117	-0,048	-0,028
-682,510	800,000	0,023	0,054
-681,495	-6,863	-0,041	0,020
-680,481	138,112	-0,088	-0,083
-679,466	800,000	0,018	-0,047
-678,451	-57,914	0,076	-0,024
-677,437	-68,751	-0,134	-0,037
-676,422	-69,036	0,165	0,046
-675,408	1,639	-0,078	0,040
-674,393	-93,075	-0,077	-0,015
-673,378	-200,000	-0,024	-0,078
-672,364	800,000	0,029	-0,072
-671,349	800,000	0,086	-0,211
-670,335	91,616	0,149	0,121
-669,320	800,000	-0,019	0,050
-668,305	-200,000	0,021	0,181
-667,291	-141,142	-0,125	-0,009
-666,276	-200,000	0,023	-0,072
-665,262	116,951	0,100	-0,089
-664,247	312,792	-0,074	-0,101
-663,232	496,164	0,035	-0,058
-662,218	-200,000	0,022	0,077
-661,203	13,122	-0,029	-0,016
-660,189	-181,392	-0,048	0,001
-659,174	170,591	-0,113	-0,117
-658,159	71,495	-0,062	-0,047
-657,145	188,937	-0,061	0,066
-656,130	-165,414	0,027	-0,001
-655,116	750,623	0,037	0,073
-654,101	-200,000	0,048	0,237
-653,086	-48,543	0,063	-0,022
-652,072	800,000	-0,023	-0,071
-651,057	306,168	-0,055	0,074
-650,043	800,000	-0,038	-0,106
-649,028	447,969	0,107	-0,171
-648,014	-101,610	0,102	0,018
-646,999	-126,859	0,085	-0,009
-645,984	800,000	-0,068	0,216
-644,970	26,352	-0,175	-0,106
-643,955	124,049	0,122	-0,111
-642,941	22,068	0,014	-0,008
-641,926	-168,620	-0,059	-0,002
-640,911	-70,072	0,179	0,049
-639,897	125,194	-0,098	0,090
-638,882	-200,000	0,023	0,080
-637,868	-37,215	-0,113	-0,044
-636,853	-36,839	-0,098	-0,038
-635,838	733,803	0,034	-0,067
-634,824	-103,470	-0,081	0,014
-633,809	316,497	-0,051	-0,070
-632,795	-200,000	-0,021	0,097
-631,780	-113,418	-0,070	0,010
-630,765	-200,000	0,004	0,033
-629,751	-200,000	-0,003	-0,059
-628,736	457,484	0,037	-0,060
-627,722	800,000	0,020	0,062
-626,707	-149,523	0,011	0,001
-625,692	-200,000	-0,009	-0,029
-624,678	272,279	0,074	0,094
-623,663	800,000	-0,081	0,202
-622,649	265,156	-0,052	0,066
-621,634	210,433	-0,044	0,050
-620,619	-47,786	0,033	-0,012
-619,605	-59,206	0,056	0,017
-618,590	46,729	0,072	-0,048
-617,576	647,329	-0,043	-0,079
-616,561	-200,000	0,002	0,005
-615,546	-200,000	0,000	0,012
-614,532	-15,795	-0,116	-0,053
-613,517	331,456	-0,138	-0,193
-612,503	800,000	-0,067	0,136
-611,488	-158,547	-0,026	-0,001
-610,474	63,032	0,063	0,046
-609,459	-200,000	-0,032	0,123
-608,444	238,008	0,089	0,107
-607,430	161,801	0,053	-0,053
-606,415	-200,000	-0,007	-0,084
-605,401	-42,423	0,146	0,054
-604,386	43,515	0,062	-0,041
-603,371	66,826	0,014	0,010
-602,357	230,187	0,083	0,098
-601,342	-80,919	-0,037	0,009
-600,328	-200,000	-0,046	-0,172
-599,313	553,344	-0,029	-0,050
-598,298	-200,000	0,001	-0,055
-597,284	-21,786	-0,066	0,029
-596,269	266,574	0,041	0,052
-595,255	-200,000	0,030	0,105
-594,240	245,606	-0,068	-0,083
-593,225	-200,000	-0,024	-0,155
-592,211	-200,000	-0,019	-0,135
-591,196	52,814	0,037	-0,025
-590,182	-72,367	-0,078	0,021
-589,167	-200,000	-0,004	0,036
-588,152	800,000	0,008	0,021
-587,138	504,830	-0,119	-0,200
-586,123	145,557	0,069	0,067
-585,109	-30,391	-0,147	0,060
-584,094	-70,860	-0,055	-0,015
-583,079	800,000	-0,037	-0,104
-582,065	94,761	0,094	-0,077
-581,050	-114,568	-0,069	0,009
-580,036	-52,320	0,091	-0,030
-579,021	82,747	-0,135	-0,106
-578,006	-114,008	-0,058	0,008
-576,992	800,000	-0,013	-0,027
-575,977	38,999	0,034	0,022
-574,963	-200,000	0,002	0,016
-573,948	-80,290	-0,053	0,013
-572,934	82,950	-0,054	0,043
-571,919	155,170	0,006	0,006
-570,904	-200,000	-0,018	-0,081
-569,890	800,000	-0,014	-0,043
-568,875	32,868	0,049	0,030
-567,861	37,780	0,157	0,100
-566,846	-123,029	0,090	0,010
-565,831	-200,000	-0,006	0,037
-564,817	-19,066	-0,111	-0,049
-563,802	793,098	0,038	-0,075
-562,788	-47,019	-0,073	-0,026
-561,773	800,000	0,021	0,054
-560,758	145,184	-0,088	0,085
-559,744	-80,436	0,109	0,026
-558,729	289,955	0,044	0,058
-557,715	-200,000	-0,032	-0,111
-556,700	-200,000	-0,035	-0,186
-555,685	209,619	-0,025	-0,029
-554,671	-200,000	-0,020	0,157
-553,656	198,857	-0,035	-0,039
-552,642	-112,966	0,084	0,012
-551,627	800,000	-0,027	0,064
-550,612	-38,104	-0,130	0,050
-549,598	-200,000	0,016	-0,080
-548,583	-117,594	0,049	-0,006
-547,569	24,307	0,108	0,064
-546,554	800,000	-0,045	0,097
-545,539	79,643	-0,058	-0,045
-544,525	-62,094	0,110	-0,033
-543,510	-96,932	-0,134	-0,025
-542,496	800,000	-0,039	-0,119
-541,481	282,047	0,088	-0,114
-540,466	492,664	0,088	-0,147
-539,452	45,215	-0,075	0,050
-538,437	-124,487	0,168	-0,019
-537,423	50,016	-0,128	0,087
-536,408	-200,000	0,014	0,051
-535,393	-200,000	-0,006	-0,069
-534,379	161,933	0,086	-0,087
-533,364	99,778	-0,069	-0,058
-532,350	362,301	-0,046	0,066
-531,335	800,000	0,026	0,055
-530,321	151,600	-0,170	0,167
-529,306	240,879	0,027	0,032
-528,291	256,235	-0,051	-0,063
-527,277	-200,000	0,014	-0,067
-526,262	131,668	-0,064	0,060
-525,248	423,831	-0,059	-0,092
-524,233	800,000	0,051	0,156
-523,218	-1,198	0,145	0,074
-522,204	-200,000	0,027	-0,187
-521,189	-200,000	0,040	-0,139
-520,175	3,598	-0,190	-0,099
-519,160	-122,089	0,096	-0,011
-518,145	800,000	-0,052	0,122
-517,131	-71,055	-0,198	0,053
-516,116	489,050	-0,067	0,110
-515,102	77,954	0,095	-0,073
-514,087	-149,699	0,093	-0,005
-513,072	793,439	0,113	-0,225
-512,058	325,721	0,035	-0,049
-511,043	107,821	-0,073	0,063
-510,029	-23,320	0,038	-0,017
-509,014	-135,627	0,105	0,009
-507,999	-49,377	-0,069	0,024
-506,985	334,852	0,045	-0,063
-505,970	183,855	-0,033	-0,035
-504,956	111,135	-0,043	0,037
-503,941	480,453	-0,034	-0,055
-502,926	-164,680	0,202	0,006
-501,912	618,274	-0,009	0,016
-500,897	5,661	0,047	-0,025
-499,883	719,121	0,042	0,082
-498,868	648,222	-0,055	0,102
-497,853	800,000	0,041	0,116
-496,839	-200,000	0,008	0,193
-495,824	-86,727	0,127	-0,028
-494,810	-138,619	0,119	-0,009
-493,795	-200,000	0,010	-0,078
-492,781	-15,041	-0,155	-0,071
-491,766	82,918	0,107	0,084
-490,751	75,424	-0,047	-0,036
-489,737	149,207	-0,058	-0,057
-488,722	-200,000	-0,001	-0,056
-487,708	-14,918	0,111	-0,051
-486,693	782,971	0,041	0,080
-485,678	-90,680	-0,159	0,033
-484,664	-200,000	-0,022	-0,102
-483,649	174,997	0,027	0,028
-482,635	800,000	-0,002	-0,006
-481,620	-109,425	0,082	-0,012
-480,605	517,020	0,033	-0,055
-479,591	-200,000	-0,002	-0,081
-478,576	-100,732	0,129	-0,023
-477,562	167,225	-0,012	0,013
-476,547	-42,195	-0,032	-0,012
-475,532	-73,099	0,080	0,021
-474,518	177,717	0,047	0,050
-473,503	-200,000	-0,016	0,053
-472,489	191,259	0,077	0,083
-471,474	-200,000	-0,014	0,064
-470,459	-200,000	-0,019	-0,116
-469,445	-200,000	0,034	-0,123
-468,430	253,846	-0,118	-0,145
-467,416	86,407	0,064	-0,051
-466,401	-59,629	-0,123	-0,038
-465,386	-200,000	-0,005	0,099
-464,372	45,397	-0,066	-0,044
-463,357	800,000	-0,049	-0,102
-462,343	20,154	-0,092	-0,053
-461,328	-106,711	-0,149	0,024
-460,313	200,568	-0,134	0,149
-459,299	-147,738	0,076	-0,005
-458,284	-200,000	-0,031	0,115
-457,270	4,993	-0,057	0,030
-456,255	-153,204	-0,084	-0,004
-455,241	-109,800	0,085	0,013
-454,226	-73,993	0,134	-0,035
-453,211	-200,000	0,008	0,071
-452,197	520,823	0,044	0,074
-451,182	-200,000	0,007	0,112
-450,168	-126,584	-0,042	0,004
-449,153	206,914	-0,164	-0,184
-448,138	144,479	-0,091	-0,087
-447,124	452,527	0,016	-0,026
-446,109	175,169	0,073	-0,076
-445,095	367,582	-0,083	0,121
-444,080	100,159	0,086	0,071
-443,065	-70,626	-0,028	-0,008
-442,051	70,618	0,066	0,049
-441,036	13,975	0,092	0,051
-440,022	253,457	0,048	-0,059
-439,007	-200,000	-0,011	-0,039
-437,992	-200,000	-0,006	0,173
-436,978	150,213	0,020	-0,020
-435,963	-200,000	-0,002	-0,045
-434,949	-17,574	-0,087	-0,039
-433,934	55,059	-0,059	-0,041
-432,919	62,403	0,109	-0,078
-431,905	-15,581	0,026	0,012
-430,890	-200,000	0,028	0,107
-429,876	466,959	-0,033	-0,053
-428,861	-200,000	0,009	0,085
-427,846	654,448	-0,038	0,070
-426,832	800,000	-0,079	-0,169
-425,817	800,000	-0,058	-0,136
-424,803	522,677	0,012	0,020
-423,788	800,000	-0,032	0,068
-422,773	-90,390	0,039	0,008
-421,759	-200,000	0,012	-0,048
-420,744	-200,000	0,001	-0,085
-419,730	28,209	-0,074	0,045
-418,715	-200,000	-0,003	-0,035
-417,701	-191,742	-0,073	0,001
-416,686	75,796	0,024	-0,018
-415,671	-200,000	0,019	0,090
-414,657	-200,000	-0,009	0,075
-413,642	333,670	-0,117	0,163
-412,628	99,948	-0,009	-0,008
-411,613	-80,811	-0,088	-0,021
-410,598	471,247	0,108	-0,174
-409,584	484,573	0,081	0,133
-408,569	-118,293	0,013	0,002
-407,555	160,513	0,039	0,039
-406,540	-200,000	-0,007	0,040
-405,525	-63,328	0,114	0,033
-404,511	-53,132	-0,095	-0,031
-403,496	-137,103	-0,127	0,010
-402,482	-47,818	0,050	-0,017
-401,467	160,817	-0,073	0,073
-400,452	259,202	0,096	0,119
-399,438	263,545	-0,084	0,105
-398,423	-103,577	-0,108	0,018
-397,409	-65,147	-0,124	0,036
-396,394	-96,851	0,210	0,039
-395,379	457,319	0,072	-0,115
-394,365	273,503	-0,046	-0,058
-393,350	614,427	0,028	-0,050
-392,336	426,648	-0,062	0,096
-391,321	459,222	-0,060	0,096
-390,306	-44,071	-0,099	0,035
-389,292	-200,000	0,021	-0,092
-388,277	329,439	0,043	0,059
-387,263	-141,778	0,036	-0,003
-386,248	-200,000	-0,053	0,200
-385,233	-1,490	0,025	-0,012
-384,219	-66,377	-0,037	-0,011
-383,204	694,687	-0,106	0,200
-382,190	91,497	0,046	0,037
-381,175	-200,000	0,035	-0,130
-380,160	-44,935	0,057	0,020
-379,146	577,365	0,104	0,183
-378,131	-200,000	-0,006	-0,035
-377,117	299,348	-0,075	-0,100
-376,102	60,926	-0,056	0,040
-375,088	800,000	-0,058	0,143
-374,073	398,316	-0,038	-0,056
-373,058	-113,966	0,093	0,013
-372,044	-78,879	0,044	0,011
-371,029	-146,940	-0,124	-0,007
-370,015	14,814	0,073	-0,041
-369,000	-55,582	-0,164	0,052
-367,985	-83,614	-0,082	0,019
-366,971	-104,077	0,193	-0,032
-365,956	-200,000	0,003	-0,017
-364,942	70,867	0,079	-0,059
-363,927	-162,701	0,101	0,003
-362,912	78,348	0,117	-0,090
-361,898	219,237	0,039	0,045
-360,883	3,157	-0,143	-0,074
-359,869	-200,000	-0,002	-0,018
-358,854	-48,514	-0,225	0,077
-357,839	-133,760	-0,029	-0,003
-356,825	18,999	-0,123	-0,070
-355,810	-79,445	0,137	0,033
-354,796	-35,904	-0,073	-0,028
-353,781	-111,125	-0,154	0,022
-352,766	-89,534	0,097	0,020
-351,752	-200,000	0,004	0,032
-350,737	59,253	0,042	0,030
-349,723	92,522	-0,005	0,004
-348,708	17,557	-0,139	0,079
-347,693	-6,142	-0,106	-0,051
-346,679	368,388	0,062	0,089
-345,664	124,179	0,034	-0,031
-344,650	-71,224	-0,187	-0,050
-343,635	-58,186	0,058	0,018
-342,620	-49,604	-0,054	-0,018
-341,606	168,663	0,145	0,148
-340,591	309,975	0,042	-0,056
-339,577	180,316	-0,106	0,111
-338,562	-185,615	-0,006	0,000
-337,548	24,042	0,078	0,046
-336,533	76,416	0,090	-0,068
-335,518	35,685	0,118	-0,074
-334,504	343,805	-0,048	0,068
-333,489	783,792	-0,032	0,063
-332,475	10,171	-0,150	0,081
-331,460	-29,170	0,051	-0,021
-330,445	-114,648	-0,092	0,012
-329,431	800,000	0,038	0,090
-328,416	-52,974	0,145	0,048
-327,402	637,675	0,054	0,099
-326,387	-200,000	-0,008	-0,034
-325,372	800,000	0,043	-0,094
-324,358	13,490	-0,148	-0,082
-323,343	-200,000	-0,005	0,089
-322,329	300,805	-0,066	-0,087
-321,314	-129,449	-0,100	0,010
-320,299	-200,000	0,025	0,106
-319,285	800,000	0,003	0,006
-318,270	800,000	0,023	-0,066
-317,256	352,713	-0,024	0,034
-316,241	-75,201	0,097	-0,025
-315,226	-142,566	-0,116	-0,008
-314,212	1,876	0,042	-0,022
-313,197	143,842	0,114	0,108
-312,183	-200,000	0,022	0,074
-311,168	112,674	-0,061	-0,053
-310,153	-200,000	-0,001	-0,130
-309,139	65,289	-0,138	-0,099
-308,124	91,743	-0,025	-0,020
-307,110	800,000	0,027	0,072
-306,095	233,023	0,123	0,145
-305,080	71,021	0,077	0,057
-304,066	-2,876	0,103	0,051
-303,051	-51,731	0,045	-0,015
-302,037	-200,000	0,001	0,015
-301,022	161,210	0,046	0,046
-300,008	-34,654	0,085	0,033
-298,993	-200,000	0,023	0,119
-297,978	-51,773	0,100	0,033
-296,964	-200,000	0,007	-0,091
-295,949	-24,099	-0,112	-0,048
-294,935	800,000	-0,032	0,078
-293,920	-166,109	0,024	0,001
-292,905	800,000	-0,079	0,223
-291,891	-200,000	-0,011	-0,046
-290,876	4,694	-0,051	0,027
-289,862	-81,801	0,017	-0,004
-288,847	381,598	-0,063	-0,093
-287,832	-200,000	0,026	-0,095
-286,818	675,349	-0,027	0,051
-285,803	122,751	-0,006	-0,005
-284,789	38,308	0,144	0,092
-283,774	18,871	0,101	0,057
-282,759	-9,292	-0,097	0,046
-281,745	28,974	-0,022	0,014
-280,730	800,000	-0,038	-0,119
-279,716	33,620	-0,119	-0,074
-278,701	132,164	0,074	0,068
-277,686	289,515	0,138	0,179
-276,672	273,797	-0,123	0,156
-275,657	-14,773	-0,046	0,021
-274,643	37,470	0,037	-0,024
-273,628	64,944	-0,063	-0,045
-272,613	13,040	0,043	0,023
-271,599	81,119	0,041	0,032
-270,584	800,000	0,075	0,170
-269,570	-57,743	0,041	0,013
-268,555	457,427	0,059	-0,093
-267,540	800,000	-0,088	-0,187
-266,526	333,220	-0,053	-0,073
-265,511	800,000	0,019	-0,040
-264,497	741,292	0,071	-0,137
-263,482	178,413	0,036	-0,038
-262,467	800,000	0,007	-0,019
-261,453	35,597	-0,055	0,034
-260,438	-165,290	0,246	0,008
-259,424	800,000	-0,025	0,072
-258,409	-16,430	-0,080	0,036
-257,395	-200,000	0,009	0,184
-256,380	152,999	0,050	0,049
-255,365	362,767	-0,027	0,039
-254,351	-200,000	-0,010	-0,054
-253,336	-200,000	-0,002	0,050
-252,322	-2,220	-0,042	-0,021
-251,307	800,000	0,030	0,063
-250,292	-144,232	0,189	-0,012
-249,278	-7,545	-0,069	0,033
-248,263	800,000	-0,049	0,118
-247,249	-200,000	-0,010	-0,047
-246,234	-200,000	-0,049	-0,207
-245,219	569,096	-0,075	-0,130
-244,205	-200,000	0,012	-0,091
-243,190	-9,053	0,130	-0,062
-242,176	-127,432	-0,084	0,009
-241,161	377,295	-0,017	-0,025
-240,146	123,914	0,093	-0,083
-239,132	-200,000	-0,027	-0,126
-238,117	380,120	-0,099	-0,145
-237,103	215,595	-0,086	-0,097
-236,088	800,000	0,010	0,027
-235,073	97,524	0,107	0,087
-234,059	96,789	0,077	-0,063
-233,044	-200,000	0,020	-0,134
-232,030	800,000	0,074	-0,155
-231,015	15,909	-0,024	0,013
-230,000	-200,000	-0,017	-0,055
-228,986	170,654	0,093	-0,095
-227,971	118,729	0,137	0,120
-226,957	-143,895	0,059	-0,004
-225,942	-31,716	0,068	0,027
-224,927	800,000	-0,037	0,106
-223,913	-110,080	-0,116	-0,017
-222,898	-24,683	-0,024	-0,010
-221,884	-200,000	-0,001	0,089
-220,869	-90,633	0,102	0,021
-219,855	-69,199	-0,181	-0,049
-218,840	-56,770	0,051	-0,016
-217,825	473,657	0,084	-0,135
-216,811	-200,000	-0,022	-0,128
-215,796	46,514	-0,115	-0,076
-214,782	-79,205	-0,038	-0,009
-213,767	120,485	0,117	0,103
-212,752	775,348	-0,026	0,051
-211,738	-200,000	0,029	0,109
-210,723	-79,526	0,058	-0,014
-209,709	373,523	-0,082	-0,119
-208,694	608,926	-0,060	-0,106
-207,679	-200,000	0,017	-0,074
-206,665	179,743	0,100	0,105
-205,650	800,000	-0,064	-0,148
-204,636	-200,000	-0,033	0,120
-203,621	-180,916	0,055	0,001
-202,606	99,496	-0,030	-0,024
-201,592	70,148	-0,088	0,064
-200,577	-56,049	0,115	0,036
-199,563	800,000	0,071	-0,143
-198,548	-66,364	-0,104	0,029
-197,533	72,638	0,074	-0,055
-196,519	246,945	0,080	0,096
-195,504	62,500	-0,052	0,037
-194,490	-71,704	-0,041	0,011
-193,475	-200,000	0,016	-0,084
-192,460	500,804	-0,023	0,039
-191,446	630,465	-0,038	0,069
-190,431	178,144	0,065	0,068
-189,417	279,927	0,016	-0,021
-188,402	-77,767	-0,128	0,031
-187,387	349,762	0,067	-0,095
-186,373	478,865	0,048	-0,077
-185,358	39,645	0,110	-0,070
-184,344	-81,288	0,071	0,017
-183,329	267,884	0,147	0,183
-182,315	-29,068	0,103	0,042
-181,300	106,841	-0,073	-0,061
-180,285	-32,052	0,097	-0,038
-179,271	800,000	0,032	-0,092
-178,256	-76,905	-0,142	-0,035
-177,242	-84,896	0,075	0,017
-176,227	-200,000	-0,002	0,155
-175,212	82,946	-0,076	-0,059
-174,198	-200,000	0,028	0,094
-173,183	106,909	-0,104	-0,087
-172,169	3,253	-0,102	-0,053
-171,154	800,000	0,005	0,012
-170,139	-200,000	0,043	-0,138
-169,125	-2,163	0,136	-0,068
-168,110	50,813	0,106	0,071
-167,096	426,521	0,061	-0,094
-166,081	-200,000	-0,003	-0,143
-165,066	287,176	0,050	-0,065
-164,052	216,489	0,130	-0,147
-163,037	-200,000	0,003	0,116
-162,023	273,907	0,153	0,193
-161,008	-200,000	0,019	0,136
-159,993	-200,000	-0,003	0,120
-158,979	142,804	-0,066	-0,062
-157,964	-71,346	-0,138	0,037
-156,950	171,475	-0,069	-0,071
-155,935	800,000	-0,071	-0,158
-154,920	-114,454	0,065	0,009
-153,906	-6,134	-0,045	0,022
-152,891	-200,000	-0,009	0,105
-151,877	800,000	-0,022	-0,059
-150,862	-200,000	-0,009	0,051
-149,847	-37,176	-0,139	-0,053
-148,833	-200,000	0,006	0,028
-147,818	-104,866	0,176	0,028
-146,804	-200,000	0,013	0,083
-145,789	280,095	0,057	0,072
-144,775	800,000	0,022	-0,045
-143,760	-200,000	0,019	-0,074
-142,745	91,351	-0,059	-0,047
-141,731	711,674	0,035	0,066
-140,716	268,717	0,060	0,074
-139,702	-3,137	0,064	0,031
-138,687	-200,000	0,009	0,047
-137,672	-200,000	0,005	-0,032
-136,658	-138,023	0,068	-0,005
-135,643	258,316	-0,044	0,054
-134,629	-68,179	0,128	-0,035
-133,614	-66,524	-0,142	-0,040
-132,599	32,322	0,102	0,062
-131,585	7,547	0,024	-0,012
-130,570	-174,281	-0,026	-0,001
-129,556	-200,000	-0,024	0,109
-128,541	800,000	-0,028	0,086
-127,526	-52,619	0,061	-0,020
-126,512	800,000	0,083	0,190
-125,497	-200,000	0,011	0,104
-124,483	-200,000	-0,002	0,016
-123,468	327,893	0,067	0,091
-122,453	39,134	-0,079	-0,050
-121,439	-49,201	0,068	-0,023
-120,424	800,000	-0,007	0,018
-119,410	47,012	-0,072	-0,047
-118,395	-60,583	0,043	0,013
-117,380	-200,000	0,006	0,077
-116,366	800,000	0,030	0,063
-115,351	-68,832	-0,105	0,028
-114,337	12,858	0,037	-0,020
-113,322	287,760	0,059	0,076
-112,307	56,790	0,037	-0,026
-111,293	599,126	-0,041	0,073
-110,278	297,520	0,108	0,142
-109,264	54,882	-0,066	0,045
-108,249	800,000	-0,035	-0,093
-107,234	458,267	-0,085	-0,135
-106,220	-200,000	-0,016	-0,107
-105,205	26,710	-0,053	0,032
-104,191	-7,997	0,094	0,045
-103,176	-200,000	0,022	0,102
-102,162	183,638	-0,023	0,024
-101,147	26,245	-0,116	0,069
-100,132	-200,000	0,017	-0,104
-99,118	741,484	-0,008	-0,016
-98,103	87,037	0,017	0,013
-97,089	-89,071	-0,105	0,022
-96,074	673,675	0,056	-0,104
-95,059	-200,000	-0,018	0,118
-94,045	233,263	0,067	0,078
-93,030	-22,734	-0,081	-0,035
-92,016	-42,961	-0,102	-0,036
-91,001	-153,974	-0,081	0,004
-89,986	-61,010	0,010	0,003
-88,972	-63,937	-0,055	0,016
-87,957	148,255	0,043	0,041
-86,943	35,348	0,064	-0,040
-85,928	-106,713	-0,064	-0,010
-84,913	800,000	-0,005	-0,015
-83,899	-200,000	-0,003	0,030
-82,884	18,763	0,070	0,040
-81,870	35,369	0,129	0,080
-80,855	800,000	-0,076	0,194
-79,840	-132,869	0,098	-0,009
-78,826	637,024	0,013	-0,023
-77,811	45,919	0,101	0,066
-76,797	196,422	-0,087	-0,094
-75,782	-25,159	0,138	-0,058
-74,767	800,000	0,061	0,123
-73,753	674,019	0,083	0,153
-72,738	-200,000	-0,013	-0,042
-71,724	-47,314	0,061	0,021
-70,709	-200,000	-0,006	0,028
-69,694	167,139	-0,077	-0,077
-68,680	61,361	0,026	-0,018
-67,665	229,290	0,107	0,124
-66,651	-125,524	-0,171	0,018
-65,636	-107,944	-0,078	0,012
-64,622	276,516	-0,040	-0,051
-63,607	-200,000	0,003	-0,023
-62,592	44,126	-0,025	0,016
-61,578	56,239	0,065	0,045
-60,563	-1,585	-0,043	-0,022
-59,549	126,815	-0,048	0,043
-58,534	15,556	-1,605	-0,890
-57,519	424,916	-1,394	-2,130
-56,505	-200,000	-0,388	-4,466
-55,490	261,428	0,907	1,114
-54,476	800,000	4,904	11,142
-53,461	-200,000	19,415	325,898
-52,446	-200,000	740,811	2339,415
-51,432	572,738	1652,305	2860,555
-50,417	77,902	1667,071	1256,118
-49,403	21,083	1540,364	881,912
-48,388	14,975	1462,694	807,825
-47,373	18,354	1453,213	818,839
-46,359	16,859	1443,043	805,930
-45,344	13,229	1438,347	785,939
-44,330	13,125	1436,512	784,409
-43,315	13,105	1434,784	783,337
-42,300	13,120	1433,163	782,494
-41,286	13,150	1431,885	781,909
-40,271	13,114	1430,638	781,023
-39,257	13,107	1429,235	780,197
-38,242	13,214	1427,927	779,955
-37,227	13,235	1426,631	779,318
-36,213	13,213	1425,400	778,513
-35,198	13,172	1424,365	777,721
-34,184	13,215	1423,376	777,352
-33,169	13,138	1422,074	776,247
-32,154	13,223	1420,851	775,951
-31,140	13,210	1419,675	775,218
-30,125	13,227	1418,677	774,723
-29,111	13,198	1417,502	773,913
-28,096	13,167	1416,531	773,203
-27,082	13,096	1415,435	772,241
-26,067	13,135	1414,324	771,789
-25,052	13,135	1413,246	771,168
-24,038	13,106	1412,213	770,441
-23,023	13,117	1411,279	769,950
-22,009	13,062	1410,393	769,181
-20,994	13,026	1409,500	768,495
-19,979	13,073	1408,377	768,071
-18,965	13,069	1407,368	767,469
-17,950	13,062	1406,617	766,998
-16,936	13,104	1405,631	766,626
-15,921	13,036	1404,514	765,669
-14,906	13,051	1403,667	765,246
-13,892	13,008	1402,789	764,536
-12,877	13,037	1401,922	764,169
-11,863	13,043	1400,798	763,553
-10,848	13,026	1400,054	763,042
-9,833	12,946	1399,531	762,352
-8,819	12,929	1398,475	761,668
-7,804	12,954	1397,517	761,232
-6,790	13,013	1396,473	760,906
-5,775	12,982	1395,460	760,180
-4,760	12,970	1394,443	759,541
-3,746	12,945	1393,524	758,894
-2,731	12,896	1392,661	758,170
-1,717	12,862	1391,904	757,566
-0,702	12,910	1390,054	756,754
0,313	16,868	1306,435	729,476
1,327	33,242	700,992	429,085
2,342	51,147	122,710	82,175
3,356	1,765	16,547	8,403
4,371	2,556	3,347	1,708
5,386	-43,618	0,585	0,207
6,400	-200,000	0,057	0,381
7,415	58,115	-0,238	-0,165
8,429	271,077	-0,176	-0,219
9,444	-26,936	-0,415	-0,171
10,459	140,758	-0,291	-0,271
11,473	98,889	-0,301	-0,246
12,488	175,900	-0,192	-0,197
13,502	196,497	-0,263	-0,283
14,517	21,554	-0,325	-0,186
15,531	14,722	-0,344	-0,190
16,546	121,905	-0,286	-0,252
17,561	226,019	-0,307	-0,352
18,575	13,799	-0,166	-0,091
19,590	215,556	-0,175	-0,197
20,604	109,506	-0,198	-0,168
21,619	143,052	-0,341	-0,320
22,634	279,229	-0,392	-0,495
23,648	63,063	-0,472	-0,333
24,663	186,084	-0,387	-0,407
25,677	300,261	-0,205	-0,267
26,692	55,160	-0,338	-0,230
27,707	23,661	-0,211	-0,122
28,721	33,958	-0,473	-0,290
29,736	114,581	-0,476	-0,409
30,750	-40,454	-0,470	-0,171
31,765	130,815	-0,440	-0,398
32,780	196,961	-0,307	-0,331
33,794	-0,301	-0,409	-0,204
34,809	35,790	-0,322	-0,199
35,823	18,354	-0,275	-0,154
36,838	99,742	-0,269	-0,219
37,853	236,748	-0,200	-0,234
38,867	181,663	-0,337	-0,350
39,882	-38,893	-0,364	-0,134
40,896	31,325	-0,328	-0,198
41,911	28,601	-0,432	-0,257
42,926	70,750	-0,434	-0,316
43,940	-7,879	-0,427	-0,202
44,955	201,251	-0,221	-0,240
45,969	8,295	-0,471	-0,249
46,984	161,918	-0,221	-0,218
47,999	38,043	-0,370	-0,231
49,013	-106,542	-0,326	-0,051
50,028	122,729	-0,267	-0,235
51,042	146,998	-0,348	-0,330
52,057	12,672	-0,420	-0,228
53,071	463,957	-0,211	-0,333
54,086	209,926	-0,278	-0,307
55,101	39,599	-0,316	-0,199
56,115	-33,504	-0,261	-0,101
57,130	129,867	-0,363	-0,327
58,144	18,733	-0,393	-0,221
59,159	2,440	-0,385	-0,195
60,174	196,877	-0,370	-0,398
61,188	10,527	-0,424	-0,227
62,203	-50,719	-0,364	-0,120
63,217	81,995	-0,289	-0,220
64,232	142,486	-0,204	-0,191
65,247	-44,509	-0,356	-0,125
66,261	104,934	-0,329	-0,272
67,276	-32,508	-0,321	-0,125
68,290	62,159	-0,295	-0,206
69,305	95,010	-0,174	-0,139
70,320	32,121	-0,347	-0,210
71,334	172,349	-0,205	-0,207
72,349	67,562	-0,321	-0,230
73,363	114,715	-0,224	-0,192
74,378	41,854	-0,326	-0,207
75,393	168,175	-0,151	-0,152
76,407	35,361	-0,226	-0,139
77,422	-17,706	-0,359	-0,158
78,436	-33,456	-0,430	-0,166
79,451	-14,200	-0,336	-0,152
80,466	197,006	-0,299	-0,320
81,480	70,063	-0,320	-0,231
82,495	159,404	-0,288	-0,281
83,509	195,250	-0,243	-0,259
84,524	270,632	-0,177	-0,219
85,539	-39,356	-0,379	-0,139
86,553	84,643	-0,251	-0,193
87,568	50,599	-0,300	-0,199
88,582	201,402	-0,277	-0,299
89,597	434,773	-0,199	-0,305
90,611	180,368	-0,311	-0,320
91,626	-51,651	-0,327	-0,106
92,641	631,843	-0,132	-0,236
93,655	-66,266	-0,320	-0,089
94,670	-28,838	-0,229	-0,092
95,684	22,947	-0,286	-0,164
96,699	328,327	-0,170	-0,229
97,714	800,000	-0,180	-0,366
98,728	-74,231	-0,222	-0,056
99,743	-109,883	-0,302	-0,044
100,757	-14,248	-0,342	-0,154
101,772	54,151	-0,322	-0,217
102,787	98,059	-0,260	-0,210
103,801	482,937	-0,142	-0,227
104,816	53,404	-0,211	-0,141
105,830	119,975	-0,147	-0,128
106,845	265,482	-0,149	-0,182
107,860	188,913	-0,242	-0,254
108,874	3,355	-0,271	-0,138
109,889	7,027	-0,406	-0,211
110,903	158,631	-0,208	-0,202
111,918	-15,016	-0,328	-0,147
112,933	36,060	-0,314	-0,193
113,947	26,995	-0,281	-0,165
114,962	212,546	-0,139	-0,154
115,976	-102,477	-0,316	-0,052
116,991	197,812	-0,240	-0,257
118,006	101,240	-0,377	-0,307
119,020	93,094	-0,161	-0,128
120,035	-6,020	-0,293	-0,139
121,049	-69,399	-0,305	-0,081
122,064	8,570	-0,285	-0,150
123,079	22,730	-0,276	-0,158
124,093	79,644	-0,294	-0,221
125,108	396,743	-0,090	-0,132
126,122	108,613	-0,229	-0,192
127,137	290,256	-0,191	-0,243
128,151	38,579	-0,162	-0,101
129,166	118,147	-0,251	-0,217
130,181	69,032	-0,242	-0,174
131,195	30,336	-0,266	-0,158
132,210	-13,953	-0,246	-0,111
133,224	131,711	-0,231	-0,208
134,239	800,000	-0,113	-0,281
135,254	37,162	-0,203	-0,125
136,268	82,809	-0,193	-0,146
137,283	326,609	-0,228	-0,305
138,297	63,711	-0,244	-0,171
139,312	-56,738	-0,323	-0,099
140,327	60,717	-0,278	-0,192
141,341	-151,746	-0,295	-0,015
142,356	105,803	-0,199	-0,165
143,370	50,875	-0,268	-0,177
144,385	127,749	-0,129	-0,114
145,400	-46,260	-0,213	-0,073
146,414	28,418	-0,198	-0,116
147,429	163,427	-0,244	-0,240
148,443	128,734	-0,263	-0,234
149,458	-85,310	-0,223	-0,048
150,473	40,444	-0,273	-0,171
151,487	289,632	-0,268	-0,340
152,502	185,261	-0,242	-0,250
153,516	22,470	-0,331	-0,188
154,531	343,509	-0,230	-0,315
155,546	800,000	-0,149	-0,328
156,560	100,917	-0,162	-0,131
157,575	-50,478	-0,175	-0,057
158,589	166,914	-0,189	-0,187
159,604	92,876	-0,283	-0,223
160,619	-86,734	-0,247	-0,052
161,633	5,763	-0,307	-0,158
162,648	50,015	-0,247	-0,162
163,662	-109,938	-0,255	-0,037
164,677	52,157	-0,092	-0,061
165,692	-200,000	-0,044	-0,182
166,706	36,414	-0,247	-0,151
167,721	-7,156	-0,254	-0,120
168,735	37,871	-0,245	-0,151
169,750	471,762	-0,158	-0,248
170,764	-3,373	-0,174	-0,084
171,779	-98,304	-0,271	-0,048
172,794	-42,514	-0,280	-0,099
173,808	800,000	-0,101	-0,271
174,823	195,684	-0,195	-0,207
175,837	693,823	-0,205	-0,376
176,852	208,530	-0,253	-0,276
177,867	-74,502	-0,185	-0,046
178,881	-30,129	-0,246	-0,097
179,896	-159,849	-0,147	0,006
180,910	536,275	-0,129	-0,214
181,925	-2,989	-0,322	-0,156
182,940	135,697	-0,146	-0,132
183,954	237,804	-0,177	-0,205
184,969	-108,788	-0,222	-0,033
185,983	-88,571	-0,173	-0,036
186,998	800,000	-0,055	-0,158
188,013	156,186	-0,215	-0,206
189,027	745,000	-0,106	-0,198
190,042	268,291	-0,204	-0,249
191,056	163,758	-0,237	-0,232
192,071	-0,860	-0,332	-0,163
193,086	175,813	-0,192	-0,194
194,100	112,311	-0,176	-0,148
195,115	164,366	-0,174	-0,170
196,129	-67,460	-0,221	-0,060
197,144	-76,700	-0,243	-0,059
198,159	227,268	-0,156	-0,176
199,173	297,684	-0,173	-0,221
200,188	151,911	-0,285	-0,270
201,202	-73,264	-0,139	-0,035
202,217	626,386	-0,055	-0,098
203,232	143,917	-0,236	-0,219
204,246	104,170	-0,177	-0,145
205,261	63,808	-0,288	-0,201
206,275	371,035	-0,128	-0,181
207,290	432,463	-0,123	-0,186
208,304	87,935	-0,096	-0,074
209,319	-37,472	-0,232	-0,085
210,334	33,166	-0,241	-0,145
211,348	30,110	-0,328	-0,194
212,363	-1,837	-0,230	-0,112
213,377	60,529	-0,178	-0,122
214,392	-172,887	-0,245	-0,005
215,407	154,815	-0,152	-0,145
216,421	11,869	-0,172	-0,091
217,436	211,250	-0,263	-0,287
218,450	-43,891	-0,150	-0,052
219,465	-200,000	-0,059	-0,238
220,480	103,428	-0,241	-0,196
221,494	255,059	-0,115	-0,137
222,509	-89,069	-0,214	-0,044
223,523	-42,883	-0,256	-0,090
224,538	-12,611	-0,260	-0,117
225,553	138,100	-0,211	-0,192
226,567	-10,979	-0,244	-0,111
227,582	589,396	-0,184	-0,316
228,596	87,544	-0,107	-0,082
229,611	36,590	-0,164	-0,100
230,626	-105,098	-0,231	0,036
231,640	473,615	-0,094	-0,147
232,655	-2,086	-0,273	-0,132
233,669	180,865	-0,168	-0,171
234,684	103,377	-0,116	-0,094
235,699	-55,951	-0,120	-0,037
236,713	-23,162	-0,208	-0,086
237,728	-46,468	-0,179	0,061
238,742	3,696	-0,198	-0,100
239,757	143,258	-0,279	-0,257
240,772	796,929	-0,178	-0,342
241,786	-97,131	-0,266	-0,048
242,801	27,278	-0,198	-0,115
243,815	-173,135	-0,142	-0,003
244,830	-73,682	-0,129	-0,032
245,844	97,025	-0,202	-0,160
246,859	32,433	-0,202	-0,120
247,874	420,168	-0,134	-0,200
248,888	800,000	-0,100	-0,215
249,903	116,360	-0,292	-0,247
250,917	-111,729	-0,192	-0,027
251,932	372,146	-0,043	-0,061
252,947	-200,000	-0,029	-0,166
253,961	-200,000	-0,006	-0,156
254,976	-42,771	-0,134	-0,047
255,990	-43,039	-0,239	-0,084
257,005	-200,000	-0,047	-0,166
258,020	-200,000	-0,051	-0,175
259,034	85,345	-0,192	-0,146
260,049	-118,173	-0,099	-0,012
261,063	-200,000	-0,006	-0,073
262,078	356,818	-0,104	-0,144
263,093	346,145	-0,194	-0,264
264,107	-52,113	-0,274	-0,087
265,122	800,000	-0,049	0,097
266,136	-69,354	-0,232	-0,061
267,151	-25,577	-0,079	-0,032
268,166	35,777	-0,273	-0,166
269,180	461,913	-0,174	-0,269
270,195	135,091	-0,258	-0,232
271,209	18,734	-0,112	-0,062
272,224	447,451	-0,051	-0,078
273,239	-51,878	-0,193	-0,062
274,253	-131,850	-0,139	0,012
275,268	296,116	-0,165	-0,210
276,282	800,000	-0,085	-0,198
277,297	523,666	-0,158	-0,257
278,312	232,646	-0,091	-0,104
279,326	-146,352	-0,196	-0,012
280,341	104,994	-0,178	-0,145
281,355	4,472	-0,189	-0,095
282,370	800,000	-0,105	-0,210
283,384	65,955	-0,208	-0,145
284,399	-119,035	-0,235	-0,028
285,414	144,675	-0,130	-0,120
286,428	-179,570	-0,142	-0,002
287,443	77,063	-0,142	-0,104
288,457	-40,464	-0,200	-0,071
289,472	-133,940	-0,182	-0,015
290,487	-101,597	-0,175	-0,029
291,501	9,910	-0,073	-0,038
292,516	-200,000	-0,187	0,000
293,530	-93,716	-0,171	-0,032
294,545	-200,000	-0,022	-0,121
295,560	147,737	-0,155	-0,144
296,574	-37,479	-0,281	-0,103
297,589	-200,000	-0,011	-0,101
298,603	50,609	-0,094	-0,061
299,618	54,087	-0,193	-0,128
300,633	-1,392	-0,115	-0,056
301,647	-76,959	-0,135	-0,032
302,662	-75,817	-0,117	-0,028
303,676	-0,945	-0,180	-0,087
304,691	-32,217	-0,128	-0,049
305,706	-130,242	-0,094	0,009
306,720	-31,346	-0,183	-0,070
307,735	164,000	-0,028	-0,027
308,749	514,475	-0,121	-0,195
309,764	-78,208	-0,152	-0,036
310,779	108,490	-0,117	-0,096
311,793	-200,000	-0,017	-0,130
312,808	-110,256	-0,229	-0,032
313,822	-191,462	-0,227	0,002
314,837	-73,800	-0,156	0,039
315,852	681,091	-0,070	-0,126
316,866	-167,726	-0,115	-0,003
317,881	-66,845	-0,042	0,011
318,895	800,000	-0,051	-0,150
319,910	-173,966	-0,190	-0,004
320,925	75,226	-0,170	-0,123
321,939	-200,000	-0,026	-0,210
322,954	800,000	-0,070	-0,194
323,968	-122,146	-0,141	0,016
324,983	156,974	-0,106	-0,101
325,997	82,784	-0,142	-0,106
327,012	-118,140	-0,144	-0,017
328,027	133,792	-0,159	-0,141
329,041	-37,917	-0,261	-0,095
330,056	365,240	-0,075	-0,104
331,070	189,601	-0,098	-0,101
332,085	53,083	-0,094	-0,062
333,100	56,421	-0,122	-0,081
334,114	-66,509	-0,143	0,039
335,129	-134,126	-0,188	0,016
336,143	-55,174	-0,140	-0,043
337,158	-77,693	-0,040	-0,010
338,173	-139,188	-0,049	0,004
339,187	417,809	-0,078	-0,115
340,202	630,949	-0,127	-0,222
341,216	-18,845	-0,221	-0,094
342,231	32,225	-0,138	-0,082
343,246	284,030	-0,166	-0,206
344,260	-200,000	-0,073	-0,282
345,275	356,679	-0,096	-0,131
346,289	-200,000	0,006	-0,061
347,304	-200,000	0,003	-0,058
348,319	800,000	-0,060	-0,181
349,333	230,775	-0,126	-0,142
350,348	-200,000	-0,089	-0,301
351,362	136,032	-0,089	-0,080
352,377	282,656	-0,111	-0,137
353,392	-200,000	-0,012	-0,039
354,406	615,372	-0,059	-0,101
355,421	206,851	1312,207	1403,547
356,435	159,100	1472,630	1404,060
