DTS Sentinel unit serial number:	SN410029Multiplexer serial number:	ORYXHardware model number:	OX2-SRSoftware version number:	ORYX F/W v4,00 Oryx Data Collector v3.7.2.0data status	okinstallation	B3 Nyhavnadifferential loss correction	single-endedforward channel	channel 1reverse channel	N/Adate	2023/12/01time	05:37:30forward acquisition time	300,00reverse acquisition time	0,00gamma	499,1914k internal	0,3213k external	0,3213temperature offset calibration	1,0000default loss term (dB/km)	0,3820temperature slope calibration	1,0000multiplexer offset coefficient	1,0000multiplexer slope coefficient	1,0000fibre end	0,00T internal ref (°C)	7,85T ext. ref 1 (°C)	-7,14T ext. ref 2 (°C)	-7,27length (m)	temperature (°C)	Stokes	anti-Stokes-744,400	228,590	-0,155	-0,184
-743,385	-200,000	-0,006	0,250
-742,371	445,888	-0,099	-0,158
-741,356	-200,000	0,067	0,308
-740,342	66,081	-0,271	-0,199
-739,327	-200,000	-0,033	0,182
-738,312	231,778	-0,280	-0,333
-737,298	-200,000	-0,024	0,202
-736,283	726,656	-0,093	-0,181
-735,269	-200,000	-0,003	0,123
-734,254	764,886	-0,108	-0,213
-733,239	-104,400	-0,262	0,043
-732,225	-200,000	-0,050	-0,169
-731,210	264,526	0,143	0,181
-730,196	606,479	-0,069	-0,125
-729,181	364,944	0,072	0,105
-728,167	531,927	-0,089	-0,153
-727,152	800,000	0,069	-0,215
-726,137	-157,770	-0,192	-0,008
-725,123	-120,314	-0,087	-0,011
-724,108	-78,562	-0,127	-0,031
-723,094	-27,019	-0,142	-0,060
-722,079	13,886	0,066	-0,037
-721,064	-7,150	-0,113	0,055
-720,050	-200,000	0,032	-0,120
-719,035	-200,000	-0,020	-0,070
-718,021	-105,114	-0,136	0,022
-717,006	264,421	-0,020	-0,025
-715,991	-181,413	-0,140	0,002
-714,977	694,176	-0,056	0,106
-713,962	-53,408	-0,247	-0,081
-712,948	105,001	0,122	-0,104
-711,933	-200,000	-0,009	-0,063
-710,918	-23,074	-0,053	0,023
-709,904	-0,220	-0,080	-0,041
-708,889	800,000	0,022	-0,058
-707,875	-200,000	-0,017	-0,209
-706,860	-70,019	0,096	0,026
-705,845	-200,000	-0,022	0,112
-704,831	348,688	-0,080	-0,115
-703,816	-200,000	-0,011	-0,059
-702,802	572,804	0,038	-0,068
-701,787	110,172	-0,106	-0,092
-700,772	-38,891	-0,040	0,015
-699,758	413,672	0,030	-0,047
-698,743	285,892	0,041	-0,054
-697,729	227,928	0,068	0,080
-696,714	257,551	0,019	0,023
-695,699	-112,083	0,172	0,025
-694,685	-27,176	-0,197	-0,083
-693,670	-119,871	0,025	0,003
-692,656	386,388	0,050	-0,076
-691,641	289,367	-0,072	0,095
-690,627	-153,202	-0,044	0,002
-689,612	-33,487	-0,086	0,034
-688,597	94,134	0,081	0,066
-687,583	-120,757	-0,218	0,026
-686,568	14,322	-0,253	-0,142
-685,554	-149,771	0,035	0,002
-684,539	800,000	0,057	-0,123
-683,524	14,702	-0,020	0,011
-682,510	-155,853	0,047	-0,002
-681,495	-142,944	-0,080	-0,006
-680,481	-94,566	-0,109	-0,021
-679,466	5,886	-0,141	0,075
-678,451	-200,000	0,002	-0,026
-677,437	800,000	-0,029	-0,061
-676,422	-200,000	0,002	0,112
-675,408	-66,007	0,022	0,006
-674,393	11,455	-0,077	-0,042
-673,378	-168,558	-0,088	-0,002
-672,364	136,570	0,106	-0,100
-671,349	109,902	-0,089	-0,077
-670,335	580,723	-0,008	0,013
-669,320	-200,000	-0,015	-0,123
-668,305	-108,189	-0,130	0,020
-667,291	-151,727	0,167	0,009
-666,276	166,987	-0,035	-0,036
-665,262	800,000	-0,029	-0,088
-664,247	-98,543	0,046	0,008
-663,232	-122,139	-0,075	0,009
-662,218	466,542	0,050	0,082
-661,203	-67,268	0,147	-0,041
-660,189	-200,000	0,000	-0,057
-659,174	363,372	-0,019	0,028
-658,159	279,495	0,042	-0,055
-657,145	-200,000	0,002	-0,083
-656,130	72,738	0,029	-0,022
-655,116	800,000	-0,060	-0,127
-654,101	-157,627	0,172	-0,007
-653,086	431,994	-0,045	0,071
-652,072	650,776	-0,032	0,060
-651,057	-110,486	-0,179	-0,027
-650,043	71,466	-0,097	0,073
-649,028	-200,000	-0,012	-0,091
-648,014	-200,000	-0,006	-0,076
-646,999	-200,000	-0,001	0,066
-645,984	81,597	0,135	-0,106
-644,970	-87,463	-0,033	-0,007
-643,955	111,374	-0,051	-0,044
-642,941	-200,000	0,001	-0,219
-641,926	-150,757	-0,101	-0,005
-640,911	106,855	0,040	-0,034
-639,897	-200,000	-0,025	0,207
-638,882	496,599	0,036	0,060
-637,868	-54,619	0,056	0,018
-636,853	561,732	-0,074	-0,130
-635,838	139,723	0,069	-0,066
-634,824	230,778	0,029	0,035
-633,809	16,285	0,076	0,043
-632,795	-1,942	0,065	0,033
-631,780	-154,652	0,061	-0,003
-630,765	313,797	-0,074	-0,101
-629,751	332,413	-0,142	-0,199
-628,736	-82,585	0,058	-0,014
-627,722	53,570	-0,047	-0,032
-626,707	800,000	0,030	-0,070
-625,692	163,936	0,083	-0,084
-624,678	287,433	-0,017	-0,022
-623,663	-100,666	-0,160	-0,028
-622,649	101,026	-0,027	-0,022
-621,634	-9,265	-0,038	-0,018
-620,619	126,531	-0,092	0,084
-619,605	-152,265	0,136	-0,007
-618,590	-200,000	-0,022	0,084
-617,576	800,000	-0,048	0,125
-616,561	68,621	-0,088	-0,065
-615,546	356,066	0,014	0,020
-614,532	16,243	0,055	-0,031
-613,517	261,955	-0,131	-0,164
-612,503	-86,523	-0,035	0,008
-611,488	800,000	-0,021	0,044
-610,474	800,000	-0,018	-0,036
-609,459	39,938	0,054	0,035
-608,444	326,377	0,049	-0,068
-607,430	-21,208	-0,064	0,028
-606,415	341,610	-0,047	-0,067
-605,401	-102,808	-0,059	-0,010
-604,386	138,720	0,082	-0,077
-603,371	-26,832	0,028	0,012
-602,357	800,000	-0,028	0,086
-601,342	324,242	-0,043	0,059
-600,328	779,660	-0,064	-0,127
-599,313	-78,120	0,094	-0,023
-598,298	-200,000	0,023	-0,104
-597,284	361,821	0,094	-0,136
-596,269	-200,000	-0,031	0,115
-595,255	-76,735	0,098	0,025
-594,240	-200,000	0,067	0,000
-593,225	-200,000	-0,014	-0,117
-592,211	-200,000	0,026	-0,115
-591,196	-200,000	0,026	-0,105
-590,182	97,189	0,078	0,064
-589,167	-200,000	0,006	0,103
-588,152	19,858	0,103	0,059
-587,138	-200,000	-0,016	0,077
-586,123	46,370	0,026	-0,017
-585,109	103,354	0,067	-0,057
-584,094	-200,000	0,003	-0,117
-583,079	19,345	0,033	-0,019
-582,065	-200,000	0,010	0,117
-581,050	-134,028	0,056	0,005
-580,036	417,185	-0,049	-0,075
-579,021	357,491	-0,057	-0,082
-578,006	-200,000	0,012	-0,131
-576,992	197,248	0,075	-0,083
-575,977	-200,000	0,024	0,142
-574,963	800,000	0,017	0,049
-573,948	517,028	-0,057	0,096
-572,934	800,000	0,010	-0,020
-571,919	-129,652	0,008	-0,001
-570,904	-98,598	-0,054	-0,010
-569,890	800,000	-0,014	0,034
-568,875	800,000	0,060	-0,146
-567,861	8,544	-0,061	0,033
-566,846	177,774	-0,053	-0,055
-565,831	800,000	0,040	-0,087
-564,817	800,000	-0,042	-0,109
-563,802	297,712	-0,054	-0,071
-562,788	164,887	0,102	-0,104
-561,773	-143,307	-0,134	-0,009
-560,758	-200,000	0,033	-0,118
-559,744	74,457	0,060	0,045
-558,729	-200,000	-0,010	-0,059
-557,715	-89,241	-0,047	0,010
-556,700	-40,212	-0,130	-0,048
-555,685	-118,948	0,033	0,004
-554,671	660,479	0,009	0,017
-553,656	-200,000	-0,004	-0,019
-552,642	41,609	0,120	0,078
-551,627	407,457	-0,026	0,040
-550,612	-66,171	-0,091	-0,026
-549,598	-147,091	0,066	0,004
-548,583	800,000	0,038	0,108
-547,569	-139,158	-0,078	0,006
-546,554	173,795	0,034	0,036
-545,539	-126,037	-0,144	-0,015
-544,525	-71,323	0,025	-0,007
-543,510	-174,276	0,043	-0,001
-542,496	60,179	0,093	0,066
-541,481	-44,213	0,028	0,010
-540,466	365,866	0,087	-0,126
-539,452	-112,997	0,126	0,018
-538,437	-8,431	0,082	-0,039
-537,423	103,904	0,136	0,114
-536,408	-45,063	-0,043	-0,015
-535,393	117,294	-0,088	-0,078
-534,379	-34,473	-0,153	-0,060
-533,364	800,000	-0,049	-0,098
-532,350	-75,514	0,062	0,016
-531,335	-120,217	-0,027	-0,003
-530,321	44,223	-0,088	0,058
-529,306	-200,000	-0,014	0,124
-528,291	-124,974	0,051	0,006
-527,277	-48,491	0,082	-0,028
-526,262	-200,000	0,033	-0,144
-525,248	347,176	-0,064	0,091
-524,233	175,937	-0,078	0,081
-523,218	800,000	0,021	-0,063
-522,204	800,000	-0,029	-0,066
-521,189	449,712	0,033	0,052
-520,175	-55,129	-0,122	0,039
-519,160	-114,014	0,166	0,023
-518,145	-200,000	-0,009	-0,082
-517,131	278,597	0,083	0,107
-516,116	-200,000	0,027	0,095
-515,102	-77,682	-0,082	0,020
-514,087	800,000	-0,068	0,170
-513,072	51,497	-0,080	-0,054
-512,058	-11,706	-0,091	0,043
-511,043	800,000	0,021	0,058
-510,029	114,535	-0,082	0,071
-509,014	-200,000	0,016	0,051
-507,999	300,820	0,124	0,164
-506,985	405,458	-0,083	-0,127
-505,970	-32,278	-0,136	-0,054
-504,956	-107,772	0,022	0,003
-503,941	-200,000	0,030	-0,121
-502,926	253,506	0,072	0,089
-501,912	800,000	-0,040	0,125
-500,897	-10,568	0,070	0,033
-499,883	-200,000	0,010	-0,209
-498,868	800,000	0,038	-0,104
-497,853	800,000	-0,040	-0,088
-496,839	800,000	-0,079	-0,186
-495,824	473,771	-0,065	-0,106
-494,810	352,095	0,033	0,047
-493,795	-131,865	0,137	0,013
-492,781	64,811	0,029	0,021
-491,766	20,535	0,066	0,038
-490,751	36,267	-0,104	-0,066
-489,737	-200,000	-0,017	-0,124
-488,722	800,000	-0,048	0,106
-487,708	-107,961	0,156	-0,024
-486,693	-64,112	0,116	0,034
-485,678	-200,000	-0,012	-0,041
-484,664	197,444	-0,086	0,095
-483,649	-104,009	-0,021	0,004
-482,635	-85,476	0,051	0,011
-481,620	800,000	-0,023	0,061
-480,605	327,877	0,033	0,045
-479,591	236,167	-0,121	0,144
-478,576	-200,000	0,006	-0,065
-477,562	-200,000	-0,021	-0,105
-476,547	-200,000	0,023	-0,154
-475,532	-129,344	0,104	-0,010
-474,518	180,802	-0,020	-0,021
-473,503	182,715	0,043	0,045
-472,489	-177,177	0,074	0,001
-471,474	-42,557	-0,026	-0,009
-470,459	530,650	-0,058	-0,099
-469,445	789,821	-0,033	-0,066
-468,430	-158,673	0,099	-0,004
-467,416	-200,000	0,015	0,117
-466,401	536,645	0,043	0,074
-465,386	800,000	-0,009	-0,020
-464,372	-68,963	-0,014	0,004
-463,357	-84,446	0,090	-0,020
-462,343	-200,000	0,000	-0,012
-461,328	160,360	0,114	0,114
-460,313	800,000	-0,043	-0,093
-459,299	-200,000	-0,000	0,083
-458,284	-200,000	-0,003	0,106
-457,270	318,512	0,093	-0,126
-456,255	800,000	-0,031	0,063
-455,241	653,184	0,116	-0,215
-454,226	18,978	0,110	-0,063
-453,211	49,676	-0,077	0,052
-452,197	240,953	0,106	-0,127
-451,182	-200,000	-0,014	0,153
-450,168	-200,000	-0,008	-0,118
-449,153	800,000	-0,002	0,006
-448,138	-104,615	-0,032	-0,005
-447,124	-103,405	-0,126	0,021
-446,109	57,699	-0,066	-0,046
-445,095	164,673	0,072	0,073
-444,080	176,616	0,128	-0,133
-443,065	-33,889	0,096	-0,038
-442,051	-86,656	-0,092	-0,020
-441,036	-1,266	-0,185	-0,093
-440,022	449,306	0,054	-0,086
-439,007	-200,000	0,001	0,010
-437,992	-46,213	0,144	-0,050
-436,978	65,644	0,129	0,093
-435,963	-169,841	0,098	0,002
-434,949	270,571	-0,083	-0,105
-433,934	85,823	0,138	-0,108
-432,919	-200,000	-0,001	-0,012
-431,905	41,810	0,101	-0,066
-430,890	800,000	-0,026	0,077
-429,876	-13,775	0,166	0,077
-428,861	-200,000	0,009	0,189
-427,846	-200,000	0,002	0,098
-426,832	59,842	-0,135	-0,095
-425,817	-3,120	0,087	-0,043
-424,803	-200,000	0,008	0,127
-423,788	279,933	0,051	0,065
-422,773	108,094	0,067	0,057
-421,759	800,000	-0,042	0,085
-420,744	203,652	-0,010	-0,012
-419,730	-113,443	0,084	-0,012
-418,715	595,226	-0,025	-0,044
-417,701	18,395	-0,102	0,058
-416,686	-200,000	0,034	0,136
-415,671	800,000	0,049	0,152
-414,657	34,933	0,060	-0,037
-413,642	253,581	0,071	0,087
-412,628	61,018	-0,127	-0,090
-411,613	800,000	0,049	-0,132
-410,598	470,577	0,061	-0,099
-409,584	-200,000	0,001	-0,043
-408,569	-200,000	0,031	0,103
-407,555	291,735	0,017	0,023
-406,540	325,285	-0,067	0,092
-405,525	91,060	-0,176	-0,141
-404,511	205,753	0,043	0,048
-403,496	800,000	-0,017	-0,052
-402,482	-15,713	0,046	0,021
-401,467	67,610	0,054	0,039
-400,452	-200,000	-0,007	0,023
-399,438	166,217	0,008	-0,008
-398,423	374,279	-0,083	-0,122
-397,409	800,000	0,034	0,080
-396,394	-7,577	0,083	0,040
-395,379	-142,678	-0,038	0,003
-394,365	449,306	0,017	-0,026
-393,350	647,413	0,036	-0,066
-392,336	35,887	0,079	-0,050
-391,321	-200,000	-0,007	-0,025
-390,306	800,000	0,036	-0,094
-389,292	324,884	-0,124	0,170
-388,277	800,000	-0,069	-0,148
-387,263	494,339	-0,036	-0,059
-386,248	28,749	0,121	0,073
-385,233	-200,000	-0,043	0,181
-384,219	-46,796	-0,107	-0,037
-383,204	800,000	-0,027	-0,053
-382,190	657,921	-0,059	-0,109
-381,175	-86,379	0,021	-0,005
-380,160	800,000	-0,014	-0,031
-379,146	33,681	-0,037	0,023
-378,131	169,980	-0,032	-0,032
-377,117	264,689	-0,103	0,129
-376,102	-110,790	-0,134	-0,020
-375,088	-200,000	0,009	0,043
-374,073	-16,115	0,219	0,099
-373,058	93,728	0,003	0,002
-372,044	-111,999	-0,061	0,009
-371,029	-200,000	-0,025	0,111
-370,015	184,050	0,070	0,074
-369,000	-200,000	-0,008	0,085
-367,985	151,628	0,038	-0,037
-366,971	-25,975	-0,056	0,024
-365,956	-164,935	-0,085	-0,003
-364,942	-200,000	-0,065	0,231
-363,927	134,365	0,112	0,104
-362,912	-200,000	0,014	-0,132
-361,898	-137,149	-0,048	-0,004
-360,883	573,898	-0,063	-0,111
-359,869	800,000	0,020	-0,042
-358,854	74,190	0,059	0,044
-357,839	-200,000	-0,006	0,074
-356,825	-200,000	0,036	0,214
-355,810	-2,833	0,111	-0,055
-354,796	-200,000	-0,040	-0,144
-353,781	97,710	0,060	0,050
-352,766	-200,000	-0,013	-0,073
-351,752	614,437	-0,033	-0,060
-350,737	-200,000	-0,001	-0,010
-349,723	88,881	-0,039	0,031
-348,708	800,000	-0,007	0,020
-347,693	-79,653	-0,106	0,025
-346,679	-108,050	-0,183	0,028
-345,664	-19,334	0,048	0,021
-344,650	800,000	-0,051	-0,132
-343,635	-200,000	0,034	0,111
-342,620	590,226	-0,014	0,024
-341,606	800,000	0,018	0,038
-340,591	97,328	-0,115	0,094
-339,577	800,000	0,015	0,040
-338,562	132,969	-0,079	-0,073
-337,548	64,567	-0,075	-0,054
-336,533	-15,900	0,053	0,024
-335,518	-200,000	0,034	0,138
-334,504	115,029	-0,078	0,068
-333,489	212,329	-0,076	0,085
-332,475	521,350	0,006	0,010
-331,460	37,981	-0,143	-0,090
-330,445	-136,564	0,042	0,003
-329,431	132,202	0,066	0,061
-328,416	-118,022	0,123	-0,016
-327,402	164,180	-0,053	-0,053
-326,387	66,343	0,049	-0,035
-325,372	322,387	0,016	-0,022
-324,358	-66,088	-0,077	-0,022
-323,343	-200,000	0,027	-0,086
-322,329	161,483	0,055	-0,055
-321,314	48,671	0,023	0,015
-320,299	-200,000	0,045	0,316
-319,285	168,630	-0,114	0,116
-318,270	800,000	0,039	-0,111
-317,256	-137,215	-0,022	-0,002
-316,241	-100,566	-0,062	0,011
-315,226	-19,460	-0,110	-0,048
-314,212	-14,167	0,165	0,076
-313,197	-200,000	0,020	0,100
-312,183	-200,000	-0,084	0,000
-311,168	437,234	-0,088	0,136
-310,153	-38,266	0,071	0,027
-309,139	184,165	-0,020	0,021
-308,124	800,000	-0,013	0,030
-307,110	300,469	0,069	0,091
-306,095	187,530	-0,089	0,095
-305,080	-200,000	-0,002	0,042
-304,066	800,000	0,019	-0,051
-303,051	-12,359	-0,103	-0,048
-302,037	-200,000	0,021	-0,127
-301,022	-200,000	-0,017	0,109
-300,008	103,328	0,033	0,027
-298,993	239,106	0,103	0,122
-297,978	49,393	-0,072	-0,048
-296,964	-200,000	0,008	-0,054
-295,949	-96,354	-0,077	0,014
-294,935	-78,673	0,060	0,015
-293,920	-173,118	0,096	0,002
-292,905	369,644	0,032	0,046
-291,891	19,263	-0,061	0,035
-290,876	800,000	0,032	0,068
-289,862	336,881	-0,032	-0,045
-288,847	-14,065	-0,032	-0,015
-287,832	-200,000	0,009	0,045
-286,818	-200,000	0,038	0,159
-285,803	-200,000	-0,020	0,181
-284,789	47,915	0,046	0,031
-283,774	800,000	0,029	0,071
-282,759	800,000	0,031	-0,073
-281,745	611,478	0,006	-0,011
-280,730	10,868	0,052	-0,028
-279,716	-200,000	-0,027	-0,100
-278,701	800,000	-0,038	-0,090
-277,686	622,710	-0,058	0,105
-276,672	82,897	0,139	0,107
-275,657	29,993	-0,164	0,099
-274,643	-200,000	-0,015	0,055
-273,628	224,004	0,005	-0,006
-272,613	168,939	-0,088	-0,089
-271,599	181,924	0,057	0,060
-270,584	-200,000	0,021	0,091
-269,570	800,000	-0,045	0,095
-268,555	57,512	0,107	0,074
-267,540	-35,956	-0,062	-0,024
-266,526	143,994	-0,092	-0,087
-265,511	433,243	0,016	-0,025
-264,497	60,362	-0,058	-0,041
-263,482	-200,000	-0,054	0,193
-262,467	86,492	-0,161	0,127
-261,453	800,000	-0,046	0,099
-260,438	-20,473	-0,050	0,022
-259,424	-200,000	-0,104	0,000
-258,409	88,190	-0,091	-0,072
-257,395	-200,000	-0,035	-0,168
-256,380	285,068	0,086	0,110
-255,365	-23,732	0,021	-0,009
-254,351	-34,435	0,135	-0,052
-253,336	153,791	-0,038	-0,037
-252,322	555,488	0,061	-0,105
-251,307	225,813	-0,031	-0,036
-250,292	-153,804	-0,033	-0,002
-249,278	8,043	0,107	0,057
-248,263	136,754	-0,042	0,039
-247,249	104,402	0,110	-0,092
-246,234	283,348	0,055	0,070
-245,219	800,000	-0,026	-0,068
-244,205	149,829	-0,014	0,013
-243,190	-170,466	-0,049	-0,001
-242,176	415,420	0,036	0,054
-241,161	-88,660	0,242	0,051
-240,146	302,117	0,037	0,049
-239,132	-106,411	0,058	0,009
-238,117	-200,000	0,019	-0,077
-237,103	-146,488	-0,176	-0,011
-236,088	-200,000	0,003	0,051
-235,073	-200,000	0,021	0,195
-234,059	-49,760	0,128	0,043
-233,044	158,424	-0,062	-0,061
-232,030	-200,000	-0,057	0,000
-231,015	-200,000	-0,010	0,067
-230,000	4,454	-0,070	-0,037
-228,986	-196,509	-0,048	-0,000
-227,971	104,764	-0,153	0,128
-226,957	800,000	0,037	0,089
-225,942	-8,630	0,184	0,087
-224,927	800,000	0,054	-0,112
-223,913	800,000	-0,067	-0,164
-222,898	-200,000	-0,004	-0,146
-221,884	148,826	-0,094	-0,090
-220,869	-132,523	0,050	-0,005
-219,855	-179,951	-0,070	-0,001
-218,840	281,706	0,018	0,022
-217,825	111,955	0,112	-0,096
-216,811	-118,890	-0,102	-0,013
-215,796	-72,628	-0,122	-0,032
-214,782	-200,000	-0,060	-0,226
-213,767	404,256	-0,021	0,031
-212,752	-200,000	0,046	0,165
-211,738	404,572	0,027	-0,040
-210,723	-109,478	0,101	-0,015
-209,709	60,757	-0,092	0,065
-208,694	800,000	-0,053	0,131
-207,679	-200,000	-0,005	0,082
-206,665	27,493	-0,038	0,023
-205,650	778,602	-0,024	0,048
-204,636	800,000	-0,031	-0,076
-203,621	800,000	0,013	-0,026
-202,606	-1,472	-0,076	-0,038
-201,592	800,000	0,012	-0,037
-200,577	800,000	-0,029	-0,071
-199,563	238,427	0,036	-0,042
-198,548	4,572	0,036	0,019
-197,533	-59,113	0,004	-0,001
-196,519	-200,000	0,032	0,127
-195,504	800,000	-0,035	0,077
-194,490	94,491	-0,068	0,055
-193,475	800,000	-0,041	-0,090
-192,460	306,549	-0,116	0,154
-191,446	-168,211	0,127	-0,003
-190,431	-12,300	0,077	0,036
-189,417	420,845	-0,078	0,118
-188,402	169,577	0,070	-0,071
-187,387	377,807	-0,091	-0,133
-186,373	-200,000	-0,015	-0,129
-185,358	-11,599	0,109	0,050
-184,344	-200,000	-0,007	-0,028
-183,329	-200,000	-0,004	-0,137
-182,315	800,000	0,015	-0,035
-181,300	800,000	0,014	0,038
-180,285	800,000	-0,040	-0,088
-179,271	5,938	-0,186	0,097
-178,256	34,097	-0,106	-0,066
-177,242	-200,000	-0,009	0,085
-176,227	74,199	0,065	0,048
-175,212	-101,651	0,061	-0,010
-174,198	-13,503	0,020	-0,009
-173,183	-200,000	0,023	-0,128
-172,169	269,819	-0,103	-0,129
-171,154	-117,946	0,075	0,009
-170,139	373,075	-0,079	-0,114
-169,125	-200,000	0,005	-0,022
-168,110	-200,000	0,029	0,126
-167,096	-200,000	-0,019	-0,106
-166,081	-200,000	0,025	-0,146
-165,066	247,745	-0,064	-0,077
-164,052	134,866	0,047	-0,044
-163,037	-200,000	-0,030	-0,109
-162,023	-200,000	0,027	0,101
-161,008	-200,000	0,028	0,151
-159,993	50,061	0,075	0,050
-158,979	-79,623	0,083	-0,020
-157,964	512,962	-0,025	0,041
-156,950	-73,234	0,101	0,026
-155,935	-49,205	0,080	-0,027
-154,920	-179,857	-0,084	-0,001
-153,906	-200,000	0,002	0,021
-152,891	790,984	-0,031	0,060
-151,877	-200,000	-0,027	-0,147
-150,862	66,746	0,031	0,023
-149,847	284,155	0,082	-0,104
-148,833	-64,022	-0,120	0,035
-147,818	299,391	-0,050	0,066
-146,804	5,656	0,097	0,051
-145,789	-38,916	0,117	0,044
-144,775	60,756	0,045	-0,031
-143,760	-58,598	0,074	0,023
-142,745	-200,000	0,021	-0,096
-141,731	78,518	0,047	-0,035
-140,716	-126,270	0,106	0,011
-139,702	132,184	0,140	0,128
-138,687	686,462	-0,034	0,064
-137,672	471,784	0,035	0,056
-136,658	153,997	-0,050	-0,049
-135,643	-134,296	-0,121	-0,010
-134,629	-145,759	0,077	0,005
-133,614	-200,000	0,005	0,099
-132,599	167,222	-0,029	0,029
-131,585	-200,000	0,003	0,014
-130,570	-34,572	-0,104	-0,040
-129,556	-49,862	-0,051	0,017
-128,541	101,536	0,064	-0,053
-127,526	-128,845	-0,132	0,013
-126,512	636,307	-0,018	0,033
-125,497	-112,183	-0,055	-0,008
-124,483	-200,000	0,022	0,070
-123,468	62,399	0,082	-0,058
-122,453	-200,000	-0,002	-0,021
-121,439	-121,269	-0,092	-0,011
-120,424	-200,000	-0,007	-0,035
-119,410	-200,000	0,020	0,066
-118,395	91,821	0,125	-0,100
-117,380	-20,507	-0,061	0,026
-116,366	91,867	0,114	-0,090
-115,351	269,625	0,050	-0,062
-114,337	-9,527	-0,106	-0,050
-113,322	469,854	0,086	-0,137
-112,307	-80,646	0,049	0,011
-111,293	-200,000	0,004	0,108
-110,278	-200,000	0,008	0,061
-109,264	-200,000	0,015	0,050
-108,249	-200,000	0,013	-0,058
-107,234	620,535	0,090	-0,160
-106,220	-200,000	-0,016	-0,090
-105,205	-200,000	0,003	-0,020
-104,191	198,963	-0,057	-0,062
-103,176	-97,906	0,105	-0,019
-102,162	-200,000	0,009	0,076
-101,147	258,587	-0,044	0,054
-100,132	233,282	-0,102	-0,118
-99,118	-167,611	-0,117	0,003
-98,103	-148,974	0,080	-0,004
-97,089	-200,000	0,016	-0,154
-96,074	131,475	0,044	0,040
-95,059	270,884	0,047	0,059
-94,045	638,170	0,028	-0,051
-93,030	800,000	0,029	0,062
-92,016	-200,000	-0,007	-0,036
-91,001	-200,000	0,011	0,126
-89,986	800,000	0,015	-0,035
-88,972	-200,000	-0,021	0,123
-87,957	295,684	0,037	0,048
-86,943	-59,430	-0,111	-0,033
-85,928	-200,000	0,015	0,091
-84,913	-10,604	-0,170	-0,079
-83,899	-200,000	0,011	0,056
-82,884	-106,180	0,085	-0,013
-81,870	-200,000	-0,028	-0,092
-80,855	-200,000	0,032	0,105
-79,840	177,372	0,050	-0,051
-78,826	163,208	0,062	-0,062
-77,811	800,000	0,045	-0,101
-76,797	-129,624	-0,109	-0,010
-75,782	365,300	0,069	0,098
-74,767	68,005	0,111	0,080
-73,753	136,382	0,042	-0,038
-72,738	-18,497	-0,078	0,034
-71,724	-200,000	-0,011	0,083
-70,709	228,795	-0,149	-0,172
-69,694	-200,000	-0,007	0,031
-68,680	-200,000	-0,002	0,070
-67,665	-200,000	-0,004	-0,084
-66,651	42,371	-0,085	0,054
-65,636	800,000	0,042	-0,099
-64,622	-200,000	-0,030	0,128
-63,607	-122,221	-0,110	0,013
-62,592	69,833	-0,067	-0,049
-61,578	-12,260	0,049	-0,023
-60,563	216,443	0,130	-0,146
-59,549	800,000	-0,040	0,102
-58,534	73,214	-2,168	-1,598
-57,519	776,210	-0,983	-1,903
-56,505	-200,000	-0,509	-4,549
-55,490	505,118	0,996	1,633
-54,476	800,000	5,279	11,645
-53,461	-200,000	22,554	347,944
-52,446	800,000	757,102	2287,255
-51,432	530,768	1641,772	2747,539
-50,417	67,466	1640,519	1179,741
-49,403	15,530	1517,978	838,583
-48,388	9,703	1444,717	770,148
-47,373	19,319	1437,422	812,004
-46,359	13,246	1425,851	776,808
-45,344	8,031	1421,855	749,957
-44,330	7,981	1419,930	748,679
-43,315	7,921	1418,165	747,432
-42,300	7,930	1416,447	746,542
-41,286	7,970	1415,016	745,944
-40,271	7,959	1413,811	745,229
-39,257	7,924	1412,734	744,467
-38,242	7,953	1411,630	743,992
-37,227	7,943	1410,454	743,298
-36,213	7,984	1409,034	742,709
-35,198	7,943	1407,911	741,896
-34,184	7,978	1406,993	741,548
-33,169	7,872	1406,004	740,502
-32,154	7,926	1404,945	740,166
-31,140	7,913	1403,655	739,399
-30,125	7,955	1402,444	738,927
-29,111	7,910	1401,374	738,121
-28,096	7,930	1400,111	737,524
-27,082	7,884	1398,921	736,650
-26,067	7,873	1397,838	735,999
-25,052	7,904	1396,765	735,551
-24,038	7,901	1395,770	734,985
-23,023	7,882	1394,889	734,404
-22,009	7,838	1393,959	733,680
-20,994	7,858	1392,852	733,161
-19,979	7,846	1391,976	732,613
-18,965	7,843	1391,008	732,062
-17,950	7,854	1389,979	731,542
-16,936	7,820	1389,116	730,901
-15,921	7,795	1388,101	730,225
-14,906	7,820	1387,004	729,734
-13,892	7,807	1386,130	729,182
-12,877	7,787	1385,569	728,770
-11,863	7,741	1384,973	728,214
-10,848	7,794	1383,750	727,784
-9,833	7,714	1382,960	726,971
-8,819	7,698	1382,002	726,368
-7,804	7,702	1381,181	725,927
-6,790	7,716	1379,990	725,335
-5,775	7,730	1378,954	724,824
-4,760	7,706	1378,066	724,221
-3,746	7,721	1377,071	723,737
-2,731	7,741	1376,064	723,271
-1,717	7,676	1375,606	722,704
-0,702	7,658	1373,790	721,640
0,313	11,606	1283,842	692,262
1,327	27,404	675,765	399,516
2,342	42,335	116,186	74,300
3,356	-2,351	16,570	8,161
4,371	-2,763	3,923	1,927
5,386	-1,964	1,338	0,661
6,400	800,000	0,303	0,617
7,415	-200,000	-0,044	-0,167
8,429	165,387	-0,227	-0,227
9,444	583,920	-0,190	-0,330
10,459	76,866	-0,231	-0,173
11,473	-28,780	-0,315	-0,127
12,488	117,243	-0,159	-0,137
13,502	-50,874	-0,295	-0,097
14,517	-68,782	-0,209	-0,056
15,531	80,188	-0,346	-0,262
16,546	86,877	-0,365	-0,283
17,561	106,046	-0,332	-0,277
18,575	-139,276	-0,188	-0,014
19,590	785,050	-0,168	-0,326
20,604	9,054	-0,240	-0,127
21,619	216,886	-0,315	-0,354
22,634	87,804	-0,495	-0,386
23,648	191,202	-0,334	-0,355
24,663	95,743	-0,365	-0,293
25,677	205,072	-0,224	-0,245
26,692	17,484	-0,303	-0,169
27,707	198,972	-0,255	-0,275
28,721	81,702	-0,344	-0,262
29,736	-9,679	-0,495	-0,231
30,750	85,815	-0,372	-0,288
31,765	25,033	-0,303	-0,176
32,780	149,988	-0,350	-0,334
33,794	108,000	-0,333	-0,279
34,809	128,887	-0,414	-0,371
35,823	112,698	-0,340	-0,289
36,838	5,328	-0,374	-0,193
37,853	71,039	-0,290	-0,211
38,867	394,981	-0,260	-0,382
39,882	56,480	-0,312	-0,213
40,896	60,764	-0,312	-0,217
41,911	-43,899	-0,353	-0,124
42,926	75,603	-0,403	-0,299
43,940	142,989	-0,275	-0,256
44,955	41,154	-0,393	-0,249
45,969	143,223	-0,301	-0,282
46,984	67,638	-0,351	-0,251
47,999	19,643	-0,286	-0,161
49,013	164,986	-0,249	-0,247
50,028	-23,233	-0,465	-0,196
51,042	165,022	-0,264	-0,262
52,057	57,382	-0,368	-0,252
53,071	-90,239	-0,387	-0,078
54,086	98,238	-0,309	-0,250
55,101	75,597	-0,321	-0,238
56,115	14,511	-0,379	-0,207
57,130	91,675	-0,425	-0,335
58,144	-58,064	-0,452	-0,138
59,159	-41,422	-0,421	-0,151
60,174	-79,538	-0,303	-0,071
61,188	23,203	-0,255	-0,146
62,203	-48,643	-0,308	-0,103
63,217	36,359	-0,299	-0,185
64,232	-31,193	-0,281	-0,110
65,247	-25,100	-0,399	-0,165
66,261	130,648	-0,378	-0,340
67,276	635,435	-0,190	-0,339
68,290	73,789	-0,347	-0,255
69,305	86,107	-0,237	-0,183
70,320	-21,562	-0,298	-0,127
71,334	14,071	-0,358	-0,195
72,349	118,967	-0,284	-0,246
73,363	298,172	-0,209	-0,269
74,378	206,806	-0,341	-0,373
75,393	16,722	-0,425	-0,235
76,407	-1,003	-0,236	-0,117
77,422	-68,407	-0,340	-0,092
78,436	-65,192	-0,432	-0,121
79,451	51,847	-0,243	-0,162
80,466	79,322	-0,249	-0,187
81,480	110,910	-0,239	-0,202
82,495	-8,002	-0,383	-0,180
83,509	24,195	-0,311	-0,179
84,524	84,562	-0,289	-0,221
85,539	65,541	-0,265	-0,188
86,553	-53,176	-0,292	-0,093
87,568	136,800	-0,232	-0,212
88,582	25,782	-0,308	-0,179
89,597	82,333	-0,383	-0,291
90,611	-12,194	-0,208	-0,095
91,626	-53,076	-0,332	-0,106
92,641	74,667	-0,230	-0,169
93,655	22,506	-0,289	-0,165
94,670	23,069	-0,329	-0,188
95,684	199,408	-0,247	-0,265
96,699	191,802	-0,165	-0,174
97,714	128,046	-0,278	-0,247
98,728	-12,459	-0,190	-0,087
99,743	55,893	-0,246	-0,166
100,757	5,570	-0,231	-0,119
101,772	102,720	-0,272	-0,222
102,787	22,171	-0,197	-0,112
103,801	405,353	-0,276	-0,408
104,816	-58,061	-0,344	-0,104
105,830	-98,721	-0,309	-0,055
106,845	-4,195	-0,400	-0,193
107,860	22,470	-0,363	-0,207
108,874	52,209	-0,317	-0,210
109,889	258,321	-0,185	-0,223
110,903	161,084	-0,194	-0,189
111,918	-44,726	-0,263	-0,091
112,933	-23,236	-0,312	-0,131
113,947	-29,698	-0,269	-0,107
114,962	-88,468	-0,334	-0,069
115,976	286,417	-0,203	-0,256
116,991	366,759	-0,188	-0,265
118,006	64,840	-0,214	-0,151
119,020	69,602	-0,336	-0,241
120,035	-4,493	-0,308	-0,148
121,049	-200,000	-0,028	-0,174
122,064	75,313	-0,250	-0,184
123,079	-31,416	-0,236	-0,092
124,093	-23,748	-0,285	-0,119
125,108	193,035	-0,243	-0,256
126,122	-14,170	-0,257	-0,115
127,137	23,858	-0,160	-0,091
128,151	65,316	-0,330	-0,232
129,166	216,494	-0,200	-0,222
130,181	-21,777	-0,280	-0,118
131,195	51,976	-0,179	-0,118
132,210	101,241	-0,265	-0,215
133,224	-62,762	-0,237	-0,068
134,239	800,000	-0,103	-0,272
135,254	25,450	-0,184	-0,106
136,268	-73,351	-0,117	-0,029
137,283	28,092	-0,132	-0,078
138,297	800,000	-0,201	-0,392
139,312	148,651	-0,287	-0,270
140,327	69,801	-0,237	-0,170
141,341	96,773	-0,205	-0,164
142,356	87,153	-0,280	-0,215
143,370	-45,258	-0,334	-0,115
144,385	-121,166	-0,353	-0,041
145,400	10,177	-0,422	-0,223
146,414	771,775	-0,178	-0,339
147,429	30,269	-0,210	-0,124
148,443	98,498	-0,268	-0,215
149,458	-76,267	-0,240	-0,058
150,473	129,101	-0,235	-0,209
151,487	116,624	-0,209	-0,178
152,502	-42,246	-0,383	-0,136
153,516	89,475	-0,294	-0,228
154,531	129,203	-0,278	-0,247
155,546	-46,287	-0,275	-0,093
156,560	35,551	-0,304	-0,185
157,575	167,502	-0,109	-0,108
158,589	-48,547	-0,344	-0,114
159,604	5,486	-0,241	-0,123
160,619	250,471	-0,206	-0,244
161,633	305,239	-0,206	-0,267
162,648	-22,343	-0,146	-0,061
163,662	74,386	-0,185	-0,135
164,677	-116,887	-0,317	-0,040
165,692	-99,740	-0,196	-0,034
166,706	-37,769	-0,325	-0,120
167,721	318,414	-0,200	-0,264
168,735	149,134	-0,196	-0,184
169,750	150,813	-0,232	-0,219
170,764	206,457	-0,216	-0,234
171,779	-2,473	-0,171	-0,083
172,794	10,085	-0,314	-0,165
173,808	-105,593	-0,312	-0,049
174,823	82,515	-0,141	-0,106
175,837	7,733	-0,373	-0,193
176,852	-99,268	-0,312	-0,054
177,867	100,302	-0,225	-0,182
178,881	79,587	-0,240	-0,179
179,896	91,402	-0,247	-0,192
180,910	-156,781	-0,262	-0,011
181,925	-12,196	-0,281	-0,127
182,940	41,373	-0,208	-0,130
183,954	72,814	-0,295	-0,213
184,969	81,437	-0,263	-0,197
185,983	13,947	-0,202	-0,109
186,998	134,901	-0,136	-0,122
188,013	431,352	-0,172	-0,260
189,027	116,233	-0,225	-0,191
190,042	20,545	-0,225	-0,126
191,056	77,049	-0,134	-0,098
192,071	126,980	-0,269	-0,236
193,086	249,815	-0,165	-0,195
194,100	800,000	-0,077	-0,159
195,115	-28,354	-0,269	-0,107
196,129	800,000	-0,086	-0,242
197,144	366,443	-0,170	-0,239
198,159	262,348	-0,248	-0,299
199,173	621,335	-0,097	-0,169
200,188	-87,974	-0,137	-0,028
201,202	-129,867	-0,148	0,014
202,217	-153,845	-0,094	0,004
203,232	93,806	-0,188	-0,148
204,246	800,000	-0,134	-0,302
205,261	196,983	-0,181	-0,192
206,275	61,020	-0,236	-0,162
207,290	78,584	-0,206	-0,153
208,304	42,678	-0,147	-0,093
209,319	502,603	-0,106	-0,171
210,334	149,439	-0,194	-0,182
211,348	-45,783	-0,222	-0,075
212,363	-16,393	-0,177	-0,077
213,377	445,801	-0,177	-0,269
214,392	316,770	-0,205	-0,268
215,407	259,667	-0,101	-0,121
216,421	-200,000	-0,049	-0,193
217,436	90,521	-0,234	-0,181
218,450	67,214	-0,281	-0,198
219,465	-200,000	-0,069	-0,250
220,480	40,297	-0,179	-0,111
221,494	22,376	-0,165	-0,093
222,509	-145,340	-0,210	0,013
223,523	285,787	-0,115	-0,144
224,538	203,009	-0,123	-0,132
225,553	-27,126	-0,265	-0,106
226,567	-144,043	-0,273	-0,017
227,582	800,000	-0,030	-0,058
228,596	40,523	-0,192	-0,119
229,611	-39,583	-0,108	0,039
230,626	-111,370	-0,178	-0,025
231,640	143,976	-0,145	-0,134
232,655	-200,000	-0,027	-0,180
233,669	138,718	-0,219	-0,198
234,684	62,862	-0,237	-0,164
235,699	800,000	-0,098	-0,199
236,713	57,367	-0,165	-0,111
237,728	-2,753	-0,202	-0,097
238,742	-53,877	-0,196	-0,061
239,757	200,207	-0,154	-0,163
240,772	33,575	-0,310	-0,186
241,786	-85,446	-0,215	-0,046
242,801	28,595	-0,203	-0,118
243,815	-24,622	-0,219	-0,089
244,830	-49,975	-0,202	-0,066
245,844	262,230	-0,125	-0,149
246,859	-95,264	-0,206	-0,038
247,874	167,889	-0,154	-0,152
248,888	-7,033	-0,180	-0,084
249,903	86,065	-0,273	-0,207
250,917	148,448	-0,174	-0,162
251,932	25,086	-0,150	-0,086
252,947	145,299	-0,141	-0,130
253,961	43,885	-0,109	-0,069
254,976	775,370	-0,074	-0,139
255,990	17,896	-0,206	-0,113
257,005	800,000	-0,166	-0,319
258,020	299,334	-0,215	-0,273
259,034	-3,109	-0,115	-0,055
260,049	-54,899	-0,195	-0,060
261,063	70,529	-0,114	-0,081
262,078	-200,000	-0,020	-0,156
263,093	-49,432	-0,222	-0,073
264,107	116,804	-0,107	-0,091
265,122	398,496	-0,117	-0,170
266,136	-26,141	-0,115	0,046
267,151	-33,182	-0,144	-0,054
268,166	43,684	-0,146	-0,092
269,180	60,686	-0,278	-0,189
270,195	72,222	-0,132	-0,094
271,209	-5,366	-0,217	-0,102
272,224	40,008	-0,153	-0,094
273,239	417,182	-0,166	-0,245
274,253	32,169	-0,164	-0,097
275,268	134,058	-0,037	-0,033
276,282	-200,000	-0,186	-0,001
277,297	28,372	-0,197	-0,114
278,312	-40,168	-0,296	-0,106
279,326	-20,413	-0,100	-0,042
280,341	224,033	-0,113	-0,126
281,355	153,588	-0,161	-0,152
282,370	120,016	-0,202	-0,172
283,384	-7,731	-0,158	-0,073
284,399	-89,532	-0,270	-0,054
285,414	35,534	-0,194	-0,117
286,428	79,784	-0,202	-0,149
287,443	-63,177	-0,213	-0,060
288,457	-102,516	-0,200	-0,033
289,472	24,117	-0,178	-0,101
290,487	-122,942	-0,234	0,026
291,501	-78,062	-0,213	0,050
292,516	55,840	-0,209	-0,139
293,530	205,370	-0,092	-0,098
294,545	105,161	-0,097	-0,079
295,560	-200,000	-0,045	-0,172
296,574	800,000	-0,082	-0,191
297,589	800,000	-0,095	-0,241
298,603	208,374	-0,167	-0,180
299,618	-39,515	-0,233	-0,083
300,633	42,397	-0,208	-0,130
301,647	-60,000	-0,178	-0,052
302,662	-81,641	-0,138	-0,031
303,676	-68,717	-0,185	-0,049
304,691	106,647	-0,217	-0,177
305,706	303,841	-0,091	-0,116
306,720	7,109	-0,248	-0,127
307,735	197,217	-0,131	-0,138
308,749	-200,000	-0,031	-0,224
309,764	-200,000	-0,021	-0,132
310,779	-200,000	-0,037	-0,170
311,793	800,000	-0,082	-0,197
312,808	203,556	-0,113	-0,120
313,822	167,510	-0,160	-0,156
314,837	-108,867	-0,091	0,013
315,852	25,146	-0,103	-0,059
316,866	-113,019	-0,079	-0,011
317,881	-1,485	-0,156	-0,075
318,895	431,421	-0,106	-0,158
319,910	97,326	-0,119	0,093
320,925	87,302	-0,192	-0,146
321,939	800,000	-0,034	-0,073
322,954	-200,000	-0,011	-0,176
323,968	-13,772	-0,184	-0,081
324,983	-113,274	-0,166	-0,022
325,997	410,233	-0,161	-0,235
327,012	147,160	-0,124	-0,114
328,027	-200,000	-0,074	-0,240
329,041	671,933	-0,104	-0,186
330,056	-200,000	-0,023	-0,093
331,070	-144,595	-0,076	-0,005
332,085	293,740	-0,077	-0,097
333,100	-57,987	-0,147	0,044
334,114	-35,036	-0,202	-0,075
335,129	-200,000	-0,040	-0,333
336,143	50,886	-0,262	-0,170
337,158	110,013	-0,049	-0,040
338,173	149,404	-0,117	-0,108
339,187	-133,145	-0,158	0,013
340,202	166,386	-0,158	-0,154
341,216	295,027	-0,094	-0,118
342,231	-157,142	-0,208	-0,008
343,246	443,491	-0,037	-0,055
344,260	800,000	-0,110	-0,281
345,275	-73,386	-0,040	-0,010
346,289	-6,038	-0,168	-0,078
347,304	153,901	-0,113	-0,106
348,319	258,088	-0,099	-0,117
349,333	190,910	-0,193	-0,198
350,348	244,826	-0,081	-0,094
351,362	-200,000	-0,020	-0,189
352,377	-126,507	-0,174	0,017
353,392	362,117	-0,113	-0,155
354,406	800,000	-0,053	-0,128
355,421	206,927	1309,604	1396,652
356,435	159,163	1469,628	1397,088
