DTS Sentinel unit serial number:	SN410029Multiplexer serial number:	ORYXHardware model number:	OX2-SRSoftware version number:	ORYX F/W v4,00 Oryx Data Collector v3.7.2.0data status	okinstallation	B3 Nyhavnadifferential loss correction	single-endedforward channel	channel 1reverse channel	N/Adate	2023/12/04time	02:22:30forward acquisition time	300,00reverse acquisition time	0,00gamma	499,1914k internal	0,3205k external	0,3205temperature offset calibration	1,0000default loss term (dB/km)	0,3820temperature slope calibration	1,0000multiplexer offset coefficient	1,0000multiplexer slope coefficient	1,0000fibre end	0,00T internal ref (°C)	12,29T ext. ref 1 (°C)	-2,89T ext. ref 2 (°C)	-2,94length (m)	temperature (°C)	Stokes	anti-Stokes-744,400	-200,000	-0,063	-0,300
-743,385	-200,000	-0,011	0,278
-742,371	179,402	-0,159	-0,170
-741,356	-200,000	0,109	0,359
-740,342	32,963	-0,165	-0,103
-739,327	-200,000	-0,030	0,313
-738,312	102,018	-0,163	-0,138
-737,298	-200,000	-0,020	0,159
-736,283	349,483	-0,170	-0,245
-735,269	-200,000	-0,002	0,303
-734,254	122,988	-0,224	-0,204
-733,239	-32,042	-0,217	0,088
-732,225	-200,000	-0,041	-0,212
-731,210	8,977	0,081	-0,044
-730,196	-18,120	-0,127	0,058
-729,181	-113,862	-0,136	-0,019
-728,167	-200,000	-0,005	0,076
-727,152	138,040	-0,050	-0,047
-726,137	604,927	0,028	-0,051
-725,123	-95,529	0,153	-0,030
-724,108	83,129	-0,120	-0,095
-723,094	563,419	-0,092	-0,161
-722,079	-200,000	-0,010	-0,248
-721,064	174,795	-0,093	0,098
-720,050	772,962	-0,042	-0,083
-719,035	196,506	-0,076	-0,084
-718,021	-132,696	-0,130	-0,012
-717,006	-61,770	-0,161	0,049
-715,991	-200,000	0,005	-0,118
-714,977	800,000	0,006	-0,015
-713,962	-68,330	0,038	0,011
-712,948	386,640	0,058	0,088
-711,933	16,960	-0,160	0,092
-710,918	-200,000	0,008	-0,103
-709,904	-12,369	-0,060	-0,028
-708,889	244,145	-0,097	-0,118
-707,875	800,000	-0,062	-0,186
-706,860	136,076	-0,026	-0,025
-705,845	-139,478	0,106	-0,008
-704,831	563,170	-0,010	0,017
-703,816	-54,221	-0,069	-0,023
-702,802	615,642	0,012	-0,022
-701,787	-19,960	-0,101	0,045
-700,772	-56,707	-0,089	-0,029
-699,758	-200,000	-0,007	0,146
-698,743	800,000	-0,026	0,076
-697,729	-200,000	0,017	0,128
-696,714	18,255	0,023	0,013
-695,699	-130,077	-0,160	-0,016
-694,685	-200,000	-0,008	-0,133
-693,670	-62,538	-0,122	0,036
-692,656	800,000	0,053	0,138
-691,641	200,715	0,044	0,049
-690,627	800,000	0,051	0,151
-689,612	-24,330	0,069	0,030
-688,597	-200,000	-0,004	0,076
-687,583	-48,265	-0,097	-0,034
-686,568	79,331	-0,075	-0,059
-685,554	800,000	-0,004	-0,010
-684,539	427,332	0,023	-0,036
-683,524	0,480	-0,079	0,041
-682,510	107,013	-0,010	0,008
-681,495	-200,000	0,009	-0,077
-680,481	-200,000	0,012	-0,084
-679,466	261,122	-0,089	-0,111
-678,451	-108,293	0,150	0,023
-677,437	105,875	0,123	0,106
-676,422	-27,467	0,056	0,024
-675,408	54,383	0,113	0,079
-674,393	-200,000	0,005	-0,100
-673,378	-200,000	-0,019	-0,075
-672,364	313,721	-0,017	-0,023
-671,349	-38,938	-0,073	0,028
-670,335	800,000	0,044	-0,114
-669,320	-77,296	0,019	-0,005
-668,305	-200,000	0,033	0,109
-667,291	-6,680	0,064	0,031
-666,276	29,242	-0,092	-0,057
-665,262	-109,656	0,169	0,026
-664,247	-200,000	0,020	-0,089
-663,232	-200,000	-0,023	-0,117
-662,218	727,591	0,053	0,102
-661,203	-112,875	-0,044	-0,006
-660,189	-200,000	0,004	-0,149
-659,174	208,881	0,056	-0,063
-658,159	-200,000	-0,009	-0,085
-657,145	397,793	0,034	-0,052
-656,130	636,203	-0,063	0,116
-655,116	-158,768	-0,113	-0,005
-654,101	193,550	0,049	-0,053
-653,086	800,000	-0,043	0,111
-652,072	-200,000	0,000	-0,167
-651,057	-200,000	0,000	0,045
-650,043	122,321	0,033	-0,030
-649,028	800,000	-0,030	0,064
-648,014	-116,248	0,106	-0,014
-646,999	1,821	0,139	0,072
-645,984	699,349	-0,064	0,122
-644,970	-200,000	-0,003	0,014
-643,955	617,324	0,013	0,023
-642,941	189,024	0,062	-0,067
-641,926	-200,000	0,001	0,003
-640,911	135,600	0,030	-0,028
-639,897	99,661	0,084	0,070
-638,882	380,321	-0,036	0,054
-637,868	176,619	0,055	0,058
-636,853	160,748	0,050	0,051
-635,838	-53,911	-0,045	0,015
-634,824	254,513	-0,072	-0,089
-633,809	-114,240	0,080	-0,011
-632,795	101,446	0,065	-0,054
-631,780	212,040	0,081	0,093
-630,765	-54,759	0,048	-0,015
-629,751	80,944	0,064	-0,050
-628,736	370,208	0,094	-0,138
-627,722	-200,000	0,004	-0,041
-626,707	-200,000	0,001	0,070
-625,692	11,295	0,124	0,069
-624,678	-111,622	-0,117	0,017
-623,663	67,792	-0,076	0,056
-622,649	167,710	-0,060	-0,062
-621,634	444,351	-0,050	-0,079
-620,619	283,994	0,049	0,064
-619,605	13,303	-0,092	-0,051
-618,590	-200,000	-0,026	0,086
-617,576	345,161	-0,046	-0,065
-616,561	40,822	-0,109	0,071
-615,546	800,000	0,025	-0,054
-614,532	382,821	0,003	0,005
-613,517	110,766	-0,018	0,016
-612,503	118,889	-0,060	-0,053
-611,488	-83,960	0,009	0,002
-610,474	260,604	-0,050	0,063
-609,459	455,468	-0,028	-0,045
-608,444	800,000	0,015	-0,033
-607,430	-74,053	0,055	0,014
-606,415	800,000	0,024	-0,060
-605,401	8,191	-0,079	0,043
-604,386	-32,051	0,017	0,007
-603,371	-62,092	-0,071	0,021
-602,357	-4,356	-0,032	0,016
-601,342	-33,534	-0,095	-0,038
-600,328	399,121	0,026	0,039
-599,313	537,865	0,047	-0,081
-598,298	28,666	-0,027	0,017
-597,284	136,442	0,054	-0,050
-596,269	620,115	-0,006	0,010
-595,255	51,606	-0,021	-0,014
-594,240	-51,638	0,223	-0,075
-593,225	-200,000	-0,007	0,156
-592,211	800,000	0,009	-0,020
-591,196	40,256	0,078	-0,050
-590,182	101,670	-0,093	-0,079
-589,167	800,000	-0,059	-0,133
-588,152	152,160	0,039	-0,039
-587,138	-112,659	0,041	-0,006
-586,123	51,098	-0,098	-0,067
-585,109	-54,776	-0,106	0,034
-584,094	-49,128	0,069	0,024
-583,079	800,000	0,020	0,058
-582,065	-73,047	0,135	0,035
-581,050	305,927	0,045	0,061
-580,036	-68,790	-0,103	-0,029
-579,021	173,887	-0,097	-0,101
-578,006	800,000	0,043	-0,126
-576,992	-200,000	-0,001	0,143
-575,977	-89,905	0,011	-0,002
-574,963	800,000	0,024	0,057
-573,948	68,107	0,036	-0,027
-572,934	311,469	0,079	0,107
-571,919	-50,250	-0,107	-0,036
-570,904	35,549	0,164	-0,104
-569,890	800,000	-0,027	-0,077
-568,875	287,416	-0,077	0,100
-567,861	-20,756	0,039	0,017
-566,846	28,713	-0,016	-0,010
-565,831	240,839	-0,041	-0,050
-564,817	4,218	-0,041	-0,022
-563,802	800,000	0,030	-0,075
-562,788	39,370	-0,097	0,063
-561,773	205,408	0,061	-0,068
-560,758	212,950	-0,013	-0,015
-559,744	-82,875	0,014	-0,003
-558,729	334,967	0,065	-0,091
-557,715	-200,000	-0,020	0,093
-556,700	-192,014	-0,156	0,001
-555,685	-90,452	-0,041	-0,008
-554,671	-200,000	0,115	0,000
-553,656	800,000	0,042	0,114
-552,642	800,000	0,020	0,064
-551,627	-34,903	0,099	0,039
-550,612	-200,000	-0,033	-0,190
-549,598	-73,242	-0,207	-0,054
-548,583	-200,000	0,007	0,045
-547,569	32,971	-0,069	0,043
-546,554	14,790	0,128	-0,072
-545,539	129,718	0,080	0,074
-544,525	-110,349	-0,032	-0,005
-543,510	-200,000	-0,000	-0,156
-542,496	-200,000	-0,041	-0,139
-541,481	258,411	0,011	-0,013
-540,466	15,358	0,041	-0,023
-539,452	800,000	-0,005	0,016
-538,437	800,000	-0,047	0,123
-537,423	-180,268	0,105	-0,002
-536,408	-200,000	-0,003	0,026
-535,393	-24,084	-0,053	-0,023
-534,379	-41,370	-0,054	-0,020
-533,364	800,000	-0,014	0,044
-532,350	-200,000	-0,013	-0,043
-531,335	96,684	-0,098	0,081
-530,321	-200,000	-0,017	-0,120
-529,306	659,918	0,019	0,035
-528,291	-137,893	-0,060	0,005
-527,277	40,147	-0,102	-0,066
-526,262	-200,000	-0,015	0,148
-525,248	-200,000	0,000	-0,039
-524,233	-22,758	0,199	0,086
-523,218	800,000	-0,074	0,171
-522,204	-200,000	-0,035	0,165
-521,189	-200,000	-0,004	-0,019
-520,175	-139,310	0,051	0,004
-519,160	794,488	-0,073	-0,145
-518,145	-52,938	-0,113	0,037
-517,131	13,653	0,099	-0,055
-516,116	-123,697	-0,035	0,004
-515,102	-72,912	0,093	0,024
-514,087	-136,638	-0,087	0,007
-513,072	-134,224	-0,099	-0,009
-512,058	-69,161	0,020	-0,005
-511,043	-72,928	-0,043	0,011
-510,029	-200,000	0,023	-0,174
-509,014	800,000	-0,054	-0,164
-507,999	-94,301	0,023	-0,005
-506,985	-200,000	0,011	0,224
-505,970	45,833	-0,178	-0,118
-504,956	-200,000	-0,035	-0,155
-503,941	-200,000	-0,012	0,085
-502,926	-11,284	-0,005	-0,002
-501,912	16,654	-0,047	0,027
-500,897	800,000	0,020	-0,042
-499,883	121,400	0,038	-0,034
-498,868	-107,976	-0,092	-0,014
-497,853	-200,000	-0,011	-0,066
-496,839	-5,318	0,123	-0,060
-495,824	283,649	0,035	-0,045
-494,810	-200,000	0,008	-0,156
-493,795	800,000	0,045	-0,138
-492,781	-162,958	0,090	0,003
-491,766	800,000	-0,051	0,104
-490,751	-200,000	0,022	-0,069
-489,737	-200,000	0,008	-0,041
-488,722	103,245	0,033	0,028
-487,708	-150,153	0,105	-0,006
-486,693	213,605	0,054	-0,062
-485,678	-200,000	0,003	0,066
-484,664	-85,705	0,008	-0,002
-483,649	291,772	0,043	0,056
-482,635	-200,000	-0,000	-0,034
-481,620	410,084	-0,079	0,121
-480,605	-33,305	0,188	0,074
-479,591	161,720	-0,021	0,021
-478,576	140,857	0,046	-0,044
-477,562	344,695	0,027	-0,038
-476,547	41,519	-0,059	0,038
-475,532	177,441	0,100	-0,105
-474,518	800,000	0,054	-0,109
-473,503	218,615	0,063	0,072
-472,489	63,199	0,063	-0,045
-471,474	277,286	-0,049	0,062
-470,459	-110,229	-0,094	-0,014
-469,445	210,040	-0,068	-0,077
-468,430	722,981	0,017	0,034
-467,416	322,203	0,009	0,012
-466,401	-68,391	0,098	0,027
-465,386	-25,320	0,107	0,045
-464,372	2,313	0,050	0,026
-463,357	-39,141	-0,049	-0,019
-462,343	800,000	-0,064	-0,152
-461,328	341,701	-0,084	-0,118
-460,313	-200,000	0,036	0,116
-459,299	290,759	0,099	0,129
-458,284	800,000	-0,077	0,243
-457,270	800,000	0,009	0,024
-456,255	38,616	-0,076	0,048
-455,241	34,799	-0,118	-0,074
-454,226	146,610	-0,088	-0,085
-453,211	800,000	0,031	-0,069
-452,197	-108,793	0,106	0,016
-451,182	439,174	0,065	0,103
-450,168	-108,854	-0,112	0,017
-449,153	800,000	-0,049	0,147
-448,138	-61,900	-0,162	-0,048
-447,124	-200,000	-0,002	-0,083
-446,109	11,249	-0,042	0,023
-445,095	138,780	0,128	0,121
-444,080	160,402	0,085	-0,085
-443,065	-200,000	-0,013	0,087
-442,051	91,362	0,025	-0,020
-441,036	-200,000	0,019	-0,135
-440,022	433,613	-0,048	-0,075
-439,007	-200,000	0,003	-0,061
-437,992	-200,000	0,026	0,083
-436,978	465,012	0,010	0,017
-435,963	-50,023	0,082	0,028
-434,949	-200,000	-0,015	0,174
-433,934	-200,000	-0,009	-0,060
-432,919	-115,200	-0,144	0,019
-431,905	358,973	0,038	-0,054
-430,890	800,000	-0,014	0,032
-429,876	-200,000	-0,049	0,185
-428,861	-66,168	0,052	-0,015
-427,846	137,770	-0,043	-0,041
-426,832	-200,000	-0,009	-0,068
-425,817	-200,000	0,055	-0,183
-424,803	800,000	-0,022	0,059
-423,788	800,000	-0,066	0,167
-422,773	425,751	0,018	0,027
-421,759	-57,571	0,144	0,045
-420,744	800,000	0,086	0,172
-419,730	-46,395	0,095	0,033
-418,715	-200,000	0,069	0,000
-417,701	-200,000	0,004	0,075
-416,686	362,594	0,039	-0,056
-415,671	59,449	-0,042	0,030
-414,657	213,841	0,042	-0,047
-413,642	-65,019	-0,042	0,012
-412,628	-143,013	0,060	-0,004
-411,613	-18,531	0,106	0,047
-410,598	131,113	-0,130	-0,120
-409,584	-131,279	-0,017	-0,002
-408,569	12,092	0,093	0,051
-407,555	718,523	0,055	-0,104
-406,540	-200,000	0,014	0,139
-405,525	800,000	0,033	-0,096
-404,511	16,914	-0,052	-0,030
-403,496	-150,718	-0,089	-0,005
-402,482	-92,849	0,120	0,024
-401,467	-200,000	0,013	-0,043
-400,452	103,799	0,045	-0,038
-399,438	-17,884	0,027	-0,012
-398,423	116,358	-0,050	0,044
-397,409	460,316	-0,110	-0,176
-396,394	-95,123	-0,136	0,026
-395,379	600,315	0,028	-0,050
-394,365	243,374	0,059	0,071
-393,350	-200,000	0,001	0,149
-392,336	-125,640	-0,161	0,017
-391,321	-200,000	0,014	0,165
-390,306	743,168	-0,079	0,152
-389,292	-82,494	0,056	-0,013
-388,277	-11,957	0,024	0,011
-387,263	630,573	-0,072	0,131
-386,248	-200,000	-0,029	0,100
-385,233	-23,578	-0,061	-0,026
-384,219	109,377	0,111	0,096
-383,204	253,141	-0,053	0,065
-382,190	-156,873	0,071	-0,003
-381,175	-85,027	0,039	0,009
-380,160	107,809	-0,103	-0,088
-379,146	-166,172	0,086	0,003
-378,131	518,144	0,065	-0,109
-377,117	101,720	-0,091	0,076
-376,102	-31,438	0,125	-0,050
-375,088	45,823	-0,051	0,034
-374,073	170,300	-0,038	-0,038
-373,058	187,333	0,048	-0,051
-372,044	51,100	-0,026	-0,017
-371,029	34,837	0,126	-0,079
-370,015	705,710	0,017	-0,032
-369,000	800,000	-0,066	0,139
-367,985	20,101	-0,170	-0,098
-366,971	-32,404	0,076	-0,030
-365,956	-200,000	0,015	-0,073
-364,942	-87,831	-0,106	-0,023
-363,927	-107,849	0,164	0,025
-362,912	-200,000	-0,019	0,093
-361,898	206,305	0,034	-0,038
-360,883	-76,039	-0,183	-0,046
-359,869	-180,396	-0,173	-0,003
-358,854	63,041	-0,044	0,031
-357,839	42,188	0,234	-0,152
-356,825	74,245	0,059	0,044
-355,810	93,660	-0,105	-0,085
-354,796	516,094	-0,011	0,019
-353,781	800,000	-0,014	-0,033
-352,766	-200,000	-0,029	0,129
-351,752	-200,000	0,009	0,061
-350,737	11,746	-0,156	-0,085
-349,723	-200,000	0,015	0,115
-348,708	165,528	0,089	0,090
-347,693	-167,274	-0,201	0,006
-346,679	-149,705	-0,017	0,001
-345,664	-105,811	-0,058	0,009
-344,650	10,573	0,125	-0,068
-343,635	-200,000	-0,011	0,101
-342,620	22,816	-0,054	0,031
-341,606	59,465	-0,017	0,012
-340,591	800,000	0,018	-0,052
-339,577	-17,675	-0,052	-0,023
-338,562	681,145	-0,005	0,010
-337,548	-200,000	0,023	0,124
-336,533	-184,920	-0,112	-0,001
-335,518	-200,000	0,005	-0,018
-334,504	-44,426	0,146	-0,052
-333,489	800,000	0,030	-0,059
-332,475	-200,000	0,004	-0,162
-331,460	800,000	0,037	0,076
-330,445	155,208	0,054	0,053
-329,431	-200,000	-0,013	-0,044
-328,416	-200,000	0,043	0,242
-327,402	145,133	-0,053	-0,050
-326,387	233,535	0,042	0,049
-325,372	-200,000	0,013	-0,048
-324,358	-4,708	-0,048	-0,023
-323,343	-200,000	-0,001	0,050
-322,329	-200,000	-0,082	0,000
-321,314	-172,193	-0,073	-0,002
-320,299	-70,438	0,049	-0,013
-319,285	267,162	0,044	-0,056
-318,270	-99,253	0,161	0,029
-317,256	-145,113	0,152	-0,010
-316,241	81,435	-0,043	-0,033
-315,226	-32,095	0,139	-0,055
-314,212	-52,448	0,073	0,024
-313,197	611,248	0,040	0,072
-312,183	452,559	0,043	-0,068
-311,168	-124,279	0,007	-0,001
-310,153	-166,139	-0,183	-0,005
-309,139	154,609	0,020	-0,020
-308,124	800,000	0,041	-0,099
-307,110	42,457	0,201	0,130
-306,095	407,434	-0,055	-0,084
-305,080	288,914	-0,041	0,053
-304,066	94,320	0,109	0,089
-303,051	800,000	-0,080	-0,216
-302,037	-200,000	0,009	-0,201
-301,022	350,784	0,105	-0,149
-300,008	-25,584	0,135	-0,057
-298,993	366,665	-0,025	0,036
-297,978	-200,000	0,006	-0,042
-296,964	800,000	0,025	-0,054
-295,949	56,680	-0,101	-0,070
-294,935	-106,995	0,066	-0,010
-293,920	21,613	-0,021	-0,012
-292,905	-200,000	0,032	0,142
-291,891	533,623	0,031	0,052
-290,876	-144,554	0,106	0,007
-289,862	-200,000	0,007	0,060
-288,847	501,382	0,045	0,075
-287,832	225,915	-0,047	-0,054
-286,818	-200,000	0,000	-0,062
-285,803	-43,255	0,126	0,045
-284,789	141,193	0,021	0,020
-283,774	-119,769	0,077	-0,009
-282,759	-12,181	-0,103	0,048
-281,745	16,268	-0,163	0,091
-280,730	293,227	0,014	-0,018
-279,716	-200,000	-0,024	-0,124
-278,701	52,193	0,124	-0,084
-277,686	800,000	-0,060	0,127
-276,672	124,149	-0,044	0,040
-275,657	70,164	-0,104	0,076
-274,643	-200,000	-0,003	-0,023
-273,628	555,252	-0,069	0,119
-272,613	130,260	-0,049	-0,045
-271,599	-200,000	-0,022	0,191
-270,584	434,339	-0,027	-0,042
-269,570	-88,117	-0,085	0,018
-268,555	562,692	-0,033	-0,058
-267,540	-200,000	-0,003	0,218
-266,526	-53,914	-0,186	-0,060
-265,511	-82,857	-0,054	-0,012
-264,497	-107,756	0,100	0,015
-263,482	-200,000	0,010	0,109
-262,467	-135,673	-0,136	-0,011
-261,453	252,718	-0,091	0,111
-260,438	800,000	-0,035	0,106
-259,424	-168,040	-0,157	0,004
-258,409	-199,463	-0,097	-0,000
-257,395	69,622	0,067	-0,049
-256,380	800,000	0,047	-0,110
-255,365	-92,777	-0,022	0,004
-254,351	-52,788	-0,073	-0,024
-253,336	800,000	-0,048	-0,147
-252,322	800,000	-0,045	-0,121
-251,307	800,000	-0,020	-0,041
-250,292	-21,559	0,155	0,067
-249,278	-200,000	0,020	0,097
-248,263	122,571	0,083	0,074
-247,249	-33,371	-0,125	0,049
-246,234	-95,051	-0,198	-0,038
-245,219	348,745	-0,048	0,067
-244,205	-122,316	-0,120	-0,014
-243,190	-154,572	-0,147	-0,007
-242,176	154,714	-0,029	0,029
-241,161	90,710	0,138	-0,110
-240,146	-200,000	-0,035	0,172
-239,132	95,041	0,057	0,046
-238,117	-200,000	0,008	-0,077
-237,103	-200,000	-0,012	-0,091
-236,088	143,144	-0,014	0,013
-235,073	-40,822	0,039	0,014
-234,059	212,516	0,074	0,084
-233,044	-200,000	0,013	-0,074
-232,030	58,595	-0,111	-0,077
-231,015	-200,000	-0,025	-0,127
-230,000	800,000	-0,028	-0,075
-228,986	3,685	-0,070	-0,036
-227,971	62,558	0,144	0,103
-226,957	-200,000	0,020	0,078
-225,942	800,000	0,034	0,075
-224,927	-200,000	0,020	0,103
-223,913	-200,000	-0,003	-0,079
-222,898	325,955	0,067	-0,092
-221,884	-200,000	-0,016	-0,091
-220,869	800,000	-0,042	0,083
-219,855	-103,460	0,047	-0,008
-218,840	800,000	-0,032	0,076
-217,825	114,243	-0,095	0,082
-216,811	-140,413	0,018	-0,001
-215,796	800,000	-0,016	-0,042
-214,782	153,732	0,040	0,039
-213,767	42,912	0,107	0,069
-212,752	-20,506	-0,080	0,035
-211,738	36,636	-0,056	0,035
-210,723	53,736	-0,091	0,062
-209,709	-200,000	0,020	-0,091
-208,694	116,478	-0,069	0,060
-207,679	144,813	-0,109	-0,104
-206,665	500,829	-0,105	-0,173
-205,650	-200,000	0,026	0,086
-204,636	334,496	0,062	0,085
-203,621	22,278	-0,033	-0,019
-202,606	-12,845	-0,049	0,023
-201,592	-200,000	0,006	-0,070
-200,577	66,531	-0,115	0,083
-199,563	-200,000	0,007	0,063
-198,548	112,553	0,182	0,157
-197,533	5,993	0,064	0,034
-196,519	40,204	0,133	0,085
-195,504	154,602	-0,029	-0,028
-194,490	800,000	-0,033	-0,096
-193,475	800,000	-0,038	-0,097
-192,460	-127,110	0,021	0,002
-191,446	248,030	-0,052	0,063
-190,431	132,466	0,039	-0,036
-189,417	521,690	0,002	-0,003
-188,402	120,322	0,077	-0,068
-187,387	-130,830	-0,112	0,011
-186,373	9,256	-0,034	-0,018
-185,358	-200,000	0,005	-0,028
-184,344	-1,695	0,038	-0,019
-183,329	-96,402	0,089	0,017
-182,315	-23,292	0,089	0,038
-181,300	-200,000	0,021	0,091
-180,285	800,000	-0,021	-0,046
-179,271	-58,368	-0,128	-0,039
-178,256	800,000	0,011	0,028
-177,242	800,000	-0,060	-0,126
-176,227	-10,544	0,038	-0,018
-175,212	139,282	0,169	0,158
-174,198	800,000	0,017	-0,045
-173,183	800,000	0,039	-0,097
-172,169	316,947	0,074	-0,099
-171,154	-85,502	-0,114	-0,025
-170,139	32,354	0,162	0,099
-169,125	-138,799	0,022	-0,002
-168,110	39,293	0,041	0,026
-167,096	337,366	0,058	0,080
-166,081	20,682	-0,012	0,007
-165,066	21,375	-0,089	0,051
-164,052	56,565	0,171	-0,118
-163,037	800,000	0,043	-0,134
-162,023	-110,025	0,051	0,008
-161,008	173,753	0,027	-0,028
-159,993	-191,877	-0,038	-0,000
-158,979	-200,000	0,009	-0,115
-157,964	800,000	-0,046	-0,117
-156,950	68,819	0,096	-0,070
-155,935	435,320	-0,086	-0,133
-154,920	389,277	-0,021	0,031
-153,906	36,731	0,059	0,037
-152,891	140,156	-0,026	-0,024
-151,877	32,074	-0,155	-0,095
-150,862	-63,737	0,145	-0,042
-149,847	460,812	-0,071	-0,112
-148,833	-74,407	0,047	-0,012
-147,818	-200,000	-0,011	0,055
-146,804	-59,061	0,051	0,016
-145,789	708,060	-0,018	-0,034
-144,775	-200,000	0,017	-0,068
-143,760	-200,000	-0,008	0,044
-142,745	57,091	-0,057	0,039
-141,731	-200,000	0,033	-0,165
-140,716	771,467	0,069	0,133
-139,702	-97,831	0,106	0,019
-138,687	-200,000	0,050	0,174
-137,672	-138,264	0,097	0,008
-136,658	800,000	-0,088	0,177
-135,643	-200,000	0,013	-0,089
-134,629	25,118	-0,080	-0,047
-133,614	169,267	0,039	-0,040
-132,599	-58,852	0,090	0,028
-131,585	-200,000	0,001	0,056
-130,570	-123,394	0,044	0,005
-129,556	-87,854	-0,116	0,024
-128,541	271,709	-0,097	-0,122
-127,526	-200,000	0,004	0,020
-126,512	76,639	-0,078	0,058
-125,497	480,430	0,112	0,181
-124,483	-40,576	0,042	-0,015
-123,468	170,613	-0,113	0,115
-122,453	370,355	0,062	-0,089
-121,439	475,808	-0,019	-0,031
-120,424	33,492	-0,066	-0,040
-119,410	800,000	0,016	0,045
-118,395	800,000	-0,002	0,007
-117,380	720,692	-0,020	0,037
-116,366	379,514	-0,069	0,100
-115,351	49,668	-0,054	0,036
-114,337	-18,026	0,125	0,055
-113,322	-104,461	-0,131	-0,021
-112,307	-200,000	-0,005	0,028
-111,293	1,309	-0,091	0,046
-110,278	-151,508	-0,086	-0,004
-109,264	164,581	-0,093	0,093
-108,249	800,000	-0,037	-0,106
-107,234	-200,000	0,003	-0,059
-106,220	227,663	0,046	0,053
-105,205	53,331	-0,066	0,045
-104,191	-102,491	0,027	-0,005
-103,176	-85,294	-0,094	-0,021
-102,162	347,317	0,031	-0,044
-101,147	263,914	-0,086	-0,106
-100,132	52,688	-0,038	0,025
-99,118	800,000	-0,016	-0,047
-98,103	-77,688	-0,077	-0,019
-97,089	-200,000	-0,012	0,195
-96,074	389,466	0,071	0,104
-95,059	274,063	0,053	0,067
-94,045	-155,771	-0,109	0,005
-93,030	-118,310	-0,183	0,023
-92,016	613,817	0,079	-0,141
-91,001	-200,000	-0,008	0,047
-89,986	328,121	0,085	-0,116
-88,972	-200,000	0,024	0,211
-87,957	-48,035	-0,145	-0,049
-86,943	-200,000	-0,003	-0,157
-85,928	-158,898	-0,188	0,007
-84,913	229,862	-0,024	-0,028
-83,899	-200,000	-0,008	0,029
-82,884	-113,264	0,116	-0,016
-81,870	-200,000	0,022	-0,155
-80,855	249,418	-0,060	-0,073
-79,840	-200,000	-0,034	0,159
-78,826	800,000	0,053	-0,118
-77,811	74,965	0,084	-0,062
-76,797	449,793	0,049	-0,076
-75,782	-200,000	0,028	0,116
-74,767	800,000	-0,063	0,158
-73,753	271,726	0,068	0,085
-72,738	-186,783	0,105	-0,001
-71,724	210,397	-0,025	0,028
-70,709	198,669	-0,026	-0,028
-69,694	-129,570	-0,088	-0,008
-68,680	75,327	-0,048	-0,036
-67,665	-33,231	0,100	0,039
-66,651	21,237	0,084	0,048
-65,636	-200,000	-0,117	-0,000
-64,622	-200,000	0,031	-0,139
-63,607	554,431	-0,067	0,114
-62,592	342,853	-0,075	-0,104
-61,578	800,000	-0,008	0,022
-60,563	73,530	0,014	-0,010
-59,549	-200,000	0,039	0,124
-58,534	-15,125	-1,865	-0,841
-57,519	363,910	-1,417	-2,020
-56,505	-200,000	-0,522	-4,835
-55,490	401,598	0,904	1,347
-54,476	800,000	4,906	11,238
-53,461	-200,000	20,110	324,336
-52,446	800,000	751,845	2314,030
-51,432	550,153	1663,315	2831,591
-50,417	75,277	1672,262	1245,816
-49,403	20,152	1545,164	879,354
-48,388	14,136	1467,349	805,800
-47,373	18,341	1457,581	820,719
-46,359	16,387	1447,290	805,529
-45,344	12,427	1442,382	783,802
-44,330	12,343	1440,726	782,471
-43,315	12,307	1438,939	781,296
-42,300	12,337	1437,384	780,562
-41,286	12,298	1436,061	779,626
-40,271	12,302	1434,783	778,923
-39,257	12,341	1433,336	778,291
-38,242	12,358	1432,239	777,744
-37,227	12,351	1430,893	776,950
-36,213	12,423	1429,427	776,467
-35,198	12,399	1428,447	775,789
-34,184	12,437	1427,609	775,484
-33,169	12,350	1426,334	774,346
-32,154	12,406	1425,029	773,871
-31,140	12,403	1423,965	773,249
-30,125	12,455	1422,628	772,741
-29,111	12,403	1421,537	771,873
-28,096	12,395	1420,294	771,129
-27,082	12,344	1419,450	770,399
-26,067	12,341	1418,179	769,664
-25,052	12,342	1417,360	769,194
-24,038	12,361	1416,275	768,663
-23,023	12,285	1415,430	767,819
-22,009	12,277	1414,194	767,078
-20,994	12,274	1413,380	766,591
-19,979	12,316	1412,480	766,272
-18,965	12,252	1411,432	765,372
-17,950	12,277	1410,543	764,975
-16,936	12,289	1409,746	764,570
-15,921	12,230	1408,527	763,604
-14,906	12,216	1407,882	763,156
-13,892	12,263	1406,737	762,726
-12,877	12,229	1406,001	762,137
-11,863	12,225	1404,921	761,504
-10,848	12,203	1404,101	760,924
-9,833	12,177	1403,224	760,300
-8,819	12,113	1402,453	759,553
-7,804	12,133	1401,360	759,026
-6,790	12,125	1400,543	758,512
-5,775	12,131	1399,481	757,935
-4,760	12,180	1398,377	757,534
-3,746	12,119	1397,514	756,755
-2,731	12,128	1396,745	756,353
-1,717	12,099	1395,916	755,736
-0,702	12,089	1394,004	754,627
0,313	15,996	1309,206	726,777
1,327	32,146	700,361	425,932
2,342	49,716	122,274	81,275
3,356	0,926	16,462	8,309
4,371	-3,739	3,352	1,639
5,386	-28,489	0,649	0,263
6,400	-200,000	0,008	0,302
7,415	21,736	-0,303	-0,174
8,429	120,315	-0,264	-0,232
9,444	95,078	-0,358	-0,288
10,459	-111,051	-0,264	-0,038
11,473	-33,638	-0,416	-0,161
12,488	-37,271	-0,148	-0,056
13,502	-5,727	-0,327	-0,158
14,517	98,569	-0,365	-0,297
15,531	269,472	-0,237	-0,294
16,546	20,786	-0,479	-0,273
17,561	81,328	-0,359	-0,274
18,575	-113,694	-0,197	-0,027
19,590	258,423	-0,226	-0,275
20,604	164,908	-0,184	-0,183
21,619	31,296	-0,411	-0,249
22,634	352,854	-0,373	-0,523
23,648	39,375	-0,498	-0,314
24,663	-53,249	-0,425	-0,137
25,677	4,794	-0,473	-0,245
26,692	-81,617	-0,333	-0,077
27,707	53,261	-0,316	-0,213
28,721	-41,470	-0,398	-0,144
29,736	316,059	-0,279	-0,373
30,750	30,691	-0,471	-0,284
31,765	137,551	-0,342	-0,316
32,780	128,559	-0,344	-0,309
33,794	25,093	-0,462	-0,270
34,809	76,105	-0,276	-0,206
35,823	635,080	-0,172	-0,309
36,838	106,553	-0,410	-0,343
37,853	24,040	-0,407	-0,236
38,867	100,735	-0,264	-0,216
39,882	281,156	-0,205	-0,260
40,896	-18,839	-0,433	-0,189
41,911	21,756	-0,316	-0,181
42,926	67,820	-0,413	-0,297
43,940	185,537	-0,255	-0,267
44,955	115,947	-0,313	-0,269
45,969	-3,518	-0,439	-0,214
46,984	62,192	-0,259	-0,181
47,999	226,571	-0,218	-0,249
49,013	148,747	-0,246	-0,234
50,028	71,721	-0,322	-0,235
51,042	20,925	-0,266	-0,151
52,057	62,761	-0,341	-0,240
53,071	121,133	-0,381	-0,334
54,086	105,491	-0,275	-0,229
55,101	-52,133	-0,280	-0,091
56,115	-55,545	-0,387	-0,121
57,130	-89,820	-0,496	-0,101
58,144	6,879	-0,316	-0,165
59,159	303,866	-0,250	-0,327
60,174	20,677	-0,386	-0,219
61,188	103,854	-0,335	-0,277
62,203	-31,069	-0,382	-0,151
63,217	86,391	-0,228	-0,177
64,232	243,071	-0,142	-0,167
65,247	97,606	-0,305	-0,246
66,261	56,726	-0,373	-0,254
67,276	14,858	-0,550	-0,301
68,290	18,550	-0,350	-0,196
69,305	289,893	-0,293	-0,375
70,320	42,728	-0,476	-0,304
71,334	-20,827	-0,305	-0,131
72,349	-2,529	-0,306	-0,150
73,363	75,194	-0,388	-0,287
74,378	127,771	-0,301	-0,268
75,393	29,522	-0,369	-0,220
76,407	32,687	-0,277	-0,168
77,422	-19,352	-0,326	-0,141
78,436	11,457	-0,332	-0,178
79,451	64,755	-0,399	-0,282
80,466	59,638	-0,319	-0,220
81,480	-43,361	-0,343	-0,121
82,495	34,909	-0,205	-0,126
83,509	-91,263	-0,390	-0,078
84,524	56,915	-0,305	-0,208
85,539	-2,380	-0,242	-0,119
86,553	-77,331	-0,361	-0,087
87,568	131,096	-0,210	-0,190
88,582	89,998	-0,314	-0,246
89,597	69,538	-0,264	-0,190
90,611	164,045	-0,229	-0,226
91,626	11,413	-0,291	-0,156
92,641	-15,291	-0,379	-0,169
93,655	84,198	-0,160	-0,123
94,670	93,576	-0,209	-0,166
95,684	47,596	-0,391	-0,255
96,699	221,965	-0,162	-0,183
97,714	62,556	-0,209	-0,146
98,728	-38,511	-0,211	-0,078
99,743	63,770	-0,184	-0,129
100,757	66,714	-0,266	-0,189
101,772	189,536	-0,204	-0,214
102,787	-2,726	-0,340	-0,166
103,801	159,216	-0,257	-0,251
104,816	87,598	-0,319	-0,247
105,830	244,108	-0,126	-0,148
106,845	-32,356	-0,219	-0,085
107,860	155,723	-0,217	-0,209
108,874	800,000	-0,108	-0,239
109,889	133,988	-0,333	-0,302
110,903	19,858	-0,301	-0,169
111,918	24,356	-0,378	-0,218
112,933	502,887	-0,166	-0,269
113,947	-41,961	-0,269	-0,096
114,962	-13,909	-0,251	-0,113
115,976	-89,259	-0,282	-0,058
116,991	256,402	-0,252	-0,303
118,006	13,152	-0,345	-0,186
119,020	397,606	-0,179	-0,263
120,035	0,028	-0,206	-0,102
121,049	51,836	-0,279	-0,185
122,064	14,089	-0,235	-0,128
123,079	185,822	-0,292	-0,304
124,093	92,097	-0,330	-0,260
125,108	-42,600	-0,371	-0,131
126,122	-17,946	-0,310	-0,135
127,137	69,722	-0,201	-0,145
128,151	295,169	-0,116	-0,149
129,166	-75,878	-0,249	-0,061
130,181	140,288	-0,308	-0,284
131,195	63,890	-0,349	-0,245
132,210	284,230	-0,188	-0,237
133,224	97,034	-0,368	-0,295
134,239	-129,877	-0,308	-0,029
135,254	-173,720	-0,169	0,003
136,268	-107,050	-0,193	-0,030
137,283	68,097	-0,297	-0,212
138,297	0,520	-0,283	-0,141
139,312	10,692	-0,264	-0,140
140,327	118,221	-0,223	-0,192
141,341	588,898	-0,157	-0,271
142,356	153,377	-0,157	-0,150
143,370	177,043	-0,276	-0,281
144,385	59,245	-0,188	-0,129
145,400	357,804	-0,243	-0,340
146,414	123,821	-0,284	-0,249
147,429	106,661	-0,257	-0,213
148,443	800,000	-0,123	-0,353
149,458	59,181	-0,225	-0,154
150,473	133,368	-0,233	-0,210
151,487	16,636	-0,284	-0,156
152,502	416,369	-0,242	-0,361
153,516	243,021	-0,201	-0,235
154,531	129,192	-0,316	-0,281
155,546	-16,885	-0,338	-0,148
156,560	-66,237	-0,291	-0,080
157,575	147,434	-0,139	-0,130
158,589	-23,137	-0,184	-0,077
159,604	273,605	-0,154	-0,191
160,619	117,854	-0,322	-0,276
161,633	153,708	-0,219	-0,209
162,648	64,963	-0,298	-0,209
163,662	34,387	-0,136	-0,083
164,677	16,847	-0,182	-0,100
165,692	76,945	-0,172	-0,127
166,706	145,900	-0,232	-0,217
167,721	46,738	-0,234	-0,151
168,735	65,896	-0,342	-0,241
169,750	-4,648	-0,298	-0,143
170,764	141,831	-0,084	-0,077
171,779	35,514	-0,256	-0,156
172,794	268,121	-0,176	-0,215
173,808	-107,449	-0,333	-0,050
174,823	800,000	-0,134	-0,276
175,837	350,820	-0,234	-0,324
176,852	-23,489	-0,250	-0,104
177,867	624,010	-0,056	-0,098
178,881	90,508	-0,136	-0,106
179,896	198,667	-0,138	-0,147
180,910	-80,052	-0,346	-0,080
181,925	220,798	-0,213	-0,238
182,940	277,814	-0,168	-0,209
183,954	6,910	-0,287	-0,148
184,969	125,620	-0,193	-0,169
185,983	82,007	-0,345	-0,260
186,998	789,287	-0,066	-0,127
188,013	36,048	-0,224	-0,137
189,027	71,481	-0,243	-0,175
190,042	347,319	-0,223	-0,307
191,056	-20,383	-0,276	-0,118
192,071	-5,471	-0,262	-0,124
193,086	-64,360	-0,152	-0,043
194,100	111,479	-0,102	-0,086
195,115	653,951	-0,055	-0,099
196,129	43,022	-0,217	-0,137
197,144	762,687	-0,167	-0,316
198,159	-139,277	-0,236	-0,017
199,173	201,012	-0,219	-0,234
200,188	13,964	-0,211	-0,114
201,202	-94,653	-0,257	-0,048
202,217	22,749	-0,172	-0,098
203,232	275,413	-0,085	-0,105
204,246	-63,107	-0,244	-0,069
205,261	-84,534	-0,134	-0,029
206,275	185,892	-0,170	-0,176
207,290	800,000	-0,078	-0,184
208,304	800,000	-0,058	-0,128
209,319	-81,427	-0,283	-0,064
210,334	69,700	-0,136	-0,097
211,348	162,378	-0,224	-0,218
212,363	-125,076	-0,187	-0,020
213,377	321,730	-0,154	-0,203
214,392	201,633	-0,187	-0,200
215,407	-22,231	-0,159	-0,067
216,421	-8,585	-0,234	-0,109
217,436	36,721	-0,256	-0,157
218,450	375,974	-0,126	-0,179
219,465	-92,685	-0,266	-0,051
220,480	171,125	-0,111	-0,110
221,494	113,257	-0,149	-0,125
222,509	800,000	0,006	0,016
223,523	-50,707	-0,252	-0,082
224,538	-98,869	-0,128	-0,022
225,553	373,461	-0,168	-0,238
226,567	5,020	-0,241	-0,123
227,582	57,562	-0,150	-0,101
228,596	746,043	-0,101	-0,189
229,611	417,703	-0,159	-0,236
230,626	473,792	-0,169	-0,265
231,640	552,912	-0,059	-0,098
232,655	382,758	-0,099	-0,142
233,669	193,699	-0,169	-0,177
234,684	-142,553	-0,346	-0,023
235,699	-54,996	-0,271	-0,084
236,713	692,495	-0,079	-0,143
237,728	-18,485	-0,175	-0,075
238,742	-22,544	-0,182	-0,076
239,757	375,716	-0,187	-0,264
240,772	17,456	-0,131	-0,072
241,786	-151,195	-0,281	-0,014
242,801	65,322	-0,099	-0,069
243,815	402,167	-0,118	-0,172
244,830	-80,998	-0,149	-0,034
245,844	50,697	-0,139	-0,091
246,859	-17,022	-0,120	-0,052
247,874	95,424	-0,133	-0,105
248,888	-85,094	-0,106	-0,023
249,903	8,496	-0,198	-0,103
250,917	800,000	-0,068	-0,159
251,932	-21,314	-0,241	-0,101
252,947	-102,377	-0,183	-0,030
253,961	61,204	-0,272	-0,186
254,976	-75,803	-0,255	-0,062
255,990	51,706	-0,177	-0,116
257,005	-19,933	-0,184	-0,078
258,020	84,096	-0,162	-0,123
259,034	21,635	-0,165	-0,093
260,049	134,614	-0,087	-0,078
261,063	50,769	-0,234	-0,153
262,078	199,816	-0,262	-0,278
263,093	651,377	-0,100	-0,178
264,107	117,815	-0,170	-0,145
265,122	340,500	-0,102	-0,138
266,136	1,037	-0,166	-0,082
267,151	-154,489	-0,198	-0,009
268,166	23,643	-0,212	-0,120
269,180	-100,240	-0,179	-0,030
270,195	25,269	-0,170	-0,097
271,209	-64,645	-0,238	-0,066
272,224	800,000	-0,064	-0,177
273,239	106,538	-0,157	-0,129
274,253	135,853	-0,141	-0,127
275,268	800,000	-0,080	-0,192
276,282	176,195	-0,128	-0,128
277,297	263,078	-0,106	-0,128
278,312	-66,883	-0,115	-0,031
279,326	62,070	-0,247	-0,169
280,341	-200,000	-0,020	-0,063
281,355	800,000	-0,092	-0,192
282,370	133,550	-0,200	-0,179
283,384	14,205	-0,129	-0,069
284,399	-127,842	-0,192	-0,019
285,414	166,922	-0,238	-0,233
286,428	387,605	-0,094	-0,134
287,443	738,516	-0,043	-0,080
288,457	-5,274	-0,211	-0,100
289,472	-106,384	-0,253	0,039
290,487	20,431	-0,219	-0,122
291,501	-160,359	-0,205	-0,007
292,516	186,452	-0,115	-0,118
293,530	400,379	-0,118	-0,172
294,545	-49,334	-0,246	-0,080
295,560	130,206	-0,030	-0,027
296,574	107,703	-0,154	-0,127
297,589	-68,162	-0,195	-0,052
298,603	-42,477	-0,228	-0,080
299,618	32,609	-0,174	-0,104
300,633	25,116	-0,202	-0,115
301,647	-71,925	-0,163	-0,041
302,662	128,495	-0,131	0,115
303,676	-79,646	-0,234	-0,054
304,691	-33,485	-0,149	0,056
305,706	-47,179	-0,120	-0,040
306,720	49,689	-0,157	-0,102
307,735	800,000	-0,095	-0,208
308,749	-12,617	0,056	-0,025
309,764	10,535	-0,173	-0,090
310,779	5,979	-0,176	-0,089
311,793	-114,587	-0,224	-0,029
312,808	146,833	-0,128	-0,118
313,822	-94,371	-0,141	-0,026
314,837	-129,806	-0,200	-0,019
315,852	369,864	0,041	-0,058
316,866	145,083	-0,225	-0,207
317,881	-56,264	-0,212	-0,064
318,895	62,537	-0,121	-0,083
319,910	5,485	-0,156	-0,079
320,925	21,627	-0,222	-0,124
321,939	229,265	-0,134	-0,150
322,954	405,378	-0,050	0,073
323,968	-200,000	-0,001	-0,057
324,983	134,228	-0,184	-0,164
325,997	2,129	-0,171	-0,085
327,012	-70,547	-0,173	-0,045
328,027	-55,196	-0,150	-0,046
329,041	-200,000	-0,054	-0,184
330,056	800,000	-0,069	-0,140
331,070	-93,042	-0,155	0,029
332,085	534,106	-0,063	-0,103
333,100	-65,053	-0,167	-0,046
334,114	94,253	-0,163	-0,127
335,129	50,886	-0,138	-0,090
336,143	77,360	-0,087	-0,063
337,158	-182,446	-0,109	-0,001
338,173	800,000	-0,061	-0,120
339,187	148,782	-0,099	-0,092
340,202	-177,190	-0,157	-0,003
341,216	120,049	-0,192	-0,163
342,231	49,781	-0,167	-0,108
343,246	284,155	-0,095	-0,118
344,260	55,586	-0,132	-0,088
345,275	800,000	-0,037	-0,072
346,289	-51,783	-0,163	-0,052
347,304	-99,974	-0,129	0,022
348,319	-22,756	-0,205	-0,085
349,333	-98,746	-0,277	-0,048
350,348	65,957	-0,253	-0,175
351,362	-200,000	-0,001	-0,107
352,377	-31,791	-0,152	-0,058
353,392	239,303	-0,097	-0,111
354,406	259,482	-0,063	-0,075
355,421	207,706	1314,833	1408,075
356,435	159,789	1475,551	1408,545
