DTS Sentinel unit serial number:	SN410029Multiplexer serial number:	ORYXHardware model number:	OX2-SRSoftware version number:	ORYX F/W v4,00 Oryx Data Collector v3.7.2.0data status	okinstallation	B3 Nyhavnadifferential loss correction	single-endedforward channel	channel 1reverse channel	N/Adate	2023/12/02time	17:12:30forward acquisition time	300,00reverse acquisition time	0,00gamma	499,1914k internal	0,3198k external	0,3198temperature offset calibration	1,0000default loss term (dB/km)	0,3820temperature slope calibration	1,0000multiplexer offset coefficient	1,0000multiplexer slope coefficient	1,0000fibre end	0,00T internal ref (°C)	13,93T ext. ref 1 (°C)	-1,54T ext. ref 2 (°C)	-1,56length (m)	temperature (°C)	Stokes	anti-Stokes-744,400	201,250	-0,214	-0,240
-743,385	-200,000	0,039	0,291
-742,371	800,000	-0,162	-0,332
-741,356	-200,000	0,040	0,225
-740,342	412,621	-0,110	-0,171
-739,327	-200,000	-0,026	0,376
-738,312	209,770	-0,157	-0,179
-737,298	-200,000	-0,082	0,311
-736,283	94,685	-0,191	-0,158
-735,269	800,000	0,091	0,264
-734,254	111,989	-0,241	-0,212
-733,239	36,202	-0,067	0,043
-732,225	-200,000	0,032	-0,228
-731,210	-34,498	0,051	-0,020
-730,196	297,630	-0,114	-0,153
-729,181	452,068	0,034	0,055
-728,167	-108,385	-0,040	0,006
-727,152	-70,579	-0,067	-0,018
-726,137	-200,000	0,000	-0,145
-725,123	207,014	-0,084	-0,096
-724,108	-200,000	-0,013	-0,072
-723,094	-170,248	-0,169	0,004
-722,079	-137,293	-0,167	0,014
-721,064	50,167	0,032	-0,022
-720,050	-200,000	0,009	-0,129
-719,035	24,908	-0,042	0,026
-718,021	314,225	0,067	0,092
-717,006	-200,000	-0,055	0,000
-715,991	-157,993	-0,131	-0,005
-714,977	66,873	-0,052	0,039
-713,962	423,192	0,041	0,065
-712,948	-92,091	0,184	-0,038
-711,933	-200,000	0,000	0,010
-710,918	124,349	-0,105	0,096
-709,904	-200,000	0,029	-0,181
-708,889	1,784	0,059	-0,031
-707,875	-82,634	-0,097	-0,023
-706,860	169,043	-0,073	0,075
-705,845	-91,631	0,219	0,045
-704,831	-200,000	-0,014	0,163
-703,816	30,586	0,057	-0,035
-702,802	-200,000	-0,011	0,105
-701,787	-200,000	-0,007	0,135
-700,772	16,794	0,058	0,033
-699,758	143,035	-0,040	0,039
-698,743	6,790	0,145	0,078
-697,729	332,124	0,036	0,051
-696,714	-150,857	-0,108	0,006
-695,699	-200,000	-0,003	-0,033
-694,685	-200,000	0,036	-0,149
-693,670	204,614	0,089	-0,101
-692,656	-73,698	-0,121	0,032
-691,641	745,757	0,006	0,012
-690,627	320,324	0,006	0,009
-689,612	-85,599	0,061	0,014
-688,597	-200,000	-0,030	-0,104
-687,583	-200,000	-0,008	-0,132
-686,568	125,727	-0,085	-0,078
-685,554	4,530	0,033	-0,018
-684,539	-3,389	0,036	0,018
-683,524	-200,000	-0,012	-0,094
-682,510	51,624	0,027	0,018
-681,495	211,213	-0,095	0,109
-680,481	17,255	-0,094	-0,054
-679,466	3,033	0,038	-0,020
-678,451	90,789	-0,007	0,005
-677,437	-200,000	-0,003	-0,033
-676,422	-200,000	-0,014	0,103
-675,408	-200,000	-0,056	0,187
-674,393	-200,000	0,021	-0,106
-673,378	599,777	-0,091	-0,164
-672,364	-70,298	-0,028	-0,008
-671,349	165,181	-0,130	-0,133
-670,335	205,210	0,040	0,045
-669,320	-200,000	-0,007	0,111
-668,305	415,107	0,028	-0,044
-667,291	66,913	0,104	-0,077
-666,276	-200,000	-0,026	-0,149
-665,262	-119,409	-0,121	0,015
-664,247	7,470	0,077	0,042
-663,232	800,000	-0,021	0,057
-662,218	-75,418	0,145	-0,037
-661,203	-200,000	0,035	0,114
-660,189	-1,400	-0,025	0,013
-659,174	61,581	-0,111	-0,080
-658,159	-200,000	-0,006	-0,065
-657,145	-51,588	-0,080	-0,027
-656,130	15,316	-0,037	0,021
-655,116	215,533	0,017	-0,020
-654,101	183,617	-0,029	-0,031
-653,086	800,000	0,044	0,135
-652,072	565,939	-0,013	0,023
-651,057	-200,000	-0,030	-0,100
-650,043	-200,000	0,027	-0,134
-649,028	612,466	0,011	0,020
-648,014	-100,252	0,038	-0,007
-646,999	280,737	0,050	0,065
-645,984	800,000	0,016	-0,043
-644,970	800,000	-0,024	-0,063
-643,955	236,387	0,087	-0,105
-642,941	-174,226	-0,183	-0,004
-641,926	800,000	-0,045	-0,108
-640,911	-200,000	0,026	0,135
-639,897	800,000	-0,016	0,039
-638,882	800,000	0,063	-0,136
-637,868	771,644	0,047	-0,093
-636,853	65,699	-0,113	0,083
-635,838	250,785	-0,045	-0,055
-634,824	-200,000	0,015	-0,050
-633,809	-54,820	0,134	0,043
-632,795	736,230	0,045	-0,088
-631,780	-200,000	-0,015	-0,226
-630,765	800,000	-0,046	-0,117
-629,751	-174,994	0,096	-0,002
-628,736	-160,762	-0,189	-0,007
-627,722	-200,000	0,006	-0,097
-626,707	195,141	-0,121	-0,134
-625,692	107,369	0,048	0,042
-624,678	111,735	0,052	-0,046
-623,663	-19,102	-0,086	-0,039
-622,649	30,672	0,072	0,044
-621,634	-200,000	0,002	0,040
-620,619	47,218	0,078	-0,052
-619,605	-200,000	0,002	0,043
-618,590	-200,000	0,001	0,048
-617,576	800,000	-0,026	-0,078
-616,561	359,773	-0,057	0,082
-615,546	17,033	-0,012	0,007
-614,532	168,434	0,021	-0,022
-613,517	481,082	0,062	0,103
-612,503	387,453	-0,029	0,043
-611,488	-200,000	0,010	-0,065
-610,474	137,672	-0,080	0,076
-609,459	6,642	-0,096	0,052
-608,444	-110,915	0,062	0,009
-607,430	-102,106	-0,048	-0,008
-606,415	-79,159	-0,079	0,019
-605,401	-110,516	-0,070	0,010
-604,386	-200,000	0,017	-0,106
-603,371	70,921	-0,161	-0,120
-602,357	-200,000	-0,012	0,116
-601,342	630,103	-0,091	0,167
-600,328	76,551	-0,086	0,066
-599,313	56,229	-0,068	-0,048
-598,298	-12,761	-0,074	0,035
-597,284	6,980	0,132	0,071
-596,269	209,462	-0,045	0,051
-595,255	800,000	-0,043	-0,106
-594,240	22,980	0,105	-0,062
-593,225	24,325	-0,045	0,027
-592,211	409,069	-0,028	0,043
-591,196	45,962	0,097	0,065
-590,182	-200,000	-0,013	0,114
-589,167	-200,000	0,008	0,134
-588,152	-75,013	-0,098	-0,025
-587,138	641,902	0,046	0,086
-586,123	299,494	-0,038	0,051
-585,109	-56,046	-0,109	0,035
-584,094	194,987	-0,071	-0,078
-583,079	-15,576	-0,054	0,025
-582,065	39,570	0,079	0,051
-581,050	142,315	0,087	0,083
-580,036	721,061	-0,080	0,155
-579,021	502,316	-0,117	-0,197
-578,006	-200,000	0,002	-0,026
-576,992	3,423	-0,050	-0,026
-575,977	-24,808	-0,099	-0,042
-574,963	-200,000	0,027	0,196
-573,948	800,000	-0,010	-0,033
-572,934	-200,000	-0,024	0,115
-571,919	41,668	-0,041	0,027
-570,904	635,635	0,059	0,109
-569,890	42,540	-0,081	0,053
-568,875	800,000	-0,012	0,036
-567,861	-137,487	0,103	0,008
-566,846	348,492	0,068	-0,098
-565,831	132,577	-0,093	0,087
-564,817	160,581	-0,083	0,084
-563,802	-86,320	-0,154	-0,034
-562,788	72,305	-0,078	0,059
-561,773	-130,438	-0,118	-0,011
-560,758	-0,256	0,148	0,076
-559,744	-200,000	-0,020	-0,083
-558,729	97,983	0,075	-0,062
-557,715	167,339	0,100	-0,103
-556,700	-16,363	-0,147	-0,067
-555,685	800,000	-0,029	-0,061
-554,671	15,391	-0,058	0,033
-553,656	139,018	0,060	0,057
-552,642	268,135	0,091	0,115
-551,627	60,671	-0,042	-0,030
-550,612	-61,400	-0,065	0,020
-549,598	186,798	-0,090	-0,097
-548,583	-71,186	0,100	0,027
-547,569	351,306	-0,111	0,159
-546,554	82,352	0,110	0,086
-545,539	-55,349	-0,072	0,023
-544,525	-200,000	-0,057	0,202
-543,510	-200,000	0,013	-0,055
-542,496	800,000	0,033	-0,066
-541,481	-200,000	-0,017	0,084
-540,466	-200,000	0,014	-0,052
-539,452	-89,339	-0,081	0,017
-538,437	-149,885	0,141	0,008
-537,423	-15,495	0,113	-0,052
-536,408	29,717	-0,040	-0,024
-535,393	-34,125	-0,116	-0,046
-534,379	-200,000	-0,040	-0,160
-533,364	-200,000	0,005	-0,108
-532,350	63,302	0,104	0,075
-531,335	24,925	0,041	-0,025
-530,321	80,727	-0,020	0,016
-529,306	147,106	0,033	-0,032
-528,291	96,595	0,041	-0,034
-527,277	29,345	0,138	0,084
-526,262	-170,278	0,166	0,004
-525,248	-200,000	-0,014	0,054
-524,233	-57,744	0,084	-0,026
-523,218	81,002	0,114	-0,089
-522,204	800,000	-0,084	-0,235
-521,189	-40,574	-0,103	-0,038
-520,175	-200,000	-0,037	-0,149
-519,160	332,474	0,011	0,016
-518,145	412,712	0,052	-0,080
-517,131	-200,000	-0,012	0,067
-516,116	202,434	-0,066	0,074
-515,102	144,032	0,132	0,127
-514,087	142,917	0,026	0,025
-513,072	386,258	-0,022	-0,033
-512,058	800,000	0,087	-0,185
-511,043	800,000	-0,023	0,072
-510,029	-200,000	0,032	0,117
-509,014	-60,040	-0,095	0,029
-507,999	64,629	0,055	-0,040
-506,985	800,000	-0,040	-0,087
-505,970	92,974	-0,068	-0,056
-504,956	800,000	-0,026	-0,061
-503,941	-41,598	0,115	0,042
-502,926	145,840	0,084	0,081
-501,912	-121,206	0,261	-0,031
-500,897	-32,936	-0,074	0,029
-499,883	-162,809	-0,104	0,004
-498,868	259,416	-0,039	-0,048
-497,853	-200,000	0,033	0,126
-496,839	-148,607	0,041	0,002
-495,824	468,255	-0,049	0,080
-494,810	220,975	0,053	-0,062
-493,795	88,742	0,080	0,064
-492,781	-200,000	-0,018	-0,073
-491,766	-195,074	-0,088	0,000
-490,751	58,003	-0,023	0,016
-489,737	564,029	0,046	-0,080
-488,722	-103,760	0,148	0,025
-487,708	800,000	-0,031	0,097
-486,693	-200,000	-0,030	0,209
-485,678	800,000	-0,009	-0,019
-484,664	-200,000	-0,007	-0,028
-483,649	351,231	0,079	0,114
-482,635	36,390	-0,119	-0,075
-481,620	-200,000	0,018	-0,099
-480,605	365,773	0,061	0,089
-479,591	-72,538	-0,096	0,025
-478,576	53,420	0,041	-0,028
-477,562	-200,000	0,011	-0,132
-476,547	-200,000	0,011	-0,057
-475,532	-186,485	0,061	-0,001
-474,518	36,212	-0,071	-0,045
-473,503	120,816	0,088	-0,079
-472,489	260,558	0,074	0,093
-471,474	-74,402	0,073	-0,019
-470,459	-200,000	-0,006	-0,100
-469,445	75,740	-0,062	0,047
-468,430	0,126	-0,077	0,040
-467,416	3,097	0,034	0,018
-466,401	222,980	-0,083	-0,096
-465,386	-135,322	-0,097	-0,008
-464,372	759,174	0,114	0,223
-463,357	-200,000	0,017	-0,076
-462,343	486,517	-0,085	0,140
-461,328	-3,762	0,150	-0,075
-460,313	178,558	0,068	-0,072
-459,299	-200,000	-0,004	-0,063
-458,284	-200,000	0,016	0,069
-457,270	-200,000	-0,027	0,114
-456,255	-49,611	-0,055	-0,019
-455,241	-200,000	-0,008	-0,104
-454,226	-200,000	-0,029	-0,119
-453,211	147,654	-0,019	-0,019
-452,197	596,579	0,042	-0,076
-451,182	-93,655	0,135	0,027
-450,168	-200,000	0,013	-0,091
-449,153	-72,482	-0,111	0,029
-448,138	34,883	-0,036	-0,023
-447,124	762,773	-0,020	-0,040
-446,109	-200,000	-0,004	0,050
-445,095	28,269	0,019	0,011
-444,080	800,000	-0,013	0,035
-443,065	376,477	0,085	0,126
-442,051	-73,476	0,080	0,021
-441,036	-31,804	0,023	0,009
-440,022	268,538	-0,026	-0,033
-439,007	-57,152	0,141	-0,044
-437,992	800,000	0,021	0,043
-436,978	68,822	-0,115	0,085
-435,963	528,597	-0,048	-0,082
-434,949	-200,000	0,013	-0,096
-433,934	800,000	-0,074	-0,149
-432,919	-200,000	-0,028	-0,164
-431,905	-200,000	0,012	0,042
-430,890	-33,541	0,039	0,015
-429,876	-72,978	0,064	0,017
-428,861	-26,748	-0,108	0,045
-427,846	-200,000	-0,001	0,017
-426,832	800,000	-0,021	0,065
-425,817	322,380	0,008	-0,012
-424,803	758,047	0,043	-0,084
-423,788	-88,075	-0,059	-0,013
-422,773	27,536	0,122	-0,074
-421,759	800,000	0,060	0,161
-420,744	190,853	0,077	-0,083
-419,730	41,422	-0,026	0,017
-418,715	566,914	-0,017	0,030
-417,701	-113,856	-0,134	0,019
-416,686	47,028	-0,058	-0,039
-415,671	-200,000	0,008	0,091
-414,657	800,000	0,056	0,159
-413,642	800,000	0,050	-0,138
-412,628	-36,366	0,047	-0,018
-411,613	-200,000	-0,042	-0,160
-410,598	4,525	-0,139	0,073
-409,584	102,375	0,042	-0,035
-408,569	32,236	-0,164	-0,101
-407,555	-19,157	0,063	0,028
-406,540	-105,567	0,074	0,012
-405,525	-200,000	0,006	-0,087
-404,511	707,982	-0,069	-0,131
-403,496	-200,000	-0,015	0,050
-402,482	-200,000	-0,009	0,258
-401,467	370,680	-0,026	0,038
-400,452	-200,000	-0,011	0,061
-399,438	185,455	0,092	0,098
-398,423	35,481	-0,116	0,073
-397,409	98,764	-0,109	-0,090
-396,394	-200,000	-0,026	-0,113
-395,379	-142,803	-0,012	-0,001
-394,365	81,431	0,091	-0,070
-393,350	-138,860	-0,013	0,001
-392,336	273,996	0,049	0,063
-391,321	800,000	0,016	0,033
-390,306	295,032	0,046	-0,061
-389,292	54,626	0,021	-0,015
-388,277	-53,023	-0,076	0,025
-387,263	-20,944	0,131	0,057
-386,248	-200,000	0,037	0,209
-385,233	8,894	-0,038	-0,021
-384,219	390,718	0,027	-0,040
-383,204	44,428	-0,023	0,015
-382,190	345,812	-0,045	0,064
-381,175	-29,213	0,169	0,069
-380,160	99,843	-0,075	0,062
-379,146	-116,002	-0,024	-0,003
-378,131	-92,191	0,058	-0,012
-377,117	-38,406	0,049	-0,019
-376,102	-131,436	-0,139	-0,013
-375,088	266,182	-0,051	0,065
-374,073	-94,176	-0,054	0,011
-373,058	-200,000	-0,003	-0,059
-372,044	800,000	0,022	0,057
-371,029	-200,000	0,016	-0,052
-370,015	-160,633	-0,119	0,004
-369,000	162,770	0,063	0,064
-367,985	-200,000	0,017	-0,201
-366,971	-150,933	-0,095	-0,005
-365,956	-71,781	-0,017	-0,004
-364,942	-200,000	-0,014	0,072
-363,927	407,309	-0,070	-0,107
-362,912	153,733	0,081	0,079
-361,898	-12,083	0,037	-0,017
-360,883	-200,000	-0,007	-0,170
-359,869	62,767	0,075	-0,054
-358,854	800,000	0,023	-0,071
-357,839	0,087	0,090	0,046
-356,825	206,991	0,074	0,083
-355,810	137,471	-0,080	-0,075
-354,796	-56,074	0,048	-0,015
-353,781	79,272	-0,056	-0,043
-352,766	-200,000	-0,008	-0,050
-351,752	-80,039	-0,127	-0,030
-350,737	-29,136	-0,120	0,049
-349,723	800,000	0,048	0,109
-348,708	-14,502	-0,065	-0,030
-347,693	-200,000	-0,022	0,098
-346,679	-69,390	-0,144	-0,039
-345,664	-200,000	-0,005	-0,054
-344,650	-200,000	0,004	0,096
-343,635	729,345	-0,024	-0,046
-342,620	162,810	0,021	-0,021
-341,606	800,000	0,043	0,106
-340,591	438,601	0,056	-0,089
-339,577	-200,000	-0,006	-0,076
-338,562	277,643	0,030	-0,039
-337,548	-200,000	-0,030	0,148
-336,533	-200,000	0,001	-0,112
-335,518	43,782	0,064	0,042
-334,504	-200,000	-0,002	0,072
-333,489	247,967	-0,036	0,043
-332,475	15,382	0,095	-0,053
-331,460	83,738	-0,092	-0,072
-330,445	142,983	0,162	-0,154
-329,431	-54,614	0,032	-0,010
-328,416	800,000	0,066	0,141
-327,402	54,337	0,119	-0,082
-326,387	800,000	0,045	-0,117
-325,372	323,400	-0,097	-0,133
-324,358	-200,000	-0,014	-0,098
-323,343	208,101	0,041	-0,046
-322,329	263,549	0,023	0,029
-321,314	52,090	0,041	-0,028
-320,299	-200,000	0,025	-0,084
-319,285	694,065	-0,055	-0,104
-318,270	800,000	-0,067	-0,156
-317,256	352,740	-0,093	-0,132
-316,241	20,865	-0,110	-0,064
-315,226	-179,947	0,070	-0,001
-314,212	-26,595	0,124	-0,052
-313,197	-50,269	0,044	-0,015
-312,183	54,842	0,022	0,015
-311,168	800,000	-0,043	0,103
-310,153	292,061	0,107	-0,140
-309,139	-15,550	-0,111	-0,051
-308,124	421,301	0,037	-0,056
-307,110	94,069	-0,033	-0,027
-306,095	800,000	0,066	0,155
-305,080	-200,000	0,009	-0,030
-304,066	-75,798	-0,061	0,015
-303,051	90,073	0,047	0,038
-302,037	800,000	-0,026	0,053
-301,022	-200,000	0,012	0,123
-300,008	-200,000	0,019	0,175
-298,993	800,000	-0,044	0,089
-297,978	88,021	0,014	0,011
-296,964	153,903	-0,032	0,031
-295,949	-12,920	0,074	0,034
-294,935	294,671	-0,080	-0,105
-293,920	217,067	-0,038	0,044
-292,905	800,000	-0,024	-0,060
-291,891	-189,031	0,040	0,000
-290,876	-200,000	0,014	-0,101
-289,862	-53,847	0,063	-0,020
-288,847	-16,288	-0,137	-0,062
-287,832	-118,172	0,072	0,009
-286,818	114,528	-0,025	-0,021
-285,803	170,581	0,028	0,029
-284,789	369,546	0,118	0,172
-283,774	-67,937	0,103	-0,029
-282,759	800,000	-0,013	0,033
-281,745	-200,000	0,035	-0,122
-280,730	-91,112	-0,096	0,019
-279,716	800,000	0,033	0,075
-278,701	-200,000	0,008	0,104
-277,686	-22,846	-0,042	0,018
-276,672	18,110	0,084	-0,048
-275,657	800,000	0,036	-0,072
-274,643	76,232	-0,084	-0,064
-273,628	800,000	-0,058	-0,117
-272,613	-200,000	0,018	0,120
-271,599	-200,000	-0,007	-0,038
-270,584	67,660	0,035	0,026
-269,570	-5,668	0,044	-0,022
-268,555	800,000	0,038	-0,097
-267,540	4,102	-0,096	0,050
-266,526	-86,976	-0,032	0,007
-265,511	-200,000	0,008	0,111
-264,497	-164,874	0,047	-0,001
-263,482	-200,000	0,010	0,074
-262,467	190,992	-0,042	0,045
-261,453	-18,828	0,119	-0,053
-260,438	-200,000	-0,036	-0,171
-259,424	9,704	0,035	-0,019
-258,409	-200,000	-0,016	-0,164
-257,395	73,411	-0,108	0,081
-256,380	33,022	0,103	0,063
-255,365	644,634	0,087	0,160
-254,351	800,000	-0,026	0,072
-253,336	264,327	-0,027	-0,034
-252,322	-200,000	-0,015	-0,102
-251,307	590,615	0,138	-0,245
-250,292	714,124	0,029	0,056
-249,278	800,000	0,042	0,122
-248,263	-200,000	0,002	0,081
-247,249	54,879	-0,045	-0,031
-246,234	-200,000	-0,002	0,031
-245,219	18,664	-0,120	-0,069
-244,205	-200,000	-0,021	0,084
-243,190	-150,522	0,113	0,006
-242,176	44,046	-0,034	-0,022
-241,161	97,903	0,095	0,078
-240,146	144,872	0,051	-0,049
-239,132	-200,000	0,008	-0,097
-238,117	-200,000	-0,001	0,020
-237,103	-142,619	-0,226	-0,016
-236,088	9,787	0,104	-0,056
-235,073	652,929	0,012	-0,021
-234,059	17,457	-0,054	-0,031
-233,044	140,205	-0,073	-0,069
-232,030	-27,977	-0,077	0,032
-231,015	495,470	-0,040	0,066
-230,000	457,025	-0,035	-0,055
-228,986	-200,000	0,038	0,140
-227,971	-200,000	0,030	0,196
-226,957	-148,408	0,060	-0,003
-225,942	-73,191	0,038	0,010
-224,927	-69,270	0,098	0,027
-223,913	266,227	-0,046	0,057
-222,898	800,000	0,030	-0,072
-221,884	-119,818	-0,046	0,006
-220,869	-200,000	0,023	0,141
-219,855	-200,000	0,006	0,035
-218,840	49,181	0,046	0,031
-217,825	800,000	-0,042	-0,120
-216,811	-52,055	-0,025	-0,008
-215,796	226,905	-0,051	-0,059
-214,782	-102,416	0,027	-0,005
-213,767	-200,000	-0,007	0,053
-212,752	-23,426	0,026	-0,011
-211,738	653,693	0,030	0,056
-210,723	-113,013	-0,064	0,009
-209,709	181,608	-0,094	0,098
-208,694	321,755	0,091	-0,124
-207,679	21,952	-0,063	-0,036
-206,665	732,287	-0,048	0,092
-205,650	77,561	0,080	0,061
-204,636	-81,118	-0,055	0,013
-203,621	800,000	-0,011	0,031
-202,606	-200,000	0,017	-0,073
-201,592	-200,000	0,014	0,100
-200,577	-21,961	-0,101	0,044
-199,563	-188,683	-0,093	0,001
-198,548	-87,923	0,096	-0,021
-197,533	10,050	0,024	0,013
-196,519	800,000	-0,031	0,079
-195,504	56,645	0,061	0,042
-194,490	-63,119	0,022	-0,006
-193,475	411,806	-0,037	0,056
-192,460	-153,092	0,101	0,005
-191,446	-200,000	0,018	-0,069
-190,431	-128,328	-0,026	-0,003
-189,417	-200,000	0,010	0,226
-188,402	-88,762	0,085	-0,018
-187,387	-112,159	-0,087	-0,012
-186,373	-6,078	0,052	0,025
-185,358	320,442	-0,076	0,103
-184,344	-11,608	0,108	0,050
-183,329	-200,000	0,046	0,188
-182,315	38,777	-0,058	0,037
-181,300	276,675	0,095	-0,121
-180,285	-128,640	0,065	-0,006
-179,271	-62,664	-0,041	0,012
-178,256	-200,000	0,017	-0,059
-177,242	800,000	0,077	-0,183
-176,227	219,758	0,052	0,060
-175,212	163,992	-0,057	-0,057
-174,198	-31,484	-0,111	-0,044
-173,183	-42,191	0,142	-0,051
-172,169	27,250	-0,086	-0,051
-171,154	386,206	0,064	0,094
-170,139	-200,000	0,019	0,070
-169,125	129,754	0,112	0,102
-168,110	379,674	0,031	0,046
-167,096	-168,117	-0,101	0,003
-166,081	-181,122	-0,141	0,002
-165,066	-121,300	-0,146	-0,017
-164,052	174,131	0,075	-0,077
-163,037	278,199	0,074	-0,094
-162,023	-131,661	-0,036	0,003
-161,008	-200,000	0,017	0,101
-159,993	-89,500	-0,071	0,015
-158,979	81,882	-0,097	-0,075
-157,964	800,000	0,016	0,042
-156,950	-200,000	0,000	-0,058
-155,935	-200,000	-0,005	0,100
-154,920	-161,192	0,156	-0,006
-153,906	-42,668	0,102	0,037
-152,891	-200,000	-0,021	-0,078
-151,877	-200,000	-0,013	-0,040
-150,862	180,924	-0,063	-0,066
-149,847	800,000	0,034	0,071
-148,833	-109,620	-0,163	-0,024
-147,818	310,610	-0,093	0,124
-146,804	-200,000	-0,016	-0,080
-145,789	-200,000	-0,002	-0,071
-144,775	4,900	-0,064	-0,033
-143,760	-80,472	-0,084	0,020
-142,745	-7,802	-0,129	-0,062
-141,731	322,685	0,042	0,057
-140,716	-79,782	0,086	0,020
-139,702	-200,000	0,014	0,206
-138,687	190,236	-0,103	0,110
-137,672	-200,000	-0,032	-0,102
-136,658	52,253	0,070	-0,047
-135,643	784,776	-0,051	-0,100
-134,629	402,650	-0,109	-0,163
-133,614	215,034	-0,063	0,071
-132,599	-200,000	0,030	0,122
-131,585	-200,000	-0,007	0,139
-130,570	598,608	-0,037	-0,066
-129,556	-6,136	-0,081	0,039
-128,541	800,000	0,054	-0,120
-127,526	-178,380	-0,041	0,001
-126,512	-200,000	0,003	-0,054
-125,497	-28,035	0,107	-0,044
-124,483	65,588	-0,082	-0,059
-123,468	-24,138	0,033	0,014
-122,453	-186,786	-0,160	0,002
-121,439	-200,000	-0,038	-0,132
-120,424	158,845	-0,031	0,031
-119,410	223,966	0,043	0,050
-118,395	249,757	0,119	0,144
-117,380	-105,216	-0,075	0,012
-116,366	415,179	0,082	-0,124
-115,351	28,509	0,012	-0,007
-114,337	-200,000	0,000	-0,095
-113,322	36,674	0,015	-0,009
-112,307	-57,255	-0,035	0,011
-111,293	488,591	0,054	0,087
-110,278	-24,015	-0,062	0,026
-109,264	22,084	-0,038	0,022
-108,249	38,297	0,094	-0,059
-107,234	639,952	0,022	-0,040
-106,220	-200,000	-0,006	-0,116
-105,205	-129,632	0,056	-0,005
-104,191	83,687	0,209	0,162
-103,176	208,763	-0,053	0,058
-102,162	-98,276	-0,048	-0,009
-101,147	448,953	-0,047	-0,073
-100,132	-200,000	0,008	0,048
-99,118	585,939	0,043	-0,075
-98,103	-200,000	0,011	0,053
-97,089	-200,000	-0,016	0,085
-96,074	-200,000	0,018	-0,074
-95,059	-200,000	-0,034	-0,112
-94,045	-163,807	0,052	-0,002
-93,030	607,436	0,077	-0,137
-92,016	-18,878	0,070	-0,031
-91,001	-98,270	0,045	-0,008
-89,986	-101,244	-0,008	0,001
-88,972	-200,000	0,003	0,019
-87,957	-86,663	-0,086	0,019
-86,943	277,787	0,033	-0,042
-85,928	253,845	-0,083	-0,101
-84,913	-134,836	-0,098	0,008
-83,899	-200,000	0,009	-0,037
-82,884	-38,102	0,129	-0,048
-81,870	326,893	-0,021	-0,029
-80,855	-71,444	-0,020	-0,005
-79,840	38,243	0,061	-0,038
-78,826	-170,247	-0,071	0,002
-77,811	-200,000	-0,004	-0,069
-76,797	-175,801	0,162	-0,003
-75,782	168,212	-0,049	-0,050
-74,767	-200,000	0,009	-0,066
-73,753	-200,000	-0,001	-0,040
-72,738	800,000	0,010	-0,021
-71,724	-200,000	0,020	-0,196
-70,709	-141,214	-0,055	0,004
-69,694	221,593	-0,056	0,064
-68,680	240,825	-0,065	0,077
-67,665	800,000	0,055	0,131
-66,651	-200,000	0,008	-0,039
-65,636	46,001	-0,024	-0,016
-64,622	281,184	0,059	0,075
-63,607	448,571	-0,059	0,092
-62,592	781,238	-0,038	0,073
-61,578	360,374	0,066	0,095
-60,563	79,428	0,189	0,144
-59,549	-95,476	-0,118	0,022
-58,534	-17,413	-1,569	-0,697
-57,519	418,876	-1,456	-2,215
-56,505	-200,000	-0,515	-4,486
-55,490	275,546	0,864	1,088
-54,476	800,000	4,973	11,363
-53,461	-200,000	18,970	310,294
-52,446	-200,000	739,255	2313,961
-51,432	571,242	1655,026	2866,353
-50,417	78,866	1670,391	1265,328
-49,403	21,894	1543,194	888,929
-48,388	15,814	1465,821	814,798
-47,373	17,830	1455,977	819,037
-46,359	16,866	1446,100	808,824
-45,344	14,020	1441,299	792,470
-44,330	13,987	1439,374	791,225
-43,315	14,009	1437,738	790,397
-42,300	13,971	1436,183	789,330
-41,286	14,031	1434,917	788,890
-40,271	13,958	1433,511	787,736
-39,257	13,970	1432,200	787,042
-38,242	14,074	1430,766	786,720
-37,227	14,054	1429,843	786,086
-36,213	14,059	1428,613	785,403
-35,198	14,025	1427,213	784,441
-34,184	14,018	1426,547	784,007
-33,169	13,965	1425,292	783,039
-32,154	14,057	1424,047	782,755
-31,140	14,064	1422,509	781,913
-30,125	14,057	1421,778	781,449
-29,111	14,044	1420,505	780,654
-28,096	14,041	1419,168	779,877
-27,082	13,991	1418,267	779,115
-26,067	13,954	1417,259	778,353
-25,052	13,989	1416,100	777,852
-24,038	13,926	1415,077	776,961
-23,023	13,900	1414,195	776,326
-22,009	13,948	1413,129	775,937
-20,994	13,954	1412,260	775,458
-19,979	13,858	1411,645	774,638
-18,965	13,889	1410,556	774,155
-17,950	13,879	1409,652	773,581
-16,936	13,837	1408,818	772,893
-15,921	13,893	1407,496	772,402
-14,906	13,839	1406,406	771,522
-13,892	13,877	1405,633	771,243
-12,877	13,866	1404,628	770,610
-11,863	13,861	1403,871	770,140
-10,848	13,853	1403,031	769,611
-9,833	13,840	1402,102	769,010
-8,819	13,784	1401,135	768,188
-7,804	13,843	1400,166	767,900
-6,790	13,802	1399,150	767,121
-5,775	13,785	1397,957	766,360
-4,760	13,762	1397,165	765,789
-3,746	13,727	1396,442	765,200
-2,731	13,761	1395,785	764,965
-1,717	13,753	1394,648	764,277
-0,702	13,793	1392,827	763,431
0,313	17,601	1310,551	736,000
1,327	34,010	705,223	434,058
2,342	52,527	123,798	83,565
3,356	0,245	16,724	8,420
4,371	5,521	3,196	1,666
5,386	-44,555	0,470	0,165
6,400	-200,000	-0,039	0,266
7,415	-78,992	-0,267	-0,064
8,429	82,498	-0,219	-0,168
9,444	3,518	-0,377	-0,194
10,459	9,539	-0,430	-0,230
11,473	179,111	-0,248	-0,257
12,488	108,792	-0,227	-0,191
13,502	199,415	-0,245	-0,266
14,517	18,802	-0,269	-0,152
15,531	-37,506	-0,424	-0,159
16,546	-34,300	-0,386	-0,149
17,561	39,408	-0,320	-0,202
18,575	181,010	-0,144	-0,150
19,590	69,198	-0,333	-0,242
20,604	0,851	-0,339	-0,171
21,619	38,609	-0,423	-0,266
22,634	231,932	-0,300	-0,349
23,648	93,770	-0,401	-0,321
24,663	160,509	-0,363	-0,358
25,677	188,891	-0,162	-0,171
26,692	127,018	-0,385	-0,345
27,707	-45,442	-0,498	-0,173
28,721	12,097	-0,433	-0,235
29,736	273,004	-0,266	-0,333
30,750	48,698	-0,400	-0,265
31,765	157,615	-0,343	-0,336
32,780	122,847	-0,429	-0,379
33,794	28,575	-0,479	-0,285
34,809	10,114	-0,339	-0,182
35,823	433,906	-0,223	-0,344
36,838	-0,608	-0,428	-0,213
37,853	141,087	-0,423	-0,395
38,867	84,734	-0,295	-0,228
39,882	-55,467	-0,315	-0,099
40,896	217,200	-0,236	-0,266
41,911	92,277	-0,322	-0,256
42,926	-49,857	-0,358	-0,119
43,940	80,833	-0,384	-0,292
44,955	172,661	-0,301	-0,306
45,969	107,414	-0,309	-0,259
46,984	66,497	-0,401	-0,287
47,999	104,866	-0,297	-0,247
49,013	119,891	-0,310	-0,271
50,028	391,445	-0,168	-0,247
51,042	28,188	-0,416	-0,247
52,057	137,091	-0,352	-0,325
53,071	40,583	-0,364	-0,231
54,086	-110,007	-0,292	-0,043
55,101	-70,223	-0,274	-0,073
56,115	85,462	-0,387	-0,299
57,130	-126,359	-0,358	-0,037
58,144	33,420	-0,310	-0,189
59,159	-1,092	-0,337	-0,167
60,174	22,952	-0,366	-0,211
61,188	93,864	-0,274	-0,219
62,203	18,560	-0,354	-0,199
63,217	85,561	-0,364	-0,281
64,232	101,534	-0,311	-0,255
65,247	188,135	-0,321	-0,338
66,261	143,167	-0,342	-0,320
67,276	-26,907	-0,425	-0,174
68,290	28,867	-0,320	-0,190
69,305	114,951	-0,317	-0,272
70,320	30,102	-0,277	-0,166
71,334	93,841	-0,353	-0,281
72,349	32,161	-0,371	-0,224
73,363	107,100	-0,324	-0,271
74,378	-2,488	-0,327	-0,160
75,393	62,364	-0,210	-0,148
76,407	-41,356	-0,344	-0,124
77,422	22,115	-0,322	-0,184
78,436	13,685	-0,307	-0,167
79,451	65,882	-0,280	-0,200
80,466	143,824	-0,329	-0,308
81,480	23,980	-0,395	-0,228
82,495	67,889	-0,280	-0,201
83,509	6,962	-0,296	-0,155
84,524	-9,607	-0,296	-0,138
85,539	-20,030	-0,384	-0,166
86,553	-27,413	-0,361	-0,147
87,568	64,005	-0,288	-0,203
88,582	23,161	-0,278	-0,160
89,597	256,380	-0,237	-0,286
90,611	3,331	-0,299	-0,153
91,626	-4,323	-0,421	-0,204
92,641	201,872	-0,191	-0,207
93,655	83,763	-0,271	-0,207
94,670	-46,171	-0,409	-0,141
95,684	131,802	-0,313	-0,283
96,699	288,088	-0,265	-0,338
97,714	268,866	-0,265	-0,327
98,728	161,610	-0,197	-0,194
99,743	26,653	-0,151	-0,089
100,757	90,414	-0,270	-0,212
101,772	204,017	-0,206	-0,225
102,787	82,968	-0,334	-0,255
103,801	195,194	-0,245	-0,262
104,816	29,324	-0,244	-0,145
105,830	354,155	-0,203	-0,284
106,845	289,888	-0,158	-0,202
107,860	-124,724	-0,274	0,029
108,874	79,212	-0,299	-0,224
109,889	671,136	-0,179	-0,326
110,903	302,398	-0,238	-0,309
111,918	19,699	-0,259	-0,146
112,933	-48,658	-0,260	-0,087
113,947	327,046	-0,129	-0,173
114,962	306,490	-0,139	-0,182
115,976	-37,830	-0,385	-0,143
116,991	202,155	-0,201	-0,218
118,006	163,444	-0,349	-0,344
119,020	-13,143	-0,224	-0,102
120,035	-94,249	-0,138	-0,026
121,049	-8,293	-0,219	-0,103
122,064	-9,006	-0,294	-0,137
123,079	33,674	-0,216	-0,131
124,093	36,689	-0,399	-0,247
125,108	44,229	-0,327	-0,210
126,122	168,084	-0,247	-0,246
127,137	71,682	-0,264	-0,192
128,151	99,278	-0,245	-0,198
129,166	115,096	-0,256	-0,219
130,181	100,642	-0,193	-0,157
131,195	28,252	-0,268	-0,158
132,210	196,608	-0,160	-0,171
133,224	-46,850	-0,249	-0,085
134,239	210,919	-0,200	-0,220
135,254	91,627	-0,211	-0,166
136,268	-64,005	-0,240	-0,068
137,283	-72,979	-0,410	-0,105
138,297	-24,566	-0,216	-0,089
139,312	167,855	-0,235	-0,234
140,327	279,820	-0,148	-0,186
141,341	-29,728	-0,211	-0,084
142,356	37,280	-0,278	-0,172
143,370	771,556	-0,100	-0,191
144,385	17,716	-0,358	-0,199
145,400	1,039	-0,320	-0,160
146,414	800,000	-0,138	-0,345
147,429	103,037	-0,343	-0,281
148,443	252,894	-0,247	-0,296
149,458	45,239	-0,213	-0,137
150,473	-1,961	-0,258	-0,126
151,487	194,187	-0,201	-0,213
152,502	230,604	-0,169	-0,193
153,516	336,341	-0,163	-0,222
154,531	145,987	-0,162	-0,152
155,546	144,123	-0,161	-0,150
156,560	-83,768	-0,276	-0,061
157,575	215,739	-0,157	-0,174
158,589	-104,051	-0,157	-0,025
159,604	-27,591	-0,249	-0,101
160,619	203,347	-0,166	-0,180
161,633	-95,582	-0,293	-0,054
162,648	103,492	-0,213	-0,174
163,662	-175,263	-0,174	0,003
164,677	-64,202	-0,286	-0,081
165,692	-45,719	-0,216	-0,074
166,706	-71,995	-0,231	-0,059
167,721	41,028	-0,199	-0,125
168,735	-30,116	-0,424	-0,167
169,750	-25,496	-0,336	-0,138
170,764	214,098	-0,184	-0,203
171,779	165,302	-0,202	-0,199
172,794	479,593	-0,132	-0,209
173,808	6,580	-0,246	-0,127
174,823	95,611	-0,271	-0,215
175,837	217,607	-0,220	-0,245
176,852	-200,000	-0,035	-0,267
177,867	51,921	-0,258	-0,171
178,881	30,086	-0,220	-0,130
179,896	27,315	-0,170	-0,099
180,910	-33,945	-0,294	-0,112
181,925	-11,696	-0,308	-0,140
182,940	21,639	-0,293	-0,166
183,954	134,662	-0,171	-0,155
184,969	479,977	-0,159	-0,252
185,983	132,444	-0,286	-0,257
186,998	64,510	-0,249	-0,175
188,013	37,999	-0,187	-0,116
189,027	141,421	-0,230	-0,212
190,042	301,440	-0,221	-0,285
191,056	46,014	-0,165	-0,106
192,071	58,234	-0,315	-0,215
193,086	-101,213	-0,183	-0,031
194,100	327,333	-0,188	-0,252
195,115	800,000	-0,093	-0,190
196,129	707,082	-0,141	-0,260
197,144	96,999	-0,270	-0,215
198,159	49,999	-0,227	-0,149
199,173	165,682	-0,226	-0,223
200,188	254,926	-0,149	-0,177
201,202	-32,454	-0,164	0,063
202,217	43,418	-0,237	-0,150
203,232	-101,554	-0,206	-0,034
204,246	-101,749	-0,169	-0,028
205,261	7,686	-0,381	-0,198
206,275	60,188	-0,182	-0,125
207,290	522,833	-0,152	-0,250
208,304	800,000	-0,044	-0,130
209,319	-4,438	-0,172	-0,082
210,334	-108,650	-0,219	-0,032
211,348	800,000	-0,149	-0,304
212,363	341,069	-0,211	-0,287
213,377	46,960	-0,208	-0,134
214,392	122,779	-0,223	-0,194
215,407	-110,480	-0,131	0,019
216,421	172,312	-0,126	-0,126
217,436	127,688	-0,261	-0,230
218,450	-48,408	-0,350	-0,117
219,465	800,000	-0,098	-0,216
220,480	152,131	-0,183	-0,174
221,494	93,312	-0,181	-0,142
222,509	-59,243	-0,200	-0,059
223,523	22,169	-0,208	-0,118
224,538	-31,757	-0,287	-0,111
225,553	257,021	-0,223	-0,267
226,567	171,694	-0,236	-0,235
227,582	195,612	-0,250	-0,264
228,596	26,802	-0,156	-0,091
229,611	295,561	-0,137	-0,174
230,626	12,301	-0,224	-0,119
231,640	68,611	-0,216	-0,154
232,655	193,046	-0,174	-0,183
233,669	143,832	-0,193	-0,178
234,684	152,853	-0,245	-0,232
235,699	172,546	-0,189	-0,189
236,713	146,437	-0,160	-0,149
237,728	19,296	-0,146	-0,081
238,742	310,036	-0,208	-0,270
239,757	800,000	-0,090	-0,213
240,772	98,189	-0,208	-0,166
241,786	-57,780	-0,296	0,089
242,801	52,167	-0,182	-0,120
243,815	225,577	-0,140	-0,157
244,830	543,366	-0,094	-0,155
245,844	761,490	-0,134	-0,253
246,859	115,392	-0,202	-0,171
247,874	136,497	-0,176	-0,159
248,888	-93,588	-0,270	-0,051
249,903	-53,286	-0,105	-0,033
250,917	-106,636	-0,124	-0,019
251,932	113,618	-0,121	-0,101
252,947	204,111	-0,150	-0,162
253,961	169,890	-0,133	-0,132
254,976	-128,227	-0,199	-0,019
255,990	83,887	-0,152	-0,115
257,005	63,200	-0,189	-0,131
258,020	2,942	-0,069	-0,035
259,034	70,415	-0,113	-0,081
260,049	314,116	-0,079	-0,104
261,063	-91,848	-0,070	-0,014
262,078	-200,000	-0,053	-0,189
263,093	-41,234	-0,200	-0,071
264,107	57,592	-0,163	-0,110
265,122	278,940	-0,169	-0,209
266,136	-200,000	0,043	-0,173
267,151	800,000	-0,088	-0,209
268,166	-67,041	-0,238	0,064
269,180	113,450	-0,311	-0,261
270,195	27,307	-0,243	-0,141
271,209	-98,847	-0,150	-0,026
272,224	-8,767	-0,097	-0,045
273,239	-0,846	-0,088	0,043
274,253	-51,318	-0,174	-0,056
275,268	-167,442	-0,122	-0,003
276,282	180,587	-0,209	-0,212
277,297	-9,357	-0,245	-0,113
278,312	-19,434	-0,126	-0,054
279,326	-200,000	-0,046	-0,162
280,341	-44,289	-0,198	-0,068
281,355	-200,000	-0,027	-0,195
282,370	800,000	-0,044	-0,100
283,384	-69,802	-0,064	-0,017
284,399	359,226	-0,147	-0,203
285,414	800,000	-0,120	-0,270
286,428	88,502	-0,202	-0,155
287,443	307,582	-0,123	-0,158
288,457	-102,259	-0,246	0,040
289,472	-45,966	-0,249	-0,084
290,487	679,119	-0,110	-0,198
291,501	50,476	-0,239	-0,156
292,516	71,316	-0,225	-0,161
293,530	-35,445	-0,068	-0,025
294,545	-80,358	-0,149	-0,034
295,560	588,981	-0,059	-0,101
296,574	-200,000	-0,033	-0,120
297,589	107,746	-0,124	-0,102
298,603	628,577	-0,116	-0,202
299,618	-145,545	-0,217	0,013
300,633	544,728	-0,084	-0,139
301,647	-200,000	-0,004	-0,120
302,662	26,163	-0,180	0,103
303,676	5,397	-0,230	-0,116
304,691	-142,103	-0,094	-0,006
305,706	715,295	-0,104	-0,191
306,720	92,021	-0,218	-0,169
307,735	356,329	-0,090	-0,124
308,749	-138,071	-0,214	-0,016
309,764	-140,517	-0,236	0,017
310,779	-200,000	-0,010	-0,212
311,793	44,574	-0,239	-0,151
312,808	180,998	-0,103	-0,104
313,822	-64,285	-0,227	-0,063
314,837	-129,982	-0,177	-0,017
315,852	-99,504	-0,117	0,020
316,866	-200,000	-0,030	-0,128
317,881	281,491	-0,141	-0,174
318,895	-1,530	-0,153	-0,074
319,910	94,216	-0,184	-0,143
320,925	-48,921	-0,118	-0,039
321,939	573,299	-0,086	-0,145
322,954	-122,350	-0,173	0,019
323,968	233,396	-0,109	0,124
324,983	-200,000	-0,029	-0,209
325,997	26,131	-0,130	-0,074
327,012	224,884	-0,096	-0,107
328,027	82,591	-0,137	-0,102
329,041	235,970	-0,159	-0,181
330,056	23,181	-0,231	-0,130
331,070	800,000	-0,065	-0,138
332,085	-97,065	-0,137	-0,024
333,100	-55,339	-0,170	-0,052
334,114	-200,000	-0,022	-0,066
335,129	28,998	-0,163	-0,095
336,143	-96,264	-0,085	-0,015
337,158	-54,796	-0,146	-0,045
338,173	800,000	-0,052	-0,142
339,187	-107,259	-0,235	0,035
340,202	-76,617	-0,139	0,033
341,216	21,820	-0,088	-0,049
342,231	-7,364	-0,109	-0,050
343,246	256,747	-0,123	-0,145
344,260	89,333	-0,190	-0,145
345,275	-45,426	-0,145	-0,049
346,289	-167,611	-0,204	-0,005
347,304	78,455	-0,124	-0,091
348,319	-99,398	-0,088	0,015
349,333	-29,666	-0,253	0,099
350,348	-177,250	-0,225	-0,004
351,362	-52,596	-0,221	-0,070
352,377	222,791	-0,091	-0,101
353,392	22,545	-0,174	-0,098
354,406	-200,000	-0,031	-0,249
355,421	208,132	1313,733	1411,087
356,435	160,134	1474,341	1411,578
