DTS Sentinel unit serial number:	SN410029Multiplexer serial number:	ORYXHardware model number:	OX2-SRSoftware version number:	ORYX F/W v4,00 Oryx Data Collector v3.7.2.0data status	okinstallation	B3 Nyhavnadifferential loss correction	single-endedforward channel	channel 1reverse channel	N/Adate	2023/11/30time	20:17:30forward acquisition time	300,00reverse acquisition time	0,00gamma	499,1914k internal	0,3208k external	0,3208temperature offset calibration	1,0000default loss term (dB/km)	0,3820temperature slope calibration	1,0000multiplexer offset coefficient	1,0000multiplexer slope coefficient	1,0000fibre end	0,00T internal ref (°C)	11,39T ext. ref 1 (°C)	-3,96T ext. ref 2 (°C)	-4,09length (m)	temperature (°C)	Stokes	anti-Stokes-744,400	-200,000	-0,008	-0,245
-743,385	800,000	0,080	0,249
-742,371	-17,496	-0,143	-0,065
-741,356	-200,000	-0,011	0,420
-740,342	75,825	-0,188	-0,144
-739,327	-200,000	-0,025	0,285
-738,312	357,609	-0,197	-0,286
-737,298	-200,000	-0,057	0,308
-736,283	206,108	-0,204	-0,230
-735,269	-200,000	0,063	0,523
-734,254	382,180	-0,112	-0,168
-733,239	175,211	-0,142	0,149
-732,225	800,000	-0,044	-0,120
-731,210	168,486	0,180	0,186
-730,196	46,288	-0,152	-0,102
-729,181	-89,080	-0,101	0,021
-728,167	-3,728	-0,045	0,022
-727,152	0,233	0,020	-0,010
-726,137	-140,701	-0,106	-0,008
-725,123	24,504	-0,065	0,039
-724,108	-200,000	-0,004	-0,062
-723,094	278,316	-0,022	0,029
-722,079	-200,000	-0,033	-0,134
-721,064	-127,820	0,149	-0,015
-720,050	146,180	-0,087	0,085
-719,035	70,481	-0,131	0,098
-718,021	-200,000	0,003	-0,165
-717,006	-48,083	-0,094	0,033
-715,991	-89,107	-0,222	-0,047
-714,977	-74,758	-0,114	-0,030
-713,962	296,361	-0,108	-0,144
-712,948	240,496	-0,041	0,050
-711,933	-200,000	-0,008	0,074
-710,918	-200,000	0,009	0,037
-709,904	-56,722	0,027	-0,009
-708,889	-200,000	-0,006	-0,128
-707,875	125,423	-0,042	-0,038
-706,860	-18,876	-0,046	-0,021
-705,845	-200,000	-0,026	0,104
-704,831	-200,000	0,037	0,292
-703,816	262,738	0,047	-0,059
-702,802	-200,000	0,106	0,000
-701,787	-200,000	-0,017	0,195
-700,772	53,610	-0,016	-0,011
-699,758	192,261	-0,053	-0,058
-698,743	739,334	-0,078	0,153
-697,729	800,000	0,051	0,135
-696,714	719,937	-0,013	0,025
-695,699	-54,005	-0,146	-0,048
-694,685	-200,000	-0,029	0,118
-693,670	188,851	-0,202	-0,219
-692,656	174,620	0,046	-0,048
-691,641	130,300	0,040	0,037
-690,627	-200,000	0,017	0,106
-689,612	-200,000	-0,005	0,077
-688,597	-35,763	0,091	-0,035
-687,583	-109,776	-0,093	-0,014
-686,568	8,510	0,034	0,018
-685,554	52,434	-0,071	0,049
-684,539	-100,832	-0,005	-0,001
-683,524	235,332	0,122	0,146
-682,510	-109,988	-0,144	0,022
-681,495	-28,137	-0,122	-0,051
-680,481	745,368	-0,071	-0,140
-679,466	-11,402	-0,064	-0,031
-678,451	463,469	0,080	-0,130
-677,437	-70,999	-0,099	0,027
-676,422	251,757	0,069	0,086
-675,408	-200,000	0,042	0,207
-674,393	-139,256	-0,218	-0,017
-673,378	-200,000	0,005	-0,061
-672,364	-12,407	-0,182	-0,086
-671,349	-44,747	-0,067	0,024
-670,335	163,411	-0,066	0,067
-669,320	177,720	-0,057	0,060
-668,305	-162,532	0,055	-0,002
-667,291	60,855	0,020	-0,014
-666,276	800,000	-0,073	-0,179
-665,262	-184,622	0,074	-0,001
-664,247	800,000	-0,026	-0,055
-663,232	-200,000	0,007	0,084
-662,218	-190,418	-0,268	-0,002
-661,203	-200,000	-0,003	-0,029
-660,189	55,557	-0,059	0,041
-659,174	-124,883	-0,034	0,004
-658,159	674,766	0,013	-0,024
-657,145	423,511	-0,021	-0,033
-656,130	75,501	-0,087	0,067
-655,116	320,808	0,048	0,067
-654,101	106,883	0,053	0,045
-653,086	-8,146	0,036	0,018
-652,072	87,936	0,047	0,038
-651,057	-124,994	-0,162	-0,018
-650,043	800,000	-0,022	0,058
-649,028	800,000	0,037	-0,093
-648,014	94,823	-0,075	-0,061
-646,999	147,053	0,054	-0,053
-645,984	157,855	-0,050	0,050
-644,970	-31,093	-0,031	-0,012
-643,955	-200,000	0,006	0,077
-642,941	-79,318	-0,026	-0,006
-641,926	-3,867	0,040	0,020
-640,911	80,051	0,056	-0,044
-639,897	-139,445	-0,134	-0,010
-638,882	-200,000	0,033	-0,133
-637,868	-110,284	-0,067	-0,010
-636,853	43,899	0,017	0,011
-635,838	144,547	0,082	-0,079
-634,824	420,463	0,043	-0,067
-633,809	-200,000	-0,019	-0,149
-632,795	154,857	0,087	0,087
-631,780	-32,884	0,136	-0,055
-630,765	75,028	0,011	-0,008
-629,751	15,294	-0,090	0,051
-628,736	471,652	-0,046	0,074
-627,722	-9,087	-0,044	0,021
-626,707	126,507	-0,100	-0,091
-625,692	-132,852	0,100	-0,009
-624,678	653,039	-0,018	0,033
-623,663	-200,000	-0,011	0,074
-622,649	194,312	0,035	0,038
-621,634	800,000	-0,031	-0,088
-620,619	800,000	-0,034	-0,072
-619,605	258,632	-0,099	0,123
-618,590	-115,553	0,055	0,007
-617,576	-200,000	-0,003	0,018
-616,561	-14,916	-0,066	-0,030
-615,546	-200,000	0,011	-0,074
-614,532	-42,817	-0,069	0,025
-613,517	141,914	0,036	0,034
-612,503	800,000	-0,049	0,113
-611,488	329,004	0,017	0,023
-610,474	126,170	0,075	-0,069
-609,459	-200,000	-0,008	0,052
-608,444	-200,000	-0,010	-0,227
-607,430	-84,498	-0,072	-0,016
-606,415	109,324	0,069	-0,059
-605,401	-27,450	-0,153	0,064
-604,386	151,265	0,092	-0,090
-603,371	8,828	0,053	0,029
-602,357	800,000	0,045	-0,090
-601,342	-64,651	-0,081	0,024
-600,328	38,054	-0,064	-0,041
-599,313	-61,407	-0,035	-0,011
-598,298	-70,968	0,060	0,016
-597,284	390,034	-0,019	-0,029
-596,269	800,000	0,105	0,222
-595,255	478,483	-0,078	0,128
-594,240	-200,000	-0,001	-0,081
-593,225	-200,000	0,007	-0,023
-592,211	622,200	-0,063	0,114
-591,196	144,070	0,102	-0,098
-590,182	44,815	0,087	0,058
-589,167	40,936	0,097	0,063
-588,152	432,486	-0,052	0,082
-587,138	740,056	0,036	0,070
-586,123	-1,155	-0,098	-0,050
-585,109	509,178	-0,036	0,060
-584,094	468,020	-0,007	-0,012
-583,079	80,290	-0,011	0,009
-582,065	-200,000	0,025	0,000
-581,050	-172,888	0,094	0,002
-580,036	-109,389	-0,102	0,015
-579,021	-79,937	-0,050	-0,012
-578,006	-119,014	-0,056	-0,007
-576,992	-19,305	-0,038	-0,017
-575,977	800,000	-0,021	0,045
-574,963	273,357	0,072	-0,092
-573,948	800,000	-0,050	-0,104
-572,934	-41,590	-0,126	0,046
-571,919	66,082	-0,053	-0,039
-570,904	-200,000	0,001	0,006
-569,890	-85,222	0,046	0,010
-568,875	179,317	0,029	0,030
-567,861	640,433	-0,040	-0,073
-566,846	191,405	-0,050	0,054
-565,831	227,914	-0,092	0,108
-564,817	363,469	0,056	0,081
-563,802	471,361	-0,078	0,126
-562,788	-187,578	0,093	0,001
-561,773	458,992	0,015	0,025
-560,758	104,239	0,094	0,079
-559,744	-200,000	-0,034	0,160
-558,729	233,906	-0,055	0,065
-557,715	-59,279	-0,045	-0,014
-556,700	24,142	-0,067	0,040
-555,685	6,586	-0,074	0,040
-554,671	-79,300	0,107	0,026
-553,656	-128,452	0,123	0,012
-552,642	-200,000	-0,008	0,075
-551,627	311,616	-0,070	0,095
-550,612	43,438	-0,128	-0,084
-549,598	-183,310	-0,103	-0,001
-548,583	-83,749	-0,085	0,019
-547,569	-200,000	-0,007	-0,149
-546,554	-200,000	0,020	0,074
-545,539	800,000	0,033	-0,081
-544,525	76,889	0,068	-0,052
-543,510	71,446	-0,085	-0,063
-542,496	173,843	-0,075	-0,078
-541,481	-200,000	0,030	-0,095
-540,466	134,354	0,093	0,087
-539,452	671,659	0,067	0,126
-538,437	-200,000	-0,028	-0,090
-537,423	6,350	-0,019	0,010
-536,408	800,000	-0,009	0,028
-535,393	4,132	0,035	0,018
-534,379	-200,000	-0,003	-0,126
-533,364	-200,000	0,010	-0,099
-532,350	-6,710	0,081	0,040
-531,335	353,616	-0,087	0,124
-530,321	800,000	0,039	0,106
-529,306	-200,000	0,000	-0,021
-528,291	10,780	-0,040	0,022
-527,277	93,795	-0,027	-0,022
-526,262	-165,182	0,045	-0,001
-525,248	-200,000	0,006	-0,038
-524,233	24,603	-0,061	0,036
-523,218	800,000	0,067	0,144
-522,204	-200,000	0,006	-0,047
-521,189	-200,000	-0,008	-0,200
-520,175	-158,904	0,030	0,001
-519,160	-200,000	0,022	0,117
-518,145	114,946	-0,047	0,042
-517,131	-109,894	0,082	-0,012
-516,116	-200,000	-0,002	0,138
-515,102	117,722	0,064	-0,056
-514,087	-200,000	0,029	-0,148
-513,072	-162,989	-0,048	0,002
-512,058	-150,094	-0,045	0,002
-511,043	-200,000	-0,017	0,066
-510,029	-200,000	-0,030	-0,097
-509,014	620,063	-0,024	0,044
-507,999	19,596	-0,124	-0,071
-506,985	-115,894	-0,051	-0,007
-505,970	21,716	0,052	-0,030
-504,956	143,262	-0,044	0,042
-503,941	-200,000	-0,016	-0,184
-502,926	-18,262	-0,105	0,047
-501,912	40,691	0,028	0,018
-500,897	-200,000	-0,017	0,088
-499,883	115,162	0,061	0,053
-498,868	694,139	-0,048	-0,090
-497,853	800,000	0,031	-0,074
-496,839	311,204	0,050	0,067
-495,824	204,613	0,024	0,027
-494,810	-52,555	0,101	-0,033
-493,795	-200,000	0,027	-0,141
-492,781	-200,000	-0,010	0,063
-491,766	35,742	0,104	-0,066
-490,751	-124,550	-0,095	0,010
-489,737	173,077	0,017	-0,018
-488,722	586,799	0,063	-0,112
-487,708	-200,000	0,022	0,102
-486,693	15,996	0,125	0,071
-485,678	-50,718	-0,124	-0,042
-484,664	-200,000	0,020	0,098
-483,649	-200,000	-0,008	-0,034
-482,635	-137,882	0,080	-0,006
-481,620	9,062	0,122	0,066
-480,605	-184,850	-0,099	0,001
-479,591	81,665	-0,073	0,057
-478,576	-200,000	0,020	-0,070
-477,562	-149,158	-0,189	0,011
-476,547	286,833	-0,083	-0,108
-475,532	800,000	-0,072	-0,188
-474,518	84,862	-0,073	-0,057
-473,503	800,000	0,106	0,217
-472,489	108,960	0,094	0,081
-471,474	800,000	-0,032	-0,071
-470,459	61,915	-0,088	-0,063
-469,445	337,720	0,045	-0,063
-468,430	261,510	-0,060	-0,075
-467,416	-35,585	0,083	-0,032
-466,401	-200,000	0,025	0,154
-465,386	-200,000	-0,004	0,056
-464,372	-185,406	0,113	0,001
-463,357	546,851	-0,022	-0,038
-462,343	425,214	-0,055	-0,085
-461,328	280,089	-0,061	-0,079
-460,313	57,006	-0,102	0,071
-459,299	24,858	0,110	0,065
-458,284	-200,000	0,011	0,149
-457,270	800,000	0,027	0,060
-456,255	-200,000	0,001	0,016
-455,241	-200,000	0,009	0,032
-454,226	-200,000	-0,013	0,090
-453,211	65,557	-0,070	0,051
-452,197	-107,114	0,133	0,021
-451,182	-94,725	0,078	0,015
-450,168	-41,484	0,150	0,055
-449,153	-56,778	-0,048	0,015
-448,138	357,506	-0,027	-0,039
-447,124	164,641	0,059	0,060
-446,109	246,794	0,068	-0,082
-445,095	-147,802	0,007	0,000
-444,080	-105,633	-0,100	0,016
-443,065	111,081	-0,109	-0,094
-442,051	297,289	0,073	0,096
-441,036	7,866	-0,081	0,044
-440,022	47,225	-0,092	-0,061
-439,007	-29,449	-0,050	-0,020
-437,992	-9,635	0,102	0,048
-436,978	-118,516	0,139	-0,017
-435,963	800,000	-0,014	0,035
-434,949	-104,365	0,107	-0,018
-433,934	311,467	-0,056	-0,075
-432,919	-165,643	-0,074	0,002
-431,905	-200,000	-0,002	-0,088
-430,890	500,705	0,026	0,043
-429,876	337,436	-0,067	0,093
-428,861	131,210	-0,057	-0,053
-427,846	-69,317	0,056	-0,015
-426,832	689,684	-0,034	0,065
-425,817	-115,687	-0,130	0,017
-424,803	81,740	0,041	-0,032
-423,788	800,000	0,045	0,103
-422,773	109,045	0,104	0,089
-421,759	63,178	-0,072	-0,051
-420,744	-131,880	0,044	-0,004
-419,730	800,000	0,031	-0,076
-418,715	800,000	0,039	-0,120
-417,701	80,366	0,090	-0,070
-416,686	56,105	0,125	-0,087
-415,671	-23,623	0,052	-0,022
-414,657	58,343	0,059	-0,042
-413,642	465,152	-0,040	0,065
-412,628	800,000	-0,015	-0,039
-411,613	-200,000	0,035	-0,313
-410,598	59,544	-0,086	-0,060
-409,584	18,138	0,062	0,035
-408,569	9,562	0,070	-0,038
-407,555	-12,726	0,100	0,047
-406,540	41,170	-0,075	-0,048
-405,525	800,000	-0,022	-0,060
-404,511	-200,000	0,009	0,055
-403,496	505,110	0,057	-0,094
-402,482	-43,725	0,041	-0,015
-401,467	589,314	0,034	0,061
-400,452	800,000	-0,012	-0,027
-399,438	334,530	0,088	0,122
-398,423	196,986	-0,145	-0,158
-397,409	187,485	-0,060	0,064
-396,394	-146,694	0,065	-0,004
-395,379	-130,382	0,099	0,010
-394,365	163,800	-0,014	-0,014
-393,350	800,000	0,047	0,123
-392,336	-48,349	-0,067	0,023
-391,321	40,466	-0,088	0,056
-390,306	800,000	-0,027	-0,059
-389,292	57,411	0,086	-0,060
-388,277	-200,000	0,036	0,160
-387,263	-57,328	-0,098	0,031
-386,248	-200,000	-0,000	0,075
-385,233	494,393	0,063	0,105
-384,219	-86,957	0,023	-0,005
-383,204	784,047	-0,032	-0,062
-382,190	-200,000	0,024	0,083
-381,175	-137,866	0,037	-0,003
-380,160	-200,000	-0,001	-0,037
-379,146	7,501	0,075	-0,040
-378,131	-200,000	0,002	0,106
-377,117	-200,000	-0,011	0,043
-376,102	77,298	-0,170	-0,129
-375,088	80,564	-0,084	0,065
-374,073	-200,000	0,015	-0,090
-373,058	665,851	0,052	0,096
-372,044	43,476	0,067	-0,044
-371,029	-88,788	0,043	0,009
-370,015	175,238	-0,093	0,097
-369,000	-86,157	-0,143	0,031
-367,985	-45,248	-0,118	-0,042
-366,971	-2,820	-0,095	0,047
-365,956	187,516	-0,063	0,068
-364,942	-200,000	0,025	0,120
-363,927	490,703	-0,023	-0,038
-362,912	-200,000	0,022	0,148
-361,898	-200,000	-0,042	0,136
-360,883	-192,175	0,110	-0,001
-359,869	74,704	0,049	0,037
-358,854	-200,000	-0,014	-0,168
-357,839	-33,076	-0,090	0,036
-356,825	47,975	-0,043	0,028
-355,810	-122,674	0,158	0,018
-354,796	28,360	-0,016	0,009
-353,781	-13,972	-0,116	-0,053
-352,766	-92,863	0,127	0,025
-351,752	-110,947	-0,094	0,014
-350,737	67,347	0,099	0,072
-349,723	119,462	-0,058	0,051
-348,708	11,197	-0,076	0,041
-347,693	-200,000	-0,039	-0,152
-346,679	478,085	-0,073	-0,119
-345,664	207,893	-0,082	-0,091
-344,650	-200,000	0,011	-0,036
-343,635	-125,955	0,087	0,009
-342,620	-200,000	-0,018	0,154
-341,606	99,787	0,054	-0,044
-340,591	-56,191	-0,073	0,023
-339,577	413,020	-0,037	-0,057
-338,562	-200,000	0,043	-0,161
-337,548	-200,000	0,014	0,058
-336,533	694,677	-0,049	-0,091
-335,518	800,000	0,040	0,092
-334,504	166,856	0,100	0,102
-333,489	800,000	0,011	-0,032
-332,475	266,487	-0,040	-0,050
-331,460	22,086	-0,101	0,059
-330,445	-22,082	0,156	-0,067
-329,431	800,000	0,032	-0,096
-328,416	156,672	-0,123	-0,122
-327,402	-148,611	0,092	0,005
-326,387	-77,358	-0,170	-0,042
-325,372	-8,517	-0,034	0,016
-324,358	-95,495	-0,149	0,028
-323,343	-50,611	-0,064	-0,021
-322,329	-103,505	0,144	0,024
-321,314	800,000	-0,033	-0,085
-320,299	462,929	0,077	0,123
-319,285	-0,616	0,021	-0,011
-318,270	742,982	0,061	-0,118
-317,256	-200,000	-0,016	0,060
-316,241	251,217	-0,076	-0,093
-315,226	-200,000	0,000	0,072
-314,212	249,494	0,184	0,223
-313,197	-200,000	-0,011	0,107
-312,183	-200,000	-0,005	0,032
-311,168	257,705	0,006	0,007
-310,153	213,039	-0,147	0,166
-309,139	800,000	0,034	0,081
-308,124	-78,377	0,087	0,021
-307,110	26,901	-0,043	0,026
-306,095	-97,383	0,067	-0,012
-305,080	-200,000	-0,001	-0,061
-304,066	27,084	0,051	0,031
-303,051	187,712	-0,092	0,098
-302,037	-200,000	-0,023	-0,149
-301,022	72,277	0,032	0,024
-300,008	70,905	0,085	0,063
-298,993	233,948	-0,039	-0,046
-297,978	212,305	-0,017	-0,019
-296,964	-200,000	0,001	0,075
-295,949	-116,619	0,070	0,009
-294,935	-200,000	-0,012	-0,148
-293,920	27,490	-0,045	-0,027
-292,905	3,161	0,063	-0,033
-291,891	-93,290	0,048	-0,009
-290,876	147,778	-0,104	0,100
-289,862	-200,000	0,009	-0,082
-288,847	-200,000	0,035	-0,183
-287,832	90,188	-0,125	-0,099
-286,818	142,535	0,098	-0,093
-285,803	49,566	-0,061	-0,041
-284,789	-200,000	-0,002	0,008
-283,774	258,997	0,011	0,013
-282,759	800,000	0,023	0,066
-281,745	288,679	-0,108	0,139
-280,730	-200,000	0,018	0,094
-279,716	398,278	0,058	0,086
-278,701	800,000	0,025	-0,058
-277,686	-200,000	-0,009	0,092
-276,672	-26,410	0,132	0,055
-275,657	717,248	0,024	-0,045
-274,643	-61,171	0,053	0,016
-273,628	-200,000	-0,016	0,070
-272,613	335,942	0,088	-0,122
-271,599	800,000	0,040	-0,096
-270,584	262,376	0,080	-0,099
-269,570	800,000	-0,078	-0,173
-268,555	-46,290	0,108	0,038
-267,540	800,000	0,019	-0,049
-266,526	-200,000	0,001	-0,109
-265,511	203,813	-0,045	-0,049
-264,497	39,795	-0,049	0,031
-263,482	-200,000	-0,008	-0,025
-262,467	284,474	0,089	0,114
-261,453	37,192	-0,120	-0,076
-260,438	154,309	0,045	-0,044
-259,424	-200,000	-0,034	0,124
-258,409	16,668	0,106	-0,059
-257,395	135,592	0,065	0,060
-256,380	-200,000	-0,015	0,166
-255,365	-200,000	-0,005	0,156
-254,351	201,490	0,005	0,006
-253,336	130,779	-0,077	-0,071
-252,322	100,199	-0,103	0,085
-251,307	96,228	-0,027	-0,022
-250,292	-30,112	-0,060	0,024
-249,278	408,950	0,096	0,144
-248,263	278,390	-0,021	0,027
-247,249	-167,858	0,050	-0,001
-246,234	-200,000	0,011	0,114
-245,219	-200,000	0,009	-0,102
-244,205	-200,000	0,022	-0,085
-243,190	-200,000	0,008	-0,162
-242,176	-200,000	0,029	0,118
-241,161	-0,072	0,154	0,078
-240,146	143,799	-0,017	0,016
-239,132	16,008	-0,107	0,060
-238,117	255,355	0,059	-0,073
-237,103	12,674	-0,123	0,067
-236,088	315,110	-0,004	-0,006
-235,073	756,621	-0,040	0,077
-234,059	366,724	-0,059	-0,085
-233,044	79,145	0,022	-0,017
-232,030	-200,000	0,009	-0,106
-231,015	-200,000	0,002	0,007
-230,000	800,000	0,007	-0,021
-228,986	102,450	0,041	-0,034
-227,971	33,468	0,102	-0,063
-226,957	-200,000	0,041	0,202
-225,942	-200,000	0,009	0,122
-224,927	76,924	-0,182	-0,138
-223,913	-51,324	0,100	0,033
-222,898	-91,617	0,076	-0,015
-221,884	-180,048	-0,154	0,002
-220,869	131,419	0,070	-0,064
-219,855	308,217	0,106	0,140
-218,840	155,380	-0,190	0,186
-217,825	787,136	0,028	0,054
-216,811	78,161	-0,054	-0,041
-215,796	16,656	-0,112	-0,063
-214,782	-159,809	-0,026	0,001
-213,767	606,759	-0,090	-0,160
-212,752	223,650	-0,085	0,098
-211,738	-200,000	-0,008	0,106
-210,723	-179,171	0,106	0,002
-209,709	60,280	0,045	-0,032
-208,694	-89,883	-0,099	-0,020
-207,679	614,733	-0,068	-0,122
-206,665	301,784	0,020	0,026
-205,650	-64,106	0,085	0,025
-204,636	238,782	0,045	0,054
-203,621	-60,857	0,053	0,016
-202,606	144,531	0,099	-0,094
-201,592	178,608	0,030	0,031
-200,577	-48,382	0,077	-0,026
-199,563	14,182	0,025	0,014
-198,548	621,804	0,093	0,166
-197,533	87,655	0,037	-0,029
-196,519	319,398	-0,067	-0,091
-195,504	285,019	-0,100	-0,128
-194,490	2,986	0,012	-0,006
-193,475	14,150	-0,105	0,058
-192,460	85,834	0,111	-0,087
-191,446	-200,000	0,004	0,024
-190,431	698,556	-0,028	-0,053
-189,417	-200,000	0,012	0,057
-188,402	79,070	-0,100	-0,076
-187,387	800,000	0,089	-0,240
-186,373	274,265	-0,080	-0,101
-185,358	253,652	-0,064	-0,078
-184,344	-173,042	0,137	0,003
-183,329	-92,410	0,024	-0,005
-182,315	252,449	0,008	0,010
-181,300	-7,429	0,051	0,025
-180,285	-77,841	0,069	-0,017
-179,271	-176,875	-0,080	0,001
-178,256	-200,000	-0,018	-0,150
-177,242	-51,761	0,126	-0,041
-176,227	747,692	-0,037	-0,071
-175,212	800,000	-0,017	-0,048
-174,198	-67,079	0,050	-0,014
-173,183	-159,455	-0,197	0,008
-172,169	-58,934	-0,153	-0,047
-171,154	381,927	-0,020	-0,029
-170,139	377,023	0,060	0,087
-169,125	-200,000	-0,002	0,087
-168,110	38,366	0,102	0,064
-167,096	-138,999	-0,070	-0,005
-166,081	-126,512	0,019	-0,002
-165,066	-66,532	0,089	0,025
-164,052	-200,000	0,005	-0,024
-163,037	-25,750	-0,085	0,035
-162,023	393,906	0,075	-0,111
-161,008	370,026	0,143	0,206
-159,993	-200,000	0,011	0,033
-158,979	60,358	0,059	0,041
-157,964	176,125	-0,077	-0,079
-156,950	381,491	0,033	-0,049
-155,935	-200,000	-0,031	-0,165
-154,920	-96,103	0,164	0,031
-153,906	107,608	-0,020	-0,017
-152,891	-35,666	-0,053	-0,020
-151,877	-59,635	-0,056	-0,017
-150,862	181,722	-0,073	-0,076
-149,847	-173,099	-0,227	-0,005
-148,833	-43,335	0,108	-0,038
-147,818	175,098	-0,110	0,114
-146,804	72,686	-0,061	0,045
-145,789	800,000	0,033	0,097
-144,775	800,000	-0,063	0,139
-143,760	337,025	-0,058	-0,079
-142,745	800,000	0,015	-0,047
-141,731	203,556	0,014	0,016
-140,716	-30,493	0,095	0,038
-139,702	-41,126	-0,126	-0,046
-138,687	-58,884	0,074	0,022
-137,672	223,663	0,021	0,024
-136,658	-200,000	-0,031	0,098
-135,643	800,000	0,067	-0,164
-134,629	-4,889	-0,072	0,035
-133,614	-93,064	-0,122	0,024
-132,599	189,299	0,079	0,084
-131,585	-200,000	0,007	0,071
-130,570	-200,000	-0,019	0,129
-129,556	360,820	0,030	-0,042
-128,541	-200,000	-0,031	-0,146
-127,526	232,438	-0,024	0,029
-126,512	-26,935	0,077	0,032
-125,497	310,103	0,100	0,133
-124,483	800,000	0,015	-0,045
-123,468	-200,000	-0,008	-0,102
-122,453	800,000	0,019	-0,050
-121,439	-200,000	-0,023	-0,113
-120,424	800,000	-0,018	-0,041
-119,410	-94,242	0,070	0,014
-118,395	-28,174	0,065	-0,027
-117,380	-200,000	-0,004	0,079
-116,366	-156,300	0,144	-0,006
-115,351	-132,649	-0,160	-0,014
-114,337	271,666	0,029	0,037
-113,322	104,062	-0,088	-0,073
-112,307	-71,799	-0,183	-0,048
-111,293	80,679	0,119	0,091
-110,278	-200,000	0,006	0,068
-109,264	-40,966	0,058	0,021
-108,249	-200,000	0,001	0,004
-107,234	498,626	-0,020	-0,032
-106,220	-63,515	-0,127	-0,037
-105,205	-200,000	-0,005	-0,036
-104,191	531,879	0,044	0,075
-103,176	-200,000	-0,010	-0,050
-102,162	-45,326	0,040	-0,014
-101,147	381,350	0,045	-0,065
-100,132	-110,192	-0,109	0,016
-99,118	-141,760	0,093	0,007
-98,103	240,238	0,078	0,092
-97,089	477,021	0,026	0,042
-96,074	153,976	0,026	-0,026
-95,059	679,681	-0,052	-0,097
-94,045	-200,000	0,002	0,029
-93,030	-200,000	-0,006	0,055
-92,016	-118,625	-0,060	0,007
-91,001	175,293	0,039	-0,040
-89,986	-200,000	0,031	0,103
-88,972	800,000	-0,029	0,065
-87,957	800,000	0,056	-0,111
-86,943	50,775	-0,048	-0,032
-85,928	18,092	-0,072	0,040
-84,913	67,268	0,069	-0,050
-83,899	586,951	-0,037	-0,065
-82,884	-58,124	-0,126	-0,039
-81,870	-200,000	-0,009	0,034
-80,855	-200,000	-0,019	0,071
-79,840	800,000	-0,017	0,034
-78,826	-105,330	-0,153	0,024
-77,811	11,466	-0,048	0,026
-76,797	800,000	0,016	-0,041
-75,782	10,113	0,133	0,071
-74,767	154,534	0,129	0,125
-73,753	329,159	-0,110	0,150
-72,738	139,473	0,067	0,063
-71,724	-200,000	-0,011	-0,035
-70,709	-16,960	-0,098	-0,043
-69,694	-200,000	-0,014	-0,071
-68,680	57,584	0,091	0,062
-67,665	-120,672	-0,033	0,004
-66,651	-131,451	0,076	-0,007
-65,636	179,324	0,073	-0,076
-64,622	-30,971	0,063	0,025
-63,607	601,596	-0,032	0,057
-62,592	164,772	0,051	0,051
-61,578	29,841	0,098	0,059
-60,563	-200,000	0,004	0,052
-59,549	224,445	0,180	0,206
-58,534	7,898	-1,920	-1,014
-57,519	529,160	-1,258	-2,106
-56,505	-200,000	-0,366	-4,586
-55,490	442,128	0,867	1,346
-54,476	800,000	5,183	11,423
-53,461	-200,000	20,605	329,994
-52,446	800,000	753,973	2320,672
-51,432	552,319	1660,888	2829,103
-50,417	74,162	1666,457	1234,549
-49,403	19,210	1540,004	870,748
-48,388	13,171	1462,668	797,733
-47,373	19,026	1453,113	820,667
-46,359	16,215	1442,569	801,272
-45,344	11,504	1438,446	776,460
-44,330	11,474	1436,359	775,159
-43,315	11,418	1434,831	774,037
-42,300	11,410	1432,880	772,915
-41,286	11,471	1431,512	772,437
-40,271	11,415	1430,241	771,453
-39,257	11,431	1429,045	770,855
-38,242	11,433	1427,979	770,261
-37,227	11,452	1426,741	769,654
-36,213	11,454	1425,551	768,987
-35,198	11,501	1424,342	768,528
-34,184	11,492	1423,572	768,040
-33,169	11,429	1422,088	766,909
-32,154	11,496	1420,979	766,601
-31,140	11,512	1419,812	766,015
-30,125	11,606	1418,577	765,763
-29,111	11,525	1417,661	764,854
-28,096	11,445	1416,636	763,893
-27,082	11,409	1415,370	763,013
-26,067	11,401	1414,430	762,437
-25,052	11,425	1413,191	761,854
-24,038	11,424	1412,160	761,260
-23,023	11,372	1411,315	760,529
-22,009	11,418	1410,029	760,024
-20,994	11,395	1409,260	759,470
-19,979	11,412	1408,227	758,963
-18,965	11,406	1407,205	758,357
-17,950	11,399	1406,617	757,974
-16,936	11,392	1405,686	757,409
-15,921	11,324	1404,551	756,451
-14,906	11,322	1403,652	755,928
-13,892	11,334	1402,709	755,448
-12,877	11,316	1402,012	754,958
-11,863	11,340	1400,902	754,442
-10,848	11,266	1400,304	753,745
-9,833	11,253	1399,196	753,060
-8,819	11,256	1398,341	752,583
-7,804	11,222	1397,496	751,939
-6,790	11,293	1396,384	751,640
-5,775	11,273	1395,366	750,973
-4,760	11,194	1394,597	750,160
-3,746	11,259	1393,495	749,839
-2,731	11,226	1392,830	749,299
-1,717	11,208	1391,913	748,692
-0,702	11,241	1390,028	747,803
0,313	15,168	1304,272	719,732
1,327	31,432	695,480	420,919
2,342	48,281	121,030	79,814
3,356	0,764	16,642	8,382
4,371	0,833	3,394	1,710
5,386	16,549	0,828	0,460
6,400	-200,000	0,014	0,579
7,415	-98,840	-0,210	-0,037
8,429	77,660	-0,228	-0,171
9,444	-21,021	-0,370	-0,159
10,459	-9,160	-0,313	-0,147
11,473	182,835	-0,180	-0,187
12,488	79,388	-0,317	-0,239
13,502	-83,336	-0,243	-0,055
14,517	-13,642	-0,327	-0,149
15,531	248,888	-0,274	-0,328
16,546	301,213	-0,253	-0,330
17,561	5,610	-0,476	-0,247
18,575	318,283	-0,182	-0,243
19,590	1,766	-0,276	-0,140
20,604	-47,320	-0,265	0,090
21,619	111,546	-0,373	-0,317
22,634	48,445	-0,372	-0,245
23,648	198,587	-0,344	-0,371
24,663	107,043	-0,403	-0,337
25,677	9,189	-0,293	-0,156
26,692	82,456	-0,411	-0,314
27,707	-21,774	-0,375	-0,160
28,721	50,047	-0,315	-0,209
29,736	37,508	-0,365	-0,228
30,750	-12,584	-0,439	-0,201
31,765	-20,388	-0,438	-0,189
32,780	1,114	-0,371	-0,187
33,794	11,548	-0,238	-0,128
34,809	80,325	-0,334	-0,253
35,823	93,975	-0,352	-0,281
36,838	170,299	-0,176	-0,177
37,853	193,592	-0,330	-0,352
38,867	238,820	-0,362	-0,424
39,882	130,932	-0,275	-0,248
40,896	-20,010	-0,405	-0,175
41,911	45,931	-0,329	-0,213
42,926	-48,758	-0,434	-0,146
43,940	72,409	-0,463	-0,339
44,955	158,232	-0,327	-0,319
45,969	224,748	-0,241	-0,274
46,984	208,124	-0,251	-0,276
47,999	119,827	-0,307	-0,268
49,013	-32,850	-0,268	-0,104
50,028	262,789	-0,283	-0,346
51,042	185,063	-0,372	-0,388
52,057	90,502	-0,301	-0,237
53,071	19,094	-0,368	-0,207
54,086	47,182	-0,307	-0,201
55,101	106,900	-0,228	-0,191
56,115	116,106	-0,314	-0,270
57,130	-43,165	-0,369	-0,131
58,144	41,997	-0,373	-0,237
59,159	86,451	-0,390	-0,302
60,174	38,583	-0,347	-0,217
61,188	2,718	-0,413	-0,210
62,203	-0,571	-0,407	-0,202
63,217	-79,926	-0,279	-0,065
64,232	103,032	-0,312	-0,257
65,247	39,703	-0,314	-0,198
66,261	90,892	-0,281	-0,221
67,276	-59,330	-0,572	-0,172
68,290	-20,925	-0,334	-0,143
69,305	103,231	-0,313	-0,257
70,320	127,795	-0,261	-0,233
71,334	-115,408	-0,281	0,037
72,349	133,159	-0,287	-0,260
73,363	32,700	-0,413	-0,250
74,378	185,830	-0,258	-0,269
75,393	37,482	-0,385	-0,239
76,407	122,009	-0,242	-0,212
77,422	181,194	-0,230	-0,237
78,436	39,320	-0,324	-0,203
79,451	-180,367	-0,347	-0,005
80,466	206,330	-0,302	-0,331
81,480	-19,061	-0,289	-0,126
82,495	-66,925	-0,379	-0,104
83,509	15,470	-0,215	-0,118
84,524	37,116	-0,295	-0,183
85,539	-136,343	-0,241	-0,019
86,553	-26,291	-0,343	-0,141
87,568	9,873	-0,140	-0,074
88,582	41,879	-0,319	-0,202
89,597	14,199	-0,375	-0,204
90,611	-83,363	-0,347	-0,077
91,626	-61,172	-0,278	-0,081
92,641	158,707	-0,204	-0,198
93,655	-14,318	-0,204	-0,092
94,670	158,653	-0,282	-0,274
95,684	192,883	-0,190	-0,201
96,699	99,587	-0,285	-0,231
97,714	191,945	-0,244	-0,258
98,728	45,087	-0,293	-0,189
99,743	244,512	-0,180	-0,212
100,757	-134,210	-0,234	-0,020
101,772	69,063	-0,299	-0,215
102,787	-63,348	-0,247	-0,071
103,801	137,436	-0,235	-0,215
104,816	-69,173	-0,368	-0,098
105,830	-88,137	-0,331	-0,069
106,845	42,133	-0,272	-0,172
107,860	125,370	-0,226	-0,199
108,874	56,376	-0,211	-0,143
109,889	115,923	-0,253	-0,217
110,903	172,898	-0,286	-0,289
111,918	1,584	-0,300	-0,150
112,933	37,277	-0,281	-0,174
113,947	-77,435	-0,307	-0,074
114,962	-185,700	-0,285	-0,003
115,976	-27,098	-0,265	-0,107
116,991	5,242	-0,263	-0,135
118,006	12,535	-0,279	-0,150
119,020	152,741	-0,142	-0,136
120,035	35,969	-0,152	-0,093
121,049	-98,964	-0,226	-0,040
122,064	-139,126	-0,292	0,022
123,079	-29,039	-0,339	-0,135
124,093	173,999	-0,141	-0,143
125,108	130,504	-0,272	-0,243
126,122	15,288	-0,318	-0,174
127,137	-23,796	-0,332	-0,138
128,151	142,996	-0,178	-0,166
129,166	99,101	-0,206	-0,166
130,181	94,185	-0,242	-0,191
131,195	365,317	-0,188	-0,265
132,210	130,753	-0,370	-0,331
133,224	2,398	-0,262	-0,132
134,239	-23,332	-0,248	-0,104
135,254	65,221	-0,228	-0,161
136,268	178,860	-0,236	-0,241
137,283	8,287	-0,276	-0,144
138,297	115,866	-0,157	-0,134
139,312	100,503	-0,287	-0,232
140,327	-92,814	-0,321	0,062
141,341	-120,216	-0,157	-0,018
142,356	225,572	-0,138	-0,156
143,370	-134,386	-0,186	-0,016
144,385	-142,969	-0,368	-0,024
145,400	371,833	-0,160	-0,227
146,414	76,735	-0,182	-0,135
147,429	13,962	-0,205	-0,111
148,443	294,781	-0,192	-0,245
149,458	43,440	-0,230	-0,146
150,473	-163,919	-0,245	0,008
151,487	22,696	-0,248	-0,141
152,502	-21,640	-0,279	-0,118
153,516	-37,165	-0,349	-0,129
154,531	259,305	-0,300	-0,361
155,546	-69,943	-0,180	-0,047
156,560	-152,282	-0,205	-0,010
157,575	194,754	-0,104	-0,109
158,589	-37,246	-0,251	-0,093
159,604	12,718	-0,323	-0,173
160,619	260,599	-0,253	-0,306
161,633	-89,429	-0,374	-0,076
162,648	91,621	-0,248	-0,194
163,662	-77,705	-0,324	-0,077
164,677	11,428	-0,251	-0,133
165,692	625,631	-0,107	-0,189
166,706	29,873	-0,316	-0,187
167,721	-29,810	-0,293	-0,116
168,735	82,291	-0,343	-0,258
169,750	-16,029	-0,200	-0,088
170,764	166,886	-0,191	-0,189
171,779	-107,886	-0,144	-0,022
172,794	-89,928	-0,274	0,055
173,808	48,856	-0,274	-0,178
174,823	81,180	-0,278	-0,209
175,837	200,174	-0,254	-0,272
176,852	83,583	-0,223	-0,169
177,867	144,557	-0,222	-0,206
178,881	-29,047	-0,243	-0,097
179,896	39,680	-0,202	-0,126
180,910	57,249	-0,227	-0,154
181,925	305,514	-0,267	-0,345
182,940	184,459	-0,248	-0,255
183,954	68,444	-0,275	-0,195
184,969	-7,564	-0,168	-0,079
185,983	248,375	-0,124	-0,146
186,998	9,228	-0,268	-0,140
188,013	-87,096	-0,175	-0,037
189,027	73,376	-0,187	-0,136
190,042	114,657	-0,253	-0,214
191,056	342,036	-0,117	-0,160
192,071	-200,000	-0,022	-0,100
193,086	-85,777	-0,144	0,031
194,100	757,407	-0,098	-0,184
195,115	-54,243	-0,193	-0,060
196,129	-67,817	-0,268	-0,072
197,144	-97,089	-0,266	-0,048
198,159	159,632	-0,200	-0,193
199,173	-15,542	-0,296	-0,131
200,188	115,688	-0,070	-0,060
201,202	274,779	-0,112	-0,137
202,217	155,985	-0,175	-0,167
203,232	128,388	-0,254	-0,224
204,246	-109,695	-0,230	-0,033
205,261	201,496	-0,147	-0,157
206,275	-74,986	-0,218	-0,054
207,290	800,000	-0,064	-0,138
208,304	-59,804	-0,244	0,072
209,319	7,540	-0,131	-0,068
210,334	800,000	-0,114	-0,232
211,348	-14,239	-0,246	-0,109
212,363	-43,966	-0,251	-0,087
213,377	190,209	-0,181	-0,189
214,392	-59,908	-0,239	-0,070
215,407	-42,640	-0,215	-0,075
216,421	-166,452	-0,129	-0,004
217,436	457,735	-0,138	-0,213
218,450	-7,474	-0,285	-0,133
219,465	82,739	-0,277	-0,208
220,480	800,000	-0,052	-0,125
221,494	-122,721	-0,266	-0,029
222,509	21,775	-0,154	-0,087
223,523	5,536	-0,201	-0,103
224,538	-1,744	-0,283	-0,137
225,553	300,467	-0,096	-0,123
226,567	163,999	-0,159	-0,155
227,582	-15,187	-0,199	-0,088
228,596	-30,724	-0,148	-0,058
229,611	158,959	-0,188	-0,181
230,626	667,541	-0,083	-0,148
231,640	306,392	-0,158	-0,204
232,655	-120,909	-0,184	-0,021
233,669	282,218	-0,157	-0,195
234,684	222,697	-0,172	-0,192
235,699	-200,000	-0,061	-0,199
236,713	159,648	-0,113	-0,109
237,728	134,535	-0,216	-0,193
238,742	548,848	-0,125	-0,207
239,757	405,905	-0,158	-0,231
240,772	75,057	-0,144	-0,105
241,786	84,552	-0,269	-0,203
242,801	51,237	-0,179	-0,117
243,815	40,744	-0,248	-0,154
244,830	103,207	-0,165	-0,133
245,844	-57,103	-0,102	-0,031
246,859	85,330	-0,221	-0,167
247,874	52,908	-0,181	-0,120
248,888	277,494	-0,101	-0,124
249,903	122,373	-0,259	-0,224
250,917	-56,294	-0,141	-0,043
251,932	800,000	-0,053	-0,151
252,947	-10,272	-0,129	-0,059
253,961	-25,150	-0,295	-0,120
254,976	-141,543	-0,160	-0,011
255,990	392,744	-0,116	-0,167
257,005	34,678	-0,114	-0,069
258,020	-21,136	-0,064	-0,027
259,034	621,573	-0,082	-0,144
260,049	61,048	-0,216	-0,148
261,063	130,538	-0,174	-0,154
262,078	74,103	-0,174	-0,126
263,093	26,758	-0,209	-0,121
264,107	572,124	-0,178	-0,300
265,122	609,816	-0,069	-0,120
266,136	-42,663	-0,137	-0,048
267,151	-86,606	-0,130	-0,027
268,166	-77,398	-0,194	-0,046
269,180	-123,988	-0,155	0,017
270,195	254,292	-0,121	-0,142
271,209	-189,886	-0,143	0,001
272,224	-86,561	-0,246	-0,052
273,239	80,421	-0,156	-0,115
274,253	-158,143	-0,255	-0,010
275,268	-63,091	-0,132	0,037
276,282	431,386	-0,110	-0,165
277,297	-127,427	-0,168	-0,017
278,312	65,693	-0,174	-0,121
279,326	800,000	0,025	-0,070
280,341	25,200	-0,252	-0,144
281,355	-200,000	-0,170	0,001
282,370	-36,841	-0,227	-0,084
283,384	178,140	-0,191	-0,192
284,399	126,055	-0,161	-0,140
285,414	-35,682	-0,219	-0,082
286,428	-106,434	-0,130	-0,020
287,443	-48,718	-0,140	-0,046
288,457	-178,091	-0,103	0,002
289,472	-57,876	-0,230	0,069
290,487	75,387	-0,310	-0,225
291,501	11,285	-0,073	-0,039
292,516	-200,000	0,006	-0,245
293,530	9,654	-0,204	-0,106
294,545	-200,000	-0,007	-0,024
295,560	-62,666	-0,082	0,023
296,574	133,823	-0,174	-0,155
297,589	-88,083	-0,167	0,034
298,603	26,298	-0,235	-0,135
299,618	-4,272	-0,179	-0,085
300,633	-83,155	-0,224	-0,049
301,647	30,001	-0,158	-0,092
302,662	159,045	-0,114	-0,109
303,676	54,747	-0,158	-0,105
304,691	-113,969	-0,174	-0,023
305,706	-163,136	-0,170	0,006
306,720	194,258	-0,143	-0,150
307,735	-200,000	-0,038	-0,132
308,749	558,609	-0,073	0,121
309,764	147,491	-0,132	-0,122
310,779	39,826	-0,132	-0,081
311,793	74,030	-0,274	-0,197
312,808	-132,796	-0,278	-0,024
313,822	800,000	-0,078	-0,151
314,837	83,465	-0,264	-0,198
315,852	-163,533	-0,071	0,002
316,866	-200,000	-0,007	-0,067
317,881	55,201	-0,111	-0,074
318,895	-88,810	-0,186	0,038
319,910	-90,489	-0,163	-0,032
320,925	-61,886	-0,272	-0,078
321,939	800,000	-0,050	-0,141
322,954	-53,856	-0,243	-0,075
323,968	172,722	-0,069	0,069
324,983	-5,978	-0,162	-0,076
325,997	295,533	-0,150	-0,189
327,012	146,340	-0,146	-0,134
328,027	-97,578	-0,114	-0,020
329,041	-36,977	-0,263	-0,096
330,056	25,867	-0,140	0,080
331,070	-101,199	-0,220	-0,037
332,085	156,386	-0,117	-0,110
333,100	167,306	-0,086	-0,084
334,114	800,000	-0,090	-0,188
335,129	522,382	-0,131	-0,212
336,143	77,896	-0,100	-0,073
337,158	21,600	-0,054	-0,030
338,173	-145,424	-0,240	0,015
339,187	800,000	-0,036	-0,071
340,202	800,000	-0,043	-0,094
341,216	32,467	-0,285	-0,169
342,231	-28,016	-0,179	-0,071
343,246	12,454	-0,199	-0,105
344,260	410,096	-0,073	-0,107
345,275	-119,286	-0,029	0,003
346,289	800,000	-0,022	-0,052
347,304	-200,000	0,035	-0,123
348,319	800,000	-0,051	-0,116
349,333	800,000	-0,068	-0,140
350,348	28,029	-0,103	-0,059
351,362	149,968	-0,171	-0,159
352,377	580,071	0,013	-0,021
353,392	-137,947	-0,024	-0,002
354,406	-57,113	-0,228	-0,068
355,421	207,617	1312,378	1403,757
356,435	159,718	1472,812	1404,246
