DTS Sentinel unit serial number:	SN410029Multiplexer serial number:	ORYXHardware model number:	OX2-SRSoftware version number:	ORYX F/W v4,00 Oryx Data Collector v3.7.2.0data status	okinstallation	B3 Nyhavnadifferential loss correction	single-endedforward channel	channel 1reverse channel	N/Adate	2023/12/04time	06:02:30forward acquisition time	300,00reverse acquisition time	0,00gamma	499,1914k internal	0,3205k external	0,3205temperature offset calibration	1,0000default loss term (dB/km)	0,3820temperature slope calibration	1,0000multiplexer offset coefficient	1,0000multiplexer slope coefficient	1,0000fibre end	0,00T internal ref (°C)	12,02T ext. ref 1 (°C)	-2,93T ext. ref 2 (°C)	-2,94length (m)	temperature (°C)	Stokes	anti-Stokes-744,400	542,832	-0,093	-0,161
-743,385	-200,000	0,005	0,417
-742,371	280,202	-0,091	-0,119
-741,356	800,000	0,067	0,165
-740,342	260,393	-0,182	-0,228
-739,327	-200,000	-0,056	0,221
-738,312	111,037	-0,230	-0,201
-737,298	800,000	-0,116	0,247
-736,283	800,000	-0,069	-0,189
-735,269	800,000	-0,107	0,259
-734,254	155,780	-0,186	-0,186
-733,239	-104,973	-0,171	0,028
-732,225	-200,000	-0,031	-0,340
-731,210	-200,000	0,034	0,110
-730,196	112,923	-0,093	-0,082
-729,181	-85,705	-0,154	0,034
-728,167	46,741	0,014	0,009
-727,152	-40,023	-0,042	-0,016
-726,137	-1,055	0,027	-0,014
-725,123	412,973	0,077	-0,119
-724,108	174,482	-0,029	0,031
-723,094	-200,000	-0,067	-0,227
-722,079	-59,014	0,022	0,007
-721,064	-200,000	-0,008	-0,097
-720,050	573,821	-0,042	-0,074
-719,035	-2,712	0,007	0,003
-718,021	79,501	0,033	0,025
-717,006	-200,000	0,024	-0,126
-715,991	800,000	-0,047	-0,096
-714,977	64,168	-0,046	-0,034
-713,962	-200,000	0,000	-0,103
-712,948	-200,000	0,039	0,134
-711,933	-120,857	-0,130	-0,016
-710,918	28,607	-0,070	-0,043
-709,904	-200,000	-0,001	-0,065
-708,889	-200,000	0,017	-0,054
-707,875	-28,958	-0,115	-0,048
-706,860	136,444	-0,074	0,070
-705,845	476,507	-0,085	-0,140
-704,831	27,714	0,112	-0,068
-703,816	138,515	-0,048	0,046
-702,802	-200,000	0,021	0,075
-701,787	15,375	-0,068	-0,039
-700,772	800,000	-0,090	-0,186
-699,758	129,278	-0,082	-0,076
-698,743	-1,515	0,032	0,016
-697,729	216,391	-0,028	0,032
-696,714	580,833	-0,035	0,062
-695,699	-112,486	0,015	0,002
-694,685	800,000	-0,047	-0,116
-693,670	-200,000	0,019	-0,211
-692,656	-124,088	-0,148	0,017
-691,641	617,351	-0,034	-0,061
-690,627	-42,029	0,060	0,022
-689,612	-35,424	-0,154	0,060
-688,597	-200,000	0,009	-0,079
-687,583	-200,000	0,041	-0,157
-686,568	173,911	-0,077	-0,080
-685,554	12,831	-0,069	0,039
-684,539	-200,000	-0,006	0,027
-683,524	-136,370	0,114	-0,009
-682,510	6,764	-0,155	0,083
-681,495	431,338	-0,073	0,115
-680,481	210,891	-0,100	-0,115
-679,466	99,064	-0,110	-0,092
-678,451	-36,589	0,032	0,012
-677,437	-200,000	-0,035	0,120
-676,422	-148,700	-0,088	0,005
-675,408	-139,968	-0,183	-0,014
-674,393	-142,816	-0,064	0,004
-673,378	-4,192	-0,144	-0,072
-672,364	-19,936	0,073	-0,033
-671,349	85,187	-0,151	-0,120
-670,335	63,406	-0,061	-0,044
-669,320	-84,118	0,078	0,018
-668,305	-67,601	0,082	-0,023
-667,291	269,384	-0,019	0,024
-666,276	0,163	0,080	0,041
-665,262	-200,000	0,016	-0,088
-664,247	800,000	0,012	0,035
-663,232	-200,000	0,006	-0,111
-662,218	-96,191	-0,117	-0,022
-661,203	-104,121	0,086	-0,014
-660,189	-95,749	0,094	-0,018
-659,174	140,184	-0,090	0,086
-658,159	-35,026	-0,072	-0,028
-657,145	-10,052	-0,131	-0,063
-656,130	800,000	-0,011	-0,032
-655,116	291,917	0,042	-0,056
-654,101	800,000	0,053	0,158
-653,086	50,629	-0,123	0,084
-652,072	39,002	-0,072	-0,046
-651,057	674,033	-0,066	-0,125
-650,043	125,040	-0,182	-0,166
-649,028	-5,802	0,031	0,015
-648,014	227,400	0,063	0,074
-646,999	203,130	-0,069	-0,077
-645,984	330,990	-0,070	0,098
-644,970	48,624	0,022	0,015
-643,955	-176,237	-0,085	-0,002
-642,941	800,000	0,043	-0,112
-641,926	468,904	-0,036	-0,059
-640,911	-50,693	0,098	-0,033
-639,897	-117,732	-0,080	0,010
-638,882	29,655	0,040	-0,024
-637,868	-200,000	-0,031	-0,130
-636,853	308,363	-0,034	-0,046
-635,838	-200,000	0,010	-0,035
-634,824	-29,335	-0,048	-0,020
-633,809	-200,000	-0,020	0,076
-632,795	101,358	-0,045	0,038
-631,780	-200,000	0,008	-0,065
-630,765	55,089	0,031	0,021
-629,751	221,207	-0,023	-0,027
-628,736	124,188	0,015	-0,014
-627,722	-130,060	-0,014	-0,001
-626,707	-108,068	-0,203	0,031
-625,692	4,953	0,094	-0,050
-624,678	159,804	0,046	-0,047
-623,663	156,516	0,052	-0,052
-622,649	149,103	-0,051	-0,050
-621,634	-200,000	-0,024	-0,237
-620,619	-63,777	-0,125	-0,037
-619,605	-65,202	0,075	-0,022
-618,590	184,903	0,040	-0,043
-617,576	468,095	-0,020	0,033
-616,561	-200,000	0,011	-0,045
-615,546	-200,000	-0,019	-0,094
-614,532	8,259	-0,104	-0,056
-613,517	116,010	0,066	0,059
-612,503	292,972	-0,034	0,045
-611,488	-200,000	-0,038	-0,183
-610,474	582,231	0,033	-0,058
-609,459	-132,146	-0,154	-0,014
-608,444	800,000	-0,039	-0,102
-607,430	325,119	-0,116	-0,160
-606,415	-15,173	-0,113	-0,052
-605,401	-200,000	0,011	0,224
-604,386	82,183	-0,056	-0,044
-603,371	-33,901	0,084	0,033
-602,357	426,171	-0,089	0,140
-601,342	68,096	-0,057	-0,042
-600,328	-32,156	-0,173	-0,069
-599,313	-29,881	0,133	-0,054
-598,298	49,694	0,067	0,045
-597,284	-200,000	-0,047	0,184
-596,269	-170,598	0,160	0,004
-595,255	6,995	-0,095	-0,051
-594,240	723,955	0,016	-0,031
-593,225	475,838	0,048	-0,078
-592,211	800,000	-0,073	-0,171
-591,196	-48,793	0,055	0,019
-590,182	31,600	-0,080	0,050
-589,167	77,209	0,075	-0,058
-588,152	-200,000	-0,003	0,087
-587,138	800,000	0,032	-0,092
-586,123	491,331	-0,067	-0,112
-585,109	144,583	0,042	-0,040
-584,094	13,994	0,041	-0,023
-583,079	376,780	0,081	0,120
-582,065	800,000	0,011	-0,034
-581,050	-46,165	0,132	0,046
-580,036	-107,795	-0,049	-0,008
-579,021	118,477	-0,029	-0,026
-578,006	-200,000	-0,008	0,113
-576,992	800,000	-0,023	0,064
-575,977	-200,000	-0,015	0,130
-574,963	-146,202	-0,098	0,006
-573,948	219,418	0,024	0,028
-572,934	-62,385	-0,159	-0,047
-571,919	-88,233	-0,159	-0,034
-570,904	208,247	-0,110	-0,124
-569,890	287,362	0,023	-0,030
-568,875	-127,919	0,065	-0,007
-567,861	-101,221	-0,043	-0,008
-566,846	-69,476	0,045	0,012
-565,831	35,453	0,135	0,085
-564,817	-43,643	-0,143	-0,052
-563,802	800,000	-0,023	0,050
-562,788	49,801	-0,012	-0,008
-561,773	-37,464	0,083	0,032
-560,758	34,985	-0,032	-0,020
-559,744	277,455	0,056	0,071
-558,729	17,030	0,068	0,039
-557,715	-200,000	-0,023	-0,099
-556,700	304,231	-0,061	0,081
-555,685	-200,000	0,006	-0,045
-554,671	-144,932	0,071	-0,005
-553,656	-200,000	-0,001	0,087
-552,642	-194,646	0,048	0,000
-551,627	141,650	-0,030	0,028
-550,612	56,759	-0,032	-0,022
-549,598	-56,293	-0,043	0,014
-548,583	186,992	0,022	-0,024
-547,569	-200,000	0,012	0,064
-546,554	-200,000	0,124	0,000
-545,539	687,142	0,018	0,035
-544,525	-200,000	-0,009	0,112
-543,510	-82,436	-0,154	-0,036
-542,496	-99,302	0,118	-0,021
-541,481	-200,000	0,008	-0,132
-540,466	249,321	-0,045	-0,055
-539,452	-200,000	-0,015	-0,051
-538,437	-200,000	-0,004	0,112
-537,423	186,011	-0,041	0,044
-536,408	-200,000	0,067	0,264
-535,393	800,000	0,033	0,075
-534,379	158,526	0,064	-0,064
-533,364	-2,761	-0,230	-0,115
-532,350	-200,000	0,007	0,100
-531,335	-1,438	0,053	0,027
-530,321	410,844	0,029	-0,045
-529,306	385,017	-0,043	0,064
-528,291	-49,481	-0,049	-0,017
-527,277	-200,000	-0,015	0,072
-526,262	81,980	-0,082	-0,064
-525,248	71,803	0,113	0,085
-524,233	-200,000	0,005	0,146
-523,218	-68,467	0,006	-0,002
-522,204	68,523	-0,068	-0,050
-521,189	-200,000	-0,016	-0,095
-520,175	-200,000	-0,006	0,055
-519,160	-16,131	0,075	0,034
-518,145	-200,000	-0,009	0,049
-517,131	-10,106	-0,105	0,050
-516,116	415,363	0,062	0,096
-515,102	-188,139	0,029	0,000
-514,087	46,296	-0,121	-0,081
-513,072	800,000	-0,045	-0,109
-512,058	351,081	0,034	0,049
-511,043	800,000	0,057	0,123
-510,029	109,978	-0,019	0,017
-509,014	188,996	-0,060	0,065
-507,999	303,187	-0,015	-0,020
-506,985	800,000	-0,043	0,096
-505,970	325,845	-0,092	-0,127
-504,956	32,845	-0,114	0,071
-503,941	-200,000	0,011	-0,036
-502,926	-200,000	0,009	0,096
-501,912	-200,000	0,044	0,148
-500,897	-93,203	0,088	-0,017
-499,883	382,979	0,071	0,105
-498,868	800,000	-0,044	-0,136
-497,853	800,000	0,037	-0,117
-496,839	800,000	0,019	0,055
-495,824	17,839	-0,045	-0,026
-494,810	48,737	0,066	0,044
-493,795	-200,000	0,010	0,033
-492,781	-200,000	0,003	0,082
-491,766	15,035	-0,075	0,042
-490,751	502,169	-0,021	0,036
-489,737	180,522	-0,053	-0,056
-488,722	-200,000	0,019	0,117
-487,708	209,757	-0,072	0,082
-486,693	-55,263	0,264	0,085
-485,678	-200,000	-0,001	0,009
-484,664	130,984	-0,096	-0,088
-483,649	-200,000	0,006	-0,111
-482,635	-63,974	0,137	-0,040
-481,620	-130,744	0,101	0,010
-480,605	392,988	-0,047	-0,070
-479,591	-200,000	-0,014	0,126
-478,576	408,834	-0,041	-0,063
-477,562	-200,000	-0,007	0,040
-476,547	-200,000	-0,006	0,066
-475,532	1,570	0,083	-0,043
-474,518	-200,000	-0,013	-0,125
-473,503	-1,491	0,049	0,025
-472,489	-200,000	-0,009	0,066
-471,474	-41,037	-0,108	-0,040
-470,459	16,661	-0,036	0,021
-469,445	206,466	-0,018	0,021
-468,430	103,203	0,117	-0,099
-467,416	-6,110	0,020	-0,010
-466,401	-97,162	0,031	-0,006
-465,386	708,111	0,062	0,117
-464,372	-52,533	0,139	-0,046
-463,357	-98,619	0,053	-0,010
-462,343	7,944	-0,082	-0,044
-461,328	31,123	0,094	-0,058
-460,313	210,900	-0,062	0,071
-459,299	178,513	0,057	0,059
-458,284	-97,609	0,093	-0,017
-457,270	800,000	-0,052	-0,108
-456,255	-41,357	-0,134	-0,049
-455,241	-200,000	-0,040	0,190
-454,226	131,468	0,074	-0,069
-453,211	-200,000	0,001	0,158
-452,197	452,008	0,026	0,042
-451,182	-200,000	-0,041	0,142
-450,168	296,644	-0,040	-0,053
-449,153	-200,000	-0,001	-0,005
-448,138	-200,000	-0,004	0,026
-447,124	711,675	-0,036	-0,069
-446,109	800,000	0,034	0,070
-445,095	-149,307	0,147	-0,008
-444,080	19,056	0,173	-0,099
-443,065	-200,000	-0,012	0,058
-442,051	-26,726	-0,081	0,034
-441,036	-200,000	0,001	0,019
-440,022	193,626	0,018	-0,019
-439,007	800,000	-0,022	-0,060
-437,992	-90,371	0,127	-0,026
-436,978	-200,000	0,002	-0,147
-435,963	-38,483	0,016	-0,006
-434,949	-200,000	-0,023	0,083
-433,934	510,037	0,027	-0,046
-432,919	388,014	0,046	-0,068
-431,905	46,401	-0,097	-0,065
-430,890	153,321	-0,027	-0,026
-429,876	800,000	0,022	0,051
-428,861	19,843	0,047	0,027
-427,846	-94,745	-0,122	-0,023
-426,832	-200,000	0,004	-0,088
-425,817	91,636	-0,040	0,032
-424,803	318,094	0,053	-0,072
-423,788	22,972	0,108	-0,063
-422,773	493,886	0,028	0,046
-421,759	593,939	-0,052	0,092
-420,744	2,772	0,080	0,042
-419,730	5,054	0,053	-0,028
-418,715	-200,000	0,026	-0,178
-417,701	-86,415	0,073	0,016
-416,686	-200,000	0,014	0,079
-415,671	-45,789	0,081	0,029
-414,657	800,000	0,021	0,062
-413,642	800,000	0,006	-0,016
-412,628	222,536	-0,048	-0,056
-411,613	377,791	-0,081	-0,119
-410,598	380,727	-0,108	-0,159
-409,584	-170,644	0,157	0,004
-408,569	118,000	0,040	0,035
-407,555	800,000	0,054	0,154
-406,540	800,000	0,053	0,107
-405,525	-0,842	-0,059	-0,030
-404,511	409,346	0,053	0,081
-403,496	-200,000	0,009	-0,091
-402,482	-200,000	0,005	-0,106
-401,467	-60,174	0,102	-0,031
-400,452	147,052	-0,050	0,048
-399,438	150,672	0,042	0,041
-398,423	-40,091	-0,078	-0,029
-397,409	-200,000	-0,001	-0,080
-396,394	-5,185	0,092	0,045
-395,379	700,498	-0,063	0,120
-394,365	458,067	0,030	-0,048
-393,350	800,000	0,084	0,219
-392,336	-200,000	0,046	0,160
-391,321	149,960	-0,101	-0,098
-390,306	4,508	-0,019	-0,010
-389,292	458,765	-0,030	-0,047
-388,277	-200,000	0,012	-0,080
-387,263	162,178	0,030	-0,030
-386,248	160,713	0,042	0,042
-385,233	-200,000	0,030	0,222
-384,219	37,330	-0,083	-0,053
-383,204	-200,000	-0,020	-0,095
-382,190	-200,000	0,006	-0,051
-381,175	19,313	-0,039	-0,023
-380,160	-67,823	0,065	-0,018
-379,146	-112,624	0,142	0,020
-378,131	-75,771	-0,032	-0,008
-377,117	196,577	0,121	0,132
-376,102	1,166	-0,132	0,068
-375,088	-58,080	0,097	0,030
-374,073	474,071	-0,069	0,111
-373,058	171,177	-0,062	-0,064
-372,044	669,451	0,024	0,045
-371,029	-200,000	-0,012	0,114
-370,015	-116,979	-0,015	-0,002
-369,000	-200,000	-0,020	-0,066
-367,985	98,090	-0,053	-0,044
-366,971	-93,630	-0,162	0,032
-365,956	-110,234	0,059	0,009
-364,942	-163,904	0,114	-0,004
-363,927	800,000	0,024	0,051
-362,912	-200,000	0,015	0,136
-361,898	25,461	-0,118	0,070
-360,883	20,604	-0,121	-0,070
-359,869	-13,896	-0,123	-0,057
-358,854	-200,000	-0,007	0,107
-357,839	-200,000	0,001	0,032
-356,825	-47,295	0,043	0,015
-355,810	83,234	-0,087	-0,068
-354,796	-200,000	0,009	-0,114
-353,781	66,344	-0,142	0,103
-352,766	-140,286	0,191	-0,014
-351,752	-110,641	0,088	0,013
-350,737	800,000	-0,027	0,080
-349,723	399,084	-0,085	0,127
-348,708	156,370	0,070	0,069
-347,693	151,425	-0,048	-0,046
-346,679	91,140	-0,087	-0,070
-345,664	800,000	0,074	-0,166
-344,650	-200,000	-0,025	0,085
-343,635	-127,248	0,129	-0,013
-342,620	178,845	-0,125	0,131
-341,606	4,702	-0,121	0,064
-340,591	-112,658	0,092	0,013
-339,577	800,000	-0,058	0,141
-338,562	-200,000	-0,008	0,040
-337,548	-200,000	-0,015	-0,067
-336,533	-78,142	0,031	-0,008
-335,518	88,925	0,093	0,074
-334,504	-200,000	0,029	0,099
-333,489	-50,092	0,093	-0,031
-332,475	800,000	-0,042	-0,092
-331,460	800,000	0,005	0,012
-330,445	246,695	-0,046	0,056
-329,431	-43,292	-0,091	-0,033
-328,416	-200,000	0,007	-0,026
-327,402	-200,000	0,002	-0,071
-326,387	-200,000	0,053	-0,000
-325,372	-200,000	-0,029	-0,193
-324,358	-200,000	0,011	-0,197
-323,343	-58,941	-0,147	0,045
-322,329	-139,905	0,108	-0,008
-321,314	-139,328	-0,069	-0,005
-320,299	251,588	0,030	-0,036
-319,285	433,586	0,013	0,020
-318,270	280,194	0,074	-0,095
-317,256	284,898	-0,105	-0,136
-316,241	-200,000	0,028	-0,103
-315,226	-130,461	-0,130	0,012
-314,212	-200,000	0,028	0,145
-313,197	175,262	0,016	-0,017
-312,183	5,331	-0,088	0,046
-311,168	-200,000	-0,044	-0,147
-310,153	181,125	-0,055	-0,058
-309,139	25,827	0,057	-0,034
-308,124	57,604	0,027	0,019
-307,110	800,000	0,029	0,093
-306,095	162,101	0,090	0,090
-305,080	800,000	-0,074	0,224
-304,066	31,101	0,081	-0,049
-303,051	581,421	0,072	-0,127
-302,037	-200,000	0,003	0,116
-301,022	-30,051	-0,057	0,023
-300,008	559,210	-0,079	0,137
-298,993	167,283	0,061	0,062
-297,978	466,078	-0,018	0,029
-296,964	40,166	0,107	0,069
-295,949	4,934	-0,189	0,099
-294,935	322,009	-0,047	-0,064
-293,920	-200,000	-0,011	-0,044
-292,905	-200,000	-0,008	0,028
-291,891	-200,000	-0,001	0,122
-290,876	-157,652	-0,141	-0,006
-289,862	36,179	0,043	0,027
-288,847	-33,006	-0,057	0,022
-287,832	800,000	0,012	0,030
-286,818	210,093	0,067	-0,075
-285,803	-200,000	-0,023	-0,076
-284,789	-29,502	0,119	0,048
-283,774	800,000	0,034	0,075
-282,759	800,000	-0,027	0,061
-281,745	-47,101	-0,142	-0,049
-280,730	621,215	0,005	-0,009
-279,716	254,297	0,028	-0,035
-278,701	103,409	0,097	0,081
-277,686	15,483	0,097	-0,054
-276,672	125,992	-0,026	0,023
-275,657	-200,000	-0,021	0,162
-274,643	-113,086	0,055	0,008
-273,628	-200,000	-0,031	-0,237
-272,613	-200,000	-0,018	-0,130
-271,599	-200,000	-0,013	0,102
-270,584	-200,000	0,023	0,074
-269,570	800,000	0,024	0,062
-268,555	360,928	-0,092	-0,131
-267,540	153,802	0,076	-0,074
-266,526	800,000	0,040	-0,083
-265,511	-122,590	-0,045	-0,005
-264,497	-35,647	0,189	0,073
-263,482	212,206	0,063	0,071
-262,467	-155,304	0,172	0,008
-261,453	-51,644	0,094	-0,031
-260,438	422,253	0,047	-0,073
-259,424	144,255	-0,032	0,030
-258,409	-100,898	0,125	-0,022
-257,395	41,407	0,073	-0,047
-256,380	235,611	-0,067	0,079
-255,365	800,000	0,075	-0,150
-254,351	-11,497	-0,088	0,041
-253,336	292,498	0,028	-0,036
-252,322	800,000	-0,024	-0,067
-251,307	232,495	0,055	-0,064
-250,292	-200,000	-0,005	0,041
-249,278	-114,651	0,080	0,011
-248,263	37,864	-0,101	-0,064
-247,249	285,236	-0,047	-0,061
-246,234	742,488	-0,047	0,091
-245,219	155,511	-0,128	-0,126
-244,205	355,717	-0,033	-0,048
-243,190	97,065	-0,134	-0,109
-242,176	-200,000	0,064	-0,238
-241,161	121,108	0,055	0,049
-240,146	-188,942	0,070	0,001
-239,132	-105,731	-0,178	0,028
-238,117	-200,000	0,013	-0,048
-237,103	-118,880	0,073	0,009
-236,088	-200,000	0,003	-0,073
-235,073	800,000	0,023	0,066
-234,059	-200,000	0,010	0,078
-233,044	-182,080	0,036	0,000
-232,030	-200,000	-0,001	-0,009
-231,015	-51,914	0,021	-0,007
-230,000	62,604	-0,014	0,010
-228,986	-59,315	-0,035	-0,011
-227,971	-114,023	0,144	-0,020
-226,957	-34,540	0,115	-0,045
-225,942	-75,873	-0,047	-0,012
-224,927	176,507	-0,106	-0,110
-223,913	-133,089	-0,132	-0,012
-222,898	-200,000	0,006	-0,122
-221,884	233,140	0,108	-0,127
-220,869	-200,000	-0,019	-0,102
-219,855	-200,000	0,014	0,150
-218,840	441,660	-0,035	-0,055
-217,825	415,120	-0,065	-0,100
-216,811	394,147	-0,060	-0,090
-215,796	225,494	-0,063	0,073
-214,782	77,542	0,116	0,088
-213,767	-200,000	0,003	0,045
-212,752	41,780	0,032	0,021
-211,738	-200,000	0,009	-0,045
-210,723	-122,023	-0,032	0,004
-209,709	-200,000	0,007	-0,027
-208,694	-200,000	0,007	-0,065
-207,679	-94,322	0,027	-0,005
-206,665	154,602	0,085	-0,083
-205,650	-82,658	-0,087	0,020
-204,636	260,254	0,132	0,163
-203,621	-32,432	0,088	-0,035
-202,606	45,344	-0,062	0,041
-201,592	-32,667	-0,028	-0,011
-200,577	800,000	-0,033	-0,090
-199,563	800,000	0,033	-0,073
-198,548	-113,041	0,086	-0,012
-197,533	458,774	0,041	-0,065
-196,519	800,000	-0,016	0,041
-195,504	-67,768	0,041	0,011
-194,490	-200,000	-0,014	0,138
-193,475	-200,000	-0,003	-0,085
-192,460	102,360	0,139	0,115
-191,446	-200,000	-0,018	0,063
-190,431	-200,000	0,016	0,102
-189,417	-200,000	0,010	0,057
-188,402	-14,035	-0,139	-0,063
-187,387	-129,026	-0,032	-0,003
-186,373	-175,206	-0,064	0,001
-185,358	-200,000	0,009	0,053
-184,344	31,256	0,018	-0,011
-183,329	245,773	-0,057	0,068
-182,315	216,840	-0,062	0,070
-181,300	-99,215	0,140	0,025
-180,285	-173,135	-0,130	-0,003
-179,271	510,146	0,062	-0,103
-178,256	-110,206	-0,032	-0,005
-177,242	-78,770	-0,160	0,038
-176,227	665,189	0,033	0,061
-175,212	800,000	-0,024	0,055
-174,198	800,000	0,008	-0,026
-173,183	800,000	-0,058	-0,120
-172,169	-42,908	-0,104	-0,037
-171,154	-25,566	0,010	-0,004
-170,139	-85,586	0,072	0,016
-169,125	-200,000	0,022	0,135
-168,110	-200,000	-0,005	-0,052
-167,096	-200,000	-0,029	0,094
-166,081	-51,593	-0,118	-0,039
-165,066	541,322	-0,057	-0,097
-164,052	800,000	0,054	-0,155
-163,037	-111,935	0,180	-0,026
-162,023	2,391	0,126	0,065
-161,008	265,575	0,083	0,104
-159,993	64,353	-0,155	-0,111
-158,979	-92,126	0,018	0,004
-157,964	-125,567	-0,075	0,008
-156,950	-200,000	0,021	-0,110
-155,935	-179,065	0,030	0,000
-154,920	-200,000	0,011	0,118
-153,906	230,107	0,044	0,051
-152,891	557,076	0,048	0,083
-151,877	189,078	0,064	0,068
-150,862	120,672	0,064	-0,056
-149,847	800,000	-0,010	0,025
-148,833	134,092	-0,080	-0,073
-147,818	-33,379	0,009	0,003
-146,804	454,576	0,003	-0,005
-145,789	652,724	-0,082	0,149
-144,775	-21,594	-0,057	0,024
-143,760	5,994	-0,040	-0,021
-142,745	800,000	0,071	-0,166
-141,731	-200,000	-0,025	0,145
-140,716	649,250	-0,014	0,025
-139,702	-200,000	-0,013	0,145
-138,687	247,099	-0,024	-0,029
-137,672	-130,666	0,014	0,001
-136,658	-200,000	0,027	-0,153
-135,643	-200,000	0,007	-0,090
-134,629	262,820	-0,035	-0,043
-133,614	52,072	-0,125	0,084
-132,599	-200,000	-0,011	-0,108
-131,585	-200,000	-0,012	0,076
-130,570	-200,000	0,029	0,197
-129,556	180,417	-0,059	0,061
-128,541	2,255	-0,060	-0,031
-127,526	-62,887	-0,054	-0,016
-126,512	784,676	-0,012	-0,023
-125,497	22,936	0,084	-0,049
-124,483	800,000	0,033	-0,068
-123,468	125,805	-0,071	-0,064
-122,453	-71,257	-0,072	-0,019
-121,439	221,699	-0,070	-0,080
-120,424	179,839	0,050	-0,052
-119,410	800,000	-0,016	-0,042
-118,395	342,449	0,049	0,069
-117,380	119,652	0,021	0,019
-116,366	176,310	0,072	-0,074
-115,351	166,273	-0,136	-0,137
-114,337	-130,096	0,083	0,008
-113,322	-200,000	0,059	0,210
-112,307	-44,794	-0,043	-0,015
-111,293	800,000	0,077	0,194
-110,278	-75,798	0,057	0,014
-109,264	72,790	0,045	0,033
-108,249	142,627	-0,106	0,100
-107,234	374,038	0,034	-0,049
-106,220	0,159	0,103	0,052
-105,205	-147,549	0,084	-0,005
-104,191	-200,000	-0,035	0,189
-103,176	155,918	0,037	0,037
-102,162	-15,576	0,036	-0,016
-101,147	-200,000	-0,002	-0,068
-100,132	45,285	-0,065	0,043
-99,118	-111,074	-0,138	-0,020
-98,103	-177,502	0,067	-0,001
-97,089	800,000	0,037	-0,114
-96,074	204,941	0,058	-0,064
-95,059	-175,602	0,079	-0,001
-94,045	765,256	0,063	0,121
-93,030	800,000	0,050	-0,136
-92,016	-70,981	-0,088	0,023
-91,001	344,363	0,028	-0,038
-89,986	124,500	-0,082	0,073
-88,972	-200,000	-0,049	0,219
-87,957	754,194	0,074	-0,142
-86,943	216,494	-0,020	0,023
-85,928	2,020	-0,192	-0,098
-84,913	-200,000	0,016	0,063
-83,899	-113,960	-0,046	0,006
-82,884	150,397	-0,014	-0,014
-81,870	434,595	0,080	0,123
-80,855	101,709	-0,033	0,027
-79,840	-98,672	-0,083	0,015
-78,826	287,878	0,036	-0,047
-77,811	388,727	-0,115	-0,169
-76,797	800,000	0,017	0,036
-75,782	155,217	-0,089	0,087
-74,767	-111,697	0,173	-0,025
-73,753	-200,000	0,010	0,076
-72,738	62,918	0,031	-0,022
-71,724	106,164	-0,107	0,090
-70,709	-200,000	0,007	-0,031
-69,694	-8,925	0,037	-0,017
-68,680	-79,218	0,113	-0,027
-67,665	-80,751	-0,102	0,024
-66,651	-93,680	0,170	0,033
-65,636	37,221	-0,068	-0,042
-64,622	800,000	0,053	-0,151
-63,607	-40,269	-0,135	-0,049
-62,592	800,000	0,057	-0,129
-61,578	-53,350	-0,030	-0,010
-60,563	61,678	-0,060	0,042
-59,549	-143,185	-0,186	0,012
-58,534	-3,521	-1,784	-0,874
-57,519	319,942	-1,447	-1,947
-56,505	-200,000	-0,660	-4,695
-55,490	422,387	1,035	1,577
-54,476	800,000	4,854	11,129
-53,461	-200,000	20,205	324,758
-52,446	800,000	752,401	2311,749
-51,432	548,390	1663,089	2827,104
-50,417	74,796	1671,876	1242,878
-49,403	19,891	1544,911	877,751
-48,388	13,837	1467,412	804,259
-47,373	18,486	1457,342	821,165
-46,359	16,359	1447,026	805,129
-45,344	12,111	1442,763	782,378
-44,330	12,062	1440,816	781,054
-43,315	12,055	1439,043	780,029
-42,300	12,094	1437,159	779,165
-41,286	12,073	1436,040	778,424
-40,271	12,064	1434,590	777,567
-39,257	12,074	1433,324	776,895
-38,242	12,111	1432,277	776,474
-37,227	12,096	1431,045	775,703
-36,213	12,103	1429,785	775,024
-35,198	12,087	1428,448	774,192
-34,184	12,178	1427,467	774,061
-33,169	12,105	1426,155	772,975
-32,154	12,163	1425,000	772,592
-31,140	12,144	1423,770	771,802
-30,125	12,129	1422,716	771,130
-29,111	12,111	1421,785	770,509
-28,096	12,116	1420,555	769,836
-27,082	12,055	1419,352	768,865
-26,067	12,059	1418,261	768,266
-25,052	12,053	1417,255	767,662
-24,038	12,068	1416,193	767,123
-23,023	12,056	1415,214	766,510
-22,009	12,063	1414,138	765,928
-20,994	12,053	1413,059	765,265
-19,979	12,032	1412,372	764,765
-18,965	11,995	1411,564	764,123
-17,950	12,027	1410,511	763,675
-16,936	11,987	1409,932	763,141
-15,921	11,951	1408,637	762,241
-14,906	11,978	1407,775	761,872
-13,892	11,969	1406,838	761,293
-12,877	11,917	1406,007	760,570
-11,863	11,965	1405,159	760,307
-10,848	11,935	1403,959	759,485
-9,833	11,896	1403,277	758,902
-8,819	11,884	1402,479	758,388
-7,804	11,856	1401,602	757,750
-6,790	11,877	1400,519	757,234
-5,775	11,901	1399,339	756,676
-4,760	11,870	1398,535	756,070
-3,746	11,852	1397,420	755,352
-2,731	11,824	1396,750	754,828
-1,717	11,845	1396,024	754,507
-0,702	11,849	1394,205	753,512
0,313	15,891	1308,873	726,031
1,327	32,232	699,474	425,525
2,342	49,967	121,925	81,128
3,356	0,515	16,515	8,311
4,371	-2,346	3,213	1,586
5,386	-14,938	0,688	0,310
6,400	-200,000	-0,055	0,412
7,415	-56,875	-0,309	-0,096
8,429	39,276	-0,306	-0,193
9,444	28,099	-0,435	-0,259
10,459	159,694	-0,250	-0,246
11,473	100,614	-0,241	-0,198
12,488	117,203	-0,269	-0,233
13,502	26,690	-0,314	-0,185
14,517	47,167	-0,398	-0,261
15,531	154,458	-0,297	-0,288
16,546	-18,497	-0,437	-0,192
17,561	184,852	-0,333	-0,348
18,575	-24,662	-0,312	-0,131
19,590	68,345	-0,173	-0,125
20,604	25,747	-0,231	-0,135
21,619	100,237	-0,424	-0,347
22,634	104,054	-0,363	-0,301
23,648	152,002	-0,378	-0,364
24,663	111,767	-0,373	-0,318
25,677	-43,783	-0,459	-0,162
26,692	54,963	-0,362	-0,246
27,707	-20,570	-0,379	-0,164
28,721	-27,869	-0,380	-0,155
29,736	63,636	-0,441	-0,312
30,750	230,733	-0,317	-0,366
31,765	160,738	-0,293	-0,288
32,780	254,733	-0,318	-0,384
33,794	28,222	-0,394	-0,234
34,809	62,900	-0,225	-0,158
35,823	101,464	-0,409	-0,336
36,838	78,248	-0,439	-0,330
37,853	40,112	-0,348	-0,220
38,867	15,391	-0,401	-0,221
39,882	13,053	-0,307	-0,167
40,896	301,214	-0,305	-0,397
41,911	-77,613	-0,333	-0,081
42,926	-36,876	-0,310	-0,116
43,940	138,042	-0,340	-0,314
44,955	87,718	-0,452	-0,352
45,969	22,608	-0,407	-0,234
46,984	37,086	-0,287	-0,178
47,999	-1,033	-0,324	-0,161
49,013	59,772	-0,325	-0,225
50,028	50,152	-0,329	-0,218
51,042	-14,495	-0,454	-0,205
52,057	145,078	-0,255	-0,240
53,071	77,048	-0,327	-0,244
54,086	104,629	-0,329	-0,272
55,101	-26,496	-0,294	-0,120
56,115	97,098	-0,277	-0,223
57,130	-26,859	-0,320	-0,131
58,144	-16,965	-0,381	-0,168
59,159	206,880	-0,432	-0,473
60,174	244,978	-0,297	-0,352
61,188	79,417	-0,335	-0,252
62,203	85,283	-0,452	-0,348
63,217	51,581	-0,289	-0,193
64,232	-37,624	-0,401	-0,149
65,247	12,754	-0,454	-0,246
66,261	1,359	-0,322	-0,162
67,276	-38,676	-0,327	-0,120
68,290	57,686	-0,268	-0,184
69,305	121,622	-0,241	-0,211
70,320	-60,356	-0,360	-0,107
71,334	-8,036	-0,166	-0,078
72,349	114,471	-0,278	-0,238
73,363	79,418	-0,374	-0,281
74,378	-55,474	-0,358	-0,112
75,393	99,743	-0,306	-0,249
76,407	70,198	-0,349	-0,252
77,422	-47,835	-0,274	-0,093
78,436	-71,007	-0,312	-0,082
79,451	-10,046	-0,351	-0,163
80,466	-49,887	-0,327	-0,108
81,480	70,555	-0,256	-0,185
82,495	44,187	-0,369	-0,237
83,509	-41,975	-0,379	-0,135
84,524	-58,079	-0,201	-0,061
85,539	-113,509	-0,199	-0,027
86,553	97,977	-0,319	-0,257
87,568	225,809	-0,193	-0,219
88,582	35,660	-0,309	-0,190
89,597	170,690	-0,267	-0,268
90,611	16,610	-0,237	-0,131
91,626	-58,737	-0,265	-0,080
92,641	-48,460	-0,239	-0,080
93,655	-29,558	-0,357	-0,142
94,670	94,040	-0,311	-0,247
95,684	-17,492	-0,327	-0,144
96,699	137,035	-0,316	-0,289
97,714	185,112	-0,100	-0,104
98,728	11,289	-0,199	-0,107
99,743	8,696	-0,235	-0,124
100,757	-67,451	-0,271	-0,074
101,772	12,449	-0,394	-0,212
102,787	39,958	-0,289	-0,181
103,801	578,823	-0,218	-0,375
104,816	119,477	-0,261	-0,226
105,830	-7,437	-0,191	-0,090
106,845	302,389	-0,150	-0,195
107,860	-10,131	-0,314	-0,145
108,874	167,544	-0,170	-0,169
109,889	60,438	-0,199	-0,138
110,903	-80,278	-0,305	-0,071
111,918	-58,116	-0,312	-0,095
112,933	800,000	-0,072	-0,174
113,947	41,294	-0,293	-0,185
114,962	-84,758	-0,130	-0,028
115,976	18,003	-0,320	-0,178
116,991	-38,392	-0,339	-0,125
118,006	85,426	-0,269	-0,207
119,020	260,388	-0,137	-0,165
120,035	110,108	-0,257	-0,216
121,049	151,032	-0,180	-0,171
122,064	-41,320	-0,221	-0,079
123,079	-60,444	-0,330	-0,097
124,093	89,376	-0,340	-0,265
125,108	89,562	-0,360	-0,280
126,122	-11,806	-0,266	-0,121
127,137	-87,506	-0,235	-0,049
128,151	136,527	-0,233	-0,212
129,166	59,129	-0,313	-0,215
130,181	-57,127	-0,258	-0,079
131,195	-23,060	-0,278	-0,117
132,210	277,689	-0,209	-0,260
133,224	488,166	-0,194	-0,310
134,239	-30,148	-0,236	-0,093
135,254	14,234	-0,211	-0,114
136,268	19,370	-0,195	-0,109
137,283	215,552	-0,229	-0,254
138,297	103,291	-0,233	-0,190
139,312	199,093	-0,214	-0,229
140,327	71,560	-0,234	-0,169
141,341	90,721	-0,283	-0,222
142,356	-114,004	-0,174	-0,023
143,370	-173,014	-0,152	-0,003
144,385	194,986	-0,206	-0,218
145,400	108,427	-0,303	-0,253
146,414	43,547	-0,313	-0,199
147,429	2,946	-0,203	-0,102
148,443	188,484	-0,159	-0,166
149,458	45,462	-0,265	-0,170
150,473	210,397	-0,235	-0,257
151,487	-66,657	-0,315	-0,087
152,502	2,994	-0,330	-0,167
153,516	181,463	-0,261	-0,268
154,531	-66,168	-0,290	-0,080
155,546	16,165	-0,233	-0,127
156,560	133,879	-0,314	-0,284
157,575	-99,708	-0,276	-0,048
158,589	15,339	-0,233	-0,127
159,604	63,988	-0,168	-0,118
160,619	8,279	-0,258	-0,135
161,633	244,748	-0,205	-0,240
162,648	135,801	-0,209	-0,189
163,662	95,537	-0,200	-0,159
164,677	60,642	-0,171	-0,118
165,692	8,174	-0,218	-0,114
166,706	800,000	-0,103	-0,308
167,721	151,609	-0,312	-0,296
168,735	201,298	-0,221	-0,237
169,750	20,296	-0,340	-0,191
170,764	-15,635	-0,248	-0,110
171,779	46,242	-0,239	-0,154
172,794	13,179	-0,257	-0,138
173,808	150,645	-0,168	-0,159
174,823	131,222	-0,192	-0,172
175,837	294,994	-0,209	-0,267
176,852	495,327	-0,190	-0,304
177,867	-4,273	-0,213	-0,102
178,881	-151,882	-0,174	-0,009
179,896	214,361	-0,126	-0,139
180,910	159,210	-0,272	-0,263
181,925	102,395	-0,353	-0,287
182,940	-56,323	-0,355	-0,109
183,954	254,227	-0,131	-0,156
184,969	427,146	-0,133	-0,201
185,983	-116,519	-0,334	-0,042
186,998	70,594	-0,122	-0,088
188,013	-28,888	-0,282	-0,112
189,027	40,586	-0,195	-0,122
190,042	519,887	-0,156	-0,255
191,056	26,464	-0,232	-0,135
192,071	252,283	-0,114	-0,135
193,086	194,621	-0,133	-0,140
194,100	17,514	-0,156	-0,086
195,115	800,000	-0,099	-0,200
196,129	72,608	-0,247	-0,179
197,144	-57,147	-0,241	-0,073
198,159	87,225	-0,227	-0,174
199,173	23,374	-0,189	-0,108
200,188	33,847	-0,243	-0,146
201,202	0,349	-0,177	-0,087
202,217	800,000	-0,081	-0,205
203,232	-117,830	-0,114	-0,014
204,246	-65,743	-0,250	-0,069
205,261	131,783	-0,235	-0,210
206,275	34,914	-0,212	-0,129
207,290	800,000	-0,061	-0,161
208,304	-20,339	-0,139	-0,059
209,319	-200,000	-0,039	-0,131
210,334	115,139	-0,255	-0,216
211,348	800,000	-0,143	-0,287
212,363	-14,217	-0,361	-0,161
213,377	-47,300	-0,285	-0,096
214,392	192,222	-0,195	-0,204
215,407	157,181	-0,155	-0,149
216,421	-200,000	-0,013	-0,135
217,436	518,052	-0,132	-0,215
218,450	178,667	-0,173	-0,176
219,465	-60,251	-0,219	-0,064
220,480	-87,835	-0,192	-0,040
221,494	-200,000	0,031	-0,287
222,509	588,942	-0,118	-0,203
223,523	-103,948	-0,187	-0,030
224,538	155,031	-0,104	-0,100
225,553	516,526	-0,174	-0,283
226,567	83,538	-0,238	-0,179
227,582	93,525	-0,235	-0,184
228,596	-82,608	-0,161	-0,036
229,611	-114,602	-0,306	-0,040
230,626	800,000	-0,078	-0,167
231,640	103,094	-0,178	-0,144
232,655	-49,246	-0,213	-0,070
233,669	50,751	-0,255	-0,167
234,684	-89,565	-0,192	-0,039
235,699	800,000	-0,071	-0,166
236,713	140,298	-0,168	-0,154
237,728	86,545	-0,138	-0,105
238,742	-65,458	-0,218	-0,060
239,757	529,698	-0,178	-0,293
240,772	800,000	-0,080	-0,173
241,786	800,000	-0,109	-0,257
242,801	60,016	-0,214	-0,146
243,815	136,332	-0,104	-0,093
244,830	-71,580	-0,188	-0,048
245,844	11,579	-0,099	-0,052
246,859	36,478	-0,151	-0,092
247,874	309,614	-0,149	-0,193
248,888	-145,042	-0,041	0,003
249,903	101,670	-0,241	-0,194
250,917	174,748	-0,140	-0,140
251,932	331,440	-0,090	-0,120
252,947	219,186	-0,183	-0,203
253,961	74,518	-0,289	-0,210
254,976	122,360	-0,207	-0,179
255,990	152,107	-0,139	-0,131
257,005	-132,999	-0,273	-0,024
258,020	173,245	-0,121	-0,120
259,034	393,359	-0,094	-0,136
260,049	495,823	-0,217	-0,345
261,063	-54,228	-0,226	-0,070
262,078	75,922	-0,140	-0,102
263,093	130,141	-0,220	-0,194
264,107	186,339	-0,098	-0,100
265,122	-6,047	-0,255	-0,120
266,136	207,481	-0,174	-0,188
267,151	-116,069	-0,286	-0,036
268,166	173,737	-0,092	-0,091
269,180	37,806	-0,169	-0,103
270,195	51,310	-0,207	-0,135
271,209	-158,167	-0,238	0,009
272,224	-200,000	0,026	-0,085
273,239	123,688	-0,161	-0,139
274,253	-11,629	-0,216	-0,098
275,268	-168,089	-0,306	-0,008
276,282	-32,709	-0,237	-0,090
277,297	-34,094	-0,251	-0,095
278,312	102,564	-0,191	-0,154
279,326	91,967	-0,134	-0,104
280,341	-46,540	-0,280	-0,094
281,355	-27,548	-0,123	-0,049
282,370	87,164	-0,057	-0,043
283,384	557,307	-0,094	-0,158
284,399	53,198	-0,228	-0,150
285,414	-88,556	-0,213	-0,043
286,428	16,719	-0,220	-0,120
287,443	5,279	-0,128	-0,065
288,457	-200,000	-0,031	-0,171
289,472	223,081	-0,185	-0,206
290,487	167,162	-0,296	-0,290
291,501	-28,550	-0,232	-0,092
292,516	-27,674	-0,160	-0,064
293,530	56,671	-0,230	-0,154
294,545	-56,547	-0,171	-0,052
295,560	122,611	-0,152	-0,131
296,574	-27,820	-0,187	-0,074
297,589	423,070	-0,115	-0,171
298,603	190,906	-0,192	-0,199
299,618	131,587	-0,218	-0,193
300,633	257,660	-0,160	-0,189
301,647	-58,816	-0,141	-0,042
302,662	59,179	-0,138	-0,093
303,676	310,742	-0,061	-0,079
304,691	57,062	-0,085	0,057
305,706	44,117	-0,151	-0,095
306,720	-102,773	-0,150	-0,024
307,735	-200,000	0,025	-0,103
308,749	-43,718	-0,157	0,054
309,764	800,000	-0,057	0,112
310,779	-143,504	-0,208	0,013
311,793	186,332	-0,152	-0,155
312,808	-200,000	-0,034	-0,116
313,822	121,303	-0,168	-0,144
314,837	-76,919	-0,146	-0,035
315,852	-182,376	-0,152	0,002
316,866	800,000	-0,045	-0,103
317,881	84,412	-0,078	0,059
318,895	37,611	-0,074	-0,045
319,910	254,944	-0,088	-0,104
320,925	-61,592	-0,122	-0,035
321,939	90,718	-0,189	-0,146
322,954	-53,123	-0,133	-0,042
323,968	127,804	-0,075	-0,065
324,983	149,074	-0,134	-0,124
325,997	-80,275	-0,106	-0,024
327,012	-88,926	-0,135	-0,027
328,027	513,060	-0,066	-0,107
329,041	135,822	-0,085	-0,076
330,056	-200,000	0,001	-0,134
331,070	253,761	0,011	0,013
332,085	-54,720	-0,171	0,053
333,100	177,646	-0,173	-0,173
334,114	800,000	-0,117	-0,270
335,129	578,055	-0,169	-0,285
336,143	-80,013	-0,128	-0,029
337,158	405,681	-0,127	-0,184
338,173	-200,000	-0,028	-0,172
339,187	25,664	-0,118	-0,067
340,202	-200,000	-0,027	-0,126
341,216	90,802	-0,077	-0,059
342,231	-111,320	-0,092	-0,013
343,246	111,072	-0,152	-0,126
344,260	-76,547	-0,216	-0,052
345,275	-200,000	-0,001	-0,110
346,289	-48,506	-0,263	-0,086
347,304	-106,574	-0,261	-0,039
348,319	800,000	-0,069	-0,178
349,333	800,000	-0,123	-0,256
350,348	-58,733	-0,084	-0,025
351,362	1,200	-0,090	-0,044
352,377	-112,990	-0,043	0,006
353,392	105,422	-0,092	-0,074
354,406	-137,777	-0,161	-0,012
355,421	207,234	1315,114	1406,728
356,435	159,405	1475,867	1407,195
