DTS Sentinel unit serial number:	SN410029Multiplexer serial number:	ORYXHardware model number:	OX2-SRSoftware version number:	ORYX F/W v4,00 Oryx Data Collector v3.7.2.0data status	okinstallation	B3 Nyhavnadifferential loss correction	single-endedforward channel	channel 1reverse channel	N/Adate	2023/11/30time	10:52:30forward acquisition time	300,00reverse acquisition time	0,00gamma	499,1914k internal	0,3211k external	0,3211temperature offset calibration	1,0000default loss term (dB/km)	0,3820temperature slope calibration	1,0000multiplexer offset coefficient	1,0000multiplexer slope coefficient	1,0000fibre end	0,00T internal ref (°C)	9,55T ext. ref 1 (°C)	-5,51T ext. ref 2 (°C)	-5,62length (m)	temperature (°C)	Stokes	anti-Stokes-744,400	800,000	-0,062	-0,185
-743,385	-200,000	-0,072	0,295
-742,371	-200,000	0,015	-0,306
-741,356	-200,000	0,009	0,263
-740,342	90,825	-0,282	-0,229
-739,327	-200,000	-0,018	0,209
-738,312	232,488	-0,143	-0,170
-737,298	166,942	-0,102	0,105
-736,283	442,268	-0,072	-0,115
-735,269	105,915	0,155	0,133
-734,254	435,479	-0,139	-0,220
-733,239	62,600	-0,253	0,183
-732,225	800,000	-0,076	-0,208
-731,210	-34,652	0,202	0,080
-730,196	252,985	-0,065	-0,080
-729,181	-95,966	0,062	-0,012
-728,167	-61,023	-0,056	0,017
-727,152	-200,000	-0,017	-0,131
-726,137	51,361	-0,122	-0,084
-725,123	192,355	-0,024	-0,026
-724,108	128,553	-0,138	-0,128
-723,094	5,313	-0,073	0,039
-722,079	557,534	-0,053	-0,093
-721,064	348,721	-0,022	0,031
-720,050	800,000	-0,035	0,096
-719,035	-106,002	-0,051	-0,008
-718,021	-200,000	-0,011	-0,118
-717,006	-200,000	-0,025	-0,158
-715,991	-200,000	0,014	-0,059
-714,977	294,457	-0,090	-0,120
-713,962	-85,449	0,206	0,046
-712,948	-128,022	-0,073	-0,008
-711,933	-200,000	0,002	0,082
-710,918	-200,000	-0,020	0,162
-709,904	41,683	-0,029	0,019
-708,889	327,117	-0,075	-0,104
-707,875	-200,000	-0,018	-0,065
-706,860	492,433	-0,038	-0,063
-705,845	10,343	0,058	-0,032
-704,831	-200,000	0,017	0,082
-703,816	-200,000	-0,009	-0,097
-702,802	-200,000	-0,007	-0,034
-701,787	138,170	0,100	-0,095
-700,772	-200,000	-0,013	-0,124
-699,758	512,260	-0,057	-0,096
-698,743	279,097	0,073	0,095
-697,729	-200,000	-0,006	-0,034
-696,714	512,305	-0,058	-0,098
-695,699	65,831	0,146	-0,107
-694,685	-186,119	0,077	0,001
-693,670	25,419	0,045	-0,027
-692,656	164,666	0,050	0,051
-691,641	25,717	0,079	-0,048
-690,627	94,342	-0,091	0,075
-689,612	800,000	0,049	0,112
-688,597	303,440	-0,072	-0,097
-687,583	146,090	-0,028	-0,027
-686,568	-200,000	0,002	-0,025
-685,554	-200,000	0,053	-0,185
-684,539	-200,000	0,005	0,076
-683,524	-200,000	-0,010	0,095
-682,510	238,355	-0,051	0,061
-681,495	-200,000	0,027	-0,139
-680,481	73,091	-0,125	-0,094
-679,466	204,507	-0,142	-0,159
-678,451	107,607	-0,018	0,015
-677,437	233,806	0,048	0,058
-676,422	-132,578	-0,095	0,009
-675,408	-200,000	-0,010	0,063
-674,393	-200,000	-0,000	0,106
-673,378	-51,644	-0,069	-0,023
-672,364	44,773	-0,075	-0,050
-671,349	64,754	0,083	-0,061
-670,335	-200,000	-0,013	-0,078
-669,320	-77,499	0,141	-0,035
-668,305	-200,000	-0,014	0,063
-667,291	-200,000	-0,005	0,129
-666,276	-80,366	0,046	0,011
-665,262	-27,156	-0,119	-0,050
-664,247	86,748	0,060	-0,048
-663,232	-200,000	0,009	-0,074
-662,218	-200,000	0,015	0,117
-661,203	-171,206	-0,043	-0,001
-660,189	-155,501	-0,098	-0,004
-659,174	-200,000	-0,013	-0,108
-658,159	-200,000	-0,036	-0,143
-657,145	296,885	-0,069	-0,091
-656,130	-92,336	0,093	-0,019
-655,116	800,000	-0,048	0,114
-654,101	39,171	-0,084	0,054
-653,086	-62,495	-0,097	-0,029
-652,072	744,670	0,038	0,074
-651,057	-139,331	-0,164	0,013
-650,043	-22,170	-0,083	-0,036
-649,028	473,967	-0,032	-0,052
-648,014	527,024	-0,059	0,100
-646,999	-200,000	-0,004	0,077
-645,984	385,442	-0,059	0,089
-644,970	144,510	0,091	-0,088
-643,955	299,874	0,039	-0,052
-642,941	56,219	-0,189	-0,132
-641,926	21,139	0,040	0,023
-640,911	-22,113	-0,127	0,055
-639,897	-200,000	0,006	-0,104
-638,882	-47,428	-0,082	0,029
-637,868	84,705	-0,067	-0,053
-636,853	-116,193	-0,127	0,017
-635,838	237,043	-0,100	-0,119
-634,824	800,000	-0,032	-0,066
-633,809	-14,492	0,125	0,058
-632,795	-200,000	0,041	0,159
-631,780	-49,535	0,175	0,060
-630,765	-41,362	-0,198	-0,073
-629,751	629,022	0,058	0,107
-628,736	800,000	-0,026	0,054
-627,722	184,532	0,049	0,052
-626,707	12,638	-0,070	-0,039
-625,692	-124,437	0,156	0,017
-624,678	-200,000	-0,003	-0,047
-623,663	-50,778	-0,044	-0,015
-622,649	461,548	-0,022	-0,035
-621,634	-127,828	-0,131	-0,013
-620,619	-34,090	-0,171	-0,067
-619,605	141,515	0,071	0,068
-618,590	-39,969	-0,152	0,057
-617,576	-200,000	-0,013	0,054
-616,561	252,244	-0,059	0,073
-615,546	-75,846	-0,114	-0,029
-614,532	155,791	-0,049	-0,049
-613,517	-200,000	-0,007	-0,079
-612,503	452,373	-0,052	0,083
-611,488	256,692	0,084	-0,104
-610,474	84,577	0,022	-0,018
-609,459	800,000	-0,025	-0,057
-608,444	33,787	-0,053	0,033
-607,430	-91,904	-0,035	-0,007
-606,415	453,465	-0,069	-0,111
-605,401	68,345	0,070	0,051
-604,386	-117,908	0,055	-0,007
-603,371	-150,129	0,166	0,009
-602,357	-200,000	-0,020	0,090
-601,342	725,458	-0,079	-0,153
-600,328	732,878	0,022	-0,043
-599,313	-78,767	-0,019	-0,005
-598,298	20,880	-0,079	0,046
-597,284	-200,000	-0,006	0,085
-596,269	-200,000	0,037	-0,144
-595,255	757,828	0,084	-0,165
-594,240	-200,000	-0,019	-0,115
-593,225	180,604	-0,047	-0,050
-592,211	-71,191	-0,059	0,016
-591,196	315,532	0,004	-0,005
-590,182	-139,418	-0,087	0,007
-589,167	-200,000	0,005	-0,131
-588,152	186,415	-0,056	0,060
-587,138	54,692	0,214	-0,149
-586,123	-122,426	-0,092	-0,011
-585,109	-113,999	-0,015	-0,002
-584,094	-200,000	0,002	0,079
-583,079	254,557	-0,058	-0,072
-582,065	-109,036	-0,089	-0,013
-581,050	-25,934	0,102	0,043
-580,036	-200,000	-0,029	0,108
-579,021	-28,921	-0,059	-0,024
-578,006	62,679	-0,052	-0,037
-576,992	333,368	0,030	0,042
-575,977	-200,000	0,039	0,137
-574,963	-59,488	-0,161	0,049
-573,948	3,209	-0,121	-0,063
-572,934	797,320	-0,034	-0,068
-571,919	-200,000	-0,004	0,019
-570,904	145,764	-0,202	-0,195
-569,890	-14,604	0,093	-0,043
-568,875	546,668	0,070	-0,122
-567,861	146,368	0,068	0,066
-566,846	167,066	-0,065	0,066
-565,831	263,094	-0,037	-0,047
-564,817	800,000	0,054	-0,108
-563,802	-200,000	-0,004	-0,212
-562,788	33,331	-0,018	0,011
-561,773	142,046	0,057	0,054
-560,758	-45,922	-0,127	0,045
-559,744	-200,000	0,015	-0,059
-558,729	405,693	0,078	-0,119
-557,715	-200,000	-0,013	-0,129
-556,700	-200,000	0,022	0,101
-555,685	-53,844	-0,211	-0,069
-554,671	223,473	-0,019	0,022
-553,656	315,109	0,092	0,125
-552,642	9,363	0,053	-0,029
-551,627	183,444	-0,041	0,043
-550,612	-200,000	0,026	-0,092
-549,598	-149,256	-0,125	-0,007
-548,583	-200,000	0,011	-0,125
-547,569	-50,142	0,075	0,025
-546,554	-12,304	0,087	0,041
-545,539	237,959	0,040	0,048
-544,525	-93,866	0,122	-0,024
-543,510	-71,151	-0,080	-0,021
-542,496	740,269	-0,039	-0,077
-541,481	-200,000	-0,017	-0,067
-540,466	-182,247	0,186	-0,002
-539,452	135,615	0,065	-0,061
-538,437	-200,000	0,023	0,101
-537,423	-91,433	0,079	0,016
-536,408	-200,000	0,013	-0,051
-535,393	100,240	0,028	-0,024
-534,379	60,983	-0,094	0,067
-533,364	-200,000	0,010	0,085
-532,350	-161,985	-0,029	-0,001
-531,335	529,932	0,018	-0,031
-530,321	-184,808	0,064	-0,001
-529,306	265,431	-0,060	-0,075
-528,291	52,042	0,054	-0,037
-527,277	483,089	-0,063	-0,104
-526,262	-69,054	-0,109	-0,030
-525,248	148,167	0,072	-0,070
-524,233	1,314	0,090	-0,046
-523,218	276,843	-0,026	0,033
-522,204	53,112	0,137	-0,094
-521,189	-26,603	-0,073	-0,030
-520,175	800,000	-0,031	-0,071
-519,160	-145,259	0,048	-0,003
-518,145	-72,374	-0,084	0,022
-517,131	-2,131	-0,179	0,090
-516,116	-58,928	-0,178	-0,055
-515,102	286,217	-0,046	-0,060
-514,087	-94,448	-0,151	0,029
-513,072	412,501	0,100	-0,153
-512,058	-200,000	-0,020	0,083
-511,043	-200,000	0,009	0,080
-510,029	463,191	-0,031	0,050
-509,014	-36,352	0,048	-0,018
-507,999	308,655	-0,052	0,070
-506,985	-200,000	0,022	-0,076
-505,970	163,271	-0,039	0,039
-504,956	-21,825	-0,031	0,013
-503,941	800,000	0,060	-0,148
-502,926	800,000	-0,064	0,186
-501,912	256,174	-0,082	0,101
-500,897	-11,411	-0,143	0,067
-499,883	124,755	0,028	0,026
-498,868	300,481	-0,091	-0,121
-497,853	-29,560	-0,140	0,057
-496,839	433,697	0,066	-0,103
-495,824	-34,295	0,173	-0,068
-494,810	800,000	-0,042	0,119
-493,795	-182,770	-0,072	0,001
-492,781	800,000	0,027	-0,056
-491,766	-30,394	0,095	-0,039
-490,751	-200,000	-0,004	0,035
-489,737	25,726	-0,068	-0,041
-488,722	-113,547	0,125	-0,017
-487,708	123,100	0,120	0,108
-486,693	-74,410	0,105	0,027
-485,678	-16,530	-0,114	-0,052
-484,664	800,000	0,025	-0,076
-483,649	-111,201	-0,073	-0,011
-482,635	-200,000	0,007	-0,061
-481,620	36,631	-0,019	-0,012
-480,605	-43,480	0,155	0,056
-479,591	-82,159	-0,166	0,039
-478,576	-45,238	0,083	-0,029
-477,562	-96,181	-0,116	0,022
-476,547	-200,000	0,023	-0,142
-475,532	-81,413	-0,126	-0,029
-474,518	-200,000	-0,006	-0,080
-473,503	291,042	-0,026	0,033
-472,489	-35,714	0,156	-0,060
-471,474	-200,000	0,006	-0,045
-470,459	-161,208	0,081	-0,003
-469,445	655,050	-0,034	0,062
-468,430	474,358	0,036	0,058
-467,416	41,252	0,042	0,027
-466,401	800,000	-0,038	0,090
-465,386	-4,577	0,086	-0,043
-464,372	-89,513	-0,102	0,021
-463,357	-200,000	-0,007	-0,062
-462,343	-183,875	-0,105	0,001
-461,328	47,194	0,110	0,073
-460,313	-16,542	0,111	0,050
-459,299	20,998	0,021	-0,012
-458,284	-200,000	0,011	0,143
-457,270	-4,380	0,029	-0,015
-456,255	-8,469	0,101	0,049
-455,241	192,906	-0,031	-0,033
-454,226	-79,075	0,066	0,016
-453,211	-122,313	-0,029	-0,003
-452,197	222,562	-0,056	-0,064
-451,182	-200,000	0,001	-0,024
-450,168	-38,082	-0,148	0,056
-449,153	800,000	-0,029	-0,075
-448,138	77,065	-0,047	0,036
-447,124	0,867	-0,060	0,031
-446,109	10,503	0,136	0,074
-445,095	-200,000	-0,031	0,110
-444,080	97,497	0,120	0,099
-443,065	-200,000	0,002	0,129
-442,051	82,534	-0,155	0,121
-441,036	800,000	0,027	-0,056
-440,022	-5,820	-0,150	-0,073
-439,007	-176,232	-0,044	0,001
-437,992	-200,000	-0,003	0,087
-436,978	-200,000	-0,005	0,017
-435,963	365,244	-0,109	-0,158
-434,949	-127,226	0,130	0,013
-433,934	249,793	-0,048	-0,058
-432,919	55,484	0,048	0,033
-431,905	800,000	0,065	-0,180
-430,890	-200,000	0,016	0,109
-429,876	-58,807	0,145	0,045
-428,861	273,665	0,111	0,141
-427,846	716,151	-0,059	-0,112
-426,832	-200,000	0,007	0,050
-425,817	348,474	0,036	-0,051
-424,803	-39,847	0,063	-0,023
-423,788	713,191	0,043	-0,082
-422,773	358,238	0,026	0,037
-421,759	-200,000	-0,010	-0,054
-420,744	102,536	0,089	-0,074
-419,730	-103,912	0,115	0,019
-418,715	-31,034	-0,048	0,019
-417,701	63,071	0,105	-0,075
-416,686	68,117	0,165	-0,121
-415,671	157,102	0,099	0,098
-414,657	-200,000	0,003	-0,048
-413,642	-200,000	0,006	-0,064
-412,628	-113,054	0,102	-0,014
-411,613	-92,524	0,067	-0,013
-410,598	65,718	-0,067	0,049
-409,584	83,401	-0,003	0,002
-408,569	275,879	0,078	0,099
-407,555	800,000	0,020	0,056
-406,540	442,101	0,070	0,110
-405,525	-62,542	-0,142	0,042
-404,511	-200,000	-0,039	-0,158
-403,496	-200,000	-0,001	-0,036
-402,482	-200,000	0,041	0,146
-401,467	143,287	0,145	0,138
-400,452	651,347	0,048	0,089
-399,438	440,743	-0,047	0,074
-398,423	-58,491	0,086	-0,026
-397,409	800,000	-0,052	0,112
-396,394	-30,373	-0,041	-0,017
-395,379	235,115	-0,038	0,045
-394,365	-54,683	0,052	0,017
-393,350	109,773	0,081	0,069
-392,336	95,382	-0,021	0,017
-391,321	-103,690	-0,015	-0,003
-390,306	613,556	0,018	0,033
-389,292	-56,303	-0,147	-0,046
-388,277	-200,000	0,007	0,022
-387,263	0,522	0,085	0,043
-386,248	-89,762	-0,110	0,023
-385,233	-200,000	0,044	0,224
-384,219	-110,010	0,058	0,009
-383,204	531,737	-0,036	-0,061
-382,190	-162,692	-0,127	0,004
-381,175	-200,000	0,031	0,106
-380,160	-133,156	0,065	0,006
-379,146	1,942	-0,103	0,053
-378,131	-6,451	-0,046	-0,023
-377,117	102,548	0,038	-0,032
-376,102	676,705	-0,087	-0,162
-375,088	800,000	0,023	0,058
-374,073	335,501	-0,034	-0,047
-373,058	-80,531	-0,071	0,017
-372,044	800,000	0,040	0,114
-371,029	144,246	0,098	0,093
-370,015	578,160	0,034	-0,061
-369,000	274,968	-0,058	-0,073
-367,985	153,884	-0,060	-0,059
-366,971	100,355	-0,075	-0,062
-365,956	-80,384	0,089	0,021
-364,942	6,322	0,150	0,080
-363,927	87,759	-0,049	0,039
-362,912	-88,845	0,111	0,023
-361,898	-5,804	-0,049	-0,024
-360,883	54,649	-0,098	-0,068
-359,869	-200,000	0,002	-0,031
-358,854	-41,963	0,051	0,019
-357,839	-29,333	0,031	-0,013
-356,825	-200,000	0,053	-0,178
-355,810	-200,000	0,018	-0,090
-354,796	-200,000	-0,025	0,080
-353,781	-167,916	0,054	-0,001
-352,766	67,521	0,026	-0,019
-351,752	-75,969	0,074	-0,019
-350,737	-88,120	0,172	0,037
-349,723	-200,000	-0,005	-0,082
-348,708	-59,253	0,108	-0,033
-347,693	-9,715	-0,094	-0,044
-346,679	-10,359	0,078	0,037
-345,664	-2,807	-0,069	-0,034
-344,650	-69,382	-0,038	-0,010
-343,635	-200,000	-0,009	0,126
-342,620	504,077	0,094	-0,156
-341,606	-200,000	0,012	0,190
-340,591	800,000	0,061	0,129
-339,577	-200,000	-0,007	0,060
-338,562	242,614	-0,070	0,084
-337,548	-131,274	-0,094	-0,009
-336,533	147,040	0,075	0,072
-335,518	242,765	0,042	0,050
-334,504	112,414	0,035	0,030
-333,489	-200,000	-0,010	0,054
-332,475	-34,795	-0,024	-0,009
-331,460	-155,233	-0,110	0,005
-330,445	213,731	-0,088	-0,099
-329,431	9,965	0,039	-0,021
-328,416	160,316	0,041	0,040
-327,402	138,354	0,066	0,062
-326,387	800,000	-0,043	-0,125
-325,372	-151,697	-0,131	-0,007
-324,358	201,054	0,025	0,028
-323,343	-13,698	-0,053	-0,024
-322,329	-200,000	0,012	-0,086
-321,314	-10,784	0,099	0,047
-320,299	-15,703	0,044	-0,020
-319,285	-16,617	-0,099	0,044
-318,270	-200,000	-0,007	0,030
-317,256	298,939	-0,032	-0,042
-316,241	-117,263	-0,100	-0,013
-315,226	-200,000	0,013	0,054
-314,212	-200,000	-0,006	-0,040
-313,197	-200,000	0,016	0,105
-312,183	-29,495	-0,075	-0,030
-311,168	42,911	-0,101	-0,066
-310,153	-104,597	-0,125	-0,020
-309,139	-96,488	-0,088	0,016
-308,124	-200,000	0,026	-0,098
-307,110	107,087	0,121	0,103
-306,095	-43,197	-0,029	-0,010
-305,080	-86,444	-0,159	0,035
-304,066	75,467	0,044	0,033
-303,051	-200,000	-0,019	0,114
-302,037	-200,000	0,016	-0,087
-301,022	-68,102	0,088	0,024
-300,008	800,000	0,028	-0,074
-298,993	68,457	-0,027	-0,020
-297,978	-131,286	-0,183	-0,017
-296,964	-200,000	0,003	0,057
-295,949	97,184	0,075	0,062
-294,935	-137,488	-0,077	0,006
-293,920	800,000	0,050	-0,126
-292,905	8,177	0,081	0,043
-291,891	146,676	0,078	0,075
-290,876	800,000	-0,023	0,062
-289,862	-188,614	0,056	0,000
-288,847	800,000	-0,038	-0,103
-287,832	800,000	-0,040	-0,081
-286,818	800,000	0,043	-0,126
-285,803	-54,119	0,071	-0,023
-284,789	-200,000	0,006	-0,042
-283,774	43,885	0,079	0,051
-282,759	800,000	-0,041	0,100
-281,745	427,813	-0,072	-0,110
-280,730	-100,102	-0,122	-0,021
-279,716	667,429	0,065	-0,120
-278,701	-99,133	0,098	-0,017
-277,686	131,486	-0,076	0,070
-276,672	-200,000	0,008	0,110
-275,657	-117,361	-0,029	0,004
-274,643	612,871	0,031	-0,056
-273,628	287,519	-0,022	0,029
-272,613	158,921	-0,064	-0,063
-271,599	619,392	0,069	0,124
-270,584	-75,828	0,141	-0,035
-269,570	-45,673	0,072	-0,025
-268,555	577,733	-0,046	-0,081
-267,540	-11,004	0,125	-0,058
-266,526	427,509	-0,044	-0,068
-265,511	-200,000	-0,015	-0,068
-264,497	-85,149	-0,067	-0,015
-263,482	35,994	0,099	-0,062
-262,467	-130,076	-0,054	0,005
-261,453	38,615	0,081	0,051
-260,438	-200,000	0,000	-0,019
-259,424	-200,000	-0,057	-0,200
-258,409	259,076	0,059	-0,072
-257,395	460,333	0,077	0,122
-256,380	479,167	-0,031	0,050
-255,365	-19,633	-0,009	-0,004
-254,351	319,992	0,049	0,066
-253,336	-200,000	-0,013	0,053
-252,322	425,890	-0,085	-0,131
-251,307	439,141	-0,101	-0,157
-250,292	-52,438	0,100	0,033
-249,278	-200,000	-0,008	0,135
-248,263	800,000	-0,031	-0,094
-247,249	24,048	-0,056	0,033
-246,234	800,000	-0,054	-0,143
-245,219	10,605	-0,093	-0,050
-244,205	115,473	0,069	-0,060
-243,190	-80,807	0,029	-0,007
-242,176	2,597	0,109	0,056
-241,161	-200,000	-0,025	-0,078
-240,146	-44,870	0,104	-0,037
-239,132	-200,000	-0,007	-0,043
-238,117	-18,069	-0,132	-0,059
-237,103	388,191	-0,046	-0,067
-236,088	-200,000	0,011	0,136
-235,073	-200,000	0,012	0,060
-234,059	252,442	0,024	0,029
-233,044	-110,646	-0,013	0,002
-232,030	-136,020	0,158	-0,013
-231,015	56,114	-0,048	-0,033
-230,000	-200,000	0,038	0,128
-228,986	800,000	-0,040	-0,110
-227,971	341,674	0,033	-0,046
-226,957	715,575	0,026	-0,049
-225,942	33,996	0,151	0,093
-224,927	-200,000	0,006	-0,027
-223,913	800,000	-0,020	0,042
-222,898	-159,005	-0,135	-0,005
-221,884	250,012	0,056	0,067
-220,869	800,000	0,046	0,111
-219,855	800,000	0,019	-0,041
-218,840	77,091	-0,059	0,044
-217,825	800,000	-0,022	0,049
-216,811	-200,000	-0,043	-0,137
-215,796	-200,000	-0,018	0,057
-214,782	-200,000	0,008	0,067
-213,767	800,000	0,016	-0,047
-212,752	-44,720	-0,072	-0,026
-211,738	-3,876	0,125	0,061
-210,723	800,000	-0,012	-0,029
-209,709	-126,963	0,040	-0,004
-208,694	408,585	0,042	0,063
-207,679	-8,389	-0,079	-0,038
-206,665	-96,827	0,184	0,034
-205,650	-132,617	0,019	0,002
-204,636	376,314	0,115	0,167
-203,621	-200,000	0,022	0,132
-202,606	61,025	0,073	-0,052
-201,592	-200,000	-0,011	0,066
-200,577	800,000	-0,038	0,104
-199,563	113,304	-0,025	-0,021
-198,548	80,045	0,044	0,034
-197,533	-16,794	-0,106	0,047
-196,519	135,726	-0,046	-0,043
-195,504	434,845	0,050	0,077
-194,490	29,857	-0,138	-0,083
-193,475	800,000	0,024	-0,066
-192,460	576,174	0,064	-0,111
-191,446	800,000	0,100	0,199
-190,431	800,000	0,036	0,074
-189,417	-118,832	-0,087	-0,011
-188,402	464,716	0,068	-0,109
-187,387	114,624	-0,097	-0,083
-186,373	-120,513	0,087	0,010
-185,358	800,000	-0,012	-0,029
-184,344	-92,043	-0,057	0,011
-183,329	434,039	0,068	-0,105
-182,315	-198,749	0,097	0,000
-181,300	-132,342	-0,228	-0,021
-180,285	476,747	0,047	-0,075
-179,271	-200,000	-0,015	-0,141
-178,256	-200,000	-0,007	0,087
-177,242	177,417	-0,035	-0,036
-176,227	52,805	0,168	0,114
-175,212	-51,037	0,037	-0,012
-174,198	-200,000	0,017	0,086
-173,183	-200,000	0,024	-0,138
-172,169	-186,182	-0,069	0,001
-171,154	-200,000	0,029	0,178
-170,139	-46,193	0,019	0,007
-169,125	431,884	-0,059	0,091
-168,110	383,786	0,083	0,121
-167,096	188,005	0,068	0,072
-166,081	-200,000	-0,025	0,228
-165,066	0,554	-0,002	0,001
-164,052	109,260	0,107	0,091
-163,037	446,516	-0,070	0,110
-162,023	23,488	0,077	0,045
-161,008	-200,000	0,022	-0,080
-159,993	182,758	0,088	0,093
-158,979	97,457	-0,082	-0,066
-157,964	-50,995	0,136	0,045
-156,950	-62,694	-0,044	0,013
-155,935	-200,000	0,006	0,165
-154,920	-200,000	0,003	0,077
-153,906	-60,126	-0,081	0,024
-152,891	-105,111	-0,029	0,005
-151,877	-118,090	0,088	-0,011
-150,862	89,251	-0,114	-0,090
-149,847	-0,993	-0,127	-0,064
-148,833	-68,841	-0,159	0,043
-147,818	2,288	0,036	-0,018
-146,804	264,525	0,089	0,110
-145,789	-107,852	0,098	0,015
-144,775	416,284	-0,074	0,112
-143,760	800,000	0,028	-0,082
-142,745	800,000	-0,042	-0,097
-141,731	40,955	-0,031	-0,020
-140,716	800,000	-0,037	0,100
-139,702	-20,441	0,120	-0,052
-138,687	-116,525	-0,124	0,016
-137,672	-200,000	0,005	0,075
-136,658	18,575	-0,113	0,064
-135,643	-200,000	0,017	-0,081
-134,629	189,407	-0,067	-0,072
-133,614	-82,441	0,132	-0,030
-132,599	731,859	0,069	0,131
-131,585	8,743	0,083	-0,044
-130,570	16,302	-0,026	-0,015
-129,556	-27,530	-0,141	-0,058
-128,541	-61,947	-0,067	-0,020
-127,526	800,000	-0,013	-0,027
-126,512	-200,000	-0,020	0,079
-125,497	800,000	-0,057	0,151
-124,483	-200,000	0,014	-0,091
-123,468	-200,000	-0,004	-0,031
-122,453	128,539	-0,003	-0,003
-121,439	182,014	-0,063	0,066
-120,424	-200,000	0,046	0,147
-119,410	-200,000	-0,032	0,103
-118,395	-110,642	0,068	0,010
-117,380	-200,000	0,002	-0,032
-116,366	156,774	-0,045	-0,044
-115,351	70,662	-0,043	-0,031
-114,337	573,388	-0,058	-0,101
-113,322	334,314	-0,075	0,104
-112,307	-200,000	0,020	-0,131
-111,293	222,454	-0,095	0,108
-110,278	-144,885	0,126	0,008
-109,264	80,761	-0,036	0,027
-108,249	-200,000	0,003	0,020
-107,234	800,000	-0,035	-0,093
-106,220	-69,450	-0,084	0,023
-105,205	546,311	-0,056	-0,096
-104,191	-200,000	0,007	0,030
-103,176	-69,337	-0,031	-0,008
-102,162	-26,007	-0,082	0,034
-101,147	-120,009	0,081	-0,010
-100,132	-153,825	-0,239	0,011
-99,118	-200,000	0,009	-0,069
-98,103	-30,505	0,117	0,047
-97,089	-32,294	0,046	-0,018
-96,074	-163,969	0,011	0,000
-95,059	182,023	0,034	0,036
-94,045	-142,974	-0,116	0,008
-93,030	-200,000	0,039	0,196
-92,016	-24,902	-0,086	0,036
-91,001	164,866	-0,093	-0,093
-89,986	-175,032	0,121	-0,002
-88,972	-200,000	-0,026	0,139
-87,957	217,708	-0,028	-0,031
-86,943	-2,643	-0,029	-0,014
-85,928	9,194	-0,042	0,022
-84,913	-200,000	-0,037	0,223
-83,899	800,000	-0,005	-0,012
-82,884	2,591	0,058	-0,029
-81,870	165,839	0,041	-0,041
-80,855	-200,000	-0,030	-0,138
-79,840	269,523	-0,043	-0,053
-78,826	28,727	0,051	-0,030
-77,811	2,269	-0,107	0,054
-76,797	112,963	-0,039	0,033
-75,782	800,000	-0,042	0,101
-74,767	800,000	-0,005	0,012
-73,753	-110,071	0,143	-0,021
-72,738	-25,366	-0,024	-0,010
-71,724	13,984	-0,106	-0,058
-70,709	-200,000	0,003	-0,041
-69,694	-200,000	-0,008	0,151
-68,680	-144,422	0,096	-0,006
-67,665	406,565	-0,021	-0,032
-66,651	46,715	0,098	-0,064
-65,636	33,005	-0,074	0,045
-64,622	335,339	0,043	0,059
-63,607	86,611	-0,088	-0,069
-62,592	-200,000	0,004	0,014
-61,578	325,419	0,108	0,147
-60,563	-97,537	0,014	0,003
-59,549	-200,000	0,001	0,038
-58,534	60,479	-2,028	-1,416
-57,519	484,030	-1,203	-1,940
-56,505	-200,000	-0,300	-4,264
-55,490	458,693	0,956	1,506
-54,476	800,000	5,118	11,345
-53,461	-200,000	21,502	344,176
-52,446	800,000	763,144	2346,060
-51,432	548,162	1663,109	2821,841
-50,417	71,674	1659,199	1215,463
-49,403	17,322	1532,834	856,404
-48,388	11,346	1456,497	784,868
-47,373	19,425	1448,001	818,998
-46,359	14,886	1436,966	791,160
-45,344	9,672	1432,941	764,106
-44,330	9,629	1430,920	762,793
-43,315	9,586	1429,344	761,721
-42,300	9,572	1427,414	760,592
-41,286	9,621	1426,220	760,161
-40,271	9,563	1425,121	759,268
-39,257	9,607	1424,019	758,858
-38,242	9,604	1422,872	758,205
-37,227	9,643	1421,646	757,707
-36,213	9,614	1420,466	756,908
-35,198	9,624	1419,160	756,231
-34,184	9,671	1418,161	755,890
-33,169	9,579	1416,818	754,712
-32,154	9,610	1415,883	754,328
-31,140	9,630	1414,448	753,629
-30,125	9,709	1413,304	753,359
-29,111	9,657	1412,356	752,580
-28,096	9,632	1410,970	751,696
-27,082	9,592	1409,900	750,906
-26,067	9,566	1408,894	750,219
-25,052	9,622	1407,710	749,824
-24,038	9,636	1406,736	749,341
-23,023	9,596	1405,867	748,658
-22,009	9,636	1404,893	748,300
-20,994	9,557	1403,834	747,336
-19,979	9,520	1403,124	746,754
-18,965	9,559	1402,070	746,346
-17,950	9,500	1401,208	745,582
-16,936	9,512	1400,199	745,070
-15,921	9,485	1399,270	744,423
-14,906	9,483	1398,449	743,947
-13,892	9,509	1397,570	743,572
-12,877	9,489	1396,783	743,031
-11,863	9,471	1395,793	742,390
-10,848	9,500	1394,757	741,946
-9,833	9,449	1393,895	741,220
-8,819	9,388	1393,223	740,550
-7,804	9,357	1392,256	739,864
-6,790	9,353	1391,093	739,197
-5,775	9,368	1390,099	738,711
-4,760	9,382	1389,129	738,230
-3,746	9,402	1388,285	737,843
-2,731	9,399	1387,472	737,367
-1,717	9,401	1386,616	736,894
-0,702	9,393	1384,752	735,836
0,313	13,397	1296,995	707,499
1,327	29,316	687,954	411,271
2,342	46,337	118,750	77,509
3,356	-0,530	16,543	8,253
4,371	9,253	3,630	1,929
5,386	14,957	1,134	0,624
6,400	800,000	0,271	0,577
7,415	145,923	-0,149	-0,141
8,429	222,855	-0,202	-0,230
9,444	24,893	-0,406	-0,237
10,459	17,363	-0,383	-0,214
11,473	21,818	-0,272	-0,156
12,488	116,625	-0,205	-0,177
13,502	87,010	-0,359	-0,279
14,517	13,724	-0,298	-0,163
15,531	231,937	-0,262	-0,304
16,546	-32,360	-0,380	-0,149
17,561	-26,595	-0,333	-0,137
18,575	-80,651	-0,262	0,061
19,590	32,653	-0,201	-0,122
20,604	34,966	-0,211	-0,130
21,619	182,351	-0,457	-0,475
22,634	209,478	-0,333	-0,368
23,648	65,505	-0,452	-0,321
24,663	84,475	-0,303	-0,233
25,677	77,237	-0,342	-0,255
26,692	137,617	-0,268	-0,247
27,707	-41,159	-0,379	-0,137
28,721	125,305	-0,292	-0,259
29,736	185,846	-0,317	-0,331
30,750	101,132	-0,367	-0,301
31,765	158,544	-0,317	-0,310
32,780	53,568	-0,326	-0,220
33,794	231,272	-0,261	-0,301
34,809	57,291	-0,377	-0,259
35,823	669,225	-0,162	-0,295
36,838	24,722	-0,484	-0,281
37,853	17,959	-0,348	-0,194
38,867	110,401	-0,351	-0,296
39,882	8,991	-0,417	-0,221
40,896	98,185	-0,373	-0,302
41,911	38,504	-0,342	-0,214
42,926	36,970	-0,501	-0,311
43,940	110,720	-0,330	-0,279
44,955	17,622	-0,150	-0,083
45,969	97,518	-0,385	-0,311
46,984	89,398	-0,352	-0,275
47,999	19,798	-0,319	-0,180
49,013	136,035	-0,305	-0,279
50,028	-79,622	-0,327	-0,077
51,042	74,701	-0,290	-0,214
52,057	-13,997	-0,440	-0,199
53,071	87,873	-0,224	-0,174
54,086	266,058	-0,232	-0,285
55,101	74,751	-0,269	-0,199
56,115	-123,446	-0,270	-0,030
57,130	184,221	-0,205	-0,213
58,144	-33,113	-0,463	-0,179
59,159	277,389	-0,342	-0,428
60,174	100,804	-0,280	-0,229
61,188	120,357	-0,342	-0,298
62,203	70,859	-0,308	-0,223
63,217	88,777	-0,418	-0,326
64,232	108,679	-0,318	-0,267
65,247	135,713	-0,248	-0,227
66,261	81,035	-0,331	-0,250
67,276	121,684	-0,328	-0,287
68,290	102,064	-0,288	-0,236
69,305	34,768	-0,346	-0,212
70,320	-159,497	-0,343	-0,013
71,334	62,423	-0,331	-0,232
72,349	48,469	-0,269	-0,176
73,363	19,474	-0,435	-0,244
74,378	234,352	-0,264	-0,305
75,393	23,916	-0,251	-0,145
76,407	521,220	-0,145	-0,240
77,422	50,178	-0,396	-0,261
78,436	23,103	-0,340	-0,195
79,451	28,071	-0,325	-0,192
80,466	-22,710	-0,246	-0,104
81,480	-60,505	-0,431	-0,127
82,495	18,453	-0,194	-0,108
83,509	23,805	-0,296	-0,171
84,524	-131,705	-0,270	-0,024
85,539	49,589	-0,165	-0,109
86,553	171,825	-0,171	-0,172
87,568	-2,949	-0,436	-0,212
88,582	21,201	-0,144	-0,081
89,597	124,116	-0,216	-0,190
90,611	-35,660	-0,218	-0,082
91,626	166,880	-0,239	-0,238
92,641	-63,925	-0,270	-0,077
93,655	-42,359	-0,121	-0,043
94,670	-97,896	-0,367	-0,066
95,684	119,147	-0,332	-0,287
96,699	244,038	-0,262	-0,308
97,714	120,671	-0,256	-0,222
98,728	780,423	-0,165	-0,318
99,743	211,585	-0,238	-0,262
100,757	52,254	-0,268	-0,179
101,772	136,480	-0,299	-0,272
102,787	177,649	-0,287	-0,292
103,801	117,260	-0,282	-0,243
104,816	-125,536	-0,322	-0,034
105,830	102,224	-0,246	-0,201
106,845	-23,533	-0,293	-0,122
107,860	-55,703	-0,213	-0,066
108,874	60,994	-0,317	-0,220
109,889	-14,793	-0,315	-0,141
110,903	-30,296	-0,246	-0,097
111,918	13,013	-0,339	-0,182
112,933	38,439	-0,295	-0,183
113,947	-172,452	-0,287	-0,006
114,962	-0,007	-0,273	-0,135
115,976	25,023	-0,296	-0,171
116,991	6,373	-0,345	-0,178
118,006	143,478	-0,341	-0,317
119,020	189,534	-0,215	-0,225
120,035	-75,382	-0,171	-0,042
121,049	-0,470	-0,249	-0,123
122,064	-3,810	-0,326	-0,157
123,079	232,548	-0,214	-0,246
124,093	79,799	-0,219	-0,164
125,108	249,857	-0,170	-0,202
126,122	458,909	-0,159	-0,248
127,137	180,887	-0,202	-0,207
128,151	-17,306	-0,319	-0,140
129,166	-34,603	-0,141	-0,054
130,181	-165,772	-0,273	-0,008
131,195	292,979	-0,193	-0,246
132,210	-23,051	-0,161	-0,067
133,224	118,144	-0,251	-0,216
134,239	52,776	-0,255	-0,170
135,254	125,004	-0,164	-0,144
136,268	12,509	-0,248	-0,133
137,283	172,602	-0,226	-0,227
138,297	56,976	-0,330	-0,224
139,312	-52,741	-0,201	-0,064
140,327	-12,606	-0,278	-0,126
141,341	-43,619	-0,150	-0,053
142,356	5,244	-0,221	-0,113
143,370	16,311	-0,229	-0,125
144,385	137,728	-0,232	-0,212
145,400	-7,571	-0,324	-0,152
146,414	46,488	-0,235	-0,152
147,429	43,130	-0,365	-0,231
148,443	-2,309	-0,208	-0,101
149,458	-118,216	-0,244	-0,030
150,473	-69,578	-0,296	-0,078
151,487	687,825	-0,071	-0,129
152,502	-43,315	-0,282	-0,099
153,516	-52,712	-0,312	-0,100
154,531	187,419	-0,247	-0,257
155,546	-138,979	-0,224	0,017
156,560	10,537	-0,366	-0,193
157,575	45,130	-0,212	-0,136
158,589	-23,720	-0,226	-0,094
159,604	79,042	-0,156	-0,116
160,619	-29,355	-0,223	-0,089
161,633	432,546	-0,236	-0,357
162,648	54,540	-0,241	-0,161
163,662	55,022	-0,232	-0,156
164,677	332,977	-0,122	-0,164
165,692	-105,183	-0,205	-0,032
166,706	-24,846	-0,194	-0,080
167,721	44,855	-0,278	-0,177
168,735	392,931	-0,161	-0,233
169,750	384,006	-0,112	-0,161
170,764	258,044	-0,203	-0,243
171,779	222,265	-0,186	-0,208
172,794	90,518	-0,174	-0,135
173,808	-37,751	-0,356	-0,131
174,823	143,873	-0,242	-0,224
175,837	62,179	-0,259	-0,179
176,852	-111,621	-0,213	-0,030
177,867	8,954	-0,150	-0,078
178,881	270,724	-0,177	-0,217
179,896	45,076	-0,154	-0,098
180,910	126,813	-0,177	-0,155
181,925	800,000	-0,172	-0,410
182,940	282,164	-0,233	-0,290
183,954	202,493	-0,299	-0,321
184,969	108,863	-0,171	-0,142
185,983	181,171	-0,171	-0,174
186,998	800,000	-0,089	-0,230
188,013	-25,412	-0,286	-0,117
189,027	78,793	-0,304	-0,226
190,042	-83,659	-0,207	-0,046
191,056	502,615	-0,166	-0,268
192,071	287,663	-0,177	-0,222
193,086	52,138	-0,099	-0,065
194,100	353,219	-0,120	-0,166
195,115	14,232	-0,348	-0,187
196,129	-67,766	-0,145	-0,039
197,144	66,358	-0,194	-0,137
198,159	573,752	-0,187	-0,317
199,173	155,953	-0,165	-0,158
200,188	201,749	-0,148	-0,158
201,202	-59,515	-0,205	-0,061
202,217	195,992	-0,192	-0,203
203,232	-112,266	-0,235	-0,032
204,246	355,756	-0,190	-0,263
205,261	109,380	-0,151	-0,126
206,275	80,773	-0,199	-0,148
207,290	101,221	-0,205	-0,165
208,304	184,133	-0,176	-0,181
209,319	179,139	-0,180	-0,182
210,334	-99,462	-0,373	-0,064
211,348	-17,820	-0,292	-0,126
212,363	128,144	-0,221	-0,195
213,377	211,037	-0,219	-0,239
214,392	-188,620	-0,293	-0,002
215,407	-123,737	-0,192	-0,021
216,421	-200,000	-0,055	-0,180
217,436	-137,849	-0,323	0,025
218,450	694,238	-0,177	-0,323
219,465	161,993	-0,246	-0,238
220,480	480,684	-0,165	-0,260
221,494	536,331	-0,137	-0,227
222,509	10,877	-0,231	-0,122
223,523	-65,704	-0,129	-0,035
224,538	-0,221	-0,269	-0,132
225,553	58,641	-0,248	-0,168
226,567	-50,492	-0,195	-0,063
227,582	192,457	-0,160	-0,167
228,596	800,000	-0,121	-0,247
229,611	126,473	-0,115	-0,100
230,626	-141,986	-0,211	-0,014
231,640	-44,105	-0,203	-0,070
232,655	60,110	-0,256	-0,174
233,669	193,629	-0,141	-0,148
234,684	-132,995	-0,142	-0,012
235,699	160,659	-0,256	-0,247
236,713	77,047	-0,231	-0,170
237,728	40,081	-0,133	-0,082
238,742	213,164	-0,148	-0,161
239,757	-162,625	-0,241	0,008
240,772	17,248	-0,248	-0,135
241,786	92,391	-0,197	-0,153
242,801	215,598	-0,116	-0,128
243,815	-20,168	-0,174	0,074
244,830	-99,179	-0,161	-0,028
245,844	-200,000	-0,015	-0,215
246,859	800,000	-0,100	-0,206
247,874	130,667	-0,201	-0,178
248,888	800,000	-0,109	-0,226
249,903	268,019	-0,214	-0,260
250,917	63,292	-0,177	-0,122
251,932	83,352	-0,176	-0,132
252,947	-60,247	-0,204	0,060
253,961	-104,870	-0,163	0,026
254,976	291,297	-0,118	-0,149
255,990	35,333	-0,230	-0,139
257,005	188,034	-0,088	-0,090
258,020	-95,621	-0,189	0,035
259,034	-200,000	-0,006	-0,109
260,049	-117,441	-0,219	-0,027
261,063	-64,012	-0,181	-0,050
262,078	50,491	-0,295	-0,192
263,093	240,512	-0,221	-0,254
264,107	550,264	-0,099	-0,164
265,122	55,945	-0,181	-0,121
266,136	50,351	-0,073	-0,047
267,151	-139,891	-0,151	-0,011
268,166	137,586	-0,154	-0,139
269,180	540,292	-0,155	-0,254
270,195	71,207	-0,237	-0,169
271,209	41,152	-0,154	-0,096
272,224	105,321	-0,139	-0,113
273,239	690,819	-0,052	-0,094
274,253	-200,000	-0,015	-0,049
275,268	-88,714	-0,198	-0,040
276,282	-99,569	-0,126	0,022
277,297	800,000	-0,066	-0,141
278,312	488,500	-0,177	-0,279
279,326	-185,064	-0,181	-0,002
280,341	216,770	-0,189	-0,207
281,355	800,000	-0,060	-0,123
282,370	-20,758	-0,189	-0,080
283,384	-139,188	-0,097	0,007
284,399	800,000	-0,053	-0,104
285,414	70,808	-0,136	-0,097
286,428	-96,455	-0,189	-0,034
287,443	-23,551	-0,119	-0,049
288,457	800,000	-0,051	-0,132
289,472	-23,688	-0,167	-0,069
290,487	91,651	-0,207	-0,160
291,501	147,540	-0,147	-0,136
292,516	800,000	-0,044	-0,098
293,530	225,759	-0,023	-0,026
294,545	800,000	-0,054	-0,149
295,560	-200,000	-0,054	-0,208
296,574	86,421	-0,065	-0,049
297,589	-10,975	-0,161	0,073
298,603	-21,229	-0,129	-0,054
299,618	-200,000	-0,005	-0,187
300,633	16,814	-0,202	-0,109
301,647	-89,640	-0,103	0,021
302,662	-200,000	-0,157	0,000
303,676	307,920	-0,131	-0,168
304,691	229,211	-0,102	-0,115
305,706	-115,745	-0,171	0,022
306,720	487,391	-0,107	-0,168
307,735	135,445	-0,117	-0,104
308,749	800,000	-0,076	-0,153
309,764	40,464	-0,089	-0,055
310,779	-74,423	-0,183	-0,045
311,793	169,878	-0,150	-0,148
312,808	210,965	-0,126	-0,136
313,822	-2,507	-0,220	-0,105
314,837	676,138	-0,038	-0,068
315,852	469,496	0,031	-0,048
316,866	-37,424	-0,152	-0,055
317,881	143,025	-0,148	-0,135
318,895	129,689	-0,145	-0,127
319,910	169,829	-0,203	-0,199
320,925	219,546	-0,122	-0,134
321,939	-200,000	-0,042	-0,151
322,954	-14,742	-0,098	-0,043
323,968	-28,740	-0,090	0,035
324,983	-200,000	-0,003	0,012
325,997	-181,390	-0,169	-0,002
327,012	42,235	-0,093	0,058
328,027	-174,342	-0,142	0,003
329,041	67,745	-0,143	-0,100
330,056	800,000	-0,061	-0,123
331,070	-200,000	0,031	-0,154
332,085	-167,859	-0,060	-0,002
333,100	-20,397	-0,247	-0,104
334,114	74,147	-0,214	-0,154
335,129	610,070	-0,125	-0,214
336,143	112,074	-0,142	-0,117
337,158	-200,000	-0,036	-0,255
338,173	-200,000	-0,035	-0,211
339,187	-12,482	-0,290	-0,129
340,202	17,093	-0,125	-0,068
341,216	7,407	-0,149	-0,076
342,231	78,622	-0,214	-0,156
343,246	151,829	-0,214	-0,199
344,260	-140,044	-0,087	0,006
345,275	34,520	0,067	-0,040
346,289	-200,000	-0,008	-0,035
347,304	-8,184	-0,033	-0,015
348,319	178,857	-0,143	-0,143
349,333	101,293	-0,200	-0,159
350,348	-137,952	-0,064	-0,005
351,362	-25,976	-0,051	-0,020
352,377	-119,293	-0,135	0,016
353,392	-200,000	0,020	0,067
354,406	-48,991	-0,112	-0,037
355,421	207,701	1311,548	1401,938
356,435	159,794	1471,847	1402,422
