DTS Sentinel unit serial number:	SN410029Multiplexer serial number:	ORYXHardware model number:	OX2-SRSoftware version number:	ORYX F/W v4,00 Oryx Data Collector v3.7.2.0data status	okinstallation	B3 Nyhavnadifferential loss correction	single-endedforward channel	channel 1reverse channel	N/Adate	2023/12/01time	19:42:30forward acquisition time	300,00reverse acquisition time	0,00gamma	499,1914k internal	0,3198k external	0,3198temperature offset calibration	1,0000default loss term (dB/km)	0,3820temperature slope calibration	1,0000multiplexer offset coefficient	1,0000multiplexer slope coefficient	1,0000fibre end	0,00T internal ref (°C)	15,56T ext. ref 1 (°C)	1,36T ext. ref 2 (°C)	1,35length (m)	temperature (°C)	Stokes	anti-Stokes-744,400	188,412	-0,234	-0,255
-743,385	-200,000	-0,039	0,189
-742,371	500,317	-0,134	-0,225
-741,356	-200,000	-0,071	0,258
-740,342	80,697	-0,110	-0,086
-739,327	800,000	-0,118	0,368
-738,312	800,000	-0,110	-0,300
-737,298	-200,000	-0,025	0,305
-736,283	202,340	-0,135	-0,151
-735,269	-200,000	0,012	0,219
-734,254	327,823	-0,188	-0,264
-733,239	800,000	-0,121	0,263
-732,225	29,287	-0,193	-0,119
-731,210	471,854	0,100	0,164
-730,196	-200,000	0,019	0,085
-729,181	146,791	-0,068	-0,067
-728,167	-2,956	-0,187	-0,095
-727,152	87,649	-0,071	-0,057
-726,137	139,399	-0,043	0,042
-725,123	279,782	-0,127	-0,165
-724,108	-170,206	-0,157	-0,004
-723,094	-200,000	0,010	-0,310
-722,079	75,090	-0,093	-0,071
-721,064	14,690	-0,091	0,052
-720,050	-36,989	0,038	-0,015
-719,035	252,873	0,072	-0,089
-718,021	232,118	-0,025	-0,030
-717,006	-145,846	-0,054	-0,003
-715,991	-21,340	-0,129	-0,057
-714,977	-200,000	0,005	-0,043
-713,962	-25,336	0,150	0,064
-712,948	-32,322	-0,139	-0,056
-711,933	396,759	-0,012	-0,018
-710,918	-58,647	-0,030	-0,009
-709,904	97,643	0,080	0,067
-708,889	-200,000	0,008	-0,159
-707,875	800,000	-0,042	-0,091
-706,860	88,355	0,029	0,024
-705,845	129,320	-0,145	0,134
-704,831	282,626	0,064	-0,083
-703,816	-131,145	0,141	-0,013
-702,802	-124,619	-0,043	-0,005
-701,787	-9,435	-0,078	-0,038
-700,772	-200,000	-0,001	0,070
-699,758	48,640	0,170	-0,116
-698,743	-54,649	-0,134	0,044
-697,729	550,588	0,038	0,066
-696,714	-200,000	0,021	-0,074
-695,699	19,665	0,050	0,029
-694,685	-131,323	-0,147	-0,014
-693,670	-10,790	-0,078	-0,037
-692,656	-65,419	-0,104	0,030
-691,641	800,000	0,060	0,133
-690,627	800,000	-0,018	-0,037
-689,612	233,083	-0,055	0,066
-688,597	-94,893	-0,107	0,021
-687,583	-53,489	-0,065	0,021
-686,568	-200,000	0,019	-0,102
-685,554	-126,662	-0,083	-0,009
-684,539	670,587	0,027	-0,052
-683,524	467,254	-0,048	0,078
-682,510	800,000	0,032	-0,096
-681,495	-174,681	-0,148	-0,003
-680,481	-200,000	0,000	-0,080
-679,466	-200,000	0,001	-0,104
-678,451	295,706	-0,067	0,089
-677,437	-172,238	0,121	-0,003
-676,422	-200,000	0,026	0,104
-675,408	-200,000	-0,032	0,187
-674,393	569,046	-0,022	-0,039
-673,378	233,156	-0,099	-0,118
-672,364	122,670	-0,077	-0,070
-671,349	138,964	-0,050	0,047
-670,335	-200,000	-0,004	0,041
-669,320	-49,747	0,038	-0,013
-668,305	139,474	-0,070	0,067
-667,291	-84,094	-0,183	-0,042
-666,276	-62,298	-0,135	0,041
-665,262	-200,000	-0,007	-0,027
-664,247	108,499	-0,111	-0,096
-663,232	192,151	0,026	-0,028
-662,218	-31,140	0,070	-0,028
-661,203	-45,366	0,047	-0,017
-660,189	496,609	-0,081	-0,136
-659,174	136,064	-0,087	-0,083
-658,159	800,000	-0,048	-0,111
-657,145	-11,667	-0,169	-0,080
-656,130	88,287	0,040	0,032
-655,116	-200,000	-0,025	0,111
-654,101	800,000	-0,023	-0,047
-653,086	-59,918	-0,100	0,031
-652,072	-93,921	-0,150	-0,030
-651,057	524,264	0,043	-0,074
-650,043	-200,000	0,032	0,134
-649,028	167,102	0,053	-0,055
-648,014	100,656	-0,051	0,043
-646,999	-200,000	0,002	0,048
-645,984	98,205	-0,015	-0,013
-644,970	-98,027	-0,089	0,016
-643,955	57,848	0,005	0,004
-642,941	-64,946	-0,027	-0,008
-641,926	46,933	-0,062	0,042
-640,911	290,513	0,085	-0,112
-639,897	191,295	0,042	0,045
-638,882	155,391	-0,072	0,072
-637,868	-20,040	-0,094	-0,042
-636,853	297,809	0,066	-0,088
-635,838	-200,000	-0,030	-0,127
-634,824	-105,417	0,063	0,010
-633,809	-64,090	-0,050	0,015
-632,795	-46,313	-0,039	0,014
-631,780	70,107	-0,056	-0,042
-630,765	149,971	0,092	-0,090
-629,751	222,322	-0,055	0,064
-628,736	-200,000	0,001	-0,055
-627,722	276,846	-0,062	-0,080
-626,707	800,000	0,034	0,101
-625,692	-57,518	-0,120	0,038
-624,678	-200,000	-0,008	0,081
-623,663	8,945	-0,047	0,026
-622,649	-200,000	0,024	-0,087
-621,634	174,948	-0,096	-0,101
-620,619	-30,474	-0,057	0,023
-619,605	800,000	0,019	0,048
-618,590	517,726	-0,077	-0,131
-617,576	-34,553	0,150	-0,059
-616,561	138,808	-0,024	-0,023
-615,546	-200,000	-0,007	0,039
-614,532	-79,749	-0,199	0,048
-613,517	103,698	0,097	-0,083
-612,503	130,121	-0,064	-0,059
-611,488	276,202	0,052	-0,067
-610,474	-122,895	0,165	0,019
-609,459	-200,000	-0,001	0,061
-608,444	-200,000	0,004	0,101
-607,430	398,860	-0,044	0,067
-606,415	-200,000	-0,002	-0,199
-605,401	-124,382	0,208	-0,023
-604,386	193,532	-0,105	-0,115
-603,371	14,999	0,114	-0,064
-602,357	227,333	0,012	-0,014
-601,342	454,427	-0,053	-0,085
-600,328	-87,278	0,049	0,011
-599,313	800,000	-0,009	0,024
-598,298	-144,022	0,062	-0,004
-597,284	-80,761	0,071	0,017
-596,269	-120,561	-0,048	0,006
-595,255	-77,839	0,166	0,041
-594,240	-200,000	-0,005	0,041
-593,225	-104,589	-0,062	0,010
-592,211	-137,496	-0,139	-0,011
-591,196	800,000	-0,059	0,139
-590,182	-200,000	-0,013	0,069
-589,167	-200,000	-0,011	0,053
-588,152	167,497	-0,042	-0,043
-587,138	-148,915	0,044	0,003
-586,123	-20,303	0,106	0,047
-585,109	-121,927	0,192	-0,023
-584,094	67,733	-0,049	-0,036
-583,079	-200,000	-0,008	0,068
-582,065	-83,406	0,072	0,016
-581,050	214,975	0,073	0,084
-580,036	-155,939	-0,068	-0,003
-579,021	223,216	-0,124	-0,144
-578,006	-200,000	-0,014	-0,060
-576,992	800,000	-0,044	-0,125
-575,977	-200,000	0,019	0,065
-574,963	-200,000	0,020	0,072
-573,948	-200,000	0,017	-0,058
-572,934	800,000	-0,051	0,130
-571,919	560,128	-0,057	-0,100
-570,904	29,910	-0,095	-0,058
-569,890	624,501	0,047	-0,086
-568,875	140,906	0,040	0,038
-567,861	10,421	-0,063	-0,034
-566,846	-37,212	0,114	0,044
-565,831	-106,804	0,016	-0,003
-564,817	-165,322	-0,064	-0,002
-563,802	84,267	-0,041	0,032
-562,788	-161,492	-0,140	0,005
-561,773	-200,000	-0,018	0,113
-560,758	425,188	0,075	0,118
-559,744	-60,059	0,091	0,028
-558,729	60,991	-0,022	-0,016
-557,715	209,753	-0,098	-0,111
-556,700	800,000	-0,050	-0,100
-555,685	-22,529	-0,066	0,029
-554,671	-200,000	-0,009	0,050
-553,656	-200,000	-0,013	0,083
-552,642	-77,111	0,104	0,026
-551,627	-200,000	0,003	0,117
-550,612	-86,208	-0,055	-0,012
-549,598	-200,000	-0,038	0,129
-548,583	125,053	-0,109	-0,100
-547,569	-192,943	-0,041	0,000
-546,554	-200,000	0,006	-0,121
-545,539	-17,519	-0,026	0,012
-544,525	47,334	0,041	0,027
-543,510	-200,000	-0,025	-0,113
-542,496	-5,962	-0,162	-0,080
-541,481	-123,649	-0,169	-0,019
-540,466	185,913	-0,026	0,028
-539,452	583,350	-0,028	-0,049
-538,437	232,159	0,052	-0,062
-537,423	-200,000	-0,003	0,052
-536,408	-112,885	0,077	0,011
-535,393	-43,683	-0,072	-0,026
-534,379	800,000	-0,042	0,088
-533,364	-10,111	0,126	0,060
-532,350	-200,000	0,035	0,131
-531,335	800,000	0,053	-0,114
-530,321	-29,476	0,026	-0,011
-529,306	101,354	-0,080	0,067
-528,291	19,961	0,017	-0,010
-527,277	-200,000	-0,004	-0,078
-526,262	-91,768	-0,026	0,005
-525,248	308,080	0,140	0,189
-524,233	-200,000	-0,002	-0,124
-523,218	-200,000	0,001	-0,066
-522,204	204,919	-0,018	0,020
-521,189	-141,694	-0,235	-0,017
-520,175	318,473	0,068	-0,093
-519,160	-138,493	-0,048	-0,004
-518,145	-200,000	-0,000	0,110
-517,131	-85,335	-0,063	-0,014
-516,116	-95,715	0,156	-0,030
-515,102	800,000	-0,033	0,075
-514,087	360,295	0,010	-0,014
-513,072	-200,000	-0,011	-0,143
-512,058	-33,933	-0,047	0,018
-511,043	2,809	0,026	-0,014
-510,029	-48,949	0,126	-0,043
-509,014	36,740	0,079	-0,050
-507,999	151,898	-0,086	0,085
-506,985	-40,825	0,076	-0,028
-505,970	800,000	-0,028	0,068
-504,956	363,158	0,030	0,044
-503,941	-103,638	-0,072	0,012
-502,926	800,000	0,039	-0,089
-501,912	496,069	-0,061	0,101
-500,897	109,598	0,062	-0,054
-499,883	-30,552	-0,111	-0,045
-498,868	-45,837	-0,090	0,032
-497,853	164,920	-0,008	-0,008
-496,839	-14,030	-0,073	-0,034
-495,824	16,296	0,117	-0,066
-494,810	306,858	0,011	0,014
-493,795	151,446	0,056	-0,055
-492,781	-200,000	-0,002	0,135
-491,766	156,295	-0,061	-0,060
-490,751	775,509	0,041	-0,080
-489,737	195,908	-0,021	0,023
-488,722	-54,794	0,012	0,004
-487,708	-200,000	-0,012	-0,091
-486,693	548,469	-0,065	0,113
-485,678	-62,753	0,039	0,011
-484,664	33,391	-0,180	-0,112
-483,649	-200,000	-0,017	0,070
-482,635	316,123	0,019	0,025
-481,620	800,000	0,044	-0,104
-480,605	122,258	0,046	0,041
-479,591	-43,593	-0,054	-0,020
-478,576	-200,000	-0,030	-0,111
-477,562	352,015	-0,122	-0,174
-476,547	281,330	0,091	-0,118
-475,532	-80,526	0,198	-0,047
-474,518	-200,000	-0,016	-0,112
-473,503	-200,000	-0,001	0,282
-472,489	-23,932	-0,126	-0,054
-471,474	346,748	0,055	0,077
-470,459	-112,416	-0,044	-0,006
-469,445	622,545	-0,024	0,043
-468,430	-200,000	0,004	-0,044
-467,416	34,588	-0,048	0,030
-466,401	800,000	0,014	-0,036
-465,386	-16,876	0,097	-0,044
-464,372	277,026	0,034	0,043
-463,357	-200,000	0,002	0,035
-462,343	-180,860	-0,073	-0,001
-461,328	-43,983	-0,055	-0,020
-460,313	44,790	-0,083	0,055
-459,299	-200,000	-0,002	0,092
-458,284	-2,349	0,056	0,028
-457,270	289,158	-0,037	0,048
-456,255	540,649	0,015	0,025
-455,241	72,305	-0,141	-0,106
-454,226	191,145	-0,071	-0,077
-453,211	96,538	0,032	-0,026
-452,197	-75,729	0,076	-0,019
-451,182	-84,435	0,044	0,010
-450,168	-114,452	-0,074	-0,010
-449,153	-200,000	-0,012	0,065
-448,138	26,410	-0,089	-0,053
-447,124	29,854	0,042	-0,026
-446,109	800,000	0,035	-0,075
-445,095	163,486	-0,029	-0,029
-444,080	535,272	0,086	0,148
-443,065	-66,307	-0,061	-0,017
-442,051	-200,000	0,046	0,237
-441,036	-200,000	-0,007	-0,167
-440,022	392,476	0,055	-0,082
-439,007	800,000	0,032	-0,089
-437,992	144,426	0,039	0,038
-436,978	-22,017	-0,058	0,025
-435,963	18,779	0,181	0,104
-434,949	-200,000	0,015	-0,095
-433,934	800,000	-0,027	0,068
-432,919	197,891	-0,062	0,068
-431,905	-68,945	0,138	0,038
-430,890	800,000	-0,011	0,023
-429,876	14,365	0,214	0,120
-428,861	-11,018	0,036	0,017
-427,846	-121,570	0,044	0,005
-426,832	-200,000	0,008	0,075
-425,817	197,363	-0,116	-0,128
-424,803	213,201	0,127	-0,145
-423,788	136,749	-0,034	0,032
-422,773	800,000	-0,023	-0,063
-421,759	-22,117	0,053	-0,023
-420,744	-181,225	0,036	-0,000
-419,730	379,500	-0,056	-0,083
-418,715	45,810	-0,042	-0,028
-417,701	755,619	0,032	0,063
-416,686	688,930	-0,036	-0,068
-415,671	-200,000	0,009	-0,080
-414,657	-9,426	0,213	0,102
-413,642	-16,806	-0,072	-0,033
-412,628	104,078	0,023	-0,020
-411,613	232,662	-0,026	-0,031
-410,598	-93,540	0,047	0,009
-409,584	800,000	0,039	0,108
-408,569	800,000	0,098	0,245
-407,555	662,546	0,049	0,091
-406,540	91,814	-0,097	-0,078
-405,525	150,159	-0,078	-0,076
-404,511	-200,000	-0,018	-0,121
-403,496	-200,000	-0,016	-0,062
-402,482	-200,000	-0,004	-0,027
-401,467	-200,000	-0,006	-0,042
-400,452	800,000	0,030	-0,080
-399,438	-200,000	0,001	0,013
-398,423	-199,881	0,075	0,000
-397,409	250,428	-0,032	0,039
-396,394	-200,000	-0,041	-0,134
-395,379	-44,616	0,143	0,051
-394,365	-120,441	-0,073	-0,009
-393,350	-82,498	-0,043	0,010
-392,336	203,022	0,037	0,041
-391,321	-200,000	-0,021	0,195
-390,306	80,995	0,133	-0,103
-389,292	-200,000	0,006	0,027
-388,277	-200,000	0,010	-0,068
-387,263	600,241	0,012	0,021
-386,248	-8,521	0,069	0,033
-385,233	800,000	-0,018	-0,045
-384,219	-200,000	-0,041	-0,135
-383,204	-200,000	0,011	-0,052
-382,190	-106,743	-0,103	-0,016
-381,175	-200,000	-0,002	-0,032
-380,160	-200,000	0,017	0,159
-379,146	41,329	0,075	-0,049
-378,131	104,313	0,171	0,144
-377,117	800,000	0,042	0,116
-376,102	630,154	-0,056	-0,102
-375,088	-200,000	-0,002	-0,009
-374,073	350,839	-0,043	-0,061
-373,058	-64,546	0,071	-0,021
-372,044	0,823	-0,066	-0,034
-371,029	-34,139	0,144	0,057
-370,015	55,106	-0,154	-0,107
-369,000	-200,000	0,041	0,133
-367,985	800,000	0,045	0,142
-366,971	51,718	0,116	0,079
-365,956	-4,858	-0,030	-0,015
-364,942	-111,417	0,162	0,023
-363,927	-93,091	0,073	-0,014
-362,912	-30,824	-0,098	-0,040
-361,898	-13,024	0,064	0,030
-360,883	-31,739	-0,066	-0,027
-359,869	800,000	-0,041	0,086
-358,854	800,000	-0,014	0,028
-357,839	-200,000	-0,017	0,159
-356,825	113,474	0,123	-0,107
-355,810	-23,082	0,028	0,012
-354,796	516,129	0,077	0,129
-353,781	-200,000	0,004	-0,079
-352,766	800,000	-0,038	-0,090
-351,752	388,762	0,070	0,104
-350,737	-200,000	0,036	0,159
-349,723	-200,000	-0,003	-0,018
-348,708	332,107	-0,050	0,069
-347,693	384,665	-0,058	0,086
-346,679	265,214	0,030	-0,038
-345,664	800,000	-0,009	-0,023
-344,650	-200,000	0,007	0,045
-343,635	-200,000	-0,006	-0,055
-342,620	-79,423	0,137	0,033
-341,606	23,324	0,059	0,034
-340,591	112,555	-0,084	-0,073
-339,577	800,000	-0,031	-0,071
-338,562	418,913	0,035	-0,053
-337,548	-200,000	0,037	-0,123
-336,533	10,329	0,096	-0,052
-335,518	-115,963	0,152	0,020
-334,504	800,000	-0,019	0,046
-333,489	800,000	-0,010	0,029
-332,475	511,491	-0,024	-0,041
-331,460	-200,000	0,007	-0,109
-330,445	25,296	0,031	0,018
-329,431	-139,833	0,095	-0,007
-328,416	800,000	0,021	0,049
-327,402	162,565	0,074	-0,074
-326,387	2,606	0,060	0,031
-325,372	800,000	-0,027	-0,064
-324,358	762,254	-0,025	-0,049
-323,343	-200,000	-0,010	-0,060
-322,329	-31,471	-0,038	0,015
-321,314	800,000	-0,034	0,105
-320,299	32,217	0,053	-0,032
-319,285	326,620	0,069	0,095
-318,270	-200,000	0,005	0,093
-317,256	800,000	-0,004	-0,013
-316,241	81,912	-0,032	0,025
-315,226	-200,000	-0,001	0,068
-314,212	-200,000	0,014	0,096
-313,197	543,071	0,095	0,162
-312,183	-6,340	-0,067	0,032
-311,168	-55,527	-0,064	0,020
-310,153	113,184	-0,088	-0,077
-309,139	669,317	0,023	-0,043
-308,124	123,818	0,019	-0,017
-307,110	16,357	-0,080	-0,045
-306,095	800,000	0,045	0,125
-305,080	800,000	0,012	0,032
-304,066	-200,000	0,005	-0,021
-303,051	-88,704	-0,099	0,021
-302,037	-200,000	0,003	-0,291
-301,022	424,960	-0,054	-0,084
-300,008	298,546	0,088	-0,116
-298,993	-200,000	0,019	0,131
-297,978	-200,000	-0,104	0,000
-296,964	-12,474	-0,061	0,029
-295,949	800,000	0,038	-0,089
-294,935	-113,866	-0,067	0,009
-293,920	-200,000	-0,004	-0,095
-292,905	800,000	0,033	-0,072
-291,891	281,700	0,015	-0,020
-290,876	-1,419	0,075	0,038
-289,862	408,690	0,063	-0,095
-288,847	461,766	0,021	-0,034
-287,832	175,364	0,043	-0,045
-286,818	-200,000	0,004	-0,066
-285,803	800,000	0,030	0,062
-284,789	-200,000	0,018	0,127
-283,774	191,579	-0,112	0,121
-282,759	-200,000	0,005	-0,232
-281,745	-112,161	-0,031	0,004
-280,730	166,274	0,039	-0,039
-279,716	-200,000	-0,033	0,249
-278,701	-200,000	-0,013	-0,048
-277,686	-70,426	-0,098	-0,026
-276,672	800,000	-0,053	0,113
-275,657	-81,009	-0,092	0,022
-274,643	-67,142	-0,153	-0,043
-273,628	800,000	-0,050	-0,125
-272,613	296,552	0,074	-0,097
-271,599	205,468	0,068	0,076
-270,584	-75,409	0,069	0,017
-269,570	308,729	-0,078	0,104
-268,555	-200,000	-0,016	0,175
-267,540	-89,896	-0,101	-0,021
-266,526	314,608	-0,102	-0,137
-265,511	-146,048	0,145	0,009
-264,497	-200,000	-0,003	0,019
-263,482	-200,000	-0,003	-0,026
-262,467	-200,000	-0,001	-0,023
-261,453	-200,000	-0,033	0,262
-260,438	145,909	-0,005	0,004
-259,424	-57,119	-0,171	-0,054
-258,409	-200,000	-0,003	-0,082
-257,395	33,214	0,065	0,040
-256,380	46,373	0,034	0,022
-255,365	123,545	0,041	0,036
-254,351	231,076	-0,033	0,038
-253,336	-200,000	-0,007	-0,062
-252,322	-200,000	0,044	-0,211
-251,307	8,190	-0,038	0,020
-250,292	-200,000	0,030	0,108
-249,278	8,117	0,075	-0,040
-248,263	-200,000	-0,005	0,061
-247,249	-52,503	-0,039	-0,013
-246,234	-141,919	0,076	-0,005
-245,219	647,026	0,052	-0,095
-244,205	14,270	0,061	0,034
-243,190	-31,767	0,017	0,007
-242,176	86,202	-0,054	0,042
-241,161	100,665	0,027	-0,023
-240,146	-200,000	-0,048	0,171
-239,132	357,401	-0,035	0,049
-238,117	381,775	0,054	0,079
-237,103	412,453	-0,026	-0,039
-236,088	-200,000	0,005	0,073
-235,073	-200,000	-0,015	0,054
-234,059	-200,000	0,010	-0,033
-233,044	560,024	0,036	0,062
-232,030	-200,000	0,001	-0,178
-231,015	-50,134	0,064	0,022
-230,000	16,662	-0,042	-0,024
-228,986	766,598	0,042	-0,081
-227,971	384,727	-0,023	0,034
-226,957	-63,763	0,166	0,048
-225,942	-161,259	0,084	0,003
-224,927	800,000	0,011	0,025
-223,913	-200,000	0,013	-0,067
-222,898	-5,020	-0,079	0,039
-221,884	-200,000	-0,032	0,158
-220,869	447,604	-0,051	0,080
-219,855	-16,908	-0,031	-0,014
-218,840	-200,000	-0,008	-0,081
-217,825	1,225	-0,072	-0,037
-216,811	-200,000	-0,004	-0,079
-215,796	227,909	-0,035	-0,041
-214,782	18,133	-0,134	-0,076
-213,767	428,217	0,017	-0,026
-212,752	263,579	0,089	0,110
-211,738	-71,181	0,116	0,031
-210,723	55,891	-0,075	0,052
-209,709	192,839	-0,051	0,055
-208,694	800,000	0,012	-0,027
-207,679	-71,112	-0,047	-0,013
-206,665	285,306	-0,054	-0,069
-205,650	-200,000	-0,006	0,035
-204,636	-37,090	-0,010	-0,004
-203,621	800,000	-0,039	-0,081
-202,606	-77,558	0,089	0,022
-201,592	800,000	-0,053	-0,123
-200,577	62,841	-0,094	0,067
-199,563	800,000	-0,041	0,095
-198,548	624,223	0,053	0,096
-197,533	-200,000	0,022	0,132
-196,519	-48,077	-0,109	-0,037
-195,504	-68,686	-0,019	0,005
-194,490	528,080	-0,054	0,090
-193,475	800,000	-0,035	-0,104
-192,460	-200,000	-0,000	-0,099
-191,446	800,000	0,038	0,117
-190,431	-124,992	0,059	-0,006
-189,417	-128,859	-0,145	0,014
-188,402	-200,000	0,006	0,029
-187,387	-126,043	-0,128	0,014
-186,373	-55,760	-0,056	0,018
-185,358	-168,707	0,190	0,005
-184,344	800,000	-0,054	0,143
-183,329	800,000	0,036	0,094
-182,315	-72,149	0,148	0,039
-181,300	-200,000	-0,018	0,099
-180,285	190,681	0,029	-0,031
-179,271	-49,192	-0,086	0,029
-178,256	-103,688	0,026	-0,004
-177,242	80,164	0,101	-0,077
-176,227	-32,210	0,144	0,057
-175,212	-200,000	-0,032	0,142
-174,198	800,000	-0,034	-0,070
-173,183	800,000	0,052	-0,129
-172,169	-200,000	0,011	-0,122
-171,154	478,589	-0,016	-0,026
-170,139	-200,000	-0,013	0,045
-169,125	558,568	0,109	0,188
-168,110	800,000	0,007	-0,016
-167,096	-106,902	0,092	0,014
-166,081	800,000	0,049	-0,110
-165,066	687,144	0,066	-0,124
-164,052	523,178	-0,042	-0,071
-163,037	-102,027	-0,089	-0,015
-162,023	-6,477	0,069	-0,033
-161,008	144,811	-0,118	0,112
-159,993	-162,427	-0,120	-0,004
-158,979	176,552	0,045	0,047
-157,964	-1,741	-0,083	-0,042
-156,950	149,382	-0,080	-0,077
-155,935	38,210	0,036	0,023
-154,920	27,832	0,068	0,041
-153,906	24,050	0,036	-0,021
-152,891	-158,350	-0,219	0,009
-151,877	87,134	-0,099	0,078
-150,862	142,397	-0,048	-0,045
-149,847	-52,995	0,097	-0,032
-148,833	355,174	0,040	0,057
-147,818	-103,152	0,011	-0,002
-146,804	-200,000	0,066	-0,000
-145,789	-65,594	0,069	0,019
-144,775	443,410	-0,042	0,066
-143,760	-200,000	0,017	0,142
-142,745	800,000	-0,041	-0,093
-141,731	443,263	0,063	0,099
-140,716	391,281	0,007	0,010
-139,702	-200,000	0,006	0,169
-138,687	-200,000	0,007	-0,046
-137,672	800,000	0,015	-0,036
-136,658	6,578	0,033	-0,017
-135,643	800,000	-0,014	-0,039
-134,629	440,137	-0,033	0,052
-133,614	-104,907	0,125	-0,020
-132,599	-78,525	0,010	0,002
-131,585	-74,112	-0,122	-0,031
-130,570	63,702	0,065	-0,046
-129,556	-36,995	-0,076	0,029
-128,541	302,686	-0,091	-0,120
-127,526	-95,109	-0,062	-0,012
-126,512	29,895	0,127	-0,077
-125,497	-200,000	0,017	0,081
-124,483	16,557	-0,121	-0,068
-123,468	-200,000	-0,023	0,159
-122,453	44,477	-0,097	-0,063
-121,439	43,475	0,078	0,051
-120,424	800,000	0,008	-0,025
-119,410	-94,380	0,090	-0,017
-118,395	-200,000	-0,002	-0,069
-117,380	800,000	-0,014	0,041
-116,366	800,000	-0,068	-0,136
-115,351	10,339	0,149	-0,080
-114,337	113,294	-0,022	0,019
-113,322	75,368	0,169	-0,127
-112,307	-58,562	-0,086	0,026
-111,293	800,000	0,027	0,063
-110,278	176,598	-0,034	-0,035
-109,264	-66,772	-0,056	0,016
-108,249	6,989	0,077	-0,041
-107,234	-73,010	0,094	-0,024
-106,220	98,181	0,072	-0,059
-105,205	13,379	-0,048	0,026
-104,191	101,679	0,135	-0,112
-103,176	-142,606	-0,111	0,008
-102,162	45,784	0,070	0,046
-101,147	-200,000	-0,012	-0,141
-100,132	27,441	0,112	-0,067
-99,118	355,550	-0,033	-0,047
-98,103	-200,000	0,004	-0,119
-97,089	503,641	0,089	0,146
-96,074	207,828	0,079	0,088
-95,059	-94,077	0,051	0,010
-94,045	234,708	-0,064	-0,075
-93,030	-97,695	-0,058	-0,011
-92,016	239,333	-0,078	-0,092
-91,001	800,000	0,022	0,066
-89,986	623,714	-0,010	0,017
-88,972	-19,470	0,104	-0,045
-87,957	136,313	0,099	0,092
-86,943	-200,000	0,002	0,018
-85,928	332,251	-0,133	-0,183
-84,913	800,000	-0,053	-0,111
-83,899	-32,968	-0,052	0,020
-82,884	-200,000	-0,051	0,174
-81,870	-200,000	-0,038	0,185
-80,855	53,653	-0,080	-0,054
-79,840	800,000	0,022	-0,044
-78,826	384,366	-0,036	-0,053
-77,811	85,953	0,049	0,038
-76,797	477,390	-0,030	-0,048
-75,782	800,000	0,047	0,147
-74,767	-59,833	0,217	0,065
-73,753	800,000	-0,049	0,144
-72,738	-26,150	-0,111	0,046
-71,724	90,193	0,043	-0,034
-70,709	800,000	0,009	-0,025
-69,694	-43,070	-0,075	-0,027
-68,680	497,372	0,034	-0,055
-67,665	-200,000	-0,021	0,082
-66,651	-200,000	0,042	0,223
-65,636	243,441	-0,046	-0,055
-64,622	6,824	-0,054	0,029
-63,607	-200,000	0,022	-0,143
-62,592	4,295	-0,048	-0,025
-61,578	-200,000	0,009	0,033
-60,563	101,691	0,052	-0,043
-59,549	236,711	-0,084	0,099
-58,534	-69,683	-1,545	-0,416
-57,519	388,074	-1,517	-2,231
-56,505	-200,000	-0,470	-4,413
-55,490	170,089	0,798	0,809
-54,476	800,000	4,669	11,182
-53,461	-200,000	17,764	286,220
-52,446	800,000	722,714	2233,727
-51,432	562,366	1636,758	2816,984
-50,417	80,521	1659,773	1265,667
-49,403	23,423	1533,702	891,205
-48,388	17,385	1457,212	817,616
-47,373	18,110	1446,899	815,279
-46,359	17,579	1437,703	807,534
-45,344	15,656	1432,742	795,565
-44,330	15,609	1430,871	794,274
-43,315	15,624	1429,076	793,316
-42,300	15,623	1427,565	792,440
-41,286	15,698	1426,256	792,041
-40,271	15,604	1425,156	790,953
-39,257	15,589	1423,986	790,201
-38,242	15,674	1422,388	789,684
-37,227	15,697	1421,235	789,119
-36,213	15,661	1419,918	788,187
-35,198	15,681	1418,651	787,546
-34,184	15,699	1417,909	787,187
-33,169	15,588	1416,552	785,880
-32,154	15,654	1415,628	785,647
-31,140	15,658	1414,242	784,869
-30,125	15,771	1412,949	784,650
-29,111	15,678	1411,963	783,635
-28,096	15,659	1410,909	782,927
-27,082	15,609	1409,793	782,046
-26,067	15,602	1408,568	781,301
-25,052	15,550	1407,713	780,554
-24,038	15,599	1406,480	780,067
-23,023	15,569	1405,472	779,338
-22,009	15,552	1404,624	778,754
-20,994	15,538	1403,811	778,208
-19,979	15,574	1402,647	777,703
-18,965	15,518	1401,726	776,899
-17,950	15,490	1400,871	776,264
-16,936	15,545	1399,795	775,893
-15,921	15,481	1398,645	774,927
-14,906	15,503	1397,614	774,429
-13,892	15,516	1396,611	773,900
-12,877	15,491	1395,890	773,354
-11,863	15,493	1395,046	772,866
-10,848	15,513	1394,234	772,477
-9,833	15,483	1393,112	771,687
-8,819	15,421	1392,069	770,793
-7,804	15,399	1391,253	770,209
-6,790	15,422	1390,147	769,670
-5,775	15,385	1389,267	768,983
-4,760	15,368	1388,667	768,542
-3,746	15,364	1387,769	767,997
-2,731	15,398	1386,881	767,631
-1,717	15,378	1385,884	766,957
-0,702	15,361	1384,151	765,889
0,313	19,185	1304,350	739,368
1,327	35,422	706,249	437,936
2,342	54,303	124,938	85,040
3,356	0,816	16,604	8,391
4,371	15,380	3,079	1,706
5,386	-102,442	0,489	0,082
6,400	623,223	0,058	0,103
7,415	35,840	-0,206	-0,128
8,429	126,713	-0,359	-0,322
9,444	49,736	-0,244	-0,162
10,459	38,665	-0,289	-0,182
11,473	-5,096	-0,313	-0,152
12,488	223,814	-0,277	-0,317
13,502	167,237	-0,303	-0,305
14,517	112,673	-0,330	-0,282
15,531	143,691	-0,360	-0,339
16,546	-51,899	-0,364	-0,119
17,561	594,262	-0,250	-0,440
18,575	22,650	-0,333	-0,192
19,590	105,952	-0,249	-0,208
20,604	-88,832	-0,225	-0,047
21,619	30,765	-0,516	-0,312
22,634	92,308	-0,398	-0,316
23,648	122,493	-0,345	-0,305
24,663	196,678	-0,352	-0,379
25,677	46,896	-0,364	-0,239
26,692	219,490	-0,308	-0,349
27,707	86,120	-0,374	-0,291
28,721	49,896	-0,494	-0,328
29,736	219,117	-0,444	-0,502
30,750	-29,182	-0,531	-0,214
31,765	99,390	-0,396	-0,324
32,780	-34,806	-0,392	-0,151
33,794	-73,147	-0,502	-0,129
34,809	163,719	-0,329	-0,327
35,823	165,986	-0,253	-0,253
36,838	-0,247	-0,486	-0,243
37,853	193,486	-0,323	-0,345
38,867	82,627	-0,433	-0,332
39,882	-55,053	-0,306	-0,097
40,896	24,851	-0,339	-0,198
41,911	643,289	-0,186	-0,335
42,926	77,815	-0,298	-0,224
43,940	11,617	-0,274	-0,148
44,955	16,193	-0,328	-0,182
45,969	233,275	-0,261	-0,303
46,984	85,475	-0,354	-0,274
47,999	-56,731	-0,236	-0,073
49,013	800,000	-0,138	-0,294
50,028	140,386	-0,330	-0,307
51,042	151,084	-0,243	-0,234
52,057	255,680	-0,315	-0,382
53,071	-24,594	-0,394	-0,165
54,086	77,975	-0,342	-0,257
55,101	-0,108	-0,403	-0,202
56,115	-30,689	-0,374	-0,148
57,130	-0,702	-0,338	-0,168
58,144	-138,674	-0,424	-0,032
59,159	28,151	-0,391	-0,232
60,174	-35,639	-0,507	-0,193
61,188	57,412	-0,408	-0,280
62,203	43,125	-0,198	-0,127
63,217	59,066	-0,294	-0,203
64,232	7,722	-0,316	-0,166
65,247	371,150	-0,278	-0,398
66,261	302,302	-0,313	-0,409
67,276	349,524	-0,142	-0,198
68,290	48,443	-0,341	-0,225
69,305	-112,928	-0,286	-0,039
70,320	114,637	-0,222	-0,191
71,334	-83,425	-0,335	-0,075
72,349	-1,912	-0,396	-0,196
73,363	79,310	-0,322	-0,243
74,378	157,505	-0,246	-0,239
75,393	21,802	-0,408	-0,233
76,407	-73,256	-0,481	-0,123
77,422	38,712	-0,277	-0,174
78,436	74,599	-0,258	-0,190
79,451	-61,775	-0,292	-0,085
80,466	274,963	-0,342	-0,427
81,480	-4,150	-0,446	-0,216
82,495	189,925	-0,160	-0,169
83,509	-168,692	-0,329	0,009
84,524	80,429	-0,274	-0,208
85,539	16,028	-0,358	-0,198
86,553	-40,527	-0,272	-0,099
87,568	139,427	-0,356	-0,329
88,582	-14,494	-0,345	-0,155
89,597	32,968	-0,224	-0,136
90,611	-23,342	-0,341	-0,143
91,626	44,753	-0,261	-0,168
92,641	9,557	-0,275	-0,146
93,655	288,854	-0,128	-0,163
94,670	-12,471	-0,351	-0,160
95,684	88,316	-0,374	-0,291
96,699	177,381	-0,265	-0,271
97,714	203,628	-0,282	-0,306
98,728	-137,699	-0,183	0,014
99,743	-112,783	-0,367	-0,051
100,757	-98,316	-0,187	0,033
101,772	74,960	-0,414	-0,306
102,787	800,000	-0,163	-0,437
103,801	47,675	-0,262	-0,171
104,816	150,326	-0,199	-0,189
105,830	-45,174	-0,279	-0,097
106,845	100,782	-0,185	-0,151
107,860	-51,274	-0,342	-0,112
108,874	413,306	-0,189	-0,283
109,889	274,516	-0,273	-0,340
110,903	222,043	-0,195	-0,220
111,918	151,806	-0,239	-0,229
112,933	46,161	-0,308	-0,200
113,947	145,325	-0,231	-0,217
114,962	251,475	-0,191	-0,229
115,976	101,258	-0,165	-0,134
116,991	-9,586	-0,351	-0,163
118,006	155,611	-0,259	-0,251
119,020	52,788	-0,356	-0,238
120,035	-55,761	-0,314	-0,098
121,049	-48,281	-0,084	-0,028
122,064	146,509	-0,244	-0,230
123,079	280,601	-0,132	-0,166
124,093	139,248	-0,298	-0,274
125,108	-13,965	-0,228	-0,103
126,122	19,591	-0,341	-0,192
127,137	163,938	-0,170	-0,168
128,151	-26,609	-0,274	-0,112
129,166	171,962	-0,216	-0,217
130,181	-85,261	-0,402	-0,087
131,195	104,638	-0,246	-0,203
132,210	345,037	-0,254	-0,350
133,224	59,559	-0,331	-0,228
134,239	15,417	-0,297	-0,163
135,254	169,234	-0,278	-0,278
136,268	22,947	-0,247	-0,141
137,283	137,974	-0,244	-0,224
138,297	99,614	-0,309	-0,250
139,312	409,773	-0,131	-0,195
140,327	140,023	-0,280	-0,258
141,341	-47,102	-0,269	-0,091
142,356	-42,340	-0,262	-0,093
143,370	45,259	-0,254	-0,164
144,385	108,627	-0,122	-0,102
145,400	-78,853	-0,158	-0,037
146,414	33,726	-0,246	-0,150
147,429	-32,811	-0,291	-0,112
148,443	-34,715	-0,192	-0,073
149,458	724,391	-0,132	-0,247
150,473	415,876	-0,175	-0,262
151,487	417,148	-0,170	-0,254
152,502	10,068	-0,246	-0,130
153,516	368,106	-0,238	-0,337
154,531	-58,840	-0,320	-0,096
155,546	67,867	-0,227	-0,162
156,560	58,157	-0,245	-0,167
157,575	43,956	-0,197	-0,126
158,589	-21,091	-0,294	-0,125
159,604	172,018	-0,195	-0,196
160,619	434,642	-0,167	-0,255
161,633	30,432	-0,361	-0,215
162,648	144,266	-0,296	-0,276
163,662	34,407	-0,184	-0,112
164,677	-200,000	-0,241	-0,000
165,692	82,665	-0,171	-0,130
166,706	83,452	-0,265	-0,201
167,721	392,741	-0,211	-0,307
168,735	221,808	-0,260	-0,293
169,750	-195,815	-0,258	-0,001
170,764	395,024	-0,202	-0,295
171,779	136,308	-0,184	-0,167
172,794	-46,787	-0,291	-0,099
173,808	48,191	-0,210	-0,137
174,823	292,451	-0,194	-0,247
175,837	800,000	-0,119	-0,289
176,852	66,447	-0,222	-0,157
177,867	63,394	-0,191	-0,133
178,881	-17,437	-0,168	-0,074
179,896	123,827	-0,185	-0,162
180,910	-86,162	-0,265	-0,056
181,925	651,680	-0,117	-0,209
182,940	84,482	-0,306	-0,233
183,954	-6,070	-0,335	-0,159
184,969	114,493	-0,095	-0,081
185,983	11,809	-0,363	-0,194
186,998	-38,074	-0,347	-0,128
188,013	214,800	-0,161	-0,178
189,027	151,715	-0,220	-0,209
190,042	240,932	-0,177	-0,207
191,056	235,808	-0,238	-0,275
192,071	1,019	-0,241	-0,120
193,086	259,355	-0,071	-0,085
194,100	800,000	-0,131	-0,269
195,115	294,540	-0,203	-0,258
196,129	7,690	-0,279	-0,145
197,144	207,273	-0,216	-0,235
198,159	-45,301	-0,284	-0,098
199,173	218,481	-0,101	-0,112
200,188	141,735	-0,066	-0,061
201,202	49,284	-0,275	-0,180
202,217	-105,263	-0,142	-0,022
203,232	-31,946	-0,238	-0,092
204,246	-75,702	-0,246	-0,060
205,261	777,307	-0,114	-0,218
206,275	44,436	-0,159	-0,101
207,290	4,168	-0,083	-0,042
208,304	-140,147	-0,163	-0,012
209,319	172,231	-0,129	-0,129
210,334	7,706	-0,238	-0,124
211,348	11,085	-0,263	-0,139
212,363	-43,189	-0,183	-0,064
213,377	-70,328	-0,242	-0,063
214,392	15,959	-0,285	-0,156
215,407	-51,220	-0,236	-0,076
216,421	349,921	-0,158	-0,218
217,436	-11,337	-0,181	-0,083
218,450	513,737	-0,105	-0,170
219,465	144,179	-0,206	-0,191
220,480	403,795	-0,160	-0,235
221,494	249,770	-0,165	-0,195
222,509	-24,862	-0,110	-0,045
223,523	110,398	-0,157	-0,131
224,538	35,208	-0,231	-0,140
225,553	147,347	-0,209	-0,196
226,567	188,559	-0,249	-0,258
227,582	110,975	-0,227	-0,189
228,596	17,625	-0,208	-0,114
229,611	42,849	-0,289	-0,182
230,626	97,369	-0,208	-0,166
231,640	61,797	-0,172	-0,118
232,655	-24,541	-0,351	-0,144
233,669	168,618	-0,236	-0,234
234,684	-121,593	-0,243	0,028
235,699	-28,126	-0,288	-0,115
236,713	800,000	-0,081	-0,193
237,728	-2,151	-0,147	-0,072
238,742	223,461	-0,145	-0,163
239,757	63,390	-0,241	-0,168
240,772	60,585	-0,122	-0,084
241,786	800,000	-0,138	-0,335
242,801	-46,445	-0,212	-0,072
243,815	150,291	-0,151	-0,143
244,830	-48,421	-0,095	-0,032
245,844	91,042	-0,126	-0,098
246,859	-71,351	-0,218	-0,056
247,874	175,219	-0,090	-0,090
248,888	-11,759	-0,192	0,087
249,903	-84,988	-0,090	-0,019
250,917	259,616	-0,187	-0,224
251,932	800,000	-0,084	-0,203
252,947	-77,462	-0,193	-0,046
253,961	786,410	-0,109	-0,208
254,976	41,270	-0,122	-0,076
255,990	3,106	-0,339	-0,170
257,005	-22,251	-0,137	-0,057
258,020	260,259	-0,083	-0,099
259,034	-25,986	-0,148	-0,060
260,049	91,284	-0,090	-0,070
261,063	-125,427	-0,235	0,024
262,078	28,606	-0,306	-0,179
263,093	231,450	-0,239	-0,271
264,107	116,806	-0,216	-0,183
265,122	-200,000	-0,022	-0,104
266,136	304,126	-0,102	-0,131
267,151	209,230	-0,126	-0,136
268,166	189,275	-0,056	-0,058
269,180	138,155	-0,124	-0,112
270,195	27,097	-0,248	-0,143
271,209	800,000	-0,066	-0,195
272,224	83,746	-0,127	-0,096
273,239	-64,957	-0,153	-0,043
274,253	-136,109	-0,329	-0,026
275,268	184,450	-0,094	-0,096
276,282	229,667	-0,081	-0,092
277,297	800,000	-0,135	-0,280
278,312	159,162	-0,121	-0,117
279,326	-35,888	-0,118	-0,044
280,341	58,645	-0,062	-0,042
281,355	-0,999	-0,176	-0,086
282,370	-43,572	-0,180	-0,062
283,384	-37,069	-0,177	-0,065
284,399	55,828	-0,283	-0,189
285,414	462,662	-0,133	-0,206
286,428	453,409	-0,124	-0,190
287,443	-200,000	-0,072	-0,225
288,457	279,238	-0,134	-0,165
289,472	57,515	-0,156	-0,105
290,487	800,000	-0,075	-0,213
291,501	201,011	-0,101	-0,108
292,516	1,208	-0,180	-0,089
293,530	427,991	-0,107	-0,161
294,545	277,485	-0,196	-0,241
295,560	35,969	-0,165	-0,100
296,574	78,600	-0,141	-0,104
297,589	76,155	-0,177	-0,129
298,603	304,073	-0,061	-0,078
299,618	43,142	-0,181	-0,114
300,633	238,206	-0,238	-0,273
301,647	-200,000	-0,049	-0,246
302,662	-63,770	-0,112	-0,031
303,676	80,138	-0,132	-0,098
304,691	33,597	-0,173	-0,103
305,706	-63,924	-0,158	-0,044
306,720	-49,269	-0,216	-0,071
307,735	-107,042	-0,176	0,027
308,749	800,000	-0,061	-0,154
309,764	-123,324	-0,093	-0,010
310,779	-58,680	-0,180	-0,054
311,793	-2,413	-0,120	-0,058
312,808	800,000	-0,090	-0,178
313,822	88,236	-0,146	-0,111
314,837	37,231	-0,184	-0,112
315,852	244,133	-0,110	-0,127
316,866	13,436	-0,108	0,058
317,881	800,000	-0,019	0,041
318,895	129,264	-0,028	-0,025
319,910	515,271	-0,083	-0,135
320,925	51,310	-0,175	-0,114
321,939	-49,952	-0,152	-0,049
322,954	-151,651	-0,116	-0,006
323,968	-23,340	-0,139	-0,057
324,983	38,276	-0,186	0,114
325,997	76,776	-0,159	-0,116
327,012	95,802	-0,191	-0,150
328,027	109,363	-0,118	-0,097
329,041	800,000	-0,121	-0,292
330,056	6,280	-0,119	-0,060
331,070	-150,954	-0,166	-0,008
332,085	318,865	-0,104	-0,136
333,100	-28,223	-0,089	0,035
334,114	62,917	-0,089	-0,061
335,129	800,000	-0,083	-0,169
336,143	-73,563	-0,211	0,053
337,158	328,325	-0,112	-0,148
338,173	103,354	-0,125	-0,101
339,187	-88,091	-0,244	0,050
340,202	-87,044	-0,150	-0,031
341,216	-200,000	-0,000	-0,043
342,231	-200,000	-0,016	-0,060
343,246	-79,453	-0,220	-0,051
344,260	224,640	-0,131	-0,146
345,275	800,000	-0,020	-0,051
346,289	-32,775	-0,052	0,020
347,304	137,489	-0,098	0,088
348,319	138,703	-0,200	-0,180
349,333	0,643	-0,155	-0,076
350,348	-61,164	-0,295	-0,085
351,362	133,608	-0,075	-0,066
352,377	-90,668	-0,177	-0,035
353,392	123,987	-0,091	-0,079
354,406	187,786	-0,095	-0,097
355,421	209,521	1313,424	1414,977
356,435	161,258	1474,024	1415,498
