DTS Sentinel unit serial number:	SN410029Multiplexer serial number:	ORYXHardware model number:	OX2-SRSoftware version number:	ORYX F/W v4,00 Oryx Data Collector v3.7.2.0data status	okinstallation	B3 Nyhavnadifferential loss correction	single-endedforward channel	channel 1reverse channel	N/Adate	2023/11/29time	05:57:30forward acquisition time	300,00reverse acquisition time	0,00gamma	499,1914k internal	0,3211k external	0,3211temperature offset calibration	1,0000default loss term (dB/km)	0,3820temperature slope calibration	1,0000multiplexer offset coefficient	1,0000multiplexer slope coefficient	1,0000fibre end	0,00T internal ref (°C)	9,00T ext. ref 1 (°C)	-6,43T ext. ref 2 (°C)	-6,56length (m)	temperature (°C)	Stokes	anti-Stokes-744,400	695,070	-0,174	-0,333
-743,385	800,000	-0,124	0,289
-742,371	125,429	-0,133	-0,121
-741,356	-200,000	0,078	0,297
-740,342	224,779	-0,159	-0,187
-739,327	-200,000	0,024	0,120
-738,312	297,244	-0,195	-0,260
-737,298	-200,000	-0,029	0,277
-736,283	-200,000	-0,048	-0,265
-735,269	-200,000	-0,035	0,188
-734,254	-200,000	-0,093	-0,408
-733,239	-27,865	-0,173	-0,072
-732,225	206,186	-0,099	-0,112
-731,210	99,919	0,124	0,104
-730,196	312,399	0,067	-0,091
-729,181	-200,000	0,044	0,160
-728,167	-87,608	-0,058	0,013
-727,152	-200,000	0,005	0,069
-726,137	14,500	-0,047	-0,027
-725,123	800,000	-0,032	0,064
-724,108	-200,000	0,014	-0,110
-723,094	800,000	-0,049	-0,106
-722,079	-179,398	-0,051	-0,001
-721,064	-78,752	0,117	-0,029
-720,050	0,469	0,102	-0,053
-719,035	143,346	0,063	-0,061
-718,021	-200,000	-0,057	-0,185
-717,006	-11,424	-0,119	0,056
-715,991	-200,000	0,035	-0,153
-714,977	-97,960	-0,161	-0,030
-713,962	246,220	-0,073	-0,090
-712,948	800,000	-0,044	-0,117
-711,933	-99,716	0,039	-0,007
-710,918	548,605	-0,026	-0,045
-709,904	-56,369	-0,174	0,056
-708,889	-179,411	-0,098	-0,002
-707,875	-200,000	-0,025	-0,094
-706,860	-49,490	-0,121	0,041
-705,845	140,227	-0,026	0,024
-704,831	395,987	0,038	-0,058
-703,816	-200,000	0,019	-0,208
-702,802	-200,000	-0,009	-0,139
-701,787	-82,109	0,091	-0,021
-700,772	-94,895	-0,139	-0,027
-699,758	800,000	-0,063	-0,159
-698,743	194,075	-0,098	0,107
-697,729	800,000	0,062	0,171
-696,714	-200,000	0,028	0,116
-695,699	-200,000	-0,000	-0,078
-694,685	-34,454	-0,060	0,024
-693,670	576,299	-0,093	-0,164
-692,656	-141,771	0,011	-0,001
-691,641	435,611	0,046	-0,073
-690,627	-200,000	0,018	-0,178
-689,612	548,777	0,049	0,085
-688,597	800,000	-0,034	-0,087
-687,583	-200,000	-0,010	-0,091
-686,568	224,441	-0,084	-0,098
-685,554	-122,870	-0,083	-0,010
-684,539	791,651	-0,041	-0,083
-683,524	473,332	0,085	0,139
-682,510	-37,932	0,010	-0,004
-681,495	0,652	0,055	-0,028
-680,481	24,008	-0,140	0,083
-679,466	673,056	-0,066	-0,124
-678,451	392,438	-0,045	0,068
-677,437	133,448	-0,088	0,082
-676,422	37,995	-0,013	0,008
-675,408	800,000	0,034	0,087
-674,393	-25,343	-0,126	0,054
-673,378	800,000	-0,056	-0,153
-672,364	-69,979	-0,163	0,045
-671,349	-200,000	0,031	-0,226
-670,335	-21,151	0,173	-0,076
-669,320	-100,698	-0,057	-0,010
-668,305	-200,000	-0,025	0,108
-667,291	-200,000	-0,028	-0,098
-666,276	-200,000	-0,042	-0,147
-665,262	-69,900	0,019	-0,005
-664,247	-24,625	-0,098	-0,042
-663,232	715,247	-0,015	0,030
-662,218	-79,174	0,052	0,013
-661,203	178,218	-0,037	-0,039
-660,189	363,714	0,040	0,059
-659,174	-13,831	-0,034	0,016
-658,159	-126,470	-0,187	0,020
-657,145	-109,217	-0,060	0,009
-656,130	71,680	-0,110	-0,083
-655,116	28,413	0,059	-0,036
-654,101	-200,000	-0,009	-0,060
-653,086	-200,000	0,014	0,141
-652,072	157,762	0,022	0,022
-651,057	70,015	-0,094	-0,070
-650,043	-200,000	-0,008	-0,034
-649,028	458,361	0,017	-0,027
-648,014	-200,000	-0,012	-0,079
-646,999	10,811	0,023	0,013
-645,984	-61,291	-0,017	0,005
-644,970	279,157	-0,089	-0,115
-643,955	-200,000	-0,000	-0,044
-642,941	515,062	-0,048	-0,082
-641,926	-200,000	-0,004	-0,031
-640,911	45,112	0,113	-0,075
-639,897	33,270	0,099	0,062
-638,882	53,398	0,010	0,007
-637,868	-144,262	-0,086	-0,006
-636,853	-38,731	0,056	-0,021
-635,838	-70,128	-0,053	-0,015
-634,824	800,000	-0,064	0,145
-633,809	82,434	0,058	0,045
-632,795	800,000	0,040	-0,109
-631,780	359,778	0,047	0,068
-630,765	712,125	-0,048	0,093
-629,751	137,215	-0,057	0,054
-628,736	121,698	-0,033	-0,030
-627,722	-89,256	0,047	0,010
-626,707	-43,883	0,114	-0,041
-625,692	-200,000	0,006	0,063
-624,678	303,005	0,087	0,117
-623,663	800,000	-0,017	-0,035
-622,649	669,121	-0,101	-0,190
-621,634	14,071	0,024	0,013
-620,619	-200,000	-0,010	0,132
-619,605	8,705	0,155	0,084
-618,590	370,994	-0,035	0,052
-617,576	-29,770	0,104	0,043
-616,561	175,722	-0,092	-0,096
-615,546	33,916	0,103	-0,064
-614,532	-50,366	-0,063	0,021
-613,517	77,889	-0,120	-0,092
-612,503	800,000	-0,037	-0,103
-611,488	-179,962	0,051	-0,001
-610,474	800,000	0,029	-0,063
-609,459	-200,000	0,005	0,018
-608,444	21,743	0,080	-0,047
-607,430	-150,018	-0,104	-0,006
-606,415	-200,000	-0,008	-0,150
-605,401	102,766	-0,074	0,063
-604,386	89,770	0,055	-0,044
-603,371	478,129	0,028	-0,046
-602,357	54,095	-0,022	-0,015
-601,342	800,000	-0,036	0,114
-600,328	483,572	0,064	-0,105
-599,313	352,068	-0,088	-0,126
-598,298	800,000	-0,031	-0,068
-597,284	58,242	0,055	-0,039
-596,269	148,751	0,044	0,043
-595,255	25,618	-0,050	0,030
-594,240	-162,322	0,130	-0,005
-593,225	800,000	-0,034	-0,094
-592,211	800,000	0,029	-0,085
-591,196	800,000	-0,056	-0,113
-590,182	66,361	-0,088	0,065
-589,167	242,049	0,040	0,049
-588,152	168,948	0,044	-0,045
-587,138	5,311	-0,130	-0,069
-586,123	99,927	-0,151	-0,126
-585,109	242,995	-0,067	-0,082
-584,094	64,255	-0,040	-0,029
-583,079	135,087	0,112	-0,104
-582,065	-200,000	0,013	0,061
-581,050	-9,759	-0,087	0,042
-580,036	-200,000	0,025	0,120
-579,021	-200,000	0,011	0,041
-578,006	158,797	-0,109	-0,109
-576,992	-77,194	0,113	-0,028
-575,977	249,617	-0,067	0,082
-574,963	-49,528	-0,016	0,006
-573,948	322,650	-0,021	-0,029
-572,934	14,568	-0,080	-0,045
-571,919	-200,000	0,019	-0,104
-570,904	-200,000	-0,045	-0,149
-569,890	-200,000	-0,001	-0,116
-568,875	-78,437	0,151	0,037
-567,861	-19,916	0,042	-0,018
-566,846	112,741	-0,060	0,052
-565,831	-200,000	0,013	0,048
-564,817	-102,438	0,096	-0,016
-563,802	29,430	0,003	0,002
-562,788	-200,000	-0,020	0,097
-561,773	-23,307	-0,125	-0,054
-560,758	98,026	0,083	-0,068
-559,744	-200,000	-0,027	0,088
-558,729	-49,363	-0,043	-0,015
-557,715	-37,120	-0,087	-0,033
-556,700	-82,661	-0,063	0,014
-555,685	-115,579	-0,110	-0,015
-554,671	-162,016	-0,179	0,006
-553,656	800,000	0,057	0,114
-552,642	-200,000	0,001	0,109
-551,627	496,618	-0,050	0,083
-550,612	-200,000	0,011	0,070
-549,598	-200,000	-0,001	0,011
-548,583	242,508	-0,025	0,031
-547,569	466,965	-0,036	-0,058
-546,554	800,000	0,036	-0,072
-545,539	-200,000	0,030	0,195
-544,525	800,000	0,007	0,020
-543,510	-122,437	0,200	-0,023
-542,496	396,541	-0,030	0,044
-541,481	-10,312	-0,058	-0,027
-540,466	-38,451	0,128	-0,048
-539,452	800,000	-0,059	0,150
-538,437	30,238	0,038	-0,023
-537,423	-71,127	0,038	-0,010
-536,408	-200,000	-0,006	0,129
-535,393	-200,000	0,000	0,031
-534,379	155,478	-0,073	-0,072
-533,364	-200,000	-0,027	0,131
-532,350	205,426	0,120	-0,134
-531,335	-55,441	-0,070	-0,022
-530,321	-56,862	-0,087	0,027
-529,306	-160,445	0,130	-0,005
-528,291	649,129	-0,024	-0,044
-527,277	800,000	0,039	-0,086
-526,262	800,000	-0,030	0,080
-525,248	247,649	0,051	-0,061
-524,233	666,684	0,071	0,133
-523,218	800,000	0,055	0,116
-522,204	-200,000	-0,037	0,136
-521,189	-199,140	0,075	0,000
-520,175	-200,000	-0,045	-0,164
-519,160	800,000	0,016	-0,035
-518,145	722,768	0,041	0,078
-517,131	346,244	-0,076	-0,108
-516,116	-200,000	0,015	0,070
-515,102	-53,754	-0,204	0,066
-514,087	-200,000	-0,013	-0,070
-513,072	18,608	0,065	-0,037
-512,058	-200,000	0,016	-0,054
-511,043	-101,139	0,110	0,019
-510,029	-200,000	0,006	0,022
-509,014	50,562	0,017	-0,011
-507,999	-200,000	-0,006	0,029
-506,985	-32,482	-0,063	0,025
-505,970	-35,520	-0,084	-0,033
-504,956	700,081	-0,034	-0,064
-503,941	403,957	-0,022	0,033
-502,926	-36,265	0,107	-0,041
-501,912	-200,000	0,056	0,188
-500,897	71,613	0,134	0,100
-499,883	-66,105	0,132	0,038
-498,868	-56,300	-0,025	0,008
-497,853	800,000	-0,039	-0,086
-496,839	9,005	0,070	0,038
-495,824	-174,560	0,204	0,004
-494,810	160,604	-0,094	0,094
-493,795	-87,370	-0,130	-0,028
-492,781	441,789	0,073	0,115
-491,766	-125,750	-0,030	-0,003
-490,751	100,527	-0,084	-0,070
-489,737	-51,248	0,094	0,031
-488,722	800,000	0,039	0,113
-487,708	-0,697	0,076	0,039
-486,693	-119,219	-0,158	-0,020
-485,678	-113,683	0,047	-0,006
-484,664	123,086	-0,061	-0,054
-483,649	439,352	-0,053	-0,083
-482,635	60,403	-0,090	-0,064
-481,620	-200,000	0,006	0,056
-480,605	386,474	-0,072	0,107
-479,591	6,158	0,079	0,042
-478,576	-200,000	0,004	0,099
-477,562	651,600	0,036	-0,067
-476,547	-140,543	0,096	-0,007
-475,532	-53,290	-0,124	0,040
-474,518	800,000	-0,051	-0,144
-473,503	70,349	0,109	0,081
-472,489	75,494	-0,053	0,040
-471,474	-124,841	-0,095	0,010
-470,459	-106,408	-0,118	0,019
-469,445	-78,872	-0,044	-0,011
-468,430	123,702	0,066	0,060
-467,416	-200,000	0,093	-0,338
-466,401	-67,998	0,094	0,026
-465,386	800,000	-0,032	0,067
-464,372	787,854	0,021	-0,042
-463,357	395,372	-0,103	0,155
-462,343	222,456	0,079	-0,092
-461,328	-18,602	0,022	-0,010
-460,313	800,000	0,026	-0,055
-459,299	-200,000	0,023	0,109
-458,284	-12,312	-0,049	0,023
-457,270	-200,000	0,030	0,197
-456,255	-105,347	-0,176	-0,028
-455,241	-200,000	0,007	-0,189
-454,226	328,132	-0,112	0,154
-453,211	429,648	-0,055	-0,085
-452,197	46,474	-0,050	-0,033
-451,182	-200,000	0,021	-0,098
-450,168	-77,380	-0,154	-0,038
-449,153	-11,876	0,095	-0,044
-448,138	262,483	0,079	-0,098
-447,124	198,838	0,016	0,017
-446,109	29,934	-0,006	-0,004
-445,095	-200,000	-0,011	-0,078
-444,080	739,347	0,047	0,090
-443,065	21,192	-0,053	0,031
-442,051	-200,000	0,001	0,044
-441,036	-124,412	-0,027	-0,003
-440,022	373,501	0,031	-0,045
-439,007	99,670	0,091	0,076
-437,992	-56,275	0,140	0,044
-436,978	69,321	0,041	-0,030
-435,963	-119,947	0,110	-0,013
-434,949	57,805	0,055	-0,039
-433,934	-200,000	-0,016	-0,054
-432,919	122,191	0,043	0,038
-431,905	-79,163	0,051	0,012
-430,890	-58,983	0,090	0,028
-429,876	86,954	0,054	0,043
-428,861	-200,000	0,015	0,093
-427,846	800,000	-0,050	0,118
-426,832	-174,162	0,069	-0,001
-425,817	-200,000	-0,010	0,121
-424,803	-200,000	-0,001	-0,070
-423,788	243,630	-0,056	0,067
-422,773	800,000	0,020	0,051
-421,759	-60,685	-0,019	-0,006
-420,744	-200,000	0,019	0,068
-419,730	589,860	0,021	-0,037
-418,715	800,000	-0,038	0,095
-417,701	-50,277	-0,098	0,033
-416,686	-23,518	0,135	-0,058
-415,671	-200,000	0,011	0,059
-414,657	-200,000	-0,013	0,215
-413,642	424,258	0,041	0,063
-412,628	103,981	-0,018	-0,015
-411,613	293,353	-0,079	-0,103
-410,598	791,441	-0,050	-0,098
-409,584	124,625	0,060	0,054
-408,569	32,511	0,057	-0,035
-407,555	34,589	0,103	0,065
-406,540	-141,117	0,216	-0,016
-405,525	82,639	-0,051	-0,040
-404,511	-132,728	-0,201	-0,018
-403,496	800,000	0,015	-0,031
-402,482	800,000	-0,054	0,123
-401,467	125,540	-0,036	-0,033
-400,452	800,000	0,021	0,046
-399,438	800,000	0,034	-0,069
-398,423	-48,219	-0,118	0,041
-397,409	306,429	-0,112	-0,150
-396,394	94,137	-0,128	0,104
-395,379	-138,328	0,181	-0,014
-394,365	289,458	0,059	0,077
-393,350	241,498	0,080	0,096
-392,336	-83,195	-0,026	0,006
-391,321	40,082	-0,032	0,021
-390,306	204,237	-0,053	-0,059
-389,292	768,071	-0,018	0,035
-388,277	554,518	0,044	0,077
-387,263	94,777	0,131	0,106
-386,248	-10,115	0,094	-0,044
-385,233	-200,000	-0,006	0,025
-384,219	37,818	0,047	-0,030
-383,204	-200,000	-0,013	0,042
-382,190	41,590	-0,080	0,052
-381,175	354,942	0,074	-0,105
-380,160	305,547	0,037	-0,049
-379,146	164,059	0,112	0,113
-378,131	137,760	0,025	-0,023
-377,117	-200,000	-0,056	-0,181
-376,102	57,551	0,070	-0,049
-375,088	2,879	-0,091	-0,047
-374,073	-30,846	0,089	0,036
-373,058	-99,091	-0,064	-0,011
-372,044	290,620	-0,046	-0,060
-371,029	-85,928	0,055	0,012
-370,015	464,414	-0,030	-0,049
-369,000	-56,810	-0,080	0,025
-367,985	126,790	-0,029	0,026
-366,971	212,475	-0,031	0,035
-365,956	-77,822	0,134	-0,033
-364,942	-83,876	0,094	-0,021
-363,927	126,474	-0,066	0,060
-362,912	-200,000	-0,004	-0,016
-361,898	383,533	-0,064	0,094
-360,883	-200,000	-0,046	-0,154
-359,869	362,443	0,039	0,056
-358,854	-66,875	0,028	0,008
-357,839	-200,000	-0,010	0,110
-356,825	-200,000	0,046	0,231
-355,810	800,000	-0,011	0,032
-354,796	-200,000	-0,013	-0,185
-353,781	800,000	-0,047	-0,106
-352,766	-200,000	0,114	0,000
-351,752	-110,005	-0,099	-0,015
-350,737	-59,301	-0,036	-0,011
-349,723	690,153	0,040	0,075
-348,708	-1,371	0,146	-0,073
-347,693	-200,000	0,008	-0,059
-346,679	-200,000	0,021	-0,111
-345,664	498,032	-0,050	-0,082
-344,650	-41,481	-0,167	0,061
-343,635	-108,530	-0,057	0,009
-342,620	-71,834	0,157	0,042
-341,606	-200,000	0,000	0,081
-340,591	412,826	-0,046	-0,069
-339,577	308,299	-0,072	-0,096
-338,562	-200,000	0,003	-0,077
-337,548	800,000	-0,064	-0,176
-336,533	26,905	0,051	-0,031
-335,518	475,579	0,039	-0,063
-334,504	112,277	0,030	0,026
-333,489	-200,000	-0,019	0,084
-332,475	294,664	-0,039	0,051
-331,460	227,003	-0,047	-0,055
-330,445	62,535	0,062	-0,044
-329,431	25,780	-0,060	-0,036
-328,416	317,354	-0,059	0,080
-327,402	0,588	0,048	-0,024
-326,387	-36,945	0,095	-0,036
-325,372	-128,971	-0,179	0,018
-324,358	-200,000	0,010	-0,068
-323,343	-200,000	-0,020	-0,086
-322,329	423,187	0,048	-0,074
-321,314	-129,748	0,136	-0,013
-320,299	111,236	-0,079	0,068
-319,285	173,735	0,080	-0,082
-318,270	-127,350	-0,192	-0,020
-317,256	800,000	-0,035	-0,074
-316,241	800,000	0,065	0,166
-315,226	-200,000	-0,005	0,079
-314,212	-45,283	-0,101	0,036
-313,197	-128,600	0,105	-0,010
-312,183	72,415	-0,090	-0,067
-311,168	17,896	-0,071	0,040
-310,153	-97,948	0,071	0,013
-309,139	78,057	-0,026	-0,020
-308,124	71,468	0,023	-0,017
-307,110	800,000	0,085	0,175
-306,095	-200,000	-0,015	-0,125
-305,080	354,115	0,033	0,047
-304,066	800,000	-0,027	-0,056
-303,051	117,107	-0,052	-0,046
-302,037	800,000	0,051	-0,123
-301,022	-23,522	0,185	0,079
-300,008	-29,352	0,110	-0,045
-298,993	91,773	0,067	0,054
-297,978	-28,790	-0,040	0,016
-296,964	-200,000	0,035	-0,186
-295,949	516,128	-0,038	-0,064
-294,935	-174,181	0,074	0,002
-293,920	-200,000	0,001	0,059
-292,905	211,154	0,024	-0,027
-291,891	-123,663	-0,094	0,010
-290,876	-105,569	-0,165	-0,026
-289,862	478,192	0,059	-0,096
-288,847	-62,179	0,236	-0,070
-287,832	597,810	-0,069	0,122
-286,818	100,704	0,093	0,077
-285,803	-200,000	0,017	-0,080
-284,789	45,212	0,049	0,032
-283,774	800,000	-0,022	0,045
-282,759	361,921	-0,037	0,053
-281,745	63,523	0,037	-0,027
-280,730	321,931	0,075	-0,102
-279,716	800,000	0,049	0,152
-278,701	-200,000	0,004	0,101
-277,686	-200,000	0,002	-0,035
-276,672	-120,327	0,079	0,009
-275,657	-200,000	0,008	0,107
-274,643	-200,000	-0,017	-0,120
-273,628	10,354	0,021	0,011
-272,613	44,411	0,092	-0,060
-271,599	-200,000	-0,001	-0,032
-270,584	565,709	0,101	0,175
-269,570	-200,000	0,010	0,138
-268,555	-17,148	0,036	-0,016
-267,540	-105,429	-0,024	-0,004
-266,526	639,462	-0,025	-0,046
-265,511	249,257	-0,017	-0,020
-264,497	-161,391	-0,075	-0,003
-263,482	50,937	0,104	0,070
-262,467	-200,000	-0,013	0,078
-261,453	-200,000	0,001	-0,013
-260,438	521,442	0,070	-0,118
-259,424	800,000	-0,034	-0,069
-258,409	-112,851	-0,221	-0,031
-257,395	-162,165	-0,054	-0,002
-256,380	396,798	0,088	0,131
-255,365	10,996	-0,100	0,054
-254,351	-200,000	0,004	-0,156
-253,336	-55,610	0,102	-0,032
-252,322	11,341	-0,069	-0,037
-251,307	-200,000	-0,009	-0,224
-250,292	258,351	0,074	-0,091
-249,278	115,305	-0,106	0,092
-248,263	61,496	0,082	-0,058
-247,249	503,156	-0,046	0,076
-246,234	3,659	-0,122	-0,063
-245,219	-200,000	0,006	0,022
-244,205	-200,000	-0,009	0,104
-243,190	-200,000	-0,080	0,000
-242,176	-106,179	-0,036	0,006
-241,161	148,028	0,041	0,039
-240,146	409,921	-0,023	0,035
-239,132	655,601	-0,031	-0,057
-238,117	-37,734	-0,173	-0,065
-237,103	285,962	-0,026	-0,033
-236,088	-200,000	-0,028	0,125
-235,073	98,530	0,038	-0,031
-234,059	143,826	0,018	-0,017
-233,044	-200,000	-0,055	0,179
-232,030	800,000	-0,060	0,134
-231,015	94,027	0,075	0,060
-230,000	56,621	-0,069	-0,048
-228,986	180,723	0,026	0,027
-227,971	57,804	-0,064	0,045
-226,957	-200,000	0,018	0,082
-225,942	800,000	-0,015	-0,040
-224,927	132,948	-0,158	-0,145
-223,913	-85,529	0,108	-0,024
-222,898	100,560	0,083	-0,069
-221,884	306,346	0,047	-0,062
-220,869	-141,581	0,135	-0,010
-219,855	622,122	-0,058	-0,105
-218,840	-64,006	-0,072	0,021
-217,825	654,505	0,035	-0,063
-216,811	14,504	-0,076	-0,042
-215,796	14,742	-0,097	0,054
-214,782	-99,824	-0,138	0,024
-213,767	-200,000	-0,021	0,091
-212,752	221,996	-0,072	0,083
-211,738	31,334	0,019	-0,011
-210,723	462,795	-0,026	0,041
-209,709	405,042	-0,003	-0,004
-208,694	-200,000	0,004	-0,092
-207,679	12,164	0,045	0,024
-206,665	151,478	-0,098	0,095
-205,650	127,254	-0,064	-0,057
-204,636	49,258	0,108	0,072
-203,621	99,384	0,090	0,074
-202,606	305,817	0,076	-0,100
-201,592	-76,918	-0,188	0,046
-200,577	47,120	0,067	-0,044
-199,563	800,000	-0,059	-0,176
-198,548	800,000	-0,032	0,090
-197,533	146,588	-0,066	-0,063
-196,519	-200,000	0,032	-0,118
-195,504	-53,648	-0,158	-0,051
-194,490	569,303	0,057	-0,099
-193,475	800,000	0,021	-0,054
-192,460	169,583	-0,108	0,110
-191,446	382,250	-0,023	0,034
-190,431	-200,000	0,015	0,142
-189,417	304,537	0,078	0,103
-188,402	-200,000	-0,008	0,028
-187,387	-200,000	0,036	0,121
-186,373	800,000	0,031	0,071
-185,358	109,820	0,047	0,040
-184,344	800,000	0,024	-0,070
-183,329	800,000	0,020	0,042
-182,315	-26,979	-0,115	0,047
-181,300	296,601	-0,043	-0,056
-180,285	800,000	-0,055	-0,119
-179,271	-99,835	-0,093	-0,016
-178,256	-178,016	0,121	-0,002
-177,242	101,341	-0,063	-0,052
-176,227	383,693	0,022	0,032
-175,212	-200,000	-0,014	0,068
-174,198	768,572	0,099	0,192
-173,183	-68,985	-0,075	0,020
-172,169	-29,585	0,078	-0,031
-171,154	104,767	-0,088	0,073
-170,139	-200,000	0,016	0,114
-169,125	-200,000	0,008	0,041
-168,110	-77,972	0,138	-0,033
-167,096	269,337	-0,110	-0,137
-166,081	214,045	0,066	-0,074
-165,066	138,830	0,061	0,057
-164,052	-200,000	0,032	-0,122
-163,037	-200,000	0,001	-0,043
-162,023	-83,517	0,052	-0,012
-161,008	800,000	-0,034	0,094
-159,993	126,368	-0,054	-0,049
-158,979	-200,000	-0,023	-0,097
-157,964	-200,000	0,008	0,025
-156,950	83,288	-0,064	0,049
-155,935	-200,000	-0,025	0,116
-154,920	248,107	0,101	-0,122
-153,906	-200,000	-0,009	0,109
-152,891	-118,772	0,073	-0,009
-151,877	800,000	-0,049	-0,119
-150,862	-128,079	-0,007	0,001
-149,847	-200,000	0,009	-0,032
-148,833	-200,000	0,007	0,024
-147,818	-200,000	0,010	0,124
-146,804	75,152	0,101	0,075
-145,789	-200,000	0,006	0,108
-144,775	800,000	0,033	0,067
-143,760	-200,000	-0,034	0,130
-142,745	-200,000	0,029	-0,107
-141,731	345,733	0,089	0,124
-140,716	52,869	0,070	0,048
-139,702	-200,000	0,020	-0,081
-138,687	612,776	-0,007	-0,013
-137,672	148,137	0,067	0,064
-136,658	13,070	-0,088	-0,048
-135,643	157,621	0,047	0,046
-134,629	3,175	0,094	0,048
-133,614	705,482	0,017	-0,032
-132,599	184,663	-0,083	0,087
-131,585	-200,000	0,011	-0,099
-130,570	280,414	0,090	-0,114
-129,556	-200,000	-0,035	-0,198
-128,541	-200,000	0,021	-0,086
-127,526	800,000	0,024	-0,070
-126,512	-200,000	0,009	0,140
-125,497	-200,000	0,009	0,069
-124,483	675,207	-0,059	-0,109
-123,468	205,689	-0,055	0,060
-122,453	553,199	-0,051	0,087
-121,439	800,000	0,059	-0,170
-120,424	-200,000	0,033	-0,157
-119,410	-67,196	0,101	0,028
-118,395	-58,713	-0,044	-0,013
-117,380	-65,634	-0,103	-0,029
-116,366	270,493	-0,086	0,108
-115,351	-33,241	-0,094	-0,037
-114,337	-137,850	0,080	0,006
-113,322	-149,950	0,146	-0,008
-112,307	93,390	-0,124	-0,099
-111,293	75,596	0,115	-0,086
-110,278	21,241	0,083	0,048
-109,264	-200,000	0,010	0,093
-108,249	46,005	-0,051	0,033
-107,234	117,706	-0,106	0,093
-106,220	-115,203	0,062	0,008
-105,205	226,226	0,045	-0,052
-104,191	800,000	-0,064	0,136
-103,176	165,805	0,066	0,066
-102,162	-118,513	0,158	0,020
-101,147	42,882	-0,101	-0,065
-100,132	-68,228	-0,154	-0,042
-99,118	-104,281	-0,107	-0,017
-98,103	302,454	0,020	-0,027
-97,089	69,063	0,062	0,045
-96,074	-200,000	-0,041	0,165
-95,059	301,073	-0,048	-0,062
-94,045	154,585	-0,050	-0,049
-93,030	-122,457	0,059	0,007
-92,016	79,053	0,053	-0,040
-91,001	-200,000	0,001	0,087
-89,986	168,350	-0,024	0,024
-88,972	800,000	-0,043	0,112
-87,957	-200,000	-0,004	0,068
-86,943	-13,494	0,083	-0,038
-85,928	-163,223	-0,045	0,002
-84,913	-47,408	-0,013	-0,005
-83,899	-105,543	0,078	-0,012
-82,884	-47,108	0,099	0,034
-81,870	-10,527	0,095	-0,044
-80,855	123,488	0,092	-0,082
-79,840	-120,933	-0,044	0,005
-78,826	64,508	0,046	-0,033
-77,811	800,000	-0,043	-0,116
-76,797	-150,579	0,212	-0,011
-75,782	-18,049	-0,078	-0,035
-74,767	740,031	0,043	-0,081
-73,753	-4,706	0,186	-0,090
-72,738	79,065	-0,144	-0,108
-71,724	-41,644	-0,125	-0,045
-70,709	86,118	0,029	0,022
-69,694	159,893	0,033	0,032
-68,680	-2,252	0,035	-0,017
-67,665	239,809	0,029	0,034
-66,651	-190,966	-0,051	-0,000
-65,636	-48,761	0,071	0,024
-64,622	-88,807	-0,102	0,021
-63,607	800,000	-0,042	-0,097
-62,592	37,274	-0,103	-0,065
-61,578	690,558	0,086	0,160
-60,563	183,058	0,119	0,124
-59,549	-200,000	-0,010	0,049
-58,534	21,068	-2,179	-1,245
-57,519	651,544	-1,070	-1,943
-56,505	-200,000	-0,359	-4,340
-55,490	695,274	0,846	1,574
-54,476	800,000	5,113	11,121
-53,461	-200,000	21,951	337,914
-52,446	800,000	759,554	2299,560
-51,432	533,898	1653,348	2774,897
-50,417	69,321	1651,008	1197,313
-49,403	16,645	1525,762	848,911
-48,388	10,825	1450,218	778,860
-47,373	18,997	1442,197	813,558
-46,359	14,181	1430,871	784,346
-45,344	9,200	1426,743	758,450
-44,330	9,089	1425,108	757,022
-43,315	9,070	1423,316	755,950
-42,300	9,090	1421,480	755,041
-41,286	9,129	1420,027	754,424
-40,271	9,087	1419,039	753,670
-39,257	9,073	1418,073	753,060
-38,242	9,078	1416,840	752,397
-37,227	8,997	1415,804	751,437
-36,213	9,091	1414,305	751,052
-35,198	9,087	1413,165	750,400
-34,184	9,110	1412,116	749,920
-33,169	9,037	1410,836	748,871
-32,154	9,057	1409,962	748,468
-31,140	9,050	1408,670	747,721
-30,125	9,139	1407,415	747,444
-29,111	9,088	1406,359	746,615
-28,096	9,129	1404,962	746,035
-27,082	9,030	1403,795	744,921
-26,067	9,033	1402,796	744,377
-25,052	9,052	1401,651	743,830
-24,038	9,106	1400,765	743,581
-23,023	9,051	1399,945	742,861
-22,009	9,027	1398,846	742,136
-20,994	9,019	1397,999	741,617
-19,979	9,028	1396,932	741,063
-18,965	9,015	1396,000	740,482
-17,950	8,989	1394,974	739,787
-16,936	8,973	1394,377	739,367
-15,921	8,907	1393,248	738,431
-14,906	8,921	1392,392	738,015
-13,892	8,945	1391,378	737,560
-12,877	8,989	1390,735	737,394
-11,863	8,908	1390,030	736,613
-10,848	8,917	1388,986	736,075
-9,833	8,892	1387,994	735,404
-8,819	8,848	1387,154	734,727
-7,804	8,847	1386,210	734,192
-6,790	8,865	1384,988	733,599
-5,775	8,848	1384,128	733,034
-4,760	8,862	1383,190	732,576
-3,746	8,872	1382,185	732,061
-2,731	8,885	1381,327	731,635
-1,717	8,860	1380,423	731,012
-0,702	8,844	1378,731	730,013
0,313	12,898	1290,283	701,598
1,327	28,846	682,450	406,874
2,342	44,636	117,604	76,110
3,356	0,712	16,312	8,205
4,371	-4,775	3,715	1,800
5,386	-2,616	1,188	0,584
6,400	433,913	0,301	0,462
7,415	212,378	-0,133	-0,148
8,429	138,184	-0,240	-0,222
9,444	126,804	-0,278	-0,249
10,459	82,152	-0,280	-0,213
11,473	103,611	-0,267	-0,221
12,488	40,083	-0,320	-0,202
13,502	73,802	-0,309	-0,228
14,517	105,659	-0,238	-0,199
15,531	-16,153	-0,340	-0,152
16,546	-18,775	-0,345	-0,151
17,561	53,952	-0,384	-0,260
18,575	-69,202	-0,197	-0,053
19,590	81,579	-0,133	-0,102
20,604	-156,038	-0,169	0,007
21,619	87,745	-0,434	-0,338
22,634	337,639	-0,303	-0,415
23,648	182,330	-0,394	-0,410
24,663	106,587	-0,285	-0,238
25,677	87,023	-0,341	-0,265
26,692	160,850	-0,241	-0,237
27,707	30,926	-0,354	-0,213
28,721	15,655	-0,388	-0,214
29,736	63,271	-0,382	-0,269
30,750	174,627	-0,313	-0,318
31,765	42,939	-0,281	-0,180
32,780	143,518	-0,366	-0,343
33,794	152,694	-0,201	-0,193
34,809	53,939	-0,339	-0,229
35,823	159,002	-0,273	-0,267
36,838	158,647	-0,263	-0,257
37,853	121,953	-0,405	-0,355
38,867	37,161	-0,377	-0,234
39,882	-65,993	-0,333	-0,093
40,896	249,641	-0,238	-0,284
41,911	58,847	-0,456	-0,315
42,926	259,107	-0,308	-0,374
43,940	257,343	-0,243	-0,294
44,955	328,685	-0,250	-0,338
45,969	-29,934	-0,408	-0,163
46,984	89,270	-0,291	-0,228
47,999	67,511	-0,335	-0,240
49,013	12,480	-0,368	-0,199
50,028	-2,607	-0,391	-0,192
51,042	714,426	-0,111	-0,207
52,057	70,353	-0,368	-0,267
53,071	91,323	-0,285	-0,225
54,086	-192,436	-0,253	0,002
55,101	88,758	-0,300	-0,234
56,115	-20,200	-0,314	-0,135
57,130	57,817	-0,262	-0,180
58,144	49,121	-0,331	-0,218
59,159	50,740	-0,360	-0,239
60,174	-14,131	-0,342	-0,154
61,188	27,136	-0,391	-0,230
62,203	105,650	-0,222	-0,184
63,217	-0,525	-0,346	-0,172
64,232	53,580	-0,347	-0,233
65,247	27,988	-0,343	-0,203
66,261	-5,672	-0,211	-0,101
67,276	190,748	-0,310	-0,327
68,290	7,251	-0,408	-0,213
69,305	-104,630	-0,415	-0,066
70,320	9,724	-0,193	-0,102
71,334	-56,917	-0,270	-0,083
72,349	-113,962	-0,243	-0,033
73,363	83,072	-0,284	-0,217
74,378	208,342	-0,329	-0,361
75,393	171,435	-0,273	-0,274
76,407	10,738	-0,240	-0,128
77,422	199,686	-0,239	-0,257
78,436	181,576	-0,249	-0,257
79,451	136,435	-0,273	-0,250
80,466	24,632	-0,402	-0,232
81,480	5,678	-0,363	-0,187
82,495	157,590	-0,171	-0,166
83,509	121,117	-0,314	-0,274
84,524	800,000	-0,103	-0,285
85,539	168,316	-0,277	-0,276
86,553	82,685	-0,380	-0,289
87,568	-36,826	-0,304	-0,114
88,582	-119,876	-0,426	-0,051
89,597	-8,590	-0,200	-0,093
90,611	-31,377	-0,386	-0,151
91,626	102,976	-0,245	-0,201
92,641	50,377	-0,260	-0,172
93,655	-22,226	-0,334	-0,141
94,670	102,203	-0,317	-0,259
95,684	3,893	-0,306	-0,156
96,699	345,271	-0,195	-0,268
97,714	168,798	-0,244	-0,243
98,728	171,845	-0,277	-0,279
99,743	153,363	-0,094	-0,090
100,757	-135,288	-0,419	-0,035
101,772	-44,168	-0,213	-0,074
102,787	491,182	-0,143	-0,229
103,801	800,000	-0,165	-0,340
104,816	47,615	-0,290	-0,188
105,830	-117,520	-0,209	-0,026
106,845	115,327	-0,139	-0,119
107,860	147,462	-0,238	-0,224
108,874	-60,215	-0,219	-0,065
109,889	320,577	-0,200	-0,266
110,903	20,940	-0,243	-0,137
111,918	53,347	-0,257	-0,172
112,933	118,422	-0,280	-0,241
113,947	290,757	-0,189	-0,241
114,962	139,281	-0,222	-0,204
115,976	132,798	-0,230	-0,207
116,991	-0,966	-0,360	-0,177
118,006	69,018	-0,176	-0,126
119,020	317,234	-0,141	-0,187
120,035	-5,656	-0,133	-0,063
121,049	60,682	-0,327	-0,226
122,064	324,352	-0,131	-0,175
123,079	302,679	-0,186	-0,241
124,093	-27,542	-0,302	-0,122
125,108	175,839	-0,153	-0,155
126,122	132,415	-0,280	-0,252
127,137	-48,674	-0,249	-0,083
128,151	82,505	-0,300	-0,227
129,166	-46,171	-0,225	-0,077
130,181	52,217	-0,289	-0,192
131,195	198,190	-0,260	-0,277
132,210	184,592	-0,238	-0,246
133,224	126,816	-0,228	-0,201
134,239	-110,922	-0,162	-0,023
135,254	58,525	-0,235	-0,160
136,268	348,922	-0,128	-0,176
137,283	139,924	-0,208	-0,191
138,297	-14,690	-0,277	-0,123
139,312	485,873	-0,181	-0,288
140,327	292,062	-0,202	-0,257
141,341	395,152	-0,156	-0,227
142,356	96,009	-0,269	-0,214
143,370	65,625	-0,086	-0,060
144,385	127,822	-0,259	-0,230
145,400	422,054	-0,078	-0,117
146,414	63,108	-0,341	-0,238
147,429	251,164	-0,153	-0,181
148,443	160,177	-0,287	-0,279
149,458	-30,317	-0,281	-0,110
150,473	-58,886	-0,158	-0,047
151,487	192,558	-0,209	-0,220
152,502	139,992	-0,172	-0,158
153,516	43,549	-0,346	-0,220
154,531	-14,356	-0,239	-0,107
155,546	98,587	-0,323	-0,259
156,560	67,183	-0,209	-0,148
157,575	71,073	-0,179	-0,129
158,589	-62,727	-0,233	-0,067
159,604	-11,611	-0,216	-0,098
160,619	98,200	-0,223	-0,179
161,633	157,301	-0,148	-0,142
162,648	-177,337	-0,229	0,004
163,662	119,944	-0,196	-0,169
164,677	73,023	-0,152	-0,110
165,692	37,386	-0,207	-0,127
166,706	100,564	-0,148	-0,120
167,721	224,737	-0,254	-0,286
168,735	-97,915	-0,366	-0,065
169,750	-30,780	-0,213	-0,083
170,764	12,420	-0,238	-0,127
171,779	-82,554	-0,257	-0,057
172,794	55,305	-0,297	-0,200
173,808	-200,000	-0,065	-0,207
174,823	135,605	-0,269	-0,243
175,837	128,607	-0,266	-0,235
176,852	84,378	-0,280	-0,213
177,867	17,389	-0,239	-0,132
178,881	58,487	-0,241	-0,164
179,896	10,495	-0,364	-0,192
180,910	-179,510	-0,280	-0,004
181,925	211,771	-0,180	-0,197
182,940	532,942	-0,147	-0,242
183,954	320,970	-0,134	-0,177
184,969	-27,403	-0,261	-0,105
185,983	-80,658	-0,219	-0,050
186,998	-200,000	-0,052	-0,178
188,013	128,813	-0,180	-0,159
189,027	427,219	-0,178	-0,267
190,042	19,619	-0,212	-0,118
191,056	-79,470	-0,137	-0,032
192,071	800,000	-0,133	-0,328
193,086	195,185	-0,118	-0,124
194,100	18,452	-0,150	-0,083
195,115	106,648	-0,205	-0,169
196,129	272,325	-0,197	-0,242
197,144	-20,760	-0,300	-0,127
198,159	-24,407	-0,290	-0,119
199,173	718,040	-0,110	-0,204
200,188	-200,000	-0,043	-0,151
201,202	800,000	-0,087	-0,192
202,217	491,513	-0,134	-0,214
203,232	26,261	-0,284	-0,164
204,246	-14,929	-0,248	-0,110
205,261	172,590	-0,200	-0,200
206,275	-98,739	-0,090	-0,016
207,290	15,534	-0,234	-0,127
208,304	714,263	-0,142	-0,262
209,319	146,608	-0,222	-0,206
210,334	303,730	-0,150	-0,193
211,348	120,422	-0,212	-0,182
212,363	800,000	-0,081	-0,167
213,377	0,288	-0,134	-0,066
214,392	-184,749	-0,181	-0,002
215,407	70,942	-0,068	-0,048
216,421	-84,440	-0,106	-0,023
217,436	553,837	-0,119	-0,198
218,450	-53,345	-0,206	-0,065
219,465	358,998	-0,200	-0,278
220,480	206,351	-0,128	-0,138
221,494	425,987	-0,094	-0,140
222,509	-99,733	-0,159	-0,027
223,523	158,725	-0,172	-0,165
224,538	348,381	-0,159	-0,217
225,553	64,723	-0,233	-0,163
226,567	175,399	-0,168	-0,169
227,582	169,120	-0,151	-0,149
228,596	242,656	-0,202	-0,234
229,611	184,855	-0,113	-0,116
230,626	107,453	-0,168	-0,138
231,640	44,355	-0,199	-0,126
232,655	187,445	-0,231	-0,238
233,669	561,643	-0,134	-0,225
234,684	-73,881	-0,226	-0,056
235,699	138,426	-0,181	-0,164
236,713	215,619	-0,251	-0,276
237,728	-88,567	-0,165	0,034
238,742	50,966	-0,265	-0,173
239,757	59,029	-0,197	-0,134
240,772	378,114	-0,133	-0,188
241,786	-46,229	-0,284	-0,096
242,801	800,000	-0,070	-0,161
243,815	172,729	-0,045	-0,045
244,830	-58,331	-0,169	-0,050
245,844	-10,159	-0,266	-0,122
246,859	35,988	-0,181	-0,110
247,874	103,080	-0,096	-0,077
248,888	-11,478	-0,164	-0,074
249,903	143,592	-0,161	-0,148
250,917	61,628	-0,091	-0,062
251,932	107,061	-0,197	-0,161
252,947	1,172	-0,241	-0,119
253,961	215,469	-0,146	-0,160
254,976	-23,373	-0,370	-0,153
255,990	83,327	-0,181	-0,136
257,005	272,525	-0,071	-0,086
258,020	687,960	-0,068	-0,123
259,034	118,371	-0,151	-0,129
260,049	800,000	-0,101	-0,211
261,063	139,953	-0,133	-0,121
262,078	52,170	-0,178	-0,117
263,093	61,279	-0,194	-0,133
264,107	-90,486	-0,273	-0,054
265,122	800,000	-0,108	-0,244
266,136	-17,248	-0,235	-0,102
267,151	-79,529	-0,176	-0,041
268,166	-132,729	-0,171	-0,015
269,180	95,886	-0,154	-0,121
270,195	126,884	-0,180	-0,157
271,209	-122,738	-0,168	0,018
272,224	-100,949	-0,078	-0,013
273,239	-38,338	-0,237	-0,086
274,253	106,874	-0,134	-0,110
275,268	46,118	-0,192	-0,122
276,282	17,007	-0,219	-0,119
277,297	800,000	-0,099	-0,230
278,312	-28,781	-0,194	-0,076
279,326	2,508	-0,225	-0,112
280,341	7,086	-0,136	-0,070
281,355	-40,875	-0,163	-0,058
282,370	171,724	-0,197	-0,195
283,384	8,674	-0,205	-0,106
284,399	194,563	-0,237	-0,247
285,414	800,000	0,070	-0,175
286,428	800,000	-0,073	-0,189
287,443	292,246	-0,176	-0,221
288,457	800,000	-0,124	-0,257
289,472	132,072	-0,119	-0,106
290,487	161,440	-0,155	-0,150
291,501	-7,028	-0,295	-0,137
292,516	-200,000	-0,058	-0,208
293,530	435,721	-0,112	-0,168
294,545	-78,158	-0,300	0,070
295,560	85,855	-0,089	0,067
296,574	-82,308	-0,105	0,023
297,589	0,469	-0,256	-0,125
298,603	-86,835	-0,245	-0,051
299,618	790,729	-0,058	-0,110
300,633	-6,159	-0,092	-0,043
301,647	-55,195	-0,277	-0,085
302,662	15,964	-0,182	-0,098
303,676	-105,079	-0,185	-0,029
304,691	-47,270	-0,231	-0,077
305,706	164,519	-0,174	-0,169
306,720	227,348	-0,135	-0,151
307,735	46,433	-0,188	-0,120
308,749	-84,735	-0,153	0,033
309,764	-91,809	-0,146	0,028
310,779	-200,000	-0,016	-0,105
311,793	672,982	-0,137	-0,246
312,808	800,000	-0,086	-0,242
313,822	100,100	-0,128	-0,101
314,837	27,526	-0,166	-0,096
315,852	-200,000	-0,004	-0,083
316,866	-0,908	-0,143	-0,069
317,881	151,622	-0,150	-0,140
318,895	800,000	-0,132	-0,257
319,910	0,897	-0,198	-0,097
320,925	800,000	-0,083	-0,246
321,939	228,778	-0,160	-0,179
322,954	-200,000	-0,033	-0,145
323,968	193,072	-0,174	-0,180
324,983	466,504	-0,038	-0,058
325,997	-38,966	-0,169	-0,061
327,012	138,882	-0,187	-0,169
328,027	474,322	-0,161	-0,249
329,041	800,000	-0,095	-0,235
330,056	-28,516	-0,138	-0,054
331,070	130,994	-0,025	-0,022
332,085	49,373	-0,146	-0,094
333,100	128,309	-0,199	-0,173
334,114	-178,326	-0,152	0,002
335,129	800,000	-0,044	-0,084
336,143	800,000	-0,062	-0,127
337,158	-72,080	-0,185	-0,047
338,173	-107,059	-0,152	0,023
339,187	619,065	-0,077	-0,133
340,202	64,836	-0,117	-0,081
341,216	17,350	-0,148	-0,080
342,231	119,160	-0,123	-0,104
343,246	579,643	0,085	-0,143
344,260	271,776	-0,128	-0,155
345,275	216,915	-0,155	-0,170
346,289	476,158	-0,057	0,089
347,304	82,465	-0,020	0,015
348,319	136,369	-0,092	-0,082
349,333	502,838	-0,151	-0,239
350,348	357,082	-0,106	-0,145
351,362	800,000	0,016	-0,040
352,377	10,311	-0,102	0,053
353,392	-184,314	-0,162	-0,002
354,406	32,791	-0,106	0,063
355,421	206,989	1306,119	1393,781
356,435	159,215	1465,744	1394,247
