DTS Sentinel unit serial number:	SN410029Multiplexer serial number:	ORYXHardware model number:	OX2-SRSoftware version number:	ORYX F/W v4,00 Oryx Data Collector v3.7.2.0data status	okinstallation	B3 Nyhavnadifferential loss correction	single-endedforward channel	channel 1reverse channel	N/Adate	2023/12/04time	05:22:30forward acquisition time	300,00reverse acquisition time	0,00gamma	499,1914k internal	0,3206k external	0,3206temperature offset calibration	1,0000default loss term (dB/km)	0,3820temperature slope calibration	1,0000multiplexer offset coefficient	1,0000multiplexer slope coefficient	1,0000fibre end	0,00T internal ref (°C)	12,00T ext. ref 1 (°C)	-2,91T ext. ref 2 (°C)	-2,94length (m)	temperature (°C)	Stokes	anti-Stokes-744,400	59,844	-0,267	-0,191
-743,385	-200,000	-0,048	0,246
-742,371	285,859	-0,121	-0,159
-741,356	-200,000	0,010	0,297
-740,342	333,863	-0,175	-0,247
-739,327	-200,000	0,023	0,300
-738,312	293,219	-0,251	-0,333
-737,298	-200,000	-0,045	0,288
-736,283	344,518	-0,135	-0,193
-735,269	-200,000	-0,025	0,210
-734,254	800,000	-0,078	-0,170
-733,239	-79,535	-0,289	0,070
-732,225	800,000	-0,099	-0,227
-731,210	0,600	0,054	0,028
-730,196	-79,165	0,189	-0,046
-729,181	-140,403	-0,180	0,013
-728,167	-49,227	0,029	-0,010
-727,152	241,123	0,028	0,034
-726,137	569,469	-0,048	-0,084
-725,123	-148,002	-0,131	-0,008
-724,108	-116,701	-0,076	-0,010
-723,094	70,472	-0,063	0,048
-722,079	-101,137	-0,060	0,011
-721,064	-200,000	-0,023	-0,109
-720,050	47,337	-0,022	0,015
-719,035	800,000	0,053	-0,147
-718,021	-3,187	-0,138	0,070
-717,006	11,601	-0,041	-0,023
-715,991	-45,586	0,032	0,011
-714,977	287,450	-0,051	-0,067
-713,962	46,115	-0,100	0,067
-712,948	-200,000	0,028	-0,094
-711,933	-99,828	0,094	-0,017
-710,918	222,024	-0,029	0,034
-709,904	61,082	0,025	-0,018
-708,889	-200,000	-0,002	-0,051
-707,875	-103,040	-0,186	-0,032
-706,860	800,000	-0,034	-0,083
-705,845	800,000	-0,027	-0,083
-704,831	195,364	-0,059	-0,065
-703,816	-165,029	-0,102	-0,003
-702,802	365,684	0,115	-0,168
-701,787	800,000	-0,016	-0,035
-700,772	97,981	-0,061	-0,051
-699,758	21,721	-0,066	-0,039
-698,743	-200,000	-0,019	0,078
-697,729	-200,000	-0,008	0,081
-696,714	-200,000	-0,022	0,109
-695,699	-122,281	-0,055	0,006
-694,685	-200,000	-0,004	0,085
-693,670	362,655	0,104	-0,152
-692,656	392,038	0,034	0,052
-691,641	800,000	0,015	-0,043
-690,627	-10,152	0,125	0,060
-689,612	33,534	-0,035	-0,022
-688,597	800,000	0,054	-0,149
-687,583	469,371	-0,083	-0,136
-686,568	31,891	-0,056	-0,035
-685,554	39,097	-0,038	0,025
-684,539	123,791	0,089	0,081
-683,524	-200,000	-0,010	0,058
-682,510	796,234	-0,046	-0,093
-681,495	-103,605	0,099	0,017
-680,481	-200,000	0,032	-0,173
-679,466	641,445	-0,038	-0,070
-678,451	-69,693	-0,159	-0,044
-677,437	122,414	0,127	-0,115
-676,422	-200,000	0,012	0,041
-675,408	800,000	0,033	0,086
-674,393	800,000	-0,033	-0,092
-673,378	-1,623	0,084	-0,043
-672,364	38,591	-0,179	-0,115
-671,349	-200,000	-0,001	-0,059
-670,335	-32,350	0,125	-0,050
-669,320	800,000	-0,011	0,029
-668,305	178,140	0,004	0,005
-667,291	-31,215	0,007	-0,003
-666,276	-166,890	0,044	-0,001
-665,262	23,222	-0,126	-0,075
-664,247	56,321	-0,075	0,053
-663,232	-49,966	-0,071	-0,024
-662,218	0,568	0,120	0,062
-661,203	237,408	0,045	-0,054
-660,189	-200,000	-0,002	0,029
-659,174	86,003	-0,123	-0,098
-658,159	800,000	0,013	-0,028
-657,145	800,000	-0,029	-0,093
-656,130	5,839	0,104	-0,055
-655,116	727,080	-0,022	0,043
-654,101	335,229	0,020	-0,028
-653,086	142,017	-0,108	-0,103
-652,072	-144,905	-0,093	0,006
-651,057	233,672	-0,094	0,112
-650,043	111,218	0,156	-0,136
-649,028	-59,331	-0,116	0,036
-648,014	-7,932	0,111	-0,054
-646,999	800,000	0,026	0,069
-645,984	-158,382	-0,079	0,003
-644,970	697,372	-0,063	-0,120
-643,955	-200,000	0,015	-0,108
-642,941	587,732	-0,109	-0,194
-641,926	800,000	-0,037	-0,110
-640,911	800,000	-0,049	0,122
-639,897	-200,000	0,001	-0,061
-638,882	782,883	0,028	0,056
-637,868	-200,000	-0,013	0,050
-636,853	458,866	0,006	0,010
-635,838	-118,340	-0,093	0,012
-634,824	86,846	0,142	-0,113
-633,809	198,117	0,108	0,120
-632,795	242,283	0,064	0,078
-631,780	-200,000	-0,047	0,190
-630,765	800,000	0,018	0,047
-629,751	-174,407	0,058	-0,001
-628,736	800,000	-0,042	-0,106
-627,722	99,060	0,102	-0,085
-626,707	28,557	0,073	0,045
-625,692	800,000	0,042	-0,099
-624,678	248,092	0,027	-0,033
-623,663	240,694	0,072	-0,087
-622,649	196,310	0,093	0,103
-621,634	285,777	-0,054	-0,070
-620,619	-75,597	0,044	0,011
-619,605	26,226	-0,067	0,040
-618,590	800,000	0,028	0,078
-617,576	800,000	-0,046	0,108
-616,561	75,136	-0,109	-0,083
-615,546	41,706	0,014	0,009
-614,532	-10,017	-0,093	-0,044
-613,517	-9,026	-0,105	0,050
-612,503	800,000	-0,055	0,110
-611,488	248,549	-0,033	-0,041
-610,474	412,670	0,045	0,069
-609,459	102,982	-0,098	-0,083
-608,444	-44,483	0,097	-0,035
-607,430	-59,050	0,138	-0,043
-606,415	-200,000	0,035	-0,193
-605,401	-97,095	0,051	0,010
-604,386	76,805	0,147	0,113
-603,371	30,977	0,041	0,025
-602,357	-200,000	-0,022	-0,124
-601,342	716,576	-0,113	-0,217
-600,328	263,398	0,040	-0,050
-599,313	-69,649	-0,087	-0,024
-598,298	-140,342	-0,119	0,009
-597,284	365,961	0,040	0,059
-596,269	-142,297	-0,074	0,005
-595,255	-200,000	-0,038	-0,149
-594,240	-63,911	-0,044	-0,013
-593,225	-143,978	-0,099	0,007
-592,211	-34,386	-0,164	-0,065
-591,196	15,457	0,081	0,046
-590,182	513,913	0,029	0,049
-589,167	412,121	0,037	-0,057
-588,152	-71,646	0,102	-0,027
-587,138	-136,490	-0,033	-0,003
-586,123	210,490	0,051	-0,058
-585,109	-200,000	0,015	-0,056
-584,094	276,126	-0,041	-0,053
-583,079	106,183	0,113	-0,096
-582,065	-54,881	0,080	-0,026
-581,050	-200,000	0,023	0,121
-580,036	-66,918	-0,112	0,032
-579,021	43,332	-0,065	-0,043
-578,006	44,968	-0,126	-0,083
-576,992	62,020	0,110	-0,079
-575,977	629,421	-0,024	-0,043
-574,963	-124,428	0,118	-0,013
-573,948	139,243	-0,023	-0,022
-572,934	60,316	-0,025	0,018
-571,919	446,194	-0,133	-0,212
-570,904	776,303	0,029	-0,058
-569,890	-97,036	0,129	-0,024
-568,875	-45,346	-0,042	0,015
-567,861	787,359	-0,022	0,045
-566,846	-200,000	0,001	0,019
-565,831	145,384	0,067	0,065
-564,817	-66,209	-0,067	0,019
-563,802	-57,041	-0,094	-0,030
-562,788	193,963	-0,105	-0,114
-561,773	99,898	-0,059	0,050
-560,758	-134,903	0,138	0,012
-559,744	131,338	0,070	-0,065
-558,729	-200,000	0,003	0,082
-557,715	276,146	-0,020	0,025
-556,700	-112,935	-0,040	0,006
-555,685	-200,000	-0,007	0,054
-554,671	123,126	0,028	-0,025
-553,656	101,083	0,028	-0,023
-552,642	136,513	0,065	0,061
-551,627	102,471	-0,074	0,063
-550,612	-13,942	0,079	-0,037
-549,598	-200,000	-0,009	-0,062
-548,583	-200,000	0,000	-0,170
-547,569	236,577	0,040	-0,048
-546,554	800,000	0,013	0,033
-545,539	453,628	-0,021	0,034
-544,525	253,285	0,019	-0,024
-543,510	-91,206	-0,128	-0,026
-542,496	-200,000	-0,023	0,113
-541,481	-93,748	-0,153	-0,030
-540,466	59,887	0,061	-0,043
-539,452	800,000	0,040	0,111
-538,437	71,848	-0,055	0,041
-537,423	-75,699	-0,140	-0,036
-536,408	567,281	0,036	0,063
-535,393	369,385	-0,057	-0,083
-534,379	-200,000	0,022	-0,176
-533,364	-200,000	-0,027	-0,107
-532,350	141,174	-0,088	-0,084
-531,335	510,522	0,027	-0,045
-530,321	800,000	-0,074	0,204
-529,306	23,041	0,070	-0,041
-528,291	-200,000	-0,003	-0,154
-527,277	-167,910	-0,195	-0,005
-526,262	-46,008	-0,117	-0,041
-525,248	25,469	0,046	-0,028
-524,233	-1,728	-0,092	0,046
-523,218	497,717	0,067	-0,111
-522,204	-200,000	0,003	0,055
-521,189	-113,121	0,119	0,017
-520,175	-58,467	0,034	0,011
-519,160	-37,283	0,024	0,009
-518,145	94,618	0,124	0,101
-517,131	412,215	-0,051	0,078
-516,116	71,385	0,086	0,064
-515,102	127,774	-0,053	-0,049
-514,087	-58,089	-0,027	0,008
-513,072	186,134	0,034	0,037
-512,058	800,000	0,068	-0,212
-511,043	414,777	0,061	-0,094
-510,029	111,092	0,039	0,034
-509,014	301,533	-0,040	0,053
-507,999	152,676	0,079	-0,078
-506,985	800,000	0,021	0,058
-505,970	391,333	-0,039	-0,059
-504,956	800,000	-0,097	-0,242
-503,941	-200,000	-0,002	-0,007
-502,926	-200,000	0,010	0,131
-501,912	49,779	0,066	0,045
-500,897	-98,700	-0,031	-0,006
-499,883	-94,647	-0,142	0,027
-498,868	-200,000	-0,016	-0,164
-497,853	91,460	-0,192	-0,155
-496,839	730,123	-0,025	0,049
-495,824	332,898	0,022	0,031
-494,810	-88,592	0,143	-0,030
-493,795	-200,000	0,023	-0,124
-492,781	26,707	-0,059	-0,036
-491,766	-116,945	-0,081	0,010
-490,751	-133,190	-0,064	-0,006
-489,737	83,205	-0,074	-0,058
-488,722	233,494	0,118	0,140
-487,708	206,016	-0,098	-0,110
-486,693	46,752	0,041	-0,028
-485,678	-11,155	-0,086	0,040
-484,664	-54,882	0,107	-0,035
-483,649	319,870	-0,035	0,048
-482,635	168,453	0,008	0,008
-481,620	-200,000	0,050	-0,170
-480,605	-200,000	-0,007	0,088
-479,591	-200,000	0,008	0,150
-478,576	243,736	0,034	-0,041
-477,562	9,015	-0,123	0,066
-476,547	-12,533	-0,112	-0,052
-475,532	67,726	-0,119	-0,087
-474,518	800,000	0,108	0,236
-473,503	-49,903	-0,021	-0,007
-472,489	172,094	-0,045	-0,047
-471,474	-200,000	-0,001	0,013
-470,459	-80,136	-0,127	-0,030
-469,445	454,695	0,064	-0,102
-468,430	-200,000	-0,009	0,087
-467,416	-49,876	0,272	0,092
-466,401	-200,000	0,025	0,116
-465,386	335,515	-0,033	0,046
-464,372	-200,000	0,005	-0,018
-463,357	800,000	0,033	-0,076
-462,343	51,107	-0,093	0,063
-461,328	165,193	-0,083	0,085
-460,313	-200,000	0,021	0,188
-459,299	800,000	-0,026	0,072
-458,284	27,857	0,110	0,067
-457,270	800,000	0,024	-0,057
-456,255	582,794	-0,062	0,109
-455,241	30,638	-0,036	0,022
-454,226	-200,000	-0,046	-0,210
-453,211	98,860	0,047	-0,039
-452,197	-42,130	0,107	0,039
-451,182	800,000	-0,031	-0,080
-450,168	800,000	-0,038	0,103
-449,153	54,018	-0,037	-0,025
-448,138	-25,779	-0,054	0,023
-447,124	226,388	-0,106	-0,124
-446,109	800,000	-0,032	0,073
-445,095	633,891	0,028	0,052
-444,080	-11,392	0,057	0,027
-443,065	-10,069	-0,070	0,033
-442,051	-200,000	-0,002	0,033
-441,036	-200,000	0,002	0,098
-440,022	370,967	0,070	-0,102
-439,007	476,656	-0,084	0,137
-437,992	-58,514	-0,073	0,023
-436,978	57,161	0,109	0,076
-435,963	-170,684	0,081	0,002
-434,949	-30,865	0,059	-0,024
-433,934	25,663	0,088	0,052
-432,919	528,685	-0,092	0,156
-431,905	-200,000	0,052	-0,184
-430,890	-40,114	-0,098	0,037
-429,876	99,013	0,081	0,067
-428,861	-53,358	-0,093	0,030
-427,846	-200,000	0,006	-0,060
-426,832	800,000	0,024	-0,052
-425,817	73,327	0,031	-0,023
-424,803	109,001	0,039	0,034
-423,788	534,377	0,026	-0,045
-422,773	800,000	0,031	-0,097
-421,759	-39,222	0,063	0,024
-420,744	580,951	0,049	0,087
-419,730	-40,695	-0,044	0,016
-418,715	-91,169	-0,024	-0,005
-417,701	178,861	-0,032	0,033
-416,686	568,326	0,092	0,161
-415,671	409,430	0,015	0,022
-414,657	285,817	0,050	0,064
-413,642	117,358	0,041	-0,036
-412,628	85,510	-0,090	0,071
-411,613	312,959	-0,052	-0,070
-410,598	800,000	-0,022	0,060
-409,584	53,482	-0,091	0,062
-408,569	-200,000	0,033	0,130
-407,555	22,706	0,084	0,049
-406,540	67,360	0,022	0,016
-405,525	89,842	0,113	0,090
-404,511	-200,000	-0,032	-0,136
-403,496	-114,647	-0,047	0,006
-402,482	-25,870	-0,064	-0,027
-401,467	84,573	-0,071	0,055
-400,452	800,000	-0,040	0,107
-399,438	-164,674	0,146	-0,005
-398,423	163,427	-0,113	-0,114
-397,409	6,848	0,062	-0,033
-396,394	102,909	0,051	-0,043
-395,379	-200,000	0,001	0,021
-394,365	-82,708	0,061	0,014
-393,350	-200,000	-0,004	0,095
-392,336	800,000	-0,003	0,008
-391,321	800,000	-0,031	-0,064
-390,306	237,193	-0,071	-0,085
-389,292	182,455	0,064	0,068
-388,277	-40,530	0,056	0,021
-387,263	182,276	-0,052	-0,055
-386,248	-103,625	-0,123	-0,020
-385,233	-200,000	0,020	0,074
-384,219	-200,000	0,023	-0,181
-383,204	-184,561	0,066	-0,001
-382,190	-74,627	-0,030	-0,008
-381,175	-200,000	0,005	-0,032
-380,160	-200,000	0,010	-0,058
-379,146	800,000	0,034	0,086
-378,131	524,004	-0,063	-0,106
-377,117	-26,327	0,131	-0,055
-376,102	-43,859	-0,049	0,018
-375,088	54,498	-0,160	-0,110
-374,073	800,000	0,035	0,091
-373,058	339,026	-0,017	0,024
-372,044	157,371	0,096	-0,095
-371,029	227,249	-0,022	-0,025
-370,015	439,421	-0,072	0,114
-369,000	133,442	-0,161	-0,149
-367,985	-55,340	-0,094	-0,030
-366,971	-200,000	-0,004	0,049
-365,956	-200,000	0,003	-0,011
-364,942	-143,200	0,053	0,004
-363,927	800,000	0,072	0,144
-362,912	800,000	0,058	0,142
-361,898	56,114	-0,060	-0,042
-360,883	-115,372	-0,042	-0,006
-359,869	402,255	-0,055	0,083
-358,854	103,207	-0,065	0,054
-357,839	547,000	0,030	-0,051
-356,825	-200,000	-0,042	0,150
-355,810	-83,913	-0,115	0,026
-354,796	293,271	-0,043	-0,056
-353,781	-109,198	-0,109	-0,016
-352,766	-137,243	-0,081	-0,006
-351,752	-200,000	0,014	-0,072
-350,737	-200,000	-0,004	0,049
-349,723	-200,000	-0,017	-0,129
-348,708	-17,537	-0,004	-0,002
-347,693	-174,464	0,103	0,002
-346,679	472,148	-0,030	0,048
-345,664	800,000	0,061	0,123
-344,650	-69,418	-0,075	0,020
-343,635	800,000	0,023	0,060
-342,620	-41,401	0,090	-0,033
-341,606	200,396	-0,085	0,094
-340,591	-6,543	0,042	-0,021
-339,577	-200,000	0,002	0,049
-338,562	800,000	-0,050	-0,107
-337,548	-200,000	-0,006	-0,112
-336,533	800,000	0,018	-0,037
-335,518	107,434	-0,045	0,038
-334,504	-151,130	0,069	-0,004
-333,489	-200,000	-0,009	0,127
-332,475	-200,000	-0,033	-0,128
-331,460	-158,003	-0,081	-0,003
-330,445	-200,000	-0,023	0,132
-329,431	647,413	-0,057	0,104
-328,416	800,000	-0,027	-0,061
-327,402	579,677	0,048	-0,084
-326,387	192,553	0,053	-0,058
-325,372	32,571	-0,116	-0,072
-324,358	481,355	-0,095	0,155
-323,343	-200,000	-0,006	0,039
-322,329	800,000	0,047	0,144
-321,314	224,989	0,036	0,041
-320,299	-200,000	-0,013	-0,095
-319,285	50,339	0,169	-0,114
-318,270	-200,000	-0,022	-0,161
-317,256	-200,000	0,021	0,115
-316,241	-200,000	0,002	-0,070
-315,226	142,762	0,095	0,091
-314,212	-106,422	0,061	0,010
-313,197	-47,704	0,081	-0,028
-312,183	-99,722	-0,064	-0,011
-311,168	-200,000	0,002	-0,057
-310,153	-200,000	-0,008	-0,109
-309,139	-66,126	0,154	-0,044
-308,124	-156,118	-0,064	0,003
-307,110	-200,000	0,024	0,099
-306,095	-200,000	-0,019	-0,086
-305,080	301,329	0,043	0,057
-304,066	-126,132	-0,120	-0,013
-303,051	-45,633	-0,059	-0,021
-302,037	28,581	-0,054	0,033
-301,022	13,889	-0,094	0,052
-300,008	-144,876	0,076	0,005
-298,993	-74,990	0,055	0,014
-297,978	-54,807	0,167	-0,054
-296,964	-200,000	-0,027	-0,114
-295,949	90,802	0,054	0,043
-294,935	-106,519	-0,197	-0,031
-293,920	-200,000	0,010	0,091
-292,905	5,917	0,075	-0,040
-291,891	-177,951	0,040	0,001
-290,876	504,670	-0,062	0,103
-289,862	-200,000	0,010	-0,125
-288,847	386,069	-0,045	-0,066
-287,832	-200,000	-0,027	0,130
-286,818	146,752	0,071	0,068
-285,803	-136,759	0,073	-0,006
-284,789	13,134	-0,035	0,019
-283,774	209,106	0,121	0,135
-282,759	-200,000	0,041	0,148
-281,745	122,562	-0,105	0,094
-280,730	-77,979	-0,061	-0,015
-279,716	103,606	-0,024	-0,020
-278,701	-55,706	0,111	-0,035
-277,686	670,113	-0,025	-0,046
-276,672	-77,830	0,156	-0,038
-275,657	-200,000	-0,019	0,072
-274,643	301,295	-0,045	-0,059
-273,628	287,510	0,063	-0,081
-272,613	739,685	-0,017	0,033
-271,599	-200,000	0,041	0,244
-270,584	-200,000	-0,016	-0,073
-269,570	-200,000	0,026	-0,105
-268,555	34,618	-0,089	-0,055
-267,540	53,140	0,090	-0,061
-266,526	-102,779	0,078	0,013
-265,511	-200,000	0,003	0,032
-264,497	73,283	-0,064	0,048
-263,482	-30,353	0,105	0,042
-262,467	136,823	0,114	0,106
-261,453	-200,000	-0,006	0,054
-260,438	238,467	0,028	-0,033
-259,424	719,337	0,026	-0,050
-258,409	-78,804	-0,182	-0,044
-257,395	548,110	-0,022	0,038
-256,380	164,874	0,052	-0,052
-255,365	-84,440	0,027	-0,006
-254,351	-200,000	0,002	0,031
-253,336	-200,000	-0,052	-0,171
-252,322	181,659	0,029	-0,030
-251,307	-5,377	0,089	-0,043
-250,292	59,697	0,116	0,082
-249,278	316,940	0,032	-0,043
-248,263	-112,986	0,090	-0,013
-247,249	-4,830	0,079	-0,038
-246,234	-75,144	0,155	-0,039
-245,219	446,984	0,105	-0,165
-244,205	-37,596	-0,091	-0,034
-243,190	-200,000	0,008	0,036
-242,176	144,791	0,119	0,114
-241,161	749,717	0,045	0,088
-240,146	649,410	-0,060	0,110
-239,132	-129,658	0,029	0,003
-238,117	800,000	0,017	-0,045
-237,103	45,455	-0,048	0,031
-236,088	-200,000	0,180	0,000
-235,073	-200,000	-0,005	0,089
-234,059	-200,000	0,023	0,126
-233,044	142,353	-0,069	-0,065
-232,030	-200,000	0,001	0,013
-231,015	-68,277	0,069	-0,019
-230,000	75,632	0,029	-0,022
-228,986	800,000	-0,053	-0,136
-227,971	19,171	-0,027	0,015
-226,957	637,752	0,080	0,145
-225,942	-7,502	0,005	-0,003
-224,927	-200,000	-0,012	0,052
-223,913	800,000	-0,025	-0,069
-222,898	22,969	-0,041	-0,024
-221,884	-200,000	0,018	-0,071
-220,869	-14,367	0,033	-0,015
-219,855	-50,826	0,111	-0,037
-218,840	-200,000	-0,030	0,156
-217,825	-200,000	0,031	0,126
-216,811	29,003	0,041	0,025
-215,796	114,559	0,036	-0,032
-214,782	384,810	-0,102	-0,150
-213,767	351,952	0,012	-0,016
-212,752	800,000	0,056	0,117
-211,738	632,207	0,048	0,087
-210,723	231,209	0,103	0,120
-209,709	-148,699	0,120	0,007
-208,694	257,787	-0,100	-0,123
-207,679	276,780	-0,036	0,046
-206,665	-200,000	-0,025	-0,084
-205,650	800,000	0,036	0,092
-204,636	173,538	-0,114	0,117
-203,621	-200,000	0,011	0,233
-202,606	800,000	0,047	0,116
-201,592	90,130	-0,055	0,044
-200,577	-162,665	0,063	0,002
-199,563	-200,000	-0,007	-0,079
-198,548	-200,000	-0,005	-0,121
-197,533	-5,907	0,064	-0,031
-196,519	-200,000	0,011	-0,053
-195,504	-53,284	0,020	-0,006
-194,490	6,785	-0,052	0,027
-193,475	13,234	-0,110	0,060
-192,460	-200,000	-0,002	0,068
-191,446	800,000	0,071	0,197
-190,431	225,842	0,114	0,132
-189,417	800,000	0,040	-0,099
-188,402	177,329	-0,025	-0,025
-187,387	310,360	-0,056	0,074
-186,373	800,000	-0,009	0,027
-185,358	-200,000	-0,021	-0,084
-184,344	4,314	-0,067	0,035
-183,329	99,230	0,085	-0,070
-182,315	-200,000	-0,006	0,114
-181,300	-200,000	-0,006	-0,045
-180,285	213,761	0,059	-0,067
-179,271	5,570	-0,142	0,075
-178,256	84,080	0,056	0,043
-177,242	-200,000	-0,011	0,092
-176,227	66,977	-0,243	0,176
-175,212	-52,314	0,024	-0,008
-174,198	384,079	-0,029	0,043
-173,183	432,996	0,104	-0,161
-172,169	134,760	-0,133	-0,123
-171,154	-55,321	-0,090	0,029
-170,139	-148,081	0,052	0,003
-169,125	-60,439	0,109	-0,033
-168,110	654,747	-0,014	0,026
-167,096	150,122	-0,039	0,038
-166,081	-0,694	0,015	-0,008
-165,066	-200,000	-0,011	-0,089
-164,052	-200,000	-0,014	-0,119
-163,037	-168,066	-0,123	-0,003
-162,023	278,428	0,059	0,075
-161,008	800,000	0,043	0,111
-159,993	231,442	0,077	-0,090
-158,979	32,031	-0,098	-0,060
-157,964	-109,921	-0,062	-0,009
-156,950	-74,498	0,170	-0,043
-155,935	800,000	0,024	-0,067
-154,920	800,000	0,015	-0,030
-153,906	-200,000	0,003	-0,054
-152,891	-124,315	-0,075	0,008
-151,877	331,764	0,094	-0,129
-150,862	545,443	-0,046	-0,078
-149,847	800,000	0,010	-0,022
-148,833	-200,000	-0,012	-0,070
-147,818	253,338	0,047	-0,057
-146,804	107,102	-0,122	0,103
-145,789	-200,000	0,014	-0,049
-144,775	-200,000	0,041	-0,179
-143,760	800,000	0,014	-0,041
-142,745	-33,537	-0,008	0,003
-141,731	-200,000	-0,008	0,075
-140,716	-200,000	0,021	0,106
-139,702	21,947	0,064	0,037
-138,687	-200,000	-0,025	-0,160
-137,672	48,765	-0,058	0,039
-136,658	422,713	-0,054	-0,082
-135,643	6,668	-0,084	0,044
-134,629	-51,228	-0,064	-0,021
-133,614	-200,000	0,019	0,091
-132,599	-151,072	-0,188	0,010
-131,585	-65,024	0,117	0,033
-130,570	687,791	-0,034	0,063
-129,556	-200,000	-0,006	0,019
-128,541	-200,000	-0,000	-0,080
-127,526	-200,000	-0,028	-0,134
-126,512	-200,000	-0,018	-0,082
-125,497	-31,541	-0,140	0,056
-124,483	73,416	-0,090	0,067
-123,468	-200,000	0,004	-0,082
-122,453	35,549	-0,046	0,029
-121,439	800,000	-0,021	-0,044
-120,424	48,171	-0,117	-0,077
-119,410	148,410	-0,009	0,009
-118,395	-200,000	0,006	0,044
-117,380	3,699	-0,082	0,042
-116,366	-200,000	0,013	0,143
-115,351	439,028	-0,080	-0,125
-114,337	146,885	-0,093	0,088
-113,322	351,153	0,036	-0,051
-112,307	58,724	0,130	0,091
-111,293	-147,135	-0,036	0,002
-110,278	63,561	0,121	0,086
-109,264	-68,248	-0,060	-0,017
-108,249	277,677	0,068	-0,086
-107,234	-73,693	-0,067	-0,017
-106,220	800,000	0,031	-0,068
-105,205	800,000	-0,043	0,092
-104,191	-105,557	0,014	0,002
-103,176	31,488	0,017	0,010
-102,162	-200,000	0,003	-0,118
-101,147	-30,387	-0,141	-0,056
-100,132	-200,000	-0,011	0,087
-99,118	460,079	-0,108	-0,170
-98,103	131,697	0,053	0,048
-97,089	-200,000	-0,013	-0,087
-96,074	24,164	0,062	-0,036
-95,059	80,123	0,126	-0,096
-94,045	-148,299	0,098	0,006
-93,030	-53,659	-0,150	-0,048
-92,016	33,567	-0,156	-0,096
-91,001	-55,611	-0,114	-0,036
-89,986	-159,921	0,105	0,004
-88,972	-200,000	0,011	0,045
-87,957	-131,196	0,077	-0,007
-86,943	671,007	-0,071	-0,131
-85,928	-13,345	-0,072	-0,033
-84,913	44,293	0,058	0,037
-83,899	-137,517	-0,104	0,008
-82,884	0,764	0,070	-0,035
-81,870	270,057	0,033	0,041
-80,855	69,331	-0,015	-0,011
-79,840	41,470	-0,118	0,076
-78,826	800,000	-0,060	-0,135
-77,811	199,924	-0,033	0,036
-76,797	-200,000	-0,009	-0,091
-75,782	800,000	-0,051	0,111
-74,767	10,196	0,072	-0,039
-73,753	278,560	0,025	0,031
-72,738	53,771	0,092	-0,063
-71,724	-96,099	0,045	-0,008
-70,709	6,950	-0,086	0,045
-69,694	-200,000	-0,005	-0,188
-68,680	-16,814	0,058	-0,026
-67,665	46,700	-0,020	0,013
-66,651	436,422	0,043	-0,066
-65,636	-71,814	0,180	-0,047
-64,622	291,674	0,052	0,068
-63,607	-73,630	-0,057	-0,015
-62,592	-200,000	-0,028	-0,097
-61,578	650,124	-0,038	0,068
-60,563	66,794	0,041	0,030
-59,549	800,000	0,066	0,167
-58,534	1,893	-1,763	-0,896
-57,519	507,967	-1,206	-1,986
-56,505	-200,000	-0,422	-4,582
-55,490	503,096	0,894	1,468
-54,476	800,000	4,982	11,174
-53,461	-200,000	20,138	323,097
-52,446	800,000	752,051	2309,713
-51,432	548,945	1662,876	2827,504
-50,417	74,828	1671,581	1242,649
-49,403	19,830	1544,654	877,166
-48,388	13,849	1467,172	804,070
-47,373	18,387	1457,291	820,544
-46,359	16,284	1446,770	804,514
-45,344	12,108	1442,401	782,055
-44,330	12,038	1440,576	780,698
-43,315	12,030	1438,647	779,587
-42,300	12,031	1436,976	778,654
-41,286	12,050	1435,909	778,133
-40,271	12,022	1434,551	777,235
-39,257	11,988	1433,244	776,332
-38,242	12,024	1431,988	775,793
-37,227	12,089	1430,760	775,407
-36,213	12,047	1429,661	774,580
-35,198	12,049	1428,238	773,791
-34,184	12,126	1427,292	773,611
-33,169	12,059	1426,049	772,589
-32,154	12,087	1424,744	771,986
-31,140	12,182	1423,410	771,681
-30,125	12,161	1422,351	770,977
-29,111	12,093	1421,325	770,069
-28,096	12,093	1420,290	769,476
-27,082	12,037	1419,127	768,554
-26,067	12,024	1418,392	768,061
-25,052	12,028	1416,875	767,227
-24,038	12,061	1415,894	766,821
-23,023	12,028	1415,071	766,191
-22,009	12,035	1413,776	765,490
-20,994	12,002	1412,958	764,866
-19,979	12,026	1412,018	764,440
-18,965	11,968	1411,280	763,736
-17,950	11,981	1410,307	763,239
-16,936	11,961	1409,547	762,706
-15,921	11,952	1408,357	761,989
-14,906	11,922	1407,451	761,328
-13,892	11,944	1406,533	760,905
-12,877	11,971	1405,761	760,580
-11,863	11,985	1404,771	760,082
-10,848	11,933	1403,850	759,311
-9,833	11,894	1403,070	758,676
-8,819	11,854	1402,194	757,987
-7,804	11,840	1401,352	757,436
-6,790	11,833	1400,399	756,860
-5,775	11,874	1399,059	756,296
-4,760	11,861	1398,197	755,739
-3,746	11,849	1397,319	755,177
-2,731	11,849	1396,561	754,736
-1,717	11,769	1395,853	753,955
-0,702	11,784	1393,950	752,968
0,313	15,747	1308,856	725,293
1,327	31,974	699,980	425,185
2,342	49,320	121,985	80,905
3,356	1,871	16,574	8,415
4,371	8,131	3,291	1,740
5,386	-41,195	0,640	0,232
6,400	-200,000	0,055	0,311
7,415	126,711	-0,140	-0,125
8,429	-0,494	-0,273	-0,136
9,444	11,422	-0,331	-0,179
10,459	26,805	-0,334	-0,197
11,473	-11,560	-0,194	-0,090
12,488	-77,853	-0,301	-0,073
13,502	68,563	-0,315	-0,228
14,517	-52,512	-0,372	-0,121
15,531	38,548	-0,310	-0,195
16,546	0,061	-0,186	-0,093
17,561	111,476	-0,329	-0,280
18,575	-188,195	-0,199	0,002
19,590	339,441	-0,166	-0,229
20,604	6,685	-0,151	-0,079
21,619	20,258	-0,489	-0,278
22,634	288,212	-0,330	-0,422
23,648	106,624	-0,406	-0,339
24,663	65,296	-0,354	-0,252
25,677	13,379	-0,408	-0,222
26,692	-4,449	-0,365	-0,177
27,707	-32,221	-0,441	-0,173
28,721	498,772	-0,212	-0,345
29,736	139,211	-0,341	-0,316
30,750	121,299	-0,355	-0,311
31,765	73,988	-0,388	-0,287
32,780	-0,479	-0,350	-0,175
33,794	67,517	-0,350	-0,252
34,809	132,377	-0,278	-0,253
35,823	-68,999	-0,287	-0,077
36,838	115,306	-0,265	-0,228
37,853	15,467	-0,456	-0,252
38,867	73,928	-0,371	-0,273
39,882	182,509	-0,342	-0,355
40,896	28,280	-0,195	-0,116
41,911	-87,690	-0,319	-0,067
42,926	106,650	-0,344	-0,287
43,940	101,501	-0,386	-0,316
44,955	445,094	-0,245	-0,380
45,969	77,490	-0,429	-0,321
46,984	61,428	-0,356	-0,249
47,999	15,859	-0,352	-0,194
49,013	1,236	-0,395	-0,199
50,028	65,866	-0,338	-0,241
51,042	47,221	-0,328	-0,214
52,057	61,355	-0,353	-0,246
53,071	19,568	-0,280	-0,158
54,086	-40,562	-0,420	-0,152
55,101	38,803	-0,261	-0,163
56,115	62,693	-0,366	-0,257
57,130	3,116	-0,368	-0,187
58,144	-109,612	-0,356	-0,052
59,159	-3,062	-0,303	-0,148
60,174	188,047	-0,301	-0,316
61,188	-0,384	-0,405	-0,202
62,203	234,998	-0,272	-0,316
63,217	39,192	-0,329	-0,207
64,232	-24,031	-0,316	-0,132
65,247	85,841	-0,185	-0,143
66,261	164,499	-0,224	-0,222
67,276	83,703	-0,303	-0,232
68,290	46,623	-0,285	-0,186
69,305	-28,723	-0,393	-0,158
70,320	-47,249	-0,426	-0,145
71,334	-88,504	-0,270	-0,056
72,349	167,440	-0,250	-0,250
73,363	263,347	-0,241	-0,295
74,378	-65,009	-0,426	-0,120
75,393	5,150	-0,249	-0,129
76,407	-53,871	-0,385	-0,122
77,422	96,807	-0,245	-0,197
78,436	147,057	-0,206	-0,194
79,451	80,312	-0,324	-0,244
80,466	-34,094	-0,421	-0,162
81,480	198,854	-0,361	-0,388
82,495	-120,138	-0,198	-0,023
83,509	93,096	-0,306	-0,242
84,524	3,987	-0,183	-0,093
85,539	192,925	-0,317	-0,336
86,553	151,107	-0,311	-0,297
87,568	-36,988	-0,330	-0,124
88,582	111,017	-0,364	-0,308
89,597	37,835	-0,444	-0,276
90,611	26,010	-0,372	-0,217
91,626	207,330	-0,163	-0,178
92,641	-33,427	-0,194	-0,075
93,655	-22,545	-0,350	-0,148
94,670	8,909	-0,277	-0,146
95,684	21,158	-0,309	-0,175
96,699	83,871	-0,234	-0,179
97,714	231,539	-0,184	-0,212
98,728	91,303	-0,323	-0,254
99,743	-142,111	-0,446	0,031
100,757	151,878	-0,195	-0,186
101,772	0,090	-0,279	-0,139
102,787	127,144	-0,173	-0,153
103,801	98,023	-0,303	-0,244
104,816	-74,601	-0,407	-0,102
105,830	-37,652	-0,235	-0,087
106,845	72,894	-0,283	-0,207
107,860	211,057	-0,184	-0,203
108,874	-23,159	-0,178	-0,075
109,889	75,473	-0,258	-0,191
110,903	95,135	-0,288	-0,230
111,918	214,713	-0,282	-0,314
112,933	55,021	-0,106	-0,072
113,947	179,280	-0,212	-0,217
114,962	21,542	-0,271	-0,154
115,976	92,954	-0,337	-0,266
116,991	46,874	-0,305	-0,198
118,006	347,542	-0,217	-0,299
119,020	257,324	-0,253	-0,304
120,035	-135,790	-0,279	-0,023
121,049	-8,472	-0,296	-0,138
122,064	-43,547	-0,193	-0,068
123,079	21,691	-0,315	-0,179
124,093	336,988	-0,236	-0,321
125,108	101,730	-0,368	-0,300
126,122	332,822	-0,120	-0,162
127,137	-32,634	-0,288	-0,111
128,151	7,288	-0,177	-0,092
129,166	-59,405	-0,172	-0,051
130,181	14,202	-0,287	-0,156
131,195	4,805	-0,283	-0,145
132,210	112,409	-0,251	-0,212
133,224	-21,138	-0,315	-0,134
134,239	25,099	-0,328	-0,190
135,254	596,956	-0,128	-0,222
136,268	119,599	-0,255	-0,220
137,283	31,378	-0,271	-0,162
138,297	800,000	-0,141	-0,286
139,312	-44,537	-0,283	-0,098
140,327	141,903	-0,253	-0,234
141,341	3,472	-0,346	-0,175
142,356	-200,000	-0,037	-0,181
143,370	330,276	-0,182	-0,246
144,385	125,145	-0,263	-0,232
145,400	535,002	-0,223	-0,370
146,414	378,505	-0,175	-0,251
147,429	10,318	-0,283	-0,150
148,443	414,414	-0,178	-0,266
149,458	12,752	-0,173	-0,093
150,473	314,254	-0,132	-0,174
151,487	349,193	-0,198	-0,273
152,502	55,920	-0,247	-0,167
153,516	800,000	-0,177	-0,395
154,531	276,283	-0,219	-0,272
155,546	-28,568	-0,260	-0,104
156,560	53,742	-0,305	-0,203
157,575	142,260	-0,183	-0,169
158,589	-102,037	-0,204	-0,034
159,604	-55,314	-0,187	-0,058
160,619	-68,797	-0,302	-0,081
161,633	-71,454	-0,279	-0,072
162,648	6,113	-0,171	-0,088
163,662	-67,374	-0,257	-0,070
164,677	-31,076	-0,181	-0,071
165,692	58,575	-0,238	-0,162
166,706	99,145	-0,249	-0,200
167,721	51,485	-0,221	-0,146
168,735	159,140	-0,135	-0,131
169,750	87,574	-0,176	-0,136
170,764	0,359	-0,240	-0,119
171,779	155,261	-0,233	-0,223
172,794	291,749	-0,163	-0,206
173,808	173,158	-0,178	-0,179
174,823	800,000	-0,154	-0,309
175,837	-1,164	-0,275	-0,135
176,852	52,978	-0,210	-0,140
177,867	20,721	-0,255	-0,143
178,881	705,276	-0,092	-0,170
179,896	56,284	-0,226	-0,153
180,910	151,525	-0,186	-0,177
181,925	163,019	-0,221	-0,216
182,940	129,578	-0,120	-0,107
183,954	20,331	-0,246	-0,138
184,969	800,000	-0,084	-0,241
185,983	-34,721	-0,209	-0,079
186,998	100,920	-0,147	-0,119
188,013	-42,753	-0,314	-0,110
189,027	151,049	-0,170	-0,160
190,042	10,845	-0,251	-0,133
191,056	159,160	-0,178	-0,172
192,071	-41,968	-0,289	-0,102
193,086	-6,723	-0,312	-0,147
194,100	-129,252	-0,238	-0,023
195,115	-4,344	-0,249	-0,119
196,129	282,222	-0,268	-0,335
197,144	80,195	-0,236	-0,176
198,159	226,166	-0,193	-0,218
199,173	74,128	-0,163	-0,119
200,188	111,595	-0,169	-0,142
201,202	221,104	-0,193	-0,216
202,217	13,914	-0,248	-0,134
203,232	66,142	-0,254	-0,179
204,246	-28,728	-0,283	-0,113
205,261	-84,072	-0,140	-0,031
206,275	-34,584	-0,251	-0,095
207,290	507,877	-0,039	-0,063
208,304	-74,817	-0,280	-0,069
209,319	-11,344	-0,195	-0,089
210,334	439,343	-0,136	-0,206
211,348	466,219	-0,226	-0,353
212,363	-200,000	-0,074	-0,272
213,377	24,295	-0,251	-0,144
214,392	367,916	-0,161	-0,227
215,407	17,291	-0,208	-0,114
216,421	-153,146	-0,135	-0,006
217,436	800,000	-0,141	-0,288
218,450	136,008	-0,302	-0,273
219,465	207,917	-0,159	-0,172
220,480	800,000	-0,108	-0,268
221,494	245,704	-0,164	-0,192
222,509	95,384	-0,236	-0,186
223,523	-144,507	-0,137	-0,009
224,538	106,700	-0,200	-0,164
225,553	-98,043	-0,260	-0,046
226,567	121,460	-0,141	-0,121
227,582	-75,731	-0,149	-0,036
228,596	111,183	-0,093	-0,078
229,611	379,474	-0,120	-0,171
230,626	74,834	-0,210	-0,153
231,640	85,387	-0,202	-0,153
232,655	26,291	-0,333	-0,192
233,669	33,601	-0,290	-0,174
234,684	170,488	-0,129	-0,128
235,699	3,762	-0,211	-0,106
236,713	-200,000	-0,065	-0,214
237,728	57,510	-0,206	-0,139
238,742	-53,828	-0,225	-0,071
239,757	177,678	-0,233	-0,235
240,772	516,230	-0,140	-0,227
241,786	270,741	-0,186	-0,227
242,801	-40,495	-0,209	-0,075
243,815	170,084	-0,103	-0,102
244,830	196,169	-0,150	-0,159
245,844	-8,232	-0,226	-0,105
246,859	124,881	-0,266	-0,232
247,874	158,999	-0,186	-0,179
248,888	489,176	-0,125	-0,198
249,903	376,649	-0,204	-0,289
250,917	371,576	-0,029	-0,041
251,932	-99,706	-0,182	-0,031
252,947	800,000	-0,033	-0,068
253,961	148,742	-0,164	-0,153
254,976	-24,933	-0,277	-0,113
255,990	800,000	-0,056	-0,108
257,005	-71,335	-0,258	-0,066
258,020	-4,901	-0,088	-0,042
259,034	-200,000	-0,025	-0,095
260,049	800,000	-0,065	-0,156
261,063	126,213	-0,142	-0,124
262,078	172,640	-0,146	-0,145
263,093	99,868	-0,225	-0,180
264,107	54,003	-0,129	-0,086
265,122	250,585	-0,086	0,100
266,136	-173,768	-0,237	0,005
267,151	-109,006	-0,190	-0,028
268,166	-200,000	-0,049	-0,194
269,180	74,055	-0,223	-0,161
270,195	111,985	-0,267	-0,222
271,209	114,443	-0,173	-0,145
272,224	77,171	-0,153	-0,112
273,239	37,007	-0,147	-0,089
274,253	-145,082	-0,191	0,012
275,268	235,549	-0,159	-0,181
276,282	18,567	-0,288	-0,158
277,297	498,673	-0,180	-0,286
278,312	800,000	-0,057	-0,142
279,326	155,296	-0,192	-0,182
280,341	-119,224	-0,253	-0,030
281,355	57,487	-0,180	-0,121
282,370	-35,314	-0,192	-0,072
283,384	-200,000	-0,002	-0,263
284,399	578,195	-0,122	-0,207
285,414	38,933	-0,261	-0,160
286,428	201,250	-0,094	-0,100
287,443	3,393	-0,052	-0,026
288,457	-85,182	-0,205	-0,044
289,472	211,702	-0,136	-0,148
290,487	800,000	-0,105	-0,239
291,501	143,578	-0,103	-0,094
292,516	73,785	-0,103	0,075
293,530	18,096	-0,115	-0,063
294,545	140,368	-0,101	-0,092
295,560	255,769	-0,134	-0,158
296,574	-59,503	-0,224	-0,066
297,589	-11,213	-0,120	-0,054
298,603	299,238	-0,102	-0,130
299,618	221,470	-0,151	-0,167
300,633	-8,735	-0,187	-0,086
301,647	-56,801	-0,074	-0,022
302,662	-12,814	-0,136	-0,061
303,676	130,102	-0,074	-0,065
304,691	655,168	-0,112	-0,199
305,706	-15,300	-0,159	-0,070
306,720	149,313	-0,144	-0,135
307,735	49,932	-0,153	-0,099
308,749	15,944	-0,162	-0,087
309,764	392,581	-0,049	-0,070
310,779	-200,000	-0,019	-0,094
311,793	417,256	-0,057	-0,084
312,808	-53,578	-0,083	-0,026
313,822	113,917	-0,147	-0,123
314,837	197,201	-0,153	-0,161
315,852	449,186	-0,086	-0,131
316,866	31,945	-0,134	-0,079
317,881	737,632	-0,074	-0,137
318,895	78,735	-0,068	-0,050
319,910	296,991	-0,212	-0,268
320,925	33,406	-0,139	-0,083
321,939	102,290	-0,167	-0,134
322,954	800,000	-0,060	-0,115
323,968	213,447	-0,060	0,065
324,983	80,628	-0,083	-0,061
325,997	-131,818	-0,179	-0,016
327,012	-101,360	-0,156	0,026
328,027	-50,769	-0,235	-0,075
329,041	4,651	-0,098	-0,049
330,056	-200,000	0,015	-0,082
331,070	-28,108	-0,172	-0,068
332,085	224,470	-0,169	-0,188
333,100	800,000	-0,060	-0,179
334,114	154,195	-0,177	-0,167
335,129	-37,024	-0,184	-0,067
336,143	-73,473	-0,201	-0,050
337,158	183,482	-0,122	-0,124
338,173	45,368	-0,106	-0,067
339,187	-88,527	-0,194	-0,039
340,202	-200,000	-0,043	-0,195
341,216	-122,360	-0,273	-0,030
342,231	-8,467	-0,142	-0,065
343,246	125,418	-0,151	-0,131
344,260	-52,303	-0,111	0,035
345,275	53,500	-0,042	0,028
346,289	-200,000	-0,014	-0,171
347,304	191,512	-0,088	-0,091
348,319	90,745	-0,138	-0,106
349,333	-96,095	-0,140	-0,025
350,348	61,815	-0,139	-0,095
351,362	336,796	-0,121	-0,161
352,377	800,000	-0,025	-0,067
353,392	183,601	-0,098	-0,099
354,406	-104,157	-0,137	0,022
355,421	207,774	1315,552	1408,643
356,435	159,840	1476,359	1409,101
