DTS Sentinel unit serial number:	SN410029Multiplexer serial number:	ORYXHardware model number:	OX2-SRSoftware version number:	ORYX F/W v4,00 Oryx Data Collector v3.7.2.0data status	okinstallation	B3 Nyhavnadifferential loss correction	single-endedforward channel	channel 1reverse channel	N/Adate	2023/12/02time	11:42:30forward acquisition time	300,00reverse acquisition time	0,00gamma	499,1914k internal	0,3199k external	0,3199temperature offset calibration	1,0000default loss term (dB/km)	0,3820temperature slope calibration	1,0000multiplexer offset coefficient	1,0000multiplexer slope coefficient	1,0000fibre end	0,00T internal ref (°C)	14,00T ext. ref 1 (°C)	-1,24T ext. ref 2 (°C)	-1,26length (m)	temperature (°C)	Stokes	anti-Stokes-744,400	117,832	-0,265	-0,238
-743,385	-200,000	-0,046	0,313
-742,371	308,052	-0,113	-0,154
-741,356	-200,000	0,087	0,419
-740,342	800,000	-0,118	-0,351
-739,327	-200,000	0,047	0,240
-738,312	221,327	-0,248	-0,290
-737,298	-200,000	0,039	0,356
-736,283	668,799	-0,143	-0,270
-735,269	-200,000	0,041	0,166
-734,254	172,072	-0,197	-0,206
-733,239	66,358	-0,116	0,086
-732,225	189,081	-0,050	-0,055
-731,210	-200,000	-0,005	0,086
-730,196	34,661	0,083	-0,053
-729,181	620,528	-0,080	-0,147
-728,167	152,435	-0,097	0,096
-727,152	-94,405	0,051	0,010
-726,137	-91,376	-0,073	-0,015
-725,123	203,048	-0,078	-0,087
-724,108	-40,983	-0,088	-0,033
-723,094	-80,981	-0,175	-0,042
-722,079	-62,840	-0,053	0,016
-721,064	-184,174	-0,107	-0,001
-720,050	-155,353	0,068	-0,003
-719,035	-13,536	0,065	0,031
-718,021	-200,000	0,002	-0,058
-717,006	-7,198	-0,081	-0,040
-715,991	503,867	-0,040	-0,068
-714,977	-200,000	-0,009	-0,129
-713,962	-78,713	-0,150	-0,037
-712,948	-37,375	0,129	-0,050
-711,933	790,319	0,045	-0,090
-710,918	800,000	-0,035	-0,073
-709,904	51,302	-0,095	0,065
-708,889	-200,000	-0,027	-0,092
-707,875	800,000	0,011	0,029
-706,860	105,038	0,047	-0,040
-705,845	-93,024	0,067	-0,013
-704,831	281,118	0,054	0,070
-703,816	-200,000	0,013	-0,058
-702,802	800,000	0,020	-0,060
-701,787	-200,000	-0,104	0,000
-700,772	-200,000	-0,004	-0,024
-699,758	-114,311	-0,055	-0,008
-698,743	-95,254	-0,022	0,004
-697,729	186,716	0,093	-0,100
-696,714	-38,855	0,082	-0,031
-695,699	800,000	0,022	-0,057
-694,685	-32,755	-0,160	-0,065
-693,670	436,649	0,073	-0,115
-692,656	20,132	-0,098	-0,057
-691,641	-120,891	0,018	-0,002
-690,627	800,000	-0,006	-0,018
-689,612	107,163	-0,055	0,047
-688,597	800,000	0,039	0,109
-687,583	-200,000	0,004	0,040
-686,568	117,157	-0,091	0,081
-685,554	-200,000	0,020	-0,082
-684,539	-58,480	0,103	-0,032
-683,524	-200,000	0,030	0,123
-682,510	126,801	-0,112	0,103
-681,495	-200,000	-0,050	0,163
-680,481	420,742	0,082	0,128
-679,466	800,000	-0,013	0,036
-678,451	-166,490	0,133	-0,004
-677,437	120,780	-0,070	0,064
-676,422	-200,000	-0,027	0,130
-675,408	-88,300	-0,104	0,022
-674,393	-200,000	-0,014	0,141
-673,378	-200,000	0,005	-0,113
-672,364	-149,331	-0,219	0,012
-671,349	236,758	-0,027	-0,033
-670,335	350,831	-0,086	0,124
-669,320	25,433	0,120	-0,072
-668,305	-200,000	0,023	-0,105
-667,291	503,657	0,075	0,127
-666,276	350,501	-0,053	0,076
-665,262	800,000	0,025	-0,076
-664,247	237,994	-0,063	0,076
-663,232	-113,461	-0,058	0,008
-662,218	-200,000	0,011	0,168
-661,203	-200,000	-0,016	0,078
-660,189	800,000	0,038	-0,099
-659,174	-200,000	-0,002	-0,021
-658,159	800,000	0,081	-0,166
-657,145	36,671	0,073	-0,046
-656,130	27,444	-0,059	-0,036
-655,116	800,000	0,013	0,035
-654,101	800,000	-0,045	0,141
-653,086	284,363	-0,043	0,056
-652,072	-128,195	-0,235	0,024
-651,057	-200,000	0,009	-0,029
-650,043	41,805	-0,071	-0,047
-649,028	4,265	-0,021	-0,011
-648,014	-196,309	-0,080	-0,000
-646,999	-143,712	-0,188	0,013
-645,984	-200,000	-0,006	0,030
-644,970	-200,000	0,021	-0,126
-643,955	-94,148	-0,098	0,019
-642,941	196,857	-0,073	-0,081
-641,926	549,030	-0,037	-0,065
-640,911	800,000	-0,064	-0,139
-639,897	17,623	0,135	-0,078
-638,882	-200,000	0,029	-0,148
-637,868	800,000	0,064	-0,142
-636,853	800,000	-0,078	-0,167
-635,838	800,000	0,033	-0,104
-634,824	224,793	0,063	-0,074
-633,809	-28,398	0,068	0,028
-632,795	-55,132	0,088	0,029
-631,780	-200,000	0,007	0,101
-630,765	-60,482	-0,091	0,028
-629,751	-156,495	-0,126	-0,006
-628,736	-81,773	-0,057	0,013
-627,722	-7,255	-0,084	0,041
-626,707	-62,787	0,177	-0,053
-625,692	733,895	0,019	-0,037
-624,678	19,083	0,157	0,091
-623,663	233,669	-0,123	-0,147
-622,649	255,068	-0,030	0,037
-621,634	64,541	-0,166	-0,121
-620,619	760,698	0,036	0,072
-619,605	800,000	-0,027	0,082
-618,590	-25,195	0,131	0,056
-617,576	725,792	-0,021	-0,041
-616,561	800,000	-0,040	0,091
-615,546	171,505	0,090	-0,094
-614,532	-200,000	0,010	-0,070
-613,517	182,613	-0,024	0,025
-612,503	144,981	0,082	0,079
-611,488	520,241	-0,057	-0,096
-610,474	800,000	-0,040	0,109
-609,459	-46,297	0,093	0,033
-608,444	-200,000	0,002	-0,087
-607,430	249,340	-0,093	-0,115
-606,415	461,045	0,082	-0,133
-605,401	-58,630	0,122	0,038
-604,386	800,000	-0,047	-0,109
-603,371	139,290	-0,064	0,061
-602,357	-200,000	-0,017	0,159
-601,342	800,000	-0,023	-0,066
-600,328	-200,000	0,018	-0,087
-599,313	556,635	-0,117	0,205
-598,298	-200,000	0,000	-0,139
-597,284	410,843	0,070	-0,107
-596,269	-165,435	0,070	-0,002
-595,255	800,000	0,024	-0,049
-594,240	-200,000	0,049	-0,162
-593,225	55,991	-0,096	-0,067
-592,211	351,200	-0,047	-0,067
-591,196	105,232	-0,002	0,002
-590,182	612,872	0,074	-0,135
-589,167	259,361	0,012	-0,014
-588,152	-143,283	-0,148	0,010
-587,138	5,141	-0,086	0,046
-586,123	199,808	-0,077	-0,086
-585,109	-26,060	-0,036	0,015
-584,094	-85,572	-0,162	0,036
-583,079	694,673	-0,070	-0,134
-582,065	-127,090	-0,111	0,012
-581,050	49,680	-0,055	0,037
-580,036	-99,513	-0,101	-0,018
-579,021	-141,717	0,088	-0,006
-578,006	-142,176	-0,081	-0,006
-576,992	380,794	-0,025	-0,037
-575,977	-200,000	-0,019	-0,085
-574,963	329,707	-0,014	0,020
-573,948	100,050	0,061	0,051
-572,934	5,350	-0,029	-0,015
-571,919	513,259	-0,058	0,097
-570,904	67,493	0,095	-0,070
-569,890	-111,783	-0,070	-0,010
-568,875	-15,711	0,075	-0,034
-567,861	151,782	0,019	-0,019
-566,846	74,579	0,097	-0,073
-565,831	-200,000	-0,000	-0,005
-564,817	-35,981	-0,073	-0,028
-563,802	-200,000	0,020	-0,189
-562,788	800,000	-0,006	-0,013
-561,773	673,378	-0,053	-0,099
-560,758	76,650	0,118	0,091
-559,744	16,930	-0,026	-0,015
-558,729	-60,205	-0,090	-0,028
-557,715	-55,658	-0,167	-0,054
-556,700	-200,000	0,012	-0,088
-555,685	84,622	0,072	0,057
-554,671	-18,175	0,048	0,022
-553,656	573,467	0,054	0,095
-552,642	-28,482	0,052	-0,022
-551,627	-91,410	0,054	0,011
-550,612	800,000	-0,022	0,053
-549,598	211,292	0,123	-0,140
-548,583	-200,000	0,004	-0,014
-547,569	97,104	-0,103	0,086
-546,554	-200,000	0,005	0,064
-545,539	800,000	0,054	0,113
-544,525	-47,498	0,064	-0,022
-543,510	35,590	-0,028	-0,018
-542,496	-173,815	-0,079	0,002
-541,481	-200,000	-0,007	0,034
-540,466	8,808	-0,058	-0,031
-539,452	-200,000	-0,022	-0,091
-538,437	51,958	-0,012	-0,008
-537,423	74,050	-0,106	0,081
-536,408	-200,000	0,014	0,051
-535,393	-200,000	0,005	-0,064
-534,379	604,121	0,049	-0,089
-533,364	85,700	0,102	-0,081
-532,350	444,725	0,085	0,136
-531,335	-200,000	-0,004	0,052
-530,321	475,416	0,041	0,067
-529,306	-200,000	0,040	0,129
-528,291	-4,730	-0,105	0,052
-527,277	-200,000	-0,024	0,079
-526,262	183,341	-0,080	0,086
-525,248	-161,020	0,058	-0,002
-524,233	181,212	0,123	0,131
-523,218	105,637	0,047	0,040
-522,204	-81,612	-0,076	-0,018
-521,189	395,536	-0,029	0,044
-520,175	-200,000	0,033	-0,190
-519,160	335,637	0,075	0,105
-518,145	-200,000	-0,001	-0,038
-517,131	-192,813	-0,051	-0,000
-516,116	-9,843	-0,078	0,038
-515,102	19,803	0,084	-0,049
-514,087	-200,000	0,026	-0,139
-513,072	-200,000	0,024	-0,094
-512,058	-85,995	-0,045	-0,010
-511,043	-112,083	0,164	0,024
-510,029	-67,964	-0,041	0,012
-509,014	7,259	-0,008	0,004
-507,999	125,227	-0,059	0,054
-506,985	-200,000	0,023	-0,107
-505,970	800,000	-0,022	0,067
-504,956	-200,000	-0,004	-0,039
-503,941	-57,635	0,059	0,019
-502,926	-200,000	-0,001	0,120
-501,912	-48,665	-0,045	0,016
-500,897	-200,000	0,026	0,133
-499,883	59,767	0,008	-0,005
-498,868	800,000	-0,040	-0,110
-497,853	-200,000	-0,001	-0,022
-496,839	34,713	0,077	-0,049
-495,824	241,857	-0,079	-0,095
-494,810	219,095	-0,102	0,117
-493,795	251,646	0,088	-0,108
-492,781	-200,000	0,032	-0,118
-491,766	800,000	-0,092	-0,187
-490,751	100,755	-0,075	-0,063
-489,737	-138,770	0,048	0,004
-488,722	56,499	0,106	-0,074
-487,708	174,862	0,092	0,096
-486,693	-26,776	-0,085	-0,036
-485,678	-38,432	0,025	0,009
-484,664	-200,000	-0,028	0,114
-483,649	182,562	-0,053	0,056
-482,635	-174,305	0,042	0,001
-481,620	600,808	-0,032	0,057
-480,605	-200,000	0,001	0,103
-479,591	-38,421	0,017	-0,007
-478,576	-62,114	0,118	-0,035
-477,562	-46,912	0,069	-0,024
-476,547	168,993	0,082	-0,084
-475,532	146,010	-0,060	-0,058
-474,518	800,000	0,020	-0,046
-473,503	-130,939	0,080	-0,008
-472,489	-122,404	-0,101	0,012
-471,474	331,125	-0,038	0,053
-470,459	-200,000	0,003	0,013
-469,445	75,005	0,061	-0,046
-468,430	20,001	0,076	-0,044
-467,416	132,730	0,052	-0,049
-466,401	287,881	0,104	0,136
-465,386	-200,000	0,029	-0,124
-464,372	-200,000	0,008	0,094
-463,357	0,669	0,106	-0,054
-462,343	674,131	0,005	0,010
-461,328	169,499	-0,031	-0,032
-460,313	106,006	0,109	-0,093
-459,299	-200,000	-0,046	0,160
-458,284	-3,822	0,198	0,099
-457,270	222,390	-0,037	-0,043
-456,255	299,549	-0,051	-0,068
-455,241	266,123	0,034	-0,042
-454,226	540,252	0,043	0,074
-453,211	69,546	-0,045	0,033
-452,197	198,653	0,088	0,097
-451,182	389,443	0,015	-0,022
-450,168	272,776	0,066	0,084
-449,153	104,005	-0,062	0,053
-448,138	65,224	0,013	0,010
-447,124	-200,000	0,004	0,042
-446,109	800,000	-0,010	0,032
-445,095	-200,000	0,014	0,117
-444,080	-200,000	0,008	-0,126
-443,065	-25,929	-0,037	0,016
-442,051	397,351	-0,016	-0,024
-441,036	-135,250	-0,102	0,009
-440,022	-160,589	0,049	-0,002
-439,007	-51,858	0,101	0,034
-437,992	230,946	0,033	-0,039
-436,978	53,856	0,126	0,087
-435,963	27,379	0,038	-0,023
-434,949	594,186	0,051	-0,092
-433,934	-200,000	0,018	-0,121
-432,919	-24,151	-0,013	0,006
-431,905	26,900	-0,084	0,051
-430,890	800,000	-0,030	-0,079
-429,876	-200,000	-0,014	-0,058
-428,861	143,090	-0,132	0,126
-427,846	-4,593	-0,097	-0,048
-426,832	-45,164	0,147	-0,052
-425,817	-103,339	-0,053	-0,009
-424,803	-25,029	0,042	-0,018
-423,788	-200,000	-0,022	0,074
-422,773	219,864	-0,109	0,126
-421,759	-96,668	-0,084	0,016
-420,744	-68,594	0,024	-0,007
-419,730	-49,649	-0,089	-0,030
-418,715	-124,099	-0,124	-0,014
-417,701	222,265	0,025	-0,029
-416,686	554,126	0,055	-0,096
-415,671	-102,195	-0,107	-0,018
-414,657	91,886	-0,053	0,043
-413,642	144,936	-0,040	0,039
-412,628	105,206	-0,060	0,050
-411,613	-200,000	0,007	-0,091
-410,598	236,345	-0,078	0,092
-409,584	241,464	-0,027	0,032
-408,569	-200,000	-0,031	0,219
-407,555	-200,000	-0,004	0,038
-406,540	-200,000	0,014	0,102
-405,525	-65,753	-0,090	0,026
-404,511	196,407	-0,088	-0,096
-403,496	-200,000	-0,011	-0,079
-402,482	-62,528	0,052	0,015
-401,467	46,628	0,068	-0,045
-400,452	-200,000	0,002	-0,048
-399,438	-119,331	0,114	0,014
-398,423	-155,792	0,033	-0,001
-397,409	-143,217	-0,051	0,003
-396,394	-200,000	-0,022	0,075
-395,379	-200,000	-0,022	0,097
-394,365	-59,359	-0,148	-0,045
-393,350	-200,000	0,009	-0,038
-392,336	77,371	0,110	0,084
-391,321	723,246	0,018	0,034
-390,306	150,474	-0,065	0,064
-389,292	-78,600	0,031	0,008
-388,277	-123,181	0,032	-0,004
-387,263	-104,895	-0,053	0,009
-386,248	78,073	0,061	-0,047
-385,233	262,317	0,005	0,006
-384,219	473,237	-0,033	-0,053
-383,204	-200,000	-0,021	-0,074
-382,190	800,000	-0,046	-0,143
-381,175	-200,000	0,013	-0,063
-380,160	-200,000	-0,002	-0,025
-379,146	-200,000	0,006	0,119
-378,131	-200,000	0,020	0,134
-377,117	800,000	0,010	0,032
-376,102	800,000	-0,048	-0,117
-375,088	-67,099	-0,119	0,033
-374,073	800,000	-0,088	0,175
-373,058	18,986	0,058	0,033
-372,044	91,424	-0,053	-0,042
-371,029	-68,148	0,091	0,025
-370,015	152,846	0,139	-0,136
-369,000	800,000	-0,026	-0,070
-367,985	-157,567	-0,004	0,000
-366,971	800,000	-0,031	-0,091
-365,956	-78,079	-0,069	-0,017
-364,942	-98,177	0,111	-0,020
-363,927	-112,740	0,056	0,008
-362,912	654,540	-0,006	0,012
-361,898	44,593	0,032	-0,021
-360,883	645,076	0,021	-0,038
-359,869	800,000	0,014	0,033
-358,854	-36,534	-0,169	0,065
-357,839	-47,153	0,172	0,060
-356,825	229,449	0,118	-0,138
-355,810	-27,525	0,099	0,041
-354,796	165,338	0,098	-0,099
-353,781	-44,066	-0,093	0,033
-352,766	460,354	-0,096	0,153
-351,752	800,000	-0,037	0,088
-350,737	-200,000	0,007	0,027
-349,723	98,194	0,032	0,026
-348,708	800,000	0,039	0,092
-347,693	-200,000	0,014	-0,103
-346,679	-200,000	-0,018	-0,104
-345,664	45,109	0,026	0,017
-344,650	-99,678	-0,129	0,023
-343,635	800,000	0,044	0,107
-342,620	282,964	-0,037	-0,047
-341,606	12,441	0,057	0,032
-340,591	567,292	0,051	0,089
-339,577	-45,944	-0,162	0,057
-338,562	315,344	0,058	0,079
-337,548	172,390	-0,072	0,075
-336,533	89,322	0,031	-0,025
-335,518	154,982	-0,051	0,050
-334,504	-126,394	-0,137	0,014
-333,489	800,000	-0,048	0,146
-332,475	256,161	-0,081	-0,100
-331,460	-85,264	-0,176	-0,039
-330,445	-72,923	0,030	-0,008
-329,431	282,201	0,043	0,056
-328,416	-200,000	0,042	0,143
-327,402	9,765	0,101	-0,054
-326,387	168,577	0,054	-0,055
-325,372	413,005	-0,037	-0,056
-324,358	-32,304	-0,040	-0,016
-323,343	170,541	0,057	-0,058
-322,329	210,773	0,042	0,048
-321,314	27,830	0,053	-0,032
-320,299	-200,000	0,034	0,176
-319,285	197,180	0,137	0,150
-318,270	-200,000	-0,019	-0,127
-317,256	-103,061	-0,059	0,010
-316,241	490,517	-0,020	0,032
-315,226	12,730	0,077	-0,043
-314,212	-54,836	0,113	0,036
-313,197	800,000	-0,067	0,157
-312,183	148,703	0,119	0,115
-311,168	800,000	-0,011	0,031
-310,153	124,962	-0,053	0,048
-309,139	582,498	0,035	-0,062
-308,124	800,000	0,010	-0,022
-307,110	105,860	-0,034	0,028
-306,095	-200,000	0,038	0,136
-305,080	227,611	0,063	0,073
-304,066	-200,000	-0,014	-0,110
-303,051	-200,000	-0,002	0,018
-302,037	223,748	0,142	-0,165
-301,022	139,472	0,068	0,064
-300,008	36,714	0,132	0,083
-298,993	124,991	0,114	0,103
-297,978	-106,872	-0,139	0,022
-296,964	800,000	-0,030	-0,071
-295,949	437,214	-0,066	-0,104
-294,935	-200,000	-0,001	0,127
-293,920	63,199	0,026	0,018
-292,905	800,000	0,057	-0,116
-291,891	800,000	0,065	-0,129
-290,876	-200,000	0,001	-0,132
-289,862	-164,955	0,035	0,001
-288,847	800,000	-0,032	0,065
-287,832	-35,381	-0,087	0,033
-286,818	-164,382	0,130	-0,004
-285,803	-128,875	-0,048	0,005
-284,789	-83,544	0,085	-0,019
-283,774	752,087	-0,048	0,094
-282,759	358,001	0,050	-0,072
-281,745	261,253	-0,111	0,137
-280,730	800,000	-0,024	-0,053
-279,716	-70,952	0,087	-0,023
-278,701	-200,000	0,006	-0,106
-277,686	-65,252	-0,067	-0,019
-276,672	297,375	-0,023	0,031
-275,657	-200,000	0,009	0,033
-274,643	-200,000	0,021	-0,128
-273,628	421,720	-0,067	-0,103
-272,613	519,094	0,019	0,032
-271,599	-33,823	0,109	0,043
-270,584	-27,329	-0,047	-0,020
-269,570	558,802	0,016	0,029
-268,555	-54,970	-0,069	-0,022
-267,540	-101,082	-0,069	0,012
-266,526	293,233	0,038	0,049
-265,511	-112,874	-0,030	-0,004
-264,497	800,000	-0,032	0,078
-263,482	429,190	-0,041	0,063
-262,467	62,744	0,073	-0,052
-261,453	-200,000	-0,028	0,106
-260,438	-25,258	-0,066	-0,028
-259,424	-86,835	-0,084	0,018
-258,409	99,661	0,049	0,040
-257,395	800,000	-0,040	-0,092
-256,380	559,297	0,014	0,024
-255,365	-14,434	0,117	0,054
-254,351	-200,000	-0,010	0,117
-253,336	17,896	0,022	0,013
-252,322	559,268	0,066	-0,114
-251,307	201,262	-0,107	-0,117
-250,292	201,659	-0,026	0,028
-249,278	-62,724	-0,118	-0,035
-248,263	153,116	0,087	0,085
-247,249	712,157	0,037	-0,071
-246,234	-105,840	-0,103	0,016
-245,219	117,502	0,062	0,055
-244,205	-25,399	-0,141	-0,059
-243,190	192,352	0,099	-0,106
-242,176	173,579	-0,064	-0,066
-241,161	371,760	0,080	0,116
-240,146	16,521	-0,168	0,095
-239,132	144,474	0,024	-0,023
-238,117	79,733	0,049	0,037
-237,103	333,164	-0,114	0,157
-236,088	-200,000	0,001	0,009
-235,073	-124,646	-0,055	0,006
-234,059	800,000	0,012	0,026
-233,044	-200,000	0,029	0,175
-232,030	-200,000	-0,005	-0,062
-231,015	-22,311	-0,130	-0,056
-230,000	72,352	0,040	-0,030
-228,986	-75,964	-0,136	0,034
-227,971	-200,000	-0,006	-0,047
-226,957	-200,000	0,005	0,073
-225,942	-200,000	0,005	0,064
-224,927	-2,065	-0,134	-0,067
-223,913	340,947	0,037	0,052
-222,898	-36,290	-0,041	0,016
-221,884	47,804	-0,098	0,065
-220,869	3,173	0,068	-0,035
-219,855	-73,684	0,180	0,046
-218,840	-72,054	0,109	-0,029
-217,825	-200,000	0,021	0,085
-216,811	-61,545	-0,046	-0,014
-215,796	800,000	0,055	-0,112
-214,782	47,942	0,108	-0,072
-213,767	572,076	0,044	-0,077
-212,752	595,535	0,088	0,155
-211,738	214,568	0,032	0,036
-210,723	66,494	-0,162	0,118
-209,709	-3,785	-0,011	0,006
-208,694	-200,000	0,011	-0,060
-207,679	-200,000	-0,001	-0,004
-206,665	800,000	0,023	-0,050
-205,650	11,765	-0,017	-0,009
-204,636	-131,037	0,160	-0,015
-203,621	217,690	-0,069	0,079
-202,606	472,703	-0,085	0,137
-201,592	-40,073	0,109	0,040
-200,577	52,807	-0,135	-0,092
-199,563	800,000	-0,092	-0,189
-198,548	317,618	0,064	0,087
-197,533	-2,236	0,144	-0,072
-196,519	800,000	-0,023	0,048
-195,504	5,002	-0,059	-0,031
-194,490	-200,000	-0,007	-0,182
-193,475	-137,684	-0,095	0,007
-192,460	23,917	-0,047	-0,027
-191,446	493,089	0,072	0,118
-190,431	249,489	0,121	0,147
-189,417	-169,797	0,075	0,002
-188,402	-200,000	-0,008	0,122
-187,387	682,287	0,086	-0,161
-186,373	-132,403	-0,083	0,008
-185,358	-200,000	-0,031	0,142
-184,344	-62,448	0,108	0,032
-183,329	-69,823	0,121	-0,033
-182,315	252,085	0,063	0,077
-181,300	-79,495	0,082	0,020
-180,285	-200,000	-0,032	-0,122
-179,271	656,012	-0,067	0,123
-178,256	-84,260	-0,073	-0,016
-177,242	-60,447	0,150	0,045
-176,227	67,661	0,063	0,045
-175,212	-200,000	0,011	0,081
-174,198	293,815	0,078	0,102
-173,183	-62,982	0,037	-0,011
-172,169	15,959	-0,026	-0,015
-171,154	102,120	-0,033	-0,027
-170,139	258,339	0,024	0,030
-169,125	-200,000	0,009	-0,057
-168,110	800,000	-0,024	0,051
-167,096	696,668	-0,015	0,028
-166,081	525,729	0,037	0,062
-165,066	-200,000	-0,035	-0,188
-164,052	-93,787	0,066	-0,013
-163,037	-187,092	0,095	0,001
-162,023	800,000	-0,013	0,032
-161,008	-49,156	-0,110	0,037
-159,993	-93,614	-0,085	0,017
-158,979	296,464	-0,095	-0,124
-157,964	2,859	-0,027	0,014
-156,950	800,000	-0,023	-0,055
-155,935	-200,000	0,043	-0,153
-154,920	-200,000	0,001	0,076
-153,906	18,000	-0,064	0,036
-152,891	77,264	-0,023	-0,018
-151,877	-200,000	0,008	0,090
-150,862	-19,467	-0,065	-0,029
-149,847	-4,847	-0,096	-0,047
-148,833	139,810	0,073	0,069
-147,818	333,402	-0,050	0,069
-146,804	-200,000	0,012	0,116
-145,789	704,373	-0,016	-0,030
-144,775	28,146	0,060	-0,036
-143,760	78,563	-0,033	0,025
-142,745	-125,993	-0,073	-0,008
-141,731	800,000	0,056	-0,146
-140,716	-55,301	-0,041	0,013
-139,702	366,252	0,086	0,124
-138,687	574,966	-0,034	0,059
-137,672	234,102	-0,061	-0,071
-136,658	442,394	0,036	-0,055
-135,643	-200,000	0,033	-0,107
-134,629	-200,000	0,024	-0,132
-133,614	-200,000	0,003	0,043
-132,599	147,832	0,040	0,038
-131,585	19,701	0,017	0,010
-130,570	800,000	0,060	-0,165
-129,556	-69,004	-0,117	-0,032
-128,541	800,000	-0,046	-0,094
-127,526	-98,801	0,183	0,033
-126,512	74,697	-0,089	-0,066
-125,497	-70,980	0,142	-0,038
-124,483	-200,000	0,035	-0,155
-123,468	-200,000	0,016	-0,140
-122,453	105,298	-0,043	-0,036
-121,439	-200,000	-0,002	0,044
-120,424	268,937	0,077	-0,096
-119,410	-200,000	0,021	-0,091
-118,395	800,000	0,025	-0,073
-117,380	89,960	-0,106	0,084
-116,366	241,004	0,082	-0,097
-115,351	-53,272	-0,085	0,028
-114,337	-200,000	-0,005	-0,078
-113,322	98,174	0,043	0,036
-112,307	800,000	0,046	-0,094
-111,293	-52,238	0,074	0,024
-110,278	800,000	-0,050	0,124
-109,264	-8,374	0,104	-0,049
-108,249	45,573	0,080	-0,052
-107,234	-34,705	-0,065	0,025
-106,220	229,445	0,032	0,037
-105,205	206,559	0,124	0,138
-104,191	800,000	-0,045	0,130
-103,176	-200,000	-0,013	0,040
-102,162	-44,096	-0,057	-0,020
-101,147	-90,608	-0,123	0,025
-100,132	237,941	-0,123	-0,145
-99,118	12,765	0,175	0,096
-98,103	800,000	0,017	0,052
-97,089	87,051	0,058	0,046
-96,074	-135,695	0,115	0,010
-95,059	63,751	0,064	0,045
-94,045	-200,000	0,000	0,012
-93,030	-148,830	0,092	-0,005
-92,016	800,000	-0,068	-0,169
-91,001	-86,784	0,101	0,022
-89,986	-200,000	-0,005	0,035
-88,972	-200,000	0,012	0,083
-87,957	-200,000	-0,002	0,096
-86,943	102,583	0,050	0,041
-85,928	175,217	-0,080	-0,083
-84,913	316,841	0,034	-0,046
-83,899	-200,000	0,005	-0,024
-82,884	637,209	0,070	0,126
-81,870	509,687	-0,068	0,112
-80,855	-175,981	0,070	0,001
-79,840	261,346	-0,019	-0,023
-78,826	-58,736	-0,123	-0,038
-77,811	800,000	-0,013	-0,030
-76,797	-159,393	0,072	-0,003
-75,782	-91,684	-0,121	0,024
-74,767	-5,238	0,108	-0,052
-73,753	-200,000	-0,006	0,033
-72,738	-135,001	0,013	0,001
-71,724	95,983	0,085	-0,069
-70,709	29,935	-0,137	-0,082
-69,694	-88,270	0,166	0,035
-68,680	-200,000	0,002	0,007
-67,665	162,459	-0,082	0,082
-66,651	333,743	0,050	0,069
-65,636	-200,000	0,010	0,038
-64,622	31,545	-0,087	-0,053
-63,607	-200,000	-0,009	-0,036
-62,592	800,000	-0,012	0,031
-61,578	44,492	0,046	0,030
-60,563	12,573	0,055	-0,030
-59,549	59,893	-0,063	-0,044
-58,534	-16,919	-1,524	-0,680
-57,519	440,742	-1,326	-2,061
-56,505	-200,000	-0,625	-4,529
-55,490	139,254	1,049	0,978
-54,476	800,000	5,003	11,377
-53,461	-200,000	18,894	308,273
-52,446	800,000	738,711	2307,901
-51,432	570,507	1654,644	2863,935
-50,417	78,890	1670,001	1265,033
-49,403	21,946	1542,951	888,967
-48,388	15,875	1465,509	814,842
-47,373	17,811	1455,789	818,759
-46,359	16,871	1445,952	808,683
-45,344	14,170	1441,116	793,012
-44,330	14,052	1439,230	791,377
-43,315	14,063	1437,401	790,395
-42,300	14,067	1435,878	789,542
-41,286	14,081	1434,719	788,941
-40,271	14,113	1433,270	788,265
-39,257	14,043	1432,200	787,313
-38,242	14,073	1430,897	786,708
-37,227	14,131	1429,569	786,223
-36,213	14,120	1428,043	785,300
-35,198	14,092	1427,149	784,646
-34,184	14,176	1425,858	784,302
-33,169	14,048	1424,750	783,053
-32,154	14,089	1423,728	782,654
-31,140	14,079	1422,524	781,917
-30,125	14,151	1421,267	781,536
-29,111	14,096	1420,212	780,665
-28,096	14,109	1419,215	780,144
-27,082	14,078	1418,062	779,335
-26,067	14,051	1416,882	778,530
-25,052	14,062	1416,031	778,082
-24,038	14,023	1414,885	777,238
-23,023	14,003	1413,836	776,537
-22,009	14,045	1412,869	776,170
-20,994	13,991	1412,065	775,446
-19,979	13,977	1411,241	774,897
-18,965	13,964	1410,190	774,227
-17,950	13,969	1409,260	773,709
-16,936	13,967	1408,377	773,184
-15,921	13,920	1407,318	772,354
-14,906	13,962	1406,298	771,958
-13,892	13,947	1405,495	771,418
-12,877	13,932	1404,506	770,775
-11,863	13,934	1403,615	770,266
-10,848	13,940	1402,747	769,786
-9,833	13,892	1401,883	769,056
-8,819	13,879	1400,975	768,469
-7,804	13,850	1400,202	767,879
-6,790	13,822	1399,084	767,102
-5,775	13,842	1397,971	766,559
-4,760	13,901	1396,742	766,125
-3,746	13,802	1396,322	765,408
-2,731	13,815	1395,435	764,950
-1,717	13,809	1394,681	764,477
-0,702	13,793	1392,987	763,443
0,313	17,627	1310,618	736,079
1,327	34,015	705,317	434,082
2,342	52,470	123,867	83,581
3,356	2,951	16,577	8,496
4,371	4,951	3,240	1,682
5,386	-27,719	0,685	0,280
6,400	-200,000	-0,023	0,146
7,415	-39,905	-0,285	-0,105
8,429	-147,999	-0,315	-0,018
9,444	207,022	-0,264	-0,291
10,459	169,381	-0,160	-0,162
11,473	-99,271	-0,357	-0,063
12,488	-54,710	-0,301	-0,096
13,502	107,529	-0,325	-0,273
14,517	176,279	-0,298	-0,306
15,531	26,803	-0,456	-0,269
16,546	-13,787	-0,358	-0,163
17,561	206,214	-0,323	-0,356
18,575	231,719	-0,189	-0,219
19,590	1,512	-0,394	-0,200
20,604	-39,783	-0,175	-0,064
21,619	92,608	-0,360	-0,287
22,634	33,670	-0,374	-0,229
23,648	71,014	-0,512	-0,375
24,663	178,956	-0,316	-0,327
25,677	145,926	-0,322	-0,305
26,692	168,969	-0,296	-0,298
27,707	-21,542	-0,474	-0,203
28,721	-60,599	-0,410	-0,122
29,736	95,973	-0,459	-0,370
30,750	146,794	-0,499	-0,474
31,765	332,582	-0,303	-0,414
32,780	73,906	-0,396	-0,293
33,794	-16,800	-0,323	-0,143
34,809	176,502	-0,297	-0,305
35,823	16,010	-0,414	-0,230
36,838	60,110	-0,264	-0,184
37,853	106,349	-0,512	-0,428
38,867	34,347	-0,433	-0,266
39,882	239,632	-0,302	-0,355
40,896	124,239	-0,288	-0,255
41,911	7,784	-0,391	-0,206
42,926	149,580	-0,297	-0,284
43,940	211,321	-0,314	-0,349
44,955	436,637	-0,311	-0,479
45,969	291,929	-0,282	-0,363
46,984	50,318	-0,337	-0,224
47,999	-13,490	-0,394	-0,179
49,013	187,656	-0,199	-0,210
50,028	-10,933	-0,411	-0,191
51,042	-17,236	-0,331	-0,146
52,057	20,554	-0,286	-0,162
53,071	153,331	-0,334	-0,322
54,086	171,742	-0,258	-0,261
55,101	-51,696	-0,326	-0,106
56,115	70,073	-0,387	-0,281
57,130	70,382	-0,364	-0,265
58,144	-76,373	-0,537	-0,132
59,159	67,162	-0,321	-0,231
60,174	28,679	-0,406	-0,241
61,188	218,230	-0,321	-0,361
62,203	-20,073	-0,485	-0,210
63,217	90,647	-0,279	-0,220
64,232	55,233	-0,295	-0,201
65,247	56,584	-0,358	-0,245
66,261	174,560	-0,423	-0,431
67,276	112,076	-0,223	-0,189
68,290	10,837	-0,319	-0,171
69,305	28,588	-0,235	-0,139
70,320	4,618	-0,249	-0,128
71,334	57,800	-0,274	-0,189
72,349	26,452	-0,354	-0,208
73,363	2,315	-0,433	-0,219
74,378	-16,978	-0,494	-0,219
75,393	60,990	-0,345	-0,240
76,407	-69,203	-0,284	-0,076
77,422	3,194	-0,363	-0,185
78,436	324,155	-0,178	-0,240
79,451	16,755	-0,501	-0,278
80,466	293,075	-0,239	-0,307
81,480	-38,055	-0,358	-0,133
82,495	108,353	-0,291	-0,244
83,509	99,497	-0,235	-0,191
84,524	70,270	-0,343	-0,249
85,539	219,151	-0,281	-0,317
86,553	-40,921	-0,356	-0,129
87,568	-60,189	-0,353	-0,105
88,582	-9,719	-0,387	-0,181
89,597	235,014	-0,208	-0,241
90,611	2,407	-0,363	-0,184
91,626	15,660	-0,225	-0,124
92,641	-29,113	-0,301	-0,121
93,655	255,552	-0,228	-0,275
94,670	-58,035	-0,395	-0,120
95,684	175,285	-0,336	-0,342
96,699	-16,557	-0,331	-0,147
97,714	710,741	-0,078	-0,145
98,728	24,651	-0,229	-0,133
99,743	141,388	-0,394	-0,366
100,757	15,195	-0,325	-0,178
101,772	22,942	-0,209	-0,120
102,787	244,812	-0,259	-0,306
103,801	88,274	-0,172	-0,134
104,816	199,023	-0,197	-0,212
105,830	-23,212	-0,209	-0,088
106,845	-5,033	-0,338	-0,162
107,860	83,975	-0,325	-0,249
108,874	245,395	-0,175	-0,207
109,889	326,949	-0,215	-0,290
110,903	157,867	-0,232	-0,226
111,918	125,633	-0,214	-0,190
112,933	266,603	-0,174	-0,214
113,947	-103,672	-0,135	0,022
114,962	-150,317	-0,162	-0,009
115,976	-94,041	-0,343	-0,065
116,991	742,422	-0,184	-0,347
118,006	282,114	-0,205	-0,258
119,020	-116,329	-0,388	-0,050
120,035	267,505	-0,172	-0,211
121,049	-30,773	-0,256	-0,101
122,064	149,428	-0,218	-0,207
123,079	230,152	-0,214	-0,246
124,093	39,213	-0,247	-0,155
125,108	-33,318	-0,403	-0,155
126,122	9,451	-0,236	-0,125
127,137	12,126	-0,231	-0,124
128,151	28,853	-0,287	-0,170
129,166	-19,275	-0,206	-0,089
130,181	30,541	-0,388	-0,232
131,195	212,978	-0,201	-0,223
132,210	9,232	-0,295	-0,155
133,224	187,556	-0,172	-0,180
134,239	64,235	-0,275	-0,194
135,254	19,016	-0,314	-0,176
136,268	104,184	-0,227	-0,187
137,283	-81,749	-0,271	-0,062
138,297	6,416	-0,233	-0,121
139,312	-46,914	-0,237	-0,080
140,327	150,377	-0,265	-0,252
141,341	215,597	-0,194	-0,215
142,356	97,398	-0,170	-0,137
143,370	-67,274	-0,234	-0,064
144,385	800,000	-0,082	-0,205
145,400	-150,008	-0,293	-0,016
146,414	104,406	-0,289	-0,238
147,429	-17,840	-0,377	-0,165
148,443	121,829	-0,146	-0,127
149,458	341,391	-0,125	-0,171
150,473	-20,993	-0,209	-0,089
151,487	144,923	-0,226	-0,212
152,502	98,055	-0,287	-0,231
153,516	49,496	-0,253	-0,166
154,531	532,604	-0,128	-0,212
155,546	97,505	-0,212	-0,170
156,560	76,117	-0,088	-0,065
157,575	11,872	-0,362	-0,194
158,589	-125,338	-0,307	-0,032
159,604	26,619	-0,241	-0,141
160,619	102,249	-0,216	-0,176
161,633	19,539	-0,227	-0,127
162,648	172,021	-0,234	-0,235
163,662	34,273	-0,185	-0,113
164,677	37,242	-0,295	-0,182
165,692	303,266	-0,199	-0,258
166,706	183,365	-0,243	-0,250
167,721	184,156	-0,189	-0,196
168,735	108,307	-0,303	-0,252
169,750	540,386	-0,137	-0,229
170,764	-200,000	-0,047	-0,244
171,779	-0,439	-0,151	-0,075
172,794	185,275	-0,232	-0,241
173,808	-54,509	-0,281	-0,088
174,823	62,591	-0,201	-0,140
175,837	462,060	-0,138	-0,216
176,852	695,439	-0,124	-0,228
177,867	135,904	-0,247	-0,224
178,881	358,661	-0,155	-0,217
179,896	330,034	-0,156	-0,209
180,910	25,751	-0,143	-0,083
181,925	523,793	-0,173	-0,285
182,940	685,192	-0,198	-0,362
183,954	96,466	-0,239	-0,190
184,969	91,246	-0,148	-0,116
185,983	-171,045	-0,319	0,007
186,998	236,543	-0,137	-0,159
188,013	3,032	-0,230	-0,116
189,027	127,621	-0,251	-0,222
190,042	68,731	-0,324	-0,231
191,056	83,791	-0,147	-0,112
192,071	145,389	-0,182	-0,169
193,086	36,458	-0,219	-0,134
194,100	171,048	-0,143	-0,143
195,115	26,153	-0,331	-0,192
196,129	-146,203	-0,338	-0,020
197,144	108,520	-0,305	-0,253
198,159	189,146	-0,106	-0,110
199,173	-92,007	-0,224	-0,044
200,188	97,074	-0,223	-0,177
201,202	-200,000	-0,042	-0,169
202,217	-75,354	-0,242	-0,059
203,232	-97,225	-0,257	-0,046
204,246	-39,176	-0,297	-0,108
205,261	110,961	-0,233	-0,195
206,275	189,913	-0,210	-0,220
207,290	-118,238	-0,135	-0,017
208,304	9,154	-0,141	-0,074
209,319	167,688	-0,181	-0,179
210,334	170,037	-0,205	-0,204
211,348	800,000	-0,058	-0,166
212,363	49,356	-0,235	-0,153
213,377	393,067	-0,136	-0,197
214,392	7,557	-0,148	-0,077
215,407	306,211	-0,136	-0,176
216,421	9,998	-0,248	-0,131
217,436	-18,610	-0,127	-0,055
218,450	56,458	-0,293	-0,198
219,465	0,771	-0,245	-0,121
220,480	-200,000	-0,042	-0,133
221,494	77,998	-0,194	-0,144
222,509	373,382	-0,164	-0,232
223,523	-75,409	-0,257	-0,063
224,538	-107,331	-0,138	0,021
225,553	178,773	-0,172	-0,175
226,567	168,988	-0,271	-0,269
227,582	-143,388	-0,309	-0,020
228,596	487,079	-0,186	-0,296
229,611	6,203	-0,078	-0,040
230,626	-92,541	-0,228	-0,044
231,640	37,829	-0,214	-0,132
232,655	44,113	-0,226	-0,143
233,669	70,437	-0,169	-0,121
234,684	-123,561	-0,196	0,021
235,699	-117,479	-0,230	0,029
236,713	-4,145	-0,135	-0,065
237,728	-10,114	-0,187	0,086
238,742	435,301	-0,142	-0,215
239,757	474,065	-0,172	-0,270
240,772	104,530	-0,232	-0,189
241,786	-8,307	-0,230	-0,107
242,801	260,096	-0,215	-0,258
243,815	-103,903	-0,257	-0,041
244,830	18,790	-0,095	-0,053
245,844	100,870	-0,138	-0,111
246,859	-143,250	-0,253	-0,017
247,874	29,458	-0,233	-0,137
248,888	67,322	-0,236	-0,166
249,903	132,336	-0,204	-0,182
250,917	40,256	-0,276	-0,172
251,932	-171,269	-0,199	-0,005
252,947	-26,912	-0,261	-0,105
253,961	800,000	-0,070	-0,194
254,976	76,305	-0,205	-0,150
255,990	63,429	-0,299	-0,207
257,005	105,293	-0,223	-0,182
258,020	335,663	-0,085	-0,115
259,034	800,000	-0,070	-0,164
260,049	102,024	-0,245	-0,198
261,063	24,307	-0,192	-0,109
262,078	-84,285	-0,192	-0,042
263,093	81,728	-0,178	-0,133
264,107	56,359	-0,267	-0,179
265,122	88,853	-0,150	-0,115
266,136	-166,063	-0,262	0,008
267,151	236,691	-0,121	-0,139
268,166	112,171	-0,309	-0,258
269,180	-35,815	-0,314	-0,117
270,195	119,422	-0,164	-0,141
271,209	-200,000	-0,059	-0,213
272,224	-92,269	-0,177	-0,034
273,239	24,209	-0,124	0,071
274,253	137,276	-0,141	-0,128
275,268	64,151	-0,231	-0,160
276,282	-200,000	-0,040	-0,164
277,297	168,049	-0,181	-0,178
278,312	26,360	-0,111	-0,064
279,326	800,000	-0,094	-0,193
280,341	297,448	-0,124	-0,158
281,355	165,673	-0,129	-0,126
282,370	800,000	-0,065	-0,172
283,384	387,559	-0,096	-0,137
284,399	30,617	-0,246	-0,145
285,414	185,446	-0,225	-0,231
286,428	188,115	-0,178	-0,184
287,443	15,724	-0,159	-0,086
288,457	385,602	-0,104	-0,149
289,472	-35,009	-0,196	-0,074
290,487	-66,325	-0,197	-0,054
291,501	-18,442	-0,162	-0,070
292,516	303,008	-0,165	-0,212
293,530	0,955	-0,162	-0,080
294,545	-42,085	-0,225	-0,079
295,560	20,918	-0,099	-0,055
296,574	-43,985	-0,074	0,025
297,589	-200,000	-0,053	-0,166
298,603	300,690	-0,095	-0,121
299,618	81,411	-0,250	-0,186
300,633	-158,703	-0,147	0,006
301,647	159,945	-0,179	-0,172
302,662	-200,000	-0,015	0,053
303,676	174,053	-0,235	-0,234
304,691	800,000	-0,071	-0,162
305,706	116,657	-0,183	-0,154
306,720	43,966	-0,166	-0,104
307,735	153,386	-0,173	-0,164
308,749	25,188	-0,154	-0,088
309,764	57,590	-0,107	-0,072
310,779	-41,279	-0,198	-0,070
311,793	405,401	-0,112	-0,163
312,808	155,602	-0,171	-0,162
313,822	101,605	-0,105	0,084
314,837	34,168	-0,235	-0,141
315,852	17,173	-0,238	-0,129
316,866	38,272	-0,173	-0,106
317,881	-19,914	-0,243	-0,103
318,895	-22,227	-0,136	-0,056
319,910	45,050	-0,076	-0,048
320,925	-42,362	-0,231	-0,081
321,939	215,686	-0,189	-0,207
322,954	800,000	-0,054	-0,147
323,968	-200,000	-0,009	-0,044
324,983	234,597	-0,132	-0,151
325,997	45,972	-0,130	-0,083
327,012	-115,620	-0,224	-0,029
328,027	22,552	-0,154	-0,087
329,041	-44,580	-0,191	-0,065
330,056	177,869	-0,142	-0,143
331,070	-200,000	-0,006	-0,019
332,085	38,559	-0,165	-0,101
333,100	-55,569	-0,223	-0,068
334,114	-200,000	-0,055	-0,202
335,129	-200,000	-0,046	-0,216
336,143	20,073	-0,245	-0,135
337,158	687,893	-0,098	-0,177
338,173	800,000	-0,106	-0,215
339,187	-40,074	0,008	-0,003
340,202	-22,263	-0,191	-0,079
341,216	42,134	-0,145	-0,091
342,231	800,000	-0,114	-0,224
343,246	205,775	-0,197	-0,211
344,260	800,000	-0,096	-0,194
345,275	800,000	-0,066	-0,155
346,289	-24,105	-0,089	-0,036
347,304	164,863	-0,121	-0,117
348,319	800,000	-0,103	-0,234
349,333	57,393	-0,196	-0,131
350,348	40,218	-0,146	-0,090
351,362	238,559	-0,113	-0,129
352,377	109,421	-0,095	0,078
353,392	269,128	-0,114	-0,138
354,406	-61,700	-0,276	-0,079
355,421	208,971	1311,397	1410,983
356,435	160,812	1471,737	1411,486
