DTS Sentinel unit serial number:	SN410029Multiplexer serial number:	ORYXHardware model number:	OX2-SRSoftware version number:	ORYX F/W v4,00 Oryx Data Collector v3.7.2.0data status	okinstallation	B3 Nyhavnadifferential loss correction	single-endedforward channel	channel 1reverse channel	N/Adate	2023/12/01time	04:47:30forward acquisition time	300,00reverse acquisition time	0,00gamma	499,1914k internal	0,3213k external	0,3213temperature offset calibration	1,0000default loss term (dB/km)	0,3820temperature slope calibration	1,0000multiplexer offset coefficient	1,0000multiplexer slope coefficient	1,0000fibre end	0,00T internal ref (°C)	8,00T ext. ref 1 (°C)	-7,26T ext. ref 2 (°C)	-7,38length (m)	temperature (°C)	Stokes	anti-Stokes-744,400	364,494	-0,183	-0,267
-743,385	-200,000	0,004	0,189
-742,371	659,008	-0,162	-0,303
-741,356	-200,000	0,014	0,379
-740,342	-200,000	-0,024	-0,137
-739,327	-200,000	-0,036	0,242
-738,312	-1,550	-0,130	-0,066
-737,298	-200,000	-0,008	0,179
-736,283	73,812	-0,250	-0,190
-735,269	800,000	-0,103	0,311
-734,254	-200,000	-0,030	-0,176
-733,239	15,996	-0,284	0,161
-732,225	95,262	-0,161	-0,133
-731,210	477,903	0,110	0,181
-730,196	-145,141	-0,115	-0,007
-729,181	-4,040	0,064	0,032
-728,167	241,508	0,038	-0,046
-727,152	586,350	-0,038	0,069
-726,137	21,105	0,082	-0,048
-725,123	-101,993	-0,134	-0,023
-724,108	-200,000	-0,020	-0,071
-723,094	131,327	-0,169	-0,157
-722,079	294,624	0,029	-0,039
-721,064	-88,851	0,016	0,003
-720,050	-38,713	-0,018	-0,007
-719,035	82,946	-0,096	0,075
-718,021	254,953	-0,089	0,111
-717,006	-200,000	-0,014	-0,081
-715,991	-120,069	-0,100	-0,012
-714,977	159,277	0,037	0,038
-713,962	334,658	0,076	0,107
-712,948	9,510	0,099	-0,054
-711,933	-165,174	-0,086	0,003
-710,918	724,690	0,073	-0,141
-709,904	-200,000	-0,029	0,197
-708,889	82,356	-0,067	-0,052
-707,875	-132,785	-0,077	-0,007
-706,860	-134,454	-0,165	-0,014
-705,845	-102,187	0,036	-0,006
-704,831	214,231	0,069	0,079
-703,816	-149,623	-0,121	0,007
-702,802	-47,607	-0,163	0,057
-701,787	613,576	-0,040	0,073
-700,772	-200,000	0,001	-0,088
-699,758	800,000	-0,052	-0,105
-698,743	413,908	0,023	-0,036
-697,729	-74,728	0,058	-0,015
-696,714	800,000	-0,047	-0,095
-695,699	-200,000	0,002	-0,140
-694,685	105,826	-0,097	-0,083
-693,670	76,028	-0,059	-0,045
-692,656	340,836	0,041	-0,058
-691,641	4,497	0,049	0,026
-690,627	7,034	0,113	0,061
-689,612	355,204	-0,053	0,077
-688,597	-142,543	-0,087	-0,006
-687,583	-80,589	0,036	-0,009
-686,568	-91,083	0,025	0,005
-685,554	80,075	-0,120	-0,093
-684,539	45,730	-0,147	-0,098
-683,524	800,000	-0,031	0,069
-682,510	-200,000	-0,029	0,103
-681,495	-142,636	0,136	0,009
-680,481	145,213	-0,069	-0,067
-679,466	-200,000	-0,005	-0,199
-678,451	-200,000	-0,004	0,060
-677,437	328,636	-0,076	-0,106
-676,422	11,390	0,091	0,050
-675,408	633,629	0,037	0,068
-674,393	-2,424	-0,053	0,027
-673,378	26,522	-0,058	-0,035
-672,364	-24,347	0,065	-0,028
-671,349	-112,332	-0,027	0,004
-670,335	191,006	-0,142	0,154
-669,320	55,782	0,038	0,026
-668,305	-135,798	-0,065	0,005
-667,291	-44,593	-0,044	0,016
-666,276	-18,213	0,061	-0,028
-665,262	662,706	-0,098	-0,183
-664,247	379,495	-0,073	-0,109
-663,232	-200,000	0,033	0,164
-662,218	5,874	0,082	0,044
-661,203	-45,780	-0,113	0,040
-660,189	800,000	-0,033	-0,091
-659,174	-63,075	-0,078	0,023
-658,159	800,000	-0,028	-0,065
-657,145	146,940	-0,108	-0,105
-656,130	227,775	-0,128	-0,151
-655,116	-98,405	-0,071	-0,013
-654,101	800,000	0,029	-0,068
-653,086	83,918	-0,031	-0,025
-652,072	127,256	-0,116	0,107
-651,057	-200,000	0,014	-0,086
-650,043	-200,000	-0,012	-0,106
-649,028	800,000	-0,071	-0,145
-648,014	800,000	-0,060	-0,138
-646,999	24,571	0,132	-0,079
-645,984	20,845	0,071	0,042
-644,970	-200,000	-0,021	-0,082
-643,955	-164,481	0,046	0,001
-642,941	162,290	-0,075	-0,076
-641,926	292,624	-0,020	0,026
-640,911	-200,000	0,014	-0,060
-639,897	-200,000	0,020	0,102
-638,882	-200,000	0,000	0,065
-637,868	-145,710	-0,056	0,004
-636,853	29,591	-0,119	-0,073
-635,838	169,277	0,087	-0,090
-634,824	690,939	-0,061	0,116
-633,809	-200,000	0,007	0,058
-632,795	63,471	-0,040	0,029
-631,780	-200,000	-0,008	0,081
-630,765	-44,125	-0,041	0,015
-629,751	93,651	-0,093	0,076
-628,736	528,799	-0,085	0,146
-627,722	-200,000	0,005	0,020
-626,707	101,475	-0,046	0,039
-625,692	542,460	0,050	0,087
-624,678	416,650	0,042	-0,065
-623,663	745,569	0,041	0,080
-622,649	-84,639	-0,101	-0,023
-621,634	330,802	-0,091	0,127
-620,619	-20,578	-0,042	0,018
-619,605	-200,000	0,004	0,035
-618,590	-126,124	0,084	-0,009
-617,576	-54,861	0,054	0,017
-616,561	-104,310	-0,127	-0,021
-615,546	389,533	-0,052	-0,078
-614,532	127,515	-0,180	-0,165
-613,517	-200,000	-0,007	-0,042
-612,503	85,277	0,057	0,045
-611,488	-200,000	-0,006	0,047
-610,474	9,028	-0,042	-0,023
-609,459	-11,022	0,082	0,039
-608,444	670,127	0,057	-0,108
-607,430	-200,000	0,009	-0,102
-606,415	-49,227	0,143	0,049
-605,401	211,879	-0,059	-0,067
-604,386	122,748	0,025	-0,023
-603,371	-26,150	0,072	-0,030
-602,357	-200,000	0,000	-0,032
-601,342	-172,585	-0,200	-0,004
-600,328	562,802	0,030	0,052
-599,313	50,814	-0,136	-0,093
-598,298	460,357	0,050	0,081
-597,284	120,658	-0,044	0,039
-596,269	28,820	-0,082	0,050
-595,255	-16,432	0,050	-0,023
-594,240	113,455	-0,065	-0,057
-593,225	-98,570	-0,082	0,015
-592,211	-200,000	-0,058	-0,194
-591,196	294,606	-0,049	-0,064
-590,182	2,080	0,070	0,036
-589,167	-200,000	0,017	0,146
-588,152	-200,000	0,015	0,126
-587,138	-200,000	-0,014	-0,230
-586,123	-148,965	-0,066	0,004
-585,109	-118,007	-0,186	0,024
-584,094	287,732	0,017	0,023
-583,079	-104,540	0,106	-0,017
-582,065	800,000	-0,042	0,089
-581,050	-200,000	0,020	0,074
-580,036	-200,000	-0,005	0,121
-579,021	-200,000	-0,008	-0,184
-578,006	488,762	-0,078	-0,128
-576,992	800,000	-0,026	-0,063
-575,977	790,655	-0,022	0,044
-574,963	800,000	0,072	0,147
-573,948	-200,000	-0,019	-0,110
-572,934	800,000	-0,056	0,117
-571,919	-200,000	0,003	0,041
-570,904	-85,761	0,110	-0,024
-569,890	682,702	-0,076	-0,144
-568,875	47,721	0,055	0,037
-567,861	800,000	-0,009	-0,021
-566,846	59,909	0,070	-0,050
-565,831	199,431	-0,073	-0,081
-564,817	169,527	-0,178	-0,183
-563,802	31,091	0,133	-0,082
-562,788	-200,000	0,021	-0,125
-561,773	312,072	0,029	0,040
-560,758	-200,000	-0,008	0,037
-559,744	-20,019	0,060	-0,027
-558,729	25,656	-0,060	0,036
-557,715	26,091	-0,032	-0,019
-556,700	-151,836	-0,144	-0,007
-555,685	112,255	0,084	0,073
-554,671	181,385	-0,051	0,054
-553,656	633,892	0,033	0,061
-552,642	-200,000	-0,049	0,170
-551,627	13,324	0,046	0,026
-550,612	-32,948	0,027	-0,011
-549,598	-200,000	-0,039	-0,284
-548,583	-147,162	-0,065	-0,004
-547,569	124,253	0,140	0,126
-546,554	-103,126	0,157	-0,026
-545,539	84,758	-0,030	0,024
-544,525	281,167	-0,007	-0,009
-543,510	800,000	-0,047	-0,143
-542,496	-80,226	0,118	-0,028
-541,481	-133,292	-0,126	-0,011
-540,466	800,000	-0,033	0,099
-539,452	126,344	0,048	-0,043
-538,437	-200,000	0,010	-0,047
-537,423	-85,417	-0,136	-0,030
-536,408	115,930	-0,083	0,073
-535,393	-200,000	-0,009	0,094
-534,379	-57,248	-0,101	-0,032
-533,364	800,000	0,046	-0,098
-532,350	496,461	-0,025	-0,042
-531,335	19,104	0,043	-0,025
-530,321	-178,920	0,117	-0,002
-529,306	-171,731	-0,112	-0,003
-528,291	800,000	-0,092	-0,197
-527,277	96,719	-0,085	-0,070
-526,262	-145,773	-0,117	-0,007
-525,248	-73,910	0,111	0,029
-524,233	-69,579	-0,092	-0,025
-523,218	-200,000	0,008	0,138
-522,204	-23,482	-0,065	-0,028
-521,189	800,000	-0,054	0,142
-520,175	-176,877	0,078	0,001
-519,160	-200,000	-0,013	0,042
-518,145	-22,026	-0,010	0,004
-517,131	-79,260	0,076	-0,018
-516,116	-38,508	-0,054	-0,020
-515,102	800,000	-0,023	0,070
-514,087	-137,125	-0,133	0,011
-513,072	800,000	0,048	-0,125
-512,058	153,047	0,025	-0,024
-511,043	742,622	-0,049	-0,095
-510,029	524,893	0,051	0,086
-509,014	800,000	0,079	0,175
-507,999	-39,942	-0,082	0,030
-506,985	800,000	0,052	0,128
-505,970	-41,464	-0,028	0,010
-504,956	54,870	-0,011	0,007
-503,941	800,000	-0,098	0,196
-502,926	120,086	-0,074	-0,066
-501,912	-200,000	0,029	0,175
-500,897	800,000	0,030	-0,064
-499,883	800,000	0,042	0,113
-498,868	-95,123	-0,113	-0,022
-497,853	800,000	-0,025	-0,056
-496,839	-60,415	0,067	0,020
-495,824	-3,363	-0,067	-0,034
-494,810	800,000	0,039	0,096
-493,795	670,492	-0,036	-0,067
-492,781	800,000	0,015	0,032
-491,766	28,945	-0,017	0,010
-490,751	233,968	0,103	0,122
-489,737	-79,911	0,031	-0,007
-488,722	-197,952	0,129	0,001
-487,708	288,925	-0,091	0,119
-486,693	-200,000	0,018	0,127
-485,678	279,645	-0,027	0,035
-484,664	739,531	-0,009	-0,017
-483,649	205,687	0,085	-0,095
-482,635	800,000	-0,030	0,088
-481,620	249,074	-0,016	-0,020
-480,605	-13,061	-0,063	0,029
-479,591	329,539	0,089	0,123
-478,576	-200,000	0,023	0,197
-477,562	800,000	-0,035	-0,073
-476,547	-200,000	0,002	0,059
-475,532	33,405	0,155	-0,097
-474,518	-82,756	0,058	0,013
-473,503	111,347	-0,074	0,064
-472,489	-110,084	0,068	0,010
-471,474	800,000	0,046	-0,097
-470,459	-44,480	-0,091	-0,032
-469,445	-200,000	0,007	0,093
-468,430	-200,000	0,000	0,020
-467,416	435,836	0,044	-0,068
-466,401	-200,000	0,012	0,072
-465,386	-91,233	0,108	0,022
-464,372	100,099	0,009	0,007
-463,357	-175,580	0,070	-0,001
-462,343	-13,192	-0,037	-0,017
-461,328	800,000	0,038	0,090
-460,313	-63,962	-0,037	-0,011
-459,299	-200,000	-0,002	0,116
-458,284	800,000	-0,050	0,105
-457,270	198,203	0,087	-0,095
-456,255	4,199	-0,142	0,074
-455,241	-157,209	-0,069	-0,003
-454,226	107,859	0,092	0,079
-453,211	-200,000	-0,002	0,062
-452,197	314,085	-0,054	0,073
-451,182	375,917	0,059	0,086
-450,168	146,911	-0,072	-0,070
-449,153	56,844	-0,063	-0,044
-448,138	-200,000	-0,006	0,026
-447,124	317,445	-0,037	-0,050
-446,109	-16,288	0,155	-0,070
-445,095	800,000	0,022	0,054
-444,080	-140,321	0,048	0,004
-443,065	-13,073	-0,117	0,054
-442,051	52,196	-0,071	-0,048
-441,036	800,000	-0,023	-0,069
-440,022	39,204	-0,143	0,091
-439,007	-158,448	-0,092	0,004
-437,992	535,177	0,031	0,053
-436,978	-139,366	-0,084	0,006
-435,963	-200,000	-0,013	-0,050
-434,949	-125,604	0,113	-0,012
-433,934	-22,487	0,106	-0,046
-432,919	-173,603	-0,133	0,003
-431,905	-200,000	-0,011	0,062
-430,890	-200,000	0,017	0,078
-429,876	52,605	0,169	0,115
-428,861	0,849	0,050	0,026
-427,846	-42,596	-0,106	-0,038
-426,832	-111,417	0,045	0,007
-425,817	-75,280	-0,190	-0,048
-424,803	-97,126	0,050	-0,009
-423,788	-158,249	-0,076	-0,003
-422,773	280,355	0,080	0,102
-421,759	82,787	0,148	0,115
-420,744	-200,000	0,008	-0,084
-419,730	44,835	-0,090	-0,059
-418,715	-118,712	-0,028	0,004
-417,701	-88,205	-0,108	0,023
-416,686	-200,000	-0,005	-0,066
-415,671	8,329	0,066	-0,035
-414,657	674,292	0,048	0,089
-413,642	30,098	-0,021	-0,013
-412,628	227,287	-0,024	-0,029
-411,613	466,469	-0,052	-0,083
-410,598	128,870	-0,093	-0,085
-409,584	-28,469	0,060	0,025
-408,569	-5,539	0,077	-0,038
-407,555	-200,000	-0,002	-0,172
-406,540	90,977	0,125	-0,100
-405,525	800,000	0,005	0,015
-404,511	800,000	0,067	-0,205
-403,496	317,277	0,033	0,045
-402,482	-79,784	0,061	-0,015
-401,467	-57,210	0,088	0,027
-400,452	-200,000	-0,024	-0,082
-399,438	800,000	0,044	-0,103
-398,423	-200,000	0,021	-0,076
-397,409	-9,386	-0,133	-0,063
-396,394	-178,052	0,057	0,001
-395,379	-200,000	0,004	-0,110
-394,365	-200,000	-0,008	-0,047
-393,350	102,894	-0,164	0,137
-392,336	-98,430	0,103	0,019
-391,321	757,650	0,040	-0,078
-390,306	-110,965	0,014	0,002
-389,292	-72,128	-0,042	-0,011
-388,277	-200,000	0,031	0,103
-387,263	-32,812	0,044	-0,017
-386,248	68,163	0,082	0,060
-385,233	447,536	-0,068	0,108
-384,219	-200,000	0,006	0,035
-383,204	-200,000	0,018	-0,080
-382,190	-35,940	-0,148	-0,057
-381,175	478,955	0,036	0,058
-380,160	-200,000	0,001	0,086
-379,146	419,570	-0,059	0,090
-378,131	17,821	-0,108	0,061
-377,117	14,037	-0,108	-0,060
-376,102	-200,000	0,008	0,141
-375,088	800,000	0,049	0,149
-374,073	236,638	0,030	-0,036
-373,058	-200,000	0,017	-0,164
-372,044	-200,000	-0,003	-0,018
-371,029	800,000	0,011	-0,027
-370,015	611,416	0,018	0,032
-369,000	800,000	-0,008	-0,019
-367,985	-200,000	0,009	0,028
-366,971	153,128	0,028	-0,027
-365,956	-200,000	-0,009	0,136
-364,942	-193,388	0,126	-0,001
-363,927	-109,681	-0,030	0,005
-362,912	-200,000	-0,008	0,026
-361,898	72,839	-0,106	-0,079
-360,883	73,936	-0,040	0,030
-359,869	-86,084	0,167	0,036
-358,854	-200,000	-0,001	-0,050
-357,839	800,000	0,013	-0,032
-356,825	-200,000	-0,009	0,088
-355,810	-107,933	0,041	-0,006
-354,796	-62,646	0,039	0,011
-353,781	378,123	-0,029	0,042
-352,766	800,000	-0,029	-0,068
-351,752	125,780	0,124	-0,112
-350,737	-58,234	-0,065	0,020
-349,723	-24,803	-0,084	0,036
-348,708	-14,414	0,121	-0,055
-347,693	-52,815	-0,074	-0,024
-346,679	656,087	-0,057	-0,104
-345,664	-127,735	-0,021	-0,002
-344,650	42,591	0,077	0,050
-343,635	-200,000	0,041	-0,146
-342,620	800,000	-0,052	0,140
-341,606	-15,491	0,017	0,008
-340,591	65,793	-0,069	-0,050
-339,577	61,695	0,035	0,025
-338,562	-200,000	0,005	0,018
-337,548	-22,288	-0,104	-0,045
-336,533	-153,563	0,194	0,009
-335,518	-200,000	-0,006	0,078
-334,504	-134,967	0,180	0,015
-333,489	-95,068	-0,084	-0,016
-332,475	-200,000	0,002	-0,173
-331,460	800,000	0,068	-0,180
-330,445	-43,258	-0,036	-0,013
-329,431	-58,502	0,118	-0,036
-328,416	384,738	-0,041	0,060
-327,402	-200,000	-0,024	0,000
-326,387	55,742	0,045	0,031
-325,372	-94,628	0,091	-0,017
-324,358	81,965	-0,028	-0,022
-323,343	18,137	0,073	0,041
-322,329	149,836	0,107	-0,103
-321,314	-200,000	-0,032	-0,114
-320,299	298,752	0,037	-0,048
-319,285	-60,733	-0,079	-0,024
-318,270	33,393	-0,082	0,050
-317,256	287,460	-0,060	-0,078
-316,241	-60,624	-0,100	0,030
-315,226	-121,689	0,092	0,011
-314,212	139,091	0,117	0,110
-313,197	-200,000	0,021	-0,124
-312,183	386,217	-0,010	0,015
-311,168	43,866	-0,032	0,021
-310,153	180,821	-0,125	-0,130
-309,139	459,823	0,076	-0,121
-308,124	76,588	-0,103	0,078
-307,110	800,000	0,096	0,249
-306,095	116,991	0,048	-0,042
-305,080	800,000	0,029	0,076
-304,066	56,959	0,118	0,082
-303,051	800,000	0,016	-0,039
-302,037	358,298	0,078	-0,111
-301,022	-57,072	-0,045	0,014
-300,008	792,969	0,054	-0,106
-298,993	-200,000	0,033	-0,108
-297,978	-132,746	-0,006	0,001
-296,964	134,438	-0,009	-0,009
-295,949	-21,196	0,015	-0,007
-294,935	-200,000	-0,015	-0,089
-293,920	486,820	-0,033	0,053
-292,905	-126,567	-0,196	0,020
-291,891	-164,284	-0,125	-0,004
-290,876	-200,000	-0,002	0,164
-289,862	63,486	0,024	0,017
-288,847	76,072	-0,097	-0,073
-287,832	-30,504	-0,138	-0,056
-286,818	-200,000	0,005	0,041
-285,803	800,000	-0,052	0,123
-284,789	800,000	0,020	0,054
-283,774	-110,839	0,118	0,017
-282,759	-200,000	-0,005	-0,087
-281,745	-200,000	-0,003	-0,031
-280,730	-200,000	-0,009	0,047
-279,716	-200,000	0,005	0,199
-278,701	-200,000	0,033	0,140
-277,686	-67,295	0,078	-0,022
-276,672	-200,000	-0,001	-0,042
-275,657	179,176	-0,120	0,125
-274,643	800,000	-0,033	0,073
-273,628	-200,000	-0,014	0,081
-272,613	-127,288	-0,079	-0,008
-271,599	65,525	0,089	-0,064
-270,584	30,583	0,044	0,026
-269,570	159,089	0,029	-0,028
-268,555	30,930	0,085	0,052
-267,540	-96,355	0,098	0,018
-266,526	-200,000	0,008	-0,107
-265,511	146,561	0,012	0,011
-264,497	-7,952	-0,043	-0,020
-263,482	-29,658	0,063	0,025
-262,467	-200,000	0,008	0,107
-261,453	131,622	0,034	0,031
-260,438	-200,000	0,008	-0,159
-259,424	20,835	-0,069	-0,039
-258,409	32,492	0,136	0,083
-257,395	439,295	-0,028	-0,044
-256,380	-6,896	-0,042	0,020
-255,365	-200,000	-0,002	0,027
-254,351	-200,000	-0,016	0,132
-253,336	-132,266	0,165	-0,015
-252,322	-85,984	-0,180	-0,039
-251,307	-200,000	0,047	-0,196
-250,292	-34,702	-0,105	0,040
-249,278	-143,011	0,078	0,005
-248,263	-200,000	0,021	-0,077
-247,249	48,830	0,112	0,074
-246,234	159,164	-0,049	0,049
-245,219	-102,817	-0,013	0,002
-244,205	-200,000	-0,039	-0,153
-243,190	458,601	-0,032	-0,050
-242,176	58,092	0,092	0,064
-241,161	55,182	0,074	0,050
-240,146	-91,791	-0,128	-0,026
-239,132	16,885	0,113	-0,064
-238,117	665,712	-0,024	-0,044
-237,103	-45,804	-0,169	-0,059
-236,088	100,406	-0,086	-0,071
-235,073	800,000	0,032	-0,073
-234,059	-200,000	0,019	0,094
-233,044	137,363	0,162	-0,151
-232,030	5,365	-0,048	0,025
-231,015	-80,680	0,098	-0,023
-230,000	800,000	-0,042	0,086
-228,986	264,773	-0,036	-0,045
-227,971	-54,214	0,150	-0,048
-226,957	-143,463	0,053	-0,004
-225,942	800,000	0,074	0,156
-224,927	42,893	-0,053	0,035
-223,913	252,866	-0,055	-0,067
-222,898	199,426	0,094	-0,102
-221,884	-200,000	0,002	-0,133
-220,869	223,418	0,043	-0,049
-219,855	154,567	0,115	-0,113
-218,840	-65,551	-0,039	0,011
-217,825	149,541	-0,025	-0,024
-216,811	-129,965	0,060	-0,006
-215,796	-42,087	-0,138	0,050
-214,782	96,153	0,038	0,031
-213,767	128,028	0,137	0,124
-212,752	-53,286	0,062	-0,020
-211,738	800,000	0,006	0,016
-210,723	-200,000	-0,010	0,145
-209,709	-200,000	0,014	-0,092
-208,694	448,271	0,120	-0,187
-207,679	-200,000	0,004	0,062
-206,665	-90,499	0,006	0,001
-205,650	-200,000	0,024	0,127
-204,636	-200,000	-0,007	0,047
-203,621	-38,090	0,138	-0,052
-202,606	-200,000	0,024	-0,084
-201,592	-24,077	-0,082	0,035
-200,577	-200,000	-0,026	0,125
-199,563	800,000	-0,021	-0,054
-198,548	-200,000	0,022	-0,095
-197,533	255,371	0,134	0,163
-196,519	-200,000	0,014	0,162
-195,504	-200,000	0,009	-0,051
-194,490	-100,650	0,062	0,011
-193,475	138,842	-0,089	-0,083
-192,460	645,587	0,032	0,058
-191,446	372,053	0,032	-0,046
-190,431	-200,000	-0,001	-0,107
-189,417	-53,214	0,105	-0,034
-188,402	143,375	-0,148	0,140
-187,387	-80,207	-0,160	-0,038
-186,373	102,045	-0,016	0,014
-185,358	96,140	0,030	0,025
-184,344	-200,000	-0,038	0,124
-183,329	127,277	0,074	-0,067
-182,315	800,000	-0,067	0,143
-181,300	695,856	0,022	-0,042
-180,285	743,389	-0,036	-0,069
-179,271	25,517	0,033	0,019
-178,256	-200,000	-0,011	0,120
-177,242	-200,000	0,010	-0,058
-176,227	-154,450	0,106	0,005
-175,212	-200,000	-0,002	-0,019
-174,198	11,446	-0,030	-0,016
-173,183	-132,547	-0,031	0,003
-172,169	-76,969	-0,099	-0,024
-171,154	-23,364	0,110	0,047
-170,139	800,000	-0,031	-0,067
-169,125	-200,000	0,010	0,099
-168,110	100,672	-0,039	0,032
-167,096	-141,615	0,209	-0,015
-166,081	-70,067	-0,163	-0,044
-165,066	475,155	-0,021	0,034
-164,052	-12,172	-0,125	-0,058
-163,037	231,427	0,085	0,099
-162,023	21,476	0,056	0,032
-161,008	293,479	-0,030	0,039
-159,993	800,000	0,031	-0,070
-158,979	505,672	-0,064	-0,106
-157,964	-200,000	-0,010	-0,061
-156,950	15,402	0,139	-0,077
-155,935	-200,000	0,041	-0,156
-154,920	40,889	0,067	-0,043
-153,906	-200,000	0,006	0,094
-152,891	800,000	0,012	-0,024
-151,877	69,693	-0,081	-0,059
-150,862	265,092	-0,049	-0,061
-149,847	-200,000	0,001	-0,039
-148,833	-23,728	0,101	-0,043
-147,818	-200,000	0,037	-0,130
-146,804	20,552	0,165	0,094
-145,789	800,000	-0,043	-0,102
-144,775	-41,344	-0,022	-0,008
-143,760	-2,321	-0,146	-0,072
-142,745	-200,000	0,030	-0,117
-141,731	-151,558	-0,061	0,003
-140,716	422,097	0,011	-0,017
-139,702	-29,960	0,093	0,037
-138,687	278,056	-0,050	-0,063
-137,672	-33,199	0,103	0,040
-136,658	800,000	-0,031	-0,064
-135,643	-34,304	-0,043	-0,017
-134,629	-90,858	0,039	0,008
-133,614	114,087	0,101	-0,087
-132,599	800,000	-0,028	-0,077
-131,585	680,153	0,080	0,148
-130,570	800,000	0,031	-0,093
-129,556	-200,000	0,005	-0,193
-128,541	-106,241	-0,089	0,014
-127,526	-18,940	0,087	0,038
-126,512	-148,391	0,094	0,005
-125,497	2,622	0,035	0,018
-124,483	-200,000	0,129	0,000
-123,468	-200,000	0,032	0,168
-122,453	-200,000	-0,001	0,080
-121,439	-34,902	0,029	-0,011
-120,424	1,669	-0,138	0,070
-119,410	104,414	0,057	0,048
-118,395	800,000	-0,025	0,060
-117,380	800,000	0,088	0,206
-116,366	721,188	0,017	0,032
-115,351	282,704	-0,132	-0,168
-114,337	-155,212	0,073	0,003
-113,322	-168,314	-0,085	-0,002
-112,307	-75,288	-0,080	0,020
-111,293	179,419	0,124	0,128
-110,278	-200,000	-0,008	0,091
-109,264	-9,786	0,120	-0,056
-108,249	-45,866	-0,095	0,033
-107,234	402,117	-0,058	-0,086
-106,220	-35,471	-0,108	-0,041
-105,205	-23,880	0,090	0,038
-104,191	43,220	0,084	-0,054
-103,176	-40,548	0,026	0,010
-102,162	422,926	0,056	-0,085
-101,147	-200,000	-0,010	-0,157
-100,132	18,042	-0,076	-0,042
-99,118	-34,973	-0,114	0,044
-98,103	-127,039	0,086	-0,009
-97,089	88,269	0,086	0,068
-96,074	-200,000	-0,020	0,087
-95,059	-200,000	-0,012	-0,126
-94,045	41,698	-0,104	-0,066
-93,030	474,028	-0,071	0,114
-92,016	47,390	0,048	-0,031
-91,001	127,943	-0,036	0,033
-89,986	519,247	-0,057	0,095
-88,972	-46,089	0,122	-0,042
-87,957	261,813	0,081	-0,099
-86,943	334,488	-0,010	0,013
-85,928	-168,064	0,083	0,002
-84,913	-200,000	0,004	-0,029
-83,899	168,885	-0,019	-0,019
-82,884	800,000	0,027	0,066
-81,870	800,000	0,048	0,114
-80,855	-48,002	0,128	0,043
-79,840	100,087	-0,043	0,035
-78,826	-200,000	-0,035	-0,110
-77,811	-143,950	-0,153	0,010
-76,797	-71,023	0,108	0,029
-75,782	-66,053	-0,032	-0,009
-74,767	-200,000	-0,029	0,201
-73,753	800,000	-0,014	0,041
-72,738	396,923	0,075	-0,111
-71,724	800,000	-0,021	0,054
-70,709	564,485	0,081	-0,139
-69,694	83,324	-0,173	-0,133
-68,680	183,126	0,137	0,143
-67,665	-112,053	0,071	-0,010
-66,651	-167,978	-0,032	-0,001
-65,636	-200,000	0,007	-0,052
-64,622	-145,700	-0,162	-0,010
-63,607	-200,000	-0,007	-0,053
-62,592	-56,189	0,038	-0,012
-61,578	-87,683	0,147	0,031
-60,563	265,999	0,046	-0,056
-59,549	-200,000	0,008	0,044
-58,534	68,740	-2,117	-1,531
-57,519	800,000	-0,932	-1,996
-56,505	-200,000	-0,505	-4,505
-55,490	579,546	0,942	1,635
-54,476	800,000	5,226	11,567
-53,461	-200,000	22,365	346,067
-52,446	800,000	756,845	2290,164
-51,432	533,175	1642,548	2754,105
-50,417	67,807	1641,615	1182,336
-49,403	15,649	1519,038	839,817
-48,388	9,852	1445,060	771,095
-47,373	19,296	1437,897	812,215
-46,359	13,351	1426,399	777,651
-45,344	8,191	1422,371	751,034
-44,330	8,112	1420,618	749,705
-43,315	8,060	1418,811	748,478
-42,300	8,114	1416,855	747,668
-41,286	8,091	1415,608	746,874
-40,271	8,052	1414,521	746,086
-39,257	8,095	1413,264	745,596
-38,242	8,114	1412,136	745,062
-37,227	8,100	1410,981	744,354
-36,213	8,141	1409,740	743,864
-35,198	8,106	1408,475	743,005
-34,184	8,125	1407,595	742,599
-33,169	8,019	1406,276	741,377
-32,154	8,067	1405,240	741,026
-31,140	8,057	1404,060	740,328
-30,125	8,073	1403,028	739,828
-29,111	8,076	1401,714	739,121
-28,096	8,071	1400,638	738,501
-27,082	8,022	1399,509	737,647
-26,067	8,019	1398,251	736,941
-25,052	8,040	1397,321	736,522
-24,038	8,056	1396,244	735,997
-23,023	8,025	1395,217	735,284
-22,009	7,985	1394,388	734,632
-20,994	7,964	1393,550	734,061
-19,979	8,033	1392,254	733,673
-18,965	7,950	1391,577	732,900
-17,950	7,974	1390,483	732,405
-16,936	7,946	1389,770	731,874
-15,921	7,920	1388,548	731,078
-14,906	7,953	1387,661	730,734
-13,892	8,028	1386,538	730,461
-12,877	7,942	1385,919	729,710
-11,863	7,929	1385,376	729,337
-10,848	7,893	1384,415	728,637
-9,833	7,876	1383,436	728,010
-8,819	7,849	1382,531	727,384
-7,804	7,860	1381,644	726,939
-6,790	7,874	1380,521	726,380
-5,775	7,856	1379,426	725,695
-4,760	7,857	1378,539	725,202
-3,746	7,906	1377,505	724,855
-2,731	7,890	1376,724	724,344
-1,717	7,903	1375,867	723,921
-0,702	7,850	1374,137	722,743
0,313	11,744	1284,533	693,268
1,327	27,418	676,544	400,032
2,342	42,893	116,197	74,520
3,356	-1,489	16,589	8,219
4,371	5,484	3,910	2,028
5,386	-12,873	1,497	0,684
6,400	-200,000	0,215	0,685
7,415	59,339	-0,158	-0,109
8,429	423,181	-0,130	-0,197
9,444	201,750	-0,315	-0,343
10,459	295,242	-0,181	-0,234
11,473	-36,594	-0,190	-0,072
12,488	-17,303	-0,335	-0,148
13,502	330,863	-0,214	-0,291
14,517	97,357	-0,298	-0,241
15,531	98,974	-0,246	-0,200
16,546	70,937	-0,319	-0,233
17,561	102,433	-0,286	-0,235
18,575	-17,290	-0,108	-0,048
19,590	800,000	-0,088	-0,207
20,604	-85,039	-0,261	-0,057
21,619	6,194	-0,511	-0,266
22,634	178,291	-0,397	-0,409
23,648	63,884	-0,363	-0,257
24,663	14,695	-0,418	-0,229
25,677	258,471	-0,217	-0,263
26,692	18,838	-0,383	-0,215
27,707	70,506	-0,303	-0,220
28,721	44,225	-0,367	-0,236
29,736	7,693	-0,364	-0,191
30,750	88,074	-0,332	-0,259
31,765	9,773	-0,431	-0,229
32,780	3,785	-0,327	-0,168
33,794	-14,380	-0,453	-0,204
34,809	102,011	-0,328	-0,269
35,823	-89,871	-0,320	-0,065
36,838	120,392	-0,332	-0,290
37,853	-23,376	-0,456	-0,192
38,867	50,198	-0,401	-0,265
39,882	117,205	-0,224	-0,193
40,896	69,528	-0,268	-0,194
41,911	13,149	-0,506	-0,275
42,926	38,731	-0,398	-0,249
43,940	82,383	-0,310	-0,236
44,955	106,613	-0,314	-0,262
45,969	82,994	-0,340	-0,259
46,984	32,541	-0,360	-0,218
47,999	247,026	-0,266	-0,316
49,013	800,000	-0,139	-0,277
50,028	340,412	-0,279	-0,383
51,042	37,552	-0,388	-0,241
52,057	43,886	-0,311	-0,199
53,071	246,879	-0,316	-0,375
54,086	63,812	-0,291	-0,205
55,101	-30,512	-0,347	-0,137
56,115	20,645	-0,351	-0,199
57,130	114,739	-0,354	-0,303
58,144	-69,203	-0,388	-0,104
59,159	33,880	-0,465	-0,283
60,174	-3,386	-0,283	-0,138
61,188	112,660	-0,335	-0,284
62,203	1,445	-0,266	-0,134
63,217	-10,317	-0,375	-0,174
64,232	-14,515	-0,437	-0,196
65,247	-14,517	-0,289	-0,130
66,261	-17,642	-0,278	-0,122
67,276	-39,314	-0,326	-0,119
68,290	-7,528	-0,413	-0,195
69,305	301,124	-0,221	-0,287
70,320	-29,344	-0,419	-0,167
71,334	-46,823	-0,357	-0,122
72,349	-98,872	-0,288	-0,051
73,363	-60,745	-0,389	-0,115
74,378	12,309	-0,363	-0,195
75,393	21,618	-0,375	-0,213
76,407	141,787	-0,238	-0,221
77,422	37,866	-0,307	-0,190
78,436	56,402	-0,269	-0,183
79,451	21,009	-0,211	-0,120
80,466	-17,649	-0,347	-0,152
81,480	50,941	-0,312	-0,206
82,495	-115,389	-0,241	-0,031
83,509	199,266	-0,242	-0,260
84,524	118,248	-0,191	-0,165
85,539	-75,316	-0,340	-0,084
86,553	84,150	-0,190	-0,145
87,568	-61,114	-0,307	-0,090
88,582	-66,253	-0,394	-0,109
89,597	173,585	-0,208	-0,210
90,611	42,635	-0,197	-0,125
91,626	-31,149	-0,302	-0,118
92,641	-111,690	-0,143	-0,020
93,655	78,381	-0,290	-0,216
94,670	186,670	-0,232	-0,242
95,684	140,252	-0,299	-0,276
96,699	12,056	-0,300	-0,161
97,714	-51,125	-0,302	-0,099
98,728	-82,021	-0,268	-0,061
99,743	-39,472	-0,271	-0,099
100,757	163,914	-0,232	-0,228
101,772	25,106	-0,337	-0,195
102,787	167,444	-0,237	-0,236
103,801	309,640	-0,230	-0,301
104,816	-89,639	-0,276	-0,056
105,830	161,177	-0,218	-0,213
106,845	-76,415	-0,157	-0,038
107,860	55,945	-0,229	-0,155
108,874	17,770	-0,269	-0,149
109,889	-10,267	-0,356	-0,164
110,903	-46,494	-0,406	-0,138
111,918	717,672	-0,171	-0,319
112,933	49,290	-0,167	-0,109
113,947	-49,855	-0,227	-0,075
114,962	-16,188	-0,256	-0,113
115,976	401,156	-0,124	-0,182
116,991	125,698	-0,227	-0,200
118,006	250,182	-0,222	-0,264
119,020	800,000	-0,077	-0,193
120,035	-95,929	-0,318	-0,059
121,049	-53,486	-0,186	-0,059
122,064	48,176	-0,206	-0,134
123,079	103,459	-0,274	-0,224
124,093	-15,042	-0,336	-0,149
125,108	93,336	-0,324	-0,256
126,122	116,009	-0,233	-0,199
127,137	-4,327	-0,263	-0,126
128,151	36,795	-0,294	-0,181
129,166	105,154	-0,212	-0,174
130,181	44,445	-0,192	-0,123
131,195	-35,216	-0,288	-0,109
132,210	364,630	-0,189	-0,266
133,224	122,894	-0,221	-0,193
134,239	-101,577	-0,242	-0,041
135,254	114,771	-0,164	-0,140
136,268	-66,587	-0,127	-0,035
137,283	-91,411	-0,138	0,027
138,297	141,897	-0,282	-0,260
139,312	-65,575	-0,384	-0,107
140,327	-29,759	-0,270	-0,107
141,341	-102,206	-0,145	0,024
142,356	586,892	-0,109	-0,187
143,370	167,666	-0,203	-0,201
144,385	342,638	-0,126	-0,173
145,400	124,496	-0,213	-0,186
146,414	101,471	-0,280	-0,227
147,429	67,907	-0,277	-0,197
148,443	178,015	-0,189	-0,192
149,458	451,274	-0,174	-0,268
150,473	133,649	-0,249	-0,224
151,487	-29,322	-0,267	-0,106
152,502	18,966	-0,311	-0,173
153,516	14,053	-0,319	-0,172
154,531	-24,484	-0,354	-0,146
155,546	118,052	-0,239	-0,205
156,560	13,648	-0,370	-0,199
157,575	123,257	-0,178	-0,155
158,589	-1,571	-0,314	-0,154
159,604	116,019	-0,187	-0,159
160,619	-23,059	-0,326	-0,136
161,633	-66,549	-0,271	-0,074
162,648	49,577	-0,167	-0,109
163,662	215,840	-0,184	-0,204
164,677	-143,657	-0,372	-0,024
165,692	-40,692	-0,277	-0,099
166,706	-34,777	-0,320	-0,121
167,721	-106,644	-0,235	-0,036
168,735	-20,302	-0,221	-0,094
169,750	58,969	-0,296	-0,202
170,764	105,124	-0,311	-0,255
171,779	60,431	-0,203	-0,139
172,794	68,835	-0,228	-0,162
173,808	116,071	-0,272	-0,231
174,823	114,298	-0,209	-0,176
175,837	51,629	-0,247	-0,163
176,852	335,346	-0,157	-0,212
177,867	114,440	-0,186	-0,157
178,881	34,257	-0,183	-0,111
179,896	115,829	-0,289	-0,246
180,910	317,774	-0,213	-0,280
181,925	800,000	-0,199	-0,384
182,940	199,652	-0,194	-0,207
183,954	74,555	-0,259	-0,188
184,969	800,000	-0,063	-0,182
185,983	-200,000	-0,034	-0,115
186,998	235,495	-0,158	-0,181
188,013	-57,322	-0,343	-0,104
189,027	289,272	-0,257	-0,324
190,042	452,857	-0,149	-0,229
191,056	-97,024	-0,249	0,045
192,071	40,922	-0,263	-0,164
193,086	115,924	-0,165	-0,140
194,100	-3,903	-0,159	-0,076
195,115	-157,229	-0,241	0,010
196,129	120,536	-0,223	-0,192
197,144	276,982	-0,135	-0,167
198,159	377,013	-0,172	-0,244
199,173	574,905	-0,126	-0,213
200,188	-128,635	-0,173	0,017
201,202	800,000	-0,062	-0,175
202,217	-47,244	-0,165	-0,055
203,232	67,153	-0,221	-0,156
204,246	-0,442	-0,245	-0,120
205,261	-67,789	-0,311	-0,084
206,275	378,366	-0,126	-0,180
207,290	-88,239	-0,301	0,062
208,304	-200,000	-0,040	-0,126
209,319	57,928	-0,093	-0,063
210,334	68,850	-0,135	-0,096
211,348	138,268	-0,162	-0,147
212,363	-33,447	-0,300	-0,114
213,377	363,458	-0,155	-0,217
214,392	443,278	-0,142	-0,217
215,407	800,000	-0,089	-0,224
216,421	23,879	-0,152	-0,086
217,436	64,756	-0,168	-0,117
218,450	199,717	-0,122	-0,129
219,465	-126,900	-0,197	-0,020
220,480	-108,251	-0,254	-0,038
221,494	-11,138	-0,076	-0,034
222,509	-97,298	-0,213	0,038
223,523	-200,000	-0,057	-0,200
224,538	84,736	-0,218	-0,165
225,553	51,802	-0,160	-0,105
226,567	145,966	-0,164	-0,152
227,582	5,430	-0,179	-0,091
228,596	-82,419	-0,305	-0,068
229,611	-1,513	-0,175	-0,085
230,626	-167,057	-0,114	-0,003
231,640	-46,913	-0,240	-0,080
232,655	104,037	-0,265	-0,215
233,669	-22,248	-0,077	0,032
234,684	42,230	-0,200	-0,125
235,699	41,698	-0,193	-0,120
236,713	-113,930	-0,197	-0,026
237,728	272,071	-0,138	-0,168
238,742	111,209	-0,181	-0,151
239,757	80,657	-0,132	-0,098
240,772	156,742	-0,234	-0,223
241,786	-47,563	-0,129	-0,043
242,801	800,000	-0,094	-0,187
243,815	-2,658	-0,199	-0,096
244,830	-36,053	-0,337	-0,125
245,844	5,011	-0,266	-0,134
246,859	207,809	-0,113	-0,122
247,874	73,641	-0,205	-0,148
248,888	233,905	-0,137	-0,156
249,903	148,843	-0,219	-0,205
250,917	241,922	-0,136	-0,157
251,932	-200,000	-0,034	-0,138
252,947	-107,636	-0,163	-0,024
253,961	-86,528	-0,152	-0,032
254,976	353,300	-0,156	-0,214
255,990	800,000	-0,142	-0,284
257,005	-2,911	-0,121	-0,058
258,020	100,851	-0,179	-0,143
259,034	-115,093	-0,181	0,023
260,049	264,727	-0,105	-0,126
261,063	390,119	-0,145	-0,208
262,078	-69,421	-0,157	-0,041
263,093	131,700	-0,098	-0,087
264,107	-177,249	-0,156	-0,003
265,122	105,159	-0,188	-0,152
266,136	-110,716	-0,243	-0,034
267,151	-96,503	-0,277	0,050
268,166	-1,803	-0,134	-0,065
269,180	-36,065	-0,212	-0,079
270,195	1,411	-0,168	-0,083
271,209	438,635	-0,212	-0,319
272,224	800,000	-0,063	-0,140
273,239	800,000	-0,094	-0,205
274,253	-97,305	-0,201	0,036
275,268	33,918	-0,136	-0,081
276,282	-60,286	-0,064	0,019
277,297	-82,057	-0,191	-0,043
278,312	8,161	-0,115	-0,059
279,326	136,794	-0,195	-0,176
280,341	-56,009	-0,286	-0,087
281,355	175,324	-0,073	-0,073
282,370	-109,544	-0,238	0,034
283,384	800,000	-0,078	-0,184
284,399	59,394	-0,238	-0,161
285,414	-96,344	-0,315	-0,057
286,428	-49,713	-0,259	-0,084
287,443	-200,000	-0,005	-0,103
288,457	800,000	-0,041	-0,091
289,472	-163,222	-0,116	0,004
290,487	109,234	-0,263	-0,216
291,501	-200,000	-0,033	-0,220
292,516	17,759	-0,136	-0,074
293,530	437,646	-0,105	-0,157
294,545	156,518	-0,094	-0,090
295,560	489,949	-0,093	-0,147
296,574	-41,149	-0,335	-0,118
297,589	103,283	-0,109	-0,088
298,603	77,268	-0,126	-0,092
299,618	-66,661	-0,189	-0,051
300,633	33,407	-0,127	-0,075
301,647	-138,477	-0,166	-0,012
302,662	-91,456	-0,053	-0,010
303,676	-64,374	-0,132	-0,037
304,691	252,811	-0,121	-0,142
305,706	758,278	-0,128	-0,238
306,720	627,345	-0,128	-0,222
307,735	-86,237	-0,131	-0,027
308,749	330,961	-0,158	-0,210
309,764	30,498	-0,184	-0,107
310,779	-165,475	-0,169	-0,005
311,793	43,735	-0,166	-0,104
312,808	13,201	-0,173	-0,092
313,822	-128,993	-0,157	0,015
314,837	-26,774	-0,136	-0,054
315,852	162,317	-0,080	-0,077
316,866	-14,060	-0,107	-0,047
317,881	800,000	-0,058	-0,137
318,895	-98,722	-0,176	-0,030
319,910	191,181	-0,158	-0,163
320,925	-200,000	0,090	-0,290
321,939	88,165	-0,100	-0,076
322,954	120,223	-0,192	-0,164
323,968	-69,716	-0,079	-0,021
324,983	151,448	-0,063	-0,059
325,997	-24,538	-0,150	-0,061
327,012	338,151	-0,119	-0,159
328,027	64,609	-0,212	-0,146
329,041	-21,660	-0,123	-0,051
330,056	121,111	-0,115	-0,098
331,070	-99,583	-0,228	0,039
332,085	461,875	0,011	-0,017
333,100	56,389	-0,143	-0,095
334,114	-76,230	-0,224	0,054
335,129	86,706	-0,135	-0,102
336,143	-123,291	-0,066	0,007
337,158	127,946	-0,189	-0,165
338,173	192,446	-0,010	-0,011
339,187	254,044	-0,074	-0,087
340,202	-200,000	-0,026	-0,118
341,216	240,312	-0,229	-0,262
342,231	205,057	-0,213	-0,227
343,246	-159,440	-0,064	-0,002
344,260	-200,000	-0,041	-0,156
345,275	442,374	-0,069	-0,103
346,289	1,785	-0,180	0,089
347,304	-2,734	-0,199	-0,095
348,319	-109,019	-0,119	0,017
349,333	-134,306	-0,086	-0,007
350,348	10,088	-0,240	-0,124
351,362	-64,784	-0,079	0,022
352,377	172,932	-0,126	0,124
353,392	209,344	-0,113	-0,121
354,406	-120,458	-0,060	-0,007
355,421	205,957	1310,669	1394,931
356,435	158,376	1470,829	1395,371
