DTS Sentinel unit serial number:	SN410029Multiplexer serial number:	ORYXHardware model number:	OX2-SRSoftware version number:	ORYX F/W v4,00 Oryx Data Collector v3.7.2.0data status	okinstallation	B3 Nyhavnadifferential loss correction	single-endedforward channel	channel 1reverse channel	N/Adate	2023/12/04time	06:22:30forward acquisition time	300,00reverse acquisition time	0,00gamma	499,1914k internal	0,3206k external	0,3206temperature offset calibration	1,0000default loss term (dB/km)	0,3820temperature slope calibration	1,0000multiplexer offset coefficient	1,0000multiplexer slope coefficient	1,0000fibre end	0,00T internal ref (°C)	12,04T ext. ref 1 (°C)	-2,89T ext. ref 2 (°C)	-2,91length (m)	temperature (°C)	Stokes	anti-Stokes-744,400	302,855	-0,190	-0,256
-743,385	800,000	-0,124	0,388
-742,371	800,000	-0,095	-0,209
-741,356	-200,000	-0,001	0,360
-740,342	-200,000	-0,003	-0,157
-739,327	-200,000	-0,030	0,203
-738,312	163,502	-0,245	-0,251
-737,298	800,000	-0,110	0,269
-736,283	41,903	-0,262	-0,172
-735,269	-200,000	-0,017	0,328
-734,254	326,985	-0,175	-0,244
-733,239	524,877	-0,111	0,190
-732,225	681,332	-0,123	-0,234
-731,210	102,328	0,089	0,076
-730,196	193,686	-0,043	-0,048
-729,181	65,395	0,102	-0,075
-728,167	345,853	-0,056	-0,080
-727,152	-200,000	0,013	-0,047
-726,137	29,165	0,094	-0,058
-725,123	-200,000	0,016	-0,103
-724,108	-70,908	-0,135	-0,037
-723,094	800,000	-0,104	-0,230
-722,079	-200,000	-0,006	-0,081
-721,064	75,474	-0,041	-0,031
-720,050	187,734	-0,155	0,169
-719,035	-41,803	0,133	-0,049
-718,021	779,963	0,050	-0,101
-717,006	-200,000	-0,019	-0,161
-715,991	55,560	-0,067	0,047
-714,977	-200,000	0,023	-0,150
-713,962	9,853	-0,042	-0,023
-712,948	337,898	0,142	0,201
-711,933	6,596	0,101	-0,054
-710,918	-37,111	0,117	-0,045
-709,904	-39,554	0,156	-0,059
-708,889	0,364	-0,085	0,044
-707,875	23,320	-0,040	0,024
-706,860	249,782	-0,066	0,082
-705,845	800,000	-0,111	-0,229
-704,831	282,203	-0,083	0,108
-703,816	132,462	-0,110	0,103
-702,802	-200,000	-0,006	-0,108
-701,787	761,022	-0,102	-0,201
-700,772	800,000	0,028	0,058
-699,758	800,000	0,009	0,028
-698,743	-136,151	-0,092	-0,008
-697,729	74,211	0,020	-0,015
-696,714	-200,000	-0,001	0,049
-695,699	800,000	0,022	-0,046
-694,685	-144,295	-0,069	0,005
-693,670	-200,000	0,013	-0,063
-692,656	-200,000	-0,012	0,084
-691,641	800,000	0,037	0,084
-690,627	359,750	0,028	0,040
-689,612	9,135	0,144	0,079
-688,597	-200,000	0,005	-0,088
-687,583	172,898	-0,068	-0,071
-686,568	-200,000	-0,026	-0,149
-685,554	168,427	-0,092	-0,095
-684,539	-86,362	0,157	-0,035
-683,524	334,799	0,076	0,107
-682,510	-69,775	-0,038	-0,010
-681,495	800,000	-0,051	-0,142
-680,481	-0,907	-0,101	-0,051
-679,466	104,425	-0,093	0,079
-678,451	117,951	-0,030	0,027
-677,437	209,139	0,087	0,099
-676,422	58,202	0,079	0,056
-675,408	163,628	-0,102	0,104
-674,393	-16,218	0,107	0,049
-673,378	-116,322	-0,126	-0,017
-672,364	-200,000	-0,030	-0,135
-671,349	-200,000	-0,027	-0,089
-670,335	298,251	0,057	-0,076
-669,320	-200,000	-0,001	0,057
-668,305	-20,857	0,083	0,037
-667,291	800,000	-0,054	0,112
-666,276	23,957	0,024	0,014
-665,262	-91,406	-0,243	-0,050
-664,247	520,693	0,078	-0,133
-663,232	86,439	-0,047	0,038
-662,218	96,083	0,096	0,079
-661,203	334,337	0,005	0,007
-660,189	-151,926	0,044	-0,002
-659,174	163,659	0,085	-0,087
-658,159	800,000	-0,042	-0,098
-657,145	-200,000	-0,022	-0,114
-656,130	12,232	0,120	0,067
-655,116	-200,000	-0,028	-0,113
-654,101	9,445	0,104	0,057
-653,086	-12,128	0,080	0,038
-652,072	774,229	-0,041	-0,082
-651,057	56,976	-0,116	-0,082
-650,043	-3,695	0,028	-0,014
-649,028	-128,261	0,086	0,009
-648,014	-200,000	0,013	0,168
-646,999	118,266	0,067	0,060
-645,984	-200,000	-0,017	0,216
-644,970	-200,000	0,009	0,050
-643,955	100,592	-0,091	0,076
-642,941	-18,375	-0,040	0,018
-641,926	417,259	0,038	-0,059
-640,911	800,000	-0,044	0,102
-639,897	187,256	0,048	0,052
-638,882	-52,183	0,108	-0,036
-637,868	-200,000	0,000	0,154
-636,853	186,906	-0,056	0,060
-635,838	781,703	-0,072	-0,144
-634,824	800,000	-0,046	-0,138
-633,809	423,976	0,043	0,068
-632,795	249,872	0,016	-0,019
-631,780	1,187	-0,071	-0,037
-630,765	-138,165	-0,052	-0,004
-629,751	-158,580	0,094	0,004
-628,736	438,167	-0,025	-0,040
-627,722	-200,000	0,003	-0,112
-626,707	-74,306	0,102	0,027
-625,692	-2,158	-0,105	0,053
-624,678	-150,272	0,164	-0,009
-623,663	773,446	-0,056	0,112
-622,649	-81,074	-0,111	-0,026
-621,634	-200,000	0,012	0,073
-620,619	-200,000	-0,043	0,178
-619,605	227,855	0,124	0,147
-618,590	800,000	0,011	0,025
-617,576	539,207	0,069	0,119
-616,561	-78,205	-0,064	-0,016
-615,546	283,585	-0,054	0,070
-614,532	-84,554	0,083	-0,019
-613,517	800,000	-0,015	-0,039
-612,503	-200,000	0,003	0,116
-611,488	-31,780	-0,075	-0,030
-610,474	800,000	-0,013	0,028
-609,459	800,000	0,032	0,075
-608,444	543,210	-0,035	0,061
-607,430	-200,000	0,021	-0,171
-606,415	-21,407	0,064	0,028
-605,401	800,000	0,079	-0,184
-604,386	-17,715	0,058	0,026
-603,371	-124,336	0,179	0,020
-602,357	-200,000	-0,016	0,120
-601,342	56,805	0,086	-0,061
-600,328	8,549	-0,149	-0,081
-599,313	-26,219	-0,140	-0,059
-598,298	29,085	0,101	0,062
-597,284	-46,366	-0,033	0,012
-596,269	-33,117	0,151	-0,060
-595,255	-43,496	-0,162	-0,059
-594,240	193,694	0,062	0,067
-593,225	-200,000	0,006	-0,068
-592,211	752,768	-0,048	-0,094
-591,196	800,000	-0,033	-0,083
-590,182	428,460	0,054	-0,084
-589,167	117,403	0,062	0,055
-588,152	475,933	0,041	-0,068
-587,138	378,247	-0,110	-0,163
-586,123	110,647	0,014	0,012
-585,109	331,918	-0,066	-0,092
-584,094	800,000	-0,052	-0,144
-583,079	-200,000	0,006	0,079
-582,065	-200,000	-0,021	-0,103
-581,050	-200,000	0,005	0,091
-580,036	-200,000	-0,000	0,086
-579,021	39,545	-0,089	-0,058
-578,006	592,067	-0,086	-0,153
-576,992	-126,600	0,044	0,005
-575,977	23,971	0,041	-0,024
-574,963	165,818	0,052	0,053
-573,948	483,163	-0,016	0,026
-572,934	1,836	0,035	0,018
-571,919	-200,000	-0,001	-0,024
-570,904	-200,000	-0,013	-0,135
-569,890	431,990	-0,028	-0,043
-568,875	-13,236	-0,114	0,053
-567,861	-27,919	0,190	-0,079
-566,846	196,257	-0,082	-0,090
-565,831	669,575	-0,073	0,137
-564,817	23,609	-0,018	-0,010
-563,802	800,000	0,022	-0,065
-562,788	-200,000	0,001	0,007
-561,773	-108,129	-0,102	0,016
-560,758	-95,736	-0,047	0,009
-559,744	-26,138	-0,043	0,018
-558,729	-68,559	0,088	-0,024
-557,715	-64,054	-0,083	0,024
-556,700	800,000	-0,040	0,108
-555,685	45,645	-0,015	0,010
-554,671	-64,023	-0,037	-0,011
-553,656	62,966	-0,095	-0,068
-552,642	800,000	0,016	-0,039
-551,627	-200,000	-0,019	-0,089
-550,612	-200,000	-0,007	-0,041
-549,598	748,647	-0,013	-0,026
-548,583	-87,825	-0,138	0,030
-547,569	-200,000	-0,007	-0,158
-546,554	-200,000	0,015	-0,085
-545,539	-200,000	-0,018	0,093
-544,525	36,196	0,125	-0,079
-543,510	-200,000	-0,000	-0,079
-542,496	800,000	0,038	-0,097
-541,481	-70,914	-0,020	0,005
-540,466	227,285	0,073	-0,086
-539,452	800,000	-0,058	-0,159
-538,437	174,312	-0,050	-0,052
-537,423	215,178	-0,020	-0,022
-536,408	-172,016	-0,073	-0,002
-535,393	154,195	-0,077	-0,076
-534,379	-149,253	0,075	-0,004
-533,364	-72,166	-0,110	-0,029
-532,350	-191,705	0,056	0,000
-531,335	406,003	-0,046	-0,070
-530,321	-114,404	-0,136	0,019
-529,306	221,838	0,061	0,071
-528,291	17,964	-0,147	0,084
-527,277	800,000	0,023	-0,052
-526,262	-185,938	0,048	0,000
-525,248	-24,849	0,064	-0,027
-524,233	265,797	0,089	0,112
-523,218	208,798	0,020	-0,022
-522,204	800,000	-0,030	0,080
-521,189	21,267	-0,057	-0,033
-520,175	800,000	0,028	-0,079
-519,160	-87,664	-0,049	-0,010
-518,145	-26,235	-0,178	0,075
-517,131	-200,000	0,013	-0,111
-516,116	85,887	0,070	0,055
-515,102	20,955	0,077	0,045
-514,087	800,000	0,043	-0,095
-513,072	-36,900	0,094	0,036
-512,058	10,617	-0,072	-0,039
-511,043	-200,000	0,029	-0,172
-510,029	-27,487	0,195	0,081
-509,014	800,000	0,019	0,039
-507,999	-173,212	0,042	-0,001
-506,985	485,555	-0,020	-0,033
-505,970	18,676	-0,044	0,025
-504,956	800,000	0,095	0,196
-503,941	-77,297	0,043	-0,011
-502,926	800,000	0,058	0,181
-501,912	-179,207	0,134	-0,002
-500,897	57,264	0,079	0,055
-499,883	-165,322	-0,095	-0,003
-498,868	-200,000	0,017	-0,123
-497,853	123,987	-0,027	0,024
-496,839	162,825	-0,068	0,069
-495,824	-51,328	0,142	-0,048
-494,810	318,203	0,053	-0,072
-493,795	800,000	-0,035	0,070
-492,781	-200,000	0,013	0,080
-491,766	384,322	0,042	-0,063
-490,751	-173,150	0,106	-0,002
-489,737	394,597	-0,046	0,069
-488,722	-148,160	0,109	0,006
-487,708	395,164	-0,062	0,093
-486,693	9,283	0,126	0,069
-485,678	535,338	-0,028	0,049
-484,664	-99,335	-0,067	-0,012
-483,649	116,903	0,038	-0,033
-482,635	358,759	-0,073	0,105
-481,620	800,000	-0,062	-0,131
-480,605	262,055	0,087	0,108
-479,591	699,073	-0,113	0,214
-478,576	201,010	-0,034	0,038
-477,562	800,000	0,012	-0,028
-476,547	139,566	0,077	-0,072
-475,532	-34,449	-0,028	-0,011
-474,518	351,700	-0,011	0,015
-473,503	-200,000	0,021	0,110
-472,489	490,445	0,062	0,102
-471,474	-133,123	-0,097	0,009
-470,459	187,200	0,051	-0,055
-469,445	-200,000	0,003	-0,077
-468,430	255,174	-0,084	0,103
-467,416	134,996	0,081	0,075
-466,401	-168,146	0,082	0,002
-465,386	-55,937	0,135	0,043
-464,372	234,873	-0,108	-0,128
-463,357	800,000	0,035	0,069
-462,343	529,471	-0,012	-0,021
-461,328	192,110	0,032	-0,035
-460,313	368,755	0,033	-0,049
-459,299	39,866	-0,036	-0,023
-458,284	88,264	0,162	0,129
-457,270	222,596	-0,035	-0,041
-456,255	-200,000	0,046	0,156
-455,241	113,383	-0,075	-0,065
-454,226	112,119	-0,034	0,029
-453,211	433,668	0,041	0,065
-452,197	74,624	-0,030	0,022
-451,182	-200,000	0,006	-0,128
-450,168	265,832	0,055	0,069
-449,153	-90,584	-0,112	0,023
-448,138	201,554	-0,011	0,012
-447,124	253,837	0,046	-0,057
-446,109	-28,492	-0,086	-0,036
-445,095	-200,000	-0,013	0,150
-444,080	653,488	0,075	0,138
-443,065	31,281	-0,042	0,026
-442,051	-80,501	0,040	0,010
-441,036	201,607	0,021	-0,024
-440,022	800,000	0,005	0,010
-439,007	-16,605	-0,046	-0,021
-437,992	800,000	-0,035	0,071
-436,978	72,320	0,074	0,055
-435,963	-200,000	0,000	-0,009
-434,949	137,775	-0,109	0,102
-433,934	-76,341	-0,113	0,028
-432,919	39,103	-0,072	-0,046
-431,905	800,000	-0,016	0,049
-430,890	-195,594	0,072	-0,000
-429,876	-200,000	0,019	0,098
-428,861	-117,247	0,086	0,011
-427,846	48,025	0,062	-0,041
-426,832	532,532	-0,021	-0,036
-425,817	-108,924	0,060	0,009
-424,803	-30,530	0,170	-0,069
-423,788	-103,809	0,186	-0,031
-422,773	19,594	-0,109	-0,063
-421,759	494,583	0,073	0,121
-420,744	-200,000	0,025	0,116
-419,730	42,411	0,049	0,032
-418,715	800,000	-0,028	-0,061
-417,701	-200,000	0,007	-0,160
-416,686	-8,368	-0,053	-0,025
-415,671	-200,000	-0,003	0,090
-414,657	-200,000	-0,017	0,113
-413,642	-200,000	-0,000	0,033
-412,628	-200,000	0,027	-0,131
-411,613	-83,601	-0,028	0,006
-410,598	31,137	-0,048	-0,030
-409,584	-73,409	0,072	-0,019
-408,569	-142,799	0,065	-0,004
-407,555	-200,000	-0,006	0,113
-406,540	35,501	0,122	0,076
-405,525	-200,000	-0,008	-0,077
-404,511	635,413	-0,039	-0,071
-403,496	82,143	-0,022	-0,017
-402,482	400,739	-0,047	-0,071
-401,467	-177,409	-0,105	0,002
-400,452	206,109	0,058	0,065
-399,438	800,000	-0,043	0,117
-398,423	-200,000	0,002	-0,020
-397,409	349,374	-0,070	-0,099
-396,394	-150,819	0,030	0,002
-395,379	-99,702	-0,011	0,002
-394,365	-19,535	0,095	-0,042
-393,350	-62,943	0,109	0,032
-392,336	84,387	-0,072	-0,057
-391,321	100,703	0,038	-0,031
-390,306	-161,591	-0,062	0,002
-389,292	-88,261	-0,107	0,023
-388,277	-80,958	0,083	-0,020
-387,263	-200,000	0,012	0,056
-386,248	-200,000	-0,000	0,072
-385,233	55,960	0,099	0,069
-384,219	150,914	-0,103	-0,100
-383,204	19,342	0,063	-0,036
-382,190	-70,061	-0,079	0,021
-381,175	634,273	0,039	0,072
-380,160	425,109	0,038	0,058
-379,146	325,604	0,084	0,116
-378,131	800,000	-0,024	-0,047
-377,117	-5,631	-0,103	-0,050
-376,102	-200,000	0,018	-0,113
-375,088	800,000	-0,051	-0,124
-374,073	238,269	0,020	-0,024
-373,058	56,250	-0,024	0,017
-372,044	-74,926	0,184	0,047
-371,029	-200,000	-0,022	-0,095
-370,015	-200,000	0,044	0,142
-369,000	440,885	-0,095	0,149
-367,985	522,211	-0,105	-0,178
-366,971	800,000	0,047	0,105
-365,956	439,042	0,027	-0,043
-364,942	-112,586	0,184	0,026
-363,927	-77,662	0,211	-0,052
-362,912	73,709	0,053	0,039
-361,898	800,000	0,034	-0,086
-360,883	-200,000	-0,020	-0,088
-359,869	-200,000	0,026	-0,145
-358,854	-69,538	-0,130	-0,035
-357,839	-50,344	0,085	0,029
-356,825	-79,419	-0,061	-0,015
-355,810	-200,000	0,005	-0,171
-354,796	319,242	-0,014	-0,019
-353,781	-200,000	-0,013	-0,104
-352,766	-200,000	0,012	-0,148
-351,752	-200,000	-0,011	0,065
-350,737	800,000	-0,065	-0,163
-349,723	246,852	-0,013	0,016
-348,708	800,000	-0,028	-0,073
-347,693	-200,000	0,008	-0,115
-346,679	150,864	0,082	-0,080
-345,664	31,717	0,073	0,045
-344,650	20,220	-0,032	-0,019
-343,635	133,972	-0,056	-0,052
-342,620	-200,000	-0,003	0,044
-341,606	-200,000	0,008	0,126
-340,591	800,000	-0,067	-0,184
-339,577	-116,788	-0,024	-0,003
-338,562	-200,000	0,012	-0,050
-337,548	47,822	0,035	-0,023
-336,533	-200,000	0,003	0,053
-335,518	-85,493	0,111	-0,025
-334,504	-93,165	-0,088	-0,017
-333,489	800,000	-0,031	-0,069
-332,475	-17,201	-0,073	-0,033
-331,460	238,835	-0,100	0,120
-330,445	416,920	-0,083	-0,127
-329,431	-200,000	-0,019	0,084
-328,416	-200,000	0,012	0,055
-327,402	23,351	0,050	-0,029
-326,387	130,467	-0,136	0,125
-325,372	162,184	0,057	-0,057
-324,358	67,821	0,093	-0,068
-323,343	-105,906	-0,128	-0,020
-322,329	148,112	-0,116	0,112
-321,314	71,558	-0,095	0,071
-320,299	593,951	0,026	0,046
-319,285	-155,400	0,184	-0,008
-318,270	401,083	-0,045	0,068
-317,256	347,478	-0,080	-0,113
-316,241	-138,862	-0,103	0,008
-315,226	66,612	-0,115	0,083
-314,212	25,349	-0,056	-0,033
-313,197	76,140	-0,078	0,059
-312,183	-200,000	-0,003	0,072
-311,168	-107,717	-0,195	-0,030
-310,153	-200,000	-0,033	-0,134
-309,139	181,781	-0,063	-0,067
-308,124	-200,000	0,007	-0,063
-307,110	-98,880	-0,057	-0,010
-306,095	268,689	0,096	0,120
-305,080	187,272	0,089	0,095
-304,066	-200,000	-0,028	0,104
-303,051	27,036	0,120	-0,072
-302,037	-200,000	-0,004	-0,049
-301,022	-3,675	0,119	-0,059
-300,008	-64,226	-0,044	-0,013
-298,993	-18,750	0,097	-0,043
-297,978	-200,000	0,021	0,087
-296,964	242,198	0,098	-0,117
-295,949	285,538	0,065	-0,084
-294,935	683,290	0,051	-0,096
-293,920	800,000	0,058	-0,154
-292,905	-43,062	-0,041	-0,015
-291,891	-126,440	0,069	0,007
-290,876	-86,036	-0,117	-0,026
-289,862	-127,391	0,051	-0,005
-288,847	349,032	-0,065	-0,092
-287,832	19,290	-0,126	-0,072
-286,818	800,000	0,025	-0,052
-285,803	800,000	-0,007	0,015
-284,789	800,000	0,037	-0,108
-283,774	439,183	0,044	0,070
-282,759	279,297	-0,015	0,019
-281,745	-200,000	0,009	-0,039
-280,730	-200,000	0,016	-0,116
-279,716	61,015	-0,075	0,053
-278,701	-200,000	0,043	0,179
-277,686	466,940	-0,030	-0,049
-276,672	-94,774	0,160	0,031
-275,657	800,000	-0,044	0,104
-274,643	-60,555	0,030	0,009
-273,628	42,772	-0,090	-0,058
-272,613	338,358	-0,084	0,117
-271,599	-100,910	0,051	-0,009
-270,584	96,893	-0,115	0,094
-269,570	79,389	0,047	0,036
-268,555	-200,000	0,007	-0,023
-267,540	30,470	-0,072	-0,044
-266,526	451,819	0,062	-0,098
-265,511	-66,155	-0,077	0,022
-264,497	-200,000	-0,010	-0,040
-263,482	800,000	-0,048	0,098
-262,467	-200,000	0,019	0,098
-261,453	486,037	0,072	0,117
-260,438	-85,912	0,129	0,028
-259,424	-200,000	0,004	-0,177
-258,409	63,290	-0,056	0,040
-257,395	108,907	0,126	-0,107
-256,380	354,496	0,056	0,079
-255,365	800,000	0,016	0,045
-254,351	-77,699	-0,067	0,016
-253,336	487,446	0,055	-0,090
-252,322	800,000	-0,022	-0,054
-251,307	-38,275	-0,208	-0,078
-250,292	105,370	0,048	-0,041
-249,278	149,970	0,049	0,047
-248,263	-200,000	-0,018	0,080
-247,249	-50,831	-0,074	0,024
-246,234	135,982	0,055	0,051
-245,219	-114,227	0,142	-0,019
-244,205	-18,127	0,084	0,037
-243,190	395,852	-0,112	0,167
-242,176	800,000	-0,047	0,117
-241,161	204,364	0,035	-0,039
-240,146	-114,857	-0,050	-0,007
-239,132	17,700	0,057	-0,032
-238,117	24,117	-0,164	-0,096
-237,103	800,000	-0,025	-0,079
-236,088	605,860	-0,026	0,046
-235,073	-64,082	0,071	0,020
-234,059	-167,488	0,111	0,003
-233,044	621,454	0,014	-0,025
-232,030	800,000	0,039	0,085
-231,015	590,672	-0,021	-0,037
-230,000	27,223	0,071	0,042
-228,986	-158,442	0,115	-0,005
-227,971	-200,000	-0,016	-0,068
-226,957	479,657	0,012	0,019
-225,942	-200,000	0,014	0,061
-224,927	-200,000	-0,014	0,094
-223,913	-46,043	-0,143	-0,050
-222,898	-32,941	-0,058	-0,023
-221,884	474,774	-0,045	-0,073
-220,869	800,000	0,039	-0,086
-219,855	115,360	0,036	-0,031
-218,840	135,052	-0,034	-0,032
-217,825	667,923	0,026	0,047
-216,811	-12,077	-0,045	-0,021
-215,796	92,810	-0,036	-0,029
-214,782	-49,415	-0,068	-0,023
-213,767	62,747	-0,070	0,050
-212,752	62,541	0,132	0,094
-211,738	398,286	0,100	0,150
-210,723	-200,000	0,022	0,119
-209,709	-200,000	0,007	0,075
-208,694	652,613	-0,044	0,081
-207,679	-200,000	-0,000	0,034
-206,665	800,000	0,019	0,050
-205,650	-200,000	0,026	0,098
-204,636	800,000	-0,012	0,032
-203,621	-89,454	-0,015	-0,003
-202,606	-43,014	0,038	-0,014
-201,592	59,156	0,078	0,055
-200,577	-64,677	-0,060	0,017
-199,563	-167,975	-0,061	-0,002
-198,548	-200,000	0,004	-0,073
-197,533	156,939	0,075	0,074
-196,519	-200,000	-0,019	0,139
-195,504	-200,000	-0,006	0,047
-194,490	-200,000	-0,027	-0,122
-193,475	-200,000	-0,009	-0,074
-192,460	-69,773	-0,078	-0,021
-191,446	295,197	0,045	-0,058
-190,431	394,227	-0,054	-0,080
-189,417	328,378	0,065	0,090
-188,402	476,072	-0,038	-0,062
-187,387	13,216	-0,108	-0,059
-186,373	502,738	-0,044	-0,072
-185,358	54,912	-0,069	0,047
-184,344	-200,000	0,017	0,187
-183,329	-51,885	0,046	-0,015
-182,315	-200,000	0,040	0,146
-181,300	-90,652	-0,051	-0,010
-180,285	-200,000	-0,024	0,077
-179,271	-200,000	0,003	-0,146
-178,256	104,552	-0,085	-0,071
-177,242	155,619	0,039	0,039
-176,227	-108,600	0,111	0,017
-175,212	226,977	-0,021	0,025
-174,198	136,928	0,008	0,007
-173,183	213,624	-0,059	-0,066
-172,169	441,051	-0,136	-0,212
-171,154	-200,000	0,008	0,056
-170,139	124,456	-0,029	0,026
-169,125	800,000	0,014	0,043
-168,110	-200,000	-0,037	0,160
-167,096	-70,563	-0,072	0,019
-166,081	9,116	-0,072	-0,038
-165,066	-9,799	-0,081	0,038
-164,052	-200,000	0,001	-0,048
-163,037	-19,392	0,046	0,020
-162,023	3,295	0,069	-0,036
-161,008	-200,000	0,012	0,046
-159,993	-200,000	0,009	-0,101
-158,979	-27,758	-0,073	-0,030
-157,964	445,427	-0,055	-0,085
-156,950	-200,000	-0,014	-0,099
-155,935	800,000	0,036	-0,103
-154,920	27,606	-0,060	0,036
-153,906	800,000	0,021	0,042
-152,891	-46,883	0,122	0,042
-151,877	338,125	-0,107	0,149
-150,862	533,219	-0,024	-0,040
-149,847	800,000	0,036	-0,079
-148,833	-200,000	-0,012	-0,072
-147,818	-200,000	-0,044	0,209
-146,804	-102,461	0,040	0,007
-145,789	142,746	-0,106	-0,100
-144,775	-200,000	-0,008	0,173
-143,760	29,026	0,126	0,075
-142,745	167,854	-0,031	0,031
-141,731	-83,130	0,043	-0,010
-140,716	103,497	-0,066	0,055
-139,702	-29,130	-0,079	-0,032
-138,687	-139,762	0,170	0,013
-137,672	800,000	0,020	-0,058
-136,658	60,493	-0,012	-0,008
-135,643	800,000	-0,035	-0,090
-134,629	-200,000	-0,005	-0,084
-133,614	-128,553	0,078	-0,008
-132,599	-25,206	0,100	0,042
-131,585	-199,610	-0,037	-0,000
-130,570	-78,735	-0,012	0,003
-129,556	31,591	-0,130	0,079
-128,541	184,560	-0,043	0,046
-127,526	-200,000	0,010	-0,076
-126,512	146,837	0,067	0,064
-125,497	800,000	0,043	-0,115
-124,483	276,595	0,064	0,081
-123,468	-111,070	0,025	0,004
-122,453	20,695	0,044	-0,025
-121,439	-200,000	-0,010	-0,060
-120,424	-200,000	-0,032	-0,108
-119,410	99,826	0,063	0,051
-118,395	330,404	0,055	0,076
-117,380	-46,994	0,061	0,021
-116,366	122,332	0,066	-0,058
-115,351	205,976	0,100	-0,111
-114,337	-200,000	-0,003	0,024
-113,322	800,000	-0,045	-0,140
-112,307	-200,000	0,022	0,090
-111,293	205,815	-0,055	-0,060
-110,278	11,386	0,094	0,051
-109,264	238,953	0,039	0,046
-108,249	-200,000	-0,002	-0,046
-107,234	-116,648	-0,016	-0,002
-106,220	57,385	0,070	-0,048
-105,205	459,874	0,122	-0,193
-104,191	-23,833	0,039	-0,017
-103,176	660,107	0,020	0,037
-102,162	347,739	0,030	-0,042
-101,147	-111,057	-0,179	0,026
-100,132	-130,816	-0,127	0,012
-99,118	-200,000	0,017	-0,057
-98,103	-200,000	-0,001	-0,211
-97,089	-67,673	0,140	-0,039
-96,074	-31,347	0,055	0,022
-95,059	-200,000	0,020	0,198
-94,045	800,000	-0,042	-0,093
-93,030	800,000	0,038	0,091
-92,016	-30,436	-0,046	-0,018
-91,001	800,000	0,027	0,078
-89,986	276,826	-0,031	-0,039
-88,972	2,137	0,168	-0,085
-87,957	-118,528	0,028	0,003
-86,943	-200,000	0,022	-0,083
-85,928	12,478	-0,082	-0,044
-84,913	800,000	-0,071	-0,152
-83,899	-200,000	-0,021	0,083
-82,884	49,364	0,097	-0,065
-81,870	-9,571	0,027	0,013
-80,855	-118,158	0,019	-0,002
-79,840	645,133	-0,062	-0,113
-78,826	657,925	0,069	-0,126
-77,811	40,183	-0,133	-0,084
-76,797	-200,000	-0,011	-0,099
-75,782	-200,000	0,004	0,013
-74,767	-128,389	0,096	-0,010
-73,753	204,530	-0,057	-0,062
-72,738	-116,506	0,153	-0,020
-71,724	-200,000	0,001	-0,058
-70,709	140,070	-0,089	-0,083
-69,694	800,000	-0,055	-0,169
-68,680	85,816	-0,016	-0,013
-67,665	456,898	0,044	0,070
-66,651	98,899	0,077	0,063
-65,636	158,153	0,115	0,112
-64,622	96,140	-0,061	0,049
-63,607	163,373	-0,052	-0,052
-62,592	571,656	-0,073	0,126
-61,578	142,960	0,098	-0,092
-60,563	-169,020	-0,200	0,005
-59,549	-200,000	-0,002	0,070
-58,534	37,333	-1,823	-1,140
-57,519	405,691	-1,347	-2,016
-56,505	-200,000	-0,509	-4,674
-55,490	441,791	0,980	1,522
-54,476	800,000	4,814	10,963
-53,461	-200,000	20,259	324,208
-52,446	800,000	752,574	2311,317
-51,432	549,010	1663,122	2828,335
-50,417	74,794	1671,661	1242,657
-49,403	19,926	1544,512	877,666
-48,388	13,903	1466,986	804,314
-47,373	18,426	1457,137	820,726
-46,359	16,301	1446,884	804,739
-45,344	12,199	1442,360	782,549
-44,330	12,099	1440,522	781,039
-43,315	12,083	1438,719	779,956
-42,300	12,067	1437,039	778,938
-41,286	12,091	1435,727	778,309
-40,271	12,083	1434,458	777,549
-39,257	12,081	1433,185	776,820
-38,242	12,123	1431,969	776,331
-37,227	12,146	1430,613	775,675
-36,213	12,050	1429,567	774,620
-35,198	12,130	1428,172	774,214
-34,184	12,170	1427,410	773,962
-33,169	12,096	1426,090	772,862
-32,154	12,161	1424,841	772,461
-31,140	12,161	1423,632	771,779
-30,125	12,169	1422,481	771,158
-29,111	12,150	1421,321	770,412
-28,096	12,126	1420,329	769,732
-27,082	12,114	1419,216	769,041
-26,067	12,059	1418,102	768,146
-25,052	12,045	1417,023	767,463
-24,038	12,033	1416,070	766,860
-23,023	12,070	1414,995	766,425
-22,009	12,093	1413,841	765,876
-20,994	12,030	1412,916	765,046
-19,979	12,004	1412,305	764,567
-18,965	12,007	1411,247	763,975
-17,950	12,058	1410,224	763,633
-16,936	12,029	1409,505	763,076
-15,921	11,975	1408,362	762,174
-14,906	11,990	1407,508	761,751
-13,892	11,996	1406,496	761,200
-12,877	12,016	1405,685	760,827
-11,863	11,988	1404,762	760,164
-10,848	11,932	1404,042	759,484
-9,833	11,939	1402,836	758,835
-8,819	11,881	1402,245	758,212
-7,804	11,840	1401,479	757,580
-6,790	11,864	1400,368	757,060
-5,775	11,890	1399,296	756,570
-4,760	11,893	1398,268	755,998
-3,746	11,896	1397,324	755,472
-2,731	11,877	1396,658	754,995
-1,717	11,833	1395,813	754,305
-0,702	11,854	1393,952	753,364
0,313	15,926	1308,667	726,038
1,327	32,295	699,606	425,731
2,342	50,093	121,865	81,134
3,356	1,253	16,550	8,370
4,371	17,983	3,221	1,808
5,386	-44,606	0,653	0,229
6,400	-200,000	0,130	0,461
7,415	-67,463	-0,259	-0,071
8,429	-1,140	-0,332	-0,165
9,444	137,935	-0,376	-0,348
10,459	21,067	-0,274	-0,157
11,473	-18,776	-0,251	-0,110
12,488	24,766	-0,250	-0,146
13,502	-112,281	-0,305	-0,043
14,517	188,272	-0,247	-0,261
15,531	212,134	-0,290	-0,323
16,546	-3,849	-0,337	-0,164
17,561	93,943	-0,388	-0,310
18,575	-159,069	-0,205	-0,008
19,590	227,874	-0,177	-0,203
20,604	-44,819	-0,293	-0,102
21,619	-7,269	-0,397	-0,189
22,634	115,492	-0,429	-0,370
23,648	123,032	-0,421	-0,372
24,663	22,531	-0,387	-0,223
25,677	31,256	-0,363	-0,219
26,692	38,553	-0,351	-0,220
27,707	15,974	-0,406	-0,225
28,721	122,158	-0,314	-0,277
29,736	239,562	-0,323	-0,380
30,750	206,040	-0,386	-0,423
31,765	79,457	-0,405	-0,306
32,780	75,372	-0,400	-0,297
33,794	99,818	-0,336	-0,274
34,809	101,117	-0,378	-0,309
35,823	207,008	-0,326	-0,359
36,838	26,493	-0,381	-0,224
37,853	93,688	-0,478	-0,381
38,867	290,449	-0,284	-0,365
39,882	5,528	-0,392	-0,203
40,896	12,889	-0,246	-0,134
41,911	84,090	-0,300	-0,230
42,926	9,503	-0,445	-0,236
43,940	159,305	-0,354	-0,347
44,955	260,805	-0,334	-0,408
45,969	373,329	-0,235	-0,338
46,984	50,450	-0,473	-0,314
47,999	60,985	-0,304	-0,212
49,013	179,036	-0,260	-0,268
50,028	-8,639	-0,317	-0,149
51,042	230,086	-0,330	-0,380
52,057	113,500	-0,252	-0,215
53,071	126,095	-0,344	-0,306
54,086	209,507	-0,247	-0,273
55,101	81,048	-0,356	-0,270
56,115	221,353	-0,146	-0,165
57,130	60,666	-0,321	-0,223
58,144	82,215	-0,367	-0,280
59,159	101,214	-0,311	-0,255
60,174	142,880	-0,318	-0,297
61,188	95,121	-0,285	-0,228
62,203	146,149	-0,293	-0,277
63,217	104,989	-0,325	-0,270
64,232	467,042	-0,193	-0,305
65,247	-3,593	-0,305	-0,149
66,261	-32,049	-0,348	-0,136
67,276	48,820	-0,385	-0,254
68,290	264,593	-0,274	-0,336
69,305	15,903	-0,344	-0,190
70,320	70,950	-0,353	-0,256
71,334	141,440	-0,356	-0,331
72,349	-11,212	-0,267	-0,123
73,363	96,186	-0,353	-0,283
74,378	-44,765	-0,291	-0,101
75,393	22,162	-0,371	-0,212
76,407	21,514	-0,318	-0,181
77,422	112,696	-0,185	-0,158
78,436	22,878	-0,272	-0,156
79,451	11,576	-0,275	-0,147
80,466	59,137	-0,305	-0,211
81,480	-103,408	-0,388	-0,063
82,495	4,306	-0,309	-0,158
83,509	35,671	-0,269	-0,165
84,524	129,220	-0,291	-0,261
85,539	31,535	-0,227	-0,137
86,553	180,944	-0,156	-0,161
87,568	-87,596	-0,314	-0,066
88,582	80,952	-0,371	-0,281
89,597	-49,730	-0,450	-0,149
90,611	-1,367	-0,333	-0,164
91,626	44,772	-0,263	-0,169
92,641	-22,986	-0,347	-0,146
93,655	225,324	-0,186	-0,212
94,670	117,284	-0,302	-0,260
95,684	66,785	-0,348	-0,248
96,699	-2,936	-0,366	-0,178
97,714	230,939	-0,210	-0,241
98,728	404,193	-0,158	-0,234
99,743	53,008	-0,275	-0,184
100,757	29,411	-0,262	-0,156
101,772	269,700	-0,253	-0,312
102,787	169,927	-0,242	-0,243
103,801	-146,709	-0,285	-0,017
104,816	114,490	-0,183	-0,156
105,830	-39,837	-0,191	-0,070
106,845	80,674	-0,277	-0,209
107,860	-27,997	-0,221	0,089
108,874	-189,332	-0,264	0,002
109,889	30,361	-0,361	-0,215
110,903	669,274	-0,249	-0,453
111,918	-103,228	-0,317	-0,052
112,933	-38,189	-0,226	-0,083
113,947	77,901	-0,204	-0,152
114,962	59,549	-0,185	-0,127
115,976	74,747	-0,207	-0,152
116,991	-35,084	-0,328	-0,124
118,006	33,338	-0,189	-0,115
119,020	96,302	-0,210	-0,168
120,035	53,322	-0,318	-0,213
121,049	455,201	-0,161	-0,250
122,064	-82,114	-0,364	-0,082
123,079	-67,739	-0,218	-0,059
124,093	176,191	-0,253	-0,257
125,108	57,171	-0,225	-0,153
126,122	109,682	-0,197	-0,165
127,137	-56,139	-0,270	-0,084
128,151	151,686	-0,210	-0,200
129,166	100,103	-0,186	-0,151
130,181	117,287	-0,228	-0,196
131,195	-41,021	-0,234	-0,084
132,210	162,464	-0,247	-0,242
133,224	90,971	-0,229	-0,179
134,239	-73,130	-0,250	-0,064
135,254	229,346	-0,171	-0,196
136,268	-58,716	-0,226	-0,068
137,283	413,788	-0,163	-0,243
138,297	800,000	-0,061	-0,165
139,312	-16,817	-0,488	-0,215
140,327	29,670	-0,310	-0,184
141,341	20,149	-0,194	-0,109
142,356	-22,273	-0,345	-0,145
143,370	800,000	-0,091	-0,200
144,385	22,859	-0,328	-0,187
145,400	795,231	-0,135	-0,261
146,414	96,461	-0,233	-0,186
147,429	164,398	-0,281	-0,276
148,443	748,126	-0,158	-0,299
149,458	246,842	-0,166	-0,195
150,473	11,048	-0,282	-0,150
151,487	141,587	-0,193	-0,178
152,502	198,542	-0,246	-0,263
153,516	253,354	-0,285	-0,340
154,531	104,747	-0,209	-0,172
155,546	209,228	-0,279	-0,306
156,560	56,498	-0,199	-0,135
157,575	29,159	-0,241	-0,142
158,589	-33,130	-0,347	-0,133
159,604	-104,135	-0,286	-0,046
160,619	86,652	-0,251	-0,193
161,633	27,303	-0,351	-0,205
162,648	55,043	-0,230	-0,154
163,662	70,950	-0,213	-0,154
164,677	42,437	-0,266	-0,168
165,692	703,416	-0,117	-0,216
166,706	208,239	-0,250	-0,272
167,721	-136,116	-0,280	-0,023
168,735	-20,263	-0,250	-0,107
169,750	133,004	-0,243	-0,219
170,764	125,778	-0,229	-0,201
171,779	100,607	-0,202	-0,163
172,794	184,502	-0,212	-0,219
173,808	15,210	-0,283	-0,154
174,823	266,478	-0,197	-0,240
175,837	300,998	-0,254	-0,327
176,852	288,180	-0,144	-0,182
177,867	148,937	-0,200	-0,188
178,881	128,578	-0,204	-0,180
179,896	75,432	-0,219	-0,161
180,910	-1,443	-0,255	-0,125
181,925	-200,000	-0,012	-0,052
182,940	10,107	-0,295	-0,155
183,954	49,250	-0,220	-0,143
184,969	205,573	-0,164	-0,177
185,983	-32,304	-0,110	-0,042
186,998	63,014	-0,197	-0,137
188,013	-11,780	-0,282	-0,128
189,027	65,026	-0,270	-0,189
190,042	111,623	-0,218	-0,183
191,056	195,096	-0,238	-0,252
192,071	178,686	-0,136	-0,138
193,086	96,544	-0,208	-0,166
194,100	-66,434	-0,179	-0,049
195,115	232,585	-0,203	-0,232
196,129	35,343	-0,302	-0,184
197,144	181,530	-0,249	-0,255
198,159	97,394	-0,302	-0,241
199,173	50,730	-0,235	-0,154
200,188	-58,857	-0,255	-0,076
201,202	161,221	-0,156	-0,151
202,217	62,657	-0,163	-0,113
203,232	166,554	-0,137	-0,135
204,246	94,725	-0,189	-0,149
205,261	132,008	-0,272	-0,243
206,275	81,478	-0,272	-0,204
207,290	-13,631	-0,294	-0,132
208,304	108,727	-0,171	-0,142
209,319	-65,659	-0,233	-0,064
210,334	60,177	-0,277	-0,190
211,348	297,867	-0,164	-0,209
212,363	294,877	-0,141	-0,179
213,377	202,868	-0,136	-0,146
214,392	800,000	-0,059	-0,160
215,407	-10,434	-0,192	0,088
216,421	-35,968	-0,155	-0,058
217,436	-95,982	-0,191	-0,035
218,450	-93,111	-0,218	-0,042
219,465	199,515	-0,200	-0,212
220,480	100,817	-0,320	-0,258
221,494	12,139	-0,270	-0,143
222,509	101,666	-0,063	-0,051
223,523	194,243	-0,081	-0,085
224,538	800,000	-0,107	-0,208
225,553	44,195	-0,217	-0,137
226,567	28,433	-0,215	-0,126
227,582	697,403	-0,135	-0,247
228,596	-12,482	-0,079	-0,036
229,611	781,927	-0,125	-0,238
230,626	222,915	-0,133	-0,149
231,640	-35,674	-0,165	-0,062
232,655	165,841	-0,287	-0,281
233,669	266,020	-0,144	-0,174
234,684	178,425	-0,176	-0,178
235,699	392,355	-0,111	-0,160
236,713	84,219	-0,143	-0,108
237,728	261,301	-0,118	-0,142
238,742	800,000	-0,064	-0,179
239,757	198,420	-0,173	-0,183
240,772	349,312	-0,169	-0,231
241,786	-116,385	-0,205	-0,026
242,801	68,102	-0,086	-0,061
243,815	-27,212	-0,167	-0,067
244,830	800,000	-0,060	-0,150
245,844	-54,834	-0,278	-0,086
246,859	100,734	-0,148	-0,119
247,874	12,087	-0,101	-0,054
248,888	-49,889	-0,213	-0,069
249,903	122,321	-0,189	-0,163
250,917	-59,913	-0,069	0,020
251,932	-152,049	-0,177	-0,009
252,947	170,953	-0,216	-0,214
253,961	35,626	-0,203	-0,123
254,976	430,332	-0,172	-0,259
255,990	468,015	-0,164	-0,255
257,005	49,810	-0,202	-0,131
258,020	377,548	-0,141	-0,200
259,034	141,428	-0,104	-0,095
260,049	-12,287	-0,271	-0,122
261,063	32,389	-0,197	-0,117
262,078	98,268	-0,180	-0,143
263,093	28,348	-0,232	-0,135
264,107	81,127	-0,124	-0,092
265,122	78,499	-0,153	-0,113
266,136	79,942	-0,178	-0,132
267,151	-183,290	-0,161	0,002
268,166	-42,614	-0,105	-0,037
269,180	98,197	-0,140	-0,111
270,195	554,265	-0,162	-0,271
271,209	-61,181	-0,097	-0,028
272,224	-60,237	-0,226	-0,066
273,239	75,723	-0,157	-0,115
274,253	642,151	-0,116	-0,204
275,268	800,000	-0,089	-0,251
276,282	370,952	-0,182	-0,255
277,297	38,185	-0,202	-0,124
278,312	201,309	-0,086	-0,091
279,326	186,995	-0,114	-0,117
280,341	800,000	-0,056	-0,138
281,355	800,000	-0,073	-0,219
282,370	-200,000	-0,062	-0,207
283,384	229,068	-0,138	-0,155
284,399	44,920	-0,192	-0,122
285,414	-125,905	-0,234	-0,024
286,428	54,438	-0,239	-0,158
287,443	57,594	-0,095	-0,064
288,457	240,885	-0,170	-0,195
289,472	-156,482	-0,294	0,012
290,487	108,941	-0,154	-0,126
291,501	74,410	-0,205	-0,148
292,516	800,000	-0,114	-0,220
293,530	-57,120	-0,027	-0,008
294,545	135,363	-0,184	-0,165
295,560	189,690	-0,154	-0,160
296,574	269,284	-0,134	-0,162
297,589	50,744	-0,135	-0,088
298,603	28,706	-0,230	-0,134
299,618	139,935	-0,178	-0,162
300,633	272,289	-0,214	-0,260
301,647	151,587	-0,191	-0,179
302,662	-92,748	-0,130	0,025
303,676	-142,669	-0,120	0,008
304,691	-175,660	-0,198	-0,004
305,706	166,051	-0,129	-0,126
306,720	500,073	-0,134	-0,213
307,735	-200,000	-0,001	-0,077
308,749	-95,661	-0,139	-0,025
309,764	-74,980	-0,203	-0,050
310,779	-97,574	-0,181	0,032
311,793	-91,589	-0,159	-0,031
312,808	71,498	-0,166	-0,118
313,822	21,581	-0,197	-0,110
314,837	-158,228	-0,139	0,005
315,852	369,986	-0,104	-0,146
316,866	-66,043	-0,263	-0,072
317,881	7,918	-0,108	-0,055
318,895	39,722	-0,300	-0,185
319,910	-46,582	-0,226	-0,076
320,925	498,818	-0,147	-0,234
321,939	70,257	-0,212	-0,150
322,954	35,350	-0,119	-0,071
323,968	-152,216	-0,098	-0,005
324,983	-30,846	-0,224	0,087
325,997	312,275	-0,136	-0,176
327,012	79,130	-0,037	0,028
328,027	270,085	-0,106	-0,129
329,041	436,128	-0,123	-0,185
330,056	521,170	-0,086	-0,139
331,070	-32,874	-0,097	0,037
332,085	46,697	-0,084	-0,053
333,100	1,083	-0,130	-0,064
334,114	292,619	-0,129	-0,162
335,129	-200,000	-0,036	-0,166
336,143	800,000	0,018	-0,050
337,158	135,866	-0,109	-0,097
338,173	55,872	-0,138	-0,092
339,187	800,000	-0,093	-0,195
340,202	18,516	-0,287	-0,157
341,216	-83,485	-0,222	-0,048
342,231	71,201	-0,140	-0,099
343,246	105,522	-0,179	-0,145
344,260	-67,470	-0,129	-0,034
345,275	279,958	-0,069	-0,084
346,289	-88,773	-0,136	0,027
347,304	18,716	-0,115	-0,063
348,319	-200,000	-0,031	-0,152
349,333	800,000	-0,114	-0,230
350,348	157,080	-0,140	-0,133
351,362	-200,000	-0,054	-0,175
352,377	-200,000	-0,020	-0,136
353,392	158,929	-0,097	-0,092
354,406	88,453	-0,083	-0,063
355,421	209,333	1316,799	1414,856
356,435	161,106	1477,763	1415,327
