DTS Sentinel unit serial number:	SN410029Multiplexer serial number:	ORYXHardware model number:	OX2-SRSoftware version number:	ORYX F/W v4,00 Oryx Data Collector v3.7.2.0data status	okinstallation	B3 Nyhavnadifferential loss correction	single-endedforward channel	channel 1reverse channel	N/Adate	2023/12/03time	10:47:30forward acquisition time	300,00reverse acquisition time	0,00gamma	499,1914k internal	0,3200k external	0,3200temperature offset calibration	1,0000default loss term (dB/km)	0,3820temperature slope calibration	1,0000multiplexer offset coefficient	1,0000multiplexer slope coefficient	1,0000fibre end	0,00T internal ref (°C)	13,42T ext. ref 1 (°C)	-1,38T ext. ref 2 (°C)	-1,39length (m)	temperature (°C)	Stokes	anti-Stokes-744,400	800,000	-0,101	-0,210
-743,385	-200,000	0,030	0,429
-742,371	-200,000	-0,046	-0,271
-741,356	-200,000	0,007	0,297
-740,342	513,844	-0,106	-0,181
-739,327	-200,000	-0,057	0,309
-738,312	350,529	-0,195	-0,282
-737,298	-200,000	0,027	0,247
-736,283	208,271	-0,201	-0,229
-735,269	518,759	0,149	0,254
-734,254	56,276	-0,215	-0,152
-733,239	149,826	-0,193	0,190
-732,225	800,000	-0,063	-0,155
-731,210	-200,000	0,022	0,171
-730,196	-200,000	0,004	0,055
-729,181	46,605	-0,057	0,038
-728,167	491,311	0,041	-0,069
-727,152	800,000	-0,039	0,104
-726,137	-200,000	0,012	0,172
-725,123	93,520	0,019	-0,015
-724,108	-118,270	-0,097	-0,012
-723,094	602,090	-0,107	0,194
-722,079	-111,395	-0,120	-0,018
-721,064	-73,263	-0,141	-0,037
-720,050	411,527	-0,021	0,033
-719,035	-200,000	0,010	-0,069
-718,021	45,402	-0,060	-0,040
-717,006	800,000	-0,004	0,008
-715,991	123,155	-0,090	-0,082
-714,977	-159,438	-0,076	0,003
-713,962	108,524	-0,031	0,027
-712,948	-41,652	-0,110	-0,041
-711,933	800,000	0,036	0,116
-710,918	215,508	0,036	-0,041
-709,904	170,354	0,065	-0,067
-708,889	800,000	-0,037	-0,091
-707,875	800,000	-0,067	-0,170
-706,860	800,000	0,037	0,099
-705,845	-69,675	0,057	-0,016
-704,831	170,720	-0,051	-0,053
-703,816	-57,644	0,101	-0,032
-702,802	-100,845	-0,115	0,020
-701,787	-78,743	-0,106	-0,026
-700,772	44,052	0,023	0,016
-699,758	-168,770	0,067	0,002
-698,743	461,348	0,042	-0,067
-697,729	-200,000	0,004	0,054
-696,714	193,182	0,068	0,075
-695,699	79,675	-0,075	-0,058
-694,685	-200,000	0,005	-0,149
-693,670	631,901	0,029	-0,054
-692,656	-200,000	0,001	0,094
-691,641	-160,330	0,083	0,003
-690,627	800,000	-0,034	0,090
-689,612	-73,969	0,114	-0,030
-688,597	-172,481	-0,144	0,003
-687,583	17,608	-0,115	-0,066
-686,568	585,356	-0,065	-0,117
-685,554	800,000	0,018	0,042
-684,539	61,574	-0,068	-0,049
-683,524	-98,488	0,071	-0,013
-682,510	-200,000	-0,014	0,053
-681,495	198,089	0,072	-0,080
-680,481	-200,000	0,034	-0,167
-679,466	800,000	-0,080	-0,197
-678,451	-200,000	-0,026	-0,192
-677,437	-128,399	-0,018	-0,002
-676,422	-17,368	-0,050	-0,023
-675,408	76,837	-0,113	0,087
-674,393	301,669	0,018	0,024
-673,378	141,539	-0,113	-0,109
-672,364	-200,000	-0,001	-0,163
-671,349	-3,100	-0,081	-0,041
-670,335	1,630	-0,012	-0,006
-669,320	800,000	0,007	0,016
-668,305	-10,477	0,058	-0,028
-667,291	166,933	0,059	-0,061
-666,276	800,000	-0,004	0,009
-665,262	-200,000	0,020	-0,118
-664,247	-62,012	-0,190	-0,057
-663,232	158,257	0,073	-0,073
-662,218	-200,000	-0,003	0,118
-661,203	242,471	-0,029	0,036
-660,189	381,362	-0,032	0,048
-659,174	391,109	-0,022	0,032
-658,159	800,000	0,065	-0,139
-657,145	-147,328	-0,092	0,006
-656,130	-200,000	-0,010	-0,123
-655,116	800,000	-0,071	-0,161
-654,101	262,786	-0,047	0,059
-653,086	74,149	0,054	-0,041
-652,072	188,222	-0,090	-0,098
-651,057	-200,000	0,010	-0,038
-650,043	-200,000	0,003	0,020
-649,028	-95,846	-0,060	-0,012
-648,014	22,621	0,042	0,025
-646,999	308,861	-0,051	0,069
-645,984	4,605	0,134	0,071
-644,970	-9,489	-0,064	0,031
-643,955	-34,153	0,059	-0,023
-642,941	330,548	-0,054	0,075
-641,926	-107,239	-0,142	0,022
-640,911	223,696	0,070	-0,082
-639,897	800,000	0,045	0,140
-638,882	-126,614	0,080	0,008
-637,868	-200,000	0,000	-0,064
-636,853	390,373	0,052	-0,078
-635,838	157,272	-0,100	-0,101
-634,824	283,514	-0,067	0,087
-633,809	602,850	0,032	-0,059
-632,795	123,291	0,089	0,081
-631,780	800,000	0,059	0,159
-630,765	-21,674	-0,092	-0,040
-629,751	683,157	-0,022	-0,041
-628,736	-200,000	0,014	0,059
-627,722	261,216	0,073	-0,091
-626,707	-70,740	-0,038	0,010
-625,692	453,202	-0,114	0,183
-624,678	-200,000	0,012	0,054
-623,663	-65,818	-0,048	-0,014
-622,649	-96,781	-0,071	0,013
-621,634	-200,000	-0,040	-0,206
-620,619	61,063	-0,065	-0,046
-619,605	-19,646	0,119	-0,053
-618,590	134,592	0,017	-0,016
-617,576	-200,000	0,008	-0,028
-616,561	-200,000	-0,002	-0,075
-615,546	90,209	-0,078	0,063
-614,532	255,968	-0,036	0,045
-613,517	800,000	0,012	-0,033
-612,503	14,115	-0,099	0,056
-611,488	-200,000	0,028	0,134
-610,474	800,000	0,076	0,178
-609,459	-200,000	0,003	-0,074
-608,444	-200,000	0,005	0,024
-607,430	800,000	-0,036	-0,084
-606,415	800,000	-0,016	0,034
-605,401	-78,773	-0,045	0,011
-604,386	-0,979	-0,012	0,006
-603,371	-27,340	0,081	0,034
-602,357	-88,152	0,051	0,011
-601,342	800,000	0,035	0,109
-600,328	-200,000	0,024	0,145
-599,313	205,094	0,021	-0,024
-598,298	66,706	-0,077	-0,056
-597,284	800,000	0,039	0,110
-596,269	800,000	0,014	0,037
-595,255	56,997	-0,037	-0,026
-594,240	-58,824	0,072	0,022
-593,225	-17,356	0,045	0,020
-592,211	-175,881	-0,055	0,001
-591,196	180,479	-0,027	-0,029
-590,182	800,000	0,051	0,156
-589,167	800,000	0,022	0,050
-588,152	407,839	-0,047	-0,072
-587,138	-165,835	-0,156	0,005
-586,123	7,132	-0,044	-0,023
-585,109	361,761	0,035	0,051
-584,094	-12,517	0,182	0,085
-583,079	-126,893	0,156	0,016
-582,065	800,000	0,047	0,106
-581,050	341,083	0,142	-0,201
-580,036	-200,000	-0,024	-0,096
-579,021	-29,938	-0,043	-0,017
-578,006	53,146	-0,104	0,072
-576,992	-200,000	0,012	0,058
-575,977	36,205	0,072	-0,046
-574,963	522,174	0,045	0,076
-573,948	415,844	-0,074	-0,115
-572,934	170,036	-0,040	0,041
-571,919	-200,000	0,038	-0,134
-570,904	800,000	-0,021	-0,044
-569,890	-57,855	0,122	-0,038
-568,875	6,375	-0,029	0,015
-567,861	-117,111	0,096	0,012
-566,846	-200,000	0,007	0,125
-565,831	-200,000	0,006	0,045
-564,817	60,121	-0,013	0,009
-563,802	800,000	-0,038	0,100
-562,788	-55,146	0,040	-0,013
-561,773	800,000	-0,030	0,064
-560,758	-53,191	0,055	0,018
-559,744	-200,000	0,008	-0,070
-558,729	333,050	0,020	-0,028
-557,715	28,824	-0,165	-0,101
-556,700	303,980	-0,084	-0,113
-555,685	99,714	0,041	0,034
-554,671	18,558	-0,130	-0,075
-553,656	30,259	0,140	-0,086
-552,642	241,733	0,024	0,029
-551,627	466,123	-0,043	0,070
-550,612	332,562	-0,016	-0,023
-549,598	-200,000	0,014	-0,051
-548,583	233,609	-0,089	0,106
-547,569	96,667	-0,056	-0,047
-546,554	186,544	-0,062	0,067
-545,539	51,027	-0,058	0,039
-544,525	-90,191	0,188	0,039
-543,510	-113,227	-0,098	-0,014
-542,496	373,885	-0,043	0,063
-541,481	-102,424	-0,043	-0,007
-540,466	-200,000	0,006	-0,066
-539,452	-200,000	-0,024	0,094
-538,437	-200,000	-0,015	-0,081
-537,423	-13,951	-0,025	-0,012
-536,408	800,000	-0,044	0,134
-535,393	-8,308	-0,099	0,048
-534,379	800,000	-0,053	-0,131
-533,364	-67,088	-0,105	0,030
-532,350	-100,031	0,127	-0,023
-531,335	-40,193	0,168	0,063
-530,321	800,000	-0,034	0,089
-529,306	-200,000	0,028	-0,104
-528,291	544,878	-0,022	-0,039
-527,277	-6,664	0,127	-0,062
-526,262	164,356	-0,022	0,023
-525,248	-75,997	-0,044	-0,011
-524,233	437,095	0,039	0,062
-523,218	-52,405	-0,075	-0,025
-522,204	-27,615	0,074	-0,031
-521,189	354,290	-0,030	0,043
-520,175	-73,324	-0,099	0,026
-519,160	73,940	-0,016	0,012
-518,145	800,000	-0,019	-0,044
-517,131	103,931	0,043	0,036
-516,116	-38,903	0,060	0,023
-515,102	148,785	0,027	0,026
-514,087	-60,287	-0,207	0,063
-513,072	-132,040	0,063	-0,006
-512,058	79,092	-0,035	-0,027
-511,043	534,192	0,069	0,118
-510,029	142,059	0,128	-0,122
-509,014	1,818	0,071	-0,037
-507,999	-200,000	-0,006	-0,102
-506,985	15,580	-0,065	-0,037
-505,970	-172,176	-0,109	0,002
-504,956	-109,399	0,070	-0,011
-503,941	800,000	0,006	-0,018
-502,926	621,230	-0,006	0,012
-501,912	22,891	-0,058	-0,034
-500,897	-200,000	0,030	-0,142
-499,883	586,614	-0,063	-0,113
-498,868	642,437	-0,047	-0,087
-497,853	189,067	-0,114	-0,123
-496,839	44,851	0,097	-0,064
-495,824	-200,000	-0,013	-0,044
-494,810	226,738	-0,057	0,067
-493,795	-20,045	0,060	-0,026
-492,781	800,000	-0,039	0,095
-491,766	-159,793	-0,114	-0,004
-490,751	204,466	-0,030	0,033
-489,737	97,961	0,075	0,062
-488,722	84,533	0,057	-0,045
-487,708	161,343	-0,077	-0,077
-486,693	-34,204	0,127	0,050
-485,678	521,600	-0,033	0,055
-484,664	-200,000	0,012	-0,103
-483,649	97,758	0,004	0,003
-482,635	-150,958	-0,021	-0,001
-481,620	-151,505	-0,109	0,006
-480,605	800,000	-0,017	-0,052
-479,591	-200,000	-0,003	0,171
-478,576	412,007	-0,008	-0,013
-477,562	-89,196	0,093	0,020
-476,547	800,000	0,016	-0,040
-475,532	344,327	-0,053	0,075
-474,518	767,216	-0,015	0,030
-473,503	-104,674	0,106	-0,017
-472,489	461,561	-0,082	0,132
-471,474	336,362	0,030	0,042
-470,459	-200,000	0,008	0,045
-469,445	-200,000	0,012	-0,068
-468,430	800,000	-0,018	-0,047
-467,416	-200,000	0,010	0,066
-466,401	483,461	-0,056	-0,092
-465,386	225,013	0,085	-0,099
-464,372	109,292	0,107	0,092
-463,357	16,616	-0,065	-0,037
-462,343	-200,000	-0,010	-0,105
-461,328	800,000	-0,040	-0,086
-460,313	313,258	0,076	-0,103
-459,299	-200,000	-0,021	0,075
-458,284	-134,453	0,107	-0,009
-457,270	268,936	0,042	-0,053
-456,255	-60,480	-0,137	0,042
-455,241	-200,000	0,030	-0,096
-454,226	800,000	0,014	-0,032
-453,211	-200,000	-0,004	0,042
-452,197	-92,764	0,241	0,048
-451,182	-200,000	0,024	0,081
-450,168	185,472	0,126	0,135
-449,153	4,620	-0,038	0,020
-448,138	-200,000	-0,028	-0,176
-447,124	697,975	-0,067	-0,127
-446,109	-200,000	-0,001	0,143
-445,095	11,173	-0,071	-0,039
-444,080	2,965	0,106	0,055
-443,065	187,235	-0,038	0,040
-442,051	-200,000	-0,014	0,148
-441,036	-4,629	0,066	-0,033
-440,022	88,374	-0,130	-0,103
-439,007	800,000	-0,038	0,102
-437,992	192,837	-0,037	-0,041
-436,978	10,064	0,101	0,055
-435,963	271,716	-0,060	0,076
-434,949	800,000	-0,016	0,039
-433,934	109,897	-0,125	-0,108
-432,919	52,279	-0,062	-0,042
-431,905	800,000	0,028	-0,081
-430,890	166,181	-0,120	-0,123
-429,876	-200,000	-0,001	0,046
-428,861	-200,000	-0,004	-0,058
-427,846	142,051	-0,117	0,111
-426,832	22,305	0,088	0,052
-425,817	244,488	-0,037	-0,044
-424,803	34,351	0,123	0,077
-423,788	-72,903	-0,082	-0,022
-422,773	-99,142	0,136	0,025
-421,759	-20,348	0,076	-0,034
-420,744	-88,624	0,103	0,022
-419,730	275,687	0,085	-0,109
-418,715	12,075	-0,062	-0,034
-417,701	514,100	-0,029	-0,049
-416,686	-200,000	-0,006	-0,033
-415,671	-93,716	-0,038	-0,007
-414,657	-114,682	0,061	0,008
-413,642	54,874	-0,035	0,024
-412,628	90,495	-0,072	0,058
-411,613	800,000	0,053	-0,160
-410,598	-136,648	-0,132	-0,011
-409,584	800,000	0,061	0,158
-408,569	-76,937	-0,143	0,036
-407,555	75,155	0,128	0,096
-406,540	-69,296	-0,144	0,040
-405,525	214,792	-0,058	-0,066
-404,511	-102,752	0,036	0,006
-403,496	-23,825	-0,111	-0,047
-402,482	-200,000	0,004	0,054
-401,467	800,000	-0,051	0,111
-400,452	211,923	0,050	-0,057
-399,438	17,196	-0,098	0,056
-398,423	230,796	0,072	-0,085
-397,409	70,668	-0,040	-0,030
-396,394	-200,000	0,008	-0,039
-395,379	800,000	-0,045	-0,101
-394,365	-28,174	0,060	-0,025
-393,350	-3,563	-0,096	0,048
-392,336	-71,434	0,136	-0,036
-391,321	800,000	-0,014	0,040
-390,306	-4,411	0,073	-0,036
-389,292	800,000	0,029	-0,061
-388,277	-200,000	-0,001	-0,063
-387,263	20,815	0,035	-0,020
-386,248	-27,561	0,133	0,055
-385,233	427,509	-0,015	-0,024
-384,219	-200,000	-0,003	0,113
-383,204	165,095	-0,041	-0,041
-382,190	183,051	-0,024	0,026
-381,175	-80,023	-0,018	0,004
-380,160	-200,000	-0,000	0,123
-379,146	-9,053	0,081	0,039
-378,131	-95,982	0,027	0,005
-377,117	700,808	-0,024	0,045
-376,102	-200,000	0,002	-0,048
-375,088	-7,683	-0,088	0,042
-374,073	-200,000	-0,018	-0,144
-373,058	800,000	0,022	-0,046
-372,044	-131,518	0,052	-0,005
-371,029	-24,088	0,129	0,055
-370,015	338,524	-0,068	0,096
-369,000	206,051	-0,113	-0,126
-367,985	129,952	-0,166	-0,153
-366,971	449,246	0,075	-0,119
-365,956	-200,000	0,002	0,016
-364,942	39,217	0,131	-0,084
-363,927	0,951	-0,092	-0,047
-362,912	-89,732	0,086	0,018
-361,898	-39,617	-0,112	-0,042
-360,883	-124,543	0,107	-0,012
-359,869	-6,928	-0,060	0,029
-358,854	-118,841	-0,050	0,006
-357,839	148,968	0,109	0,106
-356,825	67,559	0,082	0,060
-355,810	-200,000	-0,030	0,105
-354,796	15,803	0,052	-0,029
-353,781	288,690	-0,014	0,018
-352,766	800,000	-0,055	0,110
-351,752	624,616	0,039	0,071
-350,737	800,000	0,052	-0,105
-349,723	-136,458	0,089	0,007
-348,708	-102,178	-0,077	0,013
-347,693	200,217	-0,068	-0,075
-346,679	586,634	-0,089	-0,157
-345,664	-29,350	-0,203	0,083
-344,650	-200,000	0,006	-0,089
-343,635	248,558	-0,039	-0,047
-342,620	-200,000	0,028	0,128
-341,606	-200,000	0,004	0,039
-340,591	300,601	-0,027	-0,035
-339,577	6,931	-0,074	-0,039
-338,562	265,603	0,040	0,050
-337,548	77,139	0,040	-0,030
-336,533	125,149	0,040	0,036
-335,518	-200,000	0,004	-0,083
-334,504	155,760	-0,057	-0,056
-333,489	-31,493	0,148	-0,059
-332,475	479,059	-0,030	-0,049
-331,460	-173,119	-0,070	0,002
-330,445	3,123	-0,150	0,078
-329,431	-200,000	-0,001	-0,079
-328,416	-126,838	0,082	0,008
-327,402	-200,000	-0,010	-0,050
-326,387	800,000	-0,068	-0,173
-325,372	208,580	-0,075	-0,084
-324,358	800,000	-0,063	-0,129
-323,343	-200,000	-0,018	-0,069
-322,329	32,270	0,065	0,040
-321,314	-113,331	-0,062	0,009
-320,299	75,249	0,029	0,022
-319,285	18,947	0,072	0,041
-318,270	204,174	-0,060	-0,067
-317,256	-3,627	0,081	-0,040
-316,241	205,842	-0,019	-0,021
-315,226	-200,000	0,006	-0,046
-314,212	-200,000	0,001	-0,033
-313,197	334,944	0,026	0,037
-312,183	217,444	-0,034	-0,039
-311,168	39,324	-0,178	0,113
-310,153	-200,000	0,037	-0,201
-309,139	31,195	0,136	-0,083
-308,124	316,307	0,033	0,044
-307,110	64,948	0,147	0,106
-306,095	-200,000	-0,048	0,200
-305,080	67,599	0,051	-0,037
-304,066	356,151	-0,041	-0,059
-303,051	-200,000	0,015	-0,053
-302,037	-200,000	0,027	-0,104
-301,022	44,134	-0,026	-0,017
-300,008	800,000	0,074	0,195
-298,993	661,710	-0,016	0,029
-297,978	-126,571	0,149	-0,016
-296,964	391,149	-0,101	0,150
-295,949	-200,000	0,000	0,040
-294,935	-36,509	0,076	0,029
-293,920	572,363	0,055	-0,096
-292,905	-111,665	-0,105	-0,015
-291,891	89,239	-0,084	0,067
-290,876	-28,434	-0,111	0,046
-289,862	157,736	0,037	0,036
-288,847	-17,862	-0,044	0,020
-287,832	-131,263	-0,154	-0,014
-286,818	80,408	0,023	-0,018
-285,803	-200,000	0,011	0,056
-284,789	800,000	-0,048	-0,122
-283,774	-200,000	-0,021	-0,156
-282,759	87,313	0,014	-0,011
-281,745	-200,000	0,009	0,037
-280,730	37,724	-0,126	-0,080
-279,716	277,030	-0,027	-0,034
-278,701	-200,000	-0,007	-0,035
-277,686	800,000	-0,012	-0,025
-276,672	243,731	0,078	0,093
-275,657	800,000	-0,023	0,068
-274,643	800,000	-0,009	0,022
-273,628	72,453	-0,016	0,012
-272,613	-55,321	-0,050	0,016
-271,599	415,179	0,072	0,110
-270,584	465,788	-0,015	0,024
-269,570	-200,000	-0,006	0,100
-268,555	17,391	0,105	0,059
-267,540	-132,879	-0,101	0,009
-266,526	73,840	0,063	-0,047
-265,511	-108,698	0,121	-0,018
-264,497	-200,000	0,016	0,079
-263,482	157,649	-0,035	0,035
-262,467	-200,000	-0,011	0,080
-261,453	-200,000	-0,006	0,035
-260,438	-200,000	0,026	0,083
-259,424	26,639	0,050	-0,030
-258,409	99,181	-0,014	-0,011
-257,395	800,000	-0,057	-0,117
-256,380	-200,000	-0,017	-0,145
-255,365	43,272	0,093	0,061
-254,351	-200,000	-0,020	0,063
-253,336	800,000	0,047	0,124
-252,322	-82,651	-0,038	-0,009
-251,307	42,671	-0,030	-0,020
-250,292	-74,991	0,142	-0,036
-249,278	210,680	0,036	-0,041
-248,263	-200,000	0,007	0,037
-247,249	-114,899	0,139	0,019
-246,234	-144,221	-0,117	0,008
-245,219	51,820	-0,038	0,026
-244,205	800,000	0,034	-0,089
-243,190	118,716	0,106	-0,093
-242,176	-200,000	-0,023	-0,089
-241,161	417,305	-0,054	-0,082
-240,146	330,885	0,038	0,052
-239,132	-84,054	-0,142	0,032
-238,117	-3,802	-0,045	0,022
-237,103	800,000	-0,035	-0,082
-236,088	-122,481	-0,019	0,002
-235,073	-42,740	-0,085	0,031
-234,059	800,000	-0,004	0,009
-233,044	-200,000	0,005	0,062
-232,030	-48,839	0,061	-0,021
-231,015	800,000	-0,040	0,107
-230,000	60,046	0,077	0,055
-228,986	2,684	-0,012	-0,006
-227,971	-200,000	0,013	-0,051
-226,957	800,000	-0,028	0,075
-225,942	-33,320	-0,061	0,024
-224,927	319,633	-0,012	-0,016
-223,913	800,000	0,029	-0,070
-222,898	-124,669	-0,102	0,011
-221,884	-134,503	-0,084	0,007
-220,869	800,000	0,014	0,031
-219,855	-200,000	0,016	0,058
-218,840	-71,740	0,118	0,031
-217,825	626,036	0,073	0,131
-216,811	307,112	-0,024	-0,032
-215,796	-200,000	-0,037	-0,152
-214,782	46,772	0,079	-0,052
-213,767	-69,234	0,097	0,026
-212,752	-200,000	-0,013	0,094
-211,738	291,119	0,051	-0,067
-210,723	-108,165	0,096	0,015
-209,709	-200,000	-0,002	-0,008
-208,694	-43,294	-0,073	0,026
-207,679	-200,000	0,019	-0,165
-206,665	-87,507	0,080	-0,017
-205,650	412,176	0,045	0,068
-204,636	-200,000	-0,011	0,049
-203,621	18,589	-0,040	0,023
-202,606	-200,000	0,002	0,095
-201,592	355,269	0,067	-0,095
-200,577	118,235	0,022	0,020
-199,563	-200,000	0,030	0,100
-198,548	-8,049	0,108	-0,051
-197,533	673,178	-0,099	0,184
-196,519	17,473	0,088	0,050
-195,504	-87,973	-0,129	0,027
-194,490	-200,000	0,038	-0,175
-193,475	-22,710	0,102	-0,044
-192,460	-102,938	0,179	-0,030
-191,446	71,700	0,050	0,037
-190,431	800,000	0,026	0,077
-189,417	-144,462	0,025	0,002
-188,402	13,909	-0,035	-0,019
-187,387	292,569	0,039	0,051
-186,373	-107,983	-0,113	0,017
-185,358	-14,925	0,045	0,020
-184,344	48,399	0,073	-0,049
-183,329	497,853	-0,037	-0,061
-182,315	-36,532	0,062	0,024
-181,300	-47,189	-0,030	0,010
-180,285	123,008	-0,118	-0,105
-179,271	0,041	0,084	0,042
-178,256	-41,655	0,025	0,009
-177,242	-200,000	0,026	-0,112
-176,227	37,960	0,062	0,039
-175,212	800,000	0,057	0,138
-174,198	164,863	-0,056	0,056
-173,183	-200,000	-0,016	-0,079
-172,169	357,643	-0,046	-0,065
-171,154	329,653	-0,036	-0,049
-170,139	7,729	-0,116	-0,061
-169,125	-200,000	-0,008	-0,088
-168,110	800,000	-0,004	-0,008
-167,096	-200,000	-0,007	-0,069
-166,081	-4,646	-0,044	0,022
-165,066	99,051	0,039	0,032
-164,052	-145,546	-0,162	-0,010
-163,037	138,449	0,043	0,040
-162,023	7,214	-0,073	-0,039
-161,008	-143,783	0,080	0,005
-159,993	191,097	-0,012	-0,013
-158,979	21,488	-0,057	-0,033
-157,964	800,000	0,017	0,044
-156,950	-32,385	-0,115	0,045
-155,935	72,113	0,125	-0,092
-154,920	292,524	0,134	0,173
-153,906	86,518	0,043	0,034
-152,891	-74,152	0,150	0,038
-151,877	59,728	0,046	-0,032
-150,862	100,055	0,059	0,048
-149,847	67,785	-0,030	0,022
-148,833	151,936	-0,044	0,043
-147,818	85,395	0,090	0,070
-146,804	-200,000	0,001	0,170
-145,789	-116,306	-0,104	-0,014
-144,775	60,321	0,087	-0,061
-143,760	800,000	0,033	-0,073
-142,745	-13,723	-0,197	-0,090
-141,731	9,369	0,100	-0,054
-140,716	171,810	0,052	0,053
-139,702	-163,806	0,084	-0,003
-138,687	800,000	-0,044	0,127
-137,672	-44,949	0,066	0,023
-136,658	800,000	-0,055	-0,132
-135,643	-200,000	0,008	-0,091
-134,629	761,988	0,136	-0,263
-133,614	0,956	0,077	-0,039
-132,599	-200,000	0,013	0,155
-131,585	-200,000	0,003	0,221
-130,570	800,000	-0,026	0,072
-129,556	-98,061	-0,103	-0,019
-128,541	-81,850	0,117	0,027
-127,526	800,000	-0,012	0,027
-126,512	-91,608	-0,070	0,014
-125,497	-182,792	0,023	0,000
-124,483	455,673	0,122	0,192
-123,468	-150,973	-0,183	-0,010
-122,453	453,584	0,032	-0,051
-121,439	-200,000	0,000	-0,115
-120,424	800,000	0,013	-0,033
-119,410	800,000	0,029	0,081
-118,395	-200,000	-0,010	0,042
-117,380	382,674	0,111	-0,162
-116,366	-200,000	-0,003	0,063
-115,351	119,850	-0,076	-0,067
-114,337	-200,000	-0,019	-0,074
-113,322	582,724	-0,037	-0,064
-112,307	-97,229	0,028	-0,005
-111,293	92,484	0,076	0,061
-110,278	800,000	0,045	0,120
-109,264	-64,062	-0,096	-0,028
-108,249	-200,000	-0,006	-0,156
-107,234	-200,000	-0,041	-0,149
-106,220	45,037	0,044	0,029
-105,205	-200,000	-0,006	-0,091
-104,191	-179,707	0,036	-0,001
-103,176	119,938	-0,076	-0,067
-102,162	-200,000	0,007	0,110
-101,147	800,000	0,024	-0,055
-100,132	-200,000	-0,031	-0,130
-99,118	-200,000	0,014	-0,154
-98,103	497,812	0,065	-0,107
-97,089	-200,000	0,017	0,084
-96,074	-200,000	-0,015	0,221
-95,059	-200,000	-0,017	0,141
-94,045	672,656	-0,080	0,147
-93,030	-77,888	0,139	-0,034
-92,016	800,000	0,031	0,063
-91,001	-200,000	-0,011	-0,069
-89,986	88,102	-0,048	0,037
-88,972	195,358	0,053	-0,057
-87,957	-81,120	-0,091	-0,021
-86,943	66,670	-0,067	0,049
-85,928	-1,621	-0,087	0,044
-84,913	21,911	-0,096	-0,056
-83,899	321,242	-0,073	-0,098
-82,884	8,655	-0,037	0,020
-81,870	-55,429	-0,078	0,025
-80,855	-88,381	0,027	0,006
-79,840	43,227	-0,069	-0,045
-78,826	576,900	-0,030	-0,052
-77,811	800,000	-0,034	-0,083
-76,797	598,871	0,077	-0,135
-75,782	-74,017	0,160	0,041
-74,767	-200,000	0,046	0,169
-73,753	800,000	0,020	-0,041
-72,738	712,654	-0,072	0,136
-71,724	-11,793	-0,072	-0,034
-70,709	315,888	0,068	0,091
-69,694	-148,765	0,034	-0,002
-68,680	57,903	0,066	-0,046
-67,665	-200,000	0,021	0,104
-66,651	800,000	0,035	0,089
-65,636	40,435	-0,050	0,032
-64,622	316,603	-0,063	0,085
-63,607	-39,492	0,018	-0,007
-62,592	250,757	0,044	-0,053
-61,578	800,000	0,047	0,101
-60,563	344,888	0,051	-0,071
-59,549	104,822	-0,104	0,087
-58,534	-33,743	-1,717	-0,667
-57,519	432,375	-1,242	-1,914
-56,505	-200,000	-0,598	-4,521
-55,490	196,570	1,108	1,197
-54,476	800,000	4,926	10,935
-53,461	-200,000	19,099	319,289
-52,446	-200,000	739,827	2335,364
-51,432	575,107	1654,935	2872,048
-50,417	78,525	1671,054	1263,266
-49,403	21,392	1543,896	886,191
-48,388	15,328	1466,076	812,041
-47,373	17,929	1456,401	819,216
-46,359	16,701	1446,401	807,672
-45,344	13,582	1441,537	789,984
-44,330	13,412	1439,988	788,289
-43,315	13,462	1438,125	787,477
-42,300	13,476	1436,334	786,532
-41,286	13,512	1435,089	785,993
-40,271	13,453	1433,893	785,023
-39,257	13,450	1432,365	784,143
-38,242	13,501	1431,259	783,749
-37,227	13,519	1430,007	783,118
-36,213	13,503	1428,817	782,360
-35,198	13,496	1427,634	781,649
-34,184	13,586	1426,725	781,545
-33,169	13,443	1425,532	780,184
-32,154	13,532	1424,246	779,866
-31,140	13,511	1422,906	779,007
-30,125	13,563	1421,684	778,552
-29,111	13,529	1420,832	777,893
-28,096	13,508	1419,683	777,134
-27,082	13,445	1418,558	776,192
-26,067	13,422	1417,444	775,442
-25,052	13,414	1416,352	774,777
-24,038	13,463	1415,401	774,457
-23,023	13,419	1414,322	773,628
-22,009	13,408	1413,425	773,055
-20,994	13,394	1412,421	772,410
-19,979	13,435	1411,557	772,100
-18,965	13,385	1410,572	771,293
-17,950	13,373	1409,810	770,790
-16,936	13,419	1408,691	770,364
-15,921	13,367	1407,566	769,476
-14,906	13,337	1406,845	768,910
-13,892	13,393	1405,636	768,481
-12,877	13,333	1405,145	767,898
-11,863	13,350	1404,234	767,451
-10,848	13,361	1403,154	766,879
-9,833	13,307	1402,428	766,201
-8,819	13,301	1401,487	765,632
-7,804	13,276	1400,610	765,003
-6,790	13,246	1399,518	764,238
-5,775	13,278	1398,257	763,666
-4,760	13,259	1397,593	763,188
-3,746	13,231	1396,740	762,560
-2,731	13,245	1395,841	762,104
-1,717	13,210	1394,971	761,439
-0,702	13,238	1393,087	760,510
0,313	17,123	1310,064	733,172
1,327	33,337	703,995	431,475
2,342	51,335	123,389	82,768
3,356	3,363	16,584	8,518
4,371	14,213	3,036	1,669
5,386	-62,664	0,648	0,189
6,400	-200,000	0,025	0,363
7,415	66,363	-0,273	-0,196
8,429	68,755	-0,304	-0,220
9,444	-86,322	-0,440	-0,095
10,459	-122,941	-0,346	0,039
11,473	-51,506	-0,241	-0,079
12,488	-67,310	-0,270	-0,075
13,502	53,439	-0,227	-0,154
14,517	175,745	-0,306	-0,314
15,531	56,024	-0,448	-0,307
16,546	69,655	-0,312	-0,227
17,561	408,165	-0,255	-0,382
18,575	4,344	-0,290	-0,150
19,590	253,706	-0,240	-0,290
20,604	-115,572	-0,282	-0,037
21,619	135,782	-0,467	-0,430
22,634	114,897	-0,393	-0,338
23,648	436,558	-0,253	-0,391
24,663	120,429	-0,447	-0,392
25,677	74,020	-0,314	-0,233
26,692	-36,395	-0,299	-0,113
27,707	63,046	-0,243	-0,172
28,721	20,594	-0,433	-0,246
29,736	-0,434	-0,385	-0,192
30,750	273,803	-0,317	-0,396
31,765	214,159	-0,322	-0,361
32,780	50,539	-0,312	-0,208
33,794	-74,423	-0,399	-0,101
34,809	41,130	-0,337	-0,214
35,823	87,576	-0,391	-0,305
36,838	242,616	-0,251	-0,297
37,853	90,012	-0,428	-0,337
38,867	129,371	-0,510	-0,460
39,882	63,085	-0,325	-0,229
40,896	189,505	-0,248	-0,262
41,911	41,098	-0,367	-0,233
42,926	188,872	-0,236	-0,249
43,940	1,396	-0,399	-0,202
44,955	217,002	-0,322	-0,362
45,969	-40,783	-0,458	-0,166
46,984	208,406	-0,169	-0,187
47,999	9,039	-0,263	-0,139
49,013	142,864	-0,303	-0,284
50,028	113,111	-0,309	-0,264
51,042	89,546	-0,349	-0,274
52,057	168,019	-0,277	-0,278
53,071	149,394	-0,352	-0,336
54,086	42,965	-0,283	-0,182
55,101	224,638	-0,281	-0,320
56,115	-21,627	-0,291	-0,124
57,130	35,186	-0,334	-0,206
58,144	-23,322	-0,372	-0,157
59,159	183,820	-0,410	-0,427
60,174	46,302	-0,399	-0,260
61,188	35,619	-0,384	-0,237
62,203	120,432	-0,319	-0,278
63,217	225,921	-0,255	-0,291
64,232	47,236	-0,297	-0,194
65,247	-21,176	-0,413	-0,177
66,261	27,136	-0,374	-0,220
67,276	212,103	-0,228	-0,253
68,290	55,665	-0,431	-0,293
69,305	172,266	-0,231	-0,234
70,320	42,511	-0,177	-0,113
71,334	57,677	-0,288	-0,198
72,349	-3,800	-0,388	-0,189
73,363	5,639	-0,372	-0,193
74,378	0,723	-0,447	-0,224
75,393	206,078	-0,306	-0,335
76,407	163,761	-0,289	-0,286
77,422	102,181	-0,185	-0,152
78,436	-96,436	-0,372	-0,068
79,451	14,408	-0,324	-0,177
80,466	241,791	-0,272	-0,320
81,480	63,833	-0,281	-0,198
82,495	46,263	-0,280	-0,182
83,509	96,675	-0,178	-0,143
84,524	547,431	-0,212	-0,357
85,539	23,843	-0,274	-0,158
86,553	69,436	-0,266	-0,192
87,568	-9,102	-0,304	-0,142
88,582	28,584	-0,402	-0,239
89,597	-68,758	-0,291	-0,079
90,611	17,987	-0,277	-0,155
91,626	65,153	-0,203	-0,144
92,641	90,290	-0,262	-0,206
93,655	40,033	-0,416	-0,262
94,670	86,975	-0,288	-0,223
95,684	186,192	-0,229	-0,240
96,699	-39,042	-0,313	-0,115
97,714	596,496	-0,205	-0,358
98,728	-179,916	-0,376	0,006
99,743	95,740	-0,241	-0,193
100,757	5,442	-0,345	-0,178
101,772	0,615	-0,422	-0,211
102,787	137,372	-0,341	-0,313
103,801	188,619	-0,364	-0,382
104,816	106,568	-0,292	-0,243
105,830	462,829	-0,114	-0,180
106,845	-5,648	-0,273	-0,131
107,860	67,228	-0,256	-0,183
108,874	-17,093	-0,364	-0,161
109,889	312,476	-0,233	-0,307
110,903	47,197	-0,289	-0,188
111,918	214,956	-0,151	-0,168
112,933	-59,074	-0,170	-0,051
113,947	46,285	-0,129	-0,084
114,962	-79,554	-0,312	-0,073
115,976	123,418	-0,120	-0,105
116,991	339,333	-0,227	-0,311
118,006	66,075	-0,308	-0,219
119,020	124,839	-0,262	-0,231
120,035	48,676	-0,180	-0,118
121,049	197,357	-0,179	-0,191
122,064	339,936	-0,167	-0,229
123,079	96,560	-0,186	-0,149
124,093	96,833	-0,302	-0,243
125,108	42,396	-0,342	-0,217
126,122	83,499	-0,331	-0,253
127,137	338,881	-0,111	-0,152
128,151	55,798	-0,166	-0,113
129,166	-192,084	-0,182	-0,001
130,181	213,657	-0,245	-0,272
131,195	55,147	-0,260	-0,176
132,210	589,899	-0,136	-0,236
133,224	185,349	-0,223	-0,232
134,239	112,154	-0,212	-0,180
135,254	134,542	-0,219	-0,199
136,268	55,646	-0,257	-0,174
137,283	1,626	-0,266	-0,134
138,297	42,599	-0,323	-0,205
139,312	67,666	-0,423	-0,302
140,327	41,368	-0,277	-0,175
141,341	117,166	-0,320	-0,275
142,356	382,140	-0,109	-0,157
143,370	142,908	-0,181	-0,169
144,385	-13,950	-0,442	-0,199
145,400	204,910	-0,195	-0,212
146,414	-42,394	-0,356	-0,126
147,429	-90,983	-0,338	-0,067
148,443	213,720	-0,213	-0,236
149,458	292,640	-0,135	-0,172
150,473	-21,995	-0,198	-0,084
151,487	-93,487	-0,318	-0,061
152,502	31,958	-0,232	-0,139
153,516	-187,098	-0,289	0,003
154,531	151,701	-0,228	-0,217
155,546	135,103	-0,168	-0,153
156,560	96,425	-0,195	-0,156
157,575	-75,027	-0,271	-0,067
158,589	100,170	-0,266	-0,215
159,604	215,243	-0,233	-0,258
160,619	352,976	-0,203	-0,281
161,633	101,951	-0,237	-0,193
162,648	275,426	-0,165	-0,205
163,662	-51,275	-0,214	-0,069
164,677	181,715	-0,209	-0,215
165,692	1,659	-0,160	-0,080
166,706	69,729	-0,159	-0,114
167,721	-194,523	-0,160	0,001
168,735	49,757	-0,335	-0,220
169,750	-66,635	-0,349	-0,096
170,764	43,291	-0,259	-0,164
171,779	247,730	-0,107	-0,126
172,794	160,150	-0,226	-0,220
173,808	-11,775	-0,299	-0,136
174,823	308,646	-0,228	-0,297
175,837	378,131	-0,275	-0,393
176,852	82,452	-0,223	-0,169
177,867	274,137	-0,238	-0,294
178,881	-127,209	-0,179	-0,018
179,896	-0,401	-0,219	-0,108
180,910	-11,191	-0,342	-0,156
181,925	-125,615	-0,208	-0,022
182,940	294,731	-0,161	-0,206
183,954	-176,684	-0,261	-0,005
184,969	800,000	-0,112	-0,252
185,983	-109,943	-0,177	-0,025
186,998	-45,149	-0,233	-0,080
188,013	-100,158	-0,279	-0,048
189,027	405,359	-0,118	-0,173
190,042	80,058	-0,277	-0,207
191,056	437,566	-0,134	-0,204
192,071	131,392	-0,236	-0,212
193,086	222,176	-0,191	-0,214
194,100	-54,475	-0,277	-0,087
195,115	-8,979	-0,202	-0,094
196,129	238,283	-0,181	-0,210
197,144	284,250	-0,120	-0,151
198,159	-125,779	-0,230	-0,024
199,173	284,892	-0,148	-0,185
200,188	149,478	-0,158	-0,149
201,202	-95,094	-0,237	-0,044
202,217	35,183	-0,281	-0,171
203,232	-55,969	-0,174	0,054
204,246	258,616	-0,189	-0,227
205,261	239,425	-0,169	-0,196
206,275	113,838	-0,204	-0,173
207,290	66,090	-0,172	-0,121
208,304	-97,218	-0,100	0,018
209,319	-139,163	-0,185	-0,014
210,334	-56,643	-0,270	-0,083
211,348	-60,760	-0,325	-0,095
212,363	146,837	-0,214	-0,200
213,377	204,888	-0,135	-0,145
214,392	-200,000	-0,032	-0,120
215,407	800,000	-0,108	-0,251
216,421	-27,734	-0,220	-0,088
217,436	-72,862	-0,200	0,051
218,450	57,713	-0,239	-0,162
219,465	102,936	-0,350	-0,285
220,480	-48,562	-0,171	-0,057
221,494	35,009	-0,231	-0,140
222,509	464,800	-0,154	-0,239
223,523	209,548	-0,144	-0,157
224,538	478,640	-0,242	-0,382
225,553	6,451	-0,181	-0,093
226,567	-62,494	-0,209	-0,060
227,582	417,101	-0,104	-0,154
228,596	578,608	-0,109	-0,185
229,611	312,883	-0,155	-0,203
230,626	-194,099	-0,136	0,001
231,640	211,230	-0,148	-0,162
232,655	69,802	-0,243	-0,174
233,669	88,174	-0,225	-0,173
234,684	-161,613	-0,245	-0,009
235,699	41,311	-0,191	-0,119
236,713	800,000	-0,121	-0,246
237,728	726,705	-0,134	-0,248
238,742	800,000	-0,039	-0,119
239,757	33,795	-0,194	-0,117
240,772	-51,465	-0,141	-0,045
241,786	143,806	-0,267	-0,247
242,801	-105,386	-0,162	-0,025
243,815	130,763	-0,156	-0,139
244,830	800,000	-0,044	-0,113
245,844	-71,187	-0,147	-0,038
246,859	-150,658	-0,139	-0,007
247,874	155,852	-0,168	-0,161
248,888	273,653	-0,199	-0,244
249,903	79,120	-0,327	-0,242
250,917	343,258	-0,125	-0,170
251,932	-60,579	-0,168	-0,049
252,947	-61,475	-0,258	-0,075
253,961	81,366	-0,267	-0,199
254,976	-200,000	-0,053	-0,194
255,990	800,000	-0,097	-0,253
257,005	243,104	-0,193	-0,224
258,020	800,000	-0,067	-0,133
259,034	81,400	-0,119	-0,089
260,049	-21,857	-0,147	-0,062
261,063	-13,812	-0,212	-0,094
262,078	50,368	-0,223	-0,146
263,093	96,752	-0,198	-0,157
264,107	-99,493	-0,130	0,022
265,122	23,459	-0,131	-0,074
266,136	-82,876	-0,227	-0,050
267,151	-9,756	-0,109	-0,050
268,166	155,425	-0,199	-0,189
269,180	44,976	-0,222	-0,141
270,195	360,547	-0,147	-0,204
271,209	-3,576	-0,219	-0,105
272,224	55,102	-0,186	-0,124
273,239	-105,866	-0,206	0,032
274,253	800,000	-0,091	-0,194
275,268	-69,051	-0,134	-0,035
276,282	135,669	-0,181	-0,163
277,297	10,627	-0,335	-0,176
278,312	383,463	-0,162	-0,231
279,326	215,008	-0,110	-0,121
280,341	55,170	-0,106	-0,070
281,355	716,782	-0,067	-0,123
282,370	800,000	-0,082	-0,161
283,384	797,905	-0,163	-0,312
284,399	212,051	-0,115	-0,125
285,414	167,023	-0,234	-0,230
286,428	524,599	-0,126	-0,206
287,443	-107,514	-0,162	-0,024
288,457	531,437	-0,088	-0,143
289,472	-90,782	-0,186	0,037
290,487	7,780	-0,245	-0,126
291,501	546,545	-0,179	-0,297
292,516	-148,279	-0,167	-0,009
293,530	47,295	-0,142	-0,091
294,545	-157,158	-0,119	-0,005
295,560	-48,007	-0,122	-0,041
296,574	94,475	-0,143	-0,112
297,589	-134,710	-0,208	-0,017
298,603	297,244	-0,171	-0,217
299,618	19,797	-0,179	-0,099
300,633	68,827	-0,110	-0,078
301,647	2,267	-0,111	0,055
302,662	-200,000	-0,055	-0,188
303,676	-200,000	-0,007	-0,113
304,691	94,921	-0,113	-0,089
305,706	76,472	-0,195	-0,142
306,720	-7,228	-0,275	-0,128
307,735	-53,683	-0,173	-0,054
308,749	800,000	-0,073	-0,179
309,764	-35,368	-0,121	-0,045
310,779	260,036	-0,176	-0,210
311,793	126,637	-0,225	-0,196
312,808	-200,000	-0,034	-0,103
313,822	-9,991	-0,200	-0,091
314,837	-131,865	-0,165	-0,015
315,852	-200,000	0,017	-0,055
316,866	-167,609	-0,122	-0,003
317,881	800,000	-0,009	-0,025
318,895	-112,103	-0,113	0,016
319,910	-3,054	-0,148	-0,071
320,925	122,943	-0,126	-0,109
321,939	-0,394	-0,115	-0,056
322,954	64,536	-0,159	-0,110
323,968	63,681	-0,077	-0,053
324,983	298,412	-0,108	-0,137
325,997	3,270	-0,179	-0,089
327,012	-12,354	-0,209	-0,094
328,027	800,000	-0,064	-0,180
329,041	213,665	-0,200	-0,217
330,056	216,094	-0,103	-0,112
331,070	-200,000	0,009	0,042
332,085	-39,558	-0,085	-0,030
333,100	-23,386	-0,276	-0,114
334,114	448,036	-0,122	-0,185
335,129	191,594	-0,117	-0,121
336,143	777,090	-0,095	-0,179
337,158	101,818	-0,203	-0,163
338,173	-76,685	-0,156	0,037
339,187	800,000	-0,061	-0,119
340,202	-14,258	-0,153	0,068
341,216	-108,254	-0,168	-0,025
342,231	18,962	-0,156	-0,086
343,246	768,840	-0,129	-0,242
344,260	107,538	-0,125	-0,102
345,275	221,667	-0,086	-0,095
346,289	142,535	-0,086	-0,078
347,304	443,400	-0,096	-0,145
348,319	529,388	-0,078	-0,127
349,333	-31,242	-0,149	-0,057
350,348	-200,000	-0,031	-0,112
351,362	39,284	-0,073	0,045
352,377	-51,571	-0,066	-0,021
353,392	-74,355	-0,081	0,020
354,406	36,355	-0,102	-0,061
355,421	208,139	1315,590	1412,179
356,435	160,141	1476,421	1412,673
