DTS Sentinel unit serial number:	SN410029Multiplexer serial number:	ORYXHardware model number:	OX2-SRSoftware version number:	ORYX F/W v4,00 Oryx Data Collector v3.7.2.0data status	okinstallation	B3 Nyhavnadifferential loss correction	single-endedforward channel	channel 1reverse channel	N/Adate	2023/12/04time	00:47:30forward acquisition time	300,00reverse acquisition time	0,00gamma	499,1914k internal	0,3203k external	0,3203temperature offset calibration	1,0000default loss term (dB/km)	0,3820temperature slope calibration	1,0000multiplexer offset coefficient	1,0000multiplexer slope coefficient	1,0000fibre end	0,00T internal ref (°C)	12,61T ext. ref 1 (°C)	-2,63T ext. ref 2 (°C)	-2,66length (m)	temperature (°C)	Stokes	anti-Stokes-744,400	104,404	-0,212	-0,182
-743,385	-200,000	0,027	0,182
-742,371	105,768	-0,190	-0,163
-741,356	-200,000	0,006	0,219
-740,342	125,148	-0,234	-0,214
-739,327	-200,000	-0,075	0,264
-738,312	138,764	-0,209	-0,200
-737,298	-200,000	-0,099	0,323
-736,283	556,945	-0,065	-0,115
-735,269	-200,000	-0,080	0,325
-734,254	277,952	-0,163	-0,211
-733,239	19,383	-0,117	0,068
-732,225	-200,000	-0,057	-0,321
-731,210	800,000	0,048	0,126
-730,196	-200,000	-0,022	0,073
-729,181	141,126	-0,036	0,035
-728,167	262,043	0,046	0,057
-727,152	800,000	-0,013	0,028
-726,137	-200,000	0,040	0,166
-725,123	296,078	-0,081	-0,108
-724,108	175,785	-0,076	-0,080
-723,094	-200,000	0,003	0,010
-722,079	-67,525	-0,082	-0,023
-721,064	-200,000	0,051	0,179
-720,050	30,380	-0,026	-0,016
-719,035	800,000	0,019	0,046
-718,021	-200,000	-0,012	-0,123
-717,006	-40,310	-0,110	-0,041
-715,991	-82,499	-0,063	-0,015
-714,977	800,000	0,013	-0,031
-713,962	800,000	-0,043	-0,106
-712,948	266,879	0,036	-0,045
-711,933	-151,618	0,079	-0,004
-710,918	102,573	-0,048	0,041
-709,904	-200,000	-0,021	-0,168
-708,889	71,922	-0,018	0,014
-707,875	800,000	0,025	-0,063
-706,860	-14,142	-0,026	-0,012
-705,845	-200,000	0,019	0,076
-704,831	800,000	-0,069	0,140
-703,816	26,283	0,087	-0,053
-702,802	-135,523	-0,057	0,005
-701,787	-67,752	-0,154	0,044
-700,772	703,766	-0,030	0,058
-699,758	-200,000	-0,008	-0,043
-698,743	-38,775	0,130	-0,050
-697,729	-11,919	0,094	0,044
-696,714	800,000	0,056	0,135
-695,699	-140,122	-0,099	0,007
-694,685	150,369	0,067	-0,066
-693,670	-51,466	-0,132	-0,044
-692,656	114,214	-0,099	-0,087
-691,641	800,000	-0,057	0,119
-690,627	-133,094	0,108	0,010
-689,612	403,072	-0,023	-0,035
-688,597	-77,783	-0,126	-0,031
-687,583	-28,686	-0,128	-0,053
-686,568	-104,535	-0,138	-0,023
-685,554	-38,317	0,088	-0,033
-684,539	-200,000	0,006	0,023
-683,524	-200,000	-0,004	-0,039
-682,510	-200,000	0,012	-0,141
-681,495	-200,000	-0,039	-0,144
-680,481	228,402	0,064	-0,076
-679,466	63,018	-0,061	-0,044
-678,451	-25,117	0,078	-0,033
-677,437	265,830	-0,040	0,050
-676,422	-78,662	0,026	0,006
-675,408	330,319	0,052	-0,073
-674,393	-103,406	-0,224	-0,038
-673,378	651,921	-0,049	-0,092
-672,364	-200,000	0,004	0,015
-671,349	-146,920	-0,021	-0,001
-670,335	-200,000	0,008	0,060
-669,320	-61,066	-0,047	0,014
-668,305	-200,000	0,001	0,069
-667,291	-34,924	-0,149	0,058
-666,276	29,794	-0,133	-0,082
-665,262	-157,476	-0,032	-0,001
-664,247	653,406	-0,067	-0,126
-663,232	-35,592	0,104	-0,041
-662,218	-200,000	-0,022	-0,071
-661,203	787,898	-0,012	0,025
-660,189	-70,197	-0,047	-0,013
-659,174	-84,832	-0,106	0,024
-658,159	-122,131	-0,132	0,016
-657,145	-200,000	0,001	-0,083
-656,130	-200,000	0,012	-0,039
-655,116	-200,000	-0,017	0,115
-654,101	67,410	0,085	-0,063
-653,086	-200,000	-0,011	-0,044
-652,072	33,994	-0,064	-0,040
-651,057	-200,000	-0,012	-0,143
-650,043	-72,406	-0,119	-0,032
-649,028	-200,000	0,012	-0,266
-648,014	-6,821	0,095	0,047
-646,999	12,049	0,091	-0,050
-645,984	28,696	0,114	0,070
-644,970	637,851	-0,054	0,100
-643,955	497,987	-0,082	0,137
-642,941	800,000	-0,031	-0,063
-641,926	-200,000	-0,005	0,070
-640,911	-200,000	-0,021	0,104
-639,897	664,524	0,024	0,045
-638,882	9,238	-0,004	0,002
-637,868	-4,826	0,075	-0,037
-636,853	-200,000	-0,017	-0,119
-635,838	-7,628	-0,140	-0,068
-634,824	-59,962	0,061	-0,019
-633,809	-129,040	-0,075	0,008
-632,795	200,129	0,053	0,059
-631,780	-200,000	-0,029	-0,113
-630,765	136,377	-0,109	-0,103
-629,751	-200,000	-0,009	-0,050
-628,736	144,416	0,047	0,045
-627,722	-200,000	-0,035	0,132
-626,707	-200,000	-0,007	0,036
-625,692	68,581	-0,117	0,087
-624,678	-200,000	-0,027	0,152
-623,663	-17,831	-0,136	-0,061
-622,649	800,000	-0,050	-0,112
-621,634	80,179	-0,213	-0,165
-620,619	800,000	0,049	-0,098
-619,605	-106,035	0,178	0,029
-618,590	-124,473	0,050	-0,006
-617,576	-41,532	-0,053	-0,020
-616,561	36,376	-0,091	0,058
-615,546	-144,385	-0,092	-0,006
-614,532	504,315	-0,028	-0,047
-613,517	-78,311	-0,208	0,051
-612,503	-158,718	-0,056	0,002
-611,488	-200,000	0,006	-0,091
-610,474	-85,577	-0,026	-0,006
-609,459	-200,000	-0,000	0,159
-608,444	175,485	-0,031	0,032
-607,430	800,000	0,071	-0,181
-606,415	800,000	0,056	0,124
-605,401	800,000	-0,044	-0,108
-604,386	800,000	-0,027	-0,077
-603,371	520,547	-0,062	-0,105
-602,357	800,000	-0,056	-0,122
-601,342	800,000	0,042	0,102
-600,328	-200,000	-0,037	-0,141
-599,313	642,904	-0,070	-0,130
-598,298	800,000	0,039	0,114
-597,284	-173,845	0,066	0,001
-596,269	-154,010	-0,097	0,005
-595,255	800,000	0,027	-0,069
-594,240	104,282	-0,066	0,056
-593,225	424,049	-0,068	-0,106
-592,211	800,000	-0,039	0,095
-591,196	-200,000	-0,004	0,021
-590,182	234,823	0,044	0,053
-589,167	-94,546	-0,131	-0,026
-588,152	800,000	0,033	0,095
-587,138	-139,039	-0,084	-0,007
-586,123	-200,000	-0,006	-0,074
-585,109	-14,716	-0,129	-0,060
-584,094	189,764	0,063	0,068
-583,079	800,000	0,071	-0,155
-582,065	-200,000	0,006	-0,058
-581,050	751,872	0,055	0,107
-580,036	532,337	-0,047	0,080
-579,021	-200,000	0,029	-0,143
-578,006	-200,000	0,003	-0,044
-576,992	296,257	-0,035	-0,046
-575,977	47,867	-0,088	-0,059
-574,963	-200,000	-0,012	-0,087
-573,948	800,000	-0,039	0,096
-572,934	51,827	0,051	-0,035
-571,919	288,726	0,085	-0,111
-570,904	474,461	0,028	-0,045
-569,890	-43,993	-0,085	-0,031
-568,875	204,340	0,039	-0,043
-567,861	800,000	0,054	-0,115
-566,846	98,364	0,031	0,026
-565,831	-200,000	0,019	-0,090
-564,817	-17,685	-0,039	0,018
-563,802	-88,003	-0,120	0,026
-562,788	-200,000	-0,028	-0,114
-561,773	-200,000	0,025	0,113
-560,758	123,708	-0,048	0,043
-559,744	483,633	-0,029	0,047
-558,729	589,878	-0,081	-0,145
-557,715	800,000	0,018	0,052
-556,700	623,200	-0,066	-0,121
-555,685	398,807	0,050	0,075
-554,671	-14,593	-0,049	0,022
-553,656	28,867	-0,094	0,058
-552,642	291,085	0,051	-0,067
-551,627	186,729	0,083	0,090
-550,612	123,104	0,034	-0,030
-549,598	191,998	-0,047	-0,051
-548,583	188,436	0,114	-0,123
-547,569	-200,000	-0,006	0,071
-546,554	-49,181	-0,076	-0,026
-545,539	-142,208	0,092	-0,006
-544,525	262,077	-0,088	0,111
-543,510	68,311	0,062	0,045
-542,496	-200,000	0,019	-0,112
-541,481	-153,267	-0,105	0,005
-540,466	800,000	0,048	-0,116
-539,452	196,266	0,099	0,108
-538,437	-200,000	0,006	0,061
-537,423	265,763	-0,058	0,074
-536,408	85,880	0,077	-0,061
-535,393	-4,644	-0,142	0,070
-534,379	-200,000	-0,023	-0,084
-533,364	57,037	0,041	0,029
-532,350	222,947	0,033	0,038
-531,335	130,817	0,040	0,037
-530,321	800,000	-0,011	0,034
-529,306	-200,000	-0,004	-0,018
-528,291	-77,043	-0,119	-0,030
-527,277	66,885	0,016	-0,012
-526,262	-99,868	-0,055	0,010
-525,248	-114,266	0,118	-0,016
-524,233	-85,087	-0,089	0,020
-523,218	437,271	0,067	-0,106
-522,204	167,629	-0,082	0,084
-521,189	731,014	-0,057	-0,111
-520,175	498,625	-0,096	-0,161
-519,160	76,263	-0,054	0,041
-518,145	-65,162	0,122	0,035
-517,131	-200,000	-0,008	0,079
-516,116	-126,834	-0,056	-0,006
-515,102	-200,000	0,019	-0,086
-514,087	679,886	-0,040	0,075
-513,072	491,333	-0,023	0,038
-512,058	195,955	-0,066	0,072
-511,043	388,475	0,111	-0,166
-510,029	639,330	0,073	0,134
-509,014	-64,672	0,271	0,079
-507,999	-35,458	-0,118	-0,046
-506,985	85,058	0,022	0,017
-505,970	127,618	-0,054	-0,049
-504,956	-9,143	-0,026	-0,012
-503,941	-200,000	0,000	0,009
-502,926	163,608	0,075	0,076
-501,912	800,000	0,063	0,168
-500,897	-39,924	0,042	0,016
-499,883	78,577	-0,027	0,021
-498,868	283,249	-0,002	-0,003
-497,853	300,797	0,036	0,048
-496,839	-200,000	-0,013	0,069
-495,824	628,209	0,046	0,085
-494,810	95,888	0,079	0,065
-493,795	-3,794	0,098	0,049
-492,781	632,011	-0,042	-0,077
-491,766	-200,000	-0,020	-0,146
-490,751	138,896	-0,062	0,059
-489,737	-200,000	0,010	0,121
-488,722	-2,219	0,046	-0,023
-487,708	0,495	0,079	0,040
-486,693	-200,000	-0,007	0,106
-485,678	800,000	0,055	-0,133
-484,664	800,000	0,021	-0,046
-483,649	37,742	-0,056	0,036
-482,635	94,579	0,139	-0,113
-481,620	10,540	-0,115	-0,063
-480,605	647,969	0,049	0,091
-479,591	800,000	0,021	0,055
-478,576	-68,589	-0,024	0,007
-477,562	-88,777	0,027	0,006
-476,547	-14,230	-0,096	0,044
-475,532	-29,811	0,052	-0,021
-474,518	-200,000	-0,023	0,091
-473,503	-200,000	0,007	-0,028
-472,489	645,800	-0,015	0,027
-471,474	92,077	-0,042	-0,034
-470,459	-200,000	0,002	-0,038
-469,445	230,736	-0,056	0,066
-468,430	-200,000	0,016	-0,090
-467,416	-93,353	0,149	0,029
-466,401	37,290	-0,122	-0,078
-465,386	800,000	0,057	0,123
-464,372	-61,992	-0,090	-0,027
-463,357	121,130	0,108	-0,096
-462,343	51,173	-0,131	-0,089
-461,328	-47,630	0,171	-0,059
-460,313	-119,551	-0,059	0,007
-459,299	246,139	-0,038	-0,046
-458,284	-200,000	0,005	-0,057
-457,270	1,094	0,086	0,044
-456,255	34,782	-0,087	-0,054
-455,241	800,000	-0,056	0,146
-454,226	800,000	-0,042	0,098
-453,211	800,000	0,018	0,055
-452,197	230,588	0,016	0,019
-451,182	-45,473	0,156	0,055
-450,168	421,435	-0,043	0,067
-449,153	-59,779	0,088	-0,027
-448,138	-200,000	-0,017	-0,055
-447,124	-200,000	-0,034	-0,156
-446,109	21,268	-0,115	0,067
-445,095	-200,000	-0,006	-0,022
-444,080	-96,531	0,087	-0,016
-443,065	-200,000	0,000	-0,008
-442,051	82,835	-0,150	0,117
-441,036	-50,272	-0,099	-0,033
-440,022	103,023	-0,055	-0,046
-439,007	-200,000	-0,004	0,053
-437,992	115,202	0,062	0,054
-436,978	40,784	0,130	0,084
-435,963	800,000	-0,044	0,095
-434,949	800,000	0,080	0,201
-433,934	-200,000	-0,004	-0,027
-432,919	3,437	-0,052	0,027
-431,905	108,779	0,040	-0,035
-430,890	94,798	-0,089	-0,073
-429,876	-84,681	0,104	-0,023
-428,861	153,770	-0,021	0,020
-427,846	-200,000	0,013	-0,047
-426,832	123,701	-0,087	0,078
-425,817	-200,000	-0,044	-0,176
-424,803	101,485	-0,162	-0,135
-423,788	-53,264	0,090	0,030
-422,773	-21,735	0,120	0,052
-421,759	800,000	-0,052	0,137
-420,744	-31,919	0,140	0,056
-419,730	23,941	0,117	0,069
-418,715	-200,000	-0,020	-0,069
-417,701	800,000	0,059	-0,162
-416,686	800,000	-0,026	0,057
-415,671	-200,000	0,009	-0,089
-414,657	590,826	0,041	-0,074
-413,642	-14,644	-0,160	0,074
-412,628	66,401	0,070	-0,051
-411,613	-200,000	0,033	-0,128
-410,598	-92,997	-0,122	-0,024
-409,584	-37,287	-0,064	-0,024
-408,569	73,639	-0,032	0,024
-407,555	14,933	0,081	0,045
-406,540	-143,477	-0,040	0,003
-405,525	217,315	-0,059	-0,067
-404,511	800,000	0,033	0,071
-403,496	800,000	0,027	0,063
-402,482	-200,000	0,003	0,068
-401,467	-200,000	0,001	0,016
-400,452	333,709	0,020	0,028
-399,438	-200,000	-0,014	-0,056
-398,423	177,381	0,043	-0,045
-397,409	-121,307	-0,091	0,011
-396,394	-98,369	-0,067	0,012
-395,379	638,421	0,019	-0,035
-394,365	177,322	-0,037	-0,039
-393,350	800,000	0,082	0,209
-392,336	800,000	-0,013	-0,031
-391,321	226,225	-0,099	-0,115
-390,306	48,833	-0,021	0,014
-389,292	34,454	-0,021	-0,013
-388,277	5,211	0,100	0,053
-387,263	-200,000	0,012	0,057
-386,248	800,000	0,027	0,076
-385,233	-129,472	0,125	-0,012
-384,219	67,600	0,057	-0,042
-383,204	-200,000	0,009	0,082
-382,190	-89,091	0,096	-0,020
-381,175	-59,486	0,070	0,021
-380,160	800,000	0,043	0,137
-379,146	800,000	0,037	0,074
-378,131	-140,080	0,164	0,012
-377,117	291,216	-0,061	0,080
-376,102	54,933	-0,094	-0,065
-375,088	136,389	-0,019	-0,018
-374,073	191,345	0,059	0,064
-373,058	800,000	-0,012	-0,026
-372,044	254,761	-0,100	0,123
-371,029	51,559	0,043	-0,030
-370,015	-200,000	-0,005	-0,032
-369,000	123,376	0,037	-0,033
-367,985	-200,000	-0,003	-0,116
-366,971	800,000	-0,053	-0,113
-365,956	200,782	0,088	0,097
-364,942	-73,364	-0,054	0,014
-363,927	526,910	-0,054	-0,091
-362,912	-104,433	0,150	-0,025
-361,898	-200,000	-0,001	0,088
-360,883	-56,899	0,051	0,016
-359,869	-146,164	-0,186	0,012
-358,854	-89,334	0,133	-0,028
-357,839	27,569	-0,081	0,049
-356,825	800,000	0,058	0,122
-355,810	800,000	-0,022	-0,050
-354,796	-156,197	-0,131	-0,006
-353,781	-81,008	0,077	-0,018
-352,766	800,000	0,012	-0,034
-351,752	-110,081	0,079	-0,012
-350,737	31,730	-0,015	-0,009
-349,723	-200,000	0,008	0,065
-348,708	-200,000	-0,005	0,037
-347,693	800,000	0,047	-0,126
-346,679	172,837	-0,070	-0,073
-345,664	-25,613	-0,093	-0,039
-344,650	-92,158	0,077	-0,015
-343,635	-35,136	0,085	0,033
-342,620	59,129	0,094	0,066
-341,606	-200,000	-0,005	0,080
-340,591	-200,000	0,019	-0,065
-339,577	-76,766	-0,051	0,013
-338,562	231,822	-0,113	0,133
-337,548	-87,542	0,129	0,028
-336,533	-200,000	-0,018	0,069
-335,518	-28,500	0,092	0,038
-334,504	800,000	0,040	0,126
-333,489	-200,000	0,008	0,109
-332,475	-200,000	0,001	-0,036
-331,460	-200,000	0,027	0,141
-330,445	800,000	-0,082	-0,170
-329,431	800,000	0,028	-0,067
-328,416	481,565	0,053	-0,086
-327,402	-95,900	-0,091	0,017
-326,387	-30,483	-0,115	0,046
-325,372	411,734	-0,043	-0,065
-324,358	80,114	0,070	0,054
-323,343	96,458	0,083	0,068
-322,329	309,543	0,121	0,162
-321,314	739,204	0,026	-0,050
-320,299	-33,305	-0,054	-0,021
-319,285	-172,967	0,081	-0,002
-318,270	800,000	0,026	0,073
-317,256	22,107	-0,067	-0,039
-316,241	-0,180	-0,033	0,017
-315,226	369,126	0,080	0,116
-314,212	-42,109	0,088	0,032
-313,197	124,603	0,061	0,055
-312,183	213,337	-0,067	-0,075
-311,168	7,608	-0,218	0,116
-310,153	99,602	-0,013	0,011
-309,139	166,215	0,110	-0,111
-308,124	-13,938	-0,038	-0,018
-307,110	-63,599	0,094	-0,027
-306,095	-117,722	0,081	-0,010
-305,080	800,000	-0,077	0,159
-304,066	30,289	-0,137	-0,084
-303,051	-10,417	-0,058	-0,027
-302,037	800,000	-0,016	0,033
-301,022	800,000	-0,050	-0,131
-300,008	-136,980	0,072	-0,006
-298,993	274,127	-0,059	-0,074
-297,978	41,100	0,074	0,048
-296,964	178,454	-0,099	-0,104
-295,949	800,000	-0,015	0,046
-294,935	-135,506	0,054	0,005
-293,920	-55,417	-0,045	0,014
-292,905	681,327	0,026	0,049
-291,891	22,708	-0,014	-0,008
-290,876	800,000	0,051	-0,101
-289,862	-64,634	0,125	0,036
-288,847	69,799	-0,068	0,050
-287,832	-200,000	0,020	-0,107
-286,818	800,000	0,053	-0,131
-285,803	-200,000	0,011	0,061
-284,789	-3,812	0,016	-0,008
-283,774	800,000	-0,024	-0,060
-282,759	128,854	-0,113	-0,103
-281,745	-200,000	-0,036	0,269
-280,730	-200,000	0,020	-0,069
-279,716	544,709	-0,050	0,086
-278,701	289,600	0,092	0,119
-277,686	-200,000	0,026	-0,177
-276,672	800,000	-0,035	-0,094
-275,657	-112,150	-0,133	0,019
-274,643	-41,860	0,044	-0,016
-273,628	-200,000	0,004	-0,031
-272,613	305,195	0,061	0,081
-271,599	-137,890	0,012	-0,001
-270,584	800,000	0,064	0,162
-269,570	86,166	0,083	0,065
-268,555	-87,374	0,021	0,004
-267,540	-130,063	0,075	0,007
-266,526	316,220	-0,039	0,053
-265,511	71,779	0,071	-0,052
-264,497	-113,487	-0,067	-0,009
-263,482	564,083	0,059	-0,102
-262,467	452,696	0,024	0,038
-261,453	339,818	-0,067	-0,093
-260,438	-89,182	-0,042	0,009
-259,424	149,995	0,045	0,044
-258,409	-99,755	-0,114	0,020
-257,395	-200,000	-0,009	-0,110
-256,380	346,748	0,019	0,027
-255,365	-200,000	-0,020	-0,070
-254,351	-200,000	0,000	0,031
-253,336	581,424	0,056	-0,098
-252,322	-17,411	-0,233	-0,104
-251,307	800,000	0,024	-0,056
-250,292	56,917	0,089	0,062
-249,278	94,583	0,074	-0,060
-248,263	73,756	0,074	-0,055
-247,249	-122,397	-0,082	-0,009
-246,234	65,314	-0,047	-0,034
-245,219	-200,000	0,005	-0,119
-244,205	-110,335	-0,007	0,001
-243,190	259,285	-0,082	0,101
-242,176	-200,000	-0,028	0,132
-241,161	-200,000	0,016	-0,168
-240,146	-129,520	0,071	0,007
-239,132	800,000	0,064	0,129
-238,117	351,728	-0,051	0,072
-237,103	27,118	0,053	0,032
-236,088	-114,048	0,036	-0,005
-235,073	-127,274	-0,208	0,021
-234,059	-52,187	0,079	-0,026
-233,044	77,478	0,039	-0,030
-232,030	150,004	0,053	0,052
-231,015	394,455	-0,030	0,045
-230,000	-200,000	0,027	-0,091
-228,986	800,000	0,009	-0,019
-227,971	-200,000	-0,011	0,063
-226,957	311,698	0,088	0,118
-225,942	800,000	-0,032	-0,065
-224,927	195,131	0,064	0,070
-223,913	-62,280	-0,082	-0,024
-222,898	-65,001	-0,147	-0,042
-221,884	-46,028	-0,125	-0,044
-220,869	800,000	-0,034	-0,102
-219,855	-200,000	-0,010	0,081
-218,840	-200,000	-0,012	-0,119
-217,825	30,063	-0,109	0,066
-216,811	201,898	-0,017	-0,019
-215,796	64,226	0,045	-0,032
-214,782	800,000	0,037	-0,080
-213,767	71,103	0,064	0,047
-212,752	120,611	0,054	0,048
-211,738	10,854	0,069	0,037
-210,723	244,381	-0,051	0,061
-209,709	-200,000	-0,009	-0,030
-208,694	800,000	-0,087	-0,175
-207,679	-155,929	0,047	-0,002
-206,665	295,806	0,021	0,027
-205,650	800,000	0,030	0,090
-204,636	-165,949	0,070	0,002
-203,621	-200,000	-0,015	0,052
-202,606	-190,493	-0,011	0,000
-201,592	71,066	0,057	-0,042
-200,577	-200,000	0,012	-0,086
-199,563	133,716	0,069	0,063
-198,548	34,482	0,031	-0,019
-197,533	-190,255	0,045	-0,000
-196,519	-141,918	-0,071	-0,005
-195,504	-42,343	0,021	0,008
-194,490	56,942	-0,124	-0,086
-193,475	312,833	-0,030	0,040
-192,460	-33,475	-0,110	-0,043
-191,446	-200,000	0,006	-0,036
-190,431	-200,000	-0,002	-0,015
-189,417	-200,000	0,013	0,103
-188,402	106,683	-0,013	-0,011
-187,387	-200,000	0,053	-0,175
-186,373	-37,823	-0,036	-0,014
-185,358	44,542	0,055	-0,036
-184,344	-104,078	0,156	-0,026
-183,329	36,126	-0,035	-0,022
-182,315	127,384	0,072	-0,065
-181,300	122,195	-0,013	0,012
-180,285	534,321	0,031	-0,053
-179,271	-200,000	0,012	-0,117
-178,256	800,000	-0,036	0,083
-177,242	194,863	0,131	0,142
-176,227	-200,000	0,016	0,147
-175,212	384,332	-0,074	0,108
-174,198	188,053	-0,050	0,053
-173,183	135,624	0,054	0,050
-172,169	800,000	0,018	0,044
-171,154	-8,413	0,094	0,045
-170,139	-141,194	-0,039	-0,003
-169,125	-35,541	-0,017	0,006
-168,110	-200,000	0,035	0,126
-167,096	83,811	-0,095	-0,074
-166,081	136,291	0,024	-0,022
-165,066	800,000	0,065	-0,130
-164,052	-26,093	0,097	-0,040
-163,037	204,135	-0,007	0,008
-162,023	60,140	0,058	0,041
-161,008	-200,000	0,008	0,053
-159,993	671,860	0,017	-0,032
-158,979	-41,764	0,118	0,043
-157,964	-200,000	-0,011	-0,036
-156,950	-200,000	0,007	-0,094
-155,935	-200,000	-0,005	0,087
-154,920	-84,729	0,074	0,016
-153,906	-200,000	-0,009	0,048
-152,891	605,336	-0,017	0,031
-151,877	163,691	-0,069	0,069
-150,862	-8,952	0,051	-0,024
-149,847	255,495	0,058	0,071
-148,833	-200,000	0,005	0,063
-147,818	-31,295	0,131	0,052
-146,804	-200,000	0,036	0,121
-145,789	-200,000	0,018	0,104
-144,775	556,881	-0,041	0,071
-143,760	119,522	-0,029	-0,025
-142,745	77,457	0,047	-0,035
-141,731	57,557	-0,068	-0,047
-140,716	-200,000	-0,008	0,028
-139,702	58,856	0,078	0,054
-138,687	-200,000	0,021	0,189
-137,672	131,443	-0,074	0,068
-136,658	-200,000	0,007	0,105
-135,643	178,496	-0,045	-0,047
-134,629	-200,000	0,012	0,137
-133,614	-200,000	-0,028	0,089
-132,599	-200,000	-0,001	-0,075
-131,585	-47,121	-0,074	0,026
-130,570	604,907	0,060	0,106
-129,556	-149,968	0,070	0,004
-128,541	-63,176	-0,078	0,023
-127,526	-76,975	0,155	-0,038
-126,512	187,047	-0,047	-0,050
-125,497	-200,000	0,005	0,136
-124,483	-155,869	0,183	-0,008
-123,468	800,000	-0,036	0,090
-122,453	-190,335	0,054	0,000
-121,439	-200,000	-0,028	-0,119
-120,424	165,232	-0,079	0,079
-119,410	-200,000	0,001	0,189
-118,395	800,000	-0,024	0,055
-117,380	-200,000	-0,003	0,047
-116,366	-6,529	0,052	-0,025
-115,351	-40,686	-0,032	0,012
-114,337	-79,696	-0,171	0,041
-113,322	116,262	0,172	0,150
-112,307	-117,204	0,188	-0,024
-111,293	-200,000	-0,022	-0,076
-110,278	800,000	-0,048	-0,094
-109,264	33,034	0,087	0,053
-108,249	800,000	-0,066	-0,188
-107,234	-71,343	-0,145	-0,038
-106,220	77,891	-0,079	-0,060
-105,205	23,012	0,120	0,070
-104,191	-156,052	-0,032	-0,001
-103,176	-157,288	-0,007	-0,000
-102,162	285,417	0,059	-0,075
-101,147	-200,000	-0,020	-0,175
-100,132	-200,000	-0,004	0,013
-99,118	98,470	-0,084	0,068
-98,103	-200,000	0,027	-0,111
-97,089	96,858	0,134	0,109
-96,074	-200,000	-0,007	0,081
-95,059	-75,595	-0,119	-0,030
-94,045	-90,991	-0,150	0,030
-93,030	144,288	0,009	0,009
-92,016	435,518	-0,032	-0,049
-91,001	366,039	0,079	-0,113
-89,986	-176,787	-0,075	-0,001
-88,972	800,000	0,028	0,068
-87,957	-200,000	-0,034	0,121
-86,943	-164,481	0,091	-0,003
-85,928	231,746	-0,055	0,064
-84,913	75,964	-0,180	-0,135
-83,899	-22,962	0,129	-0,055
-82,884	596,454	0,045	-0,079
-81,870	16,853	-0,124	-0,069
-80,855	-22,189	0,035	-0,015
-79,840	523,122	-0,068	-0,113
-78,826	-200,000	0,015	-0,077
-77,811	34,229	-0,064	0,039
-76,797	800,000	-0,044	-0,118
-75,782	-200,000	0,004	-0,144
-74,767	-57,849	0,174	0,053
-73,753	284,491	-0,087	-0,111
-72,738	-25,010	-0,099	-0,041
-71,724	17,696	-0,131	0,074
-70,709	-125,201	0,049	-0,005
-69,694	-82,897	-0,177	-0,040
-68,680	-52,268	0,115	0,038
-67,665	300,243	-0,047	0,062
-66,651	32,140	0,078	0,047
-65,636	-86,337	-0,045	-0,010
-64,622	-161,457	-0,085	0,003
-63,607	6,842	-0,084	-0,044
-62,592	-25,722	0,026	0,011
-61,578	89,939	-0,055	0,043
-60,563	-20,869	0,103	0,044
-59,549	800,000	-0,048	0,118
-58,534	-7,155	-1,742	-0,833
-57,519	381,178	-1,383	-2,014
-56,505	-200,000	-0,464	-4,663
-55,490	278,267	0,913	1,153
-54,476	800,000	4,933	11,480
-53,461	-200,000	19,922	326,243
-52,446	800,000	748,021	2326,431
-51,432	559,553	1659,567	2845,859
-50,417	76,422	1671,432	1251,605
-49,403	20,487	1544,776	881,230
-48,388	14,457	1467,184	807,628
-47,373	18,203	1457,426	820,325
-46,359	16,515	1446,878	806,269
-45,344	12,686	1442,512	785,457
-44,330	12,592	1440,367	783,812
-43,315	12,631	1438,706	783,063
-42,300	12,623	1437,244	782,197
-41,286	12,672	1435,798	781,614
-40,271	12,635	1434,519	780,708
-39,257	12,612	1433,266	779,885
-38,242	12,660	1432,084	779,440
-37,227	12,692	1430,852	778,892
-36,213	12,689	1429,476	778,096
-35,198	12,702	1428,255	777,462
-34,184	12,748	1427,280	777,118
-33,169	12,680	1425,820	775,969
-32,154	12,748	1424,764	775,688
-31,140	12,782	1423,454	775,107
-30,125	12,705	1422,477	774,181
-29,111	12,699	1421,420	773,545
-28,096	12,723	1420,259	772,994
-27,082	12,638	1419,125	771,947
-26,067	12,633	1418,070	771,320
-25,052	12,634	1416,972	770,696
-24,038	12,631	1415,921	770,077
-23,023	12,659	1414,979	769,665
-22,009	12,648	1414,013	769,058
-20,994	12,638	1412,984	768,423
-19,979	12,619	1412,257	767,909
-18,965	12,602	1411,189	767,214
-17,950	12,605	1410,187	766,655
-16,936	12,624	1409,345	766,255
-15,921	12,501	1408,590	765,237
-14,906	12,536	1407,461	764,757
-13,892	12,589	1406,468	764,435
-12,877	12,568	1405,685	763,884
-11,863	12,482	1404,897	763,023
-10,848	12,496	1403,969	762,553
-9,833	12,486	1403,165	762,042
-8,819	12,467	1402,381	761,496
-7,804	12,477	1401,360	760,959
-6,790	12,423	1400,398	760,152
-5,775	12,472	1399,231	759,718
-4,760	12,417	1398,140	758,839
-3,746	12,398	1397,394	758,319
-2,731	12,451	1396,351	757,966
-1,717	12,446	1395,538	757,474
-0,702	12,409	1393,639	756,241
0,313	16,364	1309,595	728,909
1,327	32,898	701,168	428,327
2,342	50,835	122,491	81,891
3,356	2,518	16,355	8,346
4,371	15,780	3,184	1,766
5,386	-1,613	0,712	0,353
6,400	800,000	0,125	0,307
7,415	-23,598	-0,287	-0,121
8,429	46,648	-0,329	-0,216
9,444	63,366	-0,415	-0,294
10,459	272,866	-0,226	-0,282
11,473	46,515	-0,280	-0,183
12,488	-7,380	-0,311	-0,148
13,502	-130,172	-0,355	-0,034
14,517	60,706	-0,336	-0,235
15,531	140,264	-0,332	-0,309
16,546	61,378	-0,281	-0,197
17,561	131,888	-0,494	-0,449
18,575	23,484	-0,094	-0,055
19,590	-6,795	-0,259	-0,124
20,604	-7,513	-0,226	-0,108
21,619	-4,325	-0,462	-0,225
22,634	113,710	-0,416	-0,357
23,648	43,583	-0,408	-0,263
24,663	149,754	-0,369	-0,353
25,677	117,965	-0,306	-0,266
26,692	69,342	-0,311	-0,226
27,707	103,688	-0,433	-0,358
28,721	44,468	-0,360	-0,233
29,736	143,314	-0,354	-0,332
30,750	13,305	-0,438	-0,239
31,765	30,552	-0,384	-0,231
32,780	185,372	-0,224	-0,235
33,794	-27,399	-0,432	-0,176
34,809	66,330	-0,292	-0,209
35,823	17,513	-0,441	-0,246
36,838	763,236	-0,197	-0,379
37,853	327,916	-0,267	-0,362
38,867	60,089	-0,470	-0,327
39,882	193,636	-0,217	-0,232
40,896	-19,847	-0,381	-0,165
41,911	32,022	-0,203	-0,123
42,926	361,306	-0,225	-0,319
43,940	-58,549	-0,462	-0,140
44,955	101,919	-0,392	-0,322
45,969	243,760	-0,203	-0,240
46,984	327,250	-0,289	-0,392
47,999	-48,038	-0,332	-0,112
49,013	-26,055	-0,313	-0,129
50,028	54,080	-0,274	-0,185
51,042	172,400	-0,307	-0,311
52,057	344,636	-0,256	-0,355
53,071	-10,588	-0,294	-0,136
54,086	53,526	-0,280	-0,189
55,101	85,237	-0,397	-0,306
56,115	-11,435	-0,379	-0,175
57,130	25,238	-0,562	-0,328
58,144	-117,381	-0,410	-0,052
59,159	114,652	-0,314	-0,269
60,174	189,669	-0,256	-0,270
61,188	52,274	-0,385	-0,258
62,203	119,362	-0,245	-0,213
63,217	104,780	-0,266	-0,221
64,232	-31,961	-0,407	-0,159
65,247	55,520	-0,237	-0,161
66,261	8,156	-0,376	-0,198
67,276	1,477	-0,409	-0,206
68,290	-104,612	-0,409	-0,066
69,305	127,190	-0,319	-0,285
70,320	-125,343	-0,321	-0,034
71,334	-31,003	-0,192	0,076
72,349	20,313	-0,303	-0,171
73,363	49,616	-0,278	-0,184
74,378	270,610	-0,216	-0,268
75,393	48,053	-0,289	-0,190
76,407	71,923	-0,184	-0,134
77,422	-18,098	-0,197	-0,086
78,436	10,047	-0,220	-0,117
79,451	117,161	-0,240	-0,207
80,466	-117,287	-0,319	-0,040
81,480	1,337	-0,376	-0,189
82,495	268,606	-0,233	-0,287
83,509	124,696	-0,239	-0,211
84,524	74,111	-0,246	-0,181
85,539	49,031	-0,307	-0,202
86,553	89,219	-0,296	-0,231
87,568	352,179	-0,162	-0,226
88,582	22,704	-0,330	-0,189
89,597	11,326	-0,324	-0,174
90,611	32,584	-0,266	-0,161
91,626	52,727	-0,254	-0,170
92,641	30,365	-0,152	-0,091
93,655	115,442	-0,205	-0,176
94,670	-58,401	-0,322	-0,098
95,684	84,778	-0,185	-0,142
96,699	76,582	-0,269	-0,199
97,714	192,464	-0,272	-0,288
98,728	800,000	-0,163	-0,323
99,743	-36,555	-0,363	-0,136
100,757	-161,390	-0,346	0,012
101,772	15,333	-0,184	-0,101
102,787	233,001	-0,218	-0,252
103,801	-11,393	-0,356	-0,164
104,816	14,439	-0,264	-0,144
105,830	-6,343	-0,308	-0,147
106,845	-10,290	-0,328	-0,152
107,860	27,064	-0,292	-0,171
108,874	-84,191	-0,253	-0,056
109,889	-40,305	-0,401	-0,145
110,903	136,038	-0,207	-0,189
111,918	444,603	-0,209	-0,322
112,933	14,918	-0,320	-0,175
113,947	-90,071	-0,335	-0,068
114,962	179,950	-0,123	-0,126
115,976	148,355	-0,201	-0,190
116,991	59,993	-0,210	-0,145
118,006	100,703	-0,288	-0,234
119,020	71,809	-0,307	-0,223
120,035	-85,176	-0,245	0,053
121,049	-130,875	-0,184	-0,017
122,064	56,085	-0,194	-0,132
123,079	6,335	-0,279	-0,144
124,093	1,074	-0,353	-0,177
125,108	135,324	-0,278	-0,253
126,122	71,835	-0,298	-0,216
127,137	0,296	-0,330	-0,164
128,151	-49,960	-0,352	-0,116
129,166	10,410	-0,279	-0,148
130,181	-22,657	-0,209	-0,088
131,195	31,891	-0,250	-0,150
132,210	-46,116	-0,361	-0,124
133,224	-91,116	-0,347	-0,069
134,239	-51,655	-0,209	-0,068
135,254	-72,922	-0,264	-0,067
136,268	114,886	-0,144	-0,123
137,283	-14,315	-0,354	-0,159
138,297	28,684	-0,283	-0,167
139,312	342,537	-0,216	-0,296
140,327	-55,386	-0,277	-0,086
141,341	2,947	-0,253	-0,128
142,356	292,007	-0,141	-0,179
143,370	-165,662	-0,152	0,005
144,385	-19,111	-0,313	-0,135
145,400	-41,293	-0,274	-0,098
146,414	76,135	-0,319	-0,235
147,429	438,563	-0,248	-0,379
148,443	63,331	-0,329	-0,230
149,458	-57,476	-0,120	0,036
150,473	507,575	-0,120	-0,195
151,487	229,268	-0,211	-0,241
152,502	146,428	-0,303	-0,284
153,516	40,863	-0,381	-0,239
154,531	36,884	-0,341	-0,210
155,546	93,364	-0,264	-0,208
156,560	-33,720	-0,321	-0,123
157,575	57,794	-0,235	-0,160
158,589	-40,576	-0,126	-0,045
159,604	4,154	-0,350	-0,178
160,619	44,557	-0,351	-0,224
161,633	59,524	-0,200	-0,138
162,648	116,774	-0,208	-0,178
163,662	-44,747	-0,259	-0,090
164,677	-31,882	-0,279	-0,109
165,692	56,145	-0,271	-0,183
166,706	-13,820	-0,217	-0,097
167,721	31,044	-0,353	-0,210
168,735	50,321	-0,207	-0,136
169,750	11,432	-0,192	-0,102
170,764	112,190	-0,215	-0,181
171,779	66,432	-0,183	-0,130
172,794	43,263	-0,209	-0,133
173,808	-5,173	-0,307	-0,146
174,823	104,260	-0,213	-0,175
175,837	628,315	-0,085	-0,150
176,852	216,199	-0,232	-0,257
177,867	800,000	-0,121	-0,320
178,881	155,117	-0,109	-0,104
179,896	-55,630	-0,167	-0,052
180,910	800,000	-0,079	-0,204
181,925	133,700	-0,248	-0,223
182,940	150,652	-0,260	-0,246
183,954	382,046	-0,115	-0,165
184,969	224,076	-0,069	-0,077
185,983	-28,656	-0,224	-0,089
186,998	17,341	-0,241	-0,133
188,013	430,695	-0,088	-0,133
189,027	347,891	-0,145	-0,199
190,042	97,866	-0,136	-0,109
191,056	15,119	-0,344	-0,187
192,071	-148,526	-0,147	-0,008
193,086	-19,027	-0,223	-0,096
194,100	-84,326	-0,129	-0,028
195,115	155,022	-0,243	-0,232
196,129	265,745	-0,232	-0,282
197,144	-14,968	-0,410	-0,182
198,159	173,434	-0,190	-0,190
199,173	88,916	-0,201	-0,155
200,188	-200,000	-0,019	-0,079
201,202	64,635	-0,070	0,049
202,217	-53,099	-0,138	-0,044
203,232	-68,127	-0,156	0,042
204,246	58,703	-0,241	-0,164
205,261	109,078	-0,167	-0,139
206,275	200,640	-0,208	-0,222
207,290	47,572	-0,183	-0,118
208,304	97,161	-0,137	-0,109
209,319	286,903	-0,168	-0,212
210,334	-15,407	-0,278	-0,123
211,348	153,580	-0,251	-0,239
212,363	147,874	-0,203	-0,190
213,377	800,000	-0,079	-0,204
214,392	-11,253	-0,256	-0,116
215,407	173,645	-0,137	-0,137
216,421	-18,513	-0,154	-0,067
217,436	-12,206	-0,231	-0,105
218,450	337,282	-0,114	-0,154
219,465	126,348	-0,291	-0,255
220,480	-112,754	-0,140	-0,019
221,494	-111,951	-0,191	-0,026
222,509	127,668	-0,136	-0,120
223,523	25,985	-0,114	-0,066
224,538	69,655	-0,199	-0,142
225,553	100,792	-0,223	-0,179
226,567	-36,712	-0,264	-0,098
227,582	80,299	-0,284	-0,211
228,596	-68,731	-0,240	-0,064
229,611	800,000	-0,091	-0,250
230,626	-3,614	-0,234	-0,112
231,640	53,046	-0,211	-0,140
232,655	483,002	-0,102	-0,161
233,669	134,217	-0,160	-0,144
234,684	333,620	-0,113	-0,152
235,699	-60,261	-0,136	-0,040
236,713	-5,529	-0,250	-0,118
237,728	425,038	-0,130	-0,194
238,742	96,951	-0,203	-0,161
239,757	52,413	-0,151	-0,100
240,772	18,624	-0,274	-0,152
241,786	108,531	-0,308	-0,254
242,801	-38,097	-0,240	-0,088
243,815	-109,582	-0,168	-0,024
244,830	-200,000	0,021	-0,080
245,844	85,722	-0,238	-0,181
246,859	247,508	-0,149	-0,174
247,874	33,023	-0,256	-0,153
248,888	-50,061	-0,229	-0,075
249,903	147,830	-0,130	-0,121
250,917	85,579	-0,101	-0,076
251,932	277,799	-0,156	-0,193
252,947	-111,156	-0,183	-0,026
253,961	24,185	-0,218	-0,124
254,976	800,000	-0,051	-0,129
255,990	123,755	-0,143	-0,124
257,005	-123,822	-0,196	0,021
258,020	-77,770	-0,209	-0,050
259,034	277,159	-0,133	-0,164
260,049	-0,190	-0,246	-0,121
261,063	-22,318	-0,254	-0,106
262,078	-59,155	-0,251	-0,074
263,093	-60,755	-0,183	-0,053
264,107	-56,802	-0,135	-0,041
265,122	-78,406	-0,227	-0,053
266,136	-8,204	-0,171	-0,079
267,151	65,956	-0,164	-0,115
268,166	53,126	-0,135	-0,089
269,180	112,934	-0,182	-0,152
270,195	41,527	-0,227	-0,141
271,209	-200,000	-0,003	-0,141
272,224	-87,192	-0,093	-0,019
273,239	45,482	-0,115	-0,073
274,253	-81,731	-0,146	-0,033
275,268	50,726	-0,119	-0,078
276,282	27,092	-0,084	-0,048
277,297	5,235	-0,150	-0,076
278,312	82,421	-0,210	-0,157
279,326	241,098	-0,121	-0,140
280,341	-181,908	-0,069	0,001
281,355	-36,068	-0,183	-0,068
282,370	-200,000	-0,045	-0,159
283,384	-71,658	-0,224	-0,057
284,399	11,414	-0,340	-0,179
285,414	9,805	-0,258	-0,134
286,428	69,541	-0,231	-0,164
287,443	47,431	-0,140	-0,090
288,457	-91,731	-0,138	-0,027
289,472	19,496	-0,148	-0,082
290,487	-191,738	-0,281	0,002
291,501	-106,961	-0,190	-0,029
292,516	317,330	-0,159	-0,208
293,530	145,338	-0,081	-0,075
294,545	216,529	-0,118	-0,130
295,560	-28,405	-0,125	-0,049
296,574	-69,484	-0,212	0,056
297,589	-98,834	-0,209	-0,036
298,603	-200,000	-0,199	-0,000
299,618	23,009	-0,233	-0,132
300,633	207,998	-0,128	-0,138
301,647	124,551	-0,169	-0,146
302,662	241,645	-0,106	-0,122
303,676	42,407	-0,152	-0,095
304,691	50,781	-0,154	-0,100
305,706	231,671	-0,173	-0,195
306,720	800,000	-0,061	-0,156
307,735	-55,943	-0,154	-0,047
308,749	16,932	-0,153	-0,083
309,764	-40,065	-0,176	-0,063
310,779	39,874	-0,029	-0,018
311,793	13,285	-0,125	-0,067
312,808	107,366	-0,155	-0,127
313,822	800,000	-0,092	-0,177
314,837	800,000	-0,082	-0,204
315,852	11,100	-0,046	-0,024
316,866	-200,000	-0,040	-0,156
317,881	-139,809	-0,212	-0,015
318,895	-200,000	-0,018	-0,167
319,910	84,742	-0,258	-0,194
320,925	14,741	-0,136	-0,073
321,939	-125,755	-0,080	0,008
322,954	-200,000	-0,007	-0,069
323,968	-200,000	0,001	0,086
324,983	-128,739	-0,114	-0,011
325,997	132,400	-0,122	-0,108
327,012	-82,934	-0,110	-0,024
328,027	509,249	-0,150	-0,241
329,041	349,994	-0,080	-0,109
330,056	800,000	-0,047	-0,117
331,070	2,162	-0,173	-0,086
332,085	-156,890	-0,101	0,004
333,100	-7,469	-0,194	-0,090
334,114	631,150	-0,070	-0,123
335,129	21,723	-0,181	-0,101
336,143	107,414	-0,110	-0,090
337,158	-82,310	-0,237	-0,052
338,173	-48,417	-0,109	-0,036
339,187	144,024	-0,088	-0,081
340,202	-36,584	-0,094	0,035
341,216	179,949	-0,235	-0,237
342,231	-200,000	-0,036	-0,199
343,246	167,621	-0,166	-0,162
344,260	-91,323	-0,253	-0,049
345,275	350,505	-0,131	-0,178
346,289	404,562	0,023	-0,033
347,304	432,443	-0,073	-0,110
348,319	-37,212	-0,253	-0,092
349,333	-31,270	-0,232	-0,089
350,348	166,279	-0,168	-0,163
351,362	212,201	-0,096	-0,104
352,377	80,715	0,026	-0,019
353,392	-74,905	-0,105	0,026
354,406	-118,422	-0,193	-0,023
355,421	207,508	1314,017	1407,213
356,435	159,628	1474,652	1407,698
