DTS Sentinel unit serial number:	SN410029Multiplexer serial number:	ORYXHardware model number:	OX2-SRSoftware version number:	ORYX F/W v4,00 Oryx Data Collector v3.7.2.0data status	okinstallation	B3 Nyhavnadifferential loss correction	single-endedforward channel	channel 1reverse channel	N/Adate	2023/12/01time	17:32:30forward acquisition time	300,00reverse acquisition time	0,00gamma	499,1914k internal	0,3204k external	0,3204temperature offset calibration	1,0000default loss term (dB/km)	0,3820temperature slope calibration	1,0000multiplexer offset coefficient	1,0000multiplexer slope coefficient	1,0000fibre end	0,00T internal ref (°C)	14,19T ext. ref 1 (°C)	0,28T ext. ref 2 (°C)	0,25length (m)	temperature (°C)	Stokes	anti-Stokes-744,400	-27,124	-0,269	-0,114
-743,385	800,000	0,116	0,274
-742,371	149,548	-0,217	-0,214
-741,356	-200,000	-0,019	0,288
-740,342	494,726	-0,199	-0,333
-739,327	-200,000	0,043	0,263
-738,312	502,452	-0,142	-0,240
-737,298	707,458	-0,118	0,228
-736,283	800,000	-0,102	-0,257
-735,269	-200,000	0,027	0,310
-734,254	-200,000	-0,049	-0,234
-733,239	-41,628	-0,255	0,095
-732,225	800,000	-0,110	-0,265
-731,210	45,571	0,178	0,119
-730,196	-80,850	0,051	0,012
-729,181	468,297	-0,070	0,114
-728,167	137,239	-0,061	-0,058
-727,152	-32,237	0,054	-0,022
-726,137	-89,277	-0,174	-0,037
-725,123	800,000	0,013	-0,041
-724,108	565,721	-0,088	-0,156
-723,094	634,745	-0,075	-0,139
-722,079	-87,572	-0,150	0,033
-721,064	12,744	0,037	0,021
-720,050	470,614	-0,053	0,087
-719,035	-127,579	0,093	-0,010
-718,021	-200,000	0,000	-0,092
-717,006	116,219	-0,252	-0,224
-715,991	-200,000	0,001	0,053
-714,977	-192,511	-0,019	-0,000
-713,962	-195,337	-0,050	0,000
-712,948	-200,000	0,007	0,056
-711,933	800,000	-0,028	0,071
-710,918	511,716	0,046	0,079
-709,904	96,902	-0,053	-0,044
-708,889	68,610	-0,058	-0,043
-707,875	341,569	-0,054	-0,077
-706,860	-4,661	0,055	-0,028
-705,845	800,000	0,026	0,062
-704,831	236,773	0,041	0,049
-703,816	-200,000	-0,017	0,069
-702,802	152,269	0,060	-0,059
-701,787	800,000	-0,048	-0,109
-700,772	-200,000	0,004	-0,070
-699,758	-132,352	0,165	0,015
-698,743	541,840	0,032	-0,056
-697,729	408,655	0,071	-0,110
-696,714	682,439	-0,092	0,175
-695,699	800,000	0,086	-0,226
-694,685	102,669	-0,057	-0,049
-693,670	357,175	-0,022	0,032
-692,656	184,445	0,067	0,072
-691,641	800,000	0,035	-0,077
-690,627	-200,000	0,001	-0,035
-689,612	-116,038	-0,051	0,007
-688,597	111,052	0,038	-0,033
-687,583	89,000	-0,033	0,026
-686,568	125,619	-0,154	-0,141
-685,554	-63,279	0,076	-0,023
-684,539	-200,000	-0,015	0,086
-683,524	7,087	0,107	0,058
-682,510	40,876	-0,092	0,060
-681,495	800,000	0,056	-0,143
-680,481	-200,000	0,009	-0,113
-679,466	233,282	0,085	-0,101
-678,451	-20,925	0,111	-0,049
-677,437	-143,655	0,084	-0,006
-676,422	-200,000	0,036	0,128
-675,408	135,682	-0,035	-0,033
-674,393	107,551	0,050	-0,043
-673,378	18,899	-0,132	-0,077
-672,364	200,308	0,092	-0,103
-671,349	-200,000	-0,005	-0,142
-670,335	84,198	-0,056	-0,044
-669,320	-137,711	0,116	0,009
-668,305	223,302	0,094	-0,110
-667,291	800,000	-0,057	0,136
-666,276	-49,150	-0,051	-0,018
-665,262	-200,000	-0,014	-0,109
-664,247	189,272	-0,079	-0,086
-663,232	-141,937	0,090	0,006
-662,218	31,933	0,112	-0,070
-661,203	737,829	-0,037	0,073
-660,189	-27,696	-0,066	0,028
-659,174	-124,060	-0,035	0,004
-658,159	-200,000	-0,026	0,100
-657,145	50,895	0,046	-0,032
-656,130	800,000	-0,031	-0,085
-655,116	-200,000	-0,013	-0,107
-654,101	-2,572	0,106	0,054
-653,086	-111,270	0,087	0,013
-652,072	-47,986	-0,028	-0,010
-651,057	576,013	-0,073	-0,130
-650,043	18,549	-0,188	-0,109
-649,028	-139,564	-0,181	-0,014
-648,014	437,520	-0,013	0,021
-646,999	409,860	-0,084	0,130
-645,984	-200,000	-0,008	0,099
-644,970	-82,054	-0,095	-0,022
-643,955	798,525	-0,066	-0,132
-642,941	-200,000	-0,025	-0,085
-641,926	406,566	-0,061	0,093
-640,911	-68,085	-0,086	0,024
-639,897	800,000	0,032	-0,070
-638,882	-200,000	-0,053	0,202
-637,868	-200,000	-0,050	0,166
-636,853	157,472	-0,110	0,110
-635,838	-156,915	-0,017	0,001
-634,824	602,426	0,029	-0,052
-633,809	-200,000	-0,022	-0,118
-632,795	-78,120	0,061	-0,015
-631,780	79,943	0,077	0,060
-630,765	54,661	-0,094	-0,066
-629,751	800,000	-0,076	-0,186
-628,736	25,721	-0,134	-0,081
-627,722	-103,306	0,106	-0,018
-626,707	5,360	-0,030	0,016
-625,692	566,411	0,044	-0,078
-624,678	-200,000	-0,009	0,086
-623,663	-200,000	0,011	0,079
-622,649	-142,192	-0,160	0,011
-621,634	800,000	0,058	-0,146
-620,619	800,000	-0,078	-0,203
-619,605	136,357	0,049	0,046
-618,590	245,727	0,068	0,083
-617,576	-80,652	-0,044	0,011
-616,561	61,773	0,043	0,031
-615,546	800,000	-0,014	-0,037
-614,532	341,225	0,125	-0,177
-613,517	-85,114	-0,187	-0,042
-612,503	-21,642	-0,077	0,034
-611,488	-200,000	-0,017	0,067
-610,474	6,290	-0,035	0,019
-609,459	100,318	-0,087	-0,073
-608,444	800,000	-0,042	0,111
-607,430	11,408	-0,084	-0,047
-606,415	-200,000	-0,028	-0,134
-605,401	558,631	0,075	-0,132
-604,386	318,584	0,081	0,111
-603,371	3,687	0,110	0,058
-602,357	-157,814	0,117	-0,005
-601,342	-108,020	0,062	0,010
-600,328	800,000	0,043	0,112
-599,313	30,500	-0,021	0,013
-598,298	66,511	-0,024	0,017
-597,284	-87,421	-0,185	0,040
-596,269	-129,942	0,084	0,008
-595,255	-34,168	0,023	0,009
-594,240	-55,879	-0,084	0,027
-593,225	99,814	-0,029	0,024
-592,211	-150,604	0,055	0,003
-591,196	63,226	-0,140	-0,101
-590,182	265,248	0,022	0,027
-589,167	509,059	0,079	0,132
-588,152	101,128	-0,090	0,075
-587,138	-43,288	0,134	-0,049
-586,123	-200,000	-0,017	-0,099
-585,109	-200,000	0,013	-0,137
-584,094	-104,891	0,130	-0,021
-583,079	131,224	0,045	-0,042
-582,065	800,000	-0,064	0,141
-581,050	442,986	0,065	0,103
-580,036	-85,542	-0,149	-0,033
-579,021	-24,436	-0,098	-0,042
-578,006	37,402	-0,035	0,022
-576,992	765,211	-0,068	-0,135
-575,977	-55,848	-0,069	0,022
-574,963	51,051	-0,049	0,034
-573,948	-130,737	0,033	-0,003
-572,934	-200,000	-0,010	-0,186
-571,919	800,000	-0,066	-0,147
-570,904	-200,000	-0,014	-0,111
-569,890	5,737	0,035	0,019
-568,875	742,311	-0,018	-0,035
-567,861	-78,117	0,147	0,036
-566,846	18,683	0,071	0,041
-565,831	250,817	0,093	-0,115
-564,817	771,134	0,050	-0,098
-563,802	-200,000	0,000	-0,059
-562,788	-56,804	-0,074	-0,023
-561,773	-200,000	0,175	0,001
-560,758	-200,000	0,014	-0,110
-559,744	800,000	-0,026	0,059
-558,729	-200,000	0,019	0,124
-557,715	74,958	-0,086	-0,066
-556,700	-151,295	-0,092	-0,005
-555,685	556,199	0,019	-0,034
-554,671	800,000	0,031	-0,073
-553,656	612,110	-0,015	-0,026
-552,642	-200,000	-0,009	0,094
-551,627	397,615	0,028	0,042
-550,612	800,000	-0,038	-0,095
-549,598	-71,436	-0,032	0,009
-548,583	-12,218	0,081	-0,038
-547,569	-17,510	0,063	-0,028
-546,554	77,837	0,021	0,016
-545,539	800,000	0,049	0,116
-544,525	-200,000	0,030	0,137
-543,510	-47,709	-0,068	0,024
-542,496	-200,000	-0,005	-0,065
-541,481	800,000	-0,020	-0,056
-540,466	-153,606	0,101	0,005
-539,452	-200,000	0,004	0,123
-538,437	-115,216	-0,058	0,008
-537,423	-40,099	-0,129	-0,048
-536,408	-25,271	0,080	-0,034
-535,393	-96,050	-0,099	0,019
-534,379	-70,006	0,043	0,012
-533,364	20,570	-0,041	0,024
-532,350	-71,118	0,081	0,022
-531,335	-11,469	0,129	0,061
-530,321	22,366	0,020	0,012
-529,306	48,272	-0,158	-0,106
-528,291	-200,000	0,011	-0,064
-527,277	-119,804	0,049	-0,006
-526,262	800,000	0,016	-0,048
-525,248	79,727	0,076	-0,059
-524,233	800,000	-0,065	0,147
-523,218	428,135	0,084	0,131
-522,204	330,015	0,103	0,144
-521,189	-43,600	-0,061	-0,022
-520,175	-200,000	-0,011	-0,057
-519,160	-88,787	-0,169	-0,036
-518,145	81,663	0,055	0,043
-517,131	-96,002	-0,191	-0,036
-516,116	-200,000	0,001	0,086
-515,102	-200,000	-0,017	-0,067
-514,087	-158,181	0,065	0,003
-513,072	237,269	-0,117	-0,140
-512,058	442,495	0,057	-0,089
-511,043	460,479	0,040	-0,065
-510,029	-27,468	0,069	0,029
-509,014	723,952	-0,026	-0,050
-507,999	259,762	0,062	-0,078
-506,985	-4,767	-0,082	-0,041
-505,970	-11,038	-0,120	-0,057
-504,956	477,509	-0,083	-0,136
-503,941	-200,000	0,001	0,116
-502,926	800,000	0,060	0,151
-501,912	104,077	-0,077	-0,065
-500,897	427,155	-0,036	-0,055
-499,883	800,000	0,096	0,247
-498,868	-200,000	-0,015	0,075
-497,853	336,169	-0,115	-0,161
-496,839	56,557	0,051	0,036
-495,824	240,023	0,101	0,122
-494,810	800,000	0,039	0,120
-493,795	-31,988	-0,037	0,015
-492,781	-74,669	0,202	0,052
-491,766	-200,000	0,044	-0,162
-490,751	89,024	-0,043	0,034
-489,737	104,988	-0,064	0,054
-488,722	131,768	-0,082	-0,076
-487,708	481,058	0,059	0,096
-486,693	196,175	0,099	0,108
-485,678	75,772	-0,087	0,066
-484,664	156,926	-0,073	-0,073
-483,649	498,212	-0,050	0,082
-482,635	-152,141	-0,079	0,004
-481,620	-116,911	0,062	0,008
-480,605	-27,270	-0,090	-0,038
-479,591	800,000	-0,016	0,037
-478,576	73,287	0,026	0,019
-477,562	-200,000	0,010	-0,082
-476,547	597,173	0,046	0,083
-475,532	-161,502	0,075	-0,003
-474,518	-200,000	0,007	-0,094
-473,503	800,000	0,054	0,133
-472,489	-134,125	0,183	-0,016
-471,474	656,175	-0,002	0,004
-470,459	-109,531	0,074	-0,011
-469,445	800,000	-0,056	-0,174
-468,430	-184,054	-0,042	-0,000
-467,416	207,879	-0,059	-0,066
-466,401	133,386	0,050	-0,046
-465,386	-200,000	0,005	-0,098
-464,372	-114,251	0,024	-0,003
-463,357	649,478	-0,054	0,100
-462,343	-200,000	0,009	-0,098
-461,328	-4,175	-0,205	0,102
-460,313	800,000	-0,042	-0,107
-459,299	-200,000	0,029	0,124
-458,284	800,000	0,040	0,082
-457,270	323,050	-0,068	0,093
-456,255	101,495	0,094	0,079
-455,241	-200,000	-0,018	-0,086
-454,226	-77,194	0,108	-0,027
-453,211	-200,000	0,019	-0,113
-452,197	457,722	0,057	0,091
-451,182	271,737	-0,039	-0,050
-450,168	711,822	0,034	-0,066
-449,153	-7,641	-0,094	0,046
-448,138	552,980	0,061	-0,106
-447,124	264,214	-0,049	-0,062
-446,109	-16,105	0,087	-0,040
-445,095	-49,544	-0,109	-0,037
-444,080	-116,527	-0,101	0,013
-443,065	26,051	0,097	0,058
-442,051	318,327	0,052	-0,071
-441,036	382,355	0,090	-0,133
-440,022	30,900	0,111	-0,068
-439,007	-200,000	-0,015	-0,111
-437,992	31,649	0,018	0,011
-436,978	77,585	0,095	0,073
-435,963	800,000	-0,046	0,097
-434,949	-36,619	-0,054	0,021
-433,934	257,992	0,031	0,039
-432,919	83,514	0,106	0,083
-431,905	-180,008	-0,055	-0,001
-430,890	-200,000	0,004	0,050
-429,876	-170,521	-0,103	0,003
-428,861	72,695	0,065	-0,049
-427,846	-200,000	0,029	0,102
-426,832	10,315	0,079	-0,043
-425,817	48,930	-0,095	-0,064
-424,803	262,406	-0,002	-0,003
-423,788	-74,960	0,109	-0,028
-422,773	-200,000	0,005	0,120
-421,759	-200,000	0,006	0,077
-420,744	260,498	0,071	0,089
-419,730	70,849	-0,076	-0,056
-418,715	-95,542	-0,054	0,010
-417,701	-89,110	-0,046	0,010
-416,686	-26,076	-0,056	-0,024
-415,671	83,608	0,031	-0,024
-414,657	-200,000	0,000	0,088
-413,642	15,764	-0,128	-0,072
-412,628	-12,117	-0,118	0,055
-411,613	189,951	-0,040	-0,043
-410,598	-105,808	-0,154	-0,025
-409,584	-200,000	0,026	-0,093
-408,569	-86,838	0,111	0,024
-407,555	58,122	0,139	0,097
-406,540	430,334	0,041	0,064
-405,525	306,938	0,054	-0,072
-404,511	-200,000	-0,007	0,035
-403,496	-200,000	-0,009	-0,068
-402,482	284,372	0,058	0,075
-401,467	-200,000	0,034	0,216
-400,452	-200,000	-0,002	0,090
-399,438	-186,421	-0,015	0,000
-398,423	-200,000	-0,006	-0,044
-397,409	-28,386	-0,031	-0,013
-396,394	210,545	0,057	-0,064
-395,379	38,421	0,049	0,031
-394,365	41,186	-0,058	-0,037
-393,350	-200,000	-0,008	0,070
-392,336	-200,000	-0,039	0,168
-391,321	-38,743	0,091	0,034
-390,306	800,000	0,050	-0,132
-389,292	-75,635	-0,093	-0,023
-388,277	-200,000	0,019	0,098
-387,263	22,413	0,128	0,075
-386,248	800,000	0,021	0,056
-385,233	-12,102	0,065	0,030
-384,219	155,828	-0,087	-0,086
-383,204	488,650	-0,068	-0,112
-382,190	68,961	-0,062	0,046
-381,175	68,580	0,123	-0,090
-380,160	85,532	-0,037	-0,029
-379,146	-98,802	-0,208	-0,038
-378,131	600,238	-0,032	-0,058
-377,117	178,306	0,020	-0,021
-376,102	-54,171	0,032	0,010
-375,088	713,771	-0,098	-0,187
-374,073	-3,630	0,083	-0,041
-373,058	-32,556	0,008	-0,003
-372,044	107,517	0,120	0,102
-371,029	800,000	0,055	-0,154
-370,015	37,094	0,043	0,027
-369,000	-78,654	-0,055	-0,013
-367,985	-79,839	-0,087	0,021
-366,971	131,731	-0,035	-0,032
-365,956	-200,000	-0,027	0,100
-364,942	-200,000	0,004	0,031
-363,927	-25,047	0,146	-0,062
-362,912	787,597	0,028	0,055
-361,898	-200,000	-0,032	-0,102
-360,883	800,000	-0,072	-0,213
-359,869	125,019	-0,156	-0,141
-358,854	-200,000	-0,023	0,134
-357,839	263,210	0,079	-0,098
-356,825	146,299	-0,032	0,031
-355,810	-200,000	0,037	0,154
-354,796	88,628	0,076	0,060
-353,781	118,206	-0,022	0,019
-352,766	226,671	-0,048	0,056
-351,752	-10,911	-0,073	-0,034
-350,737	-1,273	0,088	-0,045
-349,723	-7,488	0,129	0,062
-348,708	-200,000	0,018	-0,076
-347,693	60,514	-0,042	0,030
-346,679	-6,564	0,090	-0,044
-345,664	-56,988	-0,159	-0,050
-344,650	-200,000	-0,012	-0,179
-343,635	-99,101	0,108	0,019
-342,620	800,000	0,062	0,165
-341,606	-200,000	-0,027	0,097
-340,591	800,000	-0,027	-0,077
-339,577	-200,000	0,013	-0,151
-338,562	-161,675	-0,067	0,002
-337,548	385,465	-0,021	-0,032
-336,533	-15,703	0,021	-0,010
-335,518	129,915	0,141	0,129
-334,504	430,130	0,057	0,089
-333,489	-72,833	-0,018	0,005
-332,475	-200,000	-0,008	-0,155
-331,460	-200,000	-0,001	-0,085
-330,445	474,179	-0,066	0,107
-329,431	139,133	0,067	-0,063
-328,416	-59,161	0,146	0,045
-327,402	800,000	0,013	0,025
-326,387	231,569	0,040	-0,047
-325,372	-173,028	-0,104	0,002
-324,358	-200,000	0,072	0,000
-323,343	-15,139	-0,115	0,053
-322,329	27,142	0,084	-0,050
-321,314	-5,594	0,084	-0,041
-320,299	-200,000	0,020	0,086
-319,285	-200,000	0,038	0,138
-318,270	-88,888	0,121	0,026
-317,256	118,514	-0,097	0,086
-316,241	-200,000	-0,011	0,071
-315,226	-82,633	0,111	0,026
-314,212	-4,328	0,112	0,055
-313,197	-200,000	0,017	0,105
-312,183	-200,000	0,017	-0,061
-311,168	414,667	-0,019	0,029
-310,153	-50,733	0,061	-0,020
-309,139	-200,000	0,007	-0,120
-308,124	-72,108	-0,028	0,007
-307,110	-88,069	0,042	-0,009
-306,095	-66,670	0,124	-0,035
-305,080	-36,977	-0,081	-0,031
-304,066	-200,000	-0,030	0,123
-303,051	229,448	-0,072	-0,084
-302,037	24,950	-0,055	-0,032
-301,022	-103,537	0,121	-0,020
-300,008	800,000	-0,029	0,065
-298,993	159,917	0,103	-0,102
-297,978	-200,000	0,002	-0,088
-296,964	-82,308	-0,185	0,043
-295,949	153,814	-0,092	0,090
-294,935	800,000	0,103	-0,207
-293,920	404,096	-0,059	-0,089
-292,905	-14,062	-0,003	0,001
-291,891	596,196	0,038	-0,067
-290,876	-200,000	0,003	0,036
-289,862	800,000	0,031	-0,087
-288,847	475,151	-0,041	0,066
-287,832	-167,967	-0,069	0,002
-286,818	-78,417	0,086	0,021
-285,803	-144,299	0,095	0,006
-284,789	666,831	0,030	0,055
-283,774	-106,240	0,073	0,011
-282,759	-200,000	-0,018	0,071
-281,745	800,000	0,038	0,075
-280,730	153,012	0,011	0,011
-279,716	-200,000	-0,016	0,069
-278,701	-200,000	0,005	0,041
-277,686	282,054	0,098	0,126
-276,672	600,576	0,097	0,172
-275,657	773,995	-0,033	0,065
-274,643	150,391	-0,081	0,078
-273,628	-47,956	0,088	0,030
-272,613	6,433	0,057	-0,030
-271,599	169,546	0,040	0,041
-270,584	-92,860	-0,044	-0,009
-269,570	-200,000	0,009	0,072
-268,555	800,000	0,042	0,118
-267,540	39,563	-0,156	-0,099
-266,526	209,456	-0,100	-0,112
-265,511	-54,791	0,080	-0,026
-264,497	-15,327	0,031	0,014
-263,482	-71,528	0,123	-0,033
-262,467	-138,280	0,137	0,011
-261,453	-200,000	0,032	0,190
-260,438	-200,000	0,008	-0,061
-259,424	3,475	-0,096	-0,050
-258,409	-200,000	-0,005	-0,127
-257,395	-200,000	-0,022	0,112
-256,380	-200,000	0,036	0,000
-255,365	800,000	0,055	0,120
-254,351	17,851	0,071	0,040
-253,336	800,000	0,107	-0,242
-252,322	-200,000	-0,012	-0,115
-251,307	333,524	0,060	0,083
-250,292	562,426	-0,059	-0,101
-249,278	249,821	0,046	-0,056
-248,263	120,312	-0,074	0,066
-247,249	-82,782	0,075	0,017
-246,234	-57,675	0,131	-0,041
-245,219	232,401	-0,038	0,044
-244,205	-90,762	-0,120	-0,025
-243,190	361,477	-0,056	-0,080
-242,176	-71,491	0,077	0,020
-241,161	420,449	0,087	-0,133
-240,146	527,109	0,053	-0,089
-239,132	-21,275	-0,141	-0,061
-238,117	121,578	0,037	-0,033
-237,103	71,234	0,070	-0,052
-236,088	-200,000	-0,004	-0,036
-235,073	-200,000	-0,004	0,069
-234,059	-31,613	-0,068	-0,027
-233,044	-200,000	0,033	0,234
-232,030	-156,743	-0,010	0,000
-231,015	-27,901	-0,076	-0,031
-230,000	-64,327	-0,110	0,032
-228,986	-137,050	-0,177	-0,014
-227,971	622,192	0,046	0,083
-226,957	800,000	0,016	0,050
-225,942	-22,552	0,107	-0,046
-224,927	-41,138	0,085	0,031
-223,913	-98,341	-0,064	0,012
-222,898	-62,954	0,050	0,015
-221,884	80,735	-0,108	-0,083
-220,869	150,936	-0,036	0,035
-219,855	-200,000	-0,034	0,216
-218,840	10,799	-0,251	0,136
-217,825	-124,553	0,030	0,003
-216,811	-23,636	-0,030	-0,013
-215,796	-140,187	0,082	-0,006
-214,782	-200,000	0,009	-0,083
-213,767	417,391	0,051	-0,077
-212,752	-156,250	0,068	-0,003
-211,738	291,729	0,055	-0,072
-210,723	-200,000	0,013	0,042
-209,709	212,754	-0,090	-0,102
-208,694	139,493	-0,044	0,041
-207,679	-114,717	0,030	0,004
-206,665	-28,446	0,106	0,043
-205,650	105,874	0,058	0,048
-204,636	-200,000	-0,004	0,043
-203,621	129,663	0,119	0,108
-202,606	109,868	-0,055	-0,047
-201,592	65,989	-0,022	-0,016
-200,577	-47,624	-0,051	0,018
-199,563	-32,861	-0,063	0,025
-198,548	101,340	-0,103	0,085
-197,533	-200,000	0,006	-0,033
-196,519	-200,000	0,014	-0,161
-195,504	-71,169	0,088	-0,023
-194,490	27,464	-0,046	-0,028
-193,475	8,266	0,087	-0,047
-192,460	800,000	0,036	0,089
-191,446	-200,000	0,006	-0,034
-190,431	119,527	0,121	-0,106
-189,417	496,739	-0,067	0,110
-188,402	800,000	0,032	0,080
-187,387	9,578	-0,056	-0,030
-186,373	140,041	-0,068	-0,064
-185,358	-24,906	-0,031	0,013
-184,344	-200,000	-0,006	-0,040
-183,329	87,557	0,072	0,057
-182,315	-200,000	0,008	0,046
-181,300	158,820	-0,079	-0,078
-180,285	39,629	-0,085	-0,054
-179,271	64,235	-0,142	0,101
-178,256	189,074	-0,068	0,073
-177,242	211,128	-0,060	-0,067
-176,227	-4,002	0,104	0,051
-175,212	-47,359	-0,111	0,038
-174,198	-200,000	-0,015	-0,052
-173,183	-116,276	-0,113	-0,015
-172,169	267,481	-0,053	-0,066
-171,154	199,099	-0,047	-0,051
-170,139	-200,000	-0,005	0,155
-169,125	-200,000	0,004	0,040
-168,110	-59,092	0,099	0,030
-167,096	-200,000	-0,022	0,101
-166,081	-200,000	-0,009	0,038
-165,066	-57,095	-0,044	0,014
-164,052	800,000	-0,066	-0,164
-163,037	-200,000	0,018	0,120
-162,023	-200,000	-0,025	0,079
-161,008	-39,133	0,095	-0,035
-159,993	171,182	0,069	-0,070
-158,979	395,960	-0,084	-0,125
-157,964	193,833	-0,051	0,055
-156,950	-35,850	0,071	0,027
-155,935	153,745	0,060	-0,058
-154,920	-39,145	-0,112	-0,042
-153,906	-127,206	-0,060	-0,006
-152,891	193,182	0,112	0,120
-151,877	430,874	-0,011	0,017
-150,862	39,679	-0,116	-0,074
-149,847	66,854	-0,093	0,067
-148,833	-200,000	-0,013	-0,070
-147,818	-200,000	0,003	-0,023
-146,804	-200,000	-0,007	0,048
-145,789	-6,067	-0,045	-0,022
-144,775	2,565	-0,096	-0,049
-143,760	108,322	-0,082	0,070
-142,745	52,306	-0,058	-0,039
-141,731	314,772	0,045	0,060
-140,716	105,460	-0,015	0,012
-139,702	157,792	-0,090	-0,089
-138,687	-200,000	0,024	0,243
-137,672	223,973	-0,065	0,074
-136,658	-55,144	0,076	-0,024
-135,643	66,367	0,052	0,037
-134,629	-90,808	-0,039	-0,008
-133,614	-200,000	-0,021	0,109
-132,599	-66,441	0,068	-0,019
-131,585	800,000	0,035	0,078
-130,570	64,017	0,022	0,016
-129,556	-50,765	0,045	0,015
-128,541	-32,648	-0,120	-0,047
-127,526	337,236	0,084	-0,116
-126,512	-200,000	-0,003	0,073
-125,497	-104,706	0,038	0,006
-124,483	193,954	-0,042	-0,045
-123,468	800,000	-0,031	0,091
-122,453	-3,431	-0,115	0,057
-121,439	56,835	0,097	0,067
-120,424	-140,874	-0,079	0,006
-119,410	180,022	-0,006	0,007
-118,395	-200,000	0,011	-0,036
-117,380	-200,000	-0,004	0,017
-116,366	469,238	-0,035	0,057
-115,351	-47,930	0,047	0,016
-114,337	-200,000	0,018	0,086
-113,322	800,000	-0,065	0,173
-112,307	-160,315	0,077	0,003
-111,293	-35,037	0,044	0,017
-110,278	-73,588	0,121	-0,031
-109,264	231,847	-0,095	0,111
-108,249	211,032	0,036	0,040
-107,234	-180,777	0,066	-0,001
-106,220	-200,000	0,010	-0,085
-105,205	479,783	0,041	-0,066
-104,191	-200,000	0,007	0,085
-103,176	-90,002	-0,031	0,006
-102,162	177,679	-0,016	0,017
-101,147	-76,166	-0,129	-0,032
-100,132	-129,962	-0,093	0,009
-99,118	114,412	-0,132	-0,114
-98,103	353,141	0,074	0,104
-97,089	356,794	0,065	0,092
-96,074	-118,627	-0,035	-0,004
-95,059	800,000	0,060	-0,148
-94,045	800,000	0,059	-0,147
-93,030	-200,000	0,016	-0,068
-92,016	-117,623	-0,255	0,032
-91,001	800,000	-0,017	0,034
-89,986	-125,605	0,084	-0,009
-88,972	800,000	-0,031	0,061
-87,957	48,577	-0,082	-0,054
-86,943	-200,000	0,016	-0,076
-85,928	241,404	0,052	-0,061
-84,913	59,242	0,061	-0,043
-83,899	-200,000	0,008	0,025
-82,884	97,386	-0,021	0,017
-81,870	800,000	0,034	-0,071
-80,855	167,610	0,067	-0,068
-79,840	800,000	-0,010	-0,031
-78,826	800,000	0,089	0,189
-77,811	-113,422	0,036	-0,005
-76,797	-36,368	0,132	0,050
-75,782	-200,000	0,005	0,056
-74,767	716,281	0,022	-0,042
-73,753	800,000	-0,077	0,164
-72,738	-181,481	0,029	-0,000
-71,724	473,736	-0,094	0,151
-70,709	-96,090	-0,046	-0,009
-69,694	-101,992	0,086	-0,015
-68,680	800,000	0,036	0,083
-67,665	-200,000	0,060	0,200
-66,651	-200,000	0,007	0,070
-65,636	-200,000	-0,045	-0,148
-64,622	-110,011	-0,051	-0,008
-63,607	651,499	-0,041	-0,075
-62,592	305,065	0,126	0,165
-61,578	239,168	0,033	-0,038
-60,563	-77,361	0,048	-0,012
-59,549	-200,000	-0,001	-0,082
-58,534	-26,215	-1,396	-0,578
-57,519	376,233	-1,508	-2,183
-56,505	-200,000	-0,428	-4,288
-55,490	220,126	0,900	1,022
-54,476	800,000	4,996	11,370
-53,461	-200,000	18,564	299,134
-52,446	800,000	731,034	2254,102
-51,432	556,487	1645,746	2815,696
-50,417	78,343	1665,102	1256,533
-49,403	22,062	1538,402	885,518
-48,388	16,043	1461,416	812,085
-47,373	17,920	1451,611	815,632
-46,359	17,018	1441,751	805,752
-45,344	14,339	1437,243	790,429
-44,330	14,250	1435,085	788,787
-43,315	14,234	1433,325	787,712
-42,300	14,294	1431,669	787,052
-41,286	14,300	1430,658	786,496
-40,271	14,273	1429,293	785,588
-39,257	14,257	1427,970	784,750
-38,242	14,333	1426,521	784,284
-37,227	14,305	1425,528	783,574
-36,213	14,300	1424,166	782,773
-35,198	14,260	1423,081	781,957
-34,184	14,322	1422,141	781,700
-33,169	14,253	1420,970	780,700
-32,154	14,313	1419,794	780,304
-31,140	14,307	1418,424	779,495
-30,125	14,295	1417,481	778,889
-29,111	14,306	1416,165	778,184
-28,096	14,292	1415,188	777,551
-27,082	14,208	1414,264	776,618
-26,067	14,227	1413,064	776,017
-25,052	14,238	1411,973	775,438
-24,038	14,194	1411,096	774,721
-23,023	14,194	1410,028	774,103
-22,009	14,215	1409,126	773,675
-20,994	14,165	1408,150	772,875
-19,979	14,140	1407,428	772,335
-18,965	14,144	1406,330	771,719
-17,950	14,154	1405,355	771,201
-16,936	14,175	1404,520	770,807
-15,921	14,080	1403,366	769,703
-14,906	14,110	1402,460	769,313
-13,892	14,171	1401,372	768,971
-12,877	14,128	1400,457	768,237
-11,863	14,151	1399,494	767,784
-10,848	14,128	1398,661	767,191
-9,833	14,081	1398,087	766,631
-8,819	14,031	1396,983	765,759
-7,804	13,962	1396,356	765,065
-6,790	14,025	1394,957	764,562
-5,775	14,051	1393,986	764,118
-4,760	14,008	1393,318	763,522
-3,746	14,029	1392,292	763,028
-2,731	14,012	1391,318	762,389
-1,717	14,010	1390,521	761,910
-0,702	13,982	1388,777	760,797
0,313	17,985	1307,153	734,513
1,327	34,478	704,228	433,782
2,342	53,089	123,775	83,629
3,356	1,827	16,638	8,451
4,371	-2,658	3,170	1,562
5,386	-55,575	0,525	0,165
6,400	-200,000	-0,010	0,127
7,415	50,995	-0,178	-0,119
8,429	18,979	-0,319	-0,180
9,444	70,158	-0,247	-0,180
10,459	3,788	-0,320	-0,164
11,473	88,544	-0,168	-0,132
12,488	53,994	-0,291	-0,197
13,502	-8,168	-0,137	-0,065
14,517	-2,970	-0,384	-0,189
15,531	116,726	-0,250	-0,217
16,546	92,219	-0,395	-0,314
17,561	161,007	-0,350	-0,345
18,575	273,618	-0,104	-0,130
19,590	591,660	-0,206	-0,360
20,604	-85,418	-0,370	-0,081
21,619	177,083	-0,326	-0,335
22,634	94,683	-0,526	-0,421
23,648	12,364	-0,409	-0,222
24,663	108,953	-0,425	-0,358
25,677	65,606	-0,299	-0,214
26,692	42,232	-0,376	-0,240
27,707	55,249	-0,385	-0,262
28,721	37,451	-0,330	-0,206
29,736	-39,061	-0,401	-0,148
30,750	42,874	-0,394	-0,253
31,765	22,890	-0,385	-0,222
32,780	192,976	-0,326	-0,348
33,794	145,216	-0,259	-0,244
34,809	14,832	-0,415	-0,228
35,823	-4,289	-0,387	-0,188
36,838	155,628	-0,383	-0,372
37,853	48,155	-0,384	-0,253
38,867	53,197	-0,409	-0,276
39,882	47,333	-0,389	-0,255
40,896	34,074	-0,295	-0,181
41,911	71,272	-0,417	-0,305
42,926	61,889	-0,235	-0,165
43,940	47,728	-0,408	-0,268
44,955	157,077	-0,226	-0,220
45,969	80,396	-0,327	-0,248
46,984	-35,727	-0,402	-0,153
47,999	104,762	-0,334	-0,277
49,013	294,385	-0,124	-0,160
50,028	-56,584	-0,342	-0,106
51,042	259,842	-0,266	-0,324
52,057	254,577	-0,282	-0,340
53,071	67,096	-0,350	-0,250
54,086	-18,930	-0,305	-0,133
55,101	84,334	-0,258	-0,198
56,115	132,002	-0,330	-0,299
57,130	-6,003	-0,324	-0,155
58,144	121,844	-0,390	-0,343
59,159	120,446	-0,420	-0,367
60,174	-17,688	-0,431	-0,190
61,188	-35,033	-0,365	-0,139
62,203	94,948	-0,293	-0,235
63,217	198,192	-0,227	-0,245
64,232	-2,430	-0,373	-0,183
65,247	11,708	-0,388	-0,209
66,261	-20,682	-0,318	-0,137
67,276	277,078	-0,181	-0,227
68,290	136,224	-0,257	-0,236
69,305	-9,998	-0,299	-0,139
70,320	133,552	-0,356	-0,324
71,334	70,309	-0,205	-0,149
72,349	-10,006	-0,340	-0,158
73,363	182,639	-0,327	-0,340
74,378	425,114	-0,270	-0,410
75,393	45,834	-0,268	-0,174
76,407	78,034	-0,297	-0,222
77,422	88,442	-0,277	-0,216
78,436	2,475	-0,343	-0,174
79,451	64,486	-0,369	-0,261
80,466	-110,303	-0,421	-0,061
81,480	-1,162	-0,305	-0,151
82,495	95,285	-0,308	-0,247
83,509	800,000	-0,135	-0,295
84,524	14,329	-0,402	-0,219
85,539	143,443	-0,241	-0,226
86,553	-186,120	-0,358	-0,004
87,568	304,316	-0,103	-0,135
88,582	37,604	-0,319	-0,198
89,597	127,902	-0,191	-0,170
90,611	10,217	-0,293	-0,156
91,626	199,243	-0,195	-0,210
92,641	-139,947	-0,343	-0,025
93,655	375,325	-0,169	-0,243
94,670	141,973	-0,205	-0,191
95,684	-38,738	-0,258	-0,095
96,699	14,762	-0,367	-0,201
97,714	-25,236	-0,266	-0,110
98,728	8,938	-0,300	-0,158
99,743	56,586	-0,277	-0,188
100,757	-65,371	-0,424	-0,119
101,772	78,189	-0,255	-0,190
102,787	2,775	-0,384	-0,195
103,801	38,564	-0,282	-0,176
104,816	588,257	-0,185	-0,321
105,830	354,606	-0,141	-0,196
106,845	123,069	-0,198	-0,174
107,860	459,607	-0,165	-0,259
108,874	-24,331	-0,416	-0,173
109,889	-114,228	-0,362	-0,048
110,903	70,300	-0,315	-0,228
111,918	259,712	-0,222	-0,269
112,933	39,848	-0,220	-0,138
113,947	-198,456	-0,323	-0,001
114,962	-68,801	-0,195	-0,052
115,976	55,153	-0,313	-0,212
116,991	-63,860	-0,277	-0,079
118,006	480,357	-0,215	-0,343
119,020	-6,467	-0,306	-0,146
120,035	101,059	-0,231	-0,188
121,049	144,836	-0,255	-0,238
122,064	146,455	-0,154	-0,144
123,079	-31,392	-0,311	-0,122
124,093	62,473	-0,314	-0,219
125,108	111,728	-0,288	-0,243
126,122	633,039	-0,130	-0,231
127,137	-9,192	-0,256	-0,119
128,151	-9,008	-0,203	-0,095
129,166	542,414	-0,185	-0,310
130,181	-50,536	-0,271	-0,089
131,195	28,694	-0,229	-0,135
132,210	265,824	-0,231	-0,282
133,224	-75,629	-0,363	-0,090
134,239	-176,937	-0,172	0,003
135,254	-2,899	-0,218	-0,106
136,268	84,889	-0,184	-0,140
137,283	1,299	-0,266	-0,133
138,297	-12,885	-0,352	-0,160
139,312	367,895	-0,178	-0,252
140,327	323,511	-0,138	-0,184
141,341	23,538	-0,281	-0,161
142,356	175,351	-0,288	-0,292
143,370	-110,098	-0,220	-0,032
144,385	64,169	-0,208	-0,146
145,400	115,866	-0,298	-0,255
146,414	-61,818	-0,256	-0,074
147,429	227,041	-0,130	-0,148
148,443	38,823	-0,295	-0,183
149,458	132,865	-0,196	-0,177
150,473	60,284	-0,207	-0,143
151,487	393,838	-0,173	-0,252
152,502	378,670	-0,219	-0,313
153,516	351,803	-0,220	-0,305
154,531	-200,000	-0,066	-0,319
155,546	66,186	-0,221	-0,156
156,560	800,000	-0,062	-0,179
157,575	369,279	-0,122	-0,173
158,589	140,898	-0,109	-0,101
159,604	90,659	-0,221	-0,172
160,619	275,875	-0,192	-0,238
161,633	800,000	-0,149	-0,378
162,648	-47,241	-0,307	-0,104
163,662	124,747	-0,150	-0,131
164,677	800,000	-0,042	-0,084
165,692	-163,817	-0,219	0,007
166,706	-86,211	-0,192	-0,041
167,721	79,399	-0,215	-0,161
168,735	137,769	-0,325	-0,297
169,750	369,852	-0,144	-0,204
170,764	-74,667	-0,190	-0,047
171,779	25,643	-0,226	-0,131
172,794	-11,513	-0,357	-0,163
173,808	25,920	-0,295	-0,171
174,823	178,797	-0,266	-0,271
175,837	-71,751	-0,174	-0,045
176,852	318,850	-0,162	-0,214
177,867	106,373	-0,265	-0,218
178,881	235,851	-0,225	-0,259
179,896	35,484	-0,182	-0,111
180,910	-11,505	-0,276	-0,126
181,925	656,643	-0,157	-0,282
182,940	96,039	-0,258	-0,205
183,954	28,798	-0,234	-0,138
184,969	143,776	-0,188	-0,175
185,983	177,144	-0,181	-0,183
186,998	-25,325	-0,202	-0,083
188,013	74,074	-0,149	-0,109
189,027	131,700	-0,251	-0,224
190,042	264,529	-0,210	-0,255
191,056	-9,654	-0,134	-0,062
192,071	-72,381	-0,214	-0,055
193,086	112,498	-0,098	-0,082
194,100	47,487	-0,133	-0,086
195,115	40,459	-0,256	-0,160
196,129	2,665	-0,237	-0,119
197,144	53,257	-0,215	-0,143
198,159	268,638	-0,176	-0,214
199,173	-200,000	-0,104	-0,324
200,188	77,384	-0,242	-0,179
201,202	172,690	-0,144	-0,145
202,217	42,217	-0,127	-0,080
203,232	-65,986	-0,127	-0,035
204,246	78,818	-0,250	-0,185
205,261	374,636	-0,166	-0,235
206,275	-16,506	-0,214	-0,094
207,290	-200,000	-0,034	-0,125
208,304	-156,561	-0,252	0,011
209,319	444,703	-0,107	-0,164
210,334	-64,177	-0,210	0,059
211,348	112,960	-0,234	-0,197
212,363	162,282	-0,144	-0,141
213,377	149,696	-0,116	-0,109
214,392	129,189	-0,172	-0,153
215,407	746,717	-0,117	-0,219
216,421	40,977	-0,193	-0,121
217,436	800,000	-0,083	-0,163
218,450	27,057	-0,214	-0,124
219,465	90,507	-0,200	-0,155
220,480	-200,000	-0,025	-0,150
221,494	68,806	-0,255	-0,181
222,509	234,517	-0,124	-0,142
223,523	-87,328	-0,200	-0,042
224,538	-19,679	-0,150	-0,064
225,553	427,994	-0,116	-0,174
226,567	105,831	-0,243	-0,199
227,582	800,000	-0,136	-0,283
228,596	-84,267	-0,158	0,034
229,611	-75,350	-0,103	-0,025
230,626	-11,948	-0,178	-0,081
231,640	-72,599	-0,279	-0,071
232,655	-53,005	-0,183	-0,058
233,669	280,484	-0,161	-0,200
234,684	15,345	-0,183	-0,099
235,699	-12,396	-0,189	-0,085
236,713	-200,000	-0,060	-0,222
237,728	444,721	-0,116	-0,177
238,742	169,118	-0,200	-0,197
239,757	239,608	-0,229	-0,264
240,772	32,040	-0,284	-0,169
241,786	0,957	-0,248	-0,123
242,801	-136,192	-0,165	0,013
243,815	321,367	-0,126	-0,167
244,830	-31,804	-0,181	-0,070
245,844	196,580	-0,179	-0,189
246,859	800,000	-0,109	-0,213
247,874	-158,346	-0,196	-0,008
248,888	800,000	-0,089	-0,174
249,903	-26,627	-0,124	-0,050
250,917	-189,967	-0,169	0,001
251,932	-200,000	0,024	-0,203
252,947	185,309	-0,276	-0,284
253,961	238,183	-0,127	-0,146
254,976	73,385	-0,241	-0,174
255,990	32,356	-0,259	-0,154
257,005	-41,037	-0,186	-0,066
258,020	703,828	-0,105	-0,191
259,034	-7,954	-0,139	-0,064
260,049	87,383	-0,101	-0,077
261,063	800,000	-0,100	-0,213
262,078	145,578	-0,172	-0,159
263,093	6,336	-0,268	-0,137
264,107	366,479	-0,118	-0,165
265,122	120,935	-0,190	-0,164
266,136	175,051	-0,180	-0,180
267,151	7,315	-0,206	-0,106
268,166	80,279	-0,222	-0,165
269,180	69,460	-0,226	-0,161
270,195	217,271	-0,117	-0,128
271,209	-66,443	-0,175	-0,048
272,224	800,000	-0,061	-0,127
273,239	476,412	0,006	0,009
274,253	58,765	-0,207	-0,140
275,268	-103,598	-0,261	-0,042
276,282	515,174	-0,141	-0,228
277,297	200,748	-0,215	-0,228
278,312	105,681	-0,229	-0,187
279,326	-13,961	-0,071	-0,031
280,341	-12,311	-0,171	-0,077
281,355	238,507	-0,151	-0,173
282,370	334,388	-0,024	-0,032
283,384	115,922	-0,219	-0,185
284,399	800,000	-0,099	-0,194
285,414	268,905	-0,131	-0,159
286,428	33,379	-0,078	-0,046
287,443	800,000	-0,049	-0,108
288,457	800,000	0,053	-0,130
289,472	382,020	-0,139	-0,197
290,487	-12,989	-0,172	-0,077
291,501	-7,860	-0,304	-0,141
292,516	800,000	-0,056	-0,136
293,530	4,430	-0,202	-0,102
294,545	-55,904	-0,122	0,037
295,560	72,698	-0,172	-0,124
296,574	-104,802	-0,152	-0,024
297,589	-126,259	-0,277	-0,028
298,603	800,000	-0,072	-0,152
299,618	-146,827	-0,192	-0,011
300,633	43,653	-0,232	-0,146
301,647	141,856	-0,129	-0,118
302,662	-86,763	-0,208	0,043
303,676	-165,230	-0,152	0,005
304,691	180,778	-0,155	-0,157
305,706	-200,000	-0,003	-0,171
306,720	273,239	-0,143	-0,174
307,735	88,358	-0,110	-0,084
308,749	-91,618	-0,159	0,031
309,764	-69,210	-0,013	0,004
310,779	4,519	-0,220	-0,111
311,793	-84,119	-0,123	-0,027
312,808	-30,982	-0,091	-0,035
313,822	-89,015	-0,105	-0,021
314,837	-24,171	-0,140	-0,057
315,852	705,937	-0,106	-0,194
316,866	135,924	-0,079	0,071
317,881	122,937	-0,108	-0,093
318,895	239,253	-0,125	-0,143
319,910	745,147	-0,109	-0,202
320,925	-106,251	-0,152	-0,023
321,939	-200,000	-0,026	-0,114
322,954	-3,382	-0,208	-0,099
323,968	348,645	-0,048	-0,065
324,983	-200,000	-0,009	0,111
325,997	20,522	-0,146	-0,081
327,012	149,485	-0,191	-0,178
328,027	0,092	-0,115	-0,056
329,041	800,000	-0,072	-0,139
330,056	-200,000	-0,062	-0,222
331,070	-110,296	-0,122	-0,017
332,085	-77,828	-0,182	0,043
333,100	203,135	-0,047	0,050
334,114	28,864	-0,102	0,059
335,129	800,000	-0,065	-0,149
336,143	-120,521	-0,181	-0,021
337,158	25,564	-0,066	-0,038
338,173	133,327	-0,147	-0,130
339,187	179,616	-0,085	-0,085
340,202	-172,077	-0,255	-0,006
341,216	-8,352	-0,168	-0,077
342,231	10,376	-0,075	0,039
343,246	-33,145	-0,117	-0,044
344,260	178,307	-0,035	-0,035
345,275	-200,000	0,005	-0,137
346,289	-23,904	-0,189	-0,077
347,304	320,318	-0,129	-0,168
348,319	-200,000	0,008	-0,163
349,333	33,406	-0,110	-0,066
350,348	-17,830	-0,240	-0,103
351,362	-44,435	-0,196	-0,067
352,377	-107,976	-0,102	0,015
353,392	-117,681	-0,059	0,007
354,406	-200,000	-0,019	-0,095
355,421	208,025	1313,238	1407,842
356,435	160,052	1473,784	1408,352
