DTS Sentinel unit serial number:	SN410029Multiplexer serial number:	ORYXHardware model number:	OX2-SRSoftware version number:	ORYX F/W v4,00 Oryx Data Collector v3.7.2.0data status	okinstallation	B3 Nyhavnadifferential loss correction	single-endedforward channel	channel 1reverse channel	N/Adate	2023/12/04time	21:17:30forward acquisition time	300,00reverse acquisition time	0,00gamma	499,1914k internal	0,3200k external	0,3200temperature offset calibration	1,0000default loss term (dB/km)	0,3820temperature slope calibration	1,0000multiplexer offset coefficient	1,0000multiplexer slope coefficient	1,0000fibre end	0,00T internal ref (°C)	14,51T ext. ref 1 (°C)	-0,29T ext. ref 2 (°C)	-0,30length (m)	temperature (°C)	Stokes	anti-Stokes-744,400	332,202	-0,121	-0,171
-743,385	-200,000	-0,038	0,346
-742,371	133,727	-0,269	-0,253
-741,356	800,000	0,106	0,252
-740,342	14,132	-0,081	-0,046
-739,327	-200,000	0,094	0,308
-738,312	800,000	-0,065	-0,205
-737,298	800,000	-0,090	0,270
-736,283	-200,000	-0,074	-0,256
-735,269	-200,000	0,053	0,332
-734,254	73,477	-0,268	-0,204
-733,239	-106,588	-0,263	0,042
-732,225	800,000	-0,112	-0,302
-731,210	114,714	0,166	0,147
-730,196	135,630	-0,019	-0,018
-729,181	-200,000	-0,034	-0,166
-728,167	-200,000	0,024	-0,120
-727,152	-200,000	-0,006	-0,175
-726,137	665,536	-0,084	-0,158
-725,123	143,611	0,022	-0,021
-724,108	545,724	-0,086	-0,149
-723,094	18,267	-0,159	-0,092
-722,079	-59,347	-0,080	0,025
-721,064	-60,390	0,070	0,021
-720,050	-200,000	-0,020	-0,111
-719,035	-60,481	-0,028	-0,009
-718,021	161,717	-0,088	-0,090
-717,006	-27,984	-0,082	0,034
-715,991	-164,502	0,063	-0,002
-714,977	800,000	-0,048	-0,115
-713,962	302,441	0,082	-0,110
-712,948	800,000	0,039	-0,085
-711,933	344,602	0,048	0,069
-710,918	-63,490	-0,109	-0,032
-709,904	-29,467	-0,031	0,013
-708,889	-200,000	0,033	-0,178
-707,875	-200,000	-0,000	-0,010
-706,860	800,000	0,017	-0,048
-705,845	-15,861	0,055	-0,025
-704,831	-139,264	-0,135	0,010
-703,816	72,678	0,051	0,039
-702,802	189,940	-0,031	0,034
-701,787	223,070	-0,072	0,084
-700,772	-95,785	-0,039	0,007
-699,758	337,869	0,041	-0,058
-698,743	97,850	0,051	-0,043
-697,729	101,019	-0,058	0,049
-696,714	493,889	0,044	0,074
-695,699	-200,000	0,015	0,085
-694,685	800,000	0,004	0,011
-693,670	-200,000	0,020	0,076
-692,656	800,000	-0,048	-0,119
-691,641	800,000	0,031	0,067
-690,627	459,871	0,066	-0,106
-689,612	-56,266	-0,078	0,025
-688,597	-200,000	-0,016	-0,069
-687,583	6,505	-0,120	0,064
-686,568	-38,656	-0,078	0,030
-685,554	140,429	0,135	-0,129
-684,539	364,651	-0,045	0,066
-683,524	-108,064	0,109	-0,017
-682,510	-17,091	0,181	-0,083
-681,495	108,618	-0,081	-0,070
-680,481	-200,000	-0,002	-0,224
-679,466	-200,000	-0,031	-0,154
-678,451	-124,528	0,055	-0,006
-677,437	-200,000	0,004	-0,014
-676,422	10,033	0,060	-0,033
-675,408	674,918	0,020	0,037
-674,393	800,000	-0,016	-0,038
-673,378	113,041	-0,082	0,072
-672,364	-200,000	0,007	-0,044
-671,349	750,116	-0,037	-0,072
-670,335	9,014	-0,014	-0,008
-669,320	-200,000	0,016	0,102
-668,305	158,709	0,041	0,042
-667,291	223,318	0,070	-0,082
-666,276	-73,323	-0,161	-0,042
-665,262	-200,000	0,001	-0,114
-664,247	449,648	-0,059	0,095
-663,232	110,823	-0,051	-0,044
-662,218	-33,679	0,142	-0,056
-661,203	468,426	0,051	-0,082
-660,189	0,506	0,069	0,036
-659,174	-45,224	-0,029	-0,010
-658,159	-54,401	-0,101	0,033
-657,145	413,131	-0,130	-0,201
-656,130	276,742	-0,035	-0,045
-655,116	-40,928	-0,097	0,036
-654,101	-118,022	0,143	0,018
-653,086	156,513	-0,059	-0,059
-652,072	-29,364	-0,077	0,032
-651,057	-100,039	-0,241	0,043
-650,043	-200,000	0,008	-0,039
-649,028	10,379	-0,056	0,031
-648,014	409,072	-0,007	-0,010
-646,999	97,069	0,117	-0,097
-645,984	-200,000	0,010	-0,073
-644,970	37,687	0,024	0,016
-643,955	-200,000	-0,002	0,071
-642,941	68,070	-0,037	0,027
-641,926	28,083	0,028	-0,017
-640,911	-200,000	0,005	-0,053
-639,897	193,699	0,021	-0,023
-638,882	800,000	-0,035	0,081
-637,868	-200,000	0,013	-0,051
-636,853	246,112	-0,073	-0,089
-635,838	800,000	0,022	0,065
-634,824	-200,000	0,025	-0,122
-633,809	800,000	-0,025	-0,078
-632,795	188,824	0,101	0,110
-631,780	14,174	0,123	0,069
-630,765	304,422	0,043	0,058
-629,751	-18,180	0,069	-0,031
-628,736	68,398	-0,090	-0,067
-627,722	-200,000	0,045	-0,164
-626,707	800,000	-0,023	0,060
-625,692	-200,000	-0,002	-0,145
-624,678	-200,000	0,002	-0,058
-623,663	-134,515	0,100	-0,009
-622,649	-79,687	-0,118	-0,029
-621,634	800,000	-0,042	-0,118
-620,619	133,675	-0,060	-0,057
-619,605	800,000	0,031	0,097
-618,590	-200,000	0,009	0,101
-617,576	-111,225	0,093	-0,014
-616,561	800,000	-0,037	0,077
-615,546	-60,869	-0,058	0,018
-614,532	-178,954	0,068	0,001
-613,517	-200,000	-0,001	0,084
-612,503	-200,000	0,004	0,045
-611,488	-200,000	0,008	-0,088
-610,474	-162,134	0,188	0,007
-609,459	-112,644	-0,086	-0,012
-608,444	-200,000	0,021	0,089
-607,430	316,121	-0,038	0,052
-606,415	-200,000	0,027	-0,120
-605,401	36,442	0,093	0,059
-604,386	11,397	0,038	0,021
-603,371	800,000	0,036	-0,079
-602,357	-200,000	0,006	-0,111
-601,342	-200,000	0,003	-0,047
-600,328	-200,000	0,012	0,100
-599,313	-79,834	-0,173	-0,042
-598,298	-19,071	-0,023	0,010
-597,284	800,000	-0,017	-0,039
-596,269	-200,000	-0,021	0,174
-595,255	-200,000	0,012	0,073
-594,240	800,000	0,022	-0,069
-593,225	-200,000	0,005	-0,093
-592,211	800,000	-0,021	0,053
-591,196	-20,981	0,059	-0,026
-590,182	800,000	0,032	-0,081
-589,167	-200,000	-0,006	0,035
-588,152	221,030	-0,023	0,027
-587,138	634,456	0,072	0,133
-586,123	-175,532	-0,084	-0,002
-585,109	-160,365	-0,093	-0,004
-584,094	-200,000	-0,115	0,000
-583,079	10,703	0,080	0,044
-582,065	800,000	-0,023	0,061
-581,050	-126,134	0,051	-0,005
-580,036	-139,251	-0,125	0,010
-579,021	286,468	-0,071	-0,093
-578,006	-200,000	0,001	-0,016
-576,992	0,727	-0,054	-0,028
-575,977	200,075	0,127	-0,142
-574,963	800,000	0,053	0,167
-573,948	-200,000	-0,016	0,059
-572,934	119,181	0,043	0,038
-571,919	-200,000	-0,005	-0,041
-570,904	29,164	-0,249	-0,152
-569,890	33,972	0,078	-0,049
-568,875	-67,675	0,176	0,050
-567,861	-200,000	0,024	-0,235
-566,846	-200,000	0,002	-0,055
-565,831	-54,338	-0,187	-0,061
-564,817	-6,453	0,119	-0,058
-563,802	351,956	-0,066	-0,095
-562,788	165,761	-0,076	-0,078
-561,773	-149,317	-0,032	-0,002
-560,758	107,479	0,108	-0,093
-559,744	289,150	0,011	0,014
-558,729	800,000	0,021	-0,067
-557,715	-200,000	-0,021	-0,087
-556,700	50,273	-0,111	-0,075
-555,685	-90,970	-0,125	0,026
-554,671	277,062	0,040	-0,052
-553,656	800,000	0,004	0,010
-552,642	148,694	-0,104	0,101
-551,627	-71,252	0,187	0,050
-550,612	319,087	0,057	0,078
-549,598	-60,372	-0,099	0,030
-548,583	268,524	-0,006	0,008
-547,569	-200,000	-0,011	-0,041
-546,554	-67,159	0,104	0,029
-545,539	800,000	0,024	0,064
-544,525	800,000	0,048	0,127
-543,510	120,308	-0,049	-0,044
-542,496	82,824	-0,074	-0,058
-541,481	-162,425	-0,046	-0,002
-540,466	653,807	-0,015	0,028
-539,452	22,097	-0,075	0,044
-538,437	117,821	0,094	-0,084
-537,423	-108,474	-0,029	-0,005
-536,408	-171,913	-0,149	-0,003
-535,393	-200,000	-0,014	-0,079
-534,379	191,596	-0,054	-0,059
-533,364	-200,000	0,023	-0,123
-532,350	556,022	-0,094	0,164
-531,335	190,750	0,025	0,028
-530,321	800,000	-0,049	0,103
-529,306	208,880	0,041	-0,047
-528,291	14,647	-0,079	-0,044
-527,277	-196,049	-0,088	0,000
-526,262	-8,135	0,085	0,041
-525,248	669,738	0,019	-0,035
-524,233	20,995	0,115	0,067
-523,218	755,279	-0,084	0,165
-522,204	221,841	0,079	0,092
-521,189	300,834	0,060	-0,080
-520,175	1,044	-0,055	-0,028
-519,160	-200,000	0,003	-0,170
-518,145	-150,284	-0,112	-0,006
-517,131	-49,571	0,081	0,028
-516,116	800,000	0,025	-0,062
-515,102	-28,064	0,051	-0,021
-514,087	-59,760	-0,085	-0,026
-513,072	800,000	0,055	-0,162
-512,058	-107,013	-0,131	-0,021
-511,043	126,824	-0,054	-0,049
-510,029	-200,000	0,048	0,162
-509,014	74,612	0,110	0,084
-507,999	-200,000	0,011	0,076
-506,985	-90,062	-0,073	-0,015
-505,970	208,967	0,049	-0,055
-504,956	130,613	-0,073	0,067
-503,941	120,144	-0,048	0,043
-502,926	88,872	0,140	0,112
-501,912	-200,000	-0,002	0,036
-500,897	-160,054	0,087	0,003
-499,883	-200,000	0,027	-0,096
-498,868	800,000	-0,047	0,120
-497,853	-124,464	0,060	0,007
-496,839	-136,362	0,087	-0,007
-495,824	-127,284	-0,062	0,006
-494,810	-165,792	0,085	-0,003
-493,795	-32,814	-0,058	0,023
-492,781	-178,519	0,166	-0,003
-491,766	-119,265	0,108	-0,013
-490,751	28,413	-0,018	-0,011
-489,737	-53,271	-0,195	-0,064
-488,722	-182,124	0,147	-0,002
-487,708	193,152	0,030	0,033
-486,693	268,482	0,039	0,050
-485,678	170,043	-0,056	-0,057
-484,664	301,390	-0,036	-0,048
-483,649	800,000	-0,080	-0,165
-482,635	7,919	0,071	0,038
-481,620	800,000	-0,015	-0,046
-480,605	-40,081	0,052	0,020
-479,591	148,848	-0,086	0,084
-478,576	83,797	0,068	0,054
-477,562	800,000	-0,047	-0,099
-476,547	52,925	-0,047	-0,033
-475,532	-200,000	0,035	0,164
-474,518	19,762	-0,186	0,108
-473,503	201,594	0,085	0,094
-472,489	-160,977	0,061	-0,002
-471,474	-45,157	-0,113	0,040
-470,459	-33,924	-0,135	0,053
-469,445	121,772	-0,116	0,104
-468,430	800,000	-0,023	0,058
-467,416	325,798	0,095	0,131
-466,401	663,389	-0,020	0,038
-465,386	-200,000	-0,001	-0,087
-464,372	49,255	-0,064	0,043
-463,357	-20,761	-0,086	0,038
-462,343	-67,019	0,007	-0,002
-461,328	181,532	-0,165	-0,174
-460,313	65,181	0,039	-0,029
-459,299	-58,741	0,099	0,031
-458,284	-22,483	0,076	0,033
-457,270	-200,000	-0,009	0,131
-456,255	241,371	0,065	0,078
-455,241	800,000	0,021	-0,053
-454,226	617,953	-0,045	-0,081
-453,211	-89,134	-0,078	0,017
-452,197	-72,189	0,080	0,021
-451,182	-200,000	0,036	0,127
-450,168	151,878	0,113	-0,111
-449,153	800,000	-0,043	-0,087
-448,138	-200,000	-0,045	-0,246
-447,124	-200,000	-0,032	-0,158
-446,109	652,355	-0,027	-0,050
-445,095	800,000	0,014	0,032
-444,080	697,653	0,022	-0,042
-443,065	-200,000	-0,005	0,129
-442,051	-85,480	-0,027	-0,006
-441,036	611,288	-0,073	-0,131
-440,022	35,103	-0,105	0,066
-439,007	800,000	-0,071	0,202
-437,992	169,854	-0,098	0,101
-436,978	-63,197	0,122	-0,036
-435,963	-200,000	-0,028	-0,142
-434,949	124,508	-0,008	-0,007
-433,934	-200,000	-0,033	-0,146
-432,919	447,372	0,051	-0,081
-431,905	-62,934	-0,148	-0,044
-430,890	327,006	-0,064	-0,088
-429,876	800,000	-0,028	0,061
-428,861	-200,000	0,004	-0,020
-427,846	800,000	-0,038	0,098
-426,832	464,488	-0,084	-0,135
-425,817	75,616	-0,071	-0,054
-424,803	-200,000	-0,001	-0,019
-423,788	-47,554	0,151	0,052
-422,773	-113,272	0,059	0,008
-421,759	-170,918	0,036	-0,001
-420,744	800,000	-0,026	0,056
-419,730	-200,000	-0,002	0,072
-418,715	119,826	0,014	-0,013
-417,701	-101,990	-0,047	0,008
-416,686	355,760	-0,057	0,081
-415,671	192,648	-0,064	0,069
-414,657	2,652	-0,056	-0,029
-413,642	-200,000	-0,010	0,101
-412,628	73,959	0,052	-0,040
-411,613	-96,489	0,010	0,002
-410,598	-200,000	-0,002	0,082
-409,584	-200,000	-0,007	0,034
-408,569	-66,892	0,163	0,046
-407,555	-51,160	-0,054	-0,018
-406,540	-46,333	-0,106	0,037
-405,525	-200,000	-0,020	0,102
-404,511	800,000	0,018	0,047
-403,496	-52,028	0,037	-0,012
-402,482	579,559	-0,060	0,107
-401,467	-26,336	0,118	0,049
-400,452	273,109	0,086	0,110
-399,438	234,153	-0,102	0,121
-398,423	784,341	0,051	0,100
-397,409	-90,948	-0,036	0,007
-396,394	14,790	-0,131	-0,073
-395,379	-200,000	0,002	0,042
-394,365	-200,000	0,013	0,046
-393,350	166,852	0,093	0,095
-392,336	-200,000	-0,007	0,128
-391,321	-200,000	-0,028	0,093
-390,306	-189,670	0,124	0,001
-389,292	198,464	-0,038	-0,042
-388,277	800,000	0,040	-0,080
-387,263	800,000	0,040	-0,098
-386,248	-200,000	-0,008	0,079
-385,233	-95,187	0,190	-0,036
-384,219	329,485	0,028	0,039
-383,204	-52,948	-0,190	0,062
-382,190	348,337	-0,100	-0,142
-381,175	711,576	-0,028	-0,054
-380,160	174,276	0,005	-0,005
-379,146	800,000	-0,059	0,128
-378,131	153,692	0,077	0,075
-377,117	-12,763	-0,127	0,059
-376,102	-45,674	0,112	-0,040
-375,088	325,061	-0,081	-0,111
-374,073	48,366	-0,171	0,115
-373,058	34,838	-0,029	0,018
-372,044	-165,392	0,036	0,001
-371,029	-200,000	-0,002	0,030
-370,015	377,891	-0,033	-0,048
-369,000	-167,192	0,087	-0,002
-367,985	800,000	0,018	-0,037
-366,971	-200,000	-0,014	0,084
-365,956	-0,758	-0,066	-0,033
-364,942	-75,368	0,098	0,025
-363,927	252,191	0,030	0,037
-362,912	332,452	0,028	0,038
-361,898	-80,640	0,100	0,024
-360,883	800,000	0,033	-0,098
-359,869	800,000	0,024	0,054
-358,854	800,000	-0,005	-0,015
-357,839	-135,292	0,102	0,009
-356,825	-200,000	0,010	-0,052
-355,810	-27,765	0,038	-0,016
-354,796	-200,000	-0,003	0,081
-353,781	120,300	-0,177	-0,157
-352,766	-106,718	0,010	-0,002
-351,752	-200,000	0,026	0,097
-350,737	-200,000	0,093	0,000
-349,723	-200,000	-0,035	-0,119
-348,708	800,000	0,021	0,056
-347,693	-162,045	-0,037	0,001
-346,679	-126,333	0,028	-0,003
-345,664	174,739	-0,044	0,046
-344,650	267,676	-0,060	0,075
-343,635	-200,000	0,042	0,168
-342,620	357,253	-0,017	0,025
-341,606	560,812	-0,023	0,041
-340,591	-200,000	-0,011	0,107
-339,577	17,095	0,107	-0,061
-338,562	800,000	-0,046	-0,105
-337,548	-69,308	-0,039	-0,011
-336,533	-200,000	0,008	-0,141
-335,518	-26,463	0,121	0,050
-334,504	-34,763	0,162	0,063
-333,489	-77,678	-0,112	0,028
-332,475	168,380	-0,179	-0,183
-331,460	-200,000	-0,003	-0,116
-330,445	218,102	0,060	-0,069
-329,431	683,937	-0,079	-0,148
-328,416	489,034	0,078	-0,127
-327,402	338,732	-0,076	0,106
-326,387	193,740	0,009	0,010
-325,372	-200,000	0,019	-0,085
-324,358	42,417	-0,171	-0,111
-323,343	800,000	0,034	0,099
-322,329	457,984	0,054	0,086
-321,314	800,000	0,049	0,104
-320,299	202,888	0,059	0,065
-319,285	-42,905	0,144	-0,052
-318,270	-14,376	-0,052	-0,024
-317,256	-200,000	0,022	0,138
-316,241	-200,000	0,003	-0,096
-315,226	800,000	-0,033	-0,090
-314,212	18,060	0,127	-0,072
-313,197	-200,000	-0,018	0,087
-312,183	219,555	-0,051	-0,059
-311,168	-47,679	0,081	0,028
-310,153	-96,505	-0,062	-0,012
-309,139	-6,849	-0,096	0,046
-308,124	160,717	-0,026	0,026
-307,110	-200,000	-0,002	-0,018
-306,095	470,072	0,056	-0,090
-305,080	92,042	0,084	0,068
-304,066	-200,000	-0,011	-0,035
-303,051	429,406	-0,048	0,075
-302,037	-200,000	0,013	0,064
-301,022	-69,338	0,090	-0,024
-300,008	800,000	-0,038	0,093
-298,993	800,000	-0,032	0,068
-297,978	800,000	-0,067	0,136
-296,964	800,000	0,021	0,065
-295,949	23,695	0,072	-0,042
-294,935	208,390	-0,036	-0,040
-293,920	586,848	0,029	0,051
-292,905	800,000	0,032	-0,071
-291,891	-61,992	0,068	0,020
-290,876	-93,209	0,099	0,020
-289,862	387,292	-0,022	0,033
-288,847	-200,000	-0,002	-0,058
-287,832	-54,757	0,098	0,031
-286,818	117,709	-0,135	0,119
-285,803	38,935	-0,086	0,055
-284,789	-7,047	0,054	0,026
-283,774	-200,000	0,005	-0,020
-282,759	31,043	0,034	-0,021
-281,745	336,457	0,020	0,029
-280,730	800,000	-0,060	-0,136
-279,716	49,597	0,204	-0,137
-278,701	800,000	0,047	0,100
-277,686	44,083	-0,088	0,057
-276,672	-200,000	-0,003	0,048
-275,657	173,278	0,085	0,087
-274,643	-200,000	0,015	-0,076
-273,628	36,780	-0,088	0,056
-272,613	-200,000	-0,012	-0,081
-271,599	-30,123	-0,104	0,042
-270,584	-200,000	0,027	0,086
-269,570	234,396	0,093	0,110
-268,555	3,997	-0,077	0,040
-267,540	-200,000	-0,027	0,093
-266,526	98,269	0,006	-0,005
-265,511	-7,643	0,028	-0,013
-264,497	44,899	0,040	0,026
-263,482	270,331	-0,007	0,009
-262,467	-34,504	0,092	0,036
-261,453	-200,000	0,017	0,080
-260,438	-156,500	-0,193	-0,008
-259,424	789,777	-0,056	0,111
-258,409	-200,000	-0,035	-0,119
-257,395	406,296	-0,030	-0,046
-256,380	-111,870	0,140	0,020
-255,365	3,884	-0,116	0,060
-254,351	64,228	0,036	0,026
-253,336	-200,000	-0,016	-0,077
-252,322	-70,396	-0,190	-0,051
-251,307	800,000	0,019	-0,054
-250,292	-77,773	-0,042	0,010
-249,278	-6,865	0,061	0,029
-248,263	-90,107	0,124	0,026
-247,249	-112,635	0,058	0,008
-246,234	-200,000	0,008	0,051
-245,219	-200,000	0,010	-0,062
-244,205	379,421	0,097	-0,142
-243,190	-74,911	0,029	-0,007
-242,176	800,000	0,025	-0,072
-241,161	235,400	-0,030	0,036
-240,146	800,000	0,046	0,108
-239,132	190,786	0,084	0,090
-238,117	-122,820	-0,039	-0,004
-237,103	-42,445	-0,052	-0,019
-236,088	182,733	-0,083	-0,087
-235,073	-200,000	0,006	0,076
-234,059	800,000	-0,024	-0,073
-233,044	253,180	0,105	0,128
-232,030	-2,037	0,064	0,032
-231,015	91,527	-0,032	0,026
-230,000	-200,000	-0,011	0,058
-228,986	444,830	-0,055	-0,087
-227,971	638,881	0,087	-0,158
-226,957	233,373	-0,041	-0,048
-225,942	-200,000	-0,011	0,059
-224,927	-104,978	-0,165	0,027
-223,913	-200,000	-0,014	-0,085
-222,898	-83,276	0,026	-0,006
-221,884	-200,000	-0,005	-0,026
-220,869	-64,586	0,192	-0,055
-219,855	-164,147	0,161	0,005
-218,840	293,556	0,052	-0,068
-217,825	27,922	0,120	-0,072
-216,811	-200,000	-0,010	-0,152
-215,796	65,940	0,099	-0,071
-214,782	61,068	0,024	0,017
-213,767	800,000	-0,032	0,091
-212,752	-200,000	0,003	0,016
-211,738	-146,525	0,108	0,007
-210,723	102,553	-0,053	0,044
-209,709	-200,000	0,029	-0,157
-208,694	-200,000	0,029	-0,123
-207,679	250,729	-0,031	-0,038
-206,665	214,852	0,022	-0,025
-205,650	-183,190	0,193	-0,002
-204,636	29,375	0,080	-0,048
-203,621	93,891	-0,127	-0,102
-202,606	100,979	-0,017	-0,014
-201,592	-60,903	-0,109	0,033
-200,577	562,885	0,028	0,048
-199,563	-200,000	-0,012	0,196
-198,548	-14,342	-0,092	-0,042
-197,533	-87,581	-0,064	0,014
-196,519	298,822	-0,029	0,037
-195,504	116,489	0,051	0,045
-194,490	-200,000	0,009	-0,029
-193,475	393,703	-0,054	-0,080
-192,460	45,384	0,095	0,062
-191,446	-112,061	0,126	0,018
-190,431	-200,000	0,022	0,110
-189,417	-200,000	0,002	0,094
-188,402	25,999	0,061	0,036
-187,387	-21,367	0,053	-0,023
-186,373	62,958	0,018	0,013
-185,358	-200,000	-0,021	-0,075
-184,344	-176,864	0,104	0,002
-183,329	-69,668	0,122	0,033
-182,315	-200,000	-0,010	-0,079
-181,300	-200,000	-0,006	-0,101
-180,285	35,512	-0,096	-0,060
-179,271	20,551	-0,100	0,057
-178,256	-41,711	-0,080	0,029
-177,242	-200,000	-0,013	-0,137
-176,227	-200,000	0,008	-0,085
-175,212	-78,764	-0,099	-0,024
-174,198	284,552	0,048	-0,062
-173,183	-83,226	-0,031	-0,007
-172,169	-121,537	-0,173	-0,020
-171,154	-200,000	0,020	-0,092
-170,139	-150,233	0,012	-0,001
-169,125	44,572	0,048	0,031
-168,110	-63,230	0,169	-0,049
-167,096	-65,728	0,102	0,029
-166,081	557,315	-0,103	0,178
-165,066	-200,000	-0,041	0,230
-164,052	-200,000	-0,032	-0,121
-163,037	57,238	-0,047	-0,033
-162,023	-120,454	-0,102	-0,012
-161,008	-200,000	-0,009	0,086
-159,993	800,000	0,046	-0,095
-158,979	31,914	-0,099	-0,061
-157,964	502,000	-0,008	0,013
-156,950	-12,207	-0,126	-0,058
-155,935	-142,978	-0,056	0,004
-154,920	478,060	0,080	-0,129
-153,906	134,226	0,074	-0,068
-152,891	107,210	-0,073	-0,062
-151,877	-130,638	0,033	-0,003
-150,862	-200,000	-0,008	-0,084
-149,847	800,000	-0,063	-0,137
-148,833	800,000	0,015	0,038
-147,818	-51,034	0,120	-0,040
-146,804	220,359	0,110	0,126
-145,789	-152,981	0,007	-0,000
-144,775	-200,000	-0,009	-0,029
-143,760	138,484	-0,058	0,054
-142,745	106,972	0,008	-0,007
-141,731	-32,737	0,106	0,042
-140,716	31,480	0,181	-0,110
-139,702	-48,151	0,079	0,027
-138,687	369,548	0,098	0,141
-137,672	-200,000	-0,019	-0,081
-136,658	-18,837	0,042	0,019
-135,643	374,194	-0,090	0,131
-134,629	74,521	0,092	-0,068
-133,614	365,991	-0,011	0,015
-132,599	800,000	0,029	0,058
-131,585	800,000	-0,027	0,075
-130,570	90,837	0,072	0,058
-129,556	800,000	0,017	0,039
-128,541	-39,000	0,030	0,011
-127,526	5,386	-0,118	0,062
-126,512	-68,147	0,056	-0,015
-125,497	-11,983	0,190	0,088
-124,483	-62,119	0,103	0,030
-123,468	-200,000	-0,010	0,062
-122,453	201,883	-0,083	-0,091
-121,439	53,385	0,087	-0,059
-120,424	69,522	-0,058	-0,042
-119,410	-188,288	-0,049	0,000
-118,395	800,000	0,053	-0,120
-117,380	-200,000	0,003	-0,031
-116,366	-200,000	-0,005	0,030
-115,351	92,557	0,116	0,093
-114,337	-200,000	0,005	0,099
-113,322	-74,163	-0,091	-0,023
-112,307	-200,000	-0,030	0,106
-111,293	-67,684	-0,047	-0,013
-110,278	267,345	0,125	0,155
-109,264	800,000	0,021	-0,055
-108,249	-20,596	-0,116	-0,050
-107,234	-49,789	0,061	0,020
-106,220	-200,000	0,023	-0,115
-105,205	-200,000	0,005	0,260
-104,191	380,395	0,054	-0,079
-103,176	800,000	-0,069	-0,150
-102,162	-200,000	-0,070	0,267
-101,147	-71,259	0,099	0,026
-100,132	85,790	0,019	-0,015
-99,118	-60,465	-0,039	-0,012
-98,103	281,774	0,040	0,051
-97,089	-143,960	0,089	0,006
-96,074	-50,638	-0,144	-0,048
-95,059	-97,311	0,077	0,014
-94,045	68,046	0,093	0,068
-93,030	-167,067	-0,065	-0,002
-92,016	-101,457	-0,104	0,018
-91,001	-153,324	0,151	-0,007
-89,986	-200,000	-0,015	0,053
-88,972	-36,123	0,180	0,068
-87,957	-24,430	0,079	-0,033
-86,943	800,000	-0,078	-0,222
-85,928	-200,000	0,017	-0,211
-84,913	-200,000	-0,007	0,134
-83,899	72,207	0,098	-0,072
-82,884	741,192	-0,055	-0,106
-81,870	-61,576	0,159	0,047
-80,855	345,918	0,070	0,098
-79,840	310,851	-0,070	0,093
-78,826	142,252	-0,024	0,023
-77,811	-68,933	-0,079	-0,022
-76,797	-200,000	-0,002	-0,029
-75,782	-198,580	0,051	-0,000
-74,767	640,738	-0,020	-0,037
-73,753	324,314	0,055	0,075
-72,738	106,350	0,094	0,079
-71,724	734,574	-0,050	-0,094
-70,709	91,636	0,109	-0,087
-69,694	800,000	0,053	-0,121
-68,680	-155,732	0,109	-0,005
-67,665	599,344	0,042	-0,074
-66,651	-21,328	0,058	0,025
-65,636	-200,000	0,010	-0,058
-64,622	-200,000	0,011	0,113
-63,607	256,067	0,002	0,002
-62,592	-118,513	0,062	-0,008
-61,578	800,000	0,007	-0,020
-60,563	-96,215	0,137	0,025
-59,549	-3,821	-0,111	0,054
-58,534	-23,898	-1,540	-0,650
-57,519	386,628	-1,489	-2,185
-56,505	-200,000	-0,616	-4,553
-55,490	176,308	0,927	0,955
-54,476	800,000	4,966	11,334
-53,461	-200,000	18,509	296,501
-52,446	800,000	730,579	2256,471
-51,432	559,367	1647,598	2827,712
-50,417	78,995	1668,355	1263,636
-49,403	22,445	1541,455	890,161
-48,388	16,349	1464,427	816,102
-47,373	17,790	1454,440	817,454
-46,359	17,052	1444,609	808,364
-45,344	14,646	1439,871	794,174
-44,330	14,531	1438,293	792,724
-43,315	14,594	1436,281	791,886
-42,300	14,597	1434,787	791,044
-41,286	14,608	1433,472	790,338
-40,271	14,636	1432,204	789,743
-39,257	14,568	1431,020	788,738
-38,242	14,618	1429,715	788,221
-37,227	14,623	1428,564	787,582
-36,213	14,630	1427,213	786,840
-35,198	14,637	1425,936	786,135
-34,184	14,607	1425,277	785,600
-33,169	14,581	1423,995	784,737
-32,154	14,668	1422,703	784,405
-31,140	14,610	1421,479	783,427
-30,125	14,617	1420,441	782,857
-29,111	14,611	1419,150	782,083
-28,096	14,537	1418,224	781,193
-27,082	14,552	1416,932	780,523
-26,067	14,563	1415,859	779,951
-25,052	14,505	1415,171	779,268
-24,038	14,567	1413,823	778,787
-23,023	14,535	1412,829	778,060
-22,009	14,529	1411,835	777,452
-20,994	14,503	1411,168	776,931
-19,979	14,482	1410,140	776,239
-18,965	14,465	1409,136	775,574
-17,950	14,478	1408,152	775,064
-16,936	14,529	1407,227	774,760
-15,921	14,437	1406,211	773,742
-14,906	14,429	1405,367	773,207
-13,892	14,455	1404,500	772,823
-12,877	14,444	1403,653	772,273
-11,863	14,447	1402,473	771,610
-10,848	14,420	1401,706	771,030
-9,833	14,375	1400,867	770,332
-8,819	14,337	1399,911	769,599
-7,804	14,326	1399,107	769,071
-6,790	14,365	1397,947	768,586
-5,775	14,313	1397,034	767,811
-4,760	14,363	1396,204	767,556
-3,746	14,309	1395,208	766,728
-2,731	14,303	1394,490	766,275
-1,717	14,302	1393,602	765,754
-0,702	14,306	1391,789	764,745
0,313	18,167	1310,179	737,777
1,327	34,549	706,538	435,825
2,342	53,311	124,455	84,265
3,356	3,944	16,594	8,555
4,371	12,764	3,168	1,726
5,386	83,718	0,518	0,399
6,400	-200,000	0,020	0,121
7,415	-63,975	-0,302	-0,087
8,429	248,544	-0,245	-0,294
9,444	30,190	-0,391	-0,235
10,459	37,218	-0,234	-0,146
11,473	3,967	-0,251	-0,129
12,488	-80,586	-0,367	-0,086
13,502	-45,274	-0,222	-0,078
14,517	-82,658	-0,366	-0,083
15,531	71,586	-0,432	-0,317
16,546	-56,060	-0,305	-0,095
17,561	203,380	-0,289	-0,316
18,575	180,584	-0,213	-0,221
19,590	189,312	-0,304	-0,323
20,604	-22,988	-0,260	-0,110
21,619	60,564	-0,339	-0,237
22,634	151,810	-0,406	-0,391
23,648	108,249	-0,374	-0,315
24,663	99,115	-0,371	-0,303
25,677	29,319	-0,434	-0,260
26,692	-25,028	-0,440	-0,183
27,707	-71,939	-0,362	-0,094
28,721	228,678	-0,346	-0,399
29,736	10,437	-0,426	-0,229
30,750	479,076	-0,283	-0,455
31,765	149,439	-0,302	-0,289
32,780	164,418	-0,326	-0,324
33,794	-47,353	-0,413	-0,141
34,809	123,983	-0,337	-0,298
35,823	110,859	-0,309	-0,263
36,838	33,290	-0,328	-0,201
37,853	34,157	-0,411	-0,252
38,867	4,196	-0,402	-0,207
39,882	37,900	-0,413	-0,258
40,896	34,990	-0,329	-0,202
41,911	19,751	-0,442	-0,250
42,926	60,812	-0,408	-0,285
43,940	228,862	-0,257	-0,296
44,955	13,593	-0,372	-0,203
45,969	341,608	-0,231	-0,320
46,984	35,329	-0,318	-0,196
47,999	23,380	-0,278	-0,161
49,013	-87,334	-0,358	-0,076
50,028	23,922	-0,245	-0,142
51,042	650,807	-0,160	-0,289
52,057	85,227	-0,353	-0,273
53,071	500,048	-0,229	-0,373
54,086	87,873	-0,276	-0,215
55,101	231,986	-0,292	-0,338
56,115	25,372	-0,349	-0,204
57,130	464,088	-0,304	-0,480
58,144	44,963	-0,426	-0,276
59,159	85,626	-0,372	-0,288
60,174	33,246	-0,312	-0,190
61,188	83,214	-0,286	-0,219
62,203	-32,478	-0,428	-0,167
63,217	159,022	-0,304	-0,297
64,232	44,183	-0,189	-0,122
65,247	79,809	-0,351	-0,265
66,261	-95,376	-0,355	-0,066
67,276	55,308	-0,331	-0,225
68,290	91,962	-0,237	-0,188
69,305	190,872	-0,199	-0,211
70,320	16,101	-0,365	-0,202
71,334	-52,230	-0,216	-0,070
72,349	32,702	-0,318	-0,193
73,363	3,311	-0,296	-0,151
74,378	350,712	-0,191	-0,266
75,393	449,685	-0,233	-0,363
76,407	130,823	-0,217	-0,196
77,422	16,513	-0,334	-0,185
78,436	800,000	-0,071	-0,180
79,451	81,988	-0,305	-0,232
80,466	136,197	-0,312	-0,286
81,480	-6,174	-0,374	-0,179
82,495	-200,000	-0,087	-0,269
83,509	107,469	-0,267	-0,223
84,524	36,637	-0,221	-0,137
85,539	45,595	-0,207	-0,134
86,553	58,052	-0,309	-0,213
87,568	174,122	-0,260	-0,265
88,582	-43,351	-0,264	-0,093
89,597	25,592	-0,327	-0,191
90,611	78,892	-0,320	-0,240
91,626	-18,380	-0,191	-0,084
92,641	-19,727	-0,226	-0,098
93,655	-43,044	-0,337	-0,119
94,670	186,783	-0,219	-0,230
95,684	-15,138	-0,391	-0,175
96,699	-107,558	-0,292	-0,044
97,714	55,349	-0,351	-0,238
98,728	88,075	-0,160	-0,124
99,743	274,991	-0,165	-0,205
100,757	20,592	-0,286	-0,162
101,772	-1,426	-0,274	-0,135
102,787	33,772	-0,342	-0,208
103,801	-55,266	-0,251	-0,078
104,816	45,759	-0,259	-0,168
105,830	-7,916	-0,184	-0,087
106,845	3,934	-0,168	-0,086
107,860	-1,474	-0,321	-0,158
108,874	-55,268	-0,256	-0,080
109,889	142,457	-0,296	-0,276
110,903	136,446	-0,292	-0,267
111,918	23,511	-0,311	-0,179
112,933	561,147	-0,168	-0,285
113,947	19,618	-0,241	-0,136
114,962	-94,116	-0,394	-0,075
115,976	116,581	-0,311	-0,268
116,991	-30,429	-0,255	-0,101
118,006	-139,004	-0,189	0,014
119,020	250,556	-0,101	-0,121
120,035	-97,479	-0,250	-0,045
121,049	49,515	-0,228	-0,150
122,064	29,351	-0,282	-0,167
123,079	186,596	-0,268	-0,280
124,093	41,421	-0,304	-0,192
125,108	55,915	-0,276	-0,187
126,122	67,290	-0,216	-0,154
127,137	17,304	-0,298	-0,165
128,151	230,875	-0,203	-0,233
129,166	-70,830	-0,220	-0,058
130,181	-14,520	-0,270	-0,121
131,195	-79,143	-0,287	-0,068
132,210	35,696	-0,271	-0,166
133,224	4,494	-0,314	-0,161
134,239	115,014	-0,296	-0,252
135,254	264,640	-0,191	-0,233
136,268	47,964	-0,272	-0,178
137,283	484,782	-0,171	-0,273
138,297	113,440	-0,231	-0,196
139,312	45,040	-0,255	-0,164
140,327	-9,216	-0,302	-0,140
141,341	-26,053	-0,205	-0,084
142,356	217,421	-0,113	-0,126
143,370	-130,371	-0,266	-0,025
144,385	184,353	-0,159	-0,165
145,400	785,109	-0,114	-0,220
146,414	420,174	-0,185	-0,277
147,429	-80,132	-0,243	-0,056
148,443	111,803	-0,158	-0,134
149,458	-4,703	-0,203	-0,097
150,473	232,063	-0,189	-0,217
151,487	-2,110	-0,145	-0,071
152,502	101,181	-0,289	-0,234
153,516	327,405	-0,209	-0,281
154,531	270,966	-0,146	-0,179
155,546	237,282	-0,163	-0,189
156,560	100,916	-0,195	-0,158
157,575	67,585	-0,188	-0,134
158,589	259,610	-0,198	-0,239
159,604	-42,451	-0,354	-0,125
160,619	580,775	-0,156	-0,268
161,633	97,417	-0,152	-0,122
162,648	201,430	-0,214	-0,231
163,662	-22,166	-0,214	-0,090
164,677	-110,859	-0,251	-0,036
165,692	142,464	-0,143	-0,132
166,706	113,144	-0,235	-0,199
167,721	353,163	-0,089	-0,124
168,735	100,258	-0,263	-0,212
169,750	-14,970	-0,267	-0,119
170,764	262,943	-0,132	-0,161
171,779	96,691	-0,181	-0,144
172,794	-79,667	-0,322	-0,075
173,808	-83,614	-0,280	-0,062
174,823	183,885	-0,286	-0,295
175,837	131,613	-0,160	-0,144
176,852	-7,682	-0,198	-0,093
177,867	13,849	-0,158	-0,085
178,881	93,504	-0,207	-0,163
179,896	-53,992	-0,297	-0,093
180,910	319,136	-0,149	-0,197
181,925	13,921	-0,148	-0,080
182,940	195,455	-0,271	-0,288
183,954	-166,467	-0,241	-0,007
184,969	492,512	-0,132	-0,212
185,983	84,826	-0,219	-0,167
186,998	19,435	-0,204	-0,114
188,013	265,290	-0,139	-0,169
189,027	56,271	-0,185	-0,125
190,042	107,033	-0,290	-0,240
191,056	109,400	-0,126	-0,105
192,071	128,455	-0,240	-0,213
193,086	-200,000	-0,063	-0,232
194,100	51,236	-0,203	-0,134
195,115	199,399	-0,138	-0,147
196,129	443,064	-0,154	-0,235
197,144	98,905	-0,227	-0,183
198,159	-25,260	-0,205	-0,084
199,173	773,508	-0,154	-0,293
200,188	-131,087	-0,176	-0,016
201,202	123,892	-0,244	-0,213
202,217	303,472	-0,100	-0,129
203,232	191,237	-0,150	-0,157
204,246	378,978	-0,133	-0,191
205,261	156,732	-0,268	-0,257
206,275	118,313	-0,073	-0,062
207,290	204,214	-0,176	-0,189
208,304	-131,207	-0,090	-0,008
209,319	264,097	-0,144	-0,174
210,334	453,188	-0,171	-0,263
211,348	432,103	-0,174	-0,262
212,363	800,000	-0,078	-0,160
213,377	95,072	-0,197	-0,155
214,392	-39,121	-0,207	-0,075
215,407	-83,411	-0,158	-0,035
216,421	98,997	-0,216	-0,173
217,436	-149,731	-0,169	0,009
218,450	41,698	-0,243	-0,153
219,465	123,402	-0,167	-0,146
220,480	102,996	-0,217	-0,176
221,494	336,097	-0,140	-0,189
222,509	43,270	-0,256	-0,162
223,523	11,270	-0,168	-0,089
224,538	-171,554	-0,201	-0,005
225,553	260,646	-0,180	-0,216
226,567	75,358	-0,216	-0,158
227,582	75,661	-0,232	-0,170
228,596	88,494	-0,236	-0,182
229,611	-107,448	-0,311	-0,047
230,626	33,942	-0,176	-0,106
231,640	45,810	-0,205	-0,131
232,655	44,537	-0,305	-0,194
233,669	6,579	-0,269	-0,138
234,684	14,201	-0,335	-0,181
235,699	800,000	-0,072	-0,167
236,713	67,699	-0,142	-0,101
237,728	69,721	-0,132	-0,094
238,742	-89,170	-0,213	-0,043
239,757	800,000	-0,073	-0,214
240,772	12,744	-0,236	-0,126
241,786	104,946	-0,228	-0,186
242,801	119,756	-0,176	-0,151
243,815	69,261	-0,144	-0,103
244,830	135,151	-0,091	-0,082
245,844	127,260	-0,214	-0,188
246,859	250,770	-0,220	-0,260
247,874	230,693	-0,131	-0,149
248,888	147,464	-0,213	-0,198
249,903	-13,419	-0,164	0,073
250,917	-52,440	-0,128	0,041
251,932	82,390	-0,072	-0,054
252,947	-146,207	-0,146	-0,009
253,961	-43,073	-0,267	-0,093
254,976	106,603	-0,285	-0,234
255,990	-1,620	-0,195	-0,095
257,005	519,508	-0,059	-0,096
258,020	164,328	-0,100	-0,097
259,034	236,007	-0,153	-0,175
260,049	-25,963	-0,150	-0,061
261,063	-37,933	-0,232	-0,085
262,078	-19,405	-0,204	-0,087
263,093	-61,581	-0,217	-0,063
264,107	43,764	-0,069	-0,043
265,122	307,016	-0,057	-0,074
266,136	-196,605	-0,096	-0,000
267,151	-101,570	-0,201	-0,033
268,166	-15,644	-0,168	-0,074
269,180	-35,215	-0,270	-0,101
270,195	15,428	-0,292	-0,158
271,209	87,047	-0,159	-0,121
272,224	-23,064	-0,214	-0,089
273,239	-139,192	-0,098	-0,007
274,253	-65,866	-0,253	-0,069
275,268	116,069	-0,195	-0,165
276,282	-1,620	-0,160	-0,077
277,297	89,378	-0,220	-0,169
278,312	31,635	-0,123	-0,073
279,326	-32,712	-0,175	-0,067
280,341	293,626	-0,089	-0,112
281,355	422,424	-0,099	-0,147
282,370	50,230	-0,183	-0,119
283,384	-200,000	-0,070	-0,229
284,399	263,771	-0,164	-0,197
285,414	58,438	-0,239	-0,162
286,428	-149,321	-0,104	-0,006
287,443	800,000	-0,088	-0,183
288,457	-13,826	-0,200	-0,089
289,472	157,529	-0,207	-0,198
290,487	-15,913	-0,236	-0,103
291,501	-7,509	-0,152	-0,071
292,516	-200,000	-0,234	0,001
293,530	-88,455	-0,171	-0,035
294,545	-200,000	-0,071	-0,223
295,560	-147,535	-0,127	0,007
296,574	87,447	-0,008	0,006
297,589	-200,000	0,005	-0,149
298,603	395,914	-0,069	-0,099
299,618	-117,797	-0,155	-0,019
300,633	-37,646	-0,020	0,007
301,647	800,000	-0,019	-0,051
302,662	5,154	-0,145	-0,074
303,676	500,024	-0,069	-0,110
304,691	-95,836	-0,137	-0,025
305,706	205,481	-0,199	-0,213
306,720	-200,000	-0,065	-0,201
307,735	492,659	-0,087	-0,137
308,749	35,469	-0,100	-0,060
309,764	6,488	-0,089	-0,045
310,779	-1,222	-0,143	-0,069
311,793	800,000	-0,087	-0,195
312,808	126,852	-0,150	-0,131
313,822	-200,000	0,003	-0,175
314,837	-45,127	-0,130	0,044
315,852	17,330	-0,133	-0,072
316,866	271,550	-0,092	-0,112
317,881	-2,178	-0,175	-0,084
318,895	-20,369	-0,140	-0,059
319,910	373,201	-0,141	-0,198
320,925	23,845	-0,143	0,081
321,939	27,638	-0,118	-0,068
322,954	81,634	-0,113	-0,084
323,968	-119,716	-0,097	-0,011
324,983	-192,126	-0,034	-0,000
325,997	-200,000	-0,056	-0,184
327,012	301,629	-0,160	-0,203
328,027	-20,043	-0,164	-0,069
329,041	-200,000	0,021	-0,183
330,056	-200,000	0,016	-0,175
331,070	800,000	-0,080	-0,166
332,085	548,086	-0,151	-0,249
333,100	800,000	-0,036	-0,079
334,114	7,038	-0,217	-0,111
335,129	-200,000	-0,001	-0,185
336,143	7,189	-0,128	-0,066
337,158	800,000	-0,035	-0,092
338,173	-47,363	-0,202	-0,067
339,187	-58,407	-0,237	0,070
340,202	-29,397	-0,098	-0,039
341,216	-51,711	-0,238	-0,076
342,231	63,463	-0,128	-0,088
343,246	-6,593	-0,190	-0,088
344,260	-103,358	-0,112	0,018
345,275	800,000	-0,048	-0,100
346,289	-35,090	-0,146	-0,054
347,304	760,406	-0,097	-0,182
348,319	-106,270	-0,212	-0,032
349,333	532,125	-0,156	-0,255
350,348	-200,000	-0,043	-0,186
351,362	800,000	-0,058	-0,124
352,377	307,209	-0,075	-0,096
353,392	-69,201	-0,108	0,028
354,406	-200,000	-0,004	0,018
355,421	207,460	1318,230	1412,959
356,435	159,592	1479,377	1413,454
