DTS Sentinel unit serial number:	SN410029Multiplexer serial number:	ORYXHardware model number:	OX2-SRSoftware version number:	ORYX F/W v4,00 Oryx Data Collector v3.7.2.0data status	okinstallation	B3 Nyhavnadifferential loss correction	single-endedforward channel	channel 1reverse channel	N/Adate	2023/12/03time	17:27:30forward acquisition time	300,00reverse acquisition time	0,00gamma	499,1914k internal	0,3197k external	0,3197temperature offset calibration	1,0000default loss term (dB/km)	0,3820temperature slope calibration	1,0000multiplexer offset coefficient	1,0000multiplexer slope coefficient	1,0000fibre end	0,00T internal ref (°C)	14,93T ext. ref 1 (°C)	-0,49T ext. ref 2 (°C)	-0,51length (m)	temperature (°C)	Stokes	anti-Stokes-744,400	472,027	-0,145	-0,238
-743,385	-200,000	0,027	0,382
-742,371	592,452	-0,115	-0,207
-741,356	-200,000	0,005	0,339
-740,342	-200,000	-0,106	-0,394
-739,327	438,280	0,122	0,194
-738,312	474,399	-0,116	-0,192
-737,298	800,000	0,089	0,210
-736,283	764,004	-0,174	-0,346
-735,269	800,000	0,152	0,435
-734,254	-123,797	-0,290	-0,033
-733,239	-200,000	-0,097	0,351
-732,225	162,352	-0,126	-0,129
-731,210	800,000	0,064	0,145
-730,196	-200,000	-0,003	0,090
-729,181	800,000	-0,018	-0,058
-728,167	-200,000	0,021	-0,193
-727,152	614,211	-0,016	-0,030
-726,137	140,698	-0,013	0,012
-725,123	-114,262	0,061	0,008
-724,108	-113,664	-0,191	-0,027
-723,094	-91,029	-0,171	-0,035
-722,079	-27,661	-0,096	-0,040
-721,064	381,760	-0,054	0,080
-720,050	19,949	-0,127	0,074
-719,035	518,063	0,031	0,052
-718,021	-74,686	-0,112	0,029
-717,006	721,612	-0,015	-0,029
-715,991	800,000	-0,091	-0,243
-714,977	83,807	-0,123	-0,097
-713,962	233,052	-0,087	0,104
-712,948	124,818	0,027	0,025
-711,933	56,878	-0,121	-0,085
-710,918	152,004	-0,040	-0,039
-709,904	800,000	-0,039	-0,101
-708,889	56,376	0,063	0,045
-707,875	-149,836	0,084	0,005
-706,860	-100,314	0,124	0,022
-705,845	-200,000	-0,032	-0,134
-704,831	-125,161	0,111	0,012
-703,816	-200,000	-0,023	-0,088
-702,802	95,379	-0,093	-0,077
-701,787	-200,000	-0,036	-0,162
-700,772	-156,032	-0,117	-0,005
-699,758	800,000	-0,050	-0,108
-698,743	800,000	0,064	0,151
-697,729	-200,000	-0,012	0,056
-696,714	80,647	-0,028	-0,022
-695,699	593,561	-0,039	-0,070
-694,685	-200,000	-0,011	-0,151
-693,670	800,000	-0,059	-0,133
-692,656	-200,000	0,025	-0,154
-691,641	-53,196	0,189	-0,063
-690,627	-200,000	-0,010	0,065
-689,612	-200,000	-0,005	0,036
-688,597	-200,000	-0,003	-0,049
-687,583	355,883	0,053	-0,077
-686,568	547,227	-0,039	-0,068
-685,554	155,978	-0,042	-0,042
-684,539	-82,427	-0,067	0,016
-683,524	259,056	0,023	-0,028
-682,510	-200,000	-0,024	0,131
-681,495	-32,173	-0,082	-0,033
-680,481	361,672	-0,134	-0,196
-679,466	64,930	-0,161	-0,118
-678,451	-84,374	-0,135	-0,031
-677,437	220,553	0,063	-0,073
-676,422	-40,290	0,091	0,034
-675,408	-56,953	0,047	-0,015
-674,393	800,000	-0,012	0,030
-673,378	800,000	-0,039	-0,086
-672,364	271,238	-0,026	-0,033
-671,349	800,000	0,010	0,028
-670,335	131,540	-0,037	-0,035
-669,320	-200,000	0,029	-0,102
-668,305	70,027	0,043	0,033
-667,291	-200,000	0,009	0,044
-666,276	176,411	-0,039	-0,041
-665,262	46,915	-0,061	-0,041
-664,247	10,018	0,072	0,040
-663,232	184,028	-0,040	-0,043
-662,218	-200,000	-0,014	0,058
-661,203	-87,038	0,064	0,014
-660,189	115,039	-0,035	-0,031
-659,174	800,000	-0,035	-0,093
-658,159	5,562	0,080	-0,043
-657,145	-200,000	-0,001	0,072
-656,130	98,393	-0,014	-0,011
-655,116	800,000	-0,019	0,049
-654,101	-22,343	0,097	-0,043
-653,086	64,187	0,019	-0,014
-652,072	-71,553	-0,145	0,039
-651,057	-59,041	-0,065	-0,020
-650,043	-200,000	-0,043	-0,155
-649,028	-200,000	-0,015	-0,052
-648,014	-200,000	-0,003	-0,016
-646,999	-72,718	0,070	-0,019
-645,984	791,457	0,042	-0,085
-644,970	-96,434	-0,046	0,009
-643,955	0,303	-0,142	-0,073
-642,941	319,551	-0,087	-0,120
-641,926	-39,869	-0,208	-0,078
-640,911	-200,000	0,029	-0,141
-639,897	800,000	0,006	-0,012
-638,882	-14,836	0,179	0,083
-637,868	166,644	-0,090	0,093
-636,853	-200,000	0,000	0,106
-635,838	9,729	-0,054	-0,030
-634,824	170,820	-0,038	-0,039
-633,809	-200,000	-0,012	-0,060
-632,795	-200,000	0,014	-0,048
-631,780	-197,675	0,049	-0,000
-630,765	263,842	-0,059	-0,075
-629,751	129,523	-0,053	-0,049
-628,736	-104,523	-0,125	-0,021
-627,722	-50,709	0,126	0,043
-626,707	610,572	0,065	0,118
-625,692	642,098	-0,014	-0,026
-624,678	-162,524	-0,082	0,003
-623,663	-166,766	0,055	-0,002
-622,649	-21,533	-0,030	0,013
-621,634	-93,795	-0,076	0,015
-620,619	-104,264	-0,114	-0,019
-619,605	-200,000	-0,049	0,178
-618,590	-150,147	0,043	-0,002
-617,576	-200,000	0,004	0,123
-616,561	269,325	-0,071	0,090
-615,546	286,654	-0,054	-0,071
-614,532	800,000	0,007	0,013
-613,517	156,991	-0,064	0,064
-612,503	236,081	0,049	-0,059
-611,488	-200,000	0,014	-0,055
-610,474	800,000	-0,045	0,093
-609,459	-84,454	0,016	-0,004
-608,444	-200,000	-0,011	-0,038
-607,430	-200,000	-0,008	-0,213
-606,415	-200,000	-0,000	-0,002
-605,401	178,560	0,087	-0,093
-604,386	735,329	-0,007	-0,014
-603,371	-13,908	-0,143	-0,067
-602,357	-12,334	0,107	-0,050
-601,342	-100,449	-0,097	-0,017
-600,328	218,980	-0,030	-0,034
-599,313	89,175	0,100	-0,080
-598,298	118,636	-0,065	0,058
-597,284	-200,000	0,023	-0,098
-596,269	-195,247	-0,160	0,001
-595,255	800,000	-0,091	0,188
-594,240	124,260	-0,062	0,056
-593,225	33,083	-0,035	-0,022
-592,211	-200,000	0,003	-0,046
-591,196	122,056	-0,040	0,036
-590,182	70,932	0,074	0,055
-589,167	28,845	-0,051	0,031
-588,152	-200,000	-0,014	-0,093
-587,138	74,182	-0,082	0,063
-586,123	346,192	-0,090	-0,128
-585,109	-200,000	0,042	0,157
-584,094	313,019	-0,054	-0,074
-583,079	-200,000	-0,002	-0,011
-582,065	800,000	-0,057	0,131
-581,050	800,000	-0,036	0,076
-580,036	169,793	-0,105	-0,108
-579,021	356,337	0,066	-0,095
-578,006	800,000	-0,052	0,147
-576,992	341,949	-0,081	0,115
-575,977	300,276	-0,018	0,025
-574,963	-200,000	-0,006	-0,096
-573,948	-164,598	-0,171	0,005
-572,934	-129,999	-0,010	-0,001
-571,919	-54,651	-0,091	-0,030
-570,904	-200,000	-0,010	-0,060
-569,890	475,480	-0,068	-0,112
-568,875	-114,591	0,050	0,007
-567,861	-133,580	0,078	0,007
-566,846	97,467	-0,044	0,036
-565,831	-20,743	-0,170	-0,075
-564,817	253,049	0,037	0,046
-563,802	-151,338	-0,165	0,009
-562,788	800,000	0,006	-0,016
-561,773	-80,045	0,007	0,002
-560,758	98,159	-0,038	0,031
-559,744	-72,939	0,053	-0,014
-558,729	-200,000	-0,009	-0,071
-557,715	206,526	-0,128	-0,144
-556,700	130,879	0,056	-0,052
-555,685	-29,980	0,093	0,038
-554,671	-92,617	-0,147	0,030
-553,656	339,229	-0,045	-0,064
-552,642	-200,000	-0,006	0,038
-551,627	81,812	-0,060	-0,047
-550,612	170,790	0,103	0,107
-549,598	257,510	-0,044	0,055
-548,583	-67,710	-0,137	-0,039
-547,569	-115,512	0,160	-0,022
-546,554	-200,000	-0,014	0,170
-545,539	-200,000	-0,009	-0,059
-544,525	32,286	-0,072	0,045
-543,510	-200,000	0,000	0,043
-542,496	800,000	0,075	-0,215
-541,481	-200,000	0,002	-0,030
-540,466	-112,215	-0,027	-0,004
-539,452	515,412	0,017	-0,028
-538,437	800,000	-0,038	0,086
-537,423	-85,007	0,100	-0,022
-536,408	67,154	-0,105	-0,077
-535,393	-200,000	0,028	0,095
-534,379	541,775	0,050	-0,087
-533,364	30,797	0,088	-0,054
-532,350	-94,817	0,132	-0,026
-531,335	800,000	0,059	0,135
-530,321	800,000	0,045	0,127
-529,306	-42,006	0,100	0,037
-528,291	-110,458	-0,145	0,021
-527,277	24,352	0,185	-0,110
-526,262	-38,389	-0,045	-0,017
-525,248	800,000	-0,037	0,089
-524,233	-200,000	0,017	-0,065
-523,218	37,154	0,091	0,058
-522,204	-200,000	0,020	0,185
-521,189	8,826	-0,192	-0,104
-520,175	800,000	-0,087	-0,248
-519,160	800,000	0,066	0,147
-518,145	-200,000	0,003	0,174
-517,131	-200,000	0,035	0,176
-516,116	62,035	0,029	0,021
-515,102	800,000	-0,078	-0,169
-514,087	-56,106	0,045	-0,014
-513,072	-166,849	-0,081	0,002
-512,058	-73,136	-0,099	-0,026
-511,043	242,002	0,096	0,116
-510,029	-200,000	0,003	0,033
-509,014	-200,000	0,013	0,093
-507,999	49,057	0,115	0,078
-506,985	588,452	0,014	0,025
-505,970	-35,364	-0,142	-0,055
-504,956	-21,384	0,156	-0,068
-503,941	129,676	-0,075	0,069
-502,926	-125,363	-0,047	-0,005
-501,912	516,210	0,094	0,159
-500,897	213,079	0,081	0,093
-499,883	-34,650	-0,046	-0,018
-498,868	37,452	-0,071	-0,045
-497,853	363,411	-0,070	0,102
-496,839	800,000	0,031	0,090
-495,824	-34,993	0,183	-0,071
-494,810	800,000	-0,019	0,048
-493,795	-80,453	0,061	-0,014
-492,781	63,165	-0,134	0,096
-491,766	75,703	0,030	0,023
-490,751	-10,415	-0,013	-0,006
-489,737	-187,570	0,105	0,001
-488,722	160,509	-0,007	0,007
-487,708	-0,208	0,023	-0,012
-486,693	-86,904	0,052	-0,011
-485,678	129,905	0,048	-0,044
-484,664	-200,000	-0,010	-0,067
-483,649	-81,998	-0,096	-0,022
-482,635	-34,098	-0,048	-0,019
-481,620	-200,000	0,013	0,058
-480,605	800,000	0,025	0,075
-479,591	-4,884	0,076	0,038
-478,576	89,641	-0,033	0,027
-477,562	165,036	-0,060	-0,061
-476,547	800,000	0,021	-0,049
-475,532	800,000	0,037	0,074
-474,518	-36,605	0,120	-0,046
-473,503	-150,711	0,106	0,006
-472,489	51,809	0,111	-0,076
-471,474	-200,000	0,013	-0,041
-470,459	-1,856	-0,011	-0,006
-469,445	800,000	-0,030	-0,089
-468,430	9,284	-0,033	-0,018
-467,416	-65,700	0,052	-0,015
-466,401	-200,000	0,014	-0,055
-465,386	-200,000	-0,003	-0,031
-464,372	-157,549	0,110	-0,005
-463,357	21,127	-0,022	-0,013
-462,343	83,579	0,023	-0,018
-461,328	219,485	-0,050	-0,058
-460,313	800,000	-0,024	0,055
-459,299	80,320	-0,072	0,056
-458,284	-78,501	-0,078	-0,019
-457,270	258,297	-0,102	0,126
-456,255	193,759	-0,142	0,155
-455,241	-200,000	-0,015	0,062
-454,226	330,263	-0,014	-0,019
-453,211	570,732	0,039	-0,068
-452,197	45,032	0,045	0,030
-451,182	-33,535	0,105	-0,041
-450,168	-90,561	-0,036	-0,007
-449,153	196,470	-0,058	0,063
-448,138	265,825	0,078	0,098
-447,124	214,261	-0,090	-0,103
-446,109	-4,486	0,050	0,025
-445,095	-42,417	0,159	-0,058
-444,080	-200,000	0,014	0,191
-443,065	37,978	0,152	0,097
-442,051	800,000	-0,043	-0,132
-441,036	800,000	0,021	-0,066
-440,022	-68,011	0,059	-0,017
-439,007	-200,000	0,016	0,075
-437,992	548,747	0,049	0,085
-436,978	-139,237	0,058	0,004
-435,963	-154,326	0,057	-0,003
-434,949	-200,000	-0,017	-0,143
-433,934	66,736	0,055	-0,040
-432,919	-200,000	0,010	-0,120
-431,905	333,379	0,085	0,118
-430,890	-80,684	0,088	0,021
-429,876	352,956	0,043	0,062
-428,861	-138,396	0,177	-0,014
-427,846	-39,931	-0,117	0,044
-426,832	699,133	-0,077	-0,147
-425,817	163,447	-0,062	-0,062
-424,803	800,000	0,026	0,068
-423,788	800,000	-0,016	-0,035
-422,773	337,202	0,064	0,089
-421,759	-200,000	0,016	0,109
-420,744	203,122	0,059	0,066
-419,730	608,230	-0,025	0,045
-418,715	-200,000	-0,010	-0,033
-417,701	-85,217	0,111	0,025
-416,686	-200,000	-0,001	0,058
-415,671	-200,000	0,007	0,027
-414,657	-200,000	0,024	-0,089
-413,642	569,500	-0,086	0,151
-412,628	205,779	-0,075	-0,084
-411,613	-200,000	0,005	-0,035
-410,598	292,021	-0,029	-0,038
-409,584	-200,000	-0,007	-0,053
-408,569	800,000	-0,004	0,010
-407,555	800,000	0,035	0,093
-406,540	-40,240	-0,041	0,015
-405,525	-14,870	-0,063	0,029
-404,511	800,000	-0,013	0,029
-403,496	800,000	-0,032	-0,094
-402,482	-200,000	0,040	0,136
-401,467	-86,611	0,215	-0,047
-400,452	-57,369	-0,078	0,025
-399,438	800,000	0,069	-0,138
-398,423	-35,927	-0,094	-0,036
-397,409	-200,000	-0,028	0,179
-396,394	800,000	-0,020	-0,050
-395,379	-60,182	0,058	-0,018
-394,365	-159,349	0,057	-0,002
-393,350	795,597	-0,057	-0,113
-392,336	-4,508	0,072	-0,036
-391,321	261,273	-0,006	-0,008
-390,306	358,077	0,071	-0,102
-389,292	-89,854	-0,108	0,022
-388,277	47,229	0,019	-0,013
-387,263	-130,768	0,142	-0,014
-386,248	-200,000	0,008	0,114
-385,233	-200,000	0,007	0,059
-384,219	678,206	0,034	0,064
-383,204	-200,000	-0,028	-0,116
-382,190	312,099	-0,110	0,148
-381,175	170,849	-0,076	-0,078
-380,160	-41,158	0,138	-0,051
-379,146	-170,999	-0,080	0,002
-378,131	-200,000	0,008	0,143
-377,117	-200,000	-0,007	0,029
-376,102	-34,838	-0,074	-0,029
-375,088	-79,325	-0,065	0,016
-374,073	800,000	-0,060	-0,184
-373,058	-35,368	0,037	-0,014
-372,044	9,518	0,073	0,040
-371,029	231,055	0,031	0,037
-370,015	84,870	0,060	0,047
-369,000	164,801	-0,093	0,094
-367,985	-73,932	-0,086	-0,022
-366,971	800,000	-0,022	-0,069
-365,956	800,000	-0,018	0,055
-364,942	-200,000	-0,007	-0,080
-363,927	-10,443	-0,090	-0,043
-362,912	-200,000	-0,006	-0,072
-361,898	-50,029	0,058	-0,020
-360,883	-200,000	0,001	-0,032
-359,869	124,257	-0,035	-0,032
-358,854	146,343	-0,051	-0,049
-357,839	171,029	0,043	-0,045
-356,825	130,153	0,081	0,074
-355,810	800,000	0,013	-0,025
-354,796	-200,000	0,015	-0,099
-353,781	-200,000	-0,001	0,082
-352,766	-44,230	0,142	-0,051
-351,752	19,454	0,039	-0,023
-350,737	325,329	0,036	-0,049
-349,723	-25,736	0,146	0,062
-348,708	-91,143	0,081	-0,016
-347,693	-200,000	-0,011	-0,035
-346,679	76,600	-0,096	-0,073
-345,664	-200,000	-0,014	0,185
-344,650	294,185	0,032	0,042
-343,635	-152,182	0,091	-0,005
-342,620	102,091	0,031	-0,026
-341,606	161,559	-0,037	0,037
-340,591	-120,621	-0,072	0,009
-339,577	342,285	0,104	0,147
-338,562	38,892	-0,037	-0,023
-337,548	800,000	0,026	0,078
-336,533	67,132	0,061	-0,045
-335,518	432,386	-0,043	0,068
-334,504	102,651	0,096	0,080
-333,489	74,593	0,011	-0,008
-332,475	-200,000	-0,006	0,032
-331,460	-200,000	0,000	0,065
-330,445	800,000	-0,034	-0,077
-329,431	-200,000	-0,006	0,107
-328,416	-200,000	-0,014	-0,122
-327,402	97,462	0,063	0,052
-326,387	-200,000	0,023	0,238
-325,372	19,411	0,127	0,073
-324,358	790,028	-0,012	-0,024
-323,343	-136,971	-0,068	0,006
-322,329	106,460	0,089	0,076
-321,314	12,503	-0,089	-0,049
-320,299	-103,850	0,221	-0,037
-319,285	204,020	-0,009	0,010
-318,270	125,271	0,024	-0,022
-317,256	-200,000	-0,005	-0,113
-316,241	-68,657	-0,090	-0,025
-315,226	-185,515	-0,072	0,001
-314,212	-0,379	0,099	0,050
-313,197	-200,000	0,016	-0,102
-312,183	800,000	-0,027	-0,067
-311,168	800,000	0,028	0,071
-310,153	41,651	-0,101	0,065
-309,139	-92,054	0,115	0,023
-308,124	240,809	-0,013	0,015
-307,110	-200,000	0,028	-0,106
-306,095	-60,784	-0,036	0,011
-305,080	31,758	0,105	0,064
-304,066	95,337	-0,115	0,094
-303,051	-200,000	-0,006	0,035
-302,037	-102,034	0,101	-0,017
-301,022	162,110	-0,097	-0,097
-300,008	641,557	0,013	-0,025
-298,993	-68,738	0,094	0,026
-297,978	14,742	-0,044	0,025
-296,964	-87,146	0,102	-0,022
-295,949	74,358	-0,156	0,117
-294,935	-200,000	-0,015	0,079
-293,920	800,000	-0,050	0,135
-292,905	30,996	0,159	0,097
-291,891	19,053	0,040	0,023
-290,876	-200,000	-0,009	-0,038
-289,862	-133,033	-0,023	-0,002
-288,847	446,181	-0,050	-0,079
-287,832	349,799	0,028	-0,040
-286,818	-149,330	-0,069	-0,004
-285,803	267,910	0,111	0,139
-284,789	800,000	0,091	0,206
-283,774	-200,000	-0,007	-0,071
-282,759	-109,057	-0,114	-0,017
-281,745	-48,213	0,022	-0,007
-280,730	800,000	0,005	-0,013
-279,716	800,000	0,064	-0,162
-278,701	107,234	0,142	-0,121
-277,686	-132,517	0,122	-0,011
-276,672	493,299	0,038	0,062
-275,657	-200,000	0,018	-0,093
-274,643	-200,000	-0,001	-0,024
-273,628	-99,871	-0,018	0,003
-272,613	-200,000	0,007	-0,038
-271,599	15,213	0,050	0,028
-270,584	624,598	-0,049	-0,088
-269,570	418,632	0,086	0,132
-268,555	481,472	-0,065	-0,106
-267,540	800,000	-0,048	0,105
-266,526	84,401	0,039	0,030
-265,511	34,424	-0,095	0,059
-264,497	226,498	0,073	-0,084
-263,482	-99,879	-0,050	0,009
-262,467	60,790	0,071	0,050
-261,453	-200,000	0,005	-0,152
-260,438	-200,000	-0,030	-0,229
-259,424	42,496	-0,081	-0,052
-258,409	-200,000	-0,008	0,084
-257,395	35,666	0,022	-0,014
-256,380	-200,000	-0,007	-0,067
-255,365	27,591	0,177	0,106
-254,351	-28,227	-0,129	0,053
-253,336	-200,000	0,006	-0,153
-252,322	-110,609	-0,218	0,032
-251,307	-98,621	0,055	-0,010
-250,292	-165,141	-0,028	-0,001
-249,278	113,030	0,026	-0,023
-248,263	-32,413	0,095	-0,038
-247,249	-119,844	0,170	-0,021
-246,234	800,000	0,055	0,110
-245,219	48,223	0,038	-0,025
-244,205	-19,870	-0,139	-0,061
-243,190	-123,059	0,102	0,012
-242,176	-200,000	-0,028	0,131
-241,161	88,289	0,026	0,021
-240,146	380,199	0,035	-0,052
-239,132	-200,000	-0,030	0,103
-238,117	354,329	-0,038	-0,054
-237,103	-32,525	-0,046	-0,018
-236,088	110,269	-0,031	-0,026
-235,073	626,826	0,020	0,036
-234,059	155,321	0,096	0,094
-233,044	98,008	-0,075	0,061
-232,030	-51,666	0,088	0,029
-231,015	-42,629	-0,062	-0,022
-230,000	-66,754	-0,043	0,012
-228,986	-61,682	0,092	0,027
-227,971	800,000	0,049	-0,110
-226,957	633,382	0,036	0,065
-225,942	-0,361	-0,134	0,068
-224,927	-76,470	0,021	-0,005
-223,913	-200,000	0,051	-0,217
-222,898	800,000	-0,014	-0,033
-221,884	-39,094	0,031	-0,012
-220,869	-121,587	-0,070	0,008
-219,855	-200,000	0,009	0,146
-218,840	800,000	0,034	0,084
-217,825	-200,000	-0,027	0,111
-216,811	-81,717	-0,090	-0,021
-215,796	771,490	-0,111	-0,217
-214,782	800,000	0,064	-0,131
-213,767	-200,000	-0,007	-0,108
-212,752	-108,835	-0,094	0,014
-211,738	-63,347	0,093	-0,027
-210,723	262,808	-0,075	0,093
-209,709	800,000	0,032	-0,075
-208,694	181,793	-0,066	-0,069
-207,679	-200,000	0,001	0,013
-206,665	488,304	0,044	-0,072
-205,650	300,274	0,064	-0,084
-204,636	-116,398	-0,089	0,012
-203,621	72,903	0,099	0,074
-202,606	40,109	0,115	-0,074
-201,592	-25,186	-0,065	-0,027
-200,577	-200,000	-0,010	-0,199
-199,563	145,931	-0,113	-0,108
-198,548	394,268	0,007	0,011
-197,533	-200,000	0,034	0,111
-196,519	-200,000	-0,015	0,050
-195,504	258,870	-0,060	-0,074
-194,490	611,756	0,049	-0,087
-193,475	718,971	-0,061	-0,117
-192,460	696,604	-0,013	0,025
-191,446	-6,506	-0,049	0,024
-190,431	-54,624	0,145	0,047
-189,417	788,583	-0,087	0,171
-188,402	-158,136	-0,115	0,005
-187,387	-19,784	-0,064	-0,028
-186,373	-200,000	0,002	-0,129
-185,358	317,302	0,065	-0,088
-184,344	-200,000	0,005	-0,040
-183,329	755,246	0,056	0,109
-182,315	467,890	-0,058	-0,093
-181,300	522,704	0,036	0,061
-180,285	555,461	-0,030	-0,052
-179,271	-65,614	-0,104	0,030
-178,256	438,669	0,045	-0,070
-177,242	369,690	0,060	-0,087
-176,227	-200,000	0,031	0,149
-175,212	9,431	-0,045	-0,024
-174,198	-200,000	0,001	-0,048
-173,183	800,000	0,054	-0,149
-172,169	198,139	-0,069	0,075
-171,154	130,745	-0,025	0,022
-170,139	423,620	-0,069	0,106
-169,125	-25,175	0,155	0,065
-168,110	180,216	0,055	0,058
-167,096	-169,048	0,058	-0,002
-166,081	164,000	-0,095	-0,096
-165,066	800,000	-0,038	0,076
-164,052	-200,000	0,026	-0,100
-163,037	-200,000	-0,010	-0,109
-162,023	57,554	0,094	0,066
-161,008	-73,032	-0,026	-0,007
-159,993	-115,061	-0,033	0,004
-158,979	594,127	0,037	0,066
-157,964	-13,545	-0,098	-0,045
-156,950	84,025	-0,052	0,040
-155,935	-200,000	0,008	-0,052
-154,920	138,021	0,058	0,054
-153,906	800,000	-0,029	0,068
-152,891	171,947	-0,084	-0,086
-151,877	215,841	0,090	-0,102
-150,862	637,824	-0,024	-0,044
-149,847	162,286	0,026	-0,026
-148,833	-24,596	0,017	-0,007
-147,818	489,582	-0,056	0,091
-146,804	214,857	0,179	0,202
-145,789	500,655	-0,046	0,075
-144,775	800,000	0,036	0,109
-143,760	114,284	-0,065	-0,057
-142,745	104,305	-0,085	-0,071
-141,731	-58,941	0,163	0,050
-140,716	188,999	0,055	-0,059
-139,702	4,288	-0,036	-0,019
-138,687	-146,725	0,086	-0,005
-137,672	258,486	0,071	0,087
-136,658	536,965	0,084	-0,143
-135,643	356,658	-0,091	0,130
-134,629	800,000	0,058	0,118
-133,614	262,911	0,106	0,131
-132,599	800,000	-0,037	0,107
-131,585	-29,313	0,057	-0,023
-130,570	247,976	-0,064	0,077
-129,556	-200,000	-0,012	0,086
-128,541	275,357	-0,116	0,146
-127,526	418,448	0,025	0,039
-126,512	-82,559	0,056	0,013
-125,497	-200,000	-0,034	0,156
-124,483	-200,000	-0,005	0,031
-123,468	341,320	-0,018	-0,026
-122,453	137,278	-0,107	-0,100
-121,439	16,536	-0,151	-0,085
-120,424	412,554	-0,028	0,043
-119,410	555,375	0,032	-0,055
-118,395	116,158	0,037	-0,032
-117,380	-6,607	0,051	0,025
-116,366	-200,000	-0,017	0,071
-115,351	48,517	0,062	-0,041
-114,337	-123,789	-0,144	0,016
-113,322	-5,376	0,024	-0,012
-112,307	23,630	-0,095	0,055
-111,293	800,000	-0,018	-0,040
-110,278	-21,210	0,099	0,043
-109,264	-200,000	-0,006	0,024
-108,249	-93,543	-0,125	-0,024
-107,234	-136,970	0,050	-0,004
-106,220	271,624	-0,084	-0,106
-105,205	152,058	0,101	0,098
-104,191	800,000	-0,018	-0,054
-103,176	-49,850	0,032	0,011
-102,162	55,458	0,111	0,076
-101,147	-200,000	-0,017	-0,071
-100,132	-200,000	-0,002	-0,101
-99,118	-200,000	-0,005	0,108
-98,103	46,918	0,076	0,050
-97,089	-18,818	0,098	-0,043
-96,074	-200,000	-0,021	-0,090
-95,059	-2,186	-0,060	0,030
-94,045	-25,749	0,093	0,039
-93,030	-200,000	-0,003	0,065
-92,016	-56,328	-0,019	0,006
-91,001	52,595	0,096	-0,065
-89,986	243,150	0,092	-0,109
-88,972	-200,000	-0,019	-0,065
-87,957	-4,980	-0,090	0,044
-86,943	-200,000	0,007	-0,032
-85,928	-200,000	0,026	-0,171
-84,913	-200,000	0,035	-0,121
-83,899	309,844	0,055	-0,073
-82,884	-200,000	-0,003	0,054
-81,870	-200,000	-0,019	0,064
-80,855	-67,315	0,096	0,027
-79,840	189,821	-0,038	0,041
-78,826	-8,678	-0,075	0,036
-77,811	-200,000	-0,004	-0,043
-76,797	275,859	-0,098	-0,123
-75,782	136,185	-0,060	0,056
-74,767	88,831	0,073	-0,058
-73,753	512,430	0,014	0,023
-72,738	-44,943	0,025	0,009
-71,724	-47,883	-0,046	0,016
-70,709	-200,000	0,062	-0,274
-69,694	405,319	0,051	-0,077
-68,680	512,878	0,022	-0,037
-67,665	58,749	-0,124	-0,086
-66,651	156,831	-0,023	-0,022
-65,636	107,915	0,081	0,068
-64,622	-81,030	-0,127	-0,030
-63,607	182,368	0,039	-0,041
-62,592	-4,339	0,039	0,019
-61,578	-91,966	0,187	0,037
-60,563	93,809	0,052	0,042
-59,549	56,627	-0,102	0,070
-58,534	-62,943	-1,492	-0,435
-57,519	376,523	-1,535	-2,228
-56,505	-200,000	-0,550	-4,564
-55,490	177,930	0,984	1,019
-54,476	800,000	4,685	10,924
-53,461	-200,000	18,449	289,857
-52,446	800,000	728,594	2236,955
-51,432	556,584	1644,298	2818,907
-50,417	79,154	1665,611	1263,494
-49,403	22,796	1539,044	891,348
-48,388	16,756	1462,569	817,773
-47,373	17,850	1452,467	817,368
-46,359	17,258	1442,748	809,035
-45,344	15,057	1438,183	795,923
-44,330	14,936	1436,278	794,258
-43,315	14,979	1434,665	793,542
-42,300	14,979	1432,902	792,534
-41,286	15,085	1431,513	792,241
-40,271	14,971	1430,503	791,108
-39,257	14,999	1429,222	790,500
-38,242	15,042	1427,939	789,962
-37,227	15,049	1426,516	789,178
-36,213	15,075	1425,263	788,575
-35,198	15,041	1424,257	787,828
-34,184	15,029	1423,460	787,300
-33,169	14,983	1422,181	786,341
-32,154	15,049	1421,104	786,027
-31,140	15,051	1419,740	785,252
-30,125	15,019	1418,526	784,396
-29,111	15,046	1417,512	783,932
-28,096	14,980	1416,265	782,903
-27,082	14,962	1415,257	782,231
-26,067	14,957	1414,228	781,604
-25,052	14,903	1413,301	780,807
-24,038	14,958	1412,105	780,377
-23,023	14,966	1411,132	779,846
-22,009	14,933	1410,001	779,034
-20,994	14,901	1409,281	778,456
-19,979	14,918	1408,353	777,991
-18,965	14,900	1407,302	777,293
-17,950	14,860	1406,337	776,545
-16,936	14,891	1405,473	776,182
-15,921	14,888	1404,225	775,447
-14,906	14,835	1403,369	774,696
-13,892	14,917	1402,477	774,553
-12,877	14,852	1401,668	773,774
-11,863	14,882	1400,676	773,336
-10,848	14,849	1399,851	772,698
-9,833	14,840	1398,932	772,115
-8,819	14,788	1397,970	771,315
-7,804	14,805	1396,936	770,790
-6,790	14,765	1396,132	770,132
-5,775	14,763	1394,939	769,433
-4,760	14,780	1394,222	769,085
-3,746	14,747	1393,598	768,558
-2,731	14,758	1392,587	768,023
-1,717	14,715	1391,740	767,326
-0,702	14,730	1389,973	766,390
0,313	18,478	1308,465	738,823
1,327	34,644	706,049	436,132
2,342	53,200	124,442	84,287
3,356	5,750	16,381	8,552
4,371	9,969	3,152	1,690
5,386	39,507	0,565	0,358
6,400	405,190	-0,105	0,157
7,415	-125,274	-0,396	0,042
8,429	11,714	-0,311	-0,168
9,444	255,190	-0,246	-0,298
10,459	-33,769	-0,272	-0,106
11,473	79,054	-0,232	-0,176
12,488	-7,195	-0,367	-0,176
13,502	-3,920	-0,346	-0,169
14,517	-2,183	-0,390	-0,193
15,531	129,811	-0,309	-0,279
16,546	122,648	-0,243	-0,215
17,561	268,607	-0,196	-0,243
18,575	-58,854	-0,175	-0,053
19,590	250,651	-0,233	-0,280
20,604	-42,967	-0,287	-0,103
21,619	94,783	-0,372	-0,299
22,634	108,363	-0,428	-0,361
23,648	177,780	-0,386	-0,399
24,663	266,538	-0,329	-0,407
25,677	23,328	-0,461	-0,267
26,692	-20,270	-0,241	-0,104
27,707	-12,197	-0,337	-0,155
28,721	0,872	-0,444	-0,224
29,736	157,703	-0,371	-0,363
30,750	167,587	-0,339	-0,340
31,765	174,107	-0,275	-0,281
32,780	203,628	-0,333	-0,365
33,794	36,759	-0,263	-0,164
34,809	20,958	-0,312	-0,178
35,823	71,694	-0,407	-0,298
36,838	23,986	-0,448	-0,260
37,853	153,840	-0,348	-0,337
38,867	96,381	-0,406	-0,328
39,882	100,929	-0,450	-0,369
40,896	121,792	-0,277	-0,244
41,911	128,522	-0,213	-0,192
42,926	144,265	-0,306	-0,288
43,940	74,259	-0,266	-0,197
44,955	52,703	-0,400	-0,269
45,969	-24,416	-0,412	-0,172
46,984	163,981	-0,346	-0,344
47,999	9,555	-0,374	-0,199
49,013	43,472	-0,391	-0,252
50,028	57,694	-0,350	-0,241
51,042	36,421	-0,301	-0,187
52,057	67,407	-0,390	-0,280
53,071	152,860	-0,288	-0,278
54,086	70,472	-0,253	-0,184
55,101	84,898	-0,394	-0,304
56,115	99,896	-0,319	-0,260
57,130	188,065	-0,307	-0,324
58,144	30,318	-0,354	-0,213
59,159	108,434	-0,331	-0,278
60,174	-32,454	-0,431	-0,169
61,188	-24,320	-0,450	-0,188
62,203	-38,822	-0,224	-0,083
63,217	76,791	-0,337	-0,252
64,232	47,915	-0,298	-0,196
65,247	-14,353	-0,416	-0,188
66,261	133,200	-0,367	-0,334
67,276	-78,731	-0,309	-0,074
68,290	23,619	-0,349	-0,202
69,305	327,726	-0,299	-0,405
70,320	-122,342	-0,453	-0,051
71,334	10,374	-0,457	-0,244
72,349	-51,639	-0,407	-0,133
73,363	98,931	-0,351	-0,285
74,378	125,059	-0,352	-0,312
75,393	36,748	-0,251	-0,156
76,407	96,984	-0,289	-0,233
77,422	39,920	-0,316	-0,199
78,436	127,867	-0,296	-0,265
79,451	-9,501	-0,369	-0,172
80,466	28,341	-0,259	-0,154
81,480	238,011	-0,279	-0,327
82,495	-6,331	-0,378	-0,181
83,509	46,487	-0,226	-0,147
84,524	-24,399	-0,359	-0,150
85,539	91,342	-0,347	-0,274
86,553	55,014	-0,253	-0,171
87,568	18,651	-0,318	-0,178
88,582	59,217	-0,150	-0,104
89,597	64,656	-0,300	-0,212
90,611	-45,315	-0,299	-0,104
91,626	-15,112	-0,350	-0,157
92,641	-33,057	-0,361	-0,140
93,655	179,894	-0,227	-0,234
94,670	213,042	-0,209	-0,232
95,684	77,954	-0,299	-0,224
96,699	65,217	-0,335	-0,237
97,714	374,772	-0,143	-0,205
98,728	62,248	-0,183	-0,128
99,743	-76,996	-0,291	-0,071
100,757	-84,574	-0,304	-0,067
101,772	254,836	-0,224	-0,269
102,787	-14,974	-0,357	-0,160
103,801	56,524	-0,211	-0,144
104,816	280,113	-0,151	-0,189
105,830	279,886	-0,151	-0,189
106,845	17,296	-0,203	-0,113
107,860	55,783	-0,267	-0,181
108,874	-65,278	-0,495	-0,139
109,889	63,150	-0,261	-0,184
110,903	192,956	-0,279	-0,296
111,918	-39,918	-0,303	-0,110
112,933	42,487	-0,293	-0,187
113,947	88,106	-0,188	-0,146
114,962	4,224	-0,273	-0,140
115,976	113,188	-0,256	-0,218
116,991	-65,275	-0,298	-0,084
118,006	98,173	-0,216	-0,174
119,020	-1,372	-0,310	-0,153
120,035	-114,287	-0,346	-0,046
121,049	205,153	-0,199	-0,217
122,064	-65,320	-0,362	-0,101
123,079	118,201	-0,239	-0,207
124,093	-20,852	-0,313	-0,134
125,108	6,802	-0,240	-0,125
126,122	-26,801	-0,304	-0,124
127,137	-12,627	-0,258	-0,117
128,151	-41,260	-0,265	-0,095
129,166	-7,495	-0,140	-0,066
130,181	21,997	-0,209	-0,119
131,195	-120,803	-0,254	-0,030
132,210	111,032	-0,211	-0,178
133,224	258,320	-0,140	-0,169
134,239	-57,156	-0,346	-0,106
135,254	33,031	-0,180	-0,109
136,268	80,161	-0,258	-0,194
137,283	95,944	-0,274	-0,219
138,297	138,374	-0,303	-0,279
139,312	224,268	-0,282	-0,319
140,327	105,918	-0,410	-0,339
141,341	-112,788	-0,342	-0,047
142,356	-75,387	-0,131	-0,033
143,370	-53,671	-0,386	-0,123
144,385	342,397	-0,308	-0,422
145,400	61,406	-0,352	-0,245
146,414	6,250	-0,311	-0,161
147,429	130,013	-0,314	-0,281
148,443	205,992	-0,203	-0,221
149,458	-153,358	-0,187	-0,009
150,473	112,135	-0,291	-0,246
151,487	31,219	-0,226	-0,135
152,502	168,726	-0,275	-0,275
153,516	247,550	-0,199	-0,236
154,531	161,287	-0,176	-0,172
155,546	26,674	-0,155	0,091
156,560	239,956	-0,237	-0,276
157,575	-26,596	-0,302	-0,123
158,589	204,001	-0,210	-0,227
159,604	14,097	-0,307	-0,167
160,619	-60,754	-0,287	-0,084
161,633	10,074	-0,227	-0,120
162,648	111,552	-0,244	-0,206
163,662	224,946	-0,238	-0,269
164,677	8,406	-0,299	-0,157
165,692	-111,968	-0,226	-0,032
166,706	126,783	-0,250	-0,222
167,721	72,303	-0,295	-0,214
168,735	78,166	-0,198	-0,147
169,750	41,309	-0,198	-0,125
170,764	257,206	-0,156	-0,188
171,779	-3,961	-0,039	0,019
172,794	219,207	-0,223	-0,249
173,808	-200,000	-0,113	0,000
174,823	3,461	-0,245	-0,124
175,837	12,837	-0,422	-0,227
176,852	-10,695	-0,256	-0,118
177,867	14,371	-0,182	-0,099
178,881	256,085	-0,216	-0,258
179,896	-56,779	-0,220	-0,067
180,910	-38,036	-0,374	-0,138
181,925	72,203	-0,234	-0,170
182,940	51,066	-0,289	-0,191
183,954	66,223	-0,139	-0,098
184,969	800,000	-0,131	-0,273
185,983	-11,459	-0,269	-0,123
186,998	20,168	-0,129	-0,072
188,013	63,336	-0,224	-0,156
189,027	106,294	-0,227	-0,187
190,042	152,310	-0,211	-0,201
191,056	162,547	-0,171	-0,167
192,071	586,271	-0,175	-0,301
193,086	261,398	-0,211	-0,255
194,100	45,256	-0,104	-0,067
195,115	581,258	-0,113	-0,194
196,129	800,000	-0,172	-0,354
197,144	10,431	-0,226	-0,120
198,159	-83,972	-0,146	-0,032
199,173	173,529	-0,120	-0,121
200,188	99,935	-0,266	-0,214
201,202	225,444	-0,148	-0,167
202,217	190,568	-0,151	-0,158
203,232	172,700	-0,203	-0,203
204,246	65,923	-0,304	-0,214
205,261	31,806	-0,228	-0,136
206,275	199,191	-0,193	-0,206
207,290	293,581	-0,069	-0,088
208,304	39,177	-0,224	-0,139
209,319	297,545	-0,260	-0,333
210,334	41,912	-0,080	-0,050
211,348	132,397	-0,282	-0,253
212,363	125,432	-0,266	-0,234
213,377	-105,235	-0,254	-0,040
214,392	-46,796	-0,121	-0,041
215,407	-102,314	-0,109	0,018
216,421	800,000	-0,098	-0,256
217,436	211,626	-0,176	-0,193
218,450	116,170	-0,181	-0,154
219,465	18,976	-0,248	-0,138
220,480	-27,346	-0,253	-0,102
221,494	183,736	-0,133	-0,137
222,509	270,497	-0,072	-0,088
223,523	-71,584	-0,180	-0,046
224,538	-142,292	-0,260	0,018
225,553	190,901	-0,115	-0,120
226,567	-86,442	-0,282	-0,060
227,582	800,000	-0,097	-0,245
228,596	63,430	-0,235	-0,163
229,611	10,193	-0,147	0,077
230,626	29,208	-0,215	-0,126
231,640	59,053	-0,183	-0,125
232,655	-17,331	-0,157	-0,068
233,669	68,245	-0,174	-0,124
234,684	605,968	-0,179	-0,311
235,699	33,171	-0,139	-0,084
236,713	-105,055	-0,143	0,022
237,728	-10,643	-0,101	-0,046
238,742	606,201	-0,113	-0,196
239,757	341,902	-0,134	-0,182
240,772	13,082	-0,296	-0,159
241,786	443,145	-0,188	-0,287
242,801	318,693	-0,137	-0,180
243,815	436,888	-0,095	-0,144
244,830	-48,334	-0,144	-0,048
245,844	800,000	-0,088	-0,177
246,859	307,315	-0,156	-0,202
247,874	317,524	-0,232	-0,304
248,888	61,653	-0,162	-0,112
249,903	225,236	-0,161	-0,181
250,917	500,081	-0,142	-0,229
251,932	347,566	-0,155	-0,212
252,947	800,000	-0,136	-0,291
253,961	42,729	-0,092	-0,058
254,976	2,891	-0,293	-0,147
255,990	1,690	-0,194	-0,096
257,005	86,679	-0,190	-0,145
258,020	67,784	-0,166	-0,118
259,034	-0,707	-0,185	-0,091
260,049	800,000	-0,075	-0,174
261,063	-1,029	-0,120	-0,059
262,078	-18,839	-0,151	-0,065
263,093	800,000	-0,112	-0,232
264,107	-112,954	-0,260	-0,035
265,122	281,942	-0,120	-0,149
266,136	-200,000	-0,019	-0,089
267,151	-122,968	-0,214	0,024
268,166	-84,644	-0,166	0,036
269,180	181,900	-0,162	-0,165
270,195	79,432	-0,263	-0,195
271,209	50,349	-0,091	-0,060
272,224	-22,728	-0,293	-0,122
273,239	369,674	-0,160	-0,225
274,253	288,943	-0,058	-0,073
275,268	800,000	-0,051	-0,128
276,282	518,098	-0,139	-0,226
277,297	166,559	-0,081	-0,080
278,312	-14,508	-0,269	-0,119
279,326	89,046	-0,140	-0,108
280,341	94,214	-0,071	-0,056
281,355	-142,449	-0,177	-0,012
282,370	-200,000	-0,008	-0,225
283,384	-11,476	-0,253	-0,114
284,399	60,304	-0,192	-0,131
285,414	288,430	-0,109	-0,137
286,428	487,518	-0,123	-0,194
287,443	357,473	-0,099	-0,136
288,457	-167,291	-0,183	-0,005
289,472	-161,074	-0,183	-0,006
290,487	3,181	-0,121	-0,061
291,501	-91,073	-0,123	0,024
292,516	74,337	-0,258	-0,187
293,530	22,517	-0,286	-0,161
294,545	20,851	-0,217	-0,121
295,560	-142,468	-0,086	-0,006
296,574	-109,450	-0,159	-0,023
297,589	141,020	-0,079	-0,072
298,603	464,336	-0,165	-0,255
299,618	83,186	-0,177	-0,133
300,633	-49,771	-0,201	-0,066
301,647	173,256	-0,095	-0,095
302,662	-27,316	-0,213	-0,085
303,676	285,069	-0,072	-0,090
304,691	577,374	-0,161	-0,273
305,706	-122,265	-0,185	-0,021
306,720	34,409	-0,171	-0,103
307,735	45,907	-0,190	-0,121
308,749	26,420	-0,110	-0,063
309,764	-41,152	-0,126	-0,045
310,779	168,449	-0,159	-0,157
311,793	-200,000	-0,075	-0,240
312,808	429,903	-0,138	-0,206
313,822	-54,182	-0,225	-0,070
314,837	-200,000	-0,019	-0,260
315,852	-128,216	-0,083	-0,008
316,866	-195,887	-0,154	0,001
317,881	-29,707	-0,018	-0,007
318,895	98,632	-0,072	-0,057
319,910	352,079	-0,082	-0,112
320,925	20,522	-0,204	-0,113
321,939	324,594	-0,152	-0,200
322,954	543,729	-0,097	-0,160
323,968	68,426	-0,126	-0,089
324,983	76,617	-0,102	-0,074
325,997	63,392	-0,069	-0,048
327,012	119,845	-0,178	-0,152
328,027	121,129	-0,062	-0,053
329,041	-35,626	-0,226	-0,084
330,056	-46,435	-0,137	-0,046
331,070	441,416	-0,166	-0,250
332,085	-44,270	-0,157	0,054
333,100	-29,446	-0,110	-0,043
334,114	800,000	-0,052	-0,109
335,129	-116,343	-0,206	-0,026
336,143	149,394	-0,122	-0,113
337,158	-200,000	-0,035	-0,150
338,173	-200,000	0,038	0,116
339,187	-200,000	-0,005	-0,017
340,202	13,524	-0,175	0,093
341,216	433,667	-0,113	-0,170
342,231	-48,434	-0,241	-0,079
343,246	445,308	-0,165	-0,251
344,260	348,969	-0,057	-0,078
345,275	78,587	-0,113	-0,083
346,289	-154,063	-0,080	-0,004
347,304	148,378	-0,111	-0,103
348,319	-35,683	-0,126	0,047
349,333	130,004	-0,160	-0,141
350,348	570,033	-0,075	-0,127
351,362	420,553	-0,120	-0,178
352,377	800,000	-0,009	-0,027
353,392	68,926	-0,100	-0,070
354,406	-200,000	0,008	-0,116
355,421	208,402	1316,229	1414,951
356,435	160,360	1477,136	1415,467
