DTS Sentinel unit serial number:	SN410029Multiplexer serial number:	ORYXHardware model number:	OX2-SRSoftware version number:	ORYX F/W v4,00 Oryx Data Collector v3.7.2.0data status	okinstallation	B3 Nyhavnadifferential loss correction	single-endedforward channel	channel 1reverse channel	N/Adate	2023/11/30time	14:17:30forward acquisition time	300,00reverse acquisition time	0,00gamma	499,1914k internal	0,3210k external	0,3210temperature offset calibration	1,0000default loss term (dB/km)	0,3820temperature slope calibration	1,0000multiplexer offset coefficient	1,0000multiplexer slope coefficient	1,0000fibre end	0,00T internal ref (°C)	11,59T ext. ref 1 (°C)	-1,77T ext. ref 2 (°C)	-1,85length (m)	temperature (°C)	Stokes	anti-Stokes-744,400	398,812	-0,239	-0,365
-743,385	-200,000	0,022	0,125
-742,371	155,419	-0,065	-0,065
-741,356	-200,000	0,038	0,402
-740,342	-200,000	-0,066	-0,233
-739,327	-200,000	0,024	0,281
-738,312	172,239	-0,280	-0,292
-737,298	-200,000	-0,083	0,305
-736,283	276,456	-0,237	-0,306
-735,269	-200,000	0,008	0,374
-734,254	30,844	-0,265	-0,164
-733,239	-108,474	-0,149	0,023
-732,225	-200,000	-0,005	-0,222
-731,210	273,533	0,120	0,155
-730,196	-110,165	-0,131	-0,020
-729,181	332,386	-0,039	-0,054
-728,167	-200,000	-0,005	-0,035
-727,152	-200,000	0,001	0,041
-726,137	715,392	-0,016	0,031
-725,123	185,602	-0,126	-0,136
-724,108	-200,000	-0,015	-0,114
-723,094	-185,406	-0,155	0,002
-722,079	800,000	-0,041	-0,092
-721,064	800,000	-0,023	-0,059
-720,050	-200,000	-0,025	0,083
-719,035	399,117	-0,062	-0,095
-718,021	743,694	-0,039	0,077
-717,006	-71,476	-0,070	-0,019
-715,991	-116,347	-0,188	-0,025
-714,977	-56,797	-0,079	-0,025
-713,962	-2,900	-0,153	0,077
-712,948	-27,902	0,146	0,061
-711,933	529,630	0,022	0,038
-710,918	56,937	0,008	0,005
-709,904	-117,534	-0,037	-0,005
-708,889	107,163	-0,127	-0,109
-707,875	-71,838	-0,131	0,035
-706,860	218,802	0,027	-0,031
-705,845	14,460	0,021	-0,012
-704,831	-29,771	0,080	-0,033
-703,816	65,273	-0,131	-0,096
-702,802	-29,682	-0,128	-0,053
-701,787	-168,397	-0,089	-0,002
-700,772	800,000	0,020	-0,055
-699,758	-200,000	0,000	0,063
-698,743	12,445	0,125	0,070
-697,729	101,695	-0,046	0,039
-696,714	-101,099	0,061	-0,011
-695,699	-200,000	-0,008	-0,042
-694,685	-38,127	-0,040	-0,015
-693,670	425,832	-0,035	-0,055
-692,656	32,243	0,157	-0,098
-691,641	423,760	0,071	0,110
-690,627	175,445	0,051	0,054
-689,612	-89,088	0,077	0,016
-688,597	-17,573	-0,079	-0,036
-687,583	130,837	-0,035	0,033
-686,568	-73,482	-0,099	-0,026
-685,554	468,194	0,111	-0,181
-684,539	223,835	0,056	-0,066
-683,524	-39,131	0,081	-0,031
-682,510	-140,452	-0,084	0,006
-681,495	-7,673	-0,016	0,008
-680,481	-200,000	0,016	-0,061
-679,466	-200,000	-0,001	-0,177
-678,451	256,988	-0,017	-0,021
-677,437	-200,000	0,005	0,042
-676,422	-59,000	-0,144	-0,045
-675,408	-80,137	0,027	0,006
-674,393	130,751	0,027	0,025
-673,378	800,000	0,056	-0,155
-672,364	-200,000	-0,003	0,055
-671,349	800,000	0,012	-0,035
-670,335	-11,380	-0,066	-0,031
-669,320	15,416	0,146	-0,083
-668,305	48,975	-0,092	0,063
-667,291	16,578	-0,047	0,027
-666,276	57,120	-0,078	-0,055
-665,262	266,538	-0,030	-0,038
-664,247	800,000	-0,024	0,070
-663,232	-30,086	0,097	0,040
-662,218	-16,656	-0,049	0,023
-661,203	226,195	-0,094	-0,111
-660,189	800,000	0,041	-0,094
-659,174	55,978	-0,091	-0,064
-658,159	230,222	-0,022	0,027
-657,145	800,000	-0,029	-0,059
-656,130	-86,652	0,062	0,014
-655,116	207,707	-0,093	0,105
-654,101	301,863	0,066	-0,089
-653,086	115,269	-0,013	-0,011
-652,072	186,122	-0,091	-0,098
-651,057	-59,995	0,121	0,037
-650,043	9,711	0,044	0,024
-649,028	-88,093	-0,084	-0,018
-648,014	117,042	0,022	-0,020
-646,999	-200,000	-0,012	-0,080
-645,984	800,000	0,013	-0,040
-644,970	-33,845	0,060	0,024
-643,955	800,000	-0,019	-0,042
-642,941	-67,072	-0,081	-0,023
-641,926	800,000	0,033	-0,077
-640,911	-17,053	0,091	-0,041
-639,897	-200,000	0,035	-0,191
-638,882	-200,000	0,029	0,136
-637,868	234,548	-0,039	-0,046
-636,853	-66,258	-0,056	-0,016
-635,838	-200,000	-0,012	-0,108
-634,824	184,016	0,007	-0,007
-633,809	-200,000	0,019	0,078
-632,795	-200,000	0,011	-0,054
-631,780	-79,123	-0,103	0,025
-630,765	179,175	0,040	-0,042
-629,751	382,728	-0,025	-0,038
-628,736	800,000	-0,045	-0,104
-627,722	-145,189	-0,137	0,009
-626,707	6,245	0,097	-0,052
-625,692	-46,951	0,128	-0,045
-624,678	-200,000	-0,001	0,068
-623,663	230,092	-0,067	-0,079
-622,649	94,390	-0,048	-0,039
-621,634	800,000	0,022	0,066
-620,619	-24,952	-0,105	0,045
-619,605	404,654	0,044	-0,068
-618,590	39,440	0,088	0,057
-617,576	-200,000	0,005	0,074
-616,561	-83,864	0,074	0,017
-615,546	-125,237	-0,039	-0,004
-614,532	-89,990	-0,019	-0,004
-613,517	-200,000	0,018	0,094
-612,503	69,009	-0,073	0,054
-611,488	534,418	0,071	0,122
-610,474	232,951	0,070	0,083
-609,459	595,570	0,060	0,107
-608,444	225,588	-0,067	0,078
-607,430	-200,000	-0,009	-0,083
-606,415	103,256	0,090	-0,076
-605,401	398,020	0,004	-0,007
-604,386	-17,192	-0,124	0,056
-603,371	-131,703	0,224	0,021
-602,357	213,467	-0,090	0,103
-601,342	550,070	-0,021	-0,036
-600,328	657,993	-0,067	-0,126
-599,313	-168,802	-0,038	0,001
-598,298	62,945	0,114	0,082
-597,284	280,281	-0,043	-0,056
-596,269	-200,000	0,050	0,169
-595,255	-81,170	0,039	0,009
-594,240	-83,077	0,066	0,015
-593,225	74,769	-0,089	-0,068
-592,211	221,746	0,059	-0,069
-591,196	-89,269	-0,106	0,022
-590,182	40,684	-0,130	0,084
-589,167	29,092	0,142	0,087
-588,152	-200,000	0,016	0,085
-587,138	-132,426	0,049	0,004
-586,123	-200,000	-0,026	-0,162
-585,109	-200,000	0,013	0,101
-584,094	-112,896	-0,023	-0,003
-583,079	17,205	-0,024	-0,014
-582,065	-200,000	0,048	0,189
-581,050	-109,864	0,029	0,004
-580,036	800,000	-0,032	-0,095
-579,021	107,964	-0,206	-0,177
-578,006	442,546	-0,040	0,063
-576,992	-200,000	0,040	0,250
-575,977	-61,802	0,132	0,040
-574,963	110,592	0,028	0,025
-573,948	-61,431	0,047	0,014
-572,934	75,098	-0,072	0,055
-571,919	119,824	-0,088	0,079
-570,904	229,913	-0,069	-0,081
-569,890	-200,000	0,005	-0,032
-568,875	44,087	0,077	-0,051
-567,861	27,952	-0,074	0,045
-566,846	-200,000	0,006	-0,086
-565,831	306,990	-0,108	0,146
-564,817	-18,984	-0,021	0,010
-563,802	-135,947	-0,108	-0,009
-562,788	30,596	-0,029	0,018
-561,773	647,883	0,053	0,098
-560,758	312,423	0,023	-0,031
-559,744	-200,000	-0,017	-0,088
-558,729	-5,404	-0,077	0,038
-557,715	800,000	-0,030	-0,063
-556,700	-49,952	0,109	0,037
-555,685	800,000	0,076	-0,174
-554,671	261,919	-0,082	-0,103
-553,656	-200,000	-0,039	0,139
-552,642	800,000	0,011	0,033
-551,627	626,081	0,021	0,037
-550,612	130,177	-0,007	0,006
-549,598	65,888	0,005	-0,003
-548,583	800,000	0,023	-0,058
-547,569	-164,545	0,119	-0,004
-546,554	102,983	-0,021	0,018
-545,539	-200,000	0,026	-0,083
-544,525	800,000	0,024	-0,060
-543,510	3,276	-0,007	-0,003
-542,496	133,747	-0,063	-0,059
-541,481	800,000	-0,004	-0,011
-540,466	-119,084	-0,033	0,004
-539,452	-200,000	-0,016	-0,094
-538,437	-77,310	0,105	0,026
-537,423	110,395	0,080	-0,069
-536,408	17,575	-0,168	-0,096
-535,393	60,388	0,065	-0,046
-534,379	800,000	0,038	-0,109
-533,364	-125,286	-0,041	-0,004
-532,350	-116,947	0,077	-0,010
-531,335	800,000	-0,037	0,103
-530,321	233,664	0,085	0,100
-529,306	-200,000	0,027	-0,234
-528,291	85,362	0,043	-0,034
-527,277	778,387	0,025	-0,049
-526,262	-139,283	0,040	0,003
-525,248	73,528	0,054	0,040
-524,233	-200,000	0,016	0,117
-523,218	152,397	0,028	-0,028
-522,204	-106,057	-0,099	0,016
-521,189	505,072	-0,070	-0,117
-520,175	142,821	0,037	-0,035
-519,160	547,146	0,033	-0,057
-518,145	-133,859	-0,159	-0,014
-517,131	800,000	-0,020	0,059
-516,116	453,567	-0,043	0,069
-515,102	-200,000	-0,006	0,106
-514,087	-200,000	-0,019	-0,064
-513,072	-48,296	-0,118	-0,041
-512,058	800,000	-0,038	-0,101
-511,043	-28,520	0,154	-0,063
-510,029	291,357	-0,009	0,012
-509,014	101,544	0,068	0,057
-507,999	-200,000	-0,018	-0,133
-506,985	368,478	0,057	-0,083
-505,970	-200,000	0,002	-0,015
-504,956	207,502	-0,108	-0,121
-503,941	304,739	0,018	0,024
-502,926	-200,000	-0,003	0,065
-501,912	800,000	-0,035	0,108
-500,897	-200,000	0,006	0,030
-499,883	-92,850	-0,170	-0,034
-498,868	720,713	-0,030	-0,058
-497,853	-91,907	0,032	0,007
-496,839	800,000	0,017	-0,041
-495,824	-184,332	0,071	-0,001
-494,810	45,310	0,021	0,014
-493,795	51,066	-0,094	0,064
-492,781	26,267	-0,056	0,034
-491,766	-200,000	0,007	0,026
-490,751	147,972	-0,117	-0,114
-489,737	-7,836	-0,027	0,013
-488,722	-200,000	-0,010	0,062
-487,708	-6,508	-0,088	-0,043
-486,693	-112,596	0,040	-0,006
-485,678	-200,000	-0,022	-0,094
-484,664	-200,000	0,003	-0,106
-483,649	800,000	0,086	-0,259
-482,635	346,735	-0,137	-0,195
-481,620	-10,304	0,050	0,024
-480,605	-200,000	0,010	-0,045
-479,591	-151,782	-0,036	0,002
-478,576	-96,419	-0,100	-0,019
-477,562	-200,000	-0,016	-0,072
-476,547	542,148	-0,042	-0,073
-475,532	315,607	-0,017	-0,023
-474,518	800,000	-0,012	0,032
-473,503	65,624	-0,069	-0,050
-472,489	57,981	-0,058	-0,041
-471,474	18,627	-0,085	0,048
-470,459	800,000	-0,014	-0,029
-469,445	-200,000	0,015	0,056
-468,430	-200,000	-0,017	-0,064
-467,416	-16,250	-0,054	-0,025
-466,401	-174,313	0,044	-0,001
-465,386	800,000	0,030	0,078
-464,372	-80,236	-0,106	0,025
-463,357	246,458	-0,061	0,074
-462,343	-200,000	0,030	-0,122
-461,328	-200,000	-0,008	-0,030
-460,313	657,816	0,029	0,053
-459,299	-38,095	0,040	0,015
-458,284	705,554	0,016	0,030
-457,270	194,713	-0,018	-0,020
-456,255	250,779	-0,104	-0,127
-455,241	-77,703	-0,073	-0,018
-454,226	-200,000	-0,009	-0,074
-453,211	771,860	-0,033	0,065
-452,197	-52,813	0,134	-0,044
-451,182	83,140	-0,041	0,032
-450,168	468,341	-0,035	0,056
-449,153	-142,607	-0,032	0,002
-448,138	-13,316	-0,067	-0,031
-447,124	-94,665	-0,093	-0,018
-446,109	12,484	0,032	0,018
-445,095	-200,000	-0,024	0,153
-444,080	-36,568	0,051	0,020
-443,065	800,000	0,031	0,064
-442,051	-200,000	0,014	-0,099
-441,036	800,000	-0,071	-0,206
-440,022	15,599	-0,048	-0,027
-439,007	800,000	0,025	0,073
-437,992	-33,978	-0,134	0,053
-436,978	-60,020	0,118	0,036
-435,963	-200,000	-0,011	0,097
-434,949	-130,835	-0,036	-0,003
-433,934	645,718	-0,066	-0,122
-432,919	353,453	-0,064	-0,092
-431,905	800,000	0,024	0,053
-430,890	566,387	-0,027	0,047
-429,876	-101,575	0,144	0,025
-428,861	-71,925	0,087	0,023
-427,846	280,020	-0,038	0,049
-426,832	210,458	-0,058	-0,065
-425,817	-76,509	-0,048	0,012
-424,803	-12,891	0,144	-0,067
-423,788	-200,000	0,029	0,100
-422,773	-70,682	0,093	0,025
-421,759	83,881	-0,039	0,030
-420,744	13,100	-0,186	0,103
-419,730	236,617	0,096	-0,114
-418,715	555,897	-0,145	-0,251
-417,701	-200,000	0,034	-0,111
-416,686	162,216	0,094	0,095
-415,671	-200,000	0,003	0,091
-414,657	-134,320	0,111	0,010
-413,642	326,069	-0,091	-0,125
-412,628	800,000	0,066	0,143
-411,613	-115,843	0,033	-0,004
-410,598	55,914	-0,145	0,101
-409,584	87,905	-0,074	0,058
-408,569	-200,000	-0,015	0,103
-407,555	450,305	-0,041	0,066
-406,540	252,865	-0,088	0,108
-405,525	558,190	-0,010	0,018
-404,511	-79,234	0,061	0,015
-403,496	-30,076	0,073	-0,029
-402,482	90,546	0,101	0,081
-401,467	-163,040	0,078	0,003
-400,452	800,000	0,026	0,071
-399,438	-200,000	-0,027	-0,100
-398,423	18,456	0,137	-0,078
-397,409	-68,017	-0,060	-0,017
-396,394	-200,000	-0,003	-0,074
-395,379	174,391	-0,051	0,053
-394,365	242,103	0,058	-0,069
-393,350	-61,006	0,085	0,026
-392,336	183,500	-0,052	0,055
-391,321	-200,000	-0,005	-0,031
-390,306	-200,000	0,021	-0,108
-389,292	800,000	-0,069	-0,143
-388,277	-23,145	-0,103	0,044
-387,263	93,171	-0,041	-0,034
-386,248	41,386	0,089	0,058
-385,233	800,000	0,032	0,090
-384,219	81,990	0,091	0,071
-383,204	-200,000	0,001	-0,178
-382,190	-200,000	-0,014	0,062
-381,175	82,821	0,043	-0,033
-380,160	50,015	0,053	0,036
-379,146	-169,875	-0,037	0,001
-378,131	756,767	0,079	0,153
-377,117	-200,000	-0,021	-0,150
-376,102	-140,030	-0,200	-0,015
-375,088	-200,000	-0,020	-0,173
-374,073	-66,636	-0,098	-0,027
-373,058	68,858	0,044	0,032
-372,044	-55,364	0,222	-0,071
-371,029	369,500	0,043	0,062
-370,015	-77,796	0,108	0,027
-369,000	-138,342	0,055	-0,004
-367,985	216,037	0,074	0,084
-366,971	508,246	0,001	-0,001
-365,956	-67,293	0,082	-0,023
-364,942	-113,092	-0,066	-0,009
-363,927	-200,000	0,006	0,091
-362,912	-200,000	0,003	0,170
-361,898	-34,530	0,067	-0,026
-360,883	-200,000	0,018	-0,116
-359,869	95,010	-0,039	-0,031
-358,854	-200,000	-0,014	-0,049
-357,839	-43,929	0,078	-0,028
-356,825	117,948	0,069	0,061
-355,810	-200,000	0,024	0,133
-354,796	203,104	-0,065	-0,072
-353,781	-86,407	-0,081	0,018
-352,766	70,735	0,046	-0,034
-351,752	-49,001	-0,091	0,031
-350,737	-200,000	0,013	0,044
-349,723	538,720	0,040	0,068
-348,708	800,000	-0,012	0,027
-347,693	-78,908	-0,085	0,021
-346,679	-76,465	-0,079	-0,020
-345,664	800,000	-0,069	-0,155
-344,650	800,000	-0,026	-0,060
-343,635	-89,089	0,146	0,031
-342,620	-200,000	0,000	0,094
-341,606	198,752	0,050	-0,055
-340,591	-155,502	-0,056	-0,003
-339,577	-21,122	-0,138	0,060
-338,562	104,976	0,136	-0,115
-337,548	-200,000	-0,007	0,026
-336,533	-79,021	0,060	0,015
-335,518	800,000	-0,052	-0,106
-334,504	49,288	0,138	-0,093
-333,489	-192,642	0,008	0,000
-332,475	-31,013	0,004	0,001
-331,460	39,243	-0,046	-0,029
-330,445	800,000	0,032	-0,089
-329,431	800,000	-0,024	0,064
-328,416	45,886	0,028	-0,018
-327,402	545,336	-0,059	0,100
-326,387	-200,000	0,007	0,107
-325,372	-74,547	0,071	-0,018
-324,358	190,338	-0,075	0,081
-323,343	54,624	0,104	-0,071
-322,329	-149,676	-0,073	-0,004
-321,314	800,000	0,062	-0,190
-320,299	-8,612	-0,054	0,026
-319,285	-200,000	0,005	0,031
-318,270	585,225	-0,050	-0,089
-317,256	623,747	0,073	0,132
-316,241	-200,000	0,017	0,061
-315,226	-200,000	-0,002	0,198
-314,212	30,373	0,132	-0,080
-313,197	-200,000	-0,008	0,047
-312,183	10,043	-0,037	-0,020
-311,168	547,039	-0,082	-0,141
-310,153	800,000	-0,064	0,194
-309,139	159,722	0,019	-0,019
-308,124	291,634	-0,060	-0,079
-307,110	-109,130	0,090	0,013
-306,095	-200,000	-0,015	0,075
-305,080	-200,000	-0,004	0,168
-304,066	-200,000	-0,006	-0,141
-303,051	-106,177	0,032	0,005
-302,037	-15,446	0,084	-0,038
-301,022	82,010	-0,090	0,070
-300,008	100,678	0,026	-0,022
-298,993	-150,784	0,082	0,004
-297,978	-67,039	0,054	-0,015
-296,964	31,750	0,112	0,069
-295,949	-23,140	-0,214	0,092
-294,935	-133,361	0,058	0,005
-293,920	420,485	-0,062	-0,095
-292,905	-54,086	0,023	-0,007
-291,891	-200,000	0,027	0,166
-290,876	52,261	-0,100	0,068
-289,862	527,591	-0,024	-0,040
-288,847	-104,758	-0,096	-0,015
-287,832	-54,593	-0,081	-0,026
-286,818	-163,878	0,094	-0,003
-285,803	800,000	-0,046	0,120
-284,789	423,458	0,032	-0,049
-283,774	-11,126	-0,124	-0,058
-282,759	-70,486	0,091	0,024
-281,745	-124,321	0,070	0,008
-280,730	-117,357	-0,171	0,022
-279,716	717,261	-0,029	0,056
-278,701	27,874	0,104	0,063
-277,686	144,825	0,121	0,115
-276,672	274,979	0,066	-0,084
-275,657	185,215	-0,063	0,066
-274,643	201,030	-0,071	-0,078
-273,628	27,358	-0,206	-0,123
-272,613	308,872	0,017	-0,022
-271,599	-200,000	0,045	0,145
-270,584	294,430	-0,059	0,076
-269,570	27,999	-0,017	0,010
-268,555	104,387	-0,163	0,137
-267,540	-134,295	-0,077	-0,007
-266,526	116,888	-0,071	-0,062
-265,511	43,144	-0,033	-0,022
-264,497	485,246	-0,039	0,063
-263,482	-129,697	0,134	-0,013
-262,467	800,000	0,029	0,066
-261,453	159,284	-0,099	-0,098
-260,438	-200,000	0,013	0,056
-259,424	800,000	0,034	-0,086
-258,409	40,631	0,036	0,023
-257,395	-200,000	-0,027	0,133
-256,380	314,658	-0,052	-0,070
-255,365	-200,000	0,011	-0,080
-254,351	-73,883	0,105	0,027
-253,336	255,977	-0,095	0,116
-252,322	256,570	0,062	-0,075
-251,307	427,113	0,008	-0,012
-250,292	-114,857	-0,148	-0,020
-249,278	800,000	-0,044	0,102
-248,263	-104,921	0,080	0,013
-247,249	-89,413	-0,063	-0,013
-246,234	-87,626	0,025	0,005
-245,219	628,018	-0,034	0,062
-244,205	-36,522	-0,011	-0,004
-243,190	-200,000	0,014	0,043
-242,176	9,011	-0,084	0,045
-241,161	-103,395	0,118	0,020
-240,146	149,179	-0,098	-0,095
-239,132	103,286	-0,020	-0,017
-238,117	-183,526	-0,212	0,003
-237,103	-80,256	0,016	0,004
-236,088	130,372	0,040	0,037
-235,073	-14,952	0,173	0,078
-234,059	-82,646	0,115	-0,026
-233,044	800,000	0,041	0,091
-232,030	-200,000	0,002	-0,080
-231,015	152,961	-0,029	0,028
-230,000	-200,000	0,005	-0,045
-228,986	800,000	0,032	-0,078
-227,971	661,020	-0,053	0,098
-226,957	-41,425	0,140	-0,051
-225,942	-200,000	0,033	-0,115
-224,927	-61,713	0,225	-0,066
-223,913	188,867	-0,116	0,124
-222,898	163,060	0,043	0,043
-221,884	800,000	0,058	-0,128
-220,869	491,284	0,082	-0,134
-219,855	198,795	-0,080	-0,087
-218,840	451,396	0,112	0,176
-217,825	-98,808	0,156	0,028
-216,811	-76,580	0,060	-0,015
-215,796	1,550	0,041	0,021
-214,782	800,000	0,032	0,080
-213,767	140,292	0,158	0,148
-212,752	-200,000	-0,055	0,225
-211,738	-29,744	0,110	-0,045
-210,723	-200,000	-0,017	0,096
-209,709	-200,000	-0,015	-0,108
-208,694	800,000	-0,072	0,147
-207,679	-8,349	0,044	-0,021
-206,665	800,000	0,029	0,079
-205,650	443,591	-0,006	-0,009
-204,636	-200,000	-0,001	0,145
-203,621	-200,000	-0,001	-0,029
-202,606	-121,900	-0,037	0,004
-201,592	46,863	-0,097	-0,064
-200,577	17,848	0,148	-0,084
-199,563	32,358	0,163	0,100
-198,548	-179,295	-0,131	0,002
-197,533	366,369	0,079	0,114
-196,519	-200,000	-0,002	0,030
-195,504	-200,000	-0,003	-0,037
-194,490	-200,000	0,005	0,081
-193,475	1,432	0,094	0,048
-192,460	151,927	0,057	-0,055
-191,446	65,111	0,152	-0,109
-190,431	58,529	-0,031	0,022
-189,417	-10,018	0,037	-0,017
-188,402	-200,000	0,022	-0,088
-187,387	352,370	-0,069	-0,098
-186,373	417,598	-0,051	-0,078
-185,358	20,434	-0,065	0,037
-184,344	150,602	0,102	0,098
-183,329	-92,400	0,136	-0,027
-182,315	-105,749	0,064	0,010
-181,300	27,179	0,092	-0,055
-180,285	43,698	0,099	-0,064
-179,271	800,000	-0,041	-0,113
-178,256	309,556	0,012	0,016
-177,242	-200,000	0,015	-0,080
-176,227	-200,000	-0,008	0,109
-175,212	274,668	-0,058	-0,073
-174,198	-200,000	0,008	0,066
-173,183	800,000	-0,071	0,168
-172,169	100,330	-0,068	0,056
-171,154	-93,959	-0,025	0,005
-170,139	-200,000	0,013	0,127
-169,125	515,523	0,032	-0,053
-168,110	13,444	0,093	0,051
-167,096	800,000	-0,048	0,138
-166,081	800,000	0,030	-0,074
-165,066	-150,059	-0,065	-0,004
-164,052	-200,000	-0,016	0,083
-163,037	-200,000	-0,015	0,098
-162,023	800,000	-0,031	0,084
-161,008	49,014	-0,075	-0,050
-159,993	259,590	-0,067	-0,083
-158,979	-10,682	0,026	0,012
-157,964	800,000	-0,039	0,101
-156,950	-44,298	-0,080	-0,028
-155,935	498,987	0,051	-0,084
-154,920	106,208	0,110	-0,093
-153,906	29,373	0,142	-0,085
-152,891	-200,000	-0,039	-0,166
-151,877	-20,931	-0,088	0,038
-150,862	291,810	-0,045	-0,058
-149,847	-35,781	-0,039	0,015
-148,833	-200,000	-0,037	-0,167
-147,818	191,731	0,054	-0,057
-146,804	-156,591	0,094	-0,004
-145,789	800,000	-0,045	0,125
-144,775	97,098	-0,116	-0,094
-143,760	-76,046	0,080	0,020
-142,745	-12,847	-0,041	-0,019
-141,731	319,816	0,097	0,131
-140,716	2,484	0,193	0,099
-139,702	-200,000	-0,015	0,147
-138,687	146,021	0,096	0,092
-137,672	-175,119	-0,082	0,002
-136,658	153,010	-0,077	0,074
-135,643	-50,309	0,079	0,026
-134,629	185,178	0,033	-0,035
-133,614	147,926	0,081	0,077
-132,599	-200,000	-0,002	-0,076
-131,585	153,459	0,086	-0,083
-130,570	-144,567	-0,098	-0,006
-129,556	140,583	0,067	0,063
-128,541	455,050	-0,063	0,100
-127,526	-118,909	0,051	-0,006
-126,512	423,303	0,045	-0,069
-125,497	-200,000	0,009	-0,093
-124,483	800,000	0,037	0,089
-123,468	234,812	0,082	-0,096
-122,453	-16,375	0,068	-0,031
-121,439	800,000	-0,009	0,022
-120,424	-200,000	-0,008	-0,038
-119,410	157,051	-0,069	0,068
-118,395	-84,640	0,114	0,025
-117,380	-34,053	0,059	0,023
-116,366	22,432	-0,051	0,029
-115,351	-84,309	0,095	0,021
-114,337	129,156	-0,057	0,051
-113,322	-28,923	-0,093	-0,038
-112,307	-200,000	-0,009	-0,094
-111,293	-200,000	0,017	0,098
-110,278	-200,000	0,001	0,057
-109,264	-141,557	-0,042	0,003
-108,249	-200,000	-0,005	-0,075
-107,234	-200,000	0,009	-0,128
-106,220	800,000	-0,016	0,045
-105,205	70,762	-0,136	0,100
-104,191	800,000	0,008	0,019
-103,176	206,663	-0,028	0,031
-102,162	800,000	-0,037	0,105
-101,147	58,922	0,066	0,046
-100,132	-96,928	-0,094	0,017
-99,118	-110,286	-0,097	-0,014
-98,103	449,267	-0,085	0,134
-97,089	800,000	-0,051	0,139
-96,074	-44,482	0,070	-0,025
-95,059	-200,000	0,029	0,171
-94,045	515,427	-0,065	0,107
-93,030	-200,000	0,035	0,110
-92,016	800,000	0,047	0,098
-91,001	-6,601	0,067	-0,032
-89,986	-53,983	0,186	-0,060
-88,972	800,000	0,007	-0,021
-87,957	385,301	0,026	0,038
-86,943	10,897	-0,137	0,074
-85,928	182,067	-0,021	-0,022
-84,913	-133,299	-0,085	-0,007
-83,899	-200,000	0,016	-0,050
-82,884	120,087	-0,070	0,062
-81,870	-200,000	0,012	0,075
-80,855	-78,955	-0,051	-0,012
-79,840	-117,062	0,147	0,019
-78,826	197,133	0,071	-0,077
-77,811	-200,000	-0,047	-0,153
-76,797	-200,000	0,008	-0,098
-75,782	-200,000	-0,005	0,063
-74,767	-11,846	0,176	0,081
-73,753	-200,000	0,024	0,090
-72,738	800,000	0,029	0,084
-71,724	61,362	-0,068	0,048
-70,709	-200,000	-0,006	-0,141
-69,694	580,716	-0,097	-0,168
-68,680	-124,249	-0,093	0,010
-67,665	-47,054	0,079	-0,027
-66,651	-200,000	-0,047	0,316
-65,636	-117,202	-0,176	-0,022
-64,622	-157,235	0,066	0,003
-63,607	-123,598	-0,148	-0,016
-62,592	-59,481	0,077	0,023
-61,578	-151,203	0,103	0,005
-60,563	226,392	0,049	0,056
-59,549	800,000	0,038	0,109
-58,534	-14,655	-1,919	-0,867
-57,519	434,834	-1,346	-2,073
-56,505	-200,000	-0,391	-4,326
-55,490	203,915	1,088	1,191
-54,476	800,000	5,009	11,387
-53,461	-200,000	20,306	327,462
-52,446	800,000	751,792	2310,041
-51,432	548,685	1658,769	2816,160
-50,417	74,275	1665,573	1233,689
-49,403	19,448	1538,513	870,559
-48,388	13,429	1460,703	797,408
-47,373	18,792	1451,003	817,837
-46,359	16,338	1440,515	800,210
-45,344	11,685	1435,991	775,510
-44,330	11,653	1434,130	774,318
-43,315	11,611	1432,507	773,213
-42,300	11,647	1430,833	772,448
-41,286	11,627	1429,309	771,503
-40,271	11,624	1428,007	770,755
-39,257	11,632	1426,807	770,114
-38,242	11,677	1425,568	769,628
-37,227	11,653	1424,600	768,960
-36,213	11,621	1423,218	768,032
-35,198	11,666	1422,007	767,563
-34,184	11,699	1421,332	767,323
-33,169	11,581	1419,977	766,003
-32,154	11,672	1418,937	765,842
-31,140	11,725	1417,579	765,326
-30,125	11,744	1416,361	764,731
-29,111	11,722	1415,290	764,017
-28,096	11,719	1414,139	763,350
-27,082	11,616	1413,106	762,277
-26,067	11,647	1411,906	761,747
-25,052	11,629	1411,044	761,167
-24,038	11,572	1410,159	760,393
-23,023	11,631	1408,897	759,957
-22,009	11,576	1407,945	759,159
-20,994	11,609	1406,929	758,733
-19,979	11,639	1406,009	758,348
-18,965	11,564	1405,245	757,556
-17,950	11,578	1404,345	757,107
-16,936	11,606	1403,335	756,664
-15,921	11,491	1402,514	755,651
-14,906	11,501	1401,505	755,126
-13,892	11,561	1400,366	754,762
-12,877	11,530	1399,825	754,296
-11,863	11,549	1398,845	753,825
-10,848	11,478	1398,115	753,073
-9,833	11,443	1397,140	752,356
-8,819	11,412	1396,195	751,676
-7,804	11,440	1395,226	751,254
-6,790	11,484	1394,066	750,801
-5,775	11,449	1393,112	750,095
-4,760	11,416	1392,302	749,478
-3,746	11,428	1391,399	749,018
-2,731	11,426	1390,598	748,548
-1,717	11,363	1389,781	747,788
-0,702	11,413	1387,912	746,980
0,313	15,517	1303,188	720,183
1,327	32,004	696,773	422,731
2,342	50,222	121,319	80,702
3,356	4,117	16,475	8,477
4,371	10,390	3,323	1,779
5,386	-10,695	0,949	0,441
6,400	-200,000	0,072	0,336
7,415	121,195	-0,222	-0,195
8,429	-28,535	-0,187	-0,076
9,444	-52,856	-0,385	-0,124
10,459	-20,426	-0,337	-0,146
11,473	1,391	-0,262	-0,132
12,488	42,711	-0,178	-0,114
13,502	-54,786	-0,478	-0,151
14,517	319,275	-0,201	-0,270
15,531	90,501	-0,318	-0,251
16,546	354,699	-0,202	-0,284
17,561	68,295	-0,317	-0,228
18,575	-123,868	-0,233	-0,026
19,590	338,127	-0,160	-0,220
20,604	86,104	-0,298	-0,231
21,619	88,122	-0,425	-0,332
22,634	60,182	-0,511	-0,355
23,648	91,741	-0,433	-0,343
24,663	99,746	-0,304	-0,248
25,677	278,501	-0,275	-0,346
26,692	-28,499	-0,436	-0,176
27,707	56,869	-0,343	-0,235
28,721	132,820	-0,311	-0,283
29,736	-33,300	-0,366	-0,142
30,750	169,726	-0,377	-0,380
31,765	100,266	-0,307	-0,251
32,780	66,396	-0,249	-0,178
33,794	-9,859	-0,336	-0,157
34,809	7,842	-0,318	-0,167
35,823	86,586	-0,419	-0,325
36,838	142,496	-0,358	-0,335
37,853	41,580	-0,492	-0,313
38,867	303,202	-0,335	-0,438
39,882	34,913	-0,396	-0,243
40,896	90,718	-0,336	-0,264
41,911	98,777	-0,484	-0,392
42,926	-55,574	-0,330	-0,103
43,940	136,946	-0,345	-0,317
44,955	44,178	-0,439	-0,282
45,969	9,714	-0,288	-0,153
46,984	800,000	-0,173	-0,377
47,999	76,791	-0,360	-0,269
49,013	85,144	-0,304	-0,234
50,028	80,909	-0,343	-0,260
51,042	89,031	-0,298	-0,233
52,057	674,700	-0,208	-0,381
53,071	224,652	-0,290	-0,330
54,086	39,153	-0,382	-0,239
55,101	12,415	-0,220	-0,119
56,115	139,170	-0,295	-0,273
57,130	-39,229	-0,325	-0,119
58,144	-14,735	-0,375	-0,168
59,159	100,585	-0,364	-0,297
60,174	62,389	-0,417	-0,292
61,188	-77,840	-0,341	-0,082
62,203	254,876	-0,250	-0,301
63,217	16,555	-0,411	-0,227
64,232	-10,578	-0,361	-0,167
65,247	61,779	-0,349	-0,243
66,261	309,852	-0,295	-0,388
67,276	-53,918	-0,409	-0,130
68,290	29,176	-0,260	-0,154
69,305	16,912	-0,269	-0,149
70,320	87,039	-0,337	-0,261
71,334	18,750	-0,358	-0,200
72,349	-89,048	-0,369	-0,076
73,363	198,815	-0,182	-0,196
74,378	105,723	-0,330	-0,274
75,393	72,293	-0,358	-0,261
76,407	-93,656	-0,262	-0,050
77,422	130,758	-0,268	-0,241
78,436	-84,377	-0,325	-0,072
79,451	44,535	-0,345	-0,222
80,466	20,232	-0,390	-0,220
81,480	144,753	-0,159	-0,149
82,495	20,216	-0,311	-0,176
83,509	434,218	-0,135	-0,206
84,524	-122,675	-0,331	-0,037
85,539	-117,492	-0,356	-0,045
86,553	183,445	-0,256	-0,266
87,568	9,332	-0,369	-0,195
88,582	97,876	-0,391	-0,315
89,597	92,700	-0,157	-0,124
90,611	62,901	-0,155	-0,108
91,626	-75,308	-0,224	-0,056
92,641	37,285	-0,224	-0,139
93,655	-139,951	-0,294	-0,021
94,670	265,220	-0,159	-0,194
95,684	66,041	-0,295	-0,209
96,699	-20,960	-0,351	-0,150
97,714	85,720	-0,228	-0,175
98,728	-53,445	-0,254	-0,081
99,743	11,444	-0,247	-0,132
100,757	-95,347	-0,297	-0,055
101,772	-20,606	-0,416	-0,178
102,787	25,721	-0,292	-0,170
103,801	33,408	-0,261	-0,158
104,816	253,276	-0,228	-0,273
105,830	59,162	-0,258	-0,177
106,845	84,151	-0,250	-0,191
107,860	75,147	-0,304	-0,224
108,874	206,264	-0,138	-0,150
109,889	505,720	-0,168	-0,273
110,903	99,238	-0,315	-0,254
111,918	2,974	-0,241	-0,122
112,933	6,240	-0,291	-0,150
113,947	46,885	-0,364	-0,236
114,962	-50,999	-0,166	-0,054
115,976	559,126	-0,178	-0,301
116,991	12,939	-0,295	-0,159
118,006	53,871	-0,188	-0,126
119,020	130,158	-0,206	-0,185
120,035	138,677	-0,133	-0,122
121,049	208,248	-0,193	-0,211
122,064	35,398	-0,197	-0,121
123,079	-35,362	-0,323	-0,122
124,093	157,448	-0,252	-0,244
125,108	600,474	-0,168	-0,293
126,122	227,473	-0,277	-0,315
127,137	148,562	-0,189	-0,178
128,151	134,517	-0,106	-0,096
129,166	-162,266	-0,144	-0,005
130,181	32,380	-0,229	-0,138
131,195	95,878	-0,255	-0,203
132,210	120,940	-0,280	-0,243
133,224	168,140	-0,189	-0,188
134,239	469,056	-0,082	-0,130
135,254	7,566	-0,280	-0,146
136,268	52,517	-0,191	-0,127
137,283	93,792	-0,235	-0,185
138,297	93,339	-0,192	-0,152
139,312	-1,188	-0,384	-0,188
140,327	74,990	-0,296	-0,217
141,341	-37,163	-0,150	-0,056
142,356	231,967	-0,134	-0,154
143,370	26,815	-0,292	-0,170
144,385	0,519	-0,254	-0,126
145,400	131,834	-0,311	-0,279
146,414	113,371	-0,264	-0,223
147,429	393,382	-0,215	-0,313
148,443	37,318	-0,199	-0,123
149,458	42,193	-0,242	-0,153
150,473	224,657	-0,255	-0,288
151,487	-9,763	-0,304	-0,140
152,502	35,232	-0,188	-0,114
153,516	-49,451	-0,200	-0,066
154,531	261,654	-0,240	-0,290
155,546	426,146	-0,209	-0,315
156,560	104,450	-0,208	-0,170
157,575	38,885	-0,184	-0,114
158,589	-43,016	-0,215	-0,075
159,604	-31,649	-0,236	-0,092
160,619	43,782	-0,252	-0,160
161,633	-68,224	-0,283	-0,076
162,648	266,273	-0,164	-0,200
163,662	130,082	-0,235	-0,209
164,677	10,574	-0,216	-0,114
165,692	77,646	-0,226	-0,167
166,706	132,097	-0,245	-0,219
167,721	388,202	-0,180	-0,259
168,735	187,484	-0,203	-0,210
169,750	261,255	-0,186	-0,224
170,764	-149,889	-0,211	-0,011
171,779	43,265	-0,194	-0,123
172,794	147,620	-0,210	-0,196
173,808	21,733	-0,288	-0,162
174,823	117,861	-0,165	-0,141
175,837	800,000	-0,120	-0,233
176,852	-89,718	-0,382	-0,077
177,867	-200,000	-0,020	-0,175
178,881	-123,394	-0,262	0,029
179,896	152,819	-0,156	-0,148
180,910	202,012	-0,099	-0,106
181,925	39,912	-0,305	-0,190
182,940	-15,386	-0,350	-0,155
183,954	17,806	-0,172	-0,095
184,969	-72,300	-0,366	-0,094
185,983	139,427	-0,206	-0,188
186,998	-94,104	-0,055	-0,010
188,013	30,537	-0,246	-0,146
189,027	101,022	-0,256	-0,207
190,042	256,476	-0,223	-0,266
191,056	138,073	-0,145	-0,132
192,071	58,010	-0,243	-0,165
193,086	-184,252	-0,158	-0,002
194,100	154,563	-0,189	-0,180
195,115	17,445	-0,238	-0,131
196,129	26,111	-0,233	-0,134
197,144	5,187	-0,340	-0,173
198,159	118,166	-0,201	-0,172
199,173	132,353	-0,282	-0,252
200,188	208,762	-0,241	-0,261
201,202	-200,000	-0,027	-0,227
202,217	-184,239	-0,295	-0,003
203,232	247,822	-0,190	-0,223
204,246	9,284	-0,274	-0,143
205,261	392,386	-0,138	-0,200
206,275	310,211	-0,157	-0,204
207,290	800,000	-0,077	-0,210
208,304	-16,127	-0,178	-0,078
209,319	-123,315	-0,126	0,014
210,334	-40,515	-0,365	-0,130
211,348	160,720	-0,179	-0,173
212,363	-75,972	-0,175	-0,042
213,377	31,807	-0,129	-0,077
214,392	800,000	0,071	-0,172
215,407	59,466	-0,239	-0,163
216,421	76,478	-0,193	-0,142
217,436	62,107	-0,144	-0,099
218,450	-25,334	-0,166	-0,068
219,465	61,959	-0,152	-0,105
220,480	-52,268	-0,322	-0,103
221,494	-162,557	-0,221	-0,007
222,509	-49,374	-0,186	-0,061
223,523	-48,625	-0,210	-0,069
224,538	-139,654	-0,215	0,016
225,553	-18,395	-0,174	-0,075
226,567	100,811	-0,179	-0,144
227,582	-82,496	-0,208	0,046
228,596	-53,460	-0,170	-0,054
229,611	-200,000	-0,035	-0,209
230,626	163,005	-0,191	-0,186
231,640	-113,115	-0,334	0,045
232,655	-41,842	-0,366	-0,129
233,669	388,516	-0,227	-0,326
234,684	-137,716	-0,219	-0,017
235,699	-99,787	-0,163	-0,028
236,713	-39,364	-0,116	-0,042
237,728	-53,788	-0,184	-0,058
238,742	35,118	-0,131	0,079
239,757	119,971	-0,200	-0,171
240,772	152,770	-0,225	-0,212
241,786	47,769	-0,179	-0,115
242,801	340,382	-0,101	-0,136
243,815	-171,060	-0,242	-0,006
244,830	-200,000	-0,040	-0,164
245,844	115,418	-0,180	-0,152
246,859	-50,931	-0,237	-0,076
247,874	142,747	-0,172	-0,158
248,888	-200,000	-0,008	-0,245
249,903	800,000	-0,051	-0,136
250,917	-200,000	-0,000	-0,067
251,932	30,231	-0,103	-0,061
252,947	800,000	-0,100	-0,251
253,961	659,197	-0,173	-0,309
254,976	183,875	-0,143	-0,146
255,990	208,503	-0,184	-0,199
257,005	553,125	-0,122	-0,203
258,020	89,252	-0,110	-0,084
259,034	-97,057	-0,171	-0,031
260,049	-168,752	-0,192	-0,005
261,063	33,380	-0,171	-0,102
262,078	72,492	-0,167	-0,120
263,093	-200,000	-0,074	-0,278
264,107	-118,415	-0,283	-0,034
265,122	13,257	-0,319	-0,170
266,136	-22,983	-0,136	0,056
267,151	800,000	-0,071	-0,141
268,166	509,676	-0,136	-0,218
269,180	-31,437	-0,269	-0,104
270,195	273,649	-0,117	-0,143
271,209	108,471	-0,194	-0,160
272,224	161,697	-0,272	-0,262
273,239	-3,290	-0,166	-0,080
274,253	113,768	-0,209	-0,175
275,268	252,096	-0,126	-0,148
276,282	-200,000	-0,007	-0,214
277,297	172,249	-0,103	-0,102
278,312	112,376	-0,115	-0,096
279,326	24,017	-0,149	-0,085
280,341	164,593	-0,147	-0,143
281,355	-58,760	-0,229	0,068
282,370	44,889	-0,131	-0,083
283,384	63,803	-0,239	-0,165
284,399	-6,186	-0,188	-0,088
285,414	229,587	-0,167	-0,188
286,428	-152,730	-0,133	-0,006
287,443	3,533	-0,165	-0,082
288,457	184,975	-0,112	-0,115
289,472	-48,659	-0,155	0,051
290,487	50,394	-0,214	-0,139
291,501	39,132	-0,117	-0,072
292,516	53,856	-0,144	-0,095
293,530	331,982	-0,091	-0,122
294,545	769,589	-0,080	-0,151
295,560	448,403	-0,043	-0,065
296,574	-49,209	-0,156	0,051
297,589	-22,735	-0,147	-0,061
298,603	-31,821	-0,282	-0,108
299,618	353,297	-0,168	-0,230
300,633	-14,571	-0,148	-0,065
301,647	119,619	-0,041	-0,035
302,662	-168,718	-0,172	0,004
303,676	37,684	-0,161	-0,098
304,691	44,767	-0,093	-0,059
305,706	800,000	-0,093	-0,222
306,720	76,308	-0,184	-0,134
307,735	94,544	-0,053	-0,041
308,749	-36,678	-0,133	-0,049
309,764	33,920	-0,079	-0,047
310,779	123,049	-0,120	-0,103
311,793	192,234	-0,103	-0,107
312,808	34,588	-0,116	-0,069
313,822	115,530	-0,249	-0,209
314,837	-78,568	-0,228	-0,053
315,852	-78,441	-0,202	0,047
316,866	50,956	-0,123	0,080
317,881	-38,047	-0,085	-0,031
318,895	189,570	-0,127	-0,131
319,910	171,646	-0,185	-0,182
320,925	378,598	-0,083	-0,117
321,939	320,421	-0,082	-0,108
322,954	447,746	-0,101	-0,153
323,968	-43,180	-0,138	-0,048
324,983	-122,372	-0,116	-0,013
325,997	111,546	-0,188	-0,155
327,012	-64,925	-0,238	-0,065
328,027	-200,000	-0,039	-0,198
329,041	-19,766	-0,274	-0,116
330,056	-101,892	-0,184	0,030
331,070	334,787	-0,147	-0,196
332,085	312,447	-0,099	-0,128
333,100	31,898	-0,164	-0,096
334,114	-78,871	-0,185	0,043
335,129	-200,000	-0,022	-0,177
336,143	-19,665	-0,086	-0,036
337,158	800,000	-0,035	-0,090
338,173	-38,440	-0,198	-0,071
339,187	48,879	-0,103	-0,066
340,202	-200,000	-0,024	-0,122
341,216	724,626	-0,103	-0,188
342,231	261,465	-0,197	-0,234
343,246	713,056	-0,103	-0,188
344,260	-200,000	-0,078	0,000
345,275	-75,651	-0,098	-0,024
346,289	-11,714	-0,218	-0,097
347,304	-200,000	-0,051	-0,162
348,319	14,928	-0,150	-0,080
349,333	-97,770	-0,179	-0,031
350,348	-3,361	-0,099	-0,047
351,362	261,169	-0,152	-0,180
352,377	376,206	-0,092	-0,129
353,392	-68,410	-0,049	-0,013
354,406	-76,367	-0,209	-0,050
355,421	207,213	1311,400	1400,598
356,435	159,389	1471,723	1401,088
