DTS Sentinel unit serial number:	SN410029Multiplexer serial number:	ORYXHardware model number:	OX2-SRSoftware version number:	ORYX F/W v4,00 Oryx Data Collector v3.7.2.0data status	okinstallation	B3 Nyhavnadifferential loss correction	single-endedforward channel	channel 1reverse channel	N/Adate	2023/12/01time	05:07:30forward acquisition time	300,00reverse acquisition time	0,00gamma	499,1914k internal	0,3213k external	0,3213temperature offset calibration	1,0000default loss term (dB/km)	0,3820temperature slope calibration	1,0000multiplexer offset coefficient	1,0000multiplexer slope coefficient	1,0000fibre end	0,00T internal ref (°C)	7,92T ext. ref 1 (°C)	-7,22T ext. ref 2 (°C)	-7,35length (m)	temperature (°C)	Stokes	anti-Stokes-744,400	409,373	-0,175	-0,269
-743,385	-200,000	0,085	0,308
-742,371	-200,000	-0,045	-0,261
-741,356	206,538	-0,170	0,192
-740,342	-62,154	-0,181	-0,054
-739,327	-200,000	-0,015	0,285
-738,312	150,271	-0,195	-0,192
-737,298	-200,000	-0,021	0,212
-736,283	263,963	-0,137	-0,173
-735,269	800,000	0,099	0,287
-734,254	800,000	-0,152	-0,322
-733,239	57,810	-0,191	0,135
-732,225	314,827	-0,106	-0,145
-731,210	758,194	0,096	0,189
-730,196	512,750	0,072	-0,123
-729,181	170,585	-0,108	-0,112
-728,167	342,685	0,056	-0,080
-727,152	521,953	-0,062	0,106
-726,137	-200,000	0,015	-0,138
-725,123	155,608	-0,102	-0,102
-724,108	-13,462	-0,150	0,070
-723,094	325,297	-0,153	-0,213
-722,079	-46,176	0,086	-0,030
-721,064	126,498	0,065	-0,060
-720,050	-23,986	-0,062	0,027
-719,035	-107,480	0,129	-0,020
-718,021	740,430	0,004	0,008
-717,006	114,612	-0,168	-0,149
-715,991	-200,000	0,024	-0,198
-714,977	81,209	-0,143	-0,112
-713,962	179,031	0,056	0,059
-712,948	-86,668	0,054	-0,012
-711,933	800,000	-0,037	0,077
-710,918	-59,341	-0,049	0,015
-709,904	-200,000	-0,000	0,042
-708,889	150,075	-0,091	-0,089
-707,875	192,899	-0,083	-0,091
-706,860	116,596	0,093	-0,083
-705,845	-200,000	0,006	0,112
-704,831	-200,000	0,003	0,018
-703,816	203,249	0,039	0,043
-702,802	800,000	-0,046	-0,129
-701,787	193,199	-0,121	-0,133
-700,772	207,424	-0,049	-0,055
-699,758	150,536	-0,011	0,011
-698,743	58,602	0,015	-0,011
-697,729	-74,968	0,089	-0,023
-696,714	-200,000	0,013	0,118
-695,699	-177,236	0,033	-0,001
-694,685	51,152	-0,111	-0,076
-693,670	-200,000	0,003	-0,031
-692,656	-200,000	0,017	0,057
-691,641	-166,914	-0,065	-0,002
-690,627	-200,000	0,019	0,111
-689,612	238,932	-0,053	0,064
-688,597	149,474	-0,042	-0,041
-687,583	-200,000	0,003	-0,056
-686,568	-200,000	0,046	-0,169
-685,554	800,000	0,017	0,047
-684,539	251,616	-0,057	0,070
-683,524	43,045	0,140	0,092
-682,510	40,849	0,080	0,052
-681,495	33,674	-0,074	-0,047
-680,481	-36,200	0,081	-0,031
-679,466	66,994	-0,036	-0,027
-678,451	-200,000	-0,018	-0,063
-677,437	-200,000	0,013	0,119
-676,422	25,167	-0,112	-0,067
-675,408	619,587	-0,082	-0,149
-674,393	158,894	-0,069	-0,069
-673,378	178,593	0,019	0,020
-672,364	475,979	0,019	-0,031
-671,349	383,711	-0,015	-0,022
-670,335	-156,012	-0,102	-0,005
-669,320	320,819	0,058	0,080
-668,305	-200,000	0,004	0,099
-667,291	-105,568	-0,019	0,003
-666,276	472,158	-0,080	-0,130
-665,262	90,702	0,018	0,014
-664,247	-200,000	0,002	0,053
-663,232	164,657	-0,109	-0,111
-662,218	-200,000	0,021	-0,070
-661,203	217,455	-0,090	0,104
-660,189	-72,698	0,187	0,050
-659,174	14,570	-0,057	-0,032
-658,159	97,787	-0,034	-0,028
-657,145	25,492	-0,134	-0,081
-656,130	-4,377	-0,128	-0,064
-655,116	27,623	0,053	-0,032
-654,101	-98,578	-0,113	0,021
-653,086	1,868	-0,035	-0,018
-652,072	313,415	-0,080	0,109
-651,057	115,328	0,008	-0,007
-650,043	601,484	-0,047	-0,085
-649,028	-79,011	0,099	0,024
-648,014	-89,169	-0,089	-0,019
-646,999	724,055	0,068	0,132
-645,984	99,262	0,051	-0,042
-644,970	-104,235	-0,098	-0,016
-643,955	259,486	-0,138	-0,172
-642,941	-200,000	-0,027	-0,108
-641,926	-31,409	0,053	0,022
-640,911	800,000	0,020	-0,054
-639,897	328,708	0,045	0,062
-638,882	-200,000	-0,008	0,145
-637,868	49,964	0,053	0,036
-636,853	544,541	0,012	0,020
-635,838	400,025	0,033	-0,051
-634,824	462,433	0,017	-0,027
-633,809	-108,547	0,014	0,002
-632,795	176,343	-0,053	-0,055
-631,780	-200,000	0,018	0,065
-630,765	375,845	-0,075	-0,111
-629,751	-20,274	-0,089	-0,040
-628,736	628,152	-0,035	-0,063
-627,722	-33,567	0,035	0,014
-626,707	-98,469	-0,098	0,018
-625,692	0,556	0,163	0,084
-624,678	185,798	-0,075	-0,081
-623,663	-200,000	-0,001	-0,167
-622,649	-58,226	0,074	-0,023
-621,634	52,675	-0,079	-0,054
-620,619	-180,904	-0,170	-0,002
-619,605	-81,904	0,094	0,022
-618,590	474,601	0,008	0,013
-617,576	-23,062	-0,044	-0,019
-616,561	309,499	-0,038	0,052
-615,546	-200,000	0,005	-0,054
-614,532	160,210	-0,041	0,041
-613,517	-200,000	0,017	-0,075
-612,503	390,120	-0,032	-0,047
-611,488	-200,000	-0,039	0,135
-610,474	-44,041	-0,057	-0,021
-609,459	-79,398	0,138	-0,033
-608,444	-33,386	0,030	-0,012
-607,430	800,000	0,017	0,045
-606,415	-120,321	-0,049	-0,006
-605,401	800,000	-0,012	0,034
-604,386	-34,426	0,090	0,035
-603,371	-143,738	0,054	0,004
-602,357	800,000	-0,026	-0,076
-601,342	92,776	0,065	-0,053
-600,328	285,336	0,021	0,028
-599,313	379,599	-0,031	0,046
-598,298	-200,000	-0,019	0,070
-597,284	-74,475	-0,119	0,031
-596,269	-85,191	-0,086	0,019
-595,255	64,639	-0,063	0,046
-594,240	-58,011	-0,086	0,027
-593,225	-93,952	-0,034	-0,007
-592,211	-105,064	0,068	0,011
-591,196	-176,562	0,116	0,002
-590,182	-200,000	-0,011	0,096
-589,167	207,214	-0,070	0,079
-588,152	400,759	0,034	0,051
-587,138	-18,305	-0,215	0,096
-586,123	-25,185	-0,023	0,010
-585,109	487,510	-0,093	0,154
-584,094	-200,000	0,004	-0,077
-583,079	-123,564	0,157	-0,018
-582,065	-30,563	0,045	0,018
-581,050	-122,974	0,084	-0,010
-580,036	800,000	0,028	-0,066
-579,021	800,000	-0,045	-0,108
-578,006	337,641	-0,103	-0,145
-576,992	-200,000	0,005	0,054
-575,977	62,555	-0,100	0,072
-574,963	-200,000	0,010	-0,034
-573,948	457,993	-0,013	0,021
-572,934	75,884	0,152	-0,116
-571,919	-185,756	0,078	0,001
-570,904	215,560	-0,041	0,046
-569,890	189,395	-0,046	0,050
-568,875	-200,000	-0,003	0,078
-567,861	344,088	0,027	-0,038
-566,846	-61,188	-0,037	0,011
-565,831	510,190	-0,095	0,159
-564,817	-100,711	-0,134	-0,024
-563,802	66,036	-0,024	-0,017
-562,788	-0,299	-0,015	0,008
-561,773	-200,000	0,006	0,019
-560,758	-200,000	0,003	-0,021
-559,744	-200,000	-0,016	0,114
-558,729	800,000	0,029	-0,090
-557,715	-157,115	-0,135	0,006
-556,700	222,852	-0,065	0,075
-555,685	-26,703	0,080	0,034
-554,671	1,302	-0,105	-0,054
-553,656	720,855	0,024	-0,045
-552,642	12,645	0,024	0,013
-551,627	26,724	0,064	0,038
-550,612	709,146	-0,063	-0,120
-549,598	250,341	-0,058	-0,072
-548,583	-200,000	-0,002	-0,008
-547,569	-46,078	0,061	-0,022
-546,554	-66,590	0,080	0,023
-545,539	800,000	0,079	0,183
-544,525	48,244	0,081	0,054
-543,510	-92,680	-0,026	-0,005
-542,496	11,333	-0,080	-0,044
-541,481	-150,909	-0,082	0,004
-540,466	36,738	0,082	-0,052
-539,452	625,400	0,091	-0,165
-538,437	103,269	0,023	0,019
-537,423	262,569	0,089	0,112
-536,408	-200,000	0,025	0,092
-535,393	48,371	-0,084	0,057
-534,379	223,724	0,011	-0,012
-533,364	110,257	0,075	0,065
-532,350	-200,000	-0,012	-0,040
-531,335	-155,575	0,075	-0,003
-530,321	147,747	0,035	0,034
-529,306	-72,210	-0,032	0,008
-528,291	187,071	-0,097	-0,104
-527,277	-12,366	-0,078	-0,037
-526,262	-73,068	0,130	0,034
-525,248	-200,000	-0,011	0,065
-524,233	30,828	0,093	0,057
-523,218	-200,000	0,008	0,091
-522,204	13,465	0,048	-0,027
-521,189	376,091	-0,102	-0,150
-520,175	800,000	-0,062	-0,158
-519,160	-98,165	0,060	-0,011
-518,145	-200,000	0,017	0,139
-517,131	307,611	0,041	-0,054
-516,116	-200,000	-0,010	0,059
-515,102	-38,775	0,129	-0,049
-514,087	-200,000	0,024	-0,095
-513,072	413,287	-0,030	0,047
-512,058	86,656	-0,119	-0,094
-511,043	209,861	-0,019	-0,022
-510,029	49,974	-0,044	0,030
-509,014	-123,948	0,076	0,008
-507,999	800,000	0,027	0,073
-506,985	18,620	-0,087	0,050
-505,970	-200,000	0,010	-0,053
-504,956	800,000	-0,065	-0,186
-503,941	-16,910	0,103	0,046
-502,926	800,000	0,007	-0,018
-501,912	-106,491	0,174	0,028
-500,897	-152,170	0,163	-0,008
-499,883	-200,000	0,008	-0,053
-498,868	-65,258	-0,039	0,011
-497,853	-1,684	-0,051	-0,026
-496,839	47,479	0,051	-0,034
-495,824	-158,984	-0,136	0,005
-494,810	69,072	0,038	-0,028
-493,795	-200,000	-0,027	-0,087
-492,781	-168,664	0,100	0,003
-491,766	164,882	-0,096	0,098
-490,751	-200,000	-0,037	-0,125
-489,737	-4,225	-0,102	-0,050
-488,722	76,709	0,045	0,034
-487,708	-200,000	-0,003	0,115
-486,693	1,194	-0,062	-0,032
-485,678	-102,880	0,135	-0,023
-484,664	161,174	-0,063	-0,063
-483,649	-200,000	0,011	-0,145
-482,635	336,863	-0,056	0,078
-481,620	139,539	-0,094	-0,088
-480,605	-200,000	0,001	-0,025
-479,591	-166,758	0,095	-0,003
-478,576	255,069	0,013	0,016
-477,562	800,000	0,021	0,056
-476,547	-124,104	-0,023	0,003
-475,532	-38,541	0,038	-0,014
-474,518	-142,384	0,077	-0,005
-473,503	-60,301	-0,017	0,005
-472,489	711,524	-0,023	-0,045
-471,474	-119,308	0,140	-0,017
-470,459	40,762	0,016	0,010
-469,445	-200,000	-0,021	-0,089
-468,430	-200,000	-0,012	-0,057
-467,416	405,690	0,066	0,100
-466,401	-200,000	0,008	0,072
-465,386	-200,000	-0,012	0,130
-464,372	543,906	-0,025	-0,043
-463,357	525,162	0,073	-0,123
-462,343	-200,000	0,016	0,081
-461,328	105,578	-0,066	-0,056
-460,313	-141,639	-0,177	0,013
-459,299	-200,000	0,000	-0,045
-458,284	290,218	0,068	0,089
-457,270	-200,000	-0,014	0,057
-456,255	237,874	0,135	-0,161
-455,241	-200,000	0,026	-0,108
-454,226	-26,331	-0,045	0,019
-453,211	-200,000	-0,017	-0,053
-452,197	-169,268	0,174	0,004
-451,182	-200,000	0,004	-0,029
-450,168	-104,700	0,060	0,010
-449,153	-58,790	-0,141	0,043
-448,138	96,568	-0,022	-0,018
-447,124	-200,000	0,016	-0,070
-446,109	299,816	0,142	-0,188
-445,095	-25,365	0,054	-0,023
-444,080	-200,000	0,011	0,071
-443,065	-200,000	0,032	0,177
-442,051	800,000	0,004	0,009
-441,036	-93,886	0,010	-0,002
-440,022	-200,000	0,031	-0,135
-439,007	-53,449	-0,082	-0,027
-437,992	236,614	0,040	0,047
-436,978	399,367	0,088	0,133
-435,963	800,000	-0,047	0,107
-434,949	-200,000	-0,001	0,067
-433,934	139,007	-0,103	-0,097
-432,919	-54,714	-0,073	-0,024
-431,905	-146,133	0,070	-0,004
-430,890	120,638	0,080	0,072
-429,876	800,000	0,065	0,134
-428,861	33,878	0,038	0,024
-427,846	-58,450	-0,062	-0,019
-426,832	-200,000	0,008	-0,121
-425,817	61,023	0,031	-0,022
-424,803	-35,832	-0,108	0,042
-423,788	62,836	0,111	-0,080
-422,773	-160,452	0,053	-0,002
-421,759	317,233	-0,076	-0,103
-420,744	430,513	0,050	0,077
-419,730	800,000	-0,028	0,080
-418,715	766,128	-0,050	0,098
-417,701	-28,510	0,134	0,055
-416,686	158,956	0,111	0,110
-415,671	683,941	-0,027	0,050
-414,657	-132,891	-0,065	0,006
-413,642	800,000	-0,068	-0,208
-412,628	-200,000	0,014	-0,162
-411,613	-5,140	0,044	-0,022
-410,598	-58,126	0,048	-0,015
-409,584	-16,700	-0,075	-0,034
-408,569	-200,000	0,037	0,186
-407,555	-200,000	-0,018	0,098
-406,540	-200,000	-0,005	0,021
-405,525	200,932	-0,132	-0,145
-404,511	-200,000	-0,026	0,197
-403,496	-200,000	0,003	0,051
-402,482	-62,268	0,115	0,034
-401,467	73,913	0,022	0,017
-400,452	-73,372	0,221	0,057
-399,438	-53,802	-0,097	0,031
-398,423	2,782	-0,087	-0,045
-397,409	-200,000	-0,003	0,022
-396,394	138,202	-0,019	0,018
-395,379	-158,850	-0,068	-0,003
-394,365	87,312	0,132	-0,105
-393,350	-124,749	0,077	-0,008
-392,336	-146,187	0,092	0,006
-391,321	-50,779	0,126	-0,042
-390,306	-200,000	0,006	-0,108
-389,292	800,000	0,028	-0,071
-388,277	-86,377	-0,082	-0,018
-387,263	-200,000	0,008	0,113
-386,248	800,000	-0,053	0,111
-385,233	-200,000	0,024	0,122
-384,219	-66,989	0,094	-0,026
-383,204	800,000	-0,070	-0,187
-382,190	-200,000	0,002	-0,088
-381,175	23,521	0,043	0,025
-380,160	11,475	0,079	0,043
-379,146	800,000	-0,035	-0,093
-378,131	-116,336	-0,048	-0,006
-377,117	-1,742	0,022	0,011
-376,102	-200,000	-0,004	-0,022
-375,088	800,000	0,036	-0,107
-374,073	-2,590	0,023	-0,011
-373,058	-200,000	-0,013	-0,052
-372,044	-200,000	-0,028	0,109
-371,029	650,476	-0,006	0,011
-370,015	278,940	0,062	0,079
-369,000	170,658	-0,050	-0,051
-367,985	99,092	-0,102	0,084
-366,971	132,019	0,153	0,141
-365,956	800,000	-0,040	-0,106
-364,942	22,830	0,036	0,021
-363,927	-200,000	-0,003	-0,044
-362,912	-22,991	-0,101	-0,043
-361,898	-200,000	-0,011	-0,120
-360,883	800,000	-0,005	0,013
-359,869	-71,846	0,010	0,003
-358,854	131,791	0,036	-0,033
-357,839	-200,000	0,028	0,141
-356,825	800,000	-0,047	-0,115
-355,810	-27,815	0,094	-0,039
-354,796	307,564	-0,101	-0,134
-353,781	-200,000	-0,013	-0,141
-352,766	800,000	0,078	-0,166
-351,752	800,000	-0,040	0,098
-350,737	800,000	0,009	-0,020
-349,723	514,282	0,108	0,181
-348,708	62,535	-0,067	0,047
-347,693	-31,662	0,015	-0,006
-346,679	-18,804	-0,049	-0,022
-345,664	800,000	-0,036	-0,096
-344,650	-200,000	0,000	-0,025
-343,635	-21,008	0,056	-0,024
-342,620	-119,613	-0,020	0,002
-341,606	800,000	0,041	0,098
-340,591	239,044	-0,026	0,031
-339,577	-97,027	-0,082	0,015
-338,562	659,483	0,108	-0,199
-337,548	-200,000	-0,038	-0,229
-336,533	800,000	-0,026	-0,082
-335,518	800,000	-0,067	0,137
-334,504	-200,000	0,031	0,158
-333,489	-200,000	-0,008	0,092
-332,475	-18,067	0,086	-0,038
-331,460	-200,000	0,018	-0,108
-330,445	365,859	0,098	-0,141
-329,431	800,000	-0,026	-0,052
-328,416	141,549	0,082	-0,078
-327,402	106,695	-0,050	0,042
-326,387	-200,000	0,005	-0,120
-325,372	-200,000	-0,015	0,077
-324,358	249,729	-0,082	-0,100
-323,343	-80,093	-0,084	0,020
-322,329	284,757	0,054	0,069
-321,314	-200,000	0,014	0,051
-320,299	788,284	0,022	0,043
-319,285	-61,607	0,105	-0,031
-318,270	196,027	-0,062	-0,067
-317,256	619,199	-0,052	-0,093
-316,241	-200,000	-0,029	-0,136
-315,226	343,781	0,024	0,034
-314,212	-90,895	0,041	0,008
-313,197	-200,000	0,035	0,203
-312,183	-121,594	0,191	-0,022
-311,168	-35,911	-0,025	0,010
-310,153	-200,000	-0,010	-0,080
-309,139	-78,463	0,016	0,004
-308,124	22,337	-0,140	0,081
-307,110	256,952	0,070	0,085
-306,095	544,898	0,041	0,070
-305,080	-129,765	-0,015	-0,001
-304,066	-35,744	-0,103	-0,039
-303,051	41,733	-0,058	0,038
-302,037	-60,321	0,144	-0,043
-301,022	-200,000	0,041	-0,146
-300,008	-200,000	0,014	0,084
-298,993	-132,278	-0,079	-0,007
-297,978	317,684	-0,051	0,068
-296,964	312,817	-0,050	-0,067
-295,949	-13,611	0,086	0,039
-294,935	420,058	-0,088	0,134
-293,920	196,712	0,071	0,077
-292,905	800,000	0,074	0,151
-291,891	191,611	0,146	0,157
-290,876	173,414	0,096	-0,099
-289,862	432,232	-0,045	0,070
-288,847	-14,953	-0,068	0,031
-287,832	-63,907	0,089	-0,026
-286,818	800,000	0,036	-0,090
-285,803	58,940	0,075	-0,053
-284,789	162,344	0,103	0,103
-283,774	800,000	0,015	0,034
-282,759	-200,000	0,002	0,025
-281,745	443,444	0,003	0,005
-280,730	-200,000	-0,001	-0,025
-279,716	-178,804	-0,079	0,001
-278,701	110,911	-0,016	-0,013
-277,686	-69,093	-0,021	0,006
-276,672	-189,083	0,046	0,000
-275,657	52,269	-0,045	-0,030
-274,643	3,671	-0,091	-0,047
-273,628	593,468	-0,030	-0,052
-272,613	204,256	-0,084	0,093
-271,599	-37,282	-0,097	-0,037
-270,584	800,000	0,068	-0,140
-269,570	512,727	0,050	0,083
-268,555	-200,000	0,013	0,236
-267,540	-64,435	-0,289	-0,083
-266,526	-200,000	-0,028	-0,131
-265,511	800,000	-0,039	0,107
-264,497	800,000	0,013	-0,029
-263,482	-33,898	0,077	0,030
-262,467	164,950	0,088	0,088
-261,453	-200,000	-0,007	0,203
-260,438	800,000	-0,026	0,059
-259,424	167,749	-0,046	-0,046
-258,409	-158,790	-0,069	0,003
-257,395	469,235	-0,038	-0,061
-256,380	-200,000	-0,035	-0,141
-255,365	93,212	0,116	0,093
-254,351	100,390	-0,144	0,119
-253,336	-200,000	0,005	-0,015
-252,322	185,416	-0,055	-0,059
-251,307	165,286	-0,043	-0,043
-250,292	-127,747	0,042	-0,004
-249,278	-200,000	-0,009	0,125
-248,263	159,664	0,069	0,068
-247,249	-200,000	0,077	0,241
-246,234	-200,000	-0,022	-0,073
-245,219	713,085	-0,019	-0,036
-244,205	64,034	-0,056	-0,040
-243,190	-200,000	0,005	-0,067
-242,176	-200,000	0,023	0,108
-241,161	213,733	0,041	-0,046
-240,146	-76,736	0,115	0,028
-239,132	715,098	0,023	0,043
-238,117	-118,861	-0,112	0,014
-237,103	-50,407	-0,075	0,025
-236,088	-64,849	-0,102	0,029
-235,073	479,993	-0,036	0,058
-234,059	-70,795	0,103	0,027
-233,044	-43,769	0,072	0,026
-232,030	699,318	-0,034	0,063
-231,015	800,000	-0,048	0,110
-230,000	-200,000	-0,027	-0,113
-228,986	-54,551	-0,092	-0,029
-227,971	-200,000	-0,007	-0,082
-226,957	800,000	0,073	0,169
-225,942	299,832	0,074	0,098
-224,927	37,501	-0,049	0,031
-223,913	-200,000	-0,012	-0,077
-222,898	-67,868	0,208	-0,057
-221,884	-200,000	-0,013	-0,101
-220,869	145,132	0,068	0,064
-219,855	800,000	0,021	0,058
-218,840	-94,658	0,125	-0,024
-217,825	-113,285	0,011	-0,001
-216,811	-155,547	0,023	0,001
-215,796	112,105	-0,030	-0,026
-214,782	40,230	-0,016	0,010
-213,767	-44,591	0,114	0,040
-212,752	800,000	0,046	0,122
-211,738	597,924	0,035	0,061
-210,723	-200,000	0,000	0,149
-209,709	16,886	-0,087	-0,049
-208,694	489,364	-0,043	-0,071
-207,679	46,624	-0,073	-0,048
-206,665	578,730	0,061	-0,107
-205,650	-200,000	-0,038	0,174
-204,636	-141,875	-0,155	-0,011
-203,621	-143,593	0,050	-0,003
-202,606	-200,000	-0,009	0,035
-201,592	25,181	0,087	0,051
-200,577	-125,110	-0,053	0,006
-199,563	-200,000	-0,006	-0,157
-198,548	-68,681	-0,198	0,054
-197,533	329,730	-0,024	0,033
-196,519	126,693	0,074	-0,066
-195,504	145,331	-0,162	-0,154
-194,490	78,328	-0,075	-0,056
-193,475	275,299	-0,046	0,058
-192,460	476,137	-0,045	0,072
-191,446	257,210	-0,022	0,027
-190,431	267,986	0,086	0,108
-189,417	800,000	-0,077	-0,197
-188,402	282,093	0,070	-0,089
-187,387	41,953	0,066	-0,042
-186,373	-200,000	-0,011	0,084
-185,358	461,061	-0,063	-0,099
-184,344	38,460	-0,099	0,062
-183,329	-142,889	-0,060	0,004
-182,315	214,113	-0,090	0,101
-181,300	118,258	0,033	-0,029
-180,285	-200,000	-0,026	-0,102
-179,271	-95,790	0,075	-0,014
-178,256	-78,229	-0,110	0,027
-177,242	68,886	0,048	0,035
-176,227	-77,538	-0,078	-0,019
-175,212	-200,000	-0,001	0,070
-174,198	-64,253	-0,162	0,047
-173,183	-152,576	-0,175	0,009
-172,169	-200,000	-0,034	-0,154
-171,154	-91,738	-0,049	0,010
-170,139	-200,000	0,004	0,092
-169,125	128,335	0,028	-0,025
-168,110	-29,358	0,144	0,058
-167,096	-200,000	-0,009	0,048
-166,081	67,570	-0,087	0,063
-165,066	48,437	-0,154	-0,102
-164,052	219,346	0,093	-0,106
-163,037	-200,000	0,004	-0,072
-162,023	55,915	0,134	0,092
-161,008	149,020	-0,062	0,060
-159,993	-200,000	0,013	0,173
-158,979	378,510	-0,049	-0,071
-157,964	345,864	0,098	-0,137
-156,950	499,718	-0,061	-0,099
-155,935	-114,652	-0,014	0,002
-154,920	724,230	0,018	-0,035
-153,906	310,343	-0,020	0,027
-152,891	159,813	0,101	-0,100
-151,877	-200,000	0,017	-0,087
-150,862	-62,002	0,094	0,028
-149,847	-200,000	-0,007	-0,092
-148,833	132,856	-0,068	-0,062
-147,818	-171,406	0,134	0,003
-146,804	-98,071	0,064	-0,011
-145,789	-84,647	0,072	0,016
-144,775	242,359	0,083	-0,098
-143,760	-200,000	-0,007	0,038
-142,745	-200,000	-0,008	-0,195
-141,731	49,462	-0,033	-0,022
-140,716	-200,000	0,050	-0,197
-139,702	683,203	-0,025	0,047
-138,687	-86,704	0,057	-0,012
-137,672	469,920	-0,030	-0,048
-136,658	-200,000	0,004	-0,030
-135,643	581,342	0,045	0,079
-134,629	-200,000	0,002	0,080
-133,614	457,246	-0,031	0,049
-132,599	590,288	0,062	0,109
-131,585	-23,850	-0,111	0,047
-130,570	24,967	0,089	0,052
-129,556	-200,000	0,002	-0,073
-128,541	195,992	-0,034	-0,036
-127,526	800,000	0,020	0,057
-126,512	-200,000	0,001	0,055
-125,497	70,469	0,127	-0,093
-124,483	56,066	0,098	0,067
-123,468	114,523	-0,013	-0,011
-122,453	1,263	-0,089	-0,045
-121,439	114,035	-0,070	-0,060
-120,424	3,395	0,117	-0,060
-119,410	648,552	0,026	0,047
-118,395	339,304	0,103	0,142
-117,380	-106,303	0,151	-0,024
-116,366	338,265	-0,099	-0,137
-115,351	11,693	-0,151	0,082
-114,337	-5,375	0,130	-0,063
-113,322	206,767	0,019	-0,020
-112,307	-200,000	0,011	0,038
-111,293	571,350	-0,060	0,103
-110,278	559,824	0,053	0,091
-109,264	800,000	0,060	0,175
-108,249	168,314	-0,061	0,061
-107,234	-200,000	0,016	0,105
-106,220	-63,885	-0,137	-0,039
-105,205	66,122	0,088	0,063
-104,191	-111,567	0,065	-0,009
-103,176	-59,511	0,142	0,043
-102,162	-103,977	-0,094	0,015
-101,147	162,949	0,036	-0,036
-100,132	362,194	-0,112	-0,160
-99,118	-200,000	-0,011	-0,067
-98,103	-139,448	0,108	-0,008
-97,089	46,592	0,162	0,106
-96,074	-153,237	0,146	0,007
-95,059	-200,000	-0,016	0,186
-94,045	-29,001	-0,126	-0,051
-93,030	253,056	-0,041	-0,050
-92,016	35,999	-0,069	-0,043
-91,001	-200,000	-0,010	0,043
-89,986	442,236	0,037	0,058
-88,972	-200,000	-0,016	0,098
-87,957	799,497	0,030	0,060
-86,943	-200,000	0,004	0,082
-85,928	-157,151	-0,145	0,006
-84,913	-19,959	-0,092	0,040
-83,899	-200,000	0,017	0,073
-82,884	-200,000	0,015	0,160
-81,870	508,345	0,034	0,057
-80,855	-200,000	-0,030	0,119
-79,840	141,714	-0,023	-0,022
-78,826	37,117	0,041	0,025
-77,811	-17,984	-0,038	0,017
-76,797	800,000	-0,069	-0,157
-75,782	192,345	0,053	-0,057
-74,767	-69,694	0,060	-0,016
-73,753	800,000	0,011	-0,026
-72,738	648,644	0,021	0,038
-71,724	-200,000	-0,040	-0,128
-70,709	800,000	-0,045	0,134
-69,694	-200,000	-0,036	-0,154
-68,680	277,982	0,014	-0,018
-67,665	-200,000	-0,008	-0,069
-66,651	-200,000	-0,020	-0,074
-65,636	-200,000	-0,024	-0,090
-64,622	285,885	0,139	0,177
-63,607	447,973	-0,029	0,046
-62,592	800,000	-0,024	0,049
-61,578	453,932	0,106	-0,166
-60,563	159,591	0,076	0,075
-59,549	-38,323	-0,016	0,006
-58,534	49,850	-2,226	-1,478
-57,519	500,709	-1,074	-1,756
-56,505	-200,000	-0,350	-4,513
-55,490	786,402	0,806	1,567
-54,476	800,000	5,409	11,630
-53,461	-200,000	22,533	347,555
-52,446	800,000	757,140	2289,019
-51,432	531,641	1642,193	2750,262
-50,417	67,640	1640,864	1180,943
-49,403	15,546	1518,587	839,049
-48,388	9,769	1444,869	770,592
-47,373	19,276	1437,755	812,038
-46,359	13,346	1425,960	777,385
-45,344	8,109	1422,086	750,495
-44,330	8,047	1420,359	749,260
-43,315	7,953	1418,474	747,794
-42,300	7,998	1416,676	747,029
-41,286	8,057	1415,172	746,481
-40,271	8,014	1414,155	745,716
-39,257	8,013	1412,807	744,967
-38,242	8,027	1411,917	744,535
-37,227	8,015	1410,843	743,885
-36,213	7,992	1409,471	743,024
-35,198	8,028	1408,146	742,464
-34,184	8,050	1407,275	742,076
-33,169	7,977	1406,049	741,060
-32,154	8,012	1405,186	740,738
-31,140	8,006	1403,647	739,869
-30,125	8,068	1402,459	739,504
-29,111	8,017	1401,533	738,749
-28,096	8,047	1400,292	738,207
-27,082	7,980	1398,957	737,162
-26,067	7,928	1398,062	736,417
-25,052	7,982	1396,941	736,048
-24,038	7,961	1395,938	735,396
-23,023	7,949	1395,140	734,891
-22,009	7,922	1394,229	734,254
-20,994	7,908	1393,058	733,546
-19,979	7,937	1392,035	733,110
-18,965	7,886	1391,265	732,441
-17,950	7,859	1390,323	731,792
-16,936	7,840	1389,487	731,232
-15,921	7,878	1388,285	730,747
-14,906	7,841	1387,533	730,154
-13,892	7,929	1386,455	729,960
-12,877	7,839	1385,746	729,145
-11,863	7,844	1384,873	728,677
-10,848	7,850	1383,943	728,186
-9,833	7,812	1383,233	727,610
-8,819	7,757	1382,337	726,856
-7,804	7,777	1381,184	726,312
-6,790	7,763	1380,257	725,736
-5,775	7,784	1379,076	725,179
-4,760	7,803	1378,317	724,837
-3,746	7,776	1377,576	724,298
-2,731	7,789	1376,621	723,823
-1,717	7,779	1375,637	723,235
-0,702	7,750	1373,843	722,131
0,313	11,683	1283,978	692,704
1,327	27,357	675,865	399,495
2,342	41,922	116,368	74,267
3,356	-0,317	16,636	8,307
4,371	1,448	3,912	1,977
5,386	-18,385	1,487	0,652
6,400	673,983	0,308	0,566
7,415	-51,073	-0,167	-0,055
8,429	-54,656	-0,336	-0,106
9,444	423,753	-0,178	-0,271
10,459	-78,084	-0,282	-0,068
11,473	102,086	-0,214	-0,176
12,488	-60,112	-0,274	-0,082
13,502	-70,657	-0,373	-0,099
14,517	25,795	-0,247	-0,145
15,531	94,887	-0,321	-0,257
16,546	2,280	-0,432	-0,219
17,561	-31,008	-0,362	-0,143
18,575	445,981	-0,072	-0,112
19,590	156,251	-0,252	-0,245
20,604	59,122	-0,194	-0,134
21,619	77,128	-0,417	-0,312
22,634	-6,987	-0,430	-0,205
23,648	103,702	-0,267	-0,220
24,663	142,129	-0,331	-0,309
25,677	77,606	-0,321	-0,240
26,692	-35,063	-0,338	-0,129
27,707	61,513	-0,314	-0,219
28,721	56,757	-0,344	-0,235
29,736	389,297	-0,274	-0,401
30,750	59,788	-0,464	-0,322
31,765	240,076	-0,303	-0,356
32,780	180,828	-0,311	-0,321
33,794	64,549	-0,348	-0,246
34,809	93,761	-0,341	-0,271
35,823	155,997	-0,295	-0,286
36,838	312,885	-0,301	-0,399
37,853	115,451	-0,423	-0,363
38,867	171,531	-0,331	-0,334
39,882	144,586	-0,270	-0,253
40,896	132,137	-0,295	-0,267
41,911	103,662	-0,214	-0,176
42,926	-40,664	-0,317	-0,115
43,940	148,877	-0,376	-0,357
44,955	54,686	-0,238	-0,161
45,969	8,569	-0,339	-0,179
46,984	160,646	-0,242	-0,238
47,999	-64,359	-0,384	-0,109
49,013	78,652	-0,283	-0,212
50,028	-38,850	-0,274	-0,101
51,042	133,612	-0,174	-0,158
52,057	126,835	-0,326	-0,290
53,071	41,001	-0,336	-0,212
54,086	80,590	-0,305	-0,230
55,101	-20,964	-0,346	-0,148
56,115	128,925	-0,262	-0,234
57,130	170,743	-0,219	-0,221
58,144	16,678	-0,398	-0,220
59,159	16,655	-0,372	-0,206
60,174	149,809	-0,447	-0,425
61,188	47,622	-0,340	-0,222
62,203	-0,081	-0,346	-0,172
63,217	210,166	-0,239	-0,263
64,232	61,516	-0,313	-0,218
65,247	44,828	-0,312	-0,201
66,261	110,190	-0,388	-0,326
67,276	190,537	-0,246	-0,260
68,290	133,176	-0,341	-0,309
69,305	-31,832	-0,318	-0,124
70,320	-76,163	-0,401	-0,098
71,334	29,069	-0,142	-0,084
72,349	-156,831	-0,325	0,014
73,363	170,439	-0,263	-0,264
74,378	42,681	-0,387	-0,246
75,393	63,880	-0,326	-0,229
76,407	-115,839	-0,230	-0,030
77,422	10,408	-0,320	-0,170
78,436	-40,640	-0,284	-0,103
79,451	261,206	-0,202	-0,245
80,466	136,253	-0,241	-0,220
81,480	8,569	-0,279	-0,146
82,495	27,355	-0,307	-0,180
83,509	7,756	-0,273	-0,142
84,524	5,265	-0,228	-0,117
85,539	237,681	-0,250	-0,290
86,553	51,361	-0,280	-0,185
87,568	90,335	-0,290	-0,227
88,582	334,984	-0,189	-0,256
89,597	157,920	-0,265	-0,257
90,611	755,994	-0,151	-0,287
91,626	-0,590	-0,206	-0,102
92,641	68,916	-0,220	-0,158
93,655	9,818	-0,197	-0,104
94,670	49,858	-0,247	-0,163
95,684	-63,572	-0,279	-0,079
96,699	75,243	-0,257	-0,189
97,714	-19,436	-0,200	-0,086
98,728	-58,913	-0,315	-0,095
99,743	69,572	-0,260	-0,187
100,757	-40,747	-0,316	-0,114
101,772	73,043	-0,352	-0,257
102,787	-2,253	-0,266	-0,130
103,801	-29,670	-0,325	-0,129
104,816	-30,409	-0,175	-0,069
105,830	370,898	-0,143	-0,203
106,845	-124,823	-0,301	-0,032
107,860	37,465	-0,218	-0,135
108,874	141,105	-0,244	-0,226
109,889	81,266	-0,194	-0,147
110,903	-17,476	-0,293	-0,128
111,918	-77,041	-0,426	-0,103
112,933	10,460	-0,129	-0,068
113,947	800,000	-0,104	-0,202
114,962	-44,058	-0,236	-0,082
115,976	-7,334	-0,110	-0,052
116,991	147,233	-0,189	-0,178
118,006	-56,099	-0,321	-0,099
119,020	104,556	-0,230	-0,189
120,035	98,129	-0,222	-0,178
121,049	-179,557	-0,316	0,005
122,064	-107,702	-0,238	-0,036
123,079	510,911	-0,126	-0,206
124,093	150,651	-0,205	-0,194
125,108	189,393	-0,223	-0,234
126,122	97,916	-0,163	-0,131
127,137	249,182	-0,172	-0,204
128,151	37,558	-0,226	-0,139
129,166	66,625	-0,325	-0,230
130,181	8,538	-0,294	-0,154
131,195	53,626	-0,227	-0,152
132,210	-72,165	-0,285	-0,073
133,224	-60,461	-0,214	-0,063
134,239	-42,766	-0,162	-0,057
135,254	-147,700	-0,258	-0,015
136,268	249,528	-0,173	-0,205
137,283	107,361	-0,244	-0,202
138,297	37,268	-0,341	-0,210
139,312	272,915	-0,191	-0,236
140,327	-55,010	-0,295	-0,092
141,341	800,000	-0,119	-0,321
142,356	800,000	-0,124	-0,270
143,370	800,000	-0,061	-0,148
144,385	-74,487	-0,285	-0,071
145,400	-51,537	-0,197	-0,064
146,414	193,037	-0,267	-0,282
147,429	322,803	-0,186	-0,248
148,443	164,330	-0,206	-0,202
149,458	291,308	-0,187	-0,237
150,473	600,838	-0,111	-0,193
151,487	-183,540	-0,300	0,004
152,502	197,758	-0,269	-0,286
153,516	76,283	-0,180	-0,132
154,531	175,564	-0,206	-0,208
155,546	-28,553	-0,207	-0,082
156,560	296,026	-0,099	-0,126
157,575	150,963	-0,339	-0,321
158,589	28,112	-0,250	-0,146
159,604	-4,274	-0,222	-0,106
160,619	61,378	-0,204	-0,141
161,633	55,277	-0,203	-0,137
162,648	52,090	-0,149	-0,098
163,662	-19,662	-0,327	-0,140
164,677	127,075	-0,105	-0,092
165,692	179,354	-0,105	-0,107
166,706	92,454	-0,171	-0,134
167,721	9,436	-0,150	-0,078
168,735	-3,415	-0,282	-0,136
169,750	-64,449	-0,274	-0,077
170,764	124,539	-0,213	-0,186
171,779	-98,447	-0,321	-0,057
172,794	66,185	-0,210	-0,148
173,808	29,849	-0,184	-0,109
174,823	66,455	-0,321	-0,226
175,837	-45,966	-0,177	-0,060
176,852	-84,965	-0,259	-0,056
177,867	-92,312	-0,202	-0,039
178,881	-7,181	-0,256	-0,120
179,896	49,671	-0,183	-0,119
180,910	464,275	-0,179	-0,278
181,925	20,719	-0,269	-0,150
182,940	398,309	-0,180	-0,262
183,954	-200,000	-0,058	-0,247
184,969	24,510	-0,208	-0,119
185,983	323,622	-0,214	-0,284
186,998	-96,709	-0,121	-0,022
188,013	590,442	-0,161	-0,277
189,027	-49,433	-0,320	-0,105
190,042	241,011	-0,191	-0,221
191,056	384,077	-0,131	-0,188
192,071	218,519	-0,163	-0,180
193,086	-76,873	-0,203	-0,049
194,100	-9,839	-0,180	-0,083
195,115	2,448	-0,220	-0,110
196,129	-62,614	-0,252	-0,072
197,144	530,236	-0,108	-0,177
198,159	76,836	-0,207	-0,152
199,173	-200,000	-0,047	-0,200
200,188	-35,047	-0,136	-0,051
201,202	422,627	-0,140	-0,209
202,217	98,227	-0,268	-0,214
203,232	693,793	-0,138	-0,253
204,246	-69,113	-0,301	-0,080
205,261	-16,966	-0,163	-0,071
206,275	-33,899	-0,237	-0,090
207,290	45,682	-0,234	-0,149
208,304	693,991	-0,146	-0,267
209,319	-172,998	-0,189	0,004
210,334	44,416	-0,175	-0,111
211,348	36,483	-0,198	-0,121
212,363	130,874	-0,320	-0,284
213,377	181,981	-0,226	-0,231
214,392	3,236	-0,197	-0,099
215,407	80,603	-0,219	-0,163
216,421	268,954	-0,101	-0,123
217,436	153,773	-0,165	-0,156
218,450	800,000	-0,076	-0,152
219,465	133,607	-0,232	-0,208
220,480	352,340	-0,106	-0,146
221,494	487,978	-0,146	-0,232
222,509	-115,391	-0,140	-0,018
223,523	-110,863	-0,265	0,037
224,538	-86,293	-0,224	-0,047
225,553	-200,000	-0,047	-0,148
226,567	51,368	-0,272	-0,178
227,582	-113,271	-0,179	-0,024
228,596	15,457	-0,181	-0,098
229,611	-200,000	-0,006	-0,125
230,626	-175,825	-0,194	-0,004
231,640	-200,000	0,005	-0,132
232,655	-0,712	-0,376	-0,184
233,669	-2,858	-0,254	-0,122
234,684	49,338	-0,220	-0,142
235,699	-74,082	-0,031	-0,008
236,713	73,680	-0,164	-0,118
237,728	207,293	-0,174	-0,187
238,742	674,171	-0,081	-0,145
239,757	-8,646	-0,175	-0,081
240,772	5,433	-0,275	-0,139
241,786	598,979	-0,104	-0,178
242,801	-105,359	-0,201	-0,031
243,815	300,859	-0,132	-0,168
244,830	-95,397	-0,174	-0,032
245,844	49,527	-0,069	-0,044
246,859	-74,543	-0,262	-0,065
247,874	-99,282	-0,235	-0,041
248,888	98,061	-0,270	-0,214
249,903	-10,080	-0,120	-0,055
250,917	105,097	-0,146	-0,119
251,932	-88,537	-0,132	-0,027
252,947	723,177	-0,159	-0,293
253,961	-44,255	-0,182	-0,063
254,976	-15,652	-0,159	-0,069
255,990	95,177	-0,188	-0,148
257,005	-10,222	-0,181	-0,082
258,020	-8,982	-0,145	-0,067
259,034	33,660	-0,257	0,154
260,049	-154,396	-0,108	-0,005
261,063	129,214	-0,111	-0,097
262,078	-87,698	-0,224	-0,046
263,093	-39,012	-0,157	-0,057
264,107	-0,554	-0,114	-0,056
265,122	-55,356	-0,217	-0,067
266,136	-71,250	-0,097	-0,025
267,151	62,305	-0,156	-0,107
268,166	52,796	-0,191	-0,126
269,180	56,092	-0,183	-0,122
270,195	25,895	-0,287	-0,164
271,209	192,205	-0,133	-0,138
272,224	-104,479	-0,168	0,027
273,239	98,578	-0,181	-0,144
274,253	98,659	-0,086	-0,068
275,268	-68,086	-0,246	-0,065
276,282	-34,680	-0,171	0,064
277,297	89,075	-0,216	-0,165
278,312	126,254	-0,262	-0,228
279,326	-1,172	-0,131	-0,064
280,341	-90,175	-0,118	-0,023
281,355	-20,235	-0,187	-0,079
282,370	238,525	-0,011	-0,012
283,384	-48,917	-0,236	-0,077
284,399	-39,454	-0,272	-0,098
285,414	0,493	-0,162	-0,079
286,428	800,000	-0,030	-0,058
287,443	-62,122	-0,161	0,046
288,457	-47,492	-0,204	-0,068
289,472	164,397	-0,186	-0,181
290,487	-144,677	-0,032	-0,002
291,501	-61,212	-0,250	-0,072
292,516	215,316	-0,156	-0,170
293,530	-200,000	-0,072	-0,224
294,545	576,886	-0,086	-0,145
295,560	800,000	-0,109	-0,233
296,574	40,709	-0,159	-0,098
297,589	190,449	-0,166	-0,171
298,603	142,031	-0,096	-0,087
299,618	-83,740	-0,247	-0,054
300,633	-103,564	-0,067	0,011
301,647	-200,000	0,001	-0,011
302,662	50,794	-0,108	-0,070
303,676	-200,000	0,001	-0,081
304,691	105,048	-0,118	-0,096
305,706	-86,231	-0,220	-0,046
306,720	156,809	-0,161	-0,153
307,735	747,846	-0,101	-0,188
308,749	-12,406	-0,027	-0,012
309,764	-50,529	-0,121	0,039
310,779	-38,199	-0,078	-0,028
311,793	38,646	-0,206	0,126
312,808	25,375	-0,154	-0,088
313,822	268,191	-0,149	-0,179
314,837	702,526	-0,080	-0,146
315,852	800,000	-0,003	0,009
316,866	39,928	-0,096	-0,059
317,881	137,376	-0,170	-0,153
318,895	111,102	-0,119	-0,099
319,910	602,910	-0,106	-0,181
320,925	-3,080	-0,193	-0,092
321,939	148,864	-0,143	-0,133
322,954	800,000	-0,048	-0,130
323,968	157,431	-0,094	-0,089
324,983	-72,881	-0,203	-0,051
325,997	-41,329	-0,116	-0,041
327,012	-54,000	-0,149	-0,046
328,027	9,987	-0,123	-0,064
329,041	-134,925	-0,069	-0,006
330,056	10,295	-0,202	-0,105
331,070	-200,000	-0,035	-0,107
332,085	36,977	-0,205	0,124
333,100	243,052	-0,140	-0,161
334,114	89,752	-0,109	-0,083
335,129	-192,050	-0,229	0,001
336,143	-56,821	-0,169	-0,051
337,158	80,466	-0,063	-0,046
338,173	-196,627	-0,182	-0,001
339,187	-167,706	-0,063	-0,002
340,202	800,000	-0,066	-0,126
341,216	-105,926	-0,146	-0,022
342,231	104,527	-0,201	-0,162
343,246	-72,906	-0,187	-0,047
344,260	203,674	-0,155	-0,165
345,275	23,040	-0,087	-0,048
346,289	148,818	-0,083	0,077
347,304	-200,000	0,003	-0,102
348,319	57,242	-0,078	-0,052
349,333	42,605	-0,170	-0,105
350,348	-17,638	-0,163	-0,070
351,362	493,885	-0,108	-0,170
352,377	238,106	-0,070	-0,079
353,392	-200,000	-0,013	-0,137
354,406	800,000	-0,060	-0,115
355,421	206,516	1308,067	1393,855
356,435	158,829	1467,899	1394,281
