DTS Sentinel unit serial number:	SN410029Multiplexer serial number:	ORYXHardware model number:	OX2-SRSoftware version number:	ORYX F/W v4,00 Oryx Data Collector v3.7.2.0data status	okinstallation	B3 Nyhavnadifferential loss correction	single-endedforward channel	channel 1reverse channel	N/Adate	2023/11/30time	09:47:30forward acquisition time	300,00reverse acquisition time	0,00gamma	499,1914k internal	0,3211k external	0,3211temperature offset calibration	1,0000default loss term (dB/km)	0,3820temperature slope calibration	1,0000multiplexer offset coefficient	1,0000multiplexer slope coefficient	1,0000fibre end	0,00T internal ref (°C)	9,53T ext. ref 1 (°C)	-5,29T ext. ref 2 (°C)	-5,40length (m)	temperature (°C)	Stokes	anti-Stokes-744,400	26,101	-0,295	-0,178
-743,385	-200,000	0,066	0,324
-742,371	329,886	-0,214	-0,300
-741,356	800,000	0,133	0,305
-740,342	166,838	-0,133	-0,137
-739,327	-200,000	-0,065	0,233
-738,312	800,000	-0,167	-0,348
-737,298	185,788	-0,172	0,186
-736,283	200,992	-0,318	-0,355
-735,269	-200,000	0,064	0,247
-734,254	236,684	-0,149	-0,179
-733,239	800,000	-0,058	0,158
-732,225	800,000	-0,076	-0,215
-731,210	66,284	0,084	0,062
-730,196	800,000	-0,052	-0,105
-729,181	52,704	-0,108	0,075
-728,167	-144,418	-0,048	-0,003
-727,152	-200,000	-0,008	0,110
-726,137	-50,554	-0,167	0,057
-725,123	67,712	-0,156	-0,116
-724,108	8,794	-0,104	-0,056
-723,094	-200,000	-0,038	-0,191
-722,079	-200,000	0,014	0,091
-721,064	-104,712	0,066	-0,011
-720,050	-132,318	0,052	0,005
-719,035	-111,366	0,065	-0,009
-718,021	674,821	-0,116	-0,219
-717,006	16,452	0,070	0,040
-715,991	800,000	0,010	-0,022
-714,977	-56,437	-0,050	-0,016
-713,962	24,740	-0,184	0,110
-712,948	380,929	0,019	0,029
-711,933	-66,010	0,115	0,033
-710,918	260,769	0,030	0,037
-709,904	-43,594	-0,093	-0,034
-708,889	22,592	-0,083	-0,049
-707,875	117,077	0,169	-0,150
-706,860	800,000	0,031	0,072
-705,845	27,035	0,073	-0,045
-704,831	54,892	0,043	-0,030
-703,816	-163,232	0,020	-0,001
-702,802	580,734	-0,016	0,029
-701,787	310,013	0,055	0,075
-700,772	-105,530	-0,153	0,025
-699,758	389,367	0,089	-0,134
-698,743	115,556	-0,088	-0,078
-697,729	-200,000	0,001	-0,098
-696,714	420,520	-0,051	-0,079
-695,699	277,137	-0,089	-0,115
-694,685	-65,840	-0,045	-0,013
-693,670	532,371	-0,074	-0,128
-692,656	-72,092	-0,071	-0,019
-691,641	35,480	-0,070	-0,044
-690,627	-200,000	-0,009	0,091
-689,612	800,000	-0,065	0,141
-688,597	311,862	0,026	0,035
-687,583	-200,000	0,020	-0,094
-686,568	53,265	-0,049	-0,034
-685,554	366,375	0,058	0,085
-684,539	95,089	0,046	-0,038
-683,524	-110,696	0,063	-0,009
-682,510	800,000	0,048	0,104
-681,495	800,000	0,073	-0,160
-680,481	-90,965	-0,088	0,018
-679,466	-200,000	0,017	-0,068
-678,451	-137,146	-0,066	-0,005
-677,437	800,000	-0,029	-0,064
-676,422	9,455	-0,021	0,011
-675,408	-123,572	0,078	-0,009
-674,393	800,000	-0,025	-0,063
-673,378	-200,000	-0,014	-0,058
-672,364	800,000	-0,074	-0,148
-671,349	160,462	0,101	-0,102
-670,335	-200,000	-0,014	0,072
-669,320	-200,000	-0,026	-0,104
-668,305	22,514	-0,039	-0,023
-667,291	-200,000	0,013	0,073
-666,276	248,886	-0,043	-0,053
-665,262	800,000	-0,037	-0,107
-664,247	24,482	-0,115	-0,069
-663,232	-133,879	0,130	-0,011
-662,218	-25,511	0,031	-0,013
-661,203	238,941	0,043	-0,052
-660,189	-163,602	-0,066	-0,002
-659,174	-96,964	-0,114	-0,021
-658,159	-200,000	-0,020	-0,094
-657,145	-200,000	0,005	-0,069
-656,130	-200,000	-0,005	-0,122
-655,116	-23,124	0,147	-0,064
-654,101	-200,000	-0,009	0,071
-653,086	-200,000	0,013	-0,179
-652,072	800,000	0,024	0,050
-651,057	258,687	-0,105	-0,131
-650,043	-200,000	0,016	-0,123
-649,028	237,092	0,052	-0,062
-648,014	-200,000	0,010	0,118
-646,999	168,461	-0,019	0,019
-645,984	-110,450	-0,102	-0,015
-644,970	163,909	-0,062	0,064
-643,955	-8,572	-0,070	-0,034
-642,941	-90,511	-0,129	0,027
-641,926	182,036	-0,032	-0,034
-640,911	-24,486	0,043	-0,018
-639,897	555,238	-0,047	0,082
-638,882	800,000	-0,029	0,078
-637,868	-25,181	0,123	-0,053
-636,853	-200,000	-0,004	-0,037
-635,838	-98,792	-0,122	-0,022
-634,824	25,274	-0,027	-0,016
-633,809	-89,477	0,103	-0,022
-632,795	37,234	0,126	0,080
-631,780	-200,000	0,025	0,131
-630,765	800,000	-0,063	-0,135
-629,751	800,000	-0,004	0,009
-628,736	-40,395	-0,085	0,032
-627,722	55,383	-0,084	-0,058
-626,707	-200,000	-0,005	-0,089
-625,692	-100,911	-0,041	-0,007
-624,678	-200,000	-0,021	-0,091
-623,663	-200,000	0,029	0,125
-622,649	229,116	-0,070	-0,082
-621,634	-46,798	-0,083	-0,029
-620,619	-200,000	-0,000	0,016
-619,605	-102,550	0,243	-0,042
-618,590	-200,000	0,008	-0,071
-617,576	10,225	0,115	0,063
-616,561	234,983	-0,033	-0,039
-615,546	415,594	-0,048	-0,075
-614,532	-200,000	-0,020	-0,183
-613,517	-66,962	-0,108	-0,030
-612,503	364,495	-0,089	-0,130
-611,488	-154,540	0,120	-0,006
-610,474	-79,636	0,009	-0,002
-609,459	-200,000	-0,024	0,303
-608,444	42,015	0,102	-0,067
-607,430	-98,164	0,033	-0,006
-606,415	76,664	0,023	-0,017
-605,401	800,000	0,035	0,077
-604,386	294,070	0,139	0,183
-603,371	-197,511	-0,112	-0,000
-602,357	18,854	0,086	0,049
-601,342	112,092	0,138	-0,120
-600,328	-61,199	0,051	-0,015
-599,313	-138,673	-0,108	-0,008
-598,298	-200,000	-0,013	-0,078
-597,284	-200,000	-0,028	0,103
-596,269	-36,369	0,032	-0,012
-595,255	800,000	0,024	-0,071
-594,240	800,000	-0,049	-0,117
-593,225	-200,000	-0,014	-0,117
-592,211	-200,000	0,005	-0,109
-591,196	-44,437	-0,020	-0,007
-590,182	-156,007	-0,186	-0,008
-589,167	-200,000	0,013	0,095
-588,152	800,000	0,050	-0,118
-587,138	800,000	-0,024	-0,066
-586,123	-200,000	0,000	-0,246
-585,109	-137,302	-0,052	0,004
-584,094	80,811	0,036	0,028
-583,079	597,209	-0,082	-0,147
-582,065	-200,000	0,018	0,073
-581,050	-200,000	0,005	0,038
-580,036	416,349	-0,032	0,050
-579,021	800,000	-0,023	-0,046
-578,006	44,580	-0,078	-0,052
-576,992	168,871	-0,104	0,107
-575,977	-200,000	0,024	-0,096
-574,963	-200,000	0,001	-0,076
-573,948	800,000	-0,041	0,104
-572,934	-200,000	-0,010	-0,139
-571,919	67,055	0,002	0,002
-570,904	-200,000	-0,025	-0,091
-569,890	800,000	-0,054	-0,109
-568,875	589,485	0,046	0,083
-567,861	42,874	0,079	0,052
-566,846	167,555	0,094	-0,096
-565,831	274,789	-0,073	-0,094
-564,817	-117,574	-0,120	0,015
-563,802	71,610	-0,108	-0,081
-562,788	-200,000	-0,011	-0,073
-561,773	211,216	0,085	-0,097
-560,758	800,000	-0,048	-0,143
-559,744	-49,641	0,083	-0,028
-558,729	-200,000	0,029	-0,135
-557,715	-88,176	0,049	0,010
-556,700	760,413	0,018	-0,035
-555,685	744,635	0,123	-0,239
-554,671	-88,318	0,032	-0,007
-553,656	-126,601	0,150	-0,016
-552,642	-110,260	-0,086	0,013
-551,627	-76,474	-0,139	-0,035
-550,612	1,058	-0,065	-0,033
-549,598	-200,000	0,016	-0,109
-548,583	-200,000	0,050	-0,202
-547,569	122,418	0,050	-0,045
-546,554	-200,000	0,007	0,079
-545,539	-200,000	0,007	0,092
-544,525	155,000	-0,042	0,042
-543,510	-49,278	0,066	0,023
-542,496	299,074	0,039	0,052
-541,481	-91,250	-0,154	-0,031
-540,466	-200,000	-0,001	0,007
-539,452	254,903	-0,081	0,100
-538,437	-174,784	0,068	-0,001
-537,423	-200,000	-0,023	0,143
-536,408	-140,094	-0,050	-0,004
-535,393	385,592	0,046	-0,068
-534,379	-200,000	-0,030	-0,143
-533,364	-47,935	-0,107	-0,037
-532,350	118,037	-0,043	-0,038
-531,335	142,404	0,010	0,009
-530,321	-55,833	0,097	0,031
-529,306	-191,383	0,067	-0,000
-528,291	337,686	-0,055	-0,077
-527,277	-200,000	0,000	0,032
-526,262	800,000	0,023	0,066
-525,248	293,840	-0,014	0,019
-524,233	466,504	0,067	0,108
-523,218	747,526	0,011	0,022
-522,204	-50,451	-0,109	0,037
-521,189	47,823	-0,092	-0,061
-520,175	-200,000	0,013	-0,145
-519,160	-133,610	0,041	0,004
-518,145	-89,985	0,071	0,015
-517,131	-57,806	-0,046	0,014
-516,116	162,101	0,057	0,057
-515,102	-98,164	-0,016	-0,003
-514,087	92,054	0,096	0,078
-513,072	285,804	-0,082	-0,107
-512,058	-200,000	-0,000	0,042
-511,043	-133,661	0,113	0,010
-510,029	459,719	-0,018	-0,029
-509,014	-70,737	-0,073	-0,020
-507,999	391,398	-0,054	-0,081
-506,985	-62,345	-0,070	-0,021
-505,970	800,000	0,027	-0,072
-504,956	800,000	-0,031	-0,083
-503,941	12,094	-0,078	-0,043
-502,926	-200,000	0,011	0,094
-501,912	-200,000	-0,004	-0,065
-500,897	344,350	-0,046	0,065
-499,883	800,000	0,004	-0,012
-498,868	41,153	-0,076	0,049
-497,853	-68,205	-0,092	-0,025
-496,839	-82,366	-0,043	0,010
-495,824	-200,000	0,012	-0,049
-494,810	-200,000	0,029	0,144
-493,795	-47,112	0,104	0,036
-492,781	-10,134	0,051	0,024
-491,766	-200,000	-0,004	-0,043
-490,751	255,486	-0,108	0,133
-489,737	800,000	-0,032	0,067
-488,722	-98,289	0,157	0,029
-487,708	211,792	-0,005	0,006
-486,693	-114,844	-0,046	0,006
-485,678	-30,356	-0,022	0,009
-484,664	231,576	-0,034	-0,041
-483,649	-18,376	-0,040	-0,018
-482,635	800,000	0,041	-0,118
-481,620	-99,927	-0,026	0,005
-480,605	-200,000	-0,035	0,117
-479,591	27,614	0,086	0,052
-478,576	-200,000	-0,028	0,141
-477,562	-149,697	0,063	0,004
-476,547	223,947	-0,041	-0,048
-475,532	41,179	0,078	0,051
-474,518	75,051	-0,059	-0,045
-473,503	-109,959	0,085	0,013
-472,489	-98,244	-0,029	-0,005
-471,474	467,958	0,024	0,039
-470,459	800,000	-0,040	-0,111
-469,445	194,233	-0,050	-0,054
-468,430	-63,327	0,068	0,020
-467,416	-110,959	0,046	-0,007
-466,401	88,942	-0,044	0,035
-465,386	-200,000	-0,003	0,146
-464,372	-78,527	-0,088	0,022
-463,357	800,000	0,048	-0,104
-462,343	-23,113	-0,184	0,079
-461,328	131,740	-0,070	0,064
-460,313	-200,000	0,018	0,107
-459,299	-200,000	-0,001	0,112
-458,284	-71,056	0,103	0,028
-457,270	241,582	-0,041	-0,049
-456,255	566,000	-0,096	-0,167
-455,241	210,922	0,134	-0,151
-454,226	-200,000	-0,000	0,031
-453,211	-108,608	0,039	0,006
-452,197	149,962	0,051	0,050
-451,182	280,637	0,053	-0,068
-450,168	37,342	0,065	0,042
-449,153	-200,000	0,005	-0,053
-448,138	-200,000	-0,010	-0,080
-447,124	-63,317	0,107	0,031
-446,109	-200,000	0,005	-0,091
-445,095	120,680	-0,047	-0,042
-444,080	49,321	0,038	0,026
-443,065	13,319	-0,098	0,054
-442,051	258,415	-0,079	0,098
-441,036	-63,549	0,051	0,015
-440,022	-88,884	-0,096	0,020
-439,007	-200,000	-0,000	-0,024
-437,992	317,178	0,059	0,080
-436,978	-82,618	0,054	-0,012
-435,963	6,940	0,045	0,024
-434,949	-200,000	0,010	0,045
-433,934	349,268	-0,156	-0,222
-432,919	409,210	0,099	-0,150
-431,905	11,133	0,025	-0,014
-430,890	-142,260	0,089	0,006
-429,876	-200,000	-0,019	0,162
-428,861	217,175	0,068	0,077
-427,846	378,528	-0,027	-0,040
-426,832	-200,000	-0,010	-0,136
-425,817	32,884	-0,108	-0,067
-424,803	2,228	-0,019	0,010
-423,788	-200,000	0,008	-0,119
-422,773	189,100	0,075	0,080
-421,759	-200,000	0,007	0,092
-420,744	-200,000	0,009	-0,062
-419,730	4,964	-0,081	0,043
-418,715	-200,000	-0,024	-0,117
-417,701	-200,000	0,004	-0,036
-416,686	122,257	0,093	-0,083
-415,671	-139,731	0,106	0,008
-414,657	800,000	-0,013	-0,033
-413,642	800,000	-0,012	0,037
-412,628	800,000	-0,069	0,143
-411,613	800,000	0,031	-0,067
-410,598	618,634	-0,021	0,038
-409,584	129,424	0,044	-0,041
-408,569	128,328	0,122	0,111
-407,555	-200,000	0,027	0,091
-406,540	351,033	0,024	-0,034
-405,525	-200,000	0,008	-0,096
-404,511	240,147	-0,073	-0,087
-403,496	-200,000	-0,028	-0,095
-402,482	800,000	0,026	0,066
-401,467	0,104	-0,075	-0,038
-400,452	-47,761	0,191	0,066
-399,438	46,503	0,092	0,061
-398,423	-200,000	0,040	0,159
-397,409	489,615	0,035	0,057
-396,394	-200,000	-0,052	0,175
-395,379	32,188	-0,040	-0,025
-394,365	93,168	0,088	0,071
-393,350	-77,537	0,139	0,034
-392,336	-200,000	0,005	0,026
-391,321	-115,914	-0,091	0,012
-390,306	92,495	-0,119	-0,096
-389,292	-200,000	0,025	-0,095
-388,277	323,322	-0,022	-0,030
-387,263	46,243	0,020	-0,013
-386,248	-137,245	0,077	0,006
-385,233	17,062	-0,070	0,040
-384,219	-61,257	-0,208	0,062
-383,204	-82,314	0,120	0,028
-382,190	-200,000	0,028	-0,127
-381,175	-120,664	0,074	0,009
-380,160	3,327	-0,059	-0,030
-379,146	-47,368	0,078	0,027
-378,131	800,000	0,068	0,156
-377,117	314,336	-0,018	-0,024
-376,102	-200,000	0,017	-0,059
-375,088	-200,000	0,010	-0,043
-374,073	125,241	0,051	0,046
-373,058	470,390	-0,028	0,045
-372,044	800,000	0,096	0,211
-371,029	-143,907	0,138	0,009
-370,015	-136,753	-0,058	-0,005
-369,000	-200,000	-0,004	-0,111
-367,985	-45,600	-0,127	-0,045
-366,971	183,067	0,033	0,035
-365,956	800,000	-0,040	0,110
-364,942	800,000	0,018	0,045
-363,927	233,738	0,030	0,035
-362,912	449,453	0,024	-0,038
-361,898	246,433	-0,070	-0,084
-360,883	-124,057	-0,157	-0,017
-359,869	800,000	0,005	-0,011
-358,854	-77,184	0,072	0,018
-357,839	800,000	0,020	-0,050
-356,825	-200,000	0,016	0,058
-355,810	-200,000	0,001	-0,016
-354,796	-26,471	-0,041	-0,017
-353,781	62,499	-0,078	-0,056
-352,766	124,408	0,070	-0,063
-351,752	91,342	0,041	0,033
-350,737	28,569	0,081	0,049
-349,723	-200,000	-0,002	0,071
-348,708	-120,609	0,081	0,010
-347,693	-200,000	0,014	0,148
-346,679	-76,391	0,088	0,022
-345,664	-31,380	-0,140	0,056
-344,650	-177,892	0,055	0,001
-343,635	-200,000	0,009	0,102
-342,620	50,408	-0,051	0,035
-341,606	403,585	-0,034	-0,052
-340,591	-43,433	0,045	-0,016
-339,577	-74,697	0,124	-0,031
-338,562	10,888	0,040	0,022
-337,548	207,236	-0,090	0,100
-336,533	800,000	0,054	-0,148
-335,518	135,534	0,070	-0,065
-334,504	19,221	-0,046	0,026
-333,489	-71,581	-0,056	0,015
-332,475	566,140	-0,062	-0,108
-331,460	302,271	-0,064	-0,085
-330,445	-88,163	0,107	0,023
-329,431	700,817	-0,040	0,076
-328,416	543,195	-0,060	0,102
-327,402	136,721	0,047	-0,044
-326,387	180,199	-0,067	-0,070
-325,372	-95,015	-0,116	0,022
-324,358	52,795	-0,131	-0,089
-323,343	-200,000	-0,000	0,099
-322,329	-200,000	0,011	-0,075
-321,314	180,429	0,107	0,112
-320,299	435,423	0,088	0,137
-319,285	-200,000	0,010	-0,051
-318,270	800,000	-0,039	-0,085
-317,256	-200,000	0,005	-0,061
-316,241	-2,577	0,031	0,016
-315,226	-74,909	0,047	0,012
-314,212	800,000	0,025	0,074
-313,197	-200,000	0,024	0,170
-312,183	-37,454	-0,050	-0,019
-311,168	42,899	-0,129	-0,084
-310,153	800,000	-0,011	0,023
-309,139	11,577	-0,082	-0,045
-308,124	-81,225	-0,083	-0,019
-307,110	-16,795	-0,087	0,039
-306,095	-53,917	0,123	0,040
-305,080	800,000	-0,051	0,157
-304,066	-200,000	-0,065	0,207
-303,051	93,764	-0,083	-0,067
-302,037	-200,000	0,035	0,118
-301,022	-200,000	-0,002	0,044
-300,008	152,430	0,029	0,028
-298,993	-200,000	0,007	0,106
-297,978	800,000	-0,035	0,076
-296,964	-200,000	0,004	-0,035
-295,949	800,000	0,036	-0,084
-294,935	-127,175	0,160	-0,016
-293,920	90,618	-0,037	-0,029
-292,905	-66,026	0,162	0,046
-291,891	-113,093	0,200	0,028
-290,876	-64,079	-0,096	-0,028
-289,862	98,618	0,059	0,048
-288,847	362,182	0,025	0,036
-287,832	-157,672	0,025	0,001
-286,818	-200,000	-0,011	-0,091
-285,803	169,631	0,123	-0,125
-284,789	220,011	0,072	0,082
-283,774	-123,761	-0,167	0,019
-282,759	716,179	-0,055	0,104
-281,745	-200,000	0,033	-0,130
-280,730	84,233	0,145	-0,113
-279,716	800,000	0,033	-0,065
-278,701	212,196	0,065	-0,073
-277,686	65,342	-0,010	0,007
-276,672	-0,303	-0,079	-0,040
-275,657	800,000	0,046	0,092
-274,643	800,000	-0,034	-0,081
-273,628	33,033	-0,145	-0,089
-272,613	187,934	0,091	-0,096
-271,599	339,327	0,122	-0,169
-270,584	-54,622	0,032	0,010
-269,570	34,250	0,030	0,019
-268,555	789,215	-0,053	0,103
-267,540	590,220	-0,017	-0,031
-266,526	800,000	0,023	-0,065
-265,511	-200,000	-0,015	0,156
-264,497	143,560	-0,096	0,091
-263,482	15,889	0,112	0,063
-262,467	155,672	-0,118	0,115
-261,453	800,000	0,054	0,139
-260,438	-71,137	-0,092	0,024
-259,424	-9,441	-0,055	0,026
-258,409	-200,000	-0,008	0,049
-257,395	-200,000	0,007	-0,163
-256,380	338,506	0,070	-0,097
-255,365	699,303	-0,008	0,016
-254,351	800,000	-0,058	0,161
-253,336	-50,719	0,027	-0,009
-252,322	-200,000	-0,022	-0,073
-251,307	-47,972	0,033	0,011
-250,292	-105,742	0,015	0,002
-249,278	4,646	0,148	0,077
-248,263	-200,000	-0,008	0,074
-247,249	800,000	0,048	0,102
-246,234	-200,000	-0,009	0,050
-245,219	-77,855	0,055	-0,013
-244,205	11,476	-0,164	0,089
-243,190	-112,038	-0,118	0,017
-242,176	101,214	0,153	0,127
-241,161	438,760	-0,067	0,104
-240,146	271,764	-0,040	-0,050
-239,132	-40,713	-0,097	0,036
-238,117	-200,000	0,018	-0,142
-237,103	99,781	-0,089	0,073
-236,088	-22,421	0,108	-0,046
-235,073	406,478	0,023	0,035
-234,059	-200,000	-0,025	-0,094
-233,044	-7,960	0,103	0,049
-232,030	-200,000	0,008	-0,080
-231,015	-145,923	0,105	0,007
-230,000	-57,264	0,091	0,028
-228,986	601,878	0,023	0,041
-227,971	158,724	0,034	0,034
-226,957	-19,087	0,039	0,017
-225,942	-200,000	0,007	0,137
-224,927	-14,889	-0,096	0,044
-223,913	-200,000	0,025	-0,097
-222,898	-151,141	-0,152	0,008
-221,884	110,356	-0,019	-0,016
-220,869	176,791	-0,073	0,076
-219,855	-122,818	0,162	-0,018
-218,840	-200,000	0,022	-0,069
-217,825	800,000	-0,046	-0,121
-216,811	-127,388	-0,113	-0,011
-215,796	-42,652	-0,034	0,012
-214,782	800,000	-0,011	-0,023
-213,767	93,324	-0,125	-0,100
-212,752	-4,634	0,115	0,056
-211,738	-33,868	-0,081	0,032
-210,723	118,715	-0,033	0,029
-209,709	131,059	-0,078	-0,071
-208,694	-131,585	0,068	-0,006
-207,679	-200,000	-0,008	-0,128
-206,665	-200,000	0,008	0,034
-205,650	-115,930	-0,021	-0,003
-204,636	-67,396	0,064	-0,018
-203,621	56,299	0,045	-0,031
-202,606	112,393	0,121	0,104
-201,592	-65,994	-0,065	-0,018
-200,577	-3,881	-0,133	-0,065
-199,563	-47,657	0,052	0,018
-198,548	38,604	0,214	0,135
-197,533	757,282	0,060	0,115
-196,519	800,000	-0,061	0,133
-195,504	-94,116	-0,036	0,007
-194,490	134,348	-0,152	0,139
-193,475	800,000	-0,023	0,049
-192,460	-89,136	0,180	-0,037
-191,446	-66,481	-0,044	-0,012
-190,431	-200,000	0,027	0,146
-189,417	236,918	0,085	-0,100
-188,402	24,111	-0,130	0,076
-187,387	-200,000	-0,019	-0,148
-186,373	-200,000	-0,022	0,082
-185,358	126,647	0,053	0,048
-184,344	300,144	-0,054	-0,071
-183,329	1,113	0,062	-0,032
-182,315	-63,345	-0,123	0,036
-181,300	81,779	-0,082	-0,063
-180,285	279,334	-0,144	-0,182
-179,271	800,000	0,045	-0,124
-178,256	-125,680	0,183	-0,019
-177,242	-14,424	0,080	0,037
-176,227	115,073	0,053	0,046
-175,212	-2,480	0,093	0,046
-174,198	-123,145	-0,049	0,005
-173,183	704,706	-0,090	0,168
-172,169	-108,011	-0,105	-0,016
-171,154	-27,133	-0,161	-0,066
-170,139	-200,000	0,027	0,170
-169,125	655,506	0,063	0,116
-168,110	290,009	0,020	0,026
-167,096	10,814	0,110	0,059
-166,081	800,000	-0,031	0,065
-165,066	51,696	-0,103	-0,069
-164,052	118,504	-0,083	-0,072
-163,037	-29,999	-0,072	-0,029
-162,023	-200,000	-0,014	-0,084
-161,008	97,435	0,065	0,053
-159,993	-148,922	0,134	0,008
-158,979	-200,000	-0,004	-0,047
-157,964	377,691	0,066	-0,097
-156,950	800,000	-0,025	-0,069
-155,935	-200,000	0,011	0,110
-154,920	-200,000	-0,009	0,055
-153,906	-200,000	0,003	0,033
-152,891	-159,735	-0,106	0,004
-151,877	46,399	0,066	-0,043
-150,862	-139,692	-0,188	-0,014
-149,847	-200,000	-0,006	-0,110
-148,833	434,915	-0,072	-0,111
-147,818	-65,367	0,086	0,024
-146,804	130,300	0,076	0,069
-145,789	800,000	0,072	0,211
-144,775	265,117	0,034	-0,042
-143,760	-115,585	-0,070	0,009
-142,745	-96,101	0,077	-0,014
-141,731	-200,000	-0,043	-0,185
-140,716	-37,457	0,101	0,038
-139,702	173,378	-0,054	-0,055
-138,687	-200,000	0,010	-0,097
-137,672	192,564	-0,109	-0,117
-136,658	-28,648	-0,031	-0,013
-135,643	568,167	-0,103	-0,178
-134,629	-200,000	-0,038	0,152
-133,614	-200,000	-0,017	0,069
-132,599	-154,871	0,095	0,004
-131,585	67,085	0,017	0,012
-130,570	372,387	0,042	0,060
-129,556	-92,023	-0,125	-0,025
-128,541	800,000	0,032	-0,086
-127,526	-104,605	-0,039	0,006
-126,512	17,067	0,067	-0,037
-125,497	-125,201	0,171	0,018
-124,483	-161,231	0,037	-0,001
-123,468	202,453	0,073	0,079
-122,453	107,206	-0,039	0,033
-121,439	-134,642	-0,089	-0,008
-120,424	800,000	0,064	-0,161
-119,410	199,681	0,028	-0,031
-118,395	496,324	-0,064	0,104
-117,380	24,937	-0,025	-0,015
-116,366	-23,654	0,052	0,022
-115,351	800,000	0,073	-0,145
-114,337	731,244	0,042	0,079
-113,322	800,000	0,027	0,055
-112,307	-75,651	0,068	-0,017
-111,293	-127,933	-0,096	0,010
-110,278	-200,000	0,000	0,090
-109,264	-200,000	-0,023	0,099
-108,249	-20,602	0,032	0,014
-107,234	-81,119	-0,123	-0,028
-106,220	-63,975	-0,115	-0,033
-105,205	622,979	-0,014	-0,025
-104,191	260,238	-0,035	-0,042
-103,176	-86,846	0,054	-0,012
-102,162	-68,981	0,097	0,026
-101,147	-200,000	0,011	-0,054
-100,132	180,972	0,065	0,068
-99,118	-104,370	-0,083	0,013
-98,103	-114,157	0,151	0,020
-97,089	284,218	-0,107	-0,136
-96,074	-56,241	0,019	0,006
-95,059	-110,347	0,177	0,026
-94,045	-175,319	0,060	0,001
-93,030	-200,000	0,027	-0,113
-92,016	-104,693	-0,145	0,023
-91,001	-1,969	0,117	0,058
-89,986	180,659	0,062	0,064
-88,972	409,359	0,073	-0,110
-87,957	-3,841	-0,022	0,011
-86,943	-200,000	0,005	-0,122
-85,928	-142,284	-0,059	0,004
-84,913	-200,000	-0,007	-0,027
-83,899	201,828	0,072	-0,078
-82,884	-200,000	-0,019	-0,139
-81,870	-76,213	0,095	-0,024
-80,855	-44,033	-0,035	0,012
-79,840	674,535	-0,094	-0,173
-78,826	-200,000	-0,016	0,083
-77,811	800,000	0,028	-0,076
-76,797	304,344	-0,073	-0,095
-75,782	6,570	0,144	-0,075
-74,767	-118,306	0,153	0,019
-73,753	115,454	-0,114	-0,098
-72,738	236,402	0,060	-0,070
-71,724	228,148	-0,077	-0,089
-70,709	800,000	-0,026	0,054
-69,694	69,897	-0,145	-0,106
-68,680	427,122	0,075	0,114
-67,665	229,825	0,117	0,135
-66,651	-200,000	0,031	0,107
-65,636	-200,000	0,005	0,084
-64,622	-18,093	-0,181	0,080
-63,607	160,429	0,067	0,066
-62,592	6,472	-0,095	-0,050
-61,578	-138,093	-0,044	0,003
-60,563	-172,617	0,141	-0,003
-59,549	18,892	-0,047	0,026
-58,534	61,901	-2,091	-1,468
-57,519	528,044	-1,140	-1,905
-56,505	-200,000	-0,511	-4,398
-55,490	426,210	1,051	1,604
-54,476	800,000	5,088	11,322
-53,461	-200,000	21,726	345,150
-52,446	800,000	763,295	2345,820
-51,432	547,992	1662,790	2820,633
-50,417	71,699	1659,410	1215,610
-49,403	17,385	1532,603	856,499
-48,388	11,396	1456,321	784,928
-47,373	19,470	1448,188	819,228
-46,359	14,892	1437,313	791,296
-45,344	9,637	1433,075	763,926
-44,330	9,622	1431,143	762,796
-43,315	9,601	1429,242	761,652
-42,300	9,600	1427,699	760,794
-41,286	9,612	1426,357	760,108
-40,271	9,587	1425,130	759,303
-39,257	9,595	1423,895	758,653
-38,242	9,639	1422,793	758,244
-37,227	9,599	1421,818	757,503
-36,213	9,639	1420,432	756,925
-35,198	9,635	1419,210	756,226
-34,184	9,680	1418,245	755,892
-33,169	9,559	1417,023	754,641
-32,154	9,573	1415,996	754,129
-31,140	9,661	1414,502	753,718
-30,125	9,682	1413,521	753,267
-29,111	9,652	1412,352	752,472
-28,096	9,603	1411,191	751,595
-27,082	9,572	1409,938	750,751
-26,067	9,517	1409,122	750,028
-25,052	9,591	1408,018	749,757
-24,038	9,597	1406,919	749,173
-23,023	9,598	1405,846	748,577
-22,009	9,583	1405,039	748,046
-20,994	9,564	1404,173	747,465
-19,979	9,517	1403,359	746,785
-18,965	9,524	1402,368	746,259
-17,950	9,503	1401,300	745,564
-16,936	9,481	1400,590	745,051
-15,921	9,450	1399,494	744,299
-14,906	9,457	1398,429	743,734
-13,892	9,519	1397,540	743,517
-12,877	9,513	1396,837	743,089
-11,863	9,457	1396,105	742,408
-10,848	9,437	1395,126	741,764
-9,833	9,388	1394,291	741,067
-8,819	9,361	1393,288	740,380
-7,804	9,374	1392,347	739,909
-6,790	9,377	1391,248	739,308
-5,775	9,304	1390,370	738,478
-4,760	9,368	1389,409	738,231
-3,746	9,405	1388,334	737,804
-2,731	9,356	1387,549	737,130
-1,717	9,411	1386,568	736,831
-0,702	9,391	1384,790	735,768
0,313	13,423	1296,999	707,536
1,327	29,409	688,013	411,470
2,342	45,971	118,956	77,495
3,356	3,182	16,501	8,437
4,371	1,988	3,678	1,866
5,386	19,479	1,114	0,630
6,400	800,000	0,254	0,532
7,415	17,448	-0,216	-0,121
8,429	-146,131	-0,366	-0,022
9,444	73,260	-0,317	-0,234
10,459	-59,523	-0,272	-0,082
11,473	-56,200	-0,392	-0,122
12,488	-26,876	-0,243	-0,099
13,502	58,146	-0,308	-0,212
14,517	36,792	-0,344	-0,214
15,531	29,534	-0,270	-0,161
16,546	362,453	-0,266	-0,377
17,561	39,666	-0,436	-0,275
18,575	0,553	-0,242	-0,121
19,590	132,375	-0,211	-0,191
20,604	11,373	-0,229	-0,123
21,619	229,384	-0,337	-0,388
22,634	64,672	-0,413	-0,293
23,648	222,957	-0,332	-0,378
24,663	-5,452	-0,373	-0,180
25,677	-33,926	-0,392	-0,151
26,692	236,467	-0,316	-0,368
27,707	302,230	-0,215	-0,281
28,721	-19,221	-0,402	-0,175
29,736	20,699	-0,354	-0,201
30,750	-3,119	-0,557	-0,272
31,765	33,693	-0,301	-0,184
32,780	70,210	-0,403	-0,293
33,794	155,931	-0,277	-0,269
34,809	156,860	-0,394	-0,383
35,823	1,804	-0,411	-0,208
36,838	580,175	-0,248	-0,428
37,853	15,591	-0,437	-0,241
38,867	20,014	-0,343	-0,194
39,882	-42,495	-0,397	-0,141
40,896	367,546	-0,239	-0,340
41,911	147,332	-0,310	-0,293
42,926	6,677	-0,275	-0,143
43,940	-44,001	-0,440	-0,154
44,955	24,623	-0,303	-0,176
45,969	24,675	-0,448	-0,260
46,984	126,216	-0,409	-0,363
47,999	57,718	-0,387	-0,265
49,013	-18,015	-0,364	-0,160
50,028	159,629	-0,218	-0,214
51,042	247,658	-0,335	-0,398
52,057	132,084	-0,289	-0,262
53,071	116,912	-0,316	-0,273
54,086	260,902	-0,247	-0,301
55,101	-1,771	-0,139	-0,069
56,115	-42,005	-0,305	-0,109
57,130	-28,945	-0,398	-0,160
58,144	-25,043	-0,443	-0,184
59,159	104,572	-0,408	-0,337
60,174	10,560	-0,408	-0,217
61,188	127,842	-0,310	-0,277
62,203	47,937	-0,341	-0,223
63,217	277,919	-0,241	-0,302
64,232	52,572	-0,213	-0,142
65,247	252,170	-0,295	-0,353
66,261	25,031	-0,324	-0,188
67,276	22,902	-0,346	-0,199
68,290	83,171	-0,287	-0,219
69,305	-32,950	-0,350	-0,135
70,320	4,801	-0,212	-0,109
71,334	-169,734	-0,398	-0,010
72,349	4,994	-0,315	-0,162
73,363	51,569	-0,375	-0,249
74,378	106,697	-0,358	-0,298
75,393	8,346	-0,334	-0,175
76,407	48,068	-0,275	-0,180
77,422	-15,082	-0,165	-0,074
78,436	173,076	-0,108	-0,110
79,451	66,695	-0,315	-0,224
80,466	123,687	-0,322	-0,283
81,480	283,066	-0,186	-0,234
82,495	-31,030	-0,236	-0,093
83,509	37,952	-0,255	-0,158
84,524	-31,958	-0,261	-0,102
85,539	39,072	-0,355	-0,222
86,553	63,636	-0,339	-0,238
87,568	117,283	-0,298	-0,256
88,582	-166,333	-0,316	0,009
89,597	108,845	-0,225	-0,188
90,611	-46,147	-0,232	-0,080
91,626	321,404	-0,167	-0,223
92,641	575,558	-0,120	-0,205
93,655	140,848	-0,250	-0,232
94,670	193,453	-0,268	-0,284
95,684	242,872	-0,193	-0,226
96,699	-64,195	-0,334	-0,095
97,714	67,374	-0,277	-0,198
98,728	-112,340	-0,195	0,027
99,743	-12,546	-0,292	-0,133
100,757	22,420	-0,320	-0,183
101,772	141,987	-0,256	-0,237
102,787	18,675	-0,370	-0,206
103,801	104,760	-0,342	-0,281
104,816	224,248	-0,260	-0,294
105,830	110,705	-0,221	-0,186
106,845	218,540	-0,197	-0,220
107,860	255,830	-0,224	-0,269
108,874	-55,247	-0,265	-0,083
109,889	95,971	-0,357	-0,285
110,903	145,385	-0,285	-0,267
111,918	113,700	-0,244	-0,207
112,933	33,247	-0,185	-0,112
113,947	334,596	-0,180	-0,244
114,962	102,555	-0,106	-0,087
115,976	112,452	-0,290	-0,245
116,991	210,710	-0,135	-0,148
118,006	115,592	-0,231	-0,197
119,020	29,223	-0,193	-0,114
120,035	-32,954	-0,075	-0,029
121,049	-37,770	-0,210	-0,077
122,064	251,219	-0,188	-0,223
123,079	-4,757	-0,171	-0,082
124,093	2,929	-0,273	-0,138
125,108	92,825	-0,127	-0,100
126,122	112,157	-0,162	-0,137
127,137	482,073	-0,093	-0,147
128,151	15,968	-0,204	-0,112
129,166	-56,975	-0,184	-0,056
130,181	39,719	-0,354	-0,221
131,195	63,918	-0,230	-0,161
132,210	334,011	-0,218	-0,295
133,224	7,467	-0,399	-0,207
134,239	279,269	-0,169	-0,211
135,254	490,329	-0,111	-0,178
136,268	-62,576	-0,266	-0,077
137,283	74,039	-0,193	-0,141
138,297	11,190	-0,301	-0,160
139,312	-24,798	-0,293	-0,121
140,327	269,679	-0,165	-0,203
141,341	673,009	-0,057	-0,104
142,356	-27,983	-0,152	-0,061
143,370	-58,341	-0,197	-0,059
144,385	146,288	-0,199	-0,186
145,400	260,068	-0,203	-0,245
146,414	176,615	-0,199	-0,201
147,429	205,867	-0,227	-0,246
148,443	-24,289	-0,282	-0,117
149,458	107,694	-0,173	-0,144
150,473	250,708	-0,163	-0,193
151,487	-62,365	-0,222	-0,064
152,502	-13,912	-0,378	-0,169
153,516	150,024	-0,258	-0,243
154,531	207,352	-0,271	-0,294
155,546	-200,000	-0,059	-0,233
156,560	195,620	-0,198	-0,210
157,575	-28,096	-0,270	-0,108
158,589	0,097	-0,269	-0,133
159,604	-140,632	-0,246	-0,017
160,619	67,057	-0,315	-0,223
161,633	55,170	-0,335	-0,225
162,648	487,708	-0,117	-0,186
163,662	-81,939	-0,250	-0,056
164,677	53,250	-0,328	-0,218
165,692	168,814	-0,243	-0,241
166,706	54,033	-0,206	-0,137
167,721	17,720	-0,233	-0,128
168,735	332,472	-0,196	-0,264
169,750	565,001	-0,058	-0,098
170,764	-176,969	-0,205	-0,004
171,779	224,025	-0,162	-0,182
172,794	126,927	-0,182	-0,160
173,808	588,091	-0,142	-0,243
174,823	-56,201	-0,242	-0,074
175,837	102,508	-0,244	-0,198
176,852	114,346	-0,261	-0,220
177,867	19,983	-0,201	-0,112
178,881	181,066	-0,190	-0,195
179,896	27,229	-0,154	-0,090
180,910	88,598	-0,228	-0,175
181,925	159,316	-0,294	-0,284
182,940	-45,354	-0,265	-0,091
183,954	23,922	-0,279	-0,159
184,969	-48,745	-0,296	-0,098
185,983	800,000	-0,056	-0,148
186,998	244,771	-0,141	-0,165
188,013	-126,363	-0,178	-0,018
189,027	140,052	-0,147	-0,134
190,042	-16,814	-0,324	-0,141
191,056	71,249	-0,240	-0,172
192,071	800,000	-0,113	-0,271
193,086	-32,075	-0,189	-0,073
194,100	-97,288	-0,187	-0,034
195,115	10,264	-0,148	-0,078
196,129	-67,878	-0,291	-0,078
197,144	5,951	-0,277	-0,142
198,159	-81,302	-0,349	-0,079
199,173	220,287	-0,265	-0,295
200,188	32,810	-0,253	-0,151
201,202	-200,000	-0,057	-0,191
202,217	-133,209	-0,213	-0,018
203,232	1,852	-0,233	-0,116
204,246	-33,401	-0,261	-0,099
205,261	-200,000	-0,006	-0,082
206,275	487,821	-0,076	-0,121
207,290	-125,716	-0,166	0,017
208,304	12,901	-0,158	-0,085
209,319	26,647	-0,251	-0,145
210,334	131,432	-0,101	-0,090
211,348	237,251	-0,220	-0,253
212,363	6,556	-0,144	-0,074
213,377	800,000	-0,079	-0,156
214,392	-200,000	-0,015	-0,143
215,407	138,839	-0,112	-0,102
216,421	231,401	-0,099	-0,112
217,436	37,864	-0,175	-0,108
218,450	245,566	-0,240	-0,280
219,465	24,248	-0,209	-0,119
220,480	-38,316	-0,171	-0,062
221,494	172,900	-0,217	-0,216
222,509	800,000	-0,159	-0,317
223,523	-131,627	-0,163	0,015
224,538	-104,877	-0,141	-0,022
225,553	163,566	-0,243	-0,237
226,567	84,188	-0,072	-0,054
227,582	800,000	-0,054	-0,157
228,596	-14,979	-0,080	-0,035
229,611	19,001	-0,177	-0,098
230,626	68,626	-0,224	-0,158
231,640	33,998	-0,225	-0,135
232,655	196,401	-0,250	-0,263
233,669	165,115	-0,258	-0,252
234,684	-59,340	-0,241	-0,071
235,699	-44,635	-0,179	-0,062
236,713	-87,323	-0,305	-0,063
237,728	69,446	-0,179	-0,127
238,742	355,707	-0,130	-0,180
239,757	126,460	-0,226	-0,198
240,772	406,440	-0,209	-0,306
241,786	130,069	-0,223	-0,197
242,801	381,851	-0,133	-0,189
243,815	334,759	-0,119	-0,160
244,830	800,000	-0,120	-0,261
245,844	107,838	-0,215	-0,177
246,859	-58,156	-0,152	-0,045
247,874	800,000	-0,082	-0,186
248,888	-2,329	-0,303	-0,146
249,903	-152,196	-0,256	-0,013
250,917	-200,000	-0,086	-0,275
251,932	800,000	-0,093	-0,198
252,947	-116,275	-0,197	-0,025
253,961	171,135	-0,122	-0,121
254,976	129,137	-0,175	-0,154
255,990	-52,732	-0,235	-0,074
257,005	-13,485	-0,227	-0,101
258,020	107,817	-0,204	-0,167
259,034	137,695	-0,111	-0,101
260,049	80,932	-0,187	-0,139
261,063	-65,285	-0,142	-0,039
262,078	160,274	-0,276	-0,265
263,093	108,397	-0,252	-0,207
264,107	245,642	-0,104	-0,121
265,122	10,178	-0,190	-0,099
266,136	-126,495	-0,169	-0,017
267,151	-44,435	-0,204	-0,070
268,166	131,254	-0,138	-0,122
269,180	358,022	-0,131	-0,180
270,195	112,285	-0,192	-0,160
271,209	-84,186	-0,182	-0,039
272,224	-20,757	-0,148	0,062
273,239	-85,861	-0,120	0,025
274,253	32,665	-0,198	-0,118
275,268	117,329	-0,182	-0,154
276,282	153,651	-0,156	-0,147
277,297	286,308	-0,110	-0,137
278,312	800,000	-0,066	-0,193
279,326	165,457	-0,148	-0,145
280,341	247,377	-0,117	-0,136
281,355	107,704	-0,130	-0,106
282,370	245,419	-0,126	-0,147
283,384	112,583	-0,233	-0,194
284,399	122,371	-0,233	-0,200
285,414	5,175	-0,200	-0,101
286,428	23,931	-0,175	-0,099
287,443	800,000	-0,082	-0,189
288,457	130,171	-0,137	-0,121
289,472	87,252	-0,258	-0,196
290,487	589,016	-0,068	-0,116
291,501	800,000	-0,130	-0,259
292,516	-25,906	-0,232	-0,093
293,530	800,000	-0,072	-0,158
294,545	316,792	-0,121	-0,158
295,560	-200,000	0,017	-0,071
296,574	104,047	-0,258	-0,208
297,589	299,818	-0,180	-0,228
298,603	44,249	-0,179	-0,113
299,618	-52,009	-0,190	-0,060
300,633	1,623	-0,304	-0,150
301,647	219,917	-0,107	-0,118
302,662	139,922	-0,201	-0,182
303,676	13,719	-0,176	0,094
304,691	235,994	-0,067	-0,076
305,706	-200,000	-0,078	-0,268
306,720	59,531	-0,057	-0,039
307,735	-34,237	-0,210	-0,079
308,749	142,667	-0,079	-0,072
309,764	-149,471	-0,185	-0,010
310,779	50,683	-0,106	-0,069
311,793	-82,916	-0,146	-0,032
312,808	-14,425	-0,153	-0,068
313,822	198,277	-0,103	-0,109
314,837	43,405	-0,162	-0,102
315,852	600,394	0,022	0,037
316,866	193,695	-0,071	-0,074
317,881	-200,000	-0,033	-0,169
318,895	166,960	-0,131	-0,128
319,910	44,227	-0,187	-0,117
320,925	23,833	-0,128	-0,072
321,939	180,188	-0,098	-0,099
322,954	50,588	-0,180	-0,117
323,968	-200,000	-0,034	-0,137
324,983	800,000	-0,095	-0,228
325,997	227,077	-0,178	-0,199
327,012	102,814	-0,187	-0,150
328,027	-77,233	-0,198	-0,047
329,041	800,000	-0,036	-0,083
330,056	-75,116	-0,253	-0,062
331,070	311,223	-0,156	-0,201
332,085	800,000	-0,034	-0,102
333,100	-75,831	-0,181	-0,044
334,114	76,945	-0,116	-0,084
335,129	297,029	-0,176	-0,222
336,143	800,000	-0,087	-0,205
337,158	134,991	-0,070	-0,062
338,173	17,770	-0,172	-0,093
339,187	57,827	-0,142	-0,095
340,202	-130,214	-0,167	-0,015
341,216	-99,183	-0,188	-0,032
342,231	68,067	-0,216	-0,151
343,246	636,068	-0,121	-0,211
344,260	-200,000	0,013	-0,097
345,275	190,494	-0,133	-0,137
346,289	-76,070	-0,152	0,036
347,304	-200,000	0,018	-0,175
348,319	527,971	-0,121	-0,196
349,333	-46,948	-0,210	-0,070
350,348	561,577	-0,075	-0,125
351,362	-200,000	-0,037	0,136
352,377	-81,475	-0,114	0,025
353,392	-84,434	-0,096	0,021
354,406	-92,674	-0,129	0,024
355,421	207,316	1308,630	1397,502
356,435	159,478	1468,582	1397,977
