DTS Sentinel unit serial number:	SN410029Multiplexer serial number:	ORYXHardware model number:	OX2-SRSoftware version number:	ORYX F/W v4,00 Oryx Data Collector v3.7.2.0data status	okinstallation	B3 Nyhavnadifferential loss correction	single-endedforward channel	channel 1reverse channel	N/Adate	2023/12/04time	18:27:30forward acquisition time	300,00reverse acquisition time	0,00gamma	499,1914k internal	0,3200k external	0,3200temperature offset calibration	1,0000default loss term (dB/km)	0,3820temperature slope calibration	1,0000multiplexer offset coefficient	1,0000multiplexer slope coefficient	1,0000fibre end	0,00T internal ref (°C)	14,94T ext. ref 1 (°C)	-0,21T ext. ref 2 (°C)	-0,22length (m)	temperature (°C)	Stokes	anti-Stokes-744,400	258,262	-0,201	-0,253
-743,385	-200,000	-0,037	0,230
-742,371	-8,255	-0,190	-0,093
-741,356	-200,000	0,099	0,362
-740,342	-98,387	-0,168	-0,031
-739,327	-200,000	0,003	0,401
-738,312	78,410	-0,294	-0,228
-737,298	-200,000	0,018	0,309
-736,283	429,999	-0,197	-0,311
-735,269	-200,000	-0,008	0,191
-734,254	27,156	-0,249	-0,152
-733,239	-9,150	-0,216	0,105
-732,225	546,419	-0,118	-0,205
-731,210	-110,216	-0,029	0,004
-730,196	306,635	-0,025	-0,035
-729,181	429,628	0,030	0,048
-728,167	-138,668	0,057	0,004
-727,152	-200,000	0,001	-0,089
-726,137	-94,299	-0,129	0,025
-725,123	-47,046	0,076	0,027
-724,108	234,080	-0,092	-0,111
-723,094	-135,937	-0,079	0,007
-722,079	37,470	-0,118	-0,076
-721,064	-110,356	-0,041	-0,006
-720,050	19,292	0,100	-0,058
-719,035	-200,000	0,006	0,040
-718,021	799,233	-0,034	-0,069
-717,006	611,849	-0,072	-0,132
-715,991	800,000	-0,057	-0,122
-714,977	494,759	-0,030	-0,050
-713,962	31,353	-0,103	0,064
-712,948	-200,000	-0,036	-0,130
-711,933	-200,000	-0,010	-0,071
-710,918	800,000	-0,027	-0,081
-709,904	639,598	-0,070	-0,131
-708,889	402,472	-0,030	-0,046
-707,875	-69,169	0,045	-0,012
-706,860	-200,000	0,009	0,084
-705,845	-200,000	0,012	-0,088
-704,831	99,172	0,054	0,046
-703,816	140,993	0,064	-0,061
-702,802	800,000	-0,044	0,099
-701,787	10,246	0,130	-0,071
-700,772	-200,000	0,057	-0,206
-699,758	-72,446	0,127	-0,034
-698,743	569,516	-0,035	-0,062
-697,729	185,516	-0,088	0,095
-696,714	-166,533	0,059	-0,002
-695,699	-200,000	-0,009	-0,034
-694,685	6,851	0,145	-0,078
-693,670	-104,712	-0,058	0,010
-692,656	54,983	0,030	0,021
-691,641	800,000	0,026	0,063
-690,627	75,108	-0,065	0,049
-689,612	56,411	0,059	0,041
-688,597	800,000	0,026	-0,078
-687,583	-142,416	-0,113	0,008
-686,568	-200,000	-0,022	-0,142
-685,554	800,000	0,069	-0,185
-684,539	77,311	0,101	-0,078
-683,524	-200,000	0,003	0,016
-682,510	-119,992	-0,080	0,010
-681,495	-163,062	-0,077	-0,003
-680,481	-62,555	-0,058	0,017
-679,466	-200,000	-0,032	-0,107
-678,451	-200,000	0,007	0,026
-677,437	-200,000	0,002	-0,030
-676,422	-111,741	0,077	-0,011
-675,408	-144,963	-0,102	-0,007
-674,393	-76,434	-0,227	-0,058
-673,378	800,000	-0,042	-0,086
-672,364	110,446	-0,051	-0,044
-671,349	-200,000	-0,004	0,060
-670,335	800,000	-0,025	0,052
-669,320	314,514	0,047	0,065
-668,305	-3,350	0,075	0,038
-667,291	244,575	0,018	0,022
-666,276	-99,538	-0,088	0,016
-665,262	702,457	0,071	0,137
-664,247	198,855	-0,074	-0,082
-663,232	-59,635	0,097	-0,030
-662,218	800,000	0,049	0,100
-661,203	-111,754	0,106	0,015
-660,189	410,385	-0,022	0,034
-659,174	-200,000	-0,009	-0,055
-658,159	-200,000	0,002	-0,052
-657,145	201,799	-0,092	-0,104
-656,130	58,826	0,099	0,071
-655,116	194,784	0,046	0,050
-654,101	55,727	-0,108	0,076
-653,086	270,933	0,095	-0,122
-652,072	-200,000	-0,025	0,192
-651,057	-102,454	-0,157	0,027
-650,043	-200,000	0,014	-0,115
-649,028	-200,000	-0,002	0,071
-648,014	800,000	-0,029	-0,088
-646,999	70,909	0,020	0,015
-645,984	-200,000	-0,026	0,117
-644,970	106,285	-0,136	-0,117
-643,955	-200,000	0,052	-0,233
-642,941	35,876	-0,181	0,115
-641,926	-200,000	0,015	-0,087
-640,911	800,000	-0,030	-0,070
-639,897	-38,199	-0,046	0,018
-638,882	-52,147	-0,113	0,038
-637,868	-71,134	-0,083	-0,022
-636,853	800,000	-0,034	0,082
-635,838	-81,843	-0,065	-0,015
-634,824	-56,124	-0,174	0,056
-633,809	-68,267	0,039	0,011
-632,795	410,301	-0,034	0,052
-631,780	45,482	0,039	-0,026
-630,765	-164,976	0,060	-0,002
-629,751	-165,672	-0,273	0,008
-628,736	800,000	-0,016	-0,046
-627,722	-22,950	0,021	0,009
-626,707	615,635	0,015	0,027
-625,692	233,448	0,003	-0,004
-624,678	295,661	0,038	0,050
-623,663	800,000	-0,030	-0,084
-622,649	296,289	-0,017	0,023
-621,634	-200,000	-0,022	0,094
-620,619	-200,000	-0,018	-0,071
-619,605	800,000	0,016	-0,037
-618,590	800,000	-0,008	-0,019
-617,576	32,657	0,060	-0,038
-616,561	13,571	-0,058	0,033
-615,546	-48,098	-0,083	0,029
-614,532	152,018	0,055	0,055
-613,517	62,536	-0,123	-0,089
-612,503	314,411	0,059	-0,080
-611,488	-200,000	0,000	0,088
-610,474	401,317	-0,061	0,093
-609,459	-117,791	-0,075	0,010
-608,444	698,465	-0,057	-0,108
-607,430	-67,999	-0,033	0,009
-606,415	800,000	-0,039	-0,119
-605,401	-85,318	0,040	-0,009
-604,386	-115,684	0,040	0,005
-603,371	414,522	-0,029	0,045
-602,357	800,000	-0,036	-0,088
-601,342	800,000	0,046	-0,118
-600,328	-18,523	-0,095	-0,043
-599,313	80,946	-0,138	-0,107
-598,298	-16,014	-0,068	-0,031
-597,284	-115,471	0,082	-0,011
-596,269	567,598	0,060	-0,105
-595,255	202,266	-0,072	0,080
-594,240	139,002	0,031	-0,030
-593,225	800,000	-0,031	0,091
-592,211	-60,744	-0,075	0,023
-591,196	-92,805	-0,083	-0,017
-590,182	-36,644	-0,044	0,017
-589,167	-200,000	-0,020	0,145
-588,152	-200,000	-0,024	0,116
-587,138	-200,000	0,004	0,069
-586,123	-41,150	0,037	0,014
-585,109	-200,000	0,047	-0,195
-584,094	409,944	-0,046	-0,071
-583,079	-155,256	-0,057	-0,003
-582,065	681,410	0,034	-0,064
-581,050	90,621	-0,119	-0,096
-580,036	236,874	-0,080	-0,096
-579,021	-65,618	-0,071	0,020
-578,006	60,536	0,095	-0,068
-576,992	-6,428	-0,055	-0,027
-575,977	800,000	0,075	-0,209
-574,963	-160,510	-0,078	-0,003
-573,948	-48,158	0,094	-0,033
-572,934	-200,000	-0,021	-0,087
-571,919	-200,000	-0,005	-0,119
-570,904	382,647	-0,075	-0,111
-569,890	-96,175	-0,104	-0,020
-568,875	-164,964	0,179	-0,006
-567,861	235,562	-0,091	0,109
-566,846	206,984	0,114	0,129
-565,831	-200,000	-0,003	0,099
-564,817	-200,000	0,003	-0,115
-563,802	800,000	-0,027	-0,070
-562,788	130,792	0,055	-0,051
-561,773	-117,091	0,042	0,005
-560,758	-58,750	0,137	-0,043
-559,744	-200,000	-0,002	-0,121
-558,729	22,755	-0,139	0,082
-557,715	9,508	-0,084	-0,046
-556,700	41,642	-0,123	-0,080
-555,685	-200,000	-0,005	-0,181
-554,671	-200,000	0,001	0,053
-553,656	113,499	-0,050	0,044
-552,642	800,000	0,046	0,098
-551,627	-141,609	-0,031	0,002
-550,612	172,479	-0,093	-0,097
-549,598	613,716	-0,023	-0,042
-548,583	-200,000	0,054	-0,182
-547,569	53,605	0,049	-0,034
-546,554	-177,950	0,146	0,002
-545,539	800,000	-0,024	0,062
-544,525	-200,000	-0,000	0,047
-543,510	100,205	-0,162	-0,136
-542,496	800,000	0,040	0,084
-541,481	-129,339	0,049	-0,005
-540,466	322,333	-0,074	0,102
-539,452	-46,075	0,190	0,067
-538,437	800,000	-0,035	0,081
-537,423	226,753	-0,066	0,077
-536,408	130,833	-0,080	0,074
-535,393	800,000	-0,019	-0,049
-534,379	-67,341	-0,143	0,040
-533,364	27,903	0,065	-0,039
-532,350	57,739	0,142	-0,100
-531,335	640,426	0,063	0,116
-530,321	17,680	0,030	0,017
-529,306	188,215	0,026	0,028
-528,291	800,000	0,056	-0,132
-527,277	131,894	-0,089	0,083
-526,262	67,844	-0,172	-0,126
-525,248	-5,133	0,037	0,018
-524,233	-34,910	0,062	-0,024
-523,218	-57,753	-0,087	0,027
-522,204	46,582	-0,019	0,012
-521,189	244,264	0,122	-0,148
-520,175	154,102	0,044	-0,044
-519,160	45,772	0,058	-0,039
-518,145	260,392	0,081	-0,101
-517,131	-109,342	0,038	0,006
-516,116	505,232	0,035	0,059
-515,102	-200,000	0,041	0,248
-514,087	463,477	-0,041	-0,066
-513,072	-99,643	-0,171	0,031
-512,058	-200,000	-0,005	-0,144
-511,043	28,782	-0,062	0,038
-510,029	-0,066	0,046	0,024
-509,014	800,000	0,062	-0,139
-507,999	-200,000	0,037	-0,138
-506,985	633,146	0,051	-0,094
-505,970	-113,872	0,053	0,007
-504,956	-200,000	-0,016	-0,169
-503,941	13,991	-0,018	-0,010
-502,926	-200,000	-0,005	-0,103
-501,912	-105,547	0,024	0,004
-500,897	-53,396	-0,170	0,056
-499,883	-74,302	0,123	-0,032
-498,868	-32,502	-0,108	-0,043
-497,853	-145,507	-0,186	0,012
-496,839	-200,000	0,015	0,055
-495,824	-200,000	-0,011	0,119
-494,810	4,422	0,148	0,078
-493,795	-12,269	-0,068	0,032
-492,781	550,563	-0,046	0,080
-491,766	-136,934	-0,096	-0,008
-490,751	286,153	-0,072	-0,094
-489,737	48,675	0,038	-0,026
-488,722	-179,200	0,038	0,001
-487,708	490,216	0,006	-0,010
-486,693	800,000	0,040	-0,101
-485,678	-60,771	-0,045	0,014
-484,664	567,196	-0,047	0,082
-483,649	-200,000	-0,004	-0,020
-482,635	282,095	0,111	-0,143
-481,620	-116,345	0,058	0,008
-480,605	800,000	-0,028	-0,081
-479,591	-200,000	-0,004	-0,058
-478,576	-119,922	0,135	0,017
-477,562	501,550	-0,046	0,077
-476,547	121,371	-0,062	0,055
-475,532	-37,593	-0,076	-0,029
-474,518	-51,032	0,083	-0,028
-473,503	34,180	-0,102	0,064
-472,489	-200,000	0,005	0,116
-471,474	435,529	-0,071	0,111
-470,459	-56,810	0,095	-0,030
-469,445	-89,763	-0,019	0,004
-468,430	800,000	-0,069	-0,149
-467,416	159,294	-0,041	-0,041
-466,401	63,528	-0,088	0,064
-465,386	21,000	-0,035	-0,021
-464,372	800,000	-0,015	0,043
-463,357	-200,000	0,026	0,101
-462,343	327,153	0,051	-0,071
-461,328	10,171	0,140	-0,076
-460,313	800,000	-0,067	0,134
-459,299	73,135	0,095	0,071
-458,284	-200,000	0,027	0,090
-457,270	614,640	-0,030	-0,053
-456,255	15,134	-0,032	-0,018
-455,241	-200,000	0,033	-0,134
-454,226	654,766	-0,037	-0,068
-453,211	233,221	0,020	-0,024
-452,197	176,967	0,020	0,021
-451,182	0,533	0,137	0,070
-450,168	68,224	0,015	0,011
-449,153	-200,000	0,028	0,113
-448,138	-30,829	-0,057	0,023
-447,124	-39,846	-0,078	-0,029
-446,109	14,807	-0,026	-0,015
-445,095	5,707	-0,052	0,027
-444,080	445,666	-0,012	0,019
-443,065	-200,000	0,021	-0,071
-442,051	-39,679	-0,081	0,030
-441,036	87,996	-0,077	0,061
-440,022	-95,627	0,024	0,005
-439,007	535,095	-0,032	0,055
-437,992	-54,362	0,115	0,037
-436,978	-90,552	0,111	0,023
-435,963	-40,355	-0,036	0,014
-434,949	-57,542	-0,173	-0,054
-433,934	31,132	-0,040	-0,025
-432,919	156,024	-0,109	-0,108
-431,905	800,000	0,037	-0,095
-430,890	-180,035	0,176	-0,003
-429,876	55,842	-0,038	0,026
-428,861	800,000	-0,035	-0,076
-427,846	47,509	-0,040	0,027
-426,832	800,000	-0,027	-0,075
-425,817	160,812	0,023	-0,023
-424,803	-19,531	-0,091	0,040
-423,788	-200,000	-0,006	0,026
-422,773	800,000	-0,013	0,039
-421,759	-200,000	-0,001	0,016
-420,744	65,175	-0,111	-0,081
-419,730	-200,000	0,014	-0,066
-418,715	800,000	0,010	0,030
-417,701	-143,417	-0,130	-0,009
-416,686	-29,999	0,142	0,058
-415,671	492,362	-0,046	-0,076
-414,657	309,423	0,004	0,005
-413,642	44,049	0,102	-0,067
-412,628	279,882	-0,133	-0,171
-411,613	259,145	0,053	-0,066
-410,598	387,678	0,084	0,126
-409,584	-200,000	0,017	0,119
-408,569	99,708	-0,015	0,013
-407,555	136,720	0,061	-0,057
-406,540	-171,512	0,091	0,002
-405,525	-40,064	0,039	-0,014
-404,511	-56,246	-0,044	-0,014
-403,496	23,801	0,025	0,015
-402,482	-149,555	0,040	0,002
-401,467	-37,841	0,087	0,033
-400,452	122,594	0,094	-0,085
-399,438	303,524	0,090	0,119
-398,423	356,227	0,037	-0,053
-397,409	-45,731	-0,151	-0,053
-396,394	-84,974	0,105	0,023
-395,379	242,407	-0,037	0,044
-394,365	-67,952	0,073	-0,020
-393,350	105,256	0,098	0,083
-392,336	107,555	0,084	-0,071
-391,321	-183,193	0,092	0,001
-390,306	463,280	0,075	-0,121
-389,292	-200,000	-0,027	-0,129
-388,277	75,056	0,116	0,088
-387,263	-200,000	0,004	-0,066
-386,248	-173,299	0,148	-0,003
-385,233	-200,000	-0,002	-0,013
-384,219	-189,596	-0,049	0,000
-383,204	-200,000	-0,001	0,044
-382,190	800,000	0,036	-0,080
-381,175	-116,745	-0,093	-0,012
-380,160	800,000	0,033	0,069
-379,146	-200,000	0,012	0,041
-378,131	270,502	-0,024	0,031
-377,117	73,107	0,027	0,020
-376,102	-200,000	0,014	-0,057
-375,088	-121,759	-0,070	0,008
-374,073	177,673	0,086	-0,090
-373,058	110,954	0,055	0,047
-372,044	-52,596	0,129	-0,042
-371,029	92,461	-0,104	0,084
-370,015	800,000	-0,020	-0,053
-369,000	63,109	-0,068	-0,049
-367,985	126,174	-0,092	-0,083
-366,971	800,000	-0,011	0,025
-365,956	472,287	-0,047	-0,076
-364,942	-200,000	-0,020	0,134
-363,927	177,745	0,031	0,032
-362,912	800,000	0,056	0,120
-361,898	70,002	-0,079	-0,058
-360,883	22,104	-0,106	0,062
-359,869	-200,000	-0,021	-0,071
-358,854	237,192	0,115	-0,137
-357,839	-107,005	0,109	0,017
-356,825	-170,484	-0,157	-0,004
-355,810	714,945	0,045	0,087
-354,796	722,760	-0,025	0,048
-353,781	-113,852	-0,133	-0,018
-352,766	110,949	0,043	-0,037
-351,752	452,105	0,035	0,056
-350,737	55,058	-0,013	-0,009
-349,723	-92,107	-0,138	0,028
-348,708	204,047	0,052	-0,058
-347,693	6,228	0,069	-0,037
-346,679	-200,000	-0,021	-0,136
-345,664	-200,000	-0,006	-0,047
-344,650	-200,000	0,002	-0,059
-343,635	800,000	0,006	0,014
-342,620	262,843	0,099	0,123
-341,606	11,319	-0,121	-0,066
-340,591	101,958	0,047	-0,040
-339,577	800,000	0,026	0,055
-338,562	-200,000	0,013	-0,145
-337,548	-200,000	0,008	-0,066
-336,533	-200,000	0,001	-0,019
-335,518	-69,396	0,106	0,029
-334,504	184,911	-0,072	0,076
-333,489	476,911	-0,068	-0,111
-332,475	800,000	0,044	-0,116
-331,460	-200,000	-0,020	0,077
-330,445	-39,310	-0,150	0,056
-329,431	-14,402	0,131	0,060
-328,416	-200,000	-0,004	0,108
-327,402	69,158	-0,029	0,022
-326,387	-55,696	0,055	0,018
-325,372	-110,536	-0,133	-0,020
-324,358	93,890	-0,129	-0,104
-323,343	800,000	-0,053	0,127
-322,329	-200,000	0,022	0,091
-321,314	-200,000	0,000	0,057
-320,299	800,000	0,056	-0,123
-319,285	-102,647	0,077	-0,013
-318,270	39,944	-0,086	-0,055
-317,256	-95,489	-0,045	0,008
-316,241	301,831	-0,045	0,060
-315,226	800,000	0,018	0,051
-314,212	-99,424	0,107	-0,019
-313,197	31,291	0,074	0,045
-312,183	425,002	0,059	-0,091
-311,168	217,027	0,055	-0,063
-310,153	236,657	-0,089	-0,105
-309,139	9,300	-0,158	-0,085
-308,124	-59,673	0,015	-0,005
-307,110	493,633	0,110	0,182
-306,095	425,294	-0,086	-0,132
-305,080	725,067	0,009	0,017
-304,066	-200,000	0,027	0,131
-303,051	800,000	-0,046	0,096
-302,037	171,997	-0,034	0,035
-301,022	217,628	0,113	0,129
-300,008	473,907	-0,030	0,049
-298,993	210,697	0,043	0,049
-297,978	-200,000	-0,018	-0,101
-296,964	141,012	0,083	0,079
-295,949	-5,010	0,003	-0,001
-294,935	-200,000	0,007	0,080
-293,920	516,045	-0,040	0,067
-292,905	-200,000	-0,017	-0,135
-291,891	800,000	0,024	0,072
-290,876	-200,000	-0,008	-0,115
-289,862	-200,000	-0,019	-0,109
-288,847	-200,000	-0,036	0,120
-287,832	482,087	0,023	-0,037
-286,818	216,729	0,043	0,049
-285,803	48,829	0,129	0,086
-284,789	610,127	0,077	0,138
-283,774	202,603	0,026	-0,028
-282,759	480,765	-0,029	-0,048
-281,745	800,000	0,016	-0,044
-280,730	-98,054	0,071	-0,013
-279,716	800,000	0,029	0,067
-278,701	-72,517	0,027	-0,007
-277,686	-8,232	0,088	0,042
-276,672	211,808	-0,038	0,042
-275,657	455,043	0,093	0,148
-274,643	94,414	0,093	-0,076
-273,628	800,000	0,011	-0,028
-272,613	-200,000	-0,017	-0,055
-271,599	-200,000	0,029	0,158
-270,584	777,608	-0,062	0,122
-269,570	46,386	0,111	0,073
-268,555	23,180	-0,120	-0,070
-267,540	-27,618	0,079	0,033
-266,526	-73,539	0,072	-0,019
-265,511	800,000	-0,057	0,134
-264,497	800,000	-0,059	0,120
-263,482	-8,150	0,181	-0,087
-262,467	192,185	0,051	-0,055
-261,453	266,029	0,089	0,111
-260,438	-59,299	-0,081	-0,025
-259,424	-44,127	0,107	-0,038
-258,409	800,000	0,041	-0,092
-257,395	800,000	-0,030	-0,075
-256,380	-50,590	-0,069	-0,023
-255,365	-80,087	0,204	0,049
-254,351	-200,000	0,002	0,040
-253,336	-27,314	-0,038	-0,016
-252,322	576,625	0,015	0,027
-251,307	-50,784	0,072	-0,024
-250,292	800,000	-0,056	-0,118
-249,278	220,130	0,079	-0,090
-248,263	-0,429	0,072	0,036
-247,249	527,809	0,083	0,140
-246,234	-200,000	0,016	-0,148
-245,219	-92,429	0,027	0,005
-244,205	-200,000	-0,002	0,018
-243,190	-96,658	0,065	0,012
-242,176	49,848	0,052	0,035
-241,161	0,075	-0,012	0,006
-240,146	-59,862	-0,070	-0,021
-239,132	-155,458	0,085	0,004
-238,117	521,322	0,021	0,035
-237,103	38,047	-0,038	-0,024
-236,088	-108,553	-0,079	-0,012
-235,073	103,388	0,070	-0,059
-234,059	195,336	0,036	0,039
-233,044	595,458	0,051	0,091
-232,030	559,767	0,026	0,046
-231,015	65,192	-0,151	-0,109
-230,000	266,792	0,011	0,014
-228,986	21,065	-0,045	0,026
-227,971	-200,000	0,022	0,179
-226,957	207,136	0,045	-0,050
-225,942	-200,000	0,016	0,159
-224,927	-200,000	-0,022	0,077
-223,913	800,000	-0,031	0,065
-222,898	800,000	-0,033	0,073
-221,884	72,007	0,044	0,033
-220,869	257,693	-0,178	0,219
-219,855	-200,000	0,003	0,048
-218,840	276,774	0,119	0,151
-217,825	-75,817	0,063	-0,016
-216,811	-200,000	-0,001	-0,004
-215,796	34,945	0,020	-0,013
-214,782	-200,000	0,034	-0,111
-213,767	-200,000	-0,010	-0,075
-212,752	40,394	-0,107	0,069
-211,738	25,179	0,201	0,119
-210,723	-200,000	-0,003	0,023
-209,709	800,000	-0,018	0,046
-208,694	800,000	-0,045	-0,118
-207,679	438,994	0,029	0,045
-206,665	530,266	-0,047	0,079
-205,650	-189,903	0,092	0,001
-204,636	-76,239	0,144	0,036
-203,621	-200,000	0,001	0,042
-202,606	-138,688	-0,092	0,007
-201,592	96,522	0,083	-0,068
-200,577	-19,924	-0,072	0,031
-199,563	-86,564	0,066	-0,014
-198,548	-28,744	0,143	-0,058
-197,533	-200,000	0,027	0,117
-196,519	800,000	0,013	0,036
-195,504	331,238	-0,040	0,056
-194,490	-124,045	0,116	0,013
-193,475	800,000	0,061	-0,140
-192,460	800,000	-0,045	0,094
-191,446	-50,419	0,137	0,046
-190,431	206,003	0,067	0,074
-189,417	33,194	-0,130	-0,080
-188,402	-200,000	-0,004	-0,017
-187,387	676,589	-0,016	0,029
-186,373	565,943	0,047	-0,081
-185,358	-200,000	-0,006	0,049
-184,344	-200,000	-0,004	0,052
-183,329	-200,000	0,050	0,160
-182,315	634,580	0,049	-0,089
-181,300	-200,000	0,004	0,138
-180,285	643,149	-0,045	0,081
-179,271	-69,232	-0,070	0,019
-178,256	413,588	-0,056	-0,086
-177,242	685,088	-0,011	-0,021
-176,227	-200,000	0,010	0,153
-175,212	-200,000	-0,025	0,104
-174,198	-9,692	-0,069	0,033
-173,183	-104,397	-0,100	-0,016
-172,169	-200,000	-0,001	0,021
-171,154	-1,879	-0,055	0,028
-170,139	-200,000	0,023	-0,105
-169,125	-200,000	0,007	-0,032
-168,110	-200,000	0,012	0,168
-167,096	772,967	-0,039	0,076
-166,081	39,484	-0,045	0,029
-165,066	-87,139	-0,049	-0,011
-164,052	-200,000	-0,005	-0,102
-163,037	7,330	-0,050	0,027
-162,023	800,000	0,090	0,181
-161,008	-114,609	-0,084	-0,011
-159,993	262,663	0,031	-0,038
-158,979	800,000	0,034	0,086
-157,964	800,000	-0,039	-0,095
-156,950	-200,000	-0,084	0,000
-155,935	142,632	0,071	0,067
-154,920	108,111	0,118	-0,100
-153,906	204,339	-0,048	-0,053
-152,891	122,511	0,120	0,107
-151,877	-200,000	-0,027	0,100
-150,862	-6,756	-0,009	-0,004
-149,847	-50,809	0,119	-0,040
-148,833	-38,109	0,057	-0,021
-147,818	-200,000	0,011	-0,085
-146,804	-200,000	-0,006	0,060
-145,789	-200,000	-0,020	-0,084
-144,775	6,301	-0,050	0,026
-143,760	800,000	0,041	0,096
-142,745	-40,826	0,120	0,044
-141,731	-147,479	-0,176	0,010
-140,716	152,888	-0,046	0,045
-139,702	335,748	0,120	0,165
-138,687	-200,000	-0,012	0,107
-137,672	-136,715	0,054	0,004
-136,658	345,997	-0,089	-0,125
-135,643	-200,000	-0,012	0,079
-134,629	-58,735	0,055	0,017
-133,614	307,844	0,066	0,088
-132,599	-12,789	0,200	-0,092
-131,585	119,494	-0,094	-0,083
-130,570	-80,402	-0,004	-0,001
-129,556	578,690	0,060	-0,105
-128,541	175,626	-0,107	-0,110
-127,526	-27,059	0,094	-0,039
-126,512	-74,617	-0,037	0,009
-125,497	496,394	0,032	0,053
-124,483	-162,703	-0,167	0,006
-123,468	800,000	0,055	0,110
-122,453	377,261	0,066	-0,096
-121,439	215,702	-0,021	-0,024
-120,424	800,000	-0,073	-0,204
-119,410	-123,282	-0,140	0,016
-118,395	714,982	0,022	0,042
-117,380	370,561	0,021	0,030
-116,366	-106,691	0,025	-0,004
-115,351	552,089	-0,078	-0,133
-114,337	709,736	-0,041	-0,077
-113,322	800,000	0,072	0,165
-112,307	-47,005	-0,131	-0,045
-111,293	-43,279	0,155	0,055
-110,278	-200,000	-0,021	0,075
-109,264	703,043	0,027	0,052
-108,249	208,136	0,107	-0,119
-107,234	-88,127	-0,054	-0,011
-106,220	-93,613	-0,175	-0,034
-105,205	10,659	0,171	0,092
-104,191	432,848	0,109	0,169
-103,176	800,000	-0,080	0,206
-102,162	800,000	0,020	0,055
-101,147	-93,760	0,169	0,033
-100,132	-200,000	-0,000	-0,039
-99,118	48,004	0,122	0,081
-98,103	581,267	0,017	0,029
-97,089	520,128	-0,069	0,115
-96,074	-82,045	0,055	-0,013
-95,059	-20,158	0,204	0,089
-94,045	-57,884	0,083	0,026
-93,030	132,784	-0,072	-0,066
-92,016	101,051	-0,086	-0,071
-91,001	-200,000	-0,003	0,023
-89,986	-200,000	-0,010	0,077
-88,972	-168,667	0,076	0,002
-87,957	-12,975	0,100	0,046
-86,943	-51,764	-0,154	0,051
-85,928	171,989	-0,049	0,050
-84,913	-41,028	0,064	-0,023
-83,899	293,144	-0,076	0,098
-82,884	-200,000	0,020	0,140
-81,870	17,350	-0,126	0,071
-80,855	58,705	0,077	-0,053
-79,840	114,464	0,076	0,065
-78,826	-112,401	-0,122	-0,017
-77,811	800,000	0,043	0,089
-76,797	707,845	-0,007	-0,012
-75,782	-108,637	0,101	0,015
-74,767	-98,356	0,240	0,043
-73,753	336,472	-0,055	-0,076
-72,738	276,996	0,071	0,089
-71,724	247,609	-0,146	-0,176
-70,709	-200,000	-0,021	-0,075
-69,694	-93,906	-0,108	0,021
-68,680	22,538	-0,113	0,065
-67,665	593,974	0,063	0,111
-66,651	81,254	0,054	0,042
-65,636	-200,000	0,002	0,114
-64,622	137,268	0,090	-0,084
-63,607	351,480	-0,104	-0,146
-62,592	30,089	0,063	-0,038
-61,578	-200,000	0,001	-0,055
-60,563	-200,000	0,016	-0,132
-59,549	-3,586	0,071	0,035
-58,534	-79,314	-1,505	-0,358
-57,519	431,432	-1,390	-2,140
-56,505	-200,000	-0,675	-4,722
-55,490	155,435	0,986	0,962
-54,476	800,000	5,030	11,425
-53,461	-200,000	18,354	289,517
-52,446	800,000	728,218	2233,716
-51,432	555,184	1644,099	2813,830
-50,417	79,109	1665,974	1262,701
-49,403	22,801	1539,655	891,136
-48,388	16,791	1463,001	817,645
-47,373	17,871	1452,643	817,027
-46,359	17,230	1443,277	808,659
-45,344	15,050	1438,629	795,609
-44,330	14,975	1436,734	794,168
-43,315	14,986	1434,833	793,138
-42,300	14,982	1433,282	792,233
-41,286	15,052	1432,084	791,870
-40,271	14,980	1430,819	790,799
-39,257	14,988	1429,653	790,162
-38,242	15,021	1428,366	789,576
-37,227	15,039	1427,322	789,050
-36,213	15,033	1425,741	788,117
-35,198	15,034	1424,823	787,583
-34,184	15,072	1423,800	787,165
-33,169	14,975	1422,525	785,974
-32,154	15,037	1421,517	785,677
-31,140	15,079	1420,004	785,006
-30,125	15,066	1419,151	784,443
-29,111	15,060	1417,908	783,696
-28,096	15,040	1416,679	782,894
-27,082	14,981	1415,774	782,084
-26,067	15,025	1414,303	781,449
-25,052	14,953	1413,604	780,692
-24,038	14,925	1412,429	779,880
-23,023	14,954	1411,566	779,508
-22,009	14,962	1410,406	778,875
-20,994	14,962	1409,598	778,396
-19,979	14,922	1408,626	777,641
-18,965	14,896	1407,580	776,914
-17,950	14,887	1406,639	776,319
-16,936	14,887	1405,867	775,865
-15,921	14,887	1404,647	775,159
-14,906	14,864	1403,827	774,569
-13,892	14,900	1402,761	774,121
-12,877	14,833	1402,051	773,386
-11,863	14,863	1401,165	773,006
-10,848	14,850	1400,231	772,399
-9,833	14,800	1399,310	771,629
-8,819	14,840	1398,317	771,236
-7,804	14,763	1397,579	770,439
-6,790	14,814	1396,372	769,979
-5,775	14,799	1395,367	769,326
-4,760	14,759	1394,740	768,763
-3,746	14,803	1393,516	768,261
-2,731	14,773	1393,011	767,814
-1,717	14,821	1391,906	767,396
-0,702	14,712	1390,255	765,953
0,313	18,462	1309,120	738,633
1,327	34,692	706,432	436,190
2,342	53,056	124,500	84,213
3,356	1,521	16,692	8,472
4,371	12,197	3,160	1,717
5,386	29,974	0,676	0,407
6,400	438,193	0,070	0,108
7,415	43,344	-0,132	-0,085
8,429	19,581	-0,294	-0,167
9,444	-54,451	-0,400	-0,127
10,459	-12,686	-0,312	-0,143
11,473	-154,271	-0,363	-0,017
12,488	15,508	-0,202	-0,112
13,502	99,104	-0,357	-0,291
14,517	800,000	-0,157	-0,331
15,531	26,061	-0,381	-0,224
16,546	-101,783	-0,378	-0,064
17,561	371,907	-0,235	-0,338
18,575	368,670	-0,121	-0,174
19,590	19,943	-0,292	-0,166
20,604	111,142	-0,237	-0,202
21,619	148,440	-0,371	-0,354
22,634	116,155	-0,430	-0,372
23,648	132,153	-0,301	-0,274
24,663	106,974	-0,365	-0,307
25,677	146,325	-0,317	-0,301
26,692	17,021	-0,343	-0,191
27,707	18,940	-0,337	-0,190
28,721	57,995	-0,387	-0,267
29,736	55,762	-0,428	-0,292
30,750	93,430	-0,437	-0,349
31,765	-18,454	-0,473	-0,208
32,780	175,276	-0,235	-0,240
33,794	-2,344	-0,399	-0,197
34,809	118,103	-0,325	-0,283
35,823	-91,828	-0,394	-0,078
36,838	25,704	-0,495	-0,290
37,853	130,924	-0,396	-0,359
38,867	58,633	-0,380	-0,263
39,882	61,429	-0,441	-0,309
40,896	71,114	-0,371	-0,271
41,911	19,322	-0,416	-0,235
42,926	-0,297	-0,486	-0,243
43,940	800,000	-0,195	-0,401
44,955	49,651	-0,498	-0,330
45,969	79,360	-0,419	-0,316
46,984	120,529	-0,260	-0,227
47,999	9,354	-0,401	-0,213
49,013	-68,721	-0,344	-0,093
50,028	173,813	-0,206	-0,210
51,042	176,302	-0,234	-0,240
52,057	163,604	-0,264	-0,262
53,071	370,946	-0,176	-0,253
54,086	190,923	-0,227	-0,241
55,101	-4,287	-0,296	-0,144
56,115	55,588	-0,350	-0,238
57,130	110,194	-0,353	-0,299
58,144	-29,727	-0,246	-0,099
59,159	72,760	-0,353	-0,259
60,174	-3,185	-0,251	-0,123
61,188	145,294	-0,291	-0,274
62,203	7,145	-0,258	-0,135
63,217	-19,862	-0,340	-0,147
64,232	-37,900	-0,386	-0,144
65,247	127,919	-0,319	-0,285
66,261	-109,246	-0,391	-0,058
67,276	40,726	-0,376	-0,238
68,290	21,063	-0,443	-0,252
69,305	89,652	-0,311	-0,244
70,320	-9,719	-0,223	-0,104
71,334	-38,369	-0,372	-0,138
72,349	185,998	-0,295	-0,309
73,363	64,305	-0,324	-0,229
74,378	38,054	-0,426	-0,266
75,393	379,166	-0,238	-0,344
76,407	60,854	-0,363	-0,253
77,422	-65,491	-0,280	-0,079
78,436	85,329	-0,218	-0,168
79,451	209,493	-0,212	-0,234
80,466	49,746	-0,367	-0,243
81,480	243,762	-0,264	-0,312
82,495	8,267	-0,215	-0,113
83,509	-22,691	-0,322	-0,136
84,524	603,926	-0,084	-0,147
85,539	45,782	-0,323	-0,209
86,553	-41,595	-0,356	-0,128
87,568	-8,215	-0,311	-0,147
88,582	43,951	-0,362	-0,233
89,597	159,265	-0,202	-0,198
90,611	-53,598	-0,329	-0,105
91,626	-72,620	-0,291	-0,075
92,641	-110,056	-0,239	-0,035
93,655	800,000	-0,127	-0,272
94,670	9,065	-0,358	-0,189
95,684	-161,556	-0,411	-0,015
96,699	68,868	-0,279	-0,201
97,714	94,828	-0,225	-0,179
98,728	-13,227	-0,221	-0,100
99,743	273,145	-0,141	-0,175
100,757	166,480	-0,215	-0,214
101,772	127,975	-0,212	-0,189
102,787	113,863	-0,289	-0,246
103,801	-24,631	-0,255	-0,106
104,816	117,662	-0,240	-0,207
105,830	-22,881	-0,191	-0,080
106,845	174,404	-0,175	-0,178
107,860	87,648	-0,224	-0,173
108,874	63,941	-0,339	-0,239
109,889	-5,782	-0,226	-0,108
110,903	98,529	-0,285	-0,230
111,918	-124,992	-0,300	0,032
112,933	53,757	-0,258	-0,173
113,947	133,073	-0,285	-0,258
114,962	96,165	-0,275	-0,220
115,976	150,418	-0,259	-0,246
116,991	-21,403	-0,207	-0,088
118,006	325,801	-0,244	-0,327
119,020	150,948	-0,201	-0,191
120,035	25,909	-0,229	-0,133
121,049	770,231	-0,070	-0,135
122,064	6,300	-0,281	-0,146
123,079	19,473	-0,242	-0,136
124,093	59,586	-0,376	-0,259
125,108	800,000	-0,067	-0,135
126,122	181,013	-0,212	-0,219
127,137	-5,652	-0,266	-0,127
128,151	329,492	-0,262	-0,353
129,166	217,182	-0,212	-0,236
130,181	166,189	-0,211	-0,210
131,195	17,801	-0,297	-0,165
132,210	567,090	-0,170	-0,290
133,224	246,697	-0,203	-0,240
134,239	-6,937	-0,341	-0,161
135,254	59,367	-0,275	-0,189
136,268	-137,073	-0,217	-0,017
137,283	-28,576	-0,306	-0,123
138,297	73,410	-0,299	-0,219
139,312	81,708	-0,307	-0,232
140,327	94,231	-0,241	-0,191
141,341	23,530	-0,171	-0,098
142,356	-10,641	-0,312	-0,144
143,370	316,308	-0,196	-0,259
144,385	374,227	-0,170	-0,243
145,400	6,284	-0,285	-0,147
146,414	-9,694	-0,289	-0,134
147,429	-70,688	-0,261	-0,068
148,443	53,363	-0,177	-0,118
149,458	-27,897	-0,223	-0,090
150,473	65,129	-0,145	-0,102
151,487	73,366	-0,276	-0,201
152,502	108,377	-0,135	-0,113
153,516	77,566	-0,272	-0,202
154,531	295,054	-0,221	-0,283
155,546	53,364	-0,293	-0,196
156,560	301,569	-0,226	-0,293
157,575	253,872	-0,171	-0,205
158,589	-28,349	-0,241	-0,097
159,604	-46,499	-0,198	-0,067
160,619	24,949	-0,305	-0,176
161,633	67,906	-0,138	-0,099
162,648	143,197	-0,219	-0,204
163,662	83,444	-0,255	-0,194
164,677	376,000	-0,123	-0,175
165,692	439,147	-0,118	-0,180
166,706	273,323	-0,166	-0,205
167,721	58,303	-0,223	-0,152
168,735	563,919	-0,203	-0,343
169,750	208,042	-0,217	-0,237
170,764	800,000	-0,125	-0,290
171,779	-3,835	-0,206	-0,099
172,794	573,381	-0,152	-0,259
173,808	180,044	-0,192	-0,196
174,823	203,941	-0,262	-0,283
175,837	-74,769	-0,257	-0,064
176,852	315,271	-0,139	-0,182
177,867	-9,603	-0,289	-0,134
178,881	800,000	-0,102	-0,309
179,896	80,110	-0,217	-0,163
180,910	224,678	-0,226	-0,256
181,925	275,323	-0,143	-0,177
182,940	90,295	-0,309	-0,241
183,954	72,374	-0,280	-0,203
184,969	24,903	-0,165	-0,095
185,983	91,820	-0,164	-0,129
186,998	136,864	-0,235	-0,213
188,013	432,027	-0,174	-0,264
189,027	53,204	-0,224	-0,149
190,042	800,000	-0,120	-0,276
191,056	-42,617	-0,147	-0,052
192,071	72,578	-0,242	-0,176
193,086	467,302	-0,103	-0,161
194,100	201,644	-0,142	-0,152
195,115	45,537	-0,199	-0,128
196,129	-200,000	-0,041	-0,172
197,144	-169,898	-0,161	0,004
198,159	-63,619	-0,204	-0,058
199,173	189,708	-0,258	-0,269
200,188	0,311	-0,226	-0,112
201,202	179,654	-0,163	-0,167
202,217	26,680	-0,196	-0,114
203,232	-200,000	0,015	-0,077
204,246	479,690	-0,152	-0,240
205,261	146,645	-0,246	-0,230
206,275	571,947	-0,136	-0,230
207,290	210,543	-0,083	-0,091
208,304	548,473	-0,087	-0,146
209,319	98,328	-0,218	-0,175
210,334	-9,207	-0,238	-0,110
211,348	-149,184	-0,208	-0,011
212,363	-33,845	-0,172	-0,065
213,377	-18,565	-0,232	-0,100
214,392	235,561	-0,067	-0,077
215,407	6,290	-0,208	-0,107
216,421	-3,666	-0,234	-0,112
217,436	127,604	-0,252	-0,222
218,450	49,363	-0,306	-0,200
219,465	363,588	-0,148	-0,207
220,480	-128,635	-0,336	-0,033
221,494	434,532	-0,129	-0,195
222,509	355,605	-0,075	-0,105
223,523	619,215	-0,041	-0,071
224,538	62,256	-0,225	-0,155
225,553	93,603	-0,275	-0,216
226,567	90,426	-0,181	-0,140
227,582	372,892	-0,182	-0,257
228,596	144,773	-0,084	-0,078
229,611	8,922	-0,219	-0,115
230,626	-65,590	-0,183	-0,051
231,640	211,491	-0,181	-0,198
232,655	9,556	-0,172	-0,090
233,669	655,356	-0,167	-0,298
234,684	50,882	-0,137	-0,090
235,699	-62,222	-0,277	-0,079
236,713	168,598	-0,129	-0,128
237,728	112,610	-0,022	-0,019
238,742	741,662	-0,175	-0,328
239,757	-95,744	-0,147	0,027
240,772	264,697	-0,216	-0,261
241,786	668,722	-0,214	-0,385
242,801	163,293	-0,173	-0,169
243,815	-200,000	0,026	-0,092
244,830	44,989	0,012	0,008
245,844	-85,216	-0,264	-0,057
246,859	103,043	-0,202	-0,164
247,874	-66,469	-0,235	-0,064
248,888	65,136	-0,127	-0,089
249,903	180,773	-0,155	-0,157
250,917	323,805	-0,098	-0,129
251,932	203,119	-0,203	-0,218
252,947	80,458	-0,211	-0,157
253,961	-200,000	-0,043	-0,136
254,976	-106,624	-0,059	-0,009
255,990	66,411	-0,182	-0,128
257,005	360,407	-0,050	-0,069
258,020	194,648	-0,051	-0,054
259,034	108,243	-0,153	-0,126
260,049	208,510	-0,138	-0,150
261,063	230,973	-0,063	-0,072
262,078	-122,742	-0,172	-0,019
263,093	-200,000	-0,070	-0,225
264,107	202,312	-0,221	-0,236
265,122	165,900	-0,111	-0,109
266,136	143,111	-0,052	-0,048
267,151	251,931	-0,082	-0,096
268,166	-31,781	-0,203	-0,078
269,180	-35,288	-0,217	-0,081
270,195	800,000	-0,087	-0,182
271,209	334,629	-0,192	-0,258
272,224	95,214	-0,122	-0,096
273,239	800,000	-0,051	-0,121
274,253	800,000	-0,052	-0,114
275,268	47,998	-0,198	-0,128
276,282	-200,000	-0,087	-0,280
277,297	369,606	-0,198	-0,278
278,312	800,000	-0,084	-0,194
279,326	-74,301	-0,225	0,056
280,341	163,832	-0,054	-0,052
281,355	474,019	-0,089	-0,140
282,370	183,967	-0,145	-0,148
283,384	784,447	-0,063	-0,120
284,399	568,957	-0,171	-0,288
285,414	151,006	-0,276	-0,259
286,428	-64,603	-0,098	-0,027
287,443	-129,817	-0,201	0,019
288,457	22,325	-0,197	-0,111
289,472	-45,332	-0,129	-0,044
290,487	-155,598	-0,190	-0,008
291,501	142,989	-0,237	-0,218
292,516	426,979	-0,117	-0,174
293,530	-36,189	-0,112	-0,042
294,545	800,000	-0,055	-0,122
295,560	284,126	-0,164	-0,203
296,574	187,385	-0,099	-0,102
297,589	10,247	-0,209	-0,109
298,603	81,353	-0,148	-0,111
299,618	-156,568	-0,252	-0,011
300,633	152,902	-0,079	-0,074
301,647	185,813	-0,086	-0,088
302,662	491,815	-0,117	-0,186
303,676	-44,323	-0,209	-0,072
304,691	800,000	-0,065	-0,170
305,706	-116,970	-0,205	-0,026
306,720	-94,825	-0,123	-0,023
307,735	800,000	-0,044	-0,108
308,749	-101,198	-0,187	-0,031
309,764	800,000	-0,054	-0,108
310,779	5,125	-0,096	-0,048
311,793	-136,655	-0,102	-0,008
312,808	0,364	-0,220	-0,108
313,822	800,000	-0,143	-0,283
314,837	14,841	-0,097	-0,052
315,852	99,936	-0,116	-0,093
316,866	-138,799	-0,090	-0,007
317,881	123,388	-0,139	-0,120
318,895	142,243	-0,168	-0,154
319,910	191,259	-0,126	-0,130
320,925	59,777	-0,175	-0,119
321,939	-200,000	0,017	-0,202
322,954	-200,000	-0,061	-0,234
323,968	119,711	-0,160	-0,137
324,983	800,000	-0,072	-0,181
325,997	-119,178	-0,178	0,021
327,012	49,891	-0,182	-0,118
328,027	-85,998	-0,268	-0,057
329,041	-55,419	-0,229	-0,070
330,056	-85,949	-0,142	0,030
331,070	-69,560	-0,101	-0,026
332,085	-200,000	-0,021	-0,098
333,100	49,945	-0,100	-0,065
334,114	-45,119	-0,075	0,025
335,129	396,625	-0,129	-0,186
336,143	194,579	-0,033	-0,034
337,158	-200,000	-0,042	-0,133
338,173	-122,212	-0,136	-0,015
339,187	44,782	-0,219	0,138
340,202	-127,630	-0,215	-0,021
341,216	-39,671	-0,144	-0,051
342,231	-88,513	-0,114	-0,023
343,246	-200,000	-0,040	-0,168
344,260	800,000	-0,086	-0,177
345,275	-43,968	-0,071	-0,024
346,289	800,000	-0,031	-0,063
347,304	72,582	-0,054	-0,038
348,319	-95,883	-0,159	0,029
349,333	-74,263	-0,143	-0,035
350,348	14,494	-0,234	-0,125
351,362	-60,418	-0,198	-0,058
352,377	800,000	-0,054	-0,105
353,392	-89,518	-0,148	0,030
354,406	23,220	-0,195	-0,110
355,421	208,585	1317,129	1415,535
356,435	160,499	1478,171	1416,041
