DTS Sentinel unit serial number:	SN410029Multiplexer serial number:	ORYXHardware model number:	OX2-SRSoftware version number:	ORYX F/W v4,00 Oryx Data Collector v3.7.2.0data status	okinstallation	B3 Nyhavnadifferential loss correction	single-endedforward channel	channel 1reverse channel	N/Adate	2023/12/03time	13:47:30forward acquisition time	300,00reverse acquisition time	0,00gamma	499,1914k internal	0,3199k external	0,3199temperature offset calibration	1,0000default loss term (dB/km)	0,3820temperature slope calibration	1,0000multiplexer offset coefficient	1,0000multiplexer slope coefficient	1,0000fibre end	0,00T internal ref (°C)	15,33T ext. ref 1 (°C)	1,46T ext. ref 2 (°C)	1,44length (m)	temperature (°C)	Stokes	anti-Stokes-744,400	-43,611	-0,292	-0,107
-743,385	-200,000	0,009	0,329
-742,371	252,804	-0,186	-0,231
-741,356	-200,000	0,051	0,481
-740,342	113,234	-0,251	-0,222
-739,327	-200,000	0,018	0,434
-738,312	800,000	-0,134	-0,294
-737,298	-200,000	-0,055	0,298
-736,283	126,444	-0,188	-0,173
-735,269	-200,000	-0,027	0,401
-734,254	42,733	-0,217	-0,144
-733,239	-138,169	-0,167	0,013
-732,225	-200,000	0,005	-0,103
-731,210	-12,856	0,158	0,074
-730,196	-7,169	0,060	-0,030
-729,181	229,596	-0,124	-0,147
-728,167	800,000	-0,007	0,018
-727,152	800,000	-0,028	-0,084
-726,137	623,265	-0,090	-0,165
-725,123	125,467	0,051	0,046
-724,108	6,074	-0,215	-0,115
-723,094	284,549	-0,088	-0,115
-722,079	-29,835	-0,129	0,053
-721,064	-10,020	0,110	-0,053
-720,050	360,584	0,045	-0,065
-719,035	-200,000	0,054	0,000
-718,021	-101,241	-0,037	-0,007
-717,006	34,345	-0,089	-0,057
-715,991	636,169	-0,136	-0,253
-714,977	-132,519	-0,139	-0,013
-713,962	-160,090	-0,038	0,001
-712,948	-200,000	-0,004	0,074
-711,933	117,548	0,058	0,052
-710,918	55,642	-0,089	-0,062
-709,904	-59,708	-0,132	-0,041
-708,889	-200,000	0,012	-0,058
-707,875	-200,000	0,017	-0,122
-706,860	-125,632	0,038	-0,004
-705,845	153,004	-0,023	-0,023
-704,831	579,285	0,045	0,081
-703,816	-82,828	-0,118	-0,027
-702,802	-200,000	-0,023	-0,103
-701,787	168,175	-0,064	-0,066
-700,772	-48,698	-0,089	-0,031
-699,758	800,000	-0,046	0,112
-698,743	325,438	-0,038	0,053
-697,729	11,431	-0,015	0,008
-696,714	-139,086	0,128	-0,010
-695,699	-200,000	-0,018	-0,102
-694,685	80,895	-0,172	-0,135
-693,670	800,000	-0,010	-0,033
-692,656	-99,095	-0,095	-0,017
-691,641	-168,736	0,219	0,006
-690,627	-111,495	-0,135	-0,020
-689,612	311,572	-0,035	-0,047
-688,597	-200,000	-0,038	-0,143
-687,583	-200,000	0,008	0,062
-686,568	191,004	0,018	0,020
-685,554	-200,000	-0,001	-0,033
-684,539	168,154	0,090	-0,094
-683,524	-200,000	-0,009	0,038
-682,510	-200,000	0,027	-0,164
-681,495	181,878	-0,108	-0,115
-680,481	-98,166	-0,056	-0,010
-679,466	47,715	-0,071	-0,048
-678,451	-15,225	-0,045	-0,021
-677,437	-200,000	-0,021	0,123
-676,422	-120,955	0,067	0,008
-675,408	175,301	-0,102	-0,107
-674,393	-20,502	-0,074	-0,033
-673,378	141,577	-0,124	-0,119
-672,364	168,782	0,133	-0,138
-671,349	281,330	0,083	-0,108
-670,335	78,978	0,177	-0,137
-669,320	652,191	-0,016	-0,030
-668,305	-81,094	-0,054	0,013
-667,291	91,115	0,092	0,075
-666,276	21,529	-0,093	-0,054
-665,262	-42,787	-0,089	0,033
-664,247	-200,000	-0,014	-0,052
-663,232	274,925	0,027	-0,035
-662,218	-36,030	0,089	-0,035
-661,203	-200,000	-0,014	-0,086
-660,189	-200,000	0,003	-0,054
-659,174	83,968	-0,072	-0,057
-658,159	-200,000	-0,035	-0,139
-657,145	-118,380	0,161	0,020
-656,130	800,000	-0,070	0,142
-655,116	640,572	0,049	0,091
-654,101	113,614	0,070	-0,062
-653,086	-200,000	0,016	0,053
-652,072	223,441	-0,081	0,095
-651,057	800,000	-0,003	-0,007
-650,043	289,619	-0,018	0,024
-649,028	726,801	-0,095	-0,184
-648,014	-144,095	0,185	0,012
-646,999	248,504	-0,088	-0,109
-645,984	-200,000	-0,006	0,092
-644,970	-200,000	-0,002	-0,024
-643,955	524,215	0,068	-0,117
-642,941	-200,000	0,001	-0,089
-641,926	800,000	0,049	-0,105
-640,911	49,844	-0,067	0,046
-639,897	288,433	0,072	-0,095
-638,882	800,000	0,051	0,130
-637,868	-85,341	-0,159	0,036
-636,853	800,000	0,071	-0,148
-635,838	568,579	0,014	-0,025
-634,824	77,781	-0,020	-0,015
-633,809	-200,000	0,001	0,067
-632,795	-82,970	0,229	0,053
-631,780	-149,592	0,059	-0,003
-630,765	-200,000	0,033	-0,120
-629,751	-200,000	-0,031	-0,181
-628,736	-102,752	-0,120	-0,021
-627,722	139,749	-0,035	0,034
-626,707	-68,714	-0,014	0,004
-625,692	271,973	0,065	0,083
-624,678	-200,000	-0,036	0,153
-623,663	216,823	0,049	0,056
-622,649	800,000	-0,040	-0,096
-621,634	-200,000	-0,020	-0,066
-620,619	-26,127	-0,152	-0,065
-619,605	3,333	0,027	0,014
-618,590	319,524	0,090	0,123
-617,576	208,515	-0,074	-0,084
-616,561	106,615	-0,104	-0,089
-615,546	-118,157	-0,092	0,012
-614,532	-200,000	0,002	-0,038
-613,517	30,771	0,055	-0,034
-612,503	126,554	0,088	0,081
-611,488	278,003	-0,071	-0,092
-610,474	731,079	0,039	0,076
-609,459	-124,522	-0,070	0,008
-608,444	319,916	-0,059	0,082
-607,430	-200,000	-0,003	0,122
-606,415	188,872	-0,156	-0,170
-605,401	-21,886	0,175	0,077
-604,386	1,300	0,043	-0,022
-603,371	-200,000	-0,004	-0,108
-602,357	376,269	-0,102	-0,151
-601,342	164,246	-0,071	-0,072
-600,328	421,171	-0,053	-0,083
-599,313	709,470	-0,066	-0,127
-598,298	239,932	0,035	-0,043
-597,284	-200,000	-0,008	0,117
-596,269	-200,000	0,002	0,041
-595,255	-161,853	-0,077	-0,003
-594,240	-19,083	-0,095	-0,042
-593,225	-200,000	0,010	-0,066
-592,211	-200,000	-0,022	-0,078
-591,196	800,000	0,027	0,060
-590,182	46,303	0,026	0,017
-589,167	88,439	0,054	-0,044
-588,152	-48,499	-0,064	0,022
-587,138	-165,814	-0,158	-0,005
-586,123	-200,000	-0,005	-0,074
-585,109	78,285	-0,068	0,052
-584,094	149,461	0,118	0,115
-583,079	-200,000	-0,004	0,024
-582,065	608,055	-0,029	-0,053
-581,050	-95,330	0,181	0,035
-580,036	-71,033	-0,123	-0,033
-579,021	800,000	-0,021	-0,066
-578,006	-200,000	0,001	0,022
-576,992	-15,197	0,098	0,045
-575,977	-174,340	-0,077	-0,002
-574,963	-135,202	-0,077	0,007
-573,948	11,550	0,168	0,093
-572,934	-56,040	-0,140	0,045
-571,919	-200,000	-0,017	-0,058
-570,904	600,963	0,018	-0,032
-569,890	-200,000	-0,009	-0,080
-568,875	-200,000	0,019	0,100
-567,861	688,798	-0,034	0,065
-566,846	-200,000	-0,016	-0,062
-565,831	54,646	-0,042	-0,029
-564,817	-32,371	0,200	0,080
-563,802	144,271	0,033	-0,032
-562,788	273,066	-0,062	-0,079
-561,773	70,758	-0,106	0,079
-560,758	-197,734	0,061	0,000
-559,744	1,081	0,144	-0,075
-558,729	31,781	-0,033	-0,021
-557,715	128,518	0,073	-0,067
-556,700	467,422	-0,073	-0,119
-555,685	-19,839	-0,096	-0,043
-554,671	5,839	0,139	-0,074
-553,656	168,574	0,047	0,049
-552,642	-200,000	-0,009	0,057
-551,627	-200,000	0,006	0,109
-550,612	800,000	-0,039	-0,116
-549,598	547,760	-0,084	-0,146
-548,583	-200,000	0,018	-0,104
-547,569	-19,325	-0,043	0,019
-546,554	-200,000	0,027	-0,087
-545,539	800,000	-0,059	0,151
-544,525	-200,000	0,016	0,066
-543,510	139,302	0,008	0,008
-542,496	800,000	0,018	-0,040
-541,481	800,000	0,006	-0,017
-540,466	177,418	0,017	0,018
-539,452	118,381	0,018	-0,016
-538,437	-176,843	0,124	-0,002
-537,423	84,704	-0,070	-0,055
-536,408	-153,867	-0,074	0,004
-535,393	124,348	0,053	-0,048
-534,379	-110,150	0,005	0,001
-533,364	-122,416	-0,049	-0,006
-532,350	-100,367	-0,090	0,016
-531,335	726,435	0,038	-0,073
-530,321	-200,000	0,014	0,086
-529,306	-200,000	0,004	0,119
-528,291	-142,236	-0,083	0,006
-527,277	70,615	-0,039	-0,029
-526,262	789,661	0,057	0,113
-525,248	-18,362	0,067	-0,030
-524,233	-200,000	0,062	-0,199
-523,218	-20,147	0,103	0,046
-522,204	-200,000	0,027	0,136
-521,189	-24,612	-0,064	-0,027
-520,175	-41,075	0,085	0,032
-519,160	-117,003	-0,063	0,008
-518,145	-112,126	0,113	-0,016
-517,131	-7,940	-0,113	0,055
-516,116	131,562	-0,044	0,041
-515,102	80,242	0,005	-0,004
-514,087	-200,000	0,014	0,086
-513,072	238,026	-0,074	-0,088
-512,058	800,000	-0,038	0,082
-511,043	284,973	-0,046	0,060
-510,029	44,549	-0,078	0,052
-509,014	330,154	-0,111	0,155
-507,999	-85,407	0,081	0,018
-506,985	-54,943	-0,120	0,039
-505,970	280,332	-0,077	0,100
-504,956	-200,000	0,003	0,066
-503,941	46,135	-0,043	0,029
-502,926	800,000	0,042	0,090
-501,912	122,307	-0,112	0,101
-500,897	107,180	-0,039	0,033
-499,883	182,136	0,053	-0,056
-498,868	96,878	-0,170	0,140
-497,853	68,153	-0,067	0,049
-496,839	177,314	0,101	0,106
-495,824	-200,000	0,012	0,115
-494,810	-53,060	-0,082	0,027
-493,795	-121,864	0,185	-0,022
-492,781	-200,000	0,031	0,000
-491,766	-84,940	-0,025	0,006
-490,751	346,799	-0,092	-0,130
-489,737	-155,329	-0,107	0,005
-488,722	731,961	-0,012	0,022
-487,708	800,000	0,080	0,162
-486,693	25,778	-0,026	0,015
-485,678	-53,992	-0,045	0,015
-484,664	169,720	-0,063	0,065
-483,649	800,000	0,026	0,080
-482,635	-143,432	-0,047	-0,003
-481,620	264,500	0,017	-0,021
-480,605	-73,807	0,075	0,020
-479,591	21,724	-0,117	0,068
-478,576	-25,979	0,147	-0,062
-477,562	800,000	-0,041	-0,126
-476,547	-166,447	0,104	-0,003
-475,532	-119,770	0,040	0,005
-474,518	-73,653	0,051	-0,013
-473,503	-200,000	0,032	0,109
-472,489	-4,180	-0,048	-0,024
-471,474	800,000	-0,057	0,126
-470,459	-200,000	0,019	0,093
-469,445	2,998	-0,202	-0,105
-468,430	-200,000	0,047	-0,174
-467,416	-11,240	-0,180	0,085
-466,401	800,000	0,055	0,112
-465,386	-200,000	0,002	-0,033
-464,372	-200,000	0,002	0,215
-463,357	-1,752	0,164	-0,083
-462,343	232,462	-0,028	-0,033
-461,328	-154,421	0,029	-0,001
-460,313	-107,236	0,031	0,005
-459,299	-136,283	0,061	-0,005
-458,284	-200,000	0,011	-0,051
-457,270	-65,459	0,061	0,018
-456,255	233,289	0,038	-0,046
-455,241	341,864	-0,008	-0,011
-454,226	-15,153	0,106	-0,048
-453,211	-120,796	-0,100	-0,012
-452,197	22,605	0,125	-0,073
-451,182	423,678	-0,110	0,170
-450,168	-48,505	0,044	0,015
-449,153	800,000	0,018	0,054
-448,138	-111,240	-0,023	0,003
-447,124	109,762	0,113	0,098
-446,109	-200,000	0,034	-0,115
-445,095	-98,834	0,126	-0,023
-444,080	-200,000	0,013	0,107
-443,065	159,180	0,071	0,071
-442,051	202,604	0,048	0,054
-441,036	-67,200	-0,076	-0,021
-440,022	-103,289	0,032	-0,005
-439,007	43,948	0,040	-0,026
-437,992	239,869	0,045	0,055
-436,978	233,043	0,044	-0,052
-435,963	-200,000	-0,005	0,062
-434,949	-171,662	0,146	0,003
-433,934	293,304	-0,097	-0,127
-432,919	800,000	0,044	-0,116
-431,905	61,188	0,094	0,067
-430,890	-169,452	-0,040	-0,001
-429,876	151,941	0,055	0,054
-428,861	-200,000	0,040	0,140
-427,846	-87,712	-0,058	0,012
-426,832	572,747	0,032	0,056
-425,817	-200,000	0,016	-0,053
-424,803	175,851	0,017	-0,017
-423,788	60,372	0,146	-0,103
-422,773	-200,000	0,012	0,112
-421,759	-144,885	-0,138	-0,009
-420,744	118,433	-0,109	-0,097
-419,730	-200,000	-0,005	-0,053
-418,715	-56,446	-0,132	-0,042
-417,701	-67,573	-0,163	0,046
-416,686	-70,581	0,126	-0,034
-415,671	271,424	0,080	0,102
-414,657	-63,280	-0,055	0,016
-413,642	-200,000	-0,006	-0,032
-412,628	-46,126	0,078	0,028
-411,613	45,831	-0,061	-0,041
-410,598	-116,114	-0,086	0,011
-409,584	80,948	0,132	0,102
-408,569	-114,475	0,059	-0,008
-407,555	182,938	-0,037	0,039
-406,540	618,908	0,071	-0,128
-405,525	-61,965	0,033	-0,010
-404,511	-200,000	0,041	0,179
-403,496	108,313	0,053	-0,045
-402,482	-143,318	0,084	-0,006
-401,467	-200,000	0,009	-0,051
-400,452	-200,000	0,016	0,091
-399,438	800,000	-0,030	0,060
-398,423	800,000	-0,027	-0,075
-397,409	-200,000	-0,048	-0,164
-396,394	-85,685	-0,029	0,007
-395,379	76,722	-0,101	0,077
-394,365	797,160	0,028	-0,056
-393,350	194,318	0,024	-0,027
-392,336	41,763	-0,065	0,042
-391,321	-72,030	-0,089	-0,024
-390,306	-70,494	-0,184	-0,050
-389,292	94,574	-0,090	-0,073
-388,277	-123,227	0,141	-0,016
-387,263	56,105	-0,139	0,097
-386,248	333,481	0,015	0,021
-385,233	335,473	0,029	0,041
-384,219	-22,866	-0,128	0,055
-383,204	136,763	-0,038	0,036
-382,190	800,000	-0,067	-0,153
-381,175	-200,000	-0,046	-0,162
-380,160	800,000	-0,027	0,056
-379,146	800,000	-0,010	0,028
-378,131	167,656	0,009	-0,009
-377,117	303,847	0,077	-0,103
-376,102	366,021	-0,048	0,069
-375,088	234,122	-0,041	-0,049
-374,073	-28,331	-0,083	0,034
-373,058	10,726	-0,098	-0,054
-372,044	-165,110	-0,030	-0,001
-371,029	-82,723	0,089	0,020
-370,015	800,000	0,051	0,112
-369,000	-98,251	0,072	0,013
-367,985	83,878	-0,140	-0,110
-366,971	-200,000	0,016	-0,092
-365,956	-9,488	0,095	0,045
-364,942	-9,349	-0,037	-0,018
-363,927	-71,967	0,167	-0,044
-362,912	-200,000	-0,020	-0,066
-361,898	214,737	-0,104	-0,118
-360,883	175,245	-0,048	-0,050
-359,869	-69,212	-0,056	0,015
-358,854	-139,114	0,052	0,004
-357,839	30,361	0,034	-0,021
-356,825	63,747	0,037	-0,027
-355,810	64,624	0,063	-0,045
-354,796	-69,530	-0,151	0,041
-353,781	-200,000	-0,010	-0,113
-352,766	-88,249	-0,066	-0,014
-351,752	10,862	-0,088	-0,048
-350,737	-84,121	-0,023	0,005
-349,723	570,195	-0,025	-0,044
-348,708	83,553	-0,021	0,017
-347,693	344,612	0,081	-0,115
-346,679	-200,000	0,025	0,100
-345,664	-4,099	-0,096	0,048
-344,650	-200,000	0,012	-0,084
-343,635	-200,000	0,021	0,072
-342,620	396,949	-0,065	0,098
-341,606	125,291	-0,047	0,042
-340,591	62,226	-0,028	0,020
-339,577	-200,000	0,005	0,175
-338,562	-79,369	-0,108	-0,026
-337,548	782,943	0,027	-0,053
-336,533	42,298	0,015	-0,010
-335,518	-163,691	0,074	-0,002
-334,504	226,873	-0,068	0,079
-333,489	-77,060	-0,140	-0,035
-332,475	68,249	0,081	-0,059
-331,460	800,000	-0,067	-0,139
-330,445	800,000	0,023	0,066
-329,431	-200,000	0,044	0,146
-328,416	106,515	-0,029	0,024
-327,402	-200,000	0,005	-0,018
-326,387	-65,584	0,120	0,034
-325,372	-35,177	-0,085	-0,033
-324,358	-103,862	-0,103	-0,017
-323,343	369,164	0,040	0,058
-322,329	800,000	0,035	-0,074
-321,314	-123,726	0,145	-0,016
-320,299	69,063	-0,030	0,022
-319,285	13,087	0,100	-0,055
-318,270	-43,489	0,084	0,030
-317,256	251,373	-0,038	0,046
-316,241	-12,020	-0,036	-0,017
-315,226	-200,000	0,015	0,105
-314,212	27,995	0,213	-0,128
-313,197	-150,735	0,041	0,002
-312,183	800,000	0,032	0,067
-311,168	-200,000	-0,010	0,070
-310,153	-115,565	-0,195	0,026
-309,139	-141,861	-0,014	0,001
-308,124	-200,000	-0,002	0,016
-307,110	-200,000	-0,020	0,088
-306,095	-200,000	0,017	0,078
-305,080	-200,000	-0,000	0,067
-304,066	-200,000	-0,014	0,119
-303,051	32,311	0,034	0,021
-302,037	253,757	0,077	-0,094
-301,022	172,712	0,040	0,042
-300,008	-200,000	0,011	0,176
-298,993	-128,430	0,116	-0,012
-297,978	466,386	0,093	0,150
-296,964	-18,858	-0,080	-0,035
-295,949	209,602	0,063	-0,070
-294,935	31,359	0,110	-0,068
-293,920	7,283	-0,047	-0,025
-292,905	172,386	0,123	-0,127
-291,891	-200,000	0,005	0,021
-290,876	-60,814	0,132	0,040
-289,862	56,674	0,094	0,066
-288,847	-10,258	-0,047	-0,022
-287,832	67,640	0,074	-0,054
-286,818	-94,613	-0,024	-0,005
-285,803	-200,000	0,031	0,114
-284,789	26,278	0,049	-0,029
-283,774	80,409	0,080	0,061
-282,759	-67,068	-0,080	-0,023
-281,745	800,000	0,046	-0,134
-280,730	-155,071	0,031	0,001
-279,716	-200,000	-0,026	-0,107
-278,701	-200,000	0,020	-0,179
-277,686	-81,382	0,076	-0,018
-276,672	144,299	0,067	0,064
-275,657	-200,000	-0,024	-0,114
-274,643	36,506	-0,118	-0,074
-273,628	386,047	-0,039	-0,058
-272,613	-11,457	-0,064	-0,030
-271,599	-112,163	0,064	0,009
-270,584	80,414	0,075	-0,058
-269,570	-12,031	0,138	0,064
-268,555	190,084	-0,047	0,051
-267,540	67,732	-0,060	-0,044
-266,526	208,139	0,005	-0,006
-265,511	25,624	-0,005	-0,003
-264,497	51,735	0,065	-0,044
-263,482	214,018	0,097	0,110
-262,467	12,380	-0,128	0,070
-261,453	226,736	-0,069	0,080
-260,438	128,443	-0,033	0,030
-259,424	-39,011	-0,041	-0,015
-258,409	-200,000	-0,004	0,063
-257,395	111,677	0,065	0,056
-256,380	-200,000	-0,020	-0,074
-255,365	115,651	0,027	0,024
-254,351	29,249	0,051	-0,031
-253,336	452,765	0,070	0,111
-252,322	-108,422	-0,196	-0,030
-251,307	800,000	-0,027	-0,082
-250,292	15,423	0,030	0,017
-249,278	-199,738	0,107	-0,000
-248,263	200,136	0,082	-0,090
-247,249	156,740	0,112	0,110
-246,234	-200,000	0,011	-0,052
-245,219	-86,684	-0,040	0,009
-244,205	259,331	-0,020	0,025
-243,190	-77,192	0,082	0,020
-242,176	-52,829	0,082	0,027
-241,161	-200,000	0,036	0,133
-240,146	-200,000	-0,013	0,134
-239,132	651,152	-0,067	0,123
-238,117	-102,007	-0,173	0,029
-237,103	800,000	0,056	-0,155
-236,088	117,300	0,096	-0,084
-235,073	128,359	0,072	0,065
-234,059	89,557	-0,054	0,043
-233,044	182,406	0,056	0,059
-232,030	-200,000	-0,024	-0,087
-231,015	31,112	-0,058	-0,036
-230,000	80,310	-0,021	0,016
-228,986	800,000	-0,008	-0,018
-227,971	800,000	0,045	0,112
-226,957	-43,822	0,171	-0,061
-225,942	-23,038	-0,070	-0,030
-224,927	-19,998	-0,034	-0,015
-223,913	800,000	-0,040	-0,103
-222,898	-106,157	-0,150	0,024
-221,884	290,355	0,088	-0,114
-220,869	176,491	-0,043	0,045
-219,855	-60,042	0,084	0,025
-218,840	-200,000	0,001	0,027
-217,825	800,000	-0,023	-0,061
-216,811	-200,000	0,029	-0,142
-215,796	-50,241	-0,107	-0,036
-214,782	-200,000	0,008	-0,113
-213,767	-89,419	0,158	-0,033
-212,752	-106,382	0,069	-0,011
-211,738	182,369	0,070	0,073
-210,723	800,000	-0,030	0,069
-209,709	75,120	-0,109	-0,082
-208,694	800,000	-0,041	0,091
-207,679	2,217	-0,143	0,073
-206,665	800,000	-0,012	0,029
-205,650	140,429	0,075	-0,071
-204,636	-10,704	-0,065	0,031
-203,621	-200,000	-0,008	0,036
-202,606	-131,475	-0,123	-0,011
-201,592	-41,187	-0,131	-0,048
-200,577	538,732	-0,027	-0,047
-199,563	1,743	0,097	0,049
-198,548	-200,000	0,006	0,136
-197,533	-64,717	0,089	0,025
-196,519	-25,958	0,150	0,063
-195,504	-78,861	-0,070	0,017
-194,490	-55,412	-0,188	-0,060
-193,475	-30,703	0,075	0,030
-192,460	-142,280	0,169	-0,012
-191,446	691,446	-0,018	-0,033
-190,431	-67,823	0,138	0,038
-189,417	-200,000	-0,002	-0,072
-188,402	89,648	-0,089	0,071
-187,387	-179,781	-0,053	0,001
-186,373	123,510	-0,068	-0,061
-185,358	-200,000	0,019	-0,086
-184,344	355,651	-0,044	0,062
-183,329	-0,564	-0,040	0,020
-182,315	262,861	0,039	-0,049
-181,300	-144,361	-0,057	-0,004
-180,285	140,688	-0,135	-0,127
-179,271	-139,814	-0,098	0,007
-178,256	154,872	0,066	0,065
-177,242	-200,000	0,009	0,123
-176,227	207,362	0,049	0,055
-175,212	15,421	-0,021	-0,012
-174,198	-140,221	0,190	-0,014
-173,183	105,244	-0,097	-0,081
-172,169	-200,000	-0,021	-0,142
-171,154	800,000	0,026	0,052
-170,139	-200,000	-0,023	0,116
-169,125	800,000	-0,011	-0,025
-168,110	-200,000	-0,001	0,065
-167,096	154,969	-0,024	0,024
-166,081	-200,000	0,014	-0,087
-165,066	129,468	-0,106	-0,097
-164,052	-200,000	0,022	-0,102
-163,037	85,409	0,045	-0,035
-162,023	800,000	-0,030	-0,079
-161,008	20,944	-0,025	0,014
-159,993	37,334	-0,057	-0,036
-158,979	13,264	0,139	-0,076
-157,964	-200,000	0,004	0,068
-156,950	-200,000	-0,003	0,082
-155,935	800,000	0,049	-0,121
-154,920	70,046	0,031	0,022
-153,906	-44,601	0,140	0,050
-152,891	357,180	0,008	-0,011
-151,877	24,924	0,067	0,039
-150,862	557,511	0,042	-0,072
-149,847	348,838	-0,056	0,078
-148,833	136,124	-0,078	0,072
-147,818	800,000	-0,032	0,077
-146,804	25,129	-0,084	0,049
-145,789	169,412	0,042	0,043
-144,775	147,848	-0,057	-0,054
-143,760	800,000	0,036	-0,080
-142,745	53,759	-0,038	0,026
-141,731	669,978	0,015	0,028
-140,716	246,088	0,018	-0,021
-139,702	-200,000	-0,003	0,164
-138,687	773,902	0,027	-0,053
-137,672	367,120	-0,024	0,034
-136,658	32,786	-0,061	-0,037
-135,643	-35,369	0,074	-0,028
-134,629	800,000	0,004	0,011
-133,614	-157,803	0,035	-0,001
-132,599	39,919	0,014	-0,009
-131,585	800,000	-0,012	-0,026
-130,570	511,591	0,038	-0,062
-129,556	800,000	-0,052	-0,114
-128,541	-200,000	-0,019	-0,082
-127,526	-200,000	-0,015	-0,092
-126,512	318,757	0,050	-0,067
-125,497	-153,271	0,154	0,008
-124,483	-131,190	0,150	0,014
-123,468	800,000	-0,030	0,060
-122,453	-200,000	0,048	-0,151
-121,439	-200,000	0,006	0,026
-120,424	-200,000	-0,006	-0,038
-119,410	-200,000	0,018	-0,082
-118,395	800,000	0,031	0,069
-117,380	-152,026	-0,031	0,002
-116,366	-29,262	0,138	-0,056
-115,351	17,386	-0,116	0,065
-114,337	-161,884	0,075	0,003
-113,322	-200,000	0,003	0,046
-112,307	-70,369	-0,130	0,035
-111,293	68,013	-0,045	0,033
-110,278	439,774	0,086	0,133
-109,264	117,427	0,053	-0,047
-108,249	-138,090	-0,075	0,006
-107,234	-191,555	0,149	0,001
-106,220	800,000	0,013	-0,035
-105,205	-16,024	-0,009	0,004
-104,191	-200,000	-0,002	0,072
-103,176	800,000	0,025	0,068
-102,162	-200,000	0,005	-0,187
-101,147	143,498	-0,062	0,058
-100,132	-109,222	0,068	-0,010
-99,118	51,480	-0,100	-0,067
-98,103	339,996	0,021	-0,030
-97,089	50,233	-0,015	-0,010
-96,074	-94,732	0,045	0,009
-95,059	800,000	-0,012	0,031
-94,045	-23,794	-0,040	-0,017
-93,030	412,549	0,018	0,027
-92,016	-95,398	-0,222	-0,042
-91,001	-41,646	0,010	-0,004
-89,986	53,793	0,125	0,085
-88,972	525,588	-0,056	0,094
-87,957	51,366	0,062	-0,042
-86,943	9,273	-0,101	-0,054
-85,928	121,883	-0,030	-0,026
-84,913	32,958	-0,013	0,008
-83,899	-200,000	-0,011	-0,079
-82,884	-35,147	-0,061	0,023
-81,870	800,000	0,032	0,067
-80,855	-200,000	0,015	0,099
-79,840	341,847	-0,047	0,065
-78,826	670,305	-0,024	-0,043
-77,811	-61,707	0,075	-0,022
-76,797	1,130	0,020	-0,010
-75,782	-200,000	0,039	-0,164
-74,767	-200,000	-0,006	0,100
-73,753	117,345	-0,060	0,053
-72,738	23,768	-0,074	-0,043
-71,724	125,373	-0,054	-0,048
-70,709	267,810	0,105	0,131
-69,694	-63,148	0,097	0,028
-68,680	220,276	0,042	0,048
-67,665	800,000	-0,019	0,051
-66,651	-60,090	0,131	0,039
-65,636	158,440	0,043	-0,042
-64,622	-200,000	0,015	-0,059
-63,607	-200,000	-0,041	-0,150
-62,592	-41,511	0,076	-0,028
-61,578	-19,390	-0,092	0,040
-60,563	-200,000	0,011	0,058
-59,549	29,775	-0,037	0,023
-58,534	-56,630	-1,316	-0,411
-57,519	325,548	-1,531	-2,081
-56,505	-200,000	-0,530	-4,356
-55,490	201,288	0,972	1,062
-54,476	800,000	4,656	11,022
-53,461	-200,000	17,726	285,090
-52,446	800,000	724,486	2226,707
-51,432	559,034	1639,395	2813,997
-50,417	79,976	1661,980	1264,239
-49,403	23,222	1535,895	891,214
-48,388	17,210	1459,330	817,731
-47,373	17,952	1449,061	815,510
-46,359	17,453	1439,563	807,750
-45,344	15,457	1434,878	795,583
-44,330	15,399	1432,943	794,202
-43,315	15,339	1431,452	793,061
-42,300	15,416	1429,618	792,376
-41,286	15,418	1428,657	791,820
-40,271	15,455	1427,259	791,191
-39,257	15,366	1426,221	790,161
-38,242	15,451	1424,830	789,765
-37,227	15,477	1423,351	789,036
-36,213	15,456	1422,176	788,252
-35,198	15,453	1421,094	787,610
-34,184	15,496	1420,148	787,256
-33,169	15,408	1418,790	786,055
-32,154	15,441	1418,008	785,746
-31,140	15,436	1416,635	784,932
-30,125	15,520	1415,052	784,419
-29,111	15,467	1414,236	783,685
-28,096	15,449	1413,115	782,948
-27,082	15,368	1412,111	781,984
-26,067	15,377	1410,937	781,344
-25,052	15,399	1409,839	780,805
-24,038	15,382	1408,846	780,144
-23,023	15,325	1407,815	779,277
-22,009	15,363	1406,869	778,903
-20,994	15,248	1406,276	778,003
-19,979	15,284	1405,151	777,522
-18,965	15,287	1404,063	776,900
-17,950	15,291	1403,164	776,390
-16,936	15,273	1402,190	775,738
-15,921	15,227	1400,972	774,817
-14,906	15,214	1400,285	774,350
-13,892	15,264	1399,162	773,930
-12,877	15,263	1398,342	773,437
-11,863	15,235	1397,535	772,832
-10,848	15,269	1396,278	772,264
-9,833	15,241	1395,584	771,720
-8,819	15,187	1394,672	770,934
-7,804	15,175	1393,724	770,325
-6,790	15,164	1392,753	769,707
-5,775	15,149	1391,638	768,991
-4,760	15,165	1390,814	768,581
-3,746	15,138	1390,101	768,030
-2,731	15,165	1389,259	767,659
-1,717	15,179	1388,152	767,081
-0,702	15,184	1386,303	766,051
0,313	19,111	1306,655	740,149
1,327	35,644	707,208	438,918
2,342	54,905	124,992	85,291
3,356	4,561	16,645	8,619
4,371	9,148	3,137	1,672
5,386	-17,605	0,413	0,183
6,400	104,402	-0,120	0,100
7,415	-15,094	-0,240	-0,108
8,429	102,868	-0,281	-0,233
9,444	15,810	-0,336	-0,186
10,459	231,330	-0,211	-0,244
11,473	28,337	-0,270	-0,161
12,488	-86,930	-0,165	-0,035
13,502	55,842	-0,289	-0,198
14,517	102,030	-0,267	-0,220
15,531	104,754	-0,318	-0,265
16,546	-16,442	-0,396	-0,177
17,561	250,497	-0,310	-0,372
18,575	114,472	-0,188	-0,162
19,590	533,332	-0,212	-0,356
20,604	-67,145	-0,157	0,043
21,619	94,964	-0,506	-0,407
22,634	201,220	-0,385	-0,419
23,648	223,064	-0,397	-0,453
24,663	103,810	-0,382	-0,317
25,677	251,136	-0,233	-0,280
26,692	-76,112	-0,453	-0,112
27,707	-4,437	-0,371	-0,181
28,721	-4,335	-0,402	-0,196
29,736	268,859	-0,304	-0,377
30,750	-91,024	-0,488	-0,098
31,765	67,573	-0,385	-0,277
32,780	147,305	-0,305	-0,290
33,794	291,067	-0,236	-0,304
34,809	20,823	-0,410	-0,234
35,823	71,465	-0,420	-0,308
36,838	-29,681	-0,403	-0,161
37,853	159,278	-0,326	-0,320
38,867	64,930	-0,354	-0,252
39,882	83,269	-0,341	-0,262
40,896	47,550	-0,287	-0,189
41,911	31,494	-0,307	-0,185
42,926	42,302	-0,253	-0,162
43,940	62,481	-0,417	-0,293
44,955	157,207	-0,302	-0,294
45,969	187,657	-0,347	-0,365
46,984	-61,262	-0,392	-0,116
47,999	72,308	-0,334	-0,245
49,013	130,777	-0,282	-0,255
50,028	67,822	-0,277	-0,200
51,042	59,260	-0,364	-0,253
52,057	50,789	-0,427	-0,285
53,071	209,043	-0,368	-0,406
54,086	50,332	-0,342	-0,227
55,101	25,232	-0,326	-0,190
56,115	134,809	-0,269	-0,246
57,130	47,924	-0,410	-0,270
58,144	196,639	-0,285	-0,306
59,159	226,542	-0,323	-0,370
60,174	98,517	-0,317	-0,257
61,188	101,407	-0,330	-0,271
62,203	14,811	-0,308	-0,169
63,217	60,849	-0,274	-0,191
64,232	105,021	-0,292	-0,242
65,247	-16,395	-0,393	-0,175
66,261	-12,892	-0,247	-0,113
67,276	800,000	-0,204	-0,415
68,290	283,513	-0,333	-0,422
69,305	308,682	-0,238	-0,313
70,320	-27,470	-0,384	-0,156
71,334	26,357	-0,328	-0,192
72,349	28,926	-0,316	-0,188
73,363	2,726	-0,356	-0,181
74,378	12,791	-0,365	-0,198
75,393	63,968	-0,375	-0,265
76,407	-8,799	-0,308	-0,145
77,422	-38,542	-0,269	-0,100
78,436	-7,968	-0,414	-0,196
79,451	-45,185	-0,308	-0,107
80,466	262,379	-0,278	-0,340
81,480	265,606	-0,371	-0,455
82,495	13,819	-0,454	-0,247
83,509	103,834	-0,257	-0,212
84,524	84,336	-0,206	-0,158
85,539	-32,710	-0,350	-0,136
86,553	74,202	-0,279	-0,206
87,568	42,539	-0,327	-0,208
88,582	107,979	-0,305	-0,255
89,597	240,118	-0,224	-0,262
90,611	428,808	-0,151	-0,229
91,626	57,760	-0,242	-0,166
92,641	800,000	-0,104	-0,234
93,655	-24,715	-0,273	-0,114
94,670	8,967	-0,294	-0,156
95,684	-13,383	-0,286	-0,130
96,699	116,133	-0,337	-0,290
97,714	113,407	-0,194	-0,165
98,728	60,267	-0,324	-0,224
99,743	132,040	-0,202	-0,183
100,757	68,005	-0,342	-0,245
101,772	86,693	-0,283	-0,219
102,787	-53,305	-0,421	-0,135
103,801	33,460	-0,319	-0,194
104,816	179,369	-0,187	-0,192
105,830	22,422	-0,328	-0,188
106,845	130,028	-0,250	-0,224
107,860	404,699	-0,211	-0,312
108,874	25,673	-0,357	-0,208
109,889	26,378	-0,354	-0,207
110,903	146,673	-0,313	-0,295
111,918	22,429	-0,385	-0,220
112,933	278,613	-0,196	-0,245
113,947	-18,792	-0,230	-0,100
114,962	66,148	-0,274	-0,195
115,976	-39,298	-0,224	-0,082
116,991	-8,630	-0,278	-0,130
118,006	3,804	-0,302	-0,154
119,020	45,646	-0,306	-0,197
120,035	174,522	-0,202	-0,205
121,049	82,270	-0,114	-0,086
122,064	-57,195	-0,323	-0,099
123,079	-40,951	-0,222	-0,080
124,093	89,411	-0,323	-0,252
125,108	82,952	-0,228	-0,173
126,122	-34,146	-0,245	-0,094
127,137	-81,598	-0,260	-0,059
128,151	199,135	-0,095	-0,102
129,166	162,607	-0,207	-0,203
130,181	-10,790	-0,294	-0,135
131,195	159,173	-0,248	-0,242
132,210	5,278	-0,358	-0,184
133,224	800,000	-0,102	-0,233
134,239	-43,856	-0,316	-0,111
135,254	487,639	-0,132	-0,212
136,268	150,475	-0,229	-0,218
137,283	414,723	-0,216	-0,323
138,297	122,537	-0,279	-0,244
139,312	252,642	-0,231	-0,276
140,327	317,291	-0,164	-0,218
141,341	21,204	-0,240	-0,136
142,356	-21,563	-0,315	-0,134
143,370	-59,592	-0,335	-0,100
144,385	-31,531	-0,264	-0,103
145,400	196,520	-0,253	-0,269
146,414	143,176	-0,258	-0,240
147,429	125,767	-0,248	-0,219
148,443	65,242	-0,246	-0,173
149,458	15,981	-0,115	-0,063
150,473	-35,465	-0,212	-0,080
151,487	8,239	-0,215	-0,112
152,502	9,275	-0,326	-0,172
153,516	-9,929	-0,324	-0,150
154,531	407,413	-0,216	-0,320
155,546	31,042	-0,154	-0,092
156,560	90,039	-0,217	-0,169
157,575	-8,308	-0,354	-0,165
158,589	44,347	-0,279	-0,178
159,604	118,151	-0,306	-0,264
160,619	113,835	-0,254	-0,215
161,633	29,259	-0,156	-0,092
162,648	49,592	-0,282	-0,185
163,662	800,000	-0,123	-0,243
164,677	-71,410	-0,277	-0,072
165,692	5,653	-0,197	-0,101
166,706	9,968	-0,330	-0,174
167,721	-200,000	-0,096	-0,306
168,735	-14,996	-0,353	-0,157
169,750	0,937	-0,231	-0,115
170,764	-37,124	-0,363	-0,135
171,779	69,995	-0,243	-0,175
172,794	179,141	-0,089	-0,091
173,808	8,000	-0,185	-0,096
174,823	95,502	-0,335	-0,266
175,837	63,834	-0,290	-0,203
176,852	800,000	-0,059	-0,165
177,867	-117,211	-0,204	-0,026
178,881	161,138	-0,208	-0,202
179,896	49,600	-0,156	-0,102
180,910	55,658	-0,143	-0,097
181,925	137,920	-0,212	-0,194
182,940	-40,671	-0,250	-0,090
183,954	-81,603	-0,184	-0,042
184,969	46,825	-0,175	-0,113
185,983	88,467	-0,216	-0,167
186,998	-111,369	-0,172	-0,024
188,013	800,000	-0,059	-0,115
189,027	464,867	-0,183	-0,286
190,042	-25,823	-0,297	-0,121
191,056	10,017	-0,207	-0,109
192,071	203,028	-0,188	-0,203
193,086	-93,854	-0,274	-0,052
194,100	-136,255	-0,231	0,019
195,115	-38,128	-0,286	-0,105
196,129	175,606	-0,233	-0,235
197,144	135,666	-0,205	-0,185
198,159	304,024	-0,182	-0,235
199,173	155,344	-0,181	-0,173
200,188	81,897	-0,123	0,093
201,202	-142,586	-0,154	-0,010
202,217	278,517	-0,073	-0,091
203,232	535,469	-0,134	-0,222
204,246	-200,000	-0,068	-0,219
205,261	469,703	-0,135	-0,212
206,275	37,283	-0,232	-0,143
207,290	122,179	-0,173	-0,150
208,304	-58,209	-0,178	-0,054
209,319	-78,057	-0,275	-0,065
210,334	800,000	-0,142	-0,316
211,348	12,241	-0,292	-0,156
212,363	256,783	-0,127	-0,152
213,377	-79,947	-0,200	0,046
214,392	182,273	-0,186	-0,191
215,407	-129,024	-0,247	0,024
216,421	12,894	-0,259	-0,139
217,436	-36,912	-0,173	-0,064
218,450	402,918	-0,083	-0,121
219,465	-60,259	-0,254	-0,075
220,480	103,945	-0,132	-0,108
221,494	-134,690	-0,133	0,011
222,509	-141,746	-0,237	0,016
223,523	655,549	-0,120	-0,214
224,538	-49,526	-0,144	-0,047
225,553	-143,273	-0,211	0,014
226,567	25,057	-0,283	-0,162
227,582	79,783	-0,205	-0,153
228,596	298,081	-0,113	-0,144
229,611	393,465	-0,096	-0,140
230,626	-200,000	-0,087	-0,269
231,640	35,774	-0,216	-0,132
232,655	125,815	-0,190	-0,166
233,669	-70,301	-0,255	-0,067
234,684	5,884	-0,258	-0,132
235,699	103,274	-0,159	-0,129
236,713	800,000	-0,061	-0,128
237,728	-95,451	-0,192	-0,035
238,742	160,161	-0,159	-0,154
239,757	460,853	-0,117	-0,181
240,772	-22,249	-0,275	-0,115
241,786	348,468	-0,107	-0,147
242,801	-200,000	-0,039	-0,190
243,815	-180,619	-0,159	-0,002
244,830	-50,770	-0,112	-0,036
245,844	-79,830	0,024	-0,006
246,859	635,633	-0,086	-0,151
247,874	96,451	-0,176	-0,139
248,888	14,421	-0,248	-0,134
249,903	-42,040	-0,220	-0,078
250,917	107,399	-0,167	-0,137
251,932	-62,498	-0,273	-0,078
252,947	10,861	-0,158	-0,083
253,961	78,749	-0,270	-0,200
254,976	59,034	-0,239	-0,162
255,990	611,481	-0,107	-0,187
257,005	790,037	-0,138	-0,263
258,020	-117,138	-0,206	-0,026
259,034	-141,104	-0,119	-0,008
260,049	-66,690	-0,147	-0,040
261,063	-151,070	-0,174	0,009
262,078	200,149	-0,228	-0,242
263,093	-14,534	-0,124	-0,055
264,107	31,947	-0,136	-0,081
265,122	165,823	-0,169	-0,166
266,136	-31,627	-0,054	-0,021
267,151	16,828	-0,184	-0,100
268,166	112,029	-0,174	-0,145
269,180	29,923	-0,154	-0,090
270,195	-84,026	-0,188	-0,041
271,209	500,743	-0,125	-0,199
272,224	-200,000	-0,033	-0,112
273,239	156,991	-0,134	-0,128
274,253	-88,045	-0,156	-0,032
275,268	-61,892	-0,259	-0,074
276,282	-62,937	-0,151	-0,043
277,297	395,597	-0,156	-0,225
278,312	122,896	-0,126	-0,109
279,326	-35,669	-0,176	-0,066
280,341	0,308	-0,125	-0,061
281,355	780,603	-0,097	-0,184
282,370	40,868	-0,181	-0,112
283,384	132,694	-0,220	-0,196
284,399	301,378	-0,179	-0,229
285,414	-54,417	-0,314	-0,098
286,428	43,265	-0,132	-0,083
287,443	94,955	-0,057	-0,044
288,457	-76,498	-0,108	-0,026
289,472	62,135	-0,115	-0,079
290,487	26,080	-0,260	-0,149
291,501	180,715	-0,213	-0,216
292,516	796,113	-0,115	-0,220
293,530	757,091	-0,040	-0,076
294,545	-29,017	-0,137	-0,054
295,560	91,155	-0,107	-0,083
296,574	-149,336	-0,185	0,010
297,589	318,060	-0,179	-0,235
298,603	-10,958	-0,201	-0,091
299,618	-139,425	-0,112	0,008
300,633	198,423	-0,087	-0,092
301,647	381,500	-0,044	0,063
302,662	-200,000	-0,016	-0,059
303,676	-118,944	-0,104	-0,012
304,691	596,690	-0,070	-0,121
305,706	800,000	-0,074	-0,186
306,720	800,000	-0,077	-0,217
307,735	-120,684	-0,093	-0,011
308,749	-35,436	-0,146	-0,054
309,764	361,061	-0,090	-0,125
310,779	-36,600	-0,098	0,036
311,793	-0,181	-0,088	-0,043
312,808	115,743	-0,093	-0,079
313,822	43,925	-0,239	-0,151
314,837	88,274	-0,205	-0,156
315,852	86,392	-0,152	-0,115
316,866	-56,560	-0,076	-0,023
317,881	83,014	-0,210	-0,157
318,895	239,914	-0,119	-0,136
319,910	245,067	-0,132	-0,153
320,925	469,720	-0,095	-0,148
321,939	-96,420	-0,196	-0,035
322,954	55,181	-0,149	-0,099
323,968	446,346	-0,074	-0,112
324,983	109,384	-0,133	-0,109
325,997	21,704	-0,133	-0,074
327,012	174,833	-0,139	-0,139
328,027	522,295	-0,153	-0,248
329,041	-200,000	-0,036	-0,206
330,056	-124,211	0,037	0,004
331,070	-79,185	-0,101	-0,023
332,085	-7,444	-0,059	-0,027
333,100	800,000	-0,098	-0,208
334,114	209,385	-0,190	-0,205
335,129	-200,000	-0,020	-0,111
336,143	36,527	-0,139	-0,084
337,158	96,194	-0,189	-0,149
338,173	-57,152	-0,104	-0,031
339,187	-200,000	0,001	-0,071
340,202	-200,000	-0,029	-0,129
341,216	800,000	-0,023	-0,051
342,231	67,749	-0,191	-0,134
343,246	287,658	-0,191	-0,237
344,260	281,050	0,016	0,020
345,275	15,765	-0,048	0,026
346,289	-177,014	-0,118	0,002
347,304	155,266	-0,077	-0,073
348,319	-62,371	-0,234	-0,066
349,333	-200,000	-0,026	-0,238
350,348	696,569	0,072	-0,130
351,362	198,014	-0,170	-0,178
352,377	-200,000	0,001	-0,083
353,392	-47,096	-0,103	0,034
354,406	116,575	-0,160	-0,134
355,421	209,959	1316,781	1419,531
356,435	161,610	1477,793	1420,041
