DTS Sentinel unit serial number:	SN410029Multiplexer serial number:	ORYXHardware model number:	OX2-SRSoftware version number:	ORYX F/W v4,00 Oryx Data Collector v3.7.2.0data status	okinstallation	B3 Nyhavnadifferential loss correction	single-endedforward channel	channel 1reverse channel	N/Adate	2023/11/29time	17:07:30forward acquisition time	300,00reverse acquisition time	0,00gamma	499,1914k internal	0,3209k external	0,3209temperature offset calibration	1,0000default loss term (dB/km)	0,3820temperature slope calibration	1,0000multiplexer offset coefficient	1,0000multiplexer slope coefficient	1,0000fibre end	0,00T internal ref (°C)	11,37T ext. ref 1 (°C)	-3,83T ext. ref 2 (°C)	-3,96length (m)	temperature (°C)	Stokes	anti-Stokes-744,400	138,857	-0,207	-0,198
-743,385	800,000	-0,089	0,274
-742,371	-200,000	-0,056	-0,250
-741,356	800,000	-0,117	0,348
-740,342	357,384	-0,166	-0,241
-739,327	-200,000	0,033	0,322
-738,312	118,471	-0,218	-0,195
-737,298	-200,000	0,025	0,327
-736,283	800,000	-0,094	-0,195
-735,269	-200,000	-0,056	0,366
-734,254	228,232	-0,249	-0,294
-733,239	-134,992	-0,254	0,022
-732,225	522,293	-0,173	-0,295
-731,210	-63,395	0,130	0,039
-730,196	111,168	-0,095	0,083
-729,181	-24,853	0,073	-0,031
-728,167	-127,799	-0,065	0,007
-727,152	26,998	0,095	0,058
-726,137	-200,000	-0,036	-0,142
-725,123	25,123	0,139	-0,083
-724,108	298,484	-0,120	-0,160
-723,094	-200,000	-0,018	-0,103
-722,079	69,646	-0,052	-0,039
-721,064	279,222	0,027	-0,035
-720,050	-56,820	-0,114	-0,036
-719,035	-200,000	-0,029	0,103
-718,021	-3,985	-0,172	0,086
-717,006	160,763	0,117	-0,118
-715,991	424,399	-0,056	-0,088
-714,977	-200,000	-0,004	0,015
-713,962	-163,566	0,041	-0,001
-712,948	164,988	-0,019	0,019
-711,933	588,116	0,044	0,079
-710,918	139,070	-0,066	-0,063
-709,904	792,680	0,034	-0,068
-708,889	800,000	-0,031	-0,081
-707,875	314,507	-0,061	-0,084
-706,860	97,774	-0,079	0,066
-705,845	-28,221	-0,124	0,052
-704,831	328,187	-0,056	0,078
-703,816	3,886	-0,072	-0,038
-702,802	60,052	-0,055	0,039
-701,787	229,527	-0,037	0,044
-700,772	-200,000	-0,003	-0,231
-699,758	55,182	0,146	-0,102
-698,743	-200,000	-0,011	0,053
-697,729	-49,490	0,087	-0,030
-696,714	598,535	-0,046	-0,083
-695,699	-103,396	-0,018	-0,003
-694,685	50,252	-0,092	-0,063
-693,670	-32,345	0,040	0,016
-692,656	107,057	0,033	-0,029
-691,641	-200,000	0,003	0,022
-690,627	-200,000	0,008	-0,116
-689,612	-200,000	0,014	-0,058
-688,597	258,047	-0,068	-0,085
-687,583	-200,000	0,003	-0,141
-686,568	226,604	-0,070	-0,083
-685,554	201,381	-0,036	-0,041
-684,539	-200,000	-0,017	-0,075
-683,524	800,000	-0,048	-0,117
-682,510	181,478	-0,048	-0,051
-681,495	-153,145	-0,080	-0,004
-680,481	199,129	-0,051	0,057
-679,466	-4,302	-0,065	0,032
-678,451	800,000	-0,117	-0,242
-677,437	-158,154	0,031	-0,001
-676,422	765,307	0,024	-0,047
-675,408	-200,000	-0,008	-0,043
-674,393	-200,000	0,012	0,143
-673,378	-105,326	-0,030	-0,005
-672,364	36,191	-0,181	-0,115
-671,349	800,000	-0,021	-0,046
-670,335	-200,000	-0,005	-0,083
-669,320	-81,511	-0,058	0,014
-668,305	-200,000	0,021	0,110
-667,291	32,312	-0,059	0,037
-666,276	568,578	-0,045	-0,079
-665,262	-200,000	-0,041	-0,137
-664,247	-10,490	-0,183	-0,087
-663,232	522,730	-0,025	0,042
-662,218	-200,000	-0,009	-0,034
-661,203	-88,426	-0,071	0,015
-660,189	81,537	-0,075	0,058
-659,174	-68,070	-0,050	0,014
-658,159	293,909	-0,087	-0,115
-657,145	-45,899	0,123	-0,044
-656,130	84,331	-0,119	-0,094
-655,116	-200,000	0,008	0,083
-654,101	-200,000	-0,062	0,000
-653,086	-200,000	0,007	-0,078
-652,072	-40,681	-0,164	-0,061
-651,057	43,291	0,106	0,070
-650,043	-200,000	0,014	0,069
-649,028	-200,000	0,014	0,118
-648,014	800,000	0,048	0,098
-646,999	-92,460	0,083	0,017
-645,984	-200,000	-0,007	0,034
-644,970	-200,000	-0,006	-0,090
-643,955	800,000	0,029	-0,063
-642,941	666,533	-0,023	0,042
-641,926	-22,325	0,142	-0,062
-640,911	153,969	0,080	0,079
-639,897	7,410	-0,067	-0,036
-638,882	1,047	0,078	-0,040
-637,868	633,726	-0,072	-0,133
-636,853	271,713	-0,077	-0,098
-635,838	142,396	0,057	0,055
-634,824	-200,000	0,003	-0,031
-633,809	-17,612	-0,067	-0,030
-632,795	800,000	0,055	0,112
-631,780	199,414	0,041	0,046
-630,765	13,754	-0,102	-0,057
-629,751	800,000	-0,116	-0,236
-628,736	146,230	0,078	-0,075
-627,722	53,681	-0,043	-0,030
-626,707	-200,000	-0,045	0,183
-625,692	-200,000	0,006	0,059
-624,678	22,401	0,081	0,048
-623,663	-200,000	-0,009	-0,066
-622,649	116,298	-0,056	0,049
-621,634	-200,000	0,019	-0,076
-620,619	68,234	0,051	-0,037
-619,605	655,445	-0,058	-0,109
-618,590	319,762	0,088	0,121
-617,576	-165,900	-0,118	-0,004
-616,561	288,472	0,015	0,019
-615,546	376,129	-0,056	-0,082
-614,532	-200,000	-0,045	-0,173
-613,517	800,000	-0,016	0,038
-612,503	203,952	-0,033	-0,037
-611,488	-34,374	0,082	0,032
-610,474	234,639	-0,018	0,021
-609,459	69,993	0,045	0,033
-608,444	18,137	-0,069	-0,040
-607,430	526,574	-0,083	-0,142
-606,415	51,252	0,089	-0,061
-605,401	-200,000	-0,020	-0,140
-604,386	294,680	-0,070	-0,093
-603,371	-39,885	-0,093	0,035
-602,357	-79,188	-0,148	0,036
-601,342	-200,000	-0,012	-0,063
-600,328	-176,146	-0,106	0,002
-599,313	-200,000	-0,013	-0,100
-598,298	193,903	-0,080	-0,087
-597,284	163,278	-0,081	0,082
-596,269	-200,000	-0,005	-0,085
-595,255	-200,000	0,000	-0,021
-594,240	75,503	-0,019	-0,014
-593,225	70,167	0,110	-0,082
-592,211	70,421	0,105	-0,078
-591,196	46,487	0,104	-0,070
-590,182	-200,000	-0,017	-0,113
-589,167	254,311	-0,045	-0,056
-588,152	-115,167	0,125	-0,017
-587,138	-200,000	-0,015	0,181
-586,123	-200,000	0,014	-0,066
-585,109	153,411	0,019	-0,019
-584,094	718,756	0,034	0,065
-583,079	62,957	0,066	0,048
-582,065	95,986	0,088	0,073
-581,050	-200,000	-0,013	0,128
-580,036	-200,000	0,006	-0,022
-579,021	254,998	-0,141	-0,175
-578,006	228,542	0,060	-0,071
-576,992	-200,000	-0,023	-0,162
-575,977	800,000	-0,041	0,086
-574,963	-3,821	0,017	0,008
-573,948	800,000	-0,039	0,101
-572,934	-200,000	0,007	-0,041
-571,919	-63,445	-0,122	-0,036
-570,904	-33,495	0,047	-0,019
-569,890	800,000	-0,063	0,200
-568,875	-200,000	-0,004	-0,040
-567,861	-200,000	0,007	0,027
-566,846	-67,609	0,115	0,032
-565,831	-49,932	-0,065	-0,022
-564,817	-70,426	-0,070	0,019
-563,802	71,708	-0,061	-0,045
-562,788	-73,512	-0,024	-0,006
-561,773	800,000	-0,044	-0,103
-560,758	34,784	0,134	0,084
-559,744	480,174	0,047	0,077
-558,729	-80,731	0,089	-0,021
-557,715	800,000	-0,034	-0,108
-556,700	19,777	0,046	0,027
-555,685	674,318	0,008	-0,015
-554,671	58,546	0,101	-0,072
-553,656	126,208	0,052	-0,047
-552,642	-59,920	0,031	-0,010
-551,627	800,000	0,015	-0,039
-550,612	142,415	-0,124	0,118
-549,598	110,828	-0,059	-0,051
-548,583	-200,000	0,000	0,073
-547,569	417,167	-0,014	0,021
-546,554	209,503	0,053	-0,060
-545,539	-200,000	0,038	-0,131
-544,525	800,000	0,041	-0,091
-543,510	-200,000	0,006	-0,150
-542,496	-87,712	-0,133	-0,029
-541,481	192,813	-0,094	-0,102
-540,466	286,678	-0,040	-0,052
-539,452	434,034	0,052	0,081
-538,437	-53,555	0,047	-0,015
-537,423	-200,000	-0,045	-0,189
-536,408	-30,694	-0,059	-0,024
-535,393	800,000	-0,004	-0,011
-534,379	29,397	-0,102	-0,062
-533,364	-200,000	-0,003	-0,079
-532,350	-200,000	0,013	0,071
-531,335	-133,626	0,053	-0,005
-530,321	800,000	-0,011	0,028
-529,306	-200,000	0,030	0,135
-528,291	1,370	-0,059	0,031
-527,277	800,000	-0,058	-0,146
-526,262	-200,000	0,017	0,195
-525,248	-150,519	-0,045	-0,002
-524,233	505,950	-0,081	-0,135
-523,218	74,706	0,102	0,077
-522,204	268,919	-0,061	0,077
-521,189	-19,449	-0,092	-0,041
-520,175	318,595	0,078	-0,106
-519,160	-36,579	-0,125	0,048
-518,145	597,676	0,044	-0,079
-517,131	-40,909	0,014	-0,005
-516,116	345,712	-0,024	0,034
-515,102	393,024	-0,056	0,085
-514,087	-10,305	0,088	0,042
-513,072	800,000	-0,012	-0,025
-512,058	-200,000	0,029	-0,142
-511,043	289,854	-0,031	-0,040
-510,029	243,874	0,080	0,096
-509,014	-200,000	-0,019	0,087
-507,999	-77,501	0,028	0,007
-506,985	-117,186	0,048	0,006
-505,970	599,041	0,068	-0,122
-504,956	-200,000	-0,018	-0,132
-503,941	-147,681	0,058	0,003
-502,926	38,748	0,062	-0,040
-501,912	800,000	0,032	-0,094
-500,897	-3,700	0,042	-0,021
-499,883	26,049	0,051	0,031
-498,868	-1,509	-0,139	-0,070
-497,853	69,475	-0,007	-0,005
-496,839	253,936	0,045	-0,055
-495,824	-96,234	0,088	-0,017
-494,810	772,365	0,077	0,151
-493,795	-57,863	-0,026	-0,008
-492,781	-200,000	-0,017	-0,056
-491,766	800,000	0,017	-0,035
-490,751	424,498	0,019	0,030
-489,737	424,398	0,122	0,189
-488,722	5,415	0,051	-0,027
-487,708	-200,000	-0,011	0,101
-486,693	13,218	0,043	0,024
-485,678	-200,000	-0,001	0,052
-484,664	-200,000	-0,042	-0,202
-483,649	800,000	-0,043	-0,098
-482,635	-104,035	0,112	0,019
-481,620	-200,000	-0,005	-0,160
-480,605	-200,000	0,037	-0,131
-479,591	631,610	-0,048	0,087
-478,576	800,000	-0,050	0,132
-477,562	44,853	-0,069	-0,045
-476,547	800,000	-0,027	0,076
-475,532	-12,245	-0,125	-0,059
-474,518	-22,962	-0,067	0,029
-473,503	800,000	0,103	0,271
-472,489	-200,000	-0,003	0,020
-471,474	113,358	-0,099	0,086
-470,459	-200,000	-0,008	0,161
-469,445	800,000	-0,034	0,104
-468,430	-127,596	-0,187	-0,019
-467,416	345,200	0,105	0,148
-466,401	231,898	-0,080	0,094
-465,386	639,461	0,098	-0,180
-464,372	-121,820	-0,108	0,013
-463,357	-200,000	0,019	-0,064
-462,343	800,000	-0,038	0,101
-461,328	-86,546	-0,136	0,030
-460,313	194,758	0,078	0,085
-459,299	42,042	0,076	-0,050
-458,284	98,600	-0,110	0,091
-457,270	721,854	0,075	0,143
-456,255	800,000	-0,073	0,173
-455,241	-145,897	0,014	-0,001
-454,226	-200,000	0,031	0,114
-453,211	49,710	-0,105	-0,071
-452,197	314,653	0,018	0,025
-451,182	33,538	0,015	-0,009
-450,168	800,000	0,009	-0,020
-449,153	-200,000	0,023	0,078
-448,138	800,000	-0,049	-0,112
-447,124	-91,138	-0,114	-0,023
-446,109	800,000	0,044	-0,135
-445,095	-200,000	-0,026	0,137
-444,080	129,979	0,067	0,062
-443,065	3,341	-0,108	0,056
-442,051	-30,284	0,081	-0,033
-441,036	-200,000	0,028	-0,113
-440,022	-200,000	0,016	0,063
-439,007	800,000	-0,053	-0,137
-437,992	96,812	-0,019	-0,016
-436,978	800,000	0,069	-0,142
-435,963	140,490	0,078	0,074
-434,949	-3,299	-0,141	0,070
-433,934	-200,000	0,013	-0,051
-432,919	-29,091	0,165	-0,068
-431,905	11,670	-0,096	-0,053
-430,890	-200,000	0,007	-0,040
-429,876	-188,091	0,106	-0,001
-428,861	74,686	-0,065	-0,049
-427,846	800,000	0,018	-0,047
-426,832	-88,064	0,123	-0,026
-425,817	644,265	0,037	-0,068
-424,803	328,008	0,020	0,027
-423,788	256,324	0,060	0,074
-422,773	-200,000	0,002	-0,015
-421,759	-51,748	0,118	0,039
-420,744	800,000	-0,069	0,148
-419,730	163,778	-0,098	-0,099
-418,715	-23,817	0,076	-0,033
-417,701	-200,000	0,021	-0,099
-416,686	76,829	-0,078	-0,060
-415,671	-27,328	0,016	0,007
-414,657	-200,000	-0,016	0,144
-413,642	185,218	-0,068	-0,072
-412,628	136,197	-0,044	-0,041
-411,613	-117,279	-0,033	-0,004
-410,598	118,180	-0,074	0,065
-409,584	57,809	-0,090	0,063
-408,569	-40,541	0,061	-0,023
-407,555	800,000	0,044	-0,127
-406,540	-200,000	-0,014	0,127
-405,525	-200,000	0,003	0,046
-404,511	43,323	-0,020	0,013
-403,496	-84,967	-0,142	-0,032
-402,482	-200,000	-0,016	0,085
-401,467	48,955	-0,035	-0,024
-400,452	800,000	-0,022	-0,045
-399,438	-91,537	0,145	0,029
-398,423	133,278	-0,072	0,067
-397,409	28,721	0,140	-0,085
-396,394	-50,333	0,054	0,018
-395,379	116,310	-0,050	0,044
-394,365	124,670	-0,075	0,068
-393,350	621,042	-0,048	0,087
-392,336	71,646	-0,070	0,052
-391,321	-200,000	-0,013	0,153
-390,306	2,097	-0,174	0,090
-389,292	-200,000	0,000	-0,066
-388,277	-200,000	0,015	-0,192
-387,263	-17,738	0,092	0,041
-386,248	362,950	-0,026	0,038
-385,233	599,281	0,066	-0,117
-384,219	483,858	-0,028	-0,045
-383,204	311,651	0,047	-0,064
-382,190	98,925	-0,025	0,020
-381,175	601,311	-0,027	0,047
-380,160	-200,000	-0,011	-0,057
-379,146	-144,780	0,087	0,006
-378,131	800,000	-0,043	-0,103
-377,117	-31,043	0,064	0,026
-376,102	-36,787	-0,117	-0,045
-375,088	-200,000	-0,019	-0,063
-374,073	-77,690	-0,025	0,006
-373,058	0,671	-0,053	0,027
-372,044	221,323	0,121	0,139
-371,029	160,366	0,132	0,132
-370,015	123,016	-0,029	-0,026
-369,000	-200,000	0,011	-0,073
-367,985	-118,245	0,010	-0,001
-366,971	120,280	-0,054	-0,048
-365,956	-52,426	-0,181	-0,059
-364,942	78,514	0,097	-0,074
-363,927	211,498	-0,084	0,095
-362,912	800,000	-0,042	0,097
-361,898	800,000	0,016	-0,034
-360,883	124,716	0,027	-0,024
-359,869	-151,211	0,068	0,004
-358,854	375,806	-0,027	0,040
-357,839	-200,000	0,010	-0,113
-356,825	31,468	0,075	0,046
-355,810	40,641	0,094	-0,060
-354,796	109,958	0,077	0,066
-353,781	-161,295	-0,134	-0,005
-352,766	723,787	-0,040	-0,076
-351,752	-15,709	0,053	0,024
-350,737	-200,000	0,004	-0,060
-349,723	-159,849	0,025	0,001
-348,708	96,611	0,120	0,098
-347,693	193,867	-0,043	-0,047
-346,679	-185,295	0,068	-0,001
-345,664	-200,000	0,024	0,083
-344,650	800,000	-0,018	0,052
-343,635	394,179	-0,107	0,159
-342,620	-78,848	0,095	0,023
-341,606	-54,367	0,068	0,022
-340,591	800,000	-0,043	-0,095
-339,577	-200,000	0,028	0,096
-338,562	-1,038	0,033	-0,017
-337,548	-102,023	0,080	0,014
-336,533	-146,611	0,035	-0,002
-335,518	311,348	-0,056	0,075
-334,504	-39,437	0,077	0,029
-333,489	138,619	0,058	-0,054
-332,475	800,000	-0,031	-0,095
-331,460	-200,000	0,004	-0,125
-330,445	-200,000	0,002	0,058
-329,431	1,443	0,039	0,020
-328,416	455,904	0,124	0,197
-327,402	-200,000	-0,004	0,181
-326,387	-200,000	0,016	0,102
-325,372	-66,623	0,065	-0,018
-324,358	103,655	-0,034	0,029
-323,343	800,000	0,044	0,100
-322,329	516,262	-0,003	-0,005
-321,314	547,206	0,031	0,054
-320,299	-200,000	0,026	0,108
-319,285	281,989	0,027	0,035
-318,270	-107,624	-0,108	-0,017
-317,256	476,052	-0,058	-0,093
-316,241	-200,000	-0,002	-0,044
-315,226	-200,000	0,028	-0,149
-314,212	-200,000	-0,000	0,071
-313,197	-200,000	0,033	0,151
-312,183	118,889	-0,042	0,037
-311,168	462,174	0,071	-0,114
-310,153	55,025	-0,083	0,057
-309,139	221,638	-0,102	-0,117
-308,124	538,829	0,026	-0,044
-307,110	690,960	-0,042	0,078
-306,095	730,552	-0,063	0,122
-305,080	259,755	-0,085	0,105
-304,066	-69,666	0,171	-0,046
-303,051	-200,000	0,013	-0,068
-302,037	800,000	0,027	-0,071
-301,022	38,053	0,088	-0,056
-300,008	-61,628	-0,058	-0,017
-298,993	81,693	-0,024	-0,019
-297,978	-92,390	0,109	0,022
-296,964	-200,000	-0,020	0,076
-295,949	557,453	-0,049	0,085
-294,935	-17,301	-0,144	-0,064
-293,920	-200,000	0,017	-0,117
-292,905	-16,645	0,175	0,079
-291,891	157,669	0,011	0,011
-290,876	-200,000	-0,006	0,123
-289,862	568,913	0,045	0,078
-288,847	-62,792	-0,073	0,021
-287,832	31,795	-0,061	0,037
-286,818	-200,000	-0,007	0,143
-285,803	170,050	0,036	0,037
-284,789	-200,000	-0,014	-0,062
-283,774	-142,586	-0,095	0,007
-282,759	129,335	-0,009	0,009
-281,745	-41,108	-0,215	-0,079
-280,730	-200,000	0,056	-0,230
-279,716	800,000	-0,029	-0,062
-278,701	800,000	-0,014	0,037
-277,686	374,052	-0,031	-0,045
-276,672	-115,559	0,127	0,017
-275,657	-95,078	-0,133	0,025
-274,643	-200,000	0,001	-0,048
-273,628	800,000	0,092	-0,182
-272,613	145,719	-0,098	-0,093
-271,599	-200,000	0,020	-0,082
-270,584	-13,694	0,105	0,048
-269,570	196,889	0,114	0,123
-268,555	382,757	-0,075	-0,110
-267,540	-67,678	-0,084	-0,023
-266,526	-21,094	-0,073	-0,032
-265,511	214,932	0,049	0,056
-264,497	-200,000	-0,029	0,093
-263,482	800,000	0,054	0,170
-262,467	-22,981	0,071	0,030
-261,453	123,994	-0,108	-0,097
-260,438	-79,057	-0,099	0,024
-259,424	-200,000	0,023	0,130
-258,409	-69,859	0,091	-0,024
-257,395	800,000	0,039	-0,093
-256,380	166,617	0,157	0,159
-255,365	-95,074	-0,133	-0,025
-254,351	-200,000	-0,001	-0,046
-253,336	800,000	0,050	-0,112
-252,322	800,000	-0,036	-0,090
-251,307	-31,529	0,079	-0,031
-250,292	160,976	0,046	-0,046
-249,278	-200,000	-0,001	0,120
-248,263	485,219	0,064	0,103
-247,249	800,000	-0,025	0,067
-246,234	800,000	-0,013	-0,034
-245,219	-150,209	-0,116	0,006
-244,205	-49,963	-0,096	0,032
-243,190	-200,000	-0,007	0,035
-242,176	800,000	0,041	-0,099
-241,161	56,310	-0,068	0,047
-240,146	-24,792	0,173	0,073
-239,132	-200,000	0,002	-0,098
-238,117	-72,971	0,121	-0,031
-237,103	-64,474	-0,058	0,017
-236,088	442,968	-0,059	0,093
-235,073	-200,000	-0,045	0,216
-234,059	218,768	0,133	0,151
-233,044	20,194	0,110	-0,063
-232,030	146,282	0,030	0,028
-231,015	-200,000	-0,015	-0,096
-230,000	800,000	-0,017	0,039
-228,986	276,658	-0,085	-0,107
-227,971	437,527	0,086	-0,133
-226,957	800,000	0,008	-0,021
-225,942	-166,937	0,121	0,003
-224,927	265,714	0,033	0,041
-223,913	-200,000	0,009	0,034
-222,898	180,858	-0,043	-0,045
-221,884	-100,183	-0,033	0,006
-220,869	-95,066	0,123	-0,023
-219,855	-200,000	0,008	0,077
-218,840	37,454	0,069	-0,044
-217,825	-200,000	-0,001	0,039
-216,811	-6,876	0,052	-0,025
-215,796	59,970	0,094	-0,066
-214,782	-56,135	-0,176	0,055
-213,767	80,400	0,163	0,125
-212,752	-75,753	0,165	0,041
-211,738	64,618	-0,113	0,081
-210,723	197,520	-0,007	0,008
-209,709	800,000	-0,042	-0,101
-208,694	-140,745	-0,067	-0,005
-207,679	215,810	0,084	-0,095
-206,665	-159,713	-0,116	0,004
-205,650	114,266	-0,010	-0,009
-204,636	188,648	-0,059	-0,063
-203,621	412,116	-0,054	-0,082
-202,606	174,446	0,059	-0,060
-201,592	210,681	0,025	0,028
-200,577	485,345	-0,044	0,071
-199,563	-6,142	0,106	0,051
-198,548	800,000	0,014	-0,029
-197,533	-71,052	0,027	-0,007
-196,519	-116,624	-0,084	0,011
-195,504	528,272	-0,092	0,155
-194,490	131,566	0,076	0,070
-193,475	-200,000	-0,011	-0,064
-192,460	800,000	-0,058	-0,130
-191,446	-95,184	0,098	0,019
-190,431	800,000	-0,039	-0,113
-189,417	-108,167	-0,143	0,022
-188,402	-87,743	-0,064	0,014
-187,387	-9,347	-0,055	0,026
-186,373	-14,841	-0,111	0,050
-185,358	-63,217	-0,101	0,029
-184,344	-126,679	0,108	-0,011
-183,329	321,937	-0,033	0,045
-182,315	800,000	-0,012	0,037
-181,300	607,366	-0,043	0,077
-180,285	-200,000	0,007	-0,114
-179,271	472,430	-0,048	-0,076
-178,256	-42,930	0,069	-0,025
-177,242	800,000	0,028	0,081
-176,227	-200,000	0,003	0,077
-175,212	297,060	0,042	-0,055
-174,198	43,573	-0,106	0,069
-173,183	108,236	-0,082	-0,069
-172,169	800,000	-0,031	0,066
-171,154	-113,902	0,128	-0,018
-170,139	440,055	-0,043	0,068
-169,125	-86,662	0,179	0,039
-168,110	152,892	-0,025	-0,024
-167,096	-200,000	-0,026	0,200
-166,081	-27,381	0,068	0,028
-165,066	514,891	0,095	-0,157
-164,052	800,000	-0,040	-0,119
-163,037	800,000	-0,041	-0,112
-162,023	-51,651	0,080	-0,026
-161,008	800,000	0,039	0,090
-159,993	80,086	0,104	0,080
-158,979	-121,976	-0,082	0,009
-157,964	314,511	0,076	0,102
-156,950	174,996	-0,059	0,060
-155,935	-169,816	0,090	-0,002
-154,920	-134,949	-0,079	-0,007
-153,906	479,311	0,084	0,136
-152,891	-74,186	-0,096	-0,025
-151,877	471,647	-0,042	-0,067
-150,862	401,934	-0,113	-0,169
-149,847	540,497	-0,093	-0,158
-148,833	800,000	-0,019	-0,037
-147,818	-29,614	0,029	-0,012
-146,804	800,000	-0,053	0,135
-145,789	-200,000	-0,002	0,052
-144,775	-200,000	0,002	-0,139
-143,760	-200,000	-0,027	-0,125
-142,745	16,383	-0,133	-0,074
-141,731	-32,989	-0,076	-0,030
-140,716	19,226	-0,049	0,028
-139,702	-200,000	-0,014	0,067
-138,687	-200,000	0,009	0,049
-137,672	-38,078	-0,033	0,012
-136,658	-3,699	-0,153	-0,075
-135,643	-200,000	0,002	-0,151
-134,629	-0,428	-0,048	-0,024
-133,614	693,934	0,056	0,104
-132,599	-138,189	0,042	0,003
-131,585	566,187	0,033	-0,057
-130,570	-24,547	0,116	0,049
-129,556	728,989	-0,014	-0,027
-128,541	-93,678	0,051	0,010
-127,526	-194,416	0,102	0,001
-126,512	25,513	0,053	-0,031
-125,497	303,639	0,055	-0,072
-124,483	800,000	-0,043	-0,099
-123,468	6,199	0,057	-0,030
-122,453	357,811	-0,081	-0,115
-121,439	263,584	-0,069	-0,086
-120,424	800,000	0,012	-0,035
-119,410	634,060	0,067	0,121
-118,395	223,780	0,085	0,097
-117,380	452,578	-0,054	0,084
-116,366	800,000	-0,016	-0,032
-115,351	150,501	-0,062	-0,060
-114,337	602,997	-0,025	-0,045
-113,322	588,805	0,088	0,154
-112,307	283,659	-0,075	0,096
-111,293	561,383	0,073	0,126
-110,278	-200,000	0,006	0,024
-109,264	300,828	0,079	0,104
-108,249	10,024	-0,079	0,043
-107,234	-96,615	-0,208	-0,039
-106,220	216,799	0,065	0,073
-105,205	-168,704	0,071	0,002
-104,191	45,993	-0,071	-0,046
-103,176	-200,000	-0,027	-0,092
-102,162	345,185	-0,113	0,157
-101,147	-54,723	0,088	-0,028
-100,132	245,526	0,018	-0,022
-99,118	800,000	0,021	0,052
-98,103	800,000	0,042	0,114
-97,089	-200,000	0,001	0,073
-96,074	-200,000	0,016	0,075
-95,059	147,897	-0,069	0,066
-94,045	-114,181	-0,095	0,013
-93,030	339,513	-0,086	-0,118
-92,016	-200,000	-0,009	-0,194
-91,001	-200,000	0,019	-0,166
-89,986	50,556	0,034	0,023
-88,972	-158,245	0,053	-0,002
-87,957	8,528	-0,110	-0,058
-86,943	-82,162	0,155	-0,036
-85,928	167,591	-0,079	-0,079
-84,913	-69,313	0,020	0,005
-83,899	375,351	-0,024	-0,035
-82,884	-59,445	0,020	0,006
-81,870	-89,135	-0,084	-0,017
-80,855	-48,477	0,151	0,051
-79,840	-47,721	-0,061	0,021
-78,826	-200,000	0,022	0,101
-77,811	-88,889	-0,115	-0,024
-76,797	55,908	0,073	-0,050
-75,782	-132,434	-0,158	-0,014
-74,767	310,457	0,068	-0,090
-73,753	195,148	0,059	-0,064
-72,738	224,780	0,028	-0,032
-71,724	65,326	0,041	0,029
-70,709	247,748	-0,041	-0,049
-69,694	623,680	-0,030	0,054
-68,680	-49,159	-0,056	0,019
-67,665	-200,000	0,001	0,014
-66,651	-46,005	0,118	0,041
-65,636	40,545	0,032	-0,021
-64,622	38,130	-0,047	-0,029
-63,607	-200,000	-0,024	0,180
-62,592	-195,300	0,110	0,001
-61,578	463,812	0,045	-0,071
-60,563	300,090	0,096	0,126
-59,549	158,953	-0,048	0,047
-58,534	3,752	-1,847	-0,949
-57,519	555,583	-1,306	-2,230
-56,505	-200,000	-0,368	-4,249
-55,490	300,014	0,910	1,188
-54,476	800,000	5,167	11,216
-53,461	-200,000	20,611	327,749
-52,446	800,000	752,393	2315,000
-51,432	551,528	1658,459	2822,766
-50,417	74,058	1664,178	1232,083
-49,403	19,266	1537,395	869,382
-48,388	13,190	1460,143	796,289
-47,373	18,888	1450,630	818,444
-46,359	16,209	1439,844	799,568
-45,344	11,466	1435,742	774,665
-44,330	11,432	1433,962	773,513
-43,315	11,433	1431,872	772,359
-42,300	11,452	1430,276	771,557
-41,286	11,447	1428,937	770,781
-40,271	11,410	1427,702	769,909
-39,257	11,412	1426,634	769,310
-38,242	11,417	1425,285	768,579
-37,227	11,450	1424,217	768,126
-36,213	11,521	1422,626	767,577
-35,198	11,414	1421,860	766,627
-34,184	11,472	1420,892	766,347
-33,169	11,433	1419,463	765,360
-32,154	11,493	1418,372	765,028
-31,140	11,531	1417,210	764,550
-30,125	11,514	1416,070	763,822
-29,111	11,488	1415,158	763,176
-28,096	11,505	1413,791	762,489
-27,082	11,438	1412,780	761,600
-26,067	11,393	1411,812	760,838
-25,052	11,396	1410,649	760,195
-24,038	11,403	1409,647	759,656
-23,023	11,396	1408,705	759,088
-22,009	11,422	1407,518	758,538
-20,994	11,359	1406,639	757,741
-19,979	11,409	1405,890	757,540
-18,965	11,387	1404,969	756,909
-17,950	11,375	1403,810	756,202
-16,936	11,348	1403,295	755,767
-15,921	11,277	1402,108	754,766
-14,906	11,281	1401,340	754,343
-13,892	11,340	1400,163	753,952
-12,877	11,307	1399,423	753,371
-11,863	11,347	1398,327	752,936
-10,848	11,262	1397,833	752,250
-9,833	11,295	1396,675	751,746
-8,819	11,225	1395,921	750,986
-7,804	11,179	1394,882	750,185
-6,790	11,185	1393,942	749,677
-5,775	11,227	1392,764	749,208
-4,760	11,244	1391,901	748,794
-3,746	11,215	1391,011	748,149
-2,731	11,239	1390,136	747,761
-1,717	11,223	1389,408	747,267
-0,702	11,178	1387,682	746,100
0,313	15,186	1302,090	718,463
1,327	31,414	694,738	420,347
2,342	48,796	120,781	79,832
3,356	1,169	16,458	8,310
4,371	6,419	3,396	1,774
5,386	28,047	0,670	0,398
6,400	777,718	0,194	0,376
7,415	12,312	-0,204	-0,110
8,429	150,409	-0,245	-0,234
9,444	80,929	-0,282	-0,214
10,459	-120,933	-0,188	-0,022
11,473	4,535	-0,321	-0,166
12,488	62,949	-0,192	-0,136
13,502	55,386	-0,248	-0,169
14,517	177,462	-0,300	-0,309
15,531	67,631	-0,330	-0,238
16,546	259,539	-0,325	-0,397
17,561	96,184	-0,311	-0,251
18,575	-49,575	-0,263	-0,088
19,590	79,070	-0,293	-0,221
20,604	-171,356	-0,317	-0,007
21,619	17,929	-0,420	-0,235
22,634	278,933	-0,376	-0,474
23,648	16,581	-0,378	-0,210
24,663	57,919	-0,315	-0,217
25,677	56,299	-0,383	-0,261
26,692	64,208	-0,286	-0,202
27,707	65,687	-0,318	-0,226
28,721	-6,642	-0,330	-0,158
29,736	121,330	-0,308	-0,270
30,750	139,796	-0,383	-0,355
31,765	179,918	-0,341	-0,352
32,780	247,941	-0,293	-0,349
33,794	275,233	-0,209	-0,262
34,809	-2,087	-0,453	-0,223
35,823	105,248	-0,369	-0,307
36,838	382,546	-0,329	-0,478
37,853	242,688	-0,256	-0,303
38,867	65,559	-0,403	-0,287
39,882	62,435	-0,408	-0,286
40,896	47,673	-0,343	-0,224
41,911	78,462	-0,388	-0,291
42,926	320,282	-0,311	-0,416
43,940	126,813	-0,366	-0,326
44,955	345,616	-0,243	-0,336
45,969	58,165	-0,405	-0,278
46,984	-45,784	-0,318	-0,110
47,999	641,072	-0,209	-0,376
49,013	-21,038	-0,299	-0,128
50,028	311,267	-0,191	-0,252
51,042	140,715	-0,268	-0,249
52,057	56,897	-0,375	-0,257
53,071	51,172	-0,412	-0,274
54,086	-12,195	-0,303	-0,139
55,101	34,917	-0,220	-0,135
56,115	-55,662	-0,380	-0,119
57,130	23,776	-0,487	-0,281
58,144	65,160	-0,374	-0,265
59,159	58,836	-0,439	-0,303
60,174	-51,692	-0,392	-0,128
61,188	-4,983	-0,486	-0,234
62,203	-2,376	-0,366	-0,179
63,217	38,494	-0,331	-0,207
64,232	26,082	-0,398	-0,232
65,247	357,231	-0,185	-0,259
66,261	149,882	-0,283	-0,270
67,276	72,035	-0,340	-0,248
68,290	86,709	-0,364	-0,282
69,305	-23,197	-0,313	-0,132
70,320	20,564	-0,333	-0,188
71,334	89,882	-0,253	-0,198
72,349	73,315	-0,382	-0,280
73,363	316,650	-0,239	-0,318
74,378	-56,213	-0,554	-0,172
75,393	-46,360	-0,336	-0,115
76,407	-41,967	-0,261	-0,093
77,422	-76,445	-0,337	-0,082
78,436	-176,563	-0,338	-0,006
79,451	124,783	-0,279	-0,246
80,466	41,578	-0,288	-0,183
81,480	54,985	-0,313	-0,211
82,495	8,914	-0,313	-0,165
83,509	49,282	-0,384	-0,252
84,524	3,273	-0,296	-0,150
85,539	92,625	-0,280	-0,222
86,553	28,263	-0,128	-0,076
87,568	56,778	-0,361	-0,246
88,582	169,744	-0,213	-0,214
89,597	6,049	-0,304	-0,157
90,611	49,154	-0,173	-0,113
91,626	152,491	-0,249	-0,238
92,641	466,056	-0,174	-0,273
93,655	76,364	-0,280	-0,207
94,670	170,889	-0,218	-0,219
95,684	34,071	-0,301	-0,183
96,699	-131,703	-0,341	-0,031
97,714	133,342	-0,230	-0,208
98,728	-84,232	-0,429	-0,094
99,743	45,535	-0,220	-0,142
100,757	49,847	-0,249	-0,164
101,772	-10,985	-0,243	-0,112
102,787	60,876	-0,335	-0,232
103,801	230,748	-0,133	-0,153
104,816	306,626	-0,093	-0,122
105,830	-63,534	-0,310	-0,088
106,845	-117,063	-0,283	0,036
107,860	227,950	-0,258	-0,294
108,874	270,595	-0,207	-0,256
109,889	149,134	-0,268	-0,254
110,903	14,276	-0,366	-0,199
111,918	22,316	-0,256	-0,146
112,933	303,865	-0,156	-0,203
113,947	38,629	-0,237	-0,147
114,962	-128,575	-0,248	-0,024
115,976	122,448	-0,285	-0,249
116,991	173,599	-0,277	-0,280
118,006	88,743	-0,301	-0,233
119,020	323,847	-0,182	-0,243
120,035	-6,835	-0,303	-0,143
121,049	-48,441	-0,267	-0,089
122,064	78,070	-0,270	-0,201
123,079	155,755	-0,113	-0,109
124,093	-22,862	-0,366	-0,154
125,108	191,220	-0,276	-0,290
126,122	536,642	-0,082	-0,137
127,137	66,772	-0,232	-0,165
128,151	-26,074	-0,300	-0,122
129,166	376,691	-0,151	-0,215
130,181	38,241	-0,329	-0,204
131,195	119,592	-0,278	-0,240
132,210	-20,435	-0,233	-0,099
133,224	-4,347	-0,362	-0,174
134,239	99,331	-0,204	-0,164
135,254	23,836	-0,312	-0,179
136,268	389,118	-0,143	-0,208
137,283	-83,921	-0,158	-0,035
138,297	529,508	-0,112	-0,185
139,312	26,185	-0,291	-0,169
140,327	52,211	-0,233	-0,155
141,341	252,426	-0,163	-0,194
142,356	225,851	-0,204	-0,231
143,370	68,488	-0,190	-0,136
144,385	253,615	-0,196	-0,233
145,400	65,952	-0,310	-0,219
146,414	198,881	-0,199	-0,212
147,429	13,302	-0,257	-0,138
148,443	141,349	-0,201	-0,185
149,458	48,525	-0,182	-0,118
150,473	31,875	-0,157	-0,094
151,487	197,807	-0,198	-0,211
152,502	107,314	-0,312	-0,258
153,516	56,782	-0,166	-0,112
154,531	213,095	-0,281	-0,309
155,546	4,343	-0,366	-0,186
156,560	115,769	-0,210	-0,179
157,575	91,145	-0,255	-0,199
158,589	-90,584	-0,142	-0,028
159,604	239,747	-0,139	-0,162
160,619	-5,402	-0,209	-0,100
161,633	139,952	-0,155	-0,142
162,648	462,429	-0,098	-0,153
163,662	-38,817	-0,278	-0,101
164,677	-174,602	-0,185	0,004
165,692	43,599	-0,163	-0,104
166,706	-67,655	-0,253	-0,068
167,721	300,523	-0,154	-0,199
168,735	68,052	-0,359	-0,255
169,750	104,424	-0,243	-0,199
170,764	339,930	-0,219	-0,298
171,779	192,133	-0,082	-0,086
172,794	-7,348	-0,275	-0,129
173,808	285,696	-0,210	-0,264
174,823	393,600	-0,159	-0,231
175,837	80,030	-0,191	-0,143
176,852	109,180	-0,276	-0,229
177,867	75,756	-0,217	-0,159
178,881	516,448	-0,070	-0,114
179,896	68,542	-0,285	-0,203
180,910	167,661	-0,162	-0,160
181,925	800,000	-0,120	-0,317
182,940	23,613	-0,274	-0,156
183,954	64,612	-0,203	-0,142
184,969	489,669	-0,163	-0,259
185,983	2,395	-0,153	-0,076
186,998	19,882	-0,243	-0,136
188,013	69,339	-0,250	-0,178
189,027	50,535	-0,255	-0,167
190,042	50,221	-0,189	-0,124
191,056	129,229	-0,221	-0,196
192,071	217,851	-0,186	-0,206
193,086	-101,413	-0,250	0,042
194,100	255,316	-0,114	-0,135
195,115	98,549	-0,228	-0,182
196,129	619,160	-0,159	-0,279
197,144	714,646	-0,202	-0,374
198,159	373,121	-0,149	-0,211
199,173	-137,449	-0,295	0,023
200,188	800,000	-0,073	-0,156
201,202	483,117	-0,091	-0,144
202,217	16,012	-0,243	-0,133
203,232	-176,235	-0,202	0,004
204,246	-147,106	-0,333	-0,019
205,261	62,806	-0,157	-0,109
206,275	265,272	-0,047	-0,056
207,290	-33,145	-0,099	0,038
208,304	-140,112	-0,135	0,010
209,319	88,486	-0,259	-0,199
210,334	-28,203	-0,358	-0,143
211,348	126,109	-0,197	-0,172
212,363	-156,298	-0,215	-0,009
213,377	221,479	-0,127	-0,142
214,392	91,124	-0,112	-0,087
215,407	64,004	-0,206	-0,143
216,421	655,075	-0,110	-0,197
217,436	166,541	-0,198	-0,194
218,450	251,350	-0,182	-0,215
219,465	25,154	-0,235	-0,135
220,480	259,283	-0,152	-0,181
221,494	-5,023	-0,186	-0,089
222,509	37,349	-0,206	-0,126
223,523	30,977	-0,245	-0,145
224,538	176,604	-0,130	-0,131
225,553	-52,099	-0,297	-0,095
226,567	-28,322	-0,219	-0,087
227,582	108,965	-0,162	-0,134
228,596	800,000	-0,144	-0,328
229,611	57,344	-0,168	-0,113
230,626	-150,483	-0,261	-0,014
231,640	28,999	-0,257	-0,150
232,655	800,000	-0,138	-0,313
233,669	-8,660	-0,162	-0,075
234,684	106,533	-0,211	-0,173
235,699	137,985	-0,226	-0,205
236,713	800,000	-0,072	-0,181
237,728	-142,324	-0,215	-0,014
238,742	-33,807	-0,160	-0,061
239,757	52,696	-0,185	-0,122
240,772	28,673	-0,247	-0,144
241,786	73,812	-0,211	-0,153
242,801	2,315	-0,166	-0,083
243,815	390,251	-0,102	-0,147
244,830	-171,031	-0,137	-0,003
245,844	96,702	-0,177	-0,140
246,859	221,945	-0,099	-0,110
247,874	112,681	-0,155	-0,130
248,888	120,921	-0,156	-0,134
249,903	800,000	-0,137	-0,266
250,917	340,200	-0,080	-0,108
251,932	687,073	-0,056	-0,101
252,947	-172,488	-0,127	-0,003
253,961	32,940	-0,231	-0,138
254,976	-46,636	-0,217	-0,073
255,990	158,369	-0,194	-0,186
257,005	155,463	-0,187	-0,178
258,020	44,553	-0,218	-0,138
259,034	-19,480	-0,259	-0,110
260,049	93,214	-0,098	-0,076
261,063	701,530	-0,099	-0,181
262,078	800,000	-0,108	-0,264
263,093	-45,278	-0,235	-0,080
264,107	107,371	-0,173	-0,142
265,122	240,164	-0,139	-0,160
266,136	113,507	-0,171	-0,143
267,151	-5,115	-0,076	-0,036
268,166	255,665	-0,141	-0,167
269,180	295,719	-0,206	-0,260
270,195	-200,000	-0,047	-0,249
271,209	86,815	-0,148	-0,112
272,224	-200,000	-0,017	-0,193
273,239	-5,070	-0,092	-0,044
274,253	-68,189	-0,114	0,030
275,268	-54,800	-0,167	0,052
276,282	69,339	-0,208	-0,147
277,297	133,591	-0,087	-0,078
278,312	179,471	-0,228	-0,230
279,326	-200,000	-0,049	-0,288
280,341	32,633	-0,102	-0,061
281,355	-200,000	-0,046	-0,195
282,370	800,000	-0,122	-0,243
283,384	203,282	-0,175	-0,187
284,399	6,044	-0,197	-0,100
285,414	170,756	-0,208	-0,206
286,428	127,246	-0,083	-0,072
287,443	45,473	-0,121	-0,076
288,457	-30,224	-0,144	-0,056
289,472	63,011	-0,146	-0,101
290,487	-4,653	-0,112	-0,053
291,501	-105,305	-0,181	0,028
292,516	800,000	-0,072	-0,147
293,530	51,855	-0,214	-0,140
294,545	-76,318	-0,176	-0,042
295,560	-143,574	-0,117	-0,008
296,574	48,209	-0,162	-0,104
297,589	-119,436	-0,125	-0,015
298,603	-12,669	-0,199	-0,089
299,618	148,269	-0,230	-0,213
300,633	278,782	-0,142	-0,175
301,647	-64,053	-0,104	0,029
302,662	692,171	-0,058	-0,106
303,676	214,480	-0,103	-0,112
304,691	286,420	-0,126	-0,157
305,706	226,825	-0,159	-0,178
306,720	-200,000	-0,042	-0,267
307,735	613,050	-0,133	-0,230
308,749	133,936	-0,102	-0,091
309,764	228,679	-0,108	-0,121
310,779	-139,510	-0,282	-0,020
311,793	98,607	-0,168	-0,133
312,808	-101,535	-0,244	-0,040
313,822	28,031	-0,193	-0,111
314,837	-72,870	-0,200	-0,050
315,852	178,500	-0,113	-0,113
316,866	-200,000	-0,043	-0,211
317,881	172,608	-0,048	0,047
318,895	-151,657	-0,117	-0,006
319,910	-113,967	-0,200	0,026
320,925	-192,313	-0,151	-0,001
321,939	126,397	-0,252	-0,219
322,954	64,927	-0,143	-0,099
323,968	800,000	-0,038	-0,081
324,983	-32,419	-0,234	-0,089
325,997	800,000	-0,077	-0,185
327,012	175,410	-0,159	-0,158
328,027	498,490	-0,045	-0,071
329,041	99,055	-0,106	-0,084
330,056	-141,808	-0,198	0,013
331,070	-3,520	-0,145	0,069
332,085	494,790	0,048	-0,075
333,100	28,645	-0,111	-0,064
334,114	-78,484	-0,187	0,044
335,129	-106,884	-0,205	-0,031
336,143	-46,934	-0,192	-0,064
337,158	34,594	-0,100	-0,060
338,173	35,428	-0,111	-0,067
339,187	97,804	-0,150	-0,118
340,202	11,126	-0,145	-0,075
341,216	-200,000	0,024	-0,305
342,231	216,613	-0,186	-0,203
343,246	495,536	-0,136	-0,214
344,260	-14,990	-0,141	-0,061
345,275	88,135	-0,221	-0,168
346,289	-88,762	-0,050	-0,010
347,304	273,250	-0,090	-0,110
348,319	105,698	-0,055	-0,045
349,333	-63,975	-0,195	-0,054
350,348	28,249	-0,209	-0,121
351,362	-1,191	-0,087	-0,042
352,377	-200,000	-0,030	-0,180
353,392	-26,051	-0,106	-0,042
354,406	279,079	-0,085	-0,104
355,421	207,563	1307,733	1398,348
356,435	159,678	1467,591	1398,840
