DTS Sentinel unit serial number:	SN410029Multiplexer serial number:	ORYXHardware model number:	OX2-SRSoftware version number:	ORYX F/W v4,00 Oryx Data Collector v3.7.2.0data status	okinstallation	B3 Nyhavnadifferential loss correction	single-endedforward channel	channel 1reverse channel	N/Adate	2023/12/02time	17:42:30forward acquisition time	300,00reverse acquisition time	0,00gamma	499,1914k internal	0,3199k external	0,3199temperature offset calibration	1,0000default loss term (dB/km)	0,3820temperature slope calibration	1,0000multiplexer offset coefficient	1,0000multiplexer slope coefficient	1,0000fibre end	0,00T internal ref (°C)	13,76T ext. ref 1 (°C)	-1,61T ext. ref 2 (°C)	-1,63length (m)	temperature (°C)	Stokes	anti-Stokes-744,400	226,644	-0,116	-0,137
-743,385	800,000	0,060	0,180
-742,371	87,762	-0,187	-0,151
-741,356	-200,000	0,073	0,366
-740,342	131,155	-0,219	-0,205
-739,327	-200,000	0,070	0,307
-738,312	800,000	-0,136	-0,371
-737,298	-200,000	-0,039	0,244
-736,283	800,000	-0,107	-0,295
-735,269	-200,000	0,064	0,350
-734,254	156,201	-0,268	-0,269
-733,239	38,005	-0,299	0,193
-732,225	216,365	-0,152	-0,177
-731,210	307,085	0,078	0,106
-730,196	219,923	0,071	-0,083
-729,181	605,089	-0,075	-0,136
-728,167	560,093	0,017	0,029
-727,152	-200,000	0,028	-0,118
-726,137	456,182	-0,020	-0,032
-725,123	137,730	0,070	0,067
-724,108	93,847	-0,110	-0,091
-723,094	-109,793	-0,090	0,014
-722,079	-200,000	0,026	-0,206
-721,064	-200,000	0,035	-0,180
-720,050	-200,000	-0,073	0,000
-719,035	56,369	0,108	-0,076
-718,021	491,328	-0,042	0,070
-717,006	-200,000	-0,040	-0,186
-715,991	320,883	-0,061	-0,084
-714,977	46,406	-0,188	-0,126
-713,962	-82,885	0,102	0,024
-712,948	-80,533	-0,130	0,031
-711,933	800,000	-0,009	0,023
-710,918	-200,000	-0,023	0,096
-709,904	800,000	-0,043	-0,127
-708,889	260,625	0,053	-0,066
-707,875	-11,070	-0,233	0,111
-706,860	493,151	-0,091	-0,153
-705,845	800,000	-0,031	0,084
-704,831	-108,426	-0,166	0,026
-703,816	-200,000	-0,011	-0,042
-702,802	231,710	-0,018	-0,021
-701,787	-122,375	-0,067	0,008
-700,772	-200,000	0,003	-0,212
-699,758	-154,148	0,084	-0,004
-698,743	356,921	-0,034	-0,049
-697,729	16,584	0,086	0,049
-696,714	101,959	0,036	0,030
-695,699	-174,497	-0,136	-0,003
-694,685	-12,658	0,062	-0,029
-693,670	-195,977	-0,080	-0,000
-692,656	453,207	-0,067	-0,109
-691,641	-6,109	0,119	-0,059
-690,627	-200,000	0,049	0,246
-689,612	229,110	-0,128	0,152
-688,597	149,727	-0,096	-0,095
-687,583	66,356	-0,030	-0,022
-686,568	-57,205	-0,107	-0,034
-685,554	258,922	-0,124	-0,155
-684,539	-22,347	-0,164	0,072
-683,524	-141,052	-0,024	0,002
-682,510	12,248	-0,108	0,060
-681,495	-200,000	-0,004	-0,092
-680,481	32,365	-0,135	-0,084
-679,466	782,529	-0,092	-0,184
-678,451	-200,000	-0,004	-0,088
-677,437	111,647	0,057	0,050
-676,422	-200,000	-0,008	-0,067
-675,408	-200,000	0,011	0,094
-674,393	319,694	-0,034	-0,047
-673,378	-145,596	-0,023	-0,001
-672,364	60,193	-0,070	0,050
-671,349	170,336	-0,092	-0,096
-670,335	-200,000	-0,029	-0,106
-669,320	217,417	0,046	-0,053
-668,305	-200,000	-0,017	-0,058
-667,291	551,273	0,018	-0,032
-666,276	-200,000	0,038	-0,136
-665,262	-16,390	-0,146	-0,067
-664,247	300,655	0,086	-0,116
-663,232	1,486	0,092	0,048
-662,218	-200,000	-0,007	0,044
-661,203	211,640	0,049	0,056
-660,189	-3,108	0,025	-0,012
-659,174	239,679	-0,177	-0,214
-658,159	-63,925	-0,049	0,014
-657,145	-178,055	-0,049	-0,001
-656,130	793,421	0,046	0,092
-655,116	-200,000	0,018	0,061
-654,101	16,960	-0,027	-0,015
-653,086	-200,000	-0,034	0,165
-652,072	543,720	-0,026	-0,045
-651,057	-69,199	-0,065	-0,018
-650,043	496,587	-0,102	-0,170
-649,028	800,000	0,059	-0,133
-648,014	800,000	-0,059	-0,123
-646,999	-54,316	0,082	0,027
-645,984	49,079	-0,063	0,043
-644,970	40,433	0,135	-0,088
-643,955	-109,016	-0,082	-0,013
-642,941	114,788	-0,143	-0,126
-641,926	-200,000	0,001	0,009
-640,911	-86,307	0,055	-0,012
-639,897	-200,000	0,011	-0,045
-638,882	-113,199	-0,089	0,013
-637,868	-45,024	0,129	-0,046
-636,853	316,742	-0,075	-0,103
-635,838	-149,048	-0,076	-0,004
-634,824	-200,000	0,003	0,014
-633,809	-133,473	0,104	-0,009
-632,795	304,720	0,030	0,041
-631,780	9,865	-0,060	-0,033
-630,765	249,041	-0,073	0,089
-629,751	-160,989	-0,053	0,002
-628,736	76,932	-0,067	-0,051
-627,722	181,131	-0,099	-0,105
-626,707	-53,030	-0,082	0,027
-625,692	-9,027	0,032	-0,016
-624,678	78,713	0,065	-0,050
-623,663	-200,000	-0,010	0,059
-622,649	-164,838	-0,035	0,001
-621,634	-75,660	-0,081	-0,021
-620,619	-125,294	-0,071	-0,008
-619,605	-200,000	0,101	0,000
-618,590	140,564	-0,020	-0,019
-617,576	231,039	0,133	0,158
-616,561	800,000	-0,049	-0,129
-615,546	19,999	0,059	0,034
-614,532	-200,000	-0,026	-0,110
-613,517	445,841	0,081	-0,129
-612,503	-13,711	-0,038	-0,018
-611,488	-200,000	-0,017	0,117
-610,474	112,613	0,090	-0,079
-609,459	-200,000	0,003	0,120
-608,444	21,419	-0,065	0,038
-607,430	353,265	-0,124	-0,178
-606,415	-81,130	-0,039	-0,009
-605,401	152,471	0,105	-0,104
-604,386	9,146	0,152	0,083
-603,371	800,000	0,064	0,132
-602,357	615,857	-0,059	0,108
-601,342	-187,416	0,074	-0,001
-600,328	-93,714	-0,216	-0,043
-599,313	800,000	-0,031	0,092
-598,298	-200,000	-0,015	-0,099
-597,284	24,880	-0,036	0,022
-596,269	-45,293	0,162	-0,058
-595,255	-200,000	0,011	-0,114
-594,240	-200,000	0,001	-0,018
-593,225	72,412	-0,102	-0,077
-592,211	33,468	-0,048	0,030
-591,196	-112,382	0,213	-0,031
-590,182	-69,337	0,018	-0,005
-589,167	101,686	0,131	0,110
-588,152	-200,000	0,001	-0,011
-587,138	-200,000	0,015	0,068
-586,123	-200,000	-0,005	-0,076
-585,109	-185,801	-0,149	-0,002
-584,094	56,095	0,052	0,036
-583,079	168,831	0,089	-0,092
-582,065	800,000	-0,009	-0,019
-581,050	800,000	0,030	-0,068
-580,036	800,000	0,044	0,091
-579,021	-200,000	0,025	-0,104
-578,006	-200,000	-0,012	-0,114
-576,992	-147,362	-0,051	0,003
-575,977	-200,000	-0,002	0,054
-574,963	-106,161	-0,102	0,016
-573,948	800,000	-0,028	-0,072
-572,934	-40,387	0,176	-0,066
-571,919	-152,888	-0,069	0,003
-570,904	-200,000	0,003	-0,047
-569,890	-200,000	0,015	-0,095
-568,875	-124,332	-0,054	-0,006
-567,861	-200,000	0,009	0,065
-566,846	800,000	0,049	0,099
-565,831	83,381	-0,085	0,067
-564,817	-200,000	-0,021	0,096
-563,802	-107,511	-0,160	-0,025
-562,788	-61,351	0,034	-0,010
-561,773	270,782	0,046	0,059
-560,758	215,311	-0,033	0,038
-559,744	89,365	-0,066	0,053
-558,729	800,000	-0,041	0,128
-557,715	355,389	0,028	0,040
-556,700	-132,045	-0,125	-0,012
-555,685	111,645	0,130	0,113
-554,671	-200,000	-0,003	0,033
-553,656	-24,857	-0,074	-0,032
-552,642	182,959	-0,092	0,098
-551,627	446,396	0,057	-0,091
-550,612	800,000	-0,032	-0,073
-549,598	-13,052	0,030	0,014
-548,583	800,000	0,031	-0,093
-547,569	14,808	0,086	0,048
-546,554	381,295	-0,046	0,069
-545,539	-200,000	0,005	0,125
-544,525	254,826	-0,089	0,110
-543,510	206,496	-0,096	-0,108
-542,496	-200,000	-0,083	-0,000
-541,481	672,906	-0,073	-0,136
-540,466	-3,674	-0,053	-0,027
-539,452	337,626	0,008	-0,011
-538,437	137,257	0,085	0,080
-537,423	800,000	-0,010	0,027
-536,408	88,852	-0,037	-0,030
-535,393	800,000	-0,069	-0,202
-534,379	-200,000	-0,047	-0,216
-533,364	-16,072	-0,098	-0,045
-532,350	55,048	0,156	-0,108
-531,335	-54,352	0,051	-0,017
-530,321	389,305	-0,058	0,087
-529,306	-200,000	-0,014	-0,209
-528,291	78,588	-0,117	-0,090
-527,277	-200,000	-0,053	-0,203
-526,262	693,291	0,042	0,080
-525,248	212,907	-0,105	0,119
-524,233	-200,000	0,014	0,133
-523,218	69,967	-0,095	0,071
-522,204	404,641	-0,030	-0,046
-521,189	-45,339	0,071	-0,025
-520,175	15,559	-0,071	-0,040
-519,160	-60,888	-0,078	-0,024
-518,145	-200,000	0,030	0,114
-517,131	366,532	-0,046	0,068
-516,116	123,179	0,029	0,026
-515,102	-200,000	-0,004	0,070
-514,087	800,000	-0,047	0,120
-513,072	800,000	-0,043	-0,087
-512,058	148,788	0,069	0,067
-511,043	800,000	0,045	-0,095
-510,029	-200,000	-0,009	0,037
-509,014	141,594	0,091	-0,087
-507,999	-200,000	0,025	0,167
-506,985	347,016	-0,017	0,025
-505,970	-29,477	-0,111	-0,046
-504,956	-200,000	-0,002	-0,060
-503,941	800,000	0,017	0,034
-502,926	-110,621	0,163	0,024
-501,912	207,009	-0,079	-0,089
-500,897	296,025	0,051	-0,068
-499,883	800,000	-0,018	-0,052
-498,868	185,013	-0,114	-0,123
-497,853	-91,309	-0,201	0,041
-496,839	-162,786	-0,168	-0,006
-495,824	-150,936	0,035	-0,002
-494,810	-200,000	0,009	0,093
-493,795	-148,817	0,008	0,000
-492,781	-116,726	0,075	0,010
-491,766	-97,756	-0,168	-0,031
-490,751	-42,479	-0,130	-0,048
-489,737	118,493	-0,076	0,067
-488,722	-127,080	0,040	0,004
-487,708	86,864	0,084	0,067
-486,693	-8,413	-0,092	-0,044
-485,678	306,699	-0,030	0,040
-484,664	191,349	-0,067	0,073
-483,649	443,190	-0,061	-0,096
-482,635	-200,000	0,009	0,165
-481,620	95,943	0,163	0,134
-480,605	-200,000	0,018	0,176
-479,591	87,181	0,040	-0,032
-478,576	-200,000	0,003	-0,080
-477,562	285,568	-0,061	-0,080
-476,547	74,937	0,112	-0,085
-475,532	-200,000	0,002	-0,020
-474,518	308,426	0,099	0,134
-473,503	-53,474	-0,023	0,007
-472,489	-82,821	-0,052	-0,012
-471,474	-15,880	-0,095	0,043
-470,459	51,336	-0,084	0,057
-469,445	-200,000	-0,016	0,073
-468,430	106,495	-0,051	0,043
-467,416	-200,000	-0,007	0,067
-466,401	-200,000	-0,002	0,066
-465,386	-56,326	-0,027	0,009
-464,372	377,818	-0,029	0,043
-463,357	329,940	0,030	0,041
-462,343	-64,253	-0,054	0,016
-461,328	-72,270	-0,098	-0,026
-460,313	-126,836	0,098	-0,010
-459,299	-179,434	0,087	0,001
-458,284	227,375	0,092	0,107
-457,270	-200,000	-0,027	-0,159
-456,255	-18,954	0,125	-0,056
-455,241	-200,000	0,006	-0,052
-454,226	-137,592	0,114	-0,009
-453,211	428,783	-0,023	-0,037
-452,197	-200,000	-0,002	0,093
-451,182	79,091	0,068	-0,053
-450,168	92,320	0,136	0,110
-449,153	-43,464	-0,093	-0,034
-448,138	30,032	0,026	-0,016
-447,124	-112,636	-0,074	0,010
-446,109	-138,921	0,039	-0,003
-445,095	800,000	-0,024	-0,072
-444,080	19,350	-0,044	0,025
-443,065	-200,000	-0,042	0,158
-442,051	800,000	-0,037	0,078
-441,036	800,000	-0,048	-0,099
-440,022	-200,000	0,031	-0,140
-439,007	800,000	-0,028	-0,057
-437,992	101,412	0,047	-0,039
-436,978	-25,724	0,046	0,019
-435,963	-84,865	0,116	-0,026
-434,949	-0,788	-0,035	-0,018
-433,934	180,955	-0,035	0,037
-432,919	685,361	0,052	0,098
-431,905	73,224	-0,113	-0,085
-430,890	-64,886	0,115	-0,033
-429,876	43,023	0,079	0,052
-428,861	262,835	0,097	0,121
-427,846	216,075	-0,035	0,040
-426,832	87,039	-0,088	-0,070
-425,817	172,489	0,006	0,007
-424,803	664,137	-0,052	0,098
-423,788	63,744	0,159	0,115
-422,773	-184,843	0,160	-0,002
-421,759	800,000	0,059	-0,121
-420,744	800,000	-0,033	-0,077
-419,730	-24,867	-0,155	-0,066
-418,715	-200,000	-0,014	0,054
-417,701	-178,291	-0,169	-0,003
-416,686	-200,000	0,007	-0,113
-415,671	-200,000	0,018	0,076
-414,657	86,451	0,082	0,065
-413,642	-200,000	-0,013	0,124
-412,628	505,356	0,039	-0,064
-411,613	29,314	-0,082	-0,050
-410,598	-79,662	-0,062	0,015
-409,584	49,836	0,115	0,078
-408,569	-200,000	0,003	0,072
-407,555	-14,006	0,040	-0,018
-406,540	800,000	0,030	0,077
-405,525	-200,000	0,009	-0,074
-404,511	800,000	0,069	-0,140
-403,496	800,000	-0,035	0,073
-402,482	-200,000	-0,005	0,124
-401,467	800,000	-0,027	0,068
-400,452	-200,000	-0,013	0,126
-399,438	40,291	-0,062	0,040
-398,423	360,429	-0,010	0,015
-397,409	-200,000	0,024	-0,136
-396,394	-200,000	0,006	0,054
-395,379	56,910	0,066	0,046
-394,365	568,803	-0,055	-0,096
-393,350	-200,000	-0,008	0,046
-392,336	515,807	0,071	0,119
-391,321	-13,578	-0,059	-0,028
-390,306	376,568	-0,034	-0,050
-389,292	800,000	-0,039	0,083
-388,277	114,839	-0,052	-0,046
-387,263	690,954	0,041	0,077
-386,248	-25,495	0,169	-0,071
-385,233	-4,679	-0,086	0,042
-384,219	160,140	0,037	0,038
-383,204	-200,000	0,001	-0,042
-382,190	69,037	-0,055	0,040
-381,175	-148,482	0,208	0,012
-380,160	3,203	-0,071	0,037
-379,146	360,480	0,066	0,095
-378,131	-200,000	0,006	0,054
-377,117	494,714	0,061	0,101
-376,102	-87,196	-0,127	0,027
-375,088	550,071	0,027	-0,047
-374,073	-200,000	0,030	0,115
-373,058	-200,000	-0,007	-0,060
-372,044	-26,680	0,055	0,023
-371,029	-36,885	-0,105	0,040
-370,015	-200,000	0,010	0,170
-369,000	134,663	0,076	-0,071
-367,985	37,017	0,069	0,044
-366,971	79,174	0,032	-0,024
-365,956	800,000	-0,026	0,070
-364,942	-119,299	-0,037	-0,005
-363,927	-72,134	0,115	-0,031
-362,912	-200,000	0,001	-0,103
-361,898	-91,887	0,073	0,015
-360,883	5,274	0,084	-0,044
-359,869	-149,908	0,075	0,004
-358,854	-87,841	0,042	0,009
-357,839	-29,252	-0,021	0,008
-356,825	-161,092	0,046	-0,002
-355,810	31,924	0,027	0,017
-354,796	-140,644	-0,088	-0,006
-353,781	-53,688	0,049	0,016
-352,766	-174,788	0,073	0,001
-351,752	-130,994	-0,027	-0,003
-350,737	32,748	0,017	-0,010
-349,723	5,139	0,106	0,056
-348,708	-61,670	-0,036	-0,011
-347,693	800,000	-0,052	-0,126
-346,679	-7,016	0,075	-0,036
-345,664	800,000	-0,026	0,057
-344,650	800,000	-0,028	0,069
-343,635	177,866	-0,044	0,046
-342,620	-127,476	0,045	-0,005
-341,606	72,421	-0,111	0,083
-340,591	138,890	0,061	0,058
-339,577	-63,786	-0,084	0,024
-338,562	-200,000	-0,012	0,064
-337,548	383,949	0,024	-0,036
-336,533	230,236	0,066	0,078
-335,518	-200,000	-0,018	0,097
-334,504	-200,000	0,013	0,042
-333,489	11,061	-0,091	0,050
-332,475	-154,241	0,140	-0,007
-331,460	800,000	-0,035	-0,074
-330,445	-165,635	0,097	0,003
-329,431	800,000	0,045	-0,096
-328,416	800,000	0,037	0,089
-327,402	-200,000	0,008	0,079
-326,387	183,518	-0,106	0,112
-325,372	-200,000	0,021	-0,251
-324,358	800,000	-0,056	-0,111
-323,343	800,000	0,034	-0,086
-322,329	164,052	-0,046	-0,046
-321,314	-150,816	-0,108	-0,006
-320,299	-127,567	0,111	-0,011
-319,285	-200,000	0,004	-0,075
-318,270	-200,000	-0,001	0,110
-317,256	207,328	0,071	-0,079
-316,241	757,317	-0,012	-0,023
-315,226	-64,201	0,128	0,037
-314,212	800,000	0,038	-0,093
-313,197	-51,632	0,090	0,030
-312,183	-141,871	0,039	-0,003
-311,168	-200,000	0,034	0,111
-310,153	313,439	-0,059	0,080
-309,139	-200,000	-0,023	-0,091
-308,124	-148,352	-0,001	0,000
-307,110	-200,000	-0,001	-0,055
-306,095	43,862	0,108	0,071
-305,080	800,000	-0,025	0,051
-304,066	-200,000	-0,020	-0,113
-303,051	-94,178	-0,198	0,039
-302,037	-101,121	0,068	-0,012
-301,022	160,048	-0,071	0,071
-300,008	-71,863	-0,018	0,005
-298,993	-48,834	0,048	-0,016
-297,978	16,987	0,109	-0,062
-296,964	-15,341	0,076	-0,035
-295,949	-17,031	0,011	0,005
-294,935	132,558	-0,116	-0,107
-293,920	-126,307	-0,147	-0,016
-292,905	161,887	0,067	0,067
-291,891	63,838	0,043	-0,031
-290,876	131,847	-0,056	-0,052
-289,862	-200,000	-0,009	0,107
-288,847	507,996	-0,028	0,047
-287,832	176,501	-0,040	-0,042
-286,818	202,664	-0,049	0,054
-285,803	61,680	0,088	0,062
-284,789	265,074	-0,069	-0,086
-283,774	-29,968	0,088	0,035
-282,759	-189,059	0,033	-0,000
-281,745	-77,117	0,090	0,022
-280,730	-200,000	-0,001	-0,036
-279,716	800,000	0,019	0,049
-278,701	-12,786	-0,051	0,024
-277,686	-200,000	0,013	-0,048
-276,672	-200,000	-0,023	0,125
-275,657	17,930	0,107	0,061
-274,643	-200,000	0,012	-0,062
-273,628	-126,195	-0,069	-0,007
-272,613	-125,596	0,044	0,005
-271,599	160,810	-0,115	0,115
-270,584	-200,000	-0,016	0,108
-269,570	416,272	0,015	0,022
-268,555	800,000	0,016	0,037
-267,540	800,000	-0,035	-0,072
-266,526	283,958	-0,026	-0,034
-265,511	800,000	0,021	-0,062
-264,497	95,236	-0,040	-0,032
-263,482	-119,034	0,008	-0,001
-262,467	-200,000	-0,009	-0,102
-261,453	-200,000	-0,043	0,139
-260,438	11,233	0,102	0,055
-259,424	53,082	-0,136	0,093
-258,409	-11,804	-0,111	0,052
-257,395	-200,000	0,034	-0,150
-256,380	-200,000	0,003	0,017
-255,365	-200,000	-0,029	0,182
-254,351	633,064	0,072	0,131
-253,336	800,000	-0,011	0,031
-252,322	-46,581	0,132	-0,046
-251,307	800,000	-0,039	0,110
-250,292	139,739	0,092	-0,087
-249,278	-169,252	0,036	-0,001
-248,263	608,196	-0,026	0,046
-247,249	421,769	-0,037	-0,057
-246,234	120,367	0,029	0,026
-245,219	437,202	-0,111	-0,173
-244,205	168,198	-0,099	-0,101
-243,190	-149,615	0,100	0,006
-242,176	477,225	0,089	0,144
-241,161	800,000	0,013	0,029
-240,146	194,692	0,028	0,030
-239,132	-200,000	0,002	0,016
-238,117	800,000	-0,041	-0,127
-237,103	800,000	0,063	-0,172
-236,088	-200,000	0,001	0,079
-235,073	-200,000	0,005	0,049
-234,059	800,000	-0,029	-0,079
-233,044	800,000	-0,023	0,047
-232,030	-200,000	-0,017	0,109
-231,015	515,729	-0,058	-0,098
-230,000	194,471	0,047	-0,051
-228,986	-190,857	-0,054	-0,000
-227,971	-161,191	0,126	0,005
-226,957	-162,057	0,173	0,006
-225,942	-200,000	-0,005	0,069
-224,927	114,471	-0,209	-0,182
-223,913	-25,505	-0,128	-0,054
-222,898	464,443	-0,063	-0,101
-221,884	-200,000	-0,005	-0,030
-220,869	-53,025	0,099	-0,032
-219,855	-43,591	0,159	0,057
-218,840	152,438	0,063	0,061
-217,825	-99,291	-0,043	0,008
-216,811	66,276	-0,047	0,034
-215,796	-69,304	0,057	-0,015
-214,782	-151,237	-0,088	-0,005
-213,767	68,974	0,108	-0,079
-212,752	-94,184	0,089	-0,017
-211,738	171,375	0,061	0,062
-210,723	-66,803	-0,113	0,032
-209,709	-200,000	-0,046	-0,167
-208,694	800,000	-0,063	-0,196
-207,679	184,013	0,070	-0,074
-206,665	94,778	-0,150	0,122
-205,650	-24,912	0,176	-0,074
-204,636	-140,113	0,097	0,007
-203,621	-200,000	-0,031	0,146
-202,606	-200,000	-0,031	0,141
-201,592	-200,000	0,002	-0,093
-200,577	800,000	0,022	-0,050
-199,563	28,736	0,045	0,027
-198,548	-200,000	-0,010	0,107
-197,533	-105,403	-0,011	-0,002
-196,519	-87,151	-0,112	0,024
-195,504	-200,000	-0,026	-0,091
-194,490	54,875	0,044	0,030
-193,475	599,511	-0,083	-0,148
-192,460	-76,716	0,083	0,020
-191,446	-200,000	0,008	0,037
-190,431	212,773	0,028	0,031
-189,417	44,877	0,031	0,021
-188,402	230,255	-0,062	-0,073
-187,387	-149,899	-0,135	-0,007
-186,373	-116,164	-0,081	0,011
-185,358	800,000	-0,012	0,030
-184,344	134,296	-0,040	0,037
-183,329	-187,461	0,052	0,000
-182,315	8,275	0,076	-0,041
-181,300	33,784	-0,033	-0,020
-180,285	172,122	0,040	0,041
-179,271	-200,000	0,039	-0,140
-178,256	783,378	0,061	-0,120
-177,242	-138,800	0,026	-0,002
-176,227	-1,939	-0,055	0,027
-175,212	-200,000	-0,019	-0,068
-174,198	93,753	0,089	-0,072
-173,183	800,000	-0,057	-0,159
-172,169	182,110	-0,082	-0,086
-171,154	322,630	-0,068	-0,093
-170,139	-200,000	0,001	-0,015
-169,125	81,090	-0,076	0,058
-168,110	-200,000	0,021	0,102
-167,096	-200,000	0,001	-0,057
-166,081	164,047	-0,068	-0,068
-165,066	-200,000	0,003	-0,049
-164,052	-200,000	0,037	0,126
-163,037	193,794	0,137	-0,147
-162,023	-123,438	-0,119	-0,013
-161,008	-200,000	-0,016	0,145
-159,993	800,000	0,045	0,113
-158,979	348,168	0,064	-0,090
-157,964	143,530	0,022	-0,021
-156,950	-16,357	0,071	0,032
-155,935	145,757	0,098	0,094
-154,920	-84,318	0,051	-0,011
-153,906	-69,553	0,027	-0,007
-152,891	120,314	0,059	-0,052
-151,877	-98,411	0,069	-0,012
-150,862	-200,000	0,004	0,020
-149,847	25,353	0,101	-0,060
-148,833	-114,832	0,079	-0,011
-147,818	19,254	0,083	0,047
-146,804	-200,000	-0,001	0,019
-145,789	780,739	0,007	-0,013
-144,775	0,224	0,174	0,088
-143,760	800,000	0,057	-0,146
-142,745	138,122	0,060	-0,056
-141,731	-200,000	-0,028	-0,152
-140,716	800,000	-0,009	-0,022
-139,702	-95,654	0,097	0,018
-138,687	60,202	-0,213	-0,150
-137,672	-200,000	-0,039	0,123
-136,658	12,099	-0,083	-0,046
-135,643	411,995	-0,042	0,064
-134,629	-200,000	0,018	-0,095
-133,614	-95,064	-0,078	-0,015
-132,599	-200,000	0,014	0,047
-131,585	-200,000	-0,015	0,127
-130,570	269,316	-0,058	0,073
-129,556	-200,000	-0,014	-0,046
-128,541	-7,426	-0,073	-0,035
-127,526	139,630	-0,009	-0,008
-126,512	-24,064	-0,047	0,020
-125,497	402,756	0,092	0,138
-124,483	55,826	0,059	-0,040
-123,468	-27,994	-0,048	-0,020
-122,453	-41,979	0,164	-0,059
-121,439	-114,483	-0,089	-0,012
-120,424	800,000	-0,022	-0,054
-119,410	-200,000	0,004	0,029
-118,395	-91,206	0,118	-0,024
-117,380	451,647	-0,030	0,047
-116,366	555,883	-0,011	-0,019
-115,351	294,444	-0,043	0,056
-114,337	-200,000	0,013	-0,103
-113,322	-76,297	-0,088	0,022
-112,307	-9,532	0,096	-0,045
-111,293	330,331	-0,077	-0,105
-110,278	24,429	0,086	-0,050
-109,264	-75,607	0,144	-0,036
-108,249	263,356	-0,076	-0,094
-107,234	746,658	-0,093	-0,179
-106,220	-200,000	0,039	-0,164
-105,205	800,000	-0,029	-0,065
-104,191	130,918	0,070	0,064
-103,176	800,000	-0,022	0,064
-102,162	373,984	-0,060	-0,087
-101,147	-16,915	-0,134	-0,060
-100,132	-182,709	-0,082	0,001
-99,118	-200,000	0,008	-0,059
-98,103	-73,736	-0,022	-0,006
-97,089	-147,910	-0,066	0,004
-96,074	-200,000	0,008	0,152
-95,059	800,000	0,026	0,057
-94,045	58,531	-0,060	0,042
-93,030	222,508	-0,078	-0,090
-92,016	-107,121	0,169	0,026
-91,001	-200,000	0,000	-0,076
-89,986	296,690	0,018	-0,024
-88,972	761,708	0,030	0,057
-87,957	-177,521	0,195	-0,003
-86,943	-200,000	0,023	0,131
-85,928	800,000	0,076	-0,222
-84,913	-200,000	0,042	-0,134
-83,899	800,000	0,016	-0,037
-82,884	800,000	0,045	-0,112
-81,870	351,816	-0,044	-0,062
-80,855	5,481	0,050	0,026
-79,840	99,413	0,050	-0,041
-78,826	-68,550	-0,092	-0,025
-77,811	800,000	-0,011	0,026
-76,797	61,070	-0,027	0,019
-75,782	349,807	0,076	0,106
-74,767	449,433	0,100	0,157
-73,753	800,000	-0,045	-0,133
-72,738	697,623	0,051	-0,096
-71,724	800,000	0,070	-0,205
-70,709	800,000	-0,037	-0,086
-69,694	-149,801	-0,060	-0,003
-68,680	144,239	0,085	0,080
-67,665	418,164	-0,048	0,073
-66,651	-200,000	-0,012	0,050
-65,636	28,797	0,088	0,053
-64,622	-200,000	0,014	-0,065
-63,607	-200,000	0,005	-0,136
-62,592	-200,000	0,011	0,115
-61,578	-3,161	0,029	0,015
-60,563	-17,877	0,069	0,031
-59,549	-200,000	-0,001	0,165
-58,534	-44,449	-1,625	-0,573
-57,519	442,249	-1,386	-2,158
-56,505	-200,000	-0,604	-4,594
-55,490	224,886	1,011	1,161
-54,476	800,000	5,012	11,460
-53,461	-200,000	18,922	313,828
-52,446	-200,000	740,103	2326,494
-51,432	573,939	1655,764	2872,802
-50,417	78,808	1671,042	1265,425
-49,403	21,729	1543,528	888,209
-48,388	15,633	1466,033	813,965
-47,373	17,884	1456,098	819,299
-46,359	16,779	1446,323	808,464
-45,344	13,886	1441,594	791,927
-44,330	13,796	1439,714	790,431
-43,315	13,770	1438,080	789,378
-42,300	13,784	1436,392	788,488
-41,286	13,817	1435,120	787,914
-40,271	13,802	1433,778	787,076
-39,257	13,788	1432,428	786,236
-38,242	13,904	1431,113	786,035
-37,227	13,871	1430,126	785,308
-36,213	13,845	1428,715	784,374
-35,198	13,831	1427,568	783,650
-34,184	13,893	1426,697	783,433
-33,169	13,868	1425,170	782,447
-32,154	13,868	1424,093	781,825
-31,140	13,896	1422,657	781,135
-30,125	13,904	1421,824	780,685
-29,111	13,829	1420,718	779,694
-28,096	13,799	1419,596	778,905
-27,082	13,772	1418,641	778,221
-26,067	13,818	1417,310	777,677
-25,052	13,769	1416,334	776,883
-24,038	13,756	1415,250	776,195
-23,023	13,763	1414,108	775,572
-22,009	13,762	1413,269	775,073
-20,994	13,727	1412,505	774,463
-19,979	13,754	1411,665	774,096
-18,965	13,722	1410,619	773,341
-17,950	13,747	1409,579	772,857
-16,936	13,743	1408,784	772,375
-15,921	13,736	1407,762	771,750
-14,906	13,700	1406,817	771,034
-13,892	13,734	1405,850	770,630
-12,877	13,723	1404,788	769,968
-11,863	13,711	1404,041	769,470
-10,848	13,668	1403,107	768,727
-9,833	13,670	1402,310	768,270
-8,819	13,627	1401,349	767,510
-7,804	13,609	1400,505	766,937
-6,790	13,582	1399,273	766,106
-5,775	13,579	1398,449	765,609
-4,760	13,594	1397,397	765,071
-3,746	13,586	1396,685	764,616
-2,731	13,616	1395,634	764,150
-1,717	13,571	1394,960	763,539
-0,702	13,570	1393,187	762,535
0,313	17,262	1310,863	734,643
1,327	33,292	705,097	432,295
2,342	51,483	123,682	83,070
3,356	2,026	16,726	8,520
4,371	8,897	3,217	1,713
5,386	-71,723	0,597	0,157
6,400	-200,000	-0,013	0,202
7,415	290,626	-0,221	-0,285
8,429	-39,290	-0,230	-0,085
9,444	16,348	-0,238	-0,133
10,459	-10,889	-0,245	-0,114
11,473	335,931	-0,170	-0,234
12,488	-120,318	-0,294	-0,035
13,502	105,560	-0,242	-0,202
14,517	-0,992	-0,403	-0,201
15,531	121,228	-0,309	-0,272
16,546	20,610	-0,415	-0,237
17,561	210,267	-0,251	-0,279
18,575	-26,585	-0,259	-0,107
19,590	134,179	-0,249	-0,228
20,604	34,638	-0,218	-0,134
21,619	20,729	-0,509	-0,290
22,634	10,418	-0,504	-0,270
23,648	187,702	-0,415	-0,438
24,663	140,913	-0,340	-0,317
25,677	91,864	-0,363	-0,288
26,692	-2,873	-0,372	-0,183
27,707	29,077	-0,402	-0,240
28,721	297,707	-0,267	-0,347
29,736	30,784	-0,424	-0,256
30,750	-16,252	-0,452	-0,202
31,765	172,591	-0,338	-0,344
32,780	15,415	-0,458	-0,253
33,794	132,318	-0,305	-0,278
34,809	14,230	-0,330	-0,181
35,823	89,143	-0,431	-0,338
36,838	54,330	-0,410	-0,278
37,853	197,429	-0,314	-0,339
38,867	298,728	-0,241	-0,314
39,882	50,149	-0,356	-0,237
40,896	-3,437	-0,456	-0,223
41,911	198,126	-0,303	-0,327
42,926	41,424	-0,341	-0,217
43,940	-9,210	-0,406	-0,191
44,955	96,605	-0,264	-0,213
45,969	117,320	-0,335	-0,290
46,984	75,274	-0,262	-0,195
47,999	73,233	-0,367	-0,270
49,013	19,387	-0,185	-0,105
50,028	-86,173	-0,374	-0,081
51,042	36,042	-0,375	-0,232
52,057	6,798	-0,383	-0,200
53,071	21,956	-0,346	-0,198
54,086	138,874	-0,220	-0,204
55,101	49,012	-0,267	-0,176
56,115	-28,439	-0,352	-0,143
57,130	94,968	-0,282	-0,226
58,144	377,779	-0,209	-0,302
59,159	170,111	-0,326	-0,329
60,174	78,984	-0,459	-0,346
61,188	-48,306	-0,266	-0,090
62,203	-48,489	-0,197	-0,066
63,217	11,315	-0,376	-0,202
64,232	50,315	-0,432	-0,287
65,247	103,822	-0,250	-0,206
66,261	82,484	-0,329	-0,251
67,276	134,526	-0,415	-0,379
68,290	-24,010	-0,453	-0,190
69,305	0,124	-0,280	-0,140
70,320	36,748	-0,303	-0,188
71,334	-38,715	-0,457	-0,169
72,349	3,879	-0,348	-0,178
73,363	-25,937	-0,433	-0,178
74,378	24,110	-0,364	-0,211
75,393	-15,218	-0,282	-0,126
76,407	-6,045	-0,168	-0,080
77,422	21,535	-0,216	-0,123
78,436	76,413	-0,413	-0,307
79,451	82,928	-0,289	-0,221
80,466	164,962	-0,183	-0,182
81,480	-20,884	-0,421	-0,181
82,495	442,083	-0,151	-0,232
83,509	208,859	-0,234	-0,258
84,524	201,851	-0,175	-0,189
85,539	103,134	-0,274	-0,225
86,553	52,239	-0,262	-0,175
87,568	0,062	-0,461	-0,230
88,582	498,989	-0,173	-0,282
89,597	84,206	-0,340	-0,261
90,611	-84,303	-0,366	-0,081
91,626	48,768	-0,257	-0,169
92,641	528,149	-0,104	-0,173
93,655	-4,672	-0,325	-0,157
94,670	800,000	-0,134	-0,284
95,684	15,779	-0,279	-0,154
96,699	80,721	-0,317	-0,240
97,714	800,000	-0,125	-0,250
98,728	42,816	-0,307	-0,196
99,743	-24,396	-0,187	-0,078
100,757	86,980	-0,371	-0,288
101,772	101,620	-0,208	-0,170
102,787	103,532	-0,307	-0,253
103,801	-81,379	-0,412	-0,095
104,816	71,187	-0,311	-0,226
105,830	176,271	-0,212	-0,216
106,845	800,000	-0,095	-0,277
107,860	112,676	-0,213	-0,181
108,874	4,821	-0,217	-0,111
109,889	-87,560	-0,327	-0,069
110,903	-114,039	-0,278	-0,037
111,918	141,807	-0,220	-0,205
112,933	47,912	-0,223	-0,146
113,947	139,678	-0,230	-0,212
114,962	4,581	-0,225	-0,116
115,976	24,789	-0,330	-0,191
116,991	-57,113	-0,172	-0,053
118,006	42,570	-0,329	-0,209
119,020	80,988	-0,291	-0,220
120,035	197,546	-0,211	-0,226
121,049	800,000	-0,141	-0,334
122,064	-31,880	-0,248	-0,097
123,079	-20,661	-0,380	-0,163
124,093	-11,086	-0,340	-0,157
125,108	70,143	-0,290	-0,209
126,122	39,046	-0,215	-0,135
127,137	171,310	-0,133	-0,134
128,151	-68,905	-0,291	-0,078
129,166	423,751	-0,154	-0,232
130,181	-23,702	-0,320	-0,134
131,195	-60,163	-0,305	-0,090
132,210	157,190	-0,232	-0,225
133,224	800,000	-0,130	-0,257
134,239	125,021	-0,177	-0,156
135,254	8,419	-0,189	-0,099
136,268	-143,559	-0,289	-0,019
137,283	197,429	-0,272	-0,290
138,297	-36,232	-0,346	-0,130
139,312	274,918	-0,205	-0,254
140,327	-20,076	-0,395	-0,170
141,341	-88,260	-0,282	-0,059
142,356	-20,567	-0,270	-0,116
143,370	-17,355	-0,181	-0,079
144,385	48,553	-0,272	-0,178
145,400	800,000	-0,132	-0,284
146,414	7,805	-0,284	-0,148
147,429	194,538	-0,296	-0,315
148,443	29,333	-0,259	-0,154
149,458	781,771	-0,133	-0,256
150,473	97,176	-0,192	-0,154
151,487	61,342	-0,431	-0,299
152,502	49,981	-0,205	-0,135
153,516	45,196	-0,302	-0,194
154,531	236,290	-0,265	-0,307
155,546	800,000	-0,142	-0,309
156,560	130,796	-0,186	-0,167
157,575	16,837	-0,162	-0,089
158,589	13,769	-0,297	-0,161
159,604	120,470	-0,312	-0,270
160,619	228,404	-0,260	-0,297
161,633	33,361	-0,196	-0,118
162,648	78,047	-0,275	-0,205
163,662	6,259	-0,297	-0,153
164,677	-23,625	-0,171	-0,071
165,692	402,778	-0,148	-0,218
166,706	264,308	-0,216	-0,263
167,721	105,668	-0,187	-0,154
168,735	142,699	-0,161	-0,150
169,750	431,976	-0,100	-0,152
170,764	378,261	-0,160	-0,230
171,779	18,015	-0,196	-0,108
172,794	93,314	-0,210	-0,165
173,808	-64,357	-0,112	0,032
174,823	107,702	-0,282	-0,234
175,837	-186,924	-0,430	-0,004
176,852	56,375	-0,155	-0,105
177,867	-0,287	-0,281	-0,139
178,881	-153,245	-0,252	-0,012
179,896	-151,115	-0,110	-0,006
180,910	33,711	-0,244	-0,148
181,925	651,185	-0,190	-0,341
182,940	153,209	-0,202	-0,193
183,954	133,305	-0,199	-0,179
184,969	-35,106	-0,187	-0,071
185,983	125,664	-0,191	-0,168
186,998	-93,156	-0,273	0,053
188,013	56,605	-0,193	-0,130
189,027	29,878	-0,242	-0,143
190,042	641,018	-0,101	-0,180
191,056	92,422	-0,208	-0,164
192,071	209,399	-0,197	-0,216
193,086	417,145	-0,036	-0,054
194,100	-22,869	-0,228	-0,095
195,115	-138,559	-0,234	0,018
196,129	54,643	-0,303	-0,203
197,144	90,241	-0,176	-0,137
198,159	131,068	-0,184	-0,165
199,173	-16,964	-0,183	-0,080
200,188	-70,116	-0,184	0,048
201,202	-1,021	-0,328	-0,161
202,217	-17,154	-0,212	-0,093
203,232	-9,867	-0,277	-0,128
204,246	113,191	-0,186	-0,157
205,261	244,246	-0,192	-0,224
206,275	-200,000	-0,017	-0,143
207,290	89,042	-0,221	-0,171
208,304	800,000	-0,072	-0,151
209,319	800,000	-0,061	-0,141
210,334	800,000	-0,100	-0,207
211,348	452,254	-0,146	-0,226
212,363	228,374	-0,229	-0,260
213,377	-200,000	-0,053	-0,207
214,392	29,605	-0,139	-0,082
215,407	-33,414	-0,134	-0,051
216,421	-110,700	-0,164	-0,023
217,436	220,411	-0,129	-0,144
218,450	435,133	-0,134	-0,202
219,465	25,258	-0,317	-0,182
220,480	-38,906	-0,302	-0,110
221,494	568,106	-0,103	-0,175
222,509	-8,853	-0,091	-0,042
223,523	92,253	-0,181	-0,142
224,538	-98,844	-0,152	-0,027
225,553	17,915	-0,189	-0,104
226,567	-66,142	-0,363	-0,100
227,582	-24,520	-0,263	-0,108
228,596	133,634	-0,243	-0,218
229,611	-16,420	-0,222	-0,097
230,626	105,995	-0,152	-0,125
231,640	-18,645	-0,100	-0,043
232,655	-104,900	-0,172	-0,027
233,669	114,035	-0,152	-0,129
234,684	58,756	-0,267	-0,181
235,699	166,880	-0,133	-0,131
236,713	-35,227	-0,125	-0,047
237,728	50,915	-0,240	-0,157
238,742	270,617	-0,166	-0,203
239,757	-156,360	-0,051	0,002
240,772	173,738	-0,215	-0,216
241,786	175,506	-0,185	-0,186
242,801	145,008	-0,204	-0,189
243,815	20,367	-0,147	-0,082
244,830	121,473	-0,195	-0,168
245,844	211,500	-0,114	-0,124
246,859	-200,000	-0,047	-0,153
247,874	280,030	-0,199	-0,247
248,888	118,306	-0,345	-0,295
249,903	121,649	-0,146	-0,126
250,917	-200,000	-0,017	-0,208
251,932	348,286	-0,130	-0,179
252,947	-64,126	-0,162	-0,046
253,961	114,990	-0,223	-0,188
254,976	-200,000	0,013	-0,175
255,990	40,276	-0,235	-0,146
257,005	800,000	-0,113	-0,217
258,020	163,082	-0,234	-0,228
259,034	-43,600	-0,169	-0,059
260,049	800,000	-0,028	-0,054
261,063	-23,925	-0,168	-0,069
262,078	26,311	-0,193	-0,112
263,093	-103,161	-0,077	-0,012
264,107	-95,868	-0,176	-0,032
265,122	-4,462	-0,098	-0,047
266,136	647,352	-0,107	-0,190
267,151	-200,000	-0,024	-0,159
268,166	459,927	-0,170	-0,262
269,180	-7,156	-0,229	-0,107
270,195	344,825	-0,088	-0,120
271,209	752,480	-0,138	-0,258
272,224	-200,000	-0,035	-0,186
273,239	245,881	-0,143	-0,167
274,253	99,504	-0,141	-0,113
275,268	800,000	-0,062	-0,143
276,282	-48,199	-0,271	-0,090
277,297	52,914	-0,165	-0,109
278,312	61,594	-0,120	-0,083
279,326	-18,399	-0,162	-0,070
280,341	800,000	-0,050	-0,149
281,355	438,077	-0,103	-0,155
282,370	137,689	-0,208	-0,189
283,384	100,727	-0,174	-0,139
284,399	119,144	-0,292	-0,250
285,414	800,000	-0,120	-0,232
286,428	800,000	-0,064	-0,160
287,443	-73,787	-0,041	0,010
288,457	81,426	-0,126	-0,094
289,472	-112,599	-0,077	-0,011
290,487	-76,597	-0,235	-0,057
291,501	60,602	-0,182	-0,124
292,516	190,044	-0,145	-0,150
293,530	143,280	-0,082	-0,075
294,545	-200,000	-0,002	-0,098
295,560	506,230	-0,069	-0,111
296,574	-200,000	-0,047	-0,167
297,589	262,657	-0,149	-0,179
298,603	390,762	-0,120	-0,172
299,618	62,450	-0,108	-0,074
300,633	198,303	-0,055	0,058
301,647	-45,743	-0,104	-0,035
302,662	-50,117	-0,170	0,055
303,676	-23,380	-0,156	-0,064
304,691	56,047	-0,205	-0,137
305,706	9,956	-0,224	-0,117
306,720	-195,274	-0,209	-0,001
307,735	-200,000	0,023	-0,153
308,749	-200,000	-0,027	-0,144
309,764	-48,272	-0,326	-0,108
310,779	-57,286	-0,154	-0,046
311,793	742,121	-0,095	-0,176
312,808	-200,000	-0,063	-0,288
313,822	303,359	-0,150	-0,193
314,837	275,738	-0,142	-0,174
315,852	423,052	-0,150	-0,223
316,866	104,043	-0,108	-0,087
317,881	121,045	-0,138	-0,119
318,895	544,213	-0,059	-0,098
319,910	228,448	-0,126	-0,142
320,925	288,634	-0,210	-0,262
321,939	-39,810	-0,167	-0,060
322,954	17,131	-0,215	-0,117
323,968	21,073	-0,211	-0,118
324,983	30,089	-0,160	-0,093
325,997	377,306	-0,050	-0,070
327,012	-200,000	-0,054	-0,190
328,027	-57,625	-0,183	-0,055
329,041	201,822	-0,140	-0,148
330,056	9,226	-0,112	-0,058
331,070	800,000	-0,052	-0,143
332,085	-64,301	-0,064	-0,018
333,100	357,161	-0,068	-0,094
334,114	-64,980	-0,143	0,039
335,129	58,313	-0,225	-0,151
336,143	55,565	-0,128	-0,085
337,158	164,715	-0,045	0,044
338,173	26,256	-0,206	-0,118
339,187	18,266	-0,121	0,066
340,202	202,364	-0,041	-0,044
341,216	150,902	-0,125	-0,117
342,231	301,452	-0,132	-0,168
343,246	199,070	-0,086	-0,091
344,260	-81,690	-0,087	-0,019
345,275	250,765	-0,037	-0,043
346,289	-200,000	0,010	-0,216
347,304	14,162	-0,073	-0,039
348,319	134,438	-0,055	-0,049
349,333	485,139	-0,124	-0,194
350,348	-71,156	-0,080	-0,021
351,362	-200,000	0,005	-0,066
352,377	-79,270	-0,102	-0,023
353,392	-68,958	-0,245	-0,064
354,406	154,348	-0,244	-0,230
355,421	208,754	1312,783	1411,840
356,435	160,632	1473,290	1412,326
