DTS Sentinel unit serial number:	SN410029Multiplexer serial number:	ORYXHardware model number:	OX2-SRSoftware version number:	ORYX F/W v4,00 Oryx Data Collector v3.7.2.0data status	okinstallation	B3 Nyhavnadifferential loss correction	single-endedforward channel	channel 1reverse channel	N/Adate	2023/12/04time	08:57:30forward acquisition time	300,00reverse acquisition time	0,00gamma	499,1914k internal	0,3203k external	0,3203temperature offset calibration	1,0000default loss term (dB/km)	0,3820temperature slope calibration	1,0000multiplexer offset coefficient	1,0000multiplexer slope coefficient	1,0000fibre end	0,00T internal ref (°C)	12,94T ext. ref 1 (°C)	-1,42T ext. ref 2 (°C)	-1,46length (m)	temperature (°C)	Stokes	anti-Stokes-744,400	52,097	-0,300	-0,207
-743,385	-200,000	-0,050	0,213
-742,371	-41,228	-0,323	-0,120
-741,356	-200,000	0,012	0,208
-740,342	25,756	-0,226	-0,136
-739,327	-200,000	0,047	0,171
-738,312	103,089	-0,280	-0,239
-737,298	800,000	0,098	0,248
-736,283	353,373	-0,117	-0,169
-735,269	-200,000	0,059	0,225
-734,254	57,181	-0,199	-0,141
-733,239	-2,108	-0,109	0,056
-732,225	-200,000	-0,053	-0,234
-731,210	-147,554	0,264	-0,016
-730,196	469,253	-0,094	-0,154
-729,181	-156,969	-0,052	0,002
-728,167	800,000	0,017	0,046
-727,152	-200,000	0,022	-0,120
-726,137	224,190	0,059	-0,070
-725,123	-200,000	-0,010	-0,098
-724,108	-30,553	-0,141	-0,058
-723,094	-32,621	-0,108	-0,044
-722,079	800,000	-0,052	-0,162
-721,064	-81,859	-0,132	-0,031
-720,050	-200,000	0,003	-0,143
-719,035	-110,491	0,091	-0,014
-718,021	61,403	0,098	-0,070
-717,006	-200,000	0,009	-0,263
-715,991	83,138	-0,089	0,070
-714,977	-200,000	-0,021	-0,171
-713,962	800,000	-0,040	0,111
-712,948	-200,000	0,018	0,149
-711,933	-47,380	-0,213	0,075
-710,918	800,000	-0,045	-0,142
-709,904	-200,000	-0,012	-0,066
-708,889	-200,000	-0,010	-0,061
-707,875	73,233	-0,107	-0,081
-706,860	342,899	-0,079	0,113
-705,845	124,024	0,102	0,093
-704,831	-200,000	-0,035	0,120
-703,816	131,188	-0,057	-0,053
-702,802	400,116	-0,062	-0,095
-701,787	499,448	-0,080	-0,134
-700,772	-200,000	-0,031	-0,130
-699,758	800,000	-0,015	-0,037
-698,743	-142,869	0,199	-0,014
-697,729	-46,679	-0,128	-0,045
-696,714	-7,036	0,027	0,013
-695,699	369,347	-0,070	0,103
-694,685	-177,108	-0,079	0,001
-693,670	544,669	-0,113	-0,197
-692,656	522,017	0,055	-0,093
-691,641	800,000	-0,038	-0,113
-690,627	-94,151	0,078	-0,015
-689,612	800,000	0,014	0,034
-688,597	800,000	-0,074	-0,231
-687,583	164,906	-0,097	-0,099
-686,568	-122,027	-0,078	0,009
-685,554	141,885	-0,034	-0,033
-684,539	-200,000	0,005	-0,092
-683,524	-146,124	-0,088	-0,006
-682,510	-200,000	0,019	-0,090
-681,495	-103,877	-0,103	0,017
-680,481	167,157	-0,101	0,105
-679,466	760,127	0,013	-0,026
-678,451	800,000	-0,051	-0,121
-677,437	39,840	-0,046	-0,030
-676,422	257,879	0,071	0,089
-675,408	373,809	-0,075	0,111
-674,393	-200,000	0,008	-0,033
-673,378	-200,000	-0,034	-0,138
-672,364	92,265	0,004	0,003
-671,349	-200,000	0,009	0,038
-670,335	140,500	0,024	0,023
-669,320	-105,999	0,258	0,042
-668,305	-200,000	0,013	-0,138
-667,291	-65,123	0,035	-0,010
-666,276	-200,000	-0,017	-0,162
-665,262	140,361	0,056	-0,053
-664,247	30,706	0,071	-0,044
-663,232	0,370	0,058	0,030
-662,218	513,819	-0,015	0,025
-661,203	148,119	-0,076	0,075
-660,189	-78,449	-0,079	0,019
-659,174	515,618	-0,114	-0,194
-658,159	-200,000	0,000	0,002
-657,145	175,639	0,085	-0,089
-656,130	39,902	-0,072	-0,047
-655,116	-121,218	0,091	0,011
-654,101	-200,000	-0,025	0,126
-653,086	41,353	0,046	0,030
-652,072	22,049	-0,139	0,082
-651,057	-200,000	0,021	-0,102
-650,043	-168,369	-0,068	-0,002
-649,028	20,747	-0,075	-0,044
-648,014	-43,732	0,067	-0,024
-646,999	98,726	0,021	-0,018
-645,984	-17,158	-0,021	0,010
-644,970	206,879	-0,081	-0,091
-643,955	-114,355	-0,121	-0,017
-642,941	-200,000	0,030	-0,116
-641,926	290,708	-0,006	0,008
-640,911	-98,000	0,025	-0,005
-639,897	521,833	0,041	0,070
-638,882	42,136	0,049	0,032
-637,868	508,017	-0,044	-0,074
-636,853	35,063	-0,063	-0,040
-635,838	286,839	-0,072	-0,095
-634,824	92,855	-0,013	0,011
-633,809	97,713	0,102	0,085
-632,795	493,599	0,037	0,062
-631,780	-29,682	0,131	0,054
-630,765	-119,129	-0,052	-0,007
-629,751	-200,000	0,005	0,058
-628,736	-37,487	0,056	0,021
-627,722	478,991	0,088	-0,145
-626,707	-6,498	0,069	-0,034
-625,692	-25,841	0,139	-0,059
-624,678	-200,000	0,001	0,018
-623,663	153,120	-0,028	-0,027
-622,649	-200,000	-0,011	-0,088
-621,634	40,360	-0,115	-0,075
-620,619	-47,719	-0,125	0,044
-619,605	-200,000	0,021	-0,081
-618,590	237,762	-0,050	-0,060
-617,576	-200,000	0,006	-0,059
-616,561	-200,000	-0,013	-0,072
-615,546	-200,000	0,013	-0,069
-614,532	40,412	-0,113	-0,073
-613,517	207,100	-0,143	-0,161
-612,503	-15,805	0,143	-0,066
-611,488	2,926	0,056	0,029
-610,474	800,000	0,066	0,143
-609,459	155,660	-0,047	-0,047
-608,444	344,443	0,076	-0,109
-607,430	285,688	-0,047	-0,061
-606,415	-200,000	0,006	0,067
-605,401	800,000	-0,024	-0,069
-604,386	5,461	0,076	-0,040
-603,371	-4,441	0,120	0,060
-602,357	316,823	0,126	0,173
-601,342	-85,330	-0,141	-0,032
-600,328	190,077	-0,116	-0,126
-599,313	-200,000	0,035	-0,195
-598,298	-173,685	-0,053	-0,001
-597,284	335,852	-0,077	-0,108
-596,269	-119,963	0,171	0,021
-595,255	-200,000	-0,011	0,071
-594,240	9,945	0,085	-0,046
-593,225	555,615	0,032	-0,056
-592,211	100,767	-0,130	-0,109
-591,196	-29,666	0,054	-0,022
-590,182	-150,469	-0,037	0,002
-589,167	38,792	-0,098	0,063
-588,152	-200,000	0,039	0,140
-587,138	340,485	-0,023	0,033
-586,123	131,350	0,011	0,010
-585,109	-13,637	-0,092	-0,043
-584,094	26,391	-0,094	-0,057
-583,079	-200,000	0,005	0,098
-582,065	431,404	-0,104	0,164
-581,050	-200,000	0,001	-0,077
-580,036	140,691	-0,110	0,105
-579,021	-200,000	-0,014	-0,102
-578,006	-3,327	-0,174	0,087
-576,992	-150,816	-0,209	-0,011
-575,977	-114,985	-0,073	-0,010
-574,963	189,525	0,111	0,121
-573,948	-200,000	0,034	-0,120
-572,934	164,020	-0,034	-0,034
-571,919	800,000	-0,006	0,016
-570,904	-200,000	-0,031	-0,133
-569,890	-54,713	0,103	-0,033
-568,875	-110,219	0,175	0,026
-567,861	4,859	0,179	-0,095
-566,846	127,792	-0,117	0,108
-565,831	398,697	0,069	-0,105
-564,817	75,764	-0,128	0,097
-563,802	-200,000	-0,002	0,050
-562,788	-68,791	-0,125	-0,035
-561,773	-200,000	0,000	-0,006
-560,758	343,650	0,019	0,028
-559,744	16,400	0,105	-0,060
-558,729	-200,000	-0,002	0,183
-557,715	-95,545	-0,085	-0,016
-556,700	-104,982	-0,080	-0,013
-555,685	138,689	-0,064	-0,061
-554,671	653,269	-0,041	0,075
-553,656	800,000	-0,028	-0,069
-552,642	231,374	0,126	0,149
-551,627	665,435	0,011	0,020
-550,612	131,803	-0,102	-0,094
-549,598	800,000	-0,058	-0,138
-548,583	-160,032	-0,065	-0,002
-547,569	703,466	-0,057	0,110
-546,554	139,205	0,007	-0,007
-545,539	173,265	0,050	0,052
-544,525	43,505	-0,055	-0,036
-543,510	-18,469	-0,082	0,037
-542,496	-159,883	-0,036	-0,001
-541,481	-200,000	0,004	-0,115
-540,466	401,186	0,043	-0,065
-539,452	-200,000	0,027	0,089
-538,437	258,049	0,129	0,161
-537,423	-123,285	0,162	-0,018
-536,408	800,000	-0,046	-0,138
-535,393	299,471	0,033	-0,045
-534,379	-26,446	-0,046	-0,019
-533,364	0,136	0,078	-0,040
-532,350	-200,000	-0,002	0,057
-531,335	-200,000	0,021	0,077
-530,321	-173,071	0,144	0,003
-529,306	800,000	0,025	-0,055
-528,291	696,631	-0,055	-0,105
-527,277	-19,799	-0,066	0,029
-526,262	347,590	0,064	-0,091
-525,248	-200,000	-0,036	-0,145
-524,233	-4,148	0,096	0,048
-523,218	421,746	0,020	0,032
-522,204	-200,000	0,035	0,148
-521,189	-200,000	-0,014	-0,048
-520,175	800,000	0,020	-0,046
-519,160	372,804	0,060	0,088
-518,145	-200,000	0,003	-0,044
-517,131	-184,089	0,136	0,002
-516,116	-60,330	0,213	0,065
-515,102	69,456	-0,041	0,030
-514,087	-200,000	0,003	-0,057
-513,072	164,462	-0,033	-0,034
-512,058	148,398	0,014	0,014
-511,043	-200,000	-0,009	0,128
-510,029	491,200	0,004	0,007
-509,014	681,264	0,047	0,089
-507,999	-104,870	0,037	-0,006
-506,985	-124,466	-0,117	-0,013
-505,970	186,209	-0,014	0,015
-504,956	-55,589	-0,032	-0,010
-503,941	-32,677	0,101	-0,040
-502,926	331,059	0,019	0,026
-501,912	-200,000	0,005	0,066
-500,897	-165,667	0,082	-0,003
-499,883	655,471	0,069	-0,129
-498,868	133,630	-0,115	-0,107
-497,853	-200,000	-0,007	0,072
-496,839	-19,773	-0,015	-0,007
-495,824	-200,000	0,027	0,165
-494,810	-200,000	-0,017	0,169
-493,795	206,106	-0,119	0,133
-492,781	-192,906	-0,090	-0,001
-491,766	14,247	-0,055	-0,031
-490,751	73,104	-0,074	-0,056
-489,737	7,290	0,025	0,013
-488,722	-32,148	0,120	0,048
-487,708	4,974	-0,103	0,055
-486,693	-200,000	0,031	0,138
-485,678	-200,000	-0,002	0,094
-484,664	800,000	-0,017	-0,039
-483,649	87,347	0,068	-0,054
-482,635	-21,202	-0,035	0,015
-481,620	-200,000	0,008	0,218
-480,605	-160,259	0,032	-0,001
-479,591	221,511	0,041	0,048
-478,576	-87,156	-0,047	-0,010
-477,562	205,841	0,064	-0,072
-476,547	115,586	0,060	-0,053
-475,532	-200,000	0,018	-0,114
-474,518	158,656	0,076	-0,076
-473,503	151,721	0,081	0,079
-472,489	64,665	0,058	0,042
-471,474	62,685	0,057	-0,041
-470,459	218,969	-0,111	-0,127
-469,445	800,000	0,070	-0,160
-468,430	495,095	-0,049	0,082
-467,416	230,360	-0,057	0,067
-466,401	-111,199	0,162	0,024
-465,386	243,927	0,134	0,162
-464,372	-25,688	-0,063	-0,027
-463,357	498,731	0,012	0,020
-462,343	0,121	-0,046	-0,024
-461,328	-200,000	0,016	-0,076
-460,313	141,597	0,049	-0,046
-459,299	156,862	0,097	-0,096
-458,284	-134,274	-0,019	0,002
-457,270	-200,000	-0,003	-0,049
-456,255	-200,000	0,003	0,064
-455,241	-80,006	-0,182	0,044
-454,226	69,972	-0,060	-0,044
-453,211	800,000	0,040	0,096
-452,197	-200,000	-0,033	0,110
-451,182	-200,000	-0,017	-0,068
-450,168	68,455	-0,036	-0,026
-449,153	-127,640	0,065	-0,007
-448,138	-200,000	-0,009	-0,127
-447,124	11,046	0,031	-0,017
-446,109	161,006	-0,024	-0,024
-445,095	261,479	0,046	0,058
-444,080	147,208	0,066	0,064
-443,065	543,583	0,097	0,167
-442,051	-200,000	0,004	0,044
-441,036	-53,929	-0,038	-0,012
-440,022	380,901	-0,103	-0,152
-439,007	-200,000	-0,005	-0,032
-437,992	-35,538	0,167	-0,065
-436,978	800,000	-0,027	0,076
-435,963	-200,000	0,003	0,046
-434,949	-200,000	-0,043	-0,156
-433,934	-200,000	-0,001	-0,190
-432,919	-13,912	0,079	-0,037
-431,905	800,000	0,031	-0,076
-430,890	-52,658	-0,109	0,036
-429,876	-200,000	-0,017	0,077
-428,861	-3,414	0,184	0,092
-427,846	793,467	0,012	0,024
-426,832	800,000	-0,026	-0,070
-425,817	183,663	-0,076	-0,081
-424,803	-75,328	0,064	-0,016
-423,788	-77,460	0,173	0,043
-422,773	-91,894	0,064	0,013
-421,759	-177,058	-0,047	0,001
-420,744	-200,000	-0,023	-0,161
-419,730	-200,000	0,009	0,101
-418,715	633,273	0,042	0,076
-417,701	-200,000	0,008	-0,085
-416,686	800,000	0,024	0,067
-415,671	437,566	0,079	0,124
-414,657	-200,000	0,003	0,048
-413,642	247,447	-0,068	0,082
-412,628	-58,467	0,029	-0,009
-411,613	-200,000	0,007	-0,135
-410,598	-3,965	-0,122	-0,061
-409,584	289,397	-0,080	0,104
-408,569	-200,000	-0,016	0,086
-407,555	-169,356	-0,026	-0,001
-406,540	336,264	0,063	0,087
-405,525	429,773	-0,026	-0,041
-404,511	28,574	-0,082	-0,049
-403,496	94,639	0,080	-0,065
-402,482	-10,660	0,082	0,039
-401,467	800,000	-0,030	0,082
-400,452	-46,929	-0,029	0,010
-399,438	800,000	0,061	0,127
-398,423	-78,253	-0,096	0,023
-397,409	499,115	-0,021	-0,034
-396,394	-200,000	-0,031	-0,188
-395,379	225,700	0,060	0,070
-394,365	29,025	0,085	0,051
-393,350	-57,297	-0,094	0,029
-392,336	-63,644	-0,016	0,005
-391,321	-152,756	-0,073	0,004
-390,306	-200,000	-0,013	-0,067
-389,292	-200,000	-0,024	-0,089
-388,277	-200,000	-0,029	0,154
-387,263	-200,000	-0,018	0,092
-386,248	800,000	-0,047	0,143
-385,233	-113,369	-0,113	0,016
-384,219	98,446	-0,070	-0,058
-383,204	-200,000	-0,024	-0,084
-382,190	-9,557	-0,067	-0,032
-381,175	800,000	-0,025	-0,061
-380,160	740,420	-0,029	-0,056
-379,146	800,000	0,071	0,156
-378,131	420,112	0,051	-0,079
-377,117	-100,836	0,047	0,008
-376,102	426,359	0,031	-0,049
-375,088	-200,000	0,001	-0,020
-374,073	-200,000	-0,023	0,156
-373,058	22,771	0,076	0,045
-372,044	92,220	-0,049	-0,039
-371,029	-143,173	0,116	-0,008
-370,015	-200,000	0,013	-0,108
-369,000	84,950	-0,021	-0,016
-367,985	152,016	0,040	-0,039
-366,971	183,789	-0,066	-0,070
-365,956	166,940	0,055	-0,056
-364,942	306,114	0,021	0,028
-363,927	-200,000	-0,008	0,151
-362,912	-200,000	0,020	0,121
-361,898	-200,000	-0,015	-0,057
-360,883	102,535	-0,086	-0,072
-359,869	-107,871	-0,125	-0,019
-358,854	541,173	-0,037	-0,063
-357,839	71,814	0,089	-0,067
-356,825	46,171	-0,050	0,033
-355,810	500,240	0,040	-0,066
-354,796	-200,000	-0,017	-0,088
-353,781	128,737	-0,144	-0,131
-352,766	-137,926	-0,160	0,013
-351,752	602,197	0,048	0,085
-350,737	-57,761	0,157	-0,049
-349,723	-200,000	0,016	0,055
-348,708	249,031	0,081	0,098
-347,693	-200,000	0,023	-0,087
-346,679	312,961	0,005	-0,007
-345,664	133,342	-0,095	-0,088
-344,650	22,928	0,085	-0,050
-343,635	-13,534	-0,090	-0,041
-342,620	-47,751	0,101	0,035
-341,606	800,000	-0,037	0,110
-340,591	-200,000	0,001	-0,036
-339,577	-108,325	-0,048	0,007
-338,562	-104,040	-0,076	0,012
-337,548	800,000	-0,058	-0,137
-336,533	48,244	-0,053	-0,036
-335,518	-200,000	0,002	0,010
-334,504	800,000	-0,048	-0,110
-333,489	800,000	0,023	-0,051
-332,475	-200,000	-0,002	-0,057
-331,460	463,498	-0,012	-0,019
-330,445	-200,000	0,005	-0,053
-329,431	-31,353	0,049	-0,020
-328,416	-200,000	0,006	-0,029
-327,402	-200,000	-0,020	-0,129
-326,387	124,497	-0,058	-0,052
-325,372	334,469	-0,073	-0,101
-324,358	98,761	-0,056	-0,046
-323,343	-200,000	0,015	-0,074
-322,329	80,189	0,109	-0,084
-321,314	-80,639	-0,112	0,026
-320,299	800,000	0,067	0,149
-319,285	38,248	0,025	0,016
-318,270	21,210	-0,133	-0,077
-317,256	50,225	-0,025	-0,017
-316,241	339,810	-0,051	0,072
-315,226	-200,000	0,004	0,023
-314,212	160,062	0,034	0,034
-313,197	-121,043	0,081	0,010
-312,183	-39,053	0,049	0,018
-311,168	5,837	-0,079	-0,041
-310,153	-2,949	0,044	-0,022
-309,139	800,000	0,025	0,065
-308,124	170,308	0,026	-0,026
-307,110	-81,642	0,140	-0,033
-306,095	-200,000	-0,010	0,098
-305,080	-110,097	-0,140	-0,021
-304,066	-48,085	-0,165	-0,057
-303,051	201,486	-0,032	-0,036
-302,037	-200,000	0,024	0,100
-301,022	256,697	-0,027	0,034
-300,008	-200,000	-0,032	0,126
-298,993	-168,980	0,124	0,003
-297,978	-200,000	-0,019	-0,069
-296,964	68,922	0,044	-0,032
-295,949	-149,353	0,039	-0,002
-294,935	-17,740	-0,090	-0,040
-293,920	-200,000	0,009	-0,047
-292,905	-197,686	0,078	-0,000
-291,891	11,927	0,128	-0,070
-290,876	278,502	-0,076	0,097
-289,862	800,000	-0,022	-0,068
-288,847	800,000	-0,038	0,091
-287,832	800,000	-0,080	-0,158
-286,818	596,751	-0,032	0,057
-285,803	-87,743	0,093	0,020
-284,789	-200,000	-0,010	-0,090
-283,774	406,599	0,059	0,089
-282,759	-101,770	-0,074	-0,013
-281,745	-63,751	0,005	-0,001
-280,730	73,972	0,023	0,017
-279,716	-99,227	0,085	0,015
-278,701	-54,080	0,101	0,032
-277,686	800,000	0,015	-0,037
-276,672	-200,000	0,038	0,154
-275,657	-93,517	0,066	0,013
-274,643	-59,967	-0,215	-0,065
-273,628	-200,000	-0,036	0,121
-272,613	71,426	-0,019	0,014
-271,599	164,680	0,029	0,030
-270,584	-16,093	0,063	-0,029
-269,570	-200,000	0,035	0,112
-268,555	206,581	0,090	-0,100
-267,540	-200,000	0,015	0,103
-266,526	-101,276	-0,143	-0,025
-265,511	-200,000	0,007	-0,047
-264,497	147,126	-0,021	0,020
-263,482	646,078	-0,063	0,115
-262,467	-16,680	0,084	0,038
-261,453	-140,515	0,082	-0,006
-260,438	-34,883	0,092	0,036
-259,424	-200,000	-0,001	-0,083
-258,409	-200,000	0,011	0,063
-257,395	202,523	-0,094	0,104
-256,380	273,939	0,086	0,109
-255,365	260,571	0,108	0,134
-254,351	-200,000	-0,004	0,093
-253,336	-200,000	-0,009	0,142
-252,322	800,000	-0,045	-0,121
-251,307	260,721	-0,055	-0,068
-250,292	70,674	-0,054	0,040
-249,278	-200,000	-0,003	0,053
-248,263	15,899	-0,002	-0,001
-247,249	176,877	0,036	-0,037
-246,234	-200,000	0,024	0,144
-245,219	800,000	-0,039	-0,098
-244,205	800,000	0,069	-0,211
-243,190	-200,000	0,024	-0,214
-242,176	800,000	-0,043	-0,119
-241,161	-78,575	-0,121	0,029
-240,146	39,274	0,121	-0,077
-239,132	-172,551	-0,210	0,005
-238,117	93,126	-0,030	-0,024
-237,103	-19,438	0,019	-0,008
-236,088	455,878	-0,083	0,131
-235,073	118,613	-0,081	-0,071
-234,059	-9,832	0,115	0,054
-233,044	12,314	-0,117	0,064
-232,030	800,000	0,025	0,066
-231,015	23,049	0,060	-0,035
-230,000	-200,000	-0,000	0,025
-228,986	93,551	0,097	-0,078
-227,971	271,764	-0,059	0,074
-226,957	286,122	-0,022	0,029
-225,942	-200,000	-0,006	0,030
-224,927	800,000	-0,040	-0,087
-223,913	97,426	-0,041	0,034
-222,898	-41,940	0,011	-0,004
-221,884	800,000	0,068	-0,202
-220,869	-56,722	-0,051	-0,016
-219,855	-133,872	0,154	-0,013
-218,840	-200,000	-0,013	0,108
-217,825	-113,114	-0,098	0,014
-216,811	800,000	0,050	-0,139
-215,796	-200,000	0,001	0,004
-214,782	236,074	-0,047	0,056
-213,767	-116,336	0,087	-0,011
-212,752	-200,000	-0,010	0,112
-211,738	-122,616	0,069	0,008
-210,723	-200,000	-0,000	0,014
-209,709	596,180	-0,048	-0,086
-208,694	132,381	0,025	0,023
-207,679	-125,833	-0,098	-0,010
-206,665	800,000	-0,021	-0,064
-205,650	529,482	0,059	0,100
-204,636	110,906	-0,016	0,014
-203,621	-200,000	0,021	-0,080
-202,606	664,317	-0,037	0,068
-201,592	-200,000	0,005	0,050
-200,577	-87,049	-0,065	-0,014
-199,563	-200,000	-0,006	0,044
-198,548	-200,000	0,038	0,139
-197,533	-200,000	0,022	0,153
-196,519	-200,000	0,018	0,135
-195,504	800,000	-0,025	-0,074
-194,490	741,667	0,024	0,046
-193,475	257,421	0,026	-0,031
-192,460	580,528	0,067	-0,118
-191,446	246,416	-0,077	0,093
-190,431	-200,000	-0,009	0,051
-189,417	-200,000	-0,017	-0,061
-188,402	-200,000	-0,001	0,117
-187,387	800,000	-0,029	0,060
-186,373	-200,000	-0,001	0,044
-185,358	-37,631	0,127	0,048
-184,344	-6,116	0,018	0,009
-183,329	112,105	0,073	0,062
-182,315	13,217	0,154	-0,085
-181,300	-39,957	-0,215	-0,079
-180,285	-200,000	0,046	-0,168
-179,271	-63,272	-0,172	-0,050
-178,256	2,606	0,087	-0,045
-177,242	386,458	-0,027	-0,039
-176,227	-136,311	-0,078	-0,006
-175,212	-200,000	0,013	0,127
-174,198	788,318	0,063	0,123
-173,183	125,039	0,074	0,066
-172,169	-180,582	-0,100	-0,001
-171,154	42,728	0,047	0,031
-170,139	-200,000	-0,029	0,119
-169,125	-107,262	-0,059	-0,009
-168,110	150,642	-0,038	-0,037
-167,096	-200,000	0,021	0,096
-166,081	178,691	0,010	-0,010
-165,066	-82,430	-0,025	0,006
-164,052	-80,284	-0,023	-0,005
-163,037	248,041	-0,046	-0,055
-162,023	-200,000	0,012	0,083
-161,008	683,089	0,011	0,020
-159,993	59,304	0,011	-0,007
-158,979	346,166	0,121	0,170
-157,964	-14,651	0,018	0,008
-156,950	151,804	-0,054	0,052
-155,935	282,260	0,023	0,029
-154,920	322,467	-0,013	0,018
-153,906	283,629	0,080	0,103
-152,891	41,894	0,079	0,051
-151,877	16,210	0,055	0,031
-150,862	800,000	0,014	-0,029
-149,847	211,420	-0,110	0,123
-148,833	-200,000	0,027	-0,119
-147,818	800,000	0,016	0,040
-146,804	-143,615	-0,093	-0,006
-145,789	-43,940	0,055	0,020
-144,775	-9,013	-0,089	0,042
-143,760	-31,937	0,070	0,028
-142,745	410,241	-0,096	-0,145
-141,731	483,543	-0,103	-0,166
-140,716	800,000	0,021	0,044
-139,702	243,922	0,123	-0,147
-138,687	-200,000	0,005	-0,029
-137,672	-23,198	-0,061	-0,026
-136,658	268,430	0,053	0,066
-135,643	511,685	-0,026	-0,043
-134,629	-124,253	-0,075	0,008
-133,614	633,311	-0,053	-0,095
-132,599	-44,675	-0,069	-0,024
-131,585	800,000	-0,034	-0,095
-130,570	-45,586	0,033	-0,012
-129,556	6,100	0,042	-0,022
-128,541	-200,000	-0,009	-0,047
-127,526	-200,000	0,005	-0,079
-126,512	43,296	-0,083	-0,054
-125,497	-104,922	0,081	-0,013
-124,483	136,304	0,043	-0,039
-123,468	-109,333	0,079	-0,012
-122,453	39,411	-0,023	-0,015
-121,439	-200,000	0,003	0,058
-120,424	458,662	-0,014	0,022
-119,410	63,521	0,131	-0,093
-118,395	22,212	0,048	0,028
-117,380	-200,000	-0,014	0,112
-116,366	-200,000	-0,023	0,131
-115,351	-70,344	-0,159	-0,042
-114,337	-200,000	-0,021	0,132
-113,322	-108,735	-0,028	-0,004
-112,307	260,615	-0,034	-0,041
-111,293	314,945	0,099	0,132
-110,278	800,000	0,045	0,106
-109,264	357,649	-0,025	0,035
-108,249	-106,458	0,086	0,013
-107,234	13,068	-0,141	-0,077
-106,220	-200,000	0,005	-0,150
-105,205	278,762	0,031	-0,040
-104,191	-27,410	-0,098	0,040
-103,176	-200,000	-0,000	-0,006
-102,162	-200,000	-0,006	0,058
-101,147	-175,367	-0,172	-0,003
-100,132	72,432	-0,084	0,062
-99,118	-200,000	0,006	-0,079
-98,103	380,952	-0,092	-0,134
-97,089	309,505	0,055	0,073
-96,074	-200,000	-0,003	0,062
-95,059	-77,753	0,077	-0,019
-94,045	232,600	0,061	0,071
-93,030	415,631	-0,044	-0,067
-92,016	-200,000	0,002	-0,047
-91,001	-200,000	0,015	0,055
-89,986	113,019	0,055	-0,048
-88,972	-65,344	-0,069	0,020
-87,957	196,007	0,046	0,049
-86,943	-44,386	-0,042	-0,015
-85,928	598,810	-0,022	-0,038
-84,913	40,109	-0,080	0,051
-83,899	800,000	-0,046	0,132
-82,884	137,633	0,118	0,109
-81,870	-200,000	0,015	0,071
-80,855	800,000	0,037	0,097
-79,840	-200,000	0,013	-0,072
-78,826	800,000	0,012	-0,035
-77,811	18,594	0,116	-0,066
-76,797	-200,000	-0,003	-0,045
-75,782	497,938	-0,048	-0,079
-74,767	265,980	0,119	0,147
-73,753	69,791	-0,057	0,041
-72,738	-156,027	0,047	-0,002
-71,724	-200,000	-0,029	-0,225
-70,709	57,741	0,114	0,079
-69,694	11,800	-0,102	-0,055
-68,680	81,884	-0,061	-0,047
-67,665	-14,012	0,135	0,061
-66,651	800,000	0,023	0,051
-65,636	-146,136	0,069	-0,004
-64,622	168,989	0,058	-0,058
-63,607	101,860	-0,030	0,025
-62,592	-200,000	0,008	-0,110
-61,578	-106,761	0,115	0,018
-60,563	-200,000	-0,020	0,140
-59,549	337,978	-0,101	0,140
-58,534	-55,604	-1,706	-0,537
-57,519	355,372	-1,376	-1,942
-56,505	-200,000	-0,628	-4,542
-55,490	235,926	1,097	1,285
-54,476	800,000	4,879	11,014
-53,461	-200,000	19,334	324,210
-52,446	-200,000	743,243	2335,291
-51,432	570,781	1656,379	2863,385
-50,417	77,656	1671,012	1257,696
-49,403	20,844	1544,626	883,043
-48,388	14,808	1466,956	809,281
-47,373	18,153	1457,104	819,976
-46,359	16,646	1446,847	806,947
-45,344	13,041	1442,325	787,128
-44,330	12,981	1440,202	785,653
-43,315	12,961	1438,678	784,695
-42,300	12,973	1436,863	783,728
-41,286	13,003	1435,760	783,242
-40,271	12,970	1434,341	782,277
-39,257	12,975	1433,056	781,571
-38,242	12,990	1431,787	780,917
-37,227	13,077	1430,221	780,445
-36,213	13,038	1429,221	779,684
-35,198	12,993	1428,041	778,797
-34,184	13,026	1427,387	778,566
-33,169	13,037	1425,595	777,608
-32,154	13,048	1424,567	777,067
-31,140	13,061	1423,320	776,418
-30,125	13,061	1422,352	775,861
-29,111	13,023	1421,388	775,126
-28,096	13,088	1419,971	774,629
-27,082	12,973	1419,106	773,581
-26,067	12,977	1417,884	772,907
-25,052	12,983	1416,854	772,342
-24,038	12,941	1415,827	771,552
-23,023	12,970	1414,798	771,100
-22,009	12,919	1413,978	770,381
-20,994	12,930	1412,993	769,866
-19,979	12,938	1412,029	769,346
-18,965	12,912	1411,206	768,745
-17,950	12,929	1410,243	768,273
-16,936	12,913	1409,137	767,562
-15,921	12,894	1408,062	766,858
-14,906	12,850	1407,401	766,263
-13,892	12,933	1406,248	765,993
-12,877	12,891	1405,660	765,443
-11,863	12,835	1404,833	764,703
-10,848	12,849	1403,840	764,198
-9,833	12,852	1402,913	763,678
-8,819	12,834	1402,069	763,101
-7,804	12,753	1401,383	762,321
-6,790	12,748	1400,293	761,675
-5,775	12,768	1399,303	761,201
-4,760	12,818	1398,026	760,705
-3,746	12,806	1396,963	760,043
-2,731	12,759	1396,438	759,510
-1,717	12,728	1395,486	758,816
-0,702	12,728	1393,705	757,819
0,313	16,693	1310,029	730,642
1,327	32,882	702,895	429,383
2,342	50,786	123,036	82,243
3,356	4,091	16,539	8,527
4,371	-2,538	3,300	1,628
5,386	-23,674	0,686	0,290
6,400	-200,000	0,046	0,375
7,415	159,141	-0,239	-0,235
8,429	211,989	-0,233	-0,259
9,444	-58,447	-0,466	-0,142
10,459	359,040	-0,298	-0,422
11,473	62,306	-0,282	-0,198
12,488	290,663	-0,199	-0,256
13,502	-117,163	-0,317	0,040
14,517	-109,180	-0,279	-0,041
15,531	-11,597	-0,384	-0,178
16,546	190,230	-0,333	-0,354
17,561	84,220	-0,329	-0,254
18,575	-195,201	-0,120	0,001
19,590	15,125	-0,351	-0,194
20,604	-139,282	-0,368	-0,028
21,619	103,889	-0,329	-0,272
22,634	110,213	-0,440	-0,373
23,648	51,608	-0,552	-0,369
24,663	77,750	-0,406	-0,305
25,677	22,469	-0,279	-0,160
26,692	-25,837	-0,458	-0,189
27,707	44,918	-0,455	-0,295
28,721	177,306	-0,231	-0,238
29,736	-1,328	-0,298	-0,148
30,750	50,970	-0,468	-0,312
31,765	91,427	-0,407	-0,322
32,780	172,099	-0,288	-0,292
33,794	172,223	-0,364	-0,369
34,809	42,312	-0,479	-0,307
35,823	52,738	-0,344	-0,231
36,838	100,863	-0,297	-0,243
37,853	4,552	-0,366	-0,189
38,867	200,901	-0,239	-0,260
39,882	147,810	-0,320	-0,304
40,896	-10,560	-0,362	-0,168
41,911	-107,152	-0,330	-0,051
42,926	-0,510	-0,367	-0,183
43,940	99,675	-0,454	-0,370
44,955	-29,491	-0,420	-0,168
45,969	86,918	-0,317	-0,247
46,984	53,196	-0,356	-0,240
47,999	-67,325	-0,365	-0,100
49,013	134,049	-0,191	-0,174
50,028	-38,545	-0,409	-0,151
51,042	52,109	-0,214	-0,143
52,057	68,367	-0,516	-0,372
53,071	125,186	-0,318	-0,282
54,086	-25,388	-0,291	-0,120
55,101	206,707	-0,268	-0,295
56,115	33,124	-0,377	-0,230
57,130	34,126	-0,368	-0,225
58,144	331,818	-0,239	-0,325
59,159	43,521	-0,395	-0,254
60,174	127,546	-0,290	-0,259
61,188	4,939	-0,416	-0,214
62,203	65,208	-0,334	-0,237
63,217	49,679	-0,342	-0,226
64,232	-8,149	-0,348	-0,164
65,247	35,531	-0,351	-0,216
66,261	47,714	-0,344	-0,226
67,276	-9,045	-0,249	-0,117
68,290	91,038	-0,312	-0,246
69,305	51,414	-0,305	-0,203
70,320	55,670	-0,211	-0,143
71,334	114,514	-0,259	-0,222
72,349	24,577	-0,456	-0,265
73,363	33,170	-0,292	-0,178
74,378	-11,947	-0,288	-0,132
75,393	81,471	-0,240	-0,182
76,407	43,328	-0,233	-0,149
77,422	33,780	-0,210	-0,128
78,436	21,105	-0,214	-0,122
79,451	53,116	-0,271	-0,182
80,466	48,767	-0,266	-0,175
81,480	95,814	-0,331	-0,265
82,495	22,683	-0,261	-0,150
83,509	50,996	-0,239	-0,159
84,524	293,813	-0,220	-0,282
85,539	260,148	-0,196	-0,238
86,553	29,943	-0,332	-0,198
87,568	9,359	-0,334	-0,177
88,582	3,364	-0,382	-0,194
89,597	126,665	-0,335	-0,298
90,611	199,595	-0,307	-0,330
91,626	0,172	-0,221	-0,110
92,641	-42,058	-0,375	-0,134
93,655	3,525	-0,253	-0,129
94,670	-69,049	-0,390	-0,105
95,684	18,624	-0,312	-0,174
96,699	29,078	-0,282	-0,167
97,714	-54,681	-0,255	-0,080
98,728	138,921	-0,207	-0,191
99,743	-117,817	-0,181	-0,022
100,757	-21,112	-0,336	-0,144
101,772	10,166	-0,369	-0,196
102,787	29,915	-0,282	-0,168
103,801	44,139	-0,309	-0,198
104,816	46,207	-0,257	-0,167
105,830	72,356	-0,233	-0,170
106,845	45,915	-0,246	-0,159
107,860	6,977	-0,254	-0,132
108,874	112,067	-0,214	-0,181
109,889	72,406	-0,366	-0,267
110,903	-26,382	-0,268	-0,110
111,918	110,116	-0,242	-0,203
112,933	-21,618	-0,253	-0,108
113,947	116,320	-0,164	-0,141
114,962	122,463	-0,249	-0,218
115,976	337,475	-0,214	-0,292
116,991	230,382	-0,261	-0,299
118,006	37,990	-0,311	-0,193
119,020	-58,096	-0,259	-0,079
120,035	94,304	-0,312	-0,248
121,049	-125,874	-0,203	0,021
122,064	286,182	-0,214	-0,271
123,079	22,537	-0,253	-0,144
124,093	38,677	-0,269	-0,168
125,108	38,948	-0,422	-0,263
126,122	188,200	-0,203	-0,212
127,137	166,886	-0,253	-0,251
128,151	50,915	-0,207	-0,137
129,166	-83,843	-0,312	-0,069
130,181	144,731	-0,227	-0,213
131,195	106,302	-0,250	-0,207
132,210	159,367	-0,280	-0,273
133,224	180,378	-0,220	-0,226
134,239	51,405	-0,234	-0,155
135,254	3,296	-0,218	-0,111
136,268	104,549	-0,199	-0,163
137,283	224,200	-0,246	-0,278
138,297	60,920	-0,240	-0,166
139,312	105,366	-0,282	-0,233
140,327	-200,000	-0,117	-0,421
141,341	-10,170	-0,337	-0,156
142,356	95,339	-0,152	-0,121
143,370	55,126	-0,215	-0,145
144,385	800,000	-0,136	-0,322
145,400	25,299	-0,382	-0,221
146,414	32,771	-0,342	-0,206
147,429	360,674	-0,183	-0,256
148,443	211,698	-0,179	-0,197
149,458	46,753	-0,201	-0,130
150,473	50,919	-0,132	0,087
151,487	-6,665	-0,264	-0,125
152,502	265,008	-0,157	-0,191
153,516	17,128	-0,161	-0,089
154,531	102,862	-0,248	-0,203
155,546	68,778	-0,251	-0,179
156,560	54,326	-0,146	-0,098
157,575	-1,079	-0,289	-0,142
158,589	103,908	-0,313	-0,257
159,604	21,231	-0,304	-0,172
160,619	-30,220	-0,245	-0,096
161,633	161,892	-0,209	-0,204
162,648	800,000	-0,102	-0,295
163,662	79,597	-0,202	-0,151
164,677	427,379	-0,148	-0,223
165,692	219,485	-0,208	-0,232
166,706	-8,420	-0,207	-0,097
167,721	-4,551	-0,292	-0,140
168,735	75,666	-0,311	-0,228
169,750	-82,059	-0,269	-0,061
170,764	-14,444	-0,203	-0,091
171,779	-7,884	-0,249	-0,117
172,794	166,550	-0,154	-0,152
173,808	535,769	-0,140	-0,232
174,823	44,756	-0,277	-0,177
175,837	115,333	-0,181	-0,154
176,852	23,683	-0,213	-0,122
177,867	800,000	-0,084	-0,198
178,881	495,163	-0,068	-0,109
179,896	92,043	-0,235	-0,184
180,910	-31,892	-0,266	-0,103
181,925	94,282	-0,223	-0,176
182,940	-30,593	-0,215	-0,084
183,954	18,049	-0,251	-0,139
184,969	-58,759	-0,169	-0,051
185,983	306,627	-0,131	-0,170
186,998	-200,000	-0,038	-0,141
188,013	134,939	-0,228	-0,206
189,027	-34,775	-0,225	-0,085
190,042	33,188	-0,268	-0,161
191,056	76,935	-0,241	-0,177
192,071	86,044	-0,181	-0,138
193,086	-52,063	-0,177	-0,057
194,100	663,660	-0,112	-0,202
195,115	267,228	-0,191	-0,233
196,129	71,318	-0,225	-0,162
197,144	85,586	-0,259	-0,197
198,159	206,940	-0,221	-0,239
199,173	-119,737	-0,111	-0,013
200,188	53,762	-0,226	-0,151
201,202	800,000	-0,118	-0,254
202,217	-200,000	-0,079	-0,245
203,232	145,767	-0,272	-0,253
204,246	-84,281	-0,269	-0,059
205,261	-4,099	-0,105	-0,050
206,275	-14,669	-0,185	-0,082
207,290	91,112	-0,175	-0,136
208,304	-89,495	-0,177	-0,036
209,319	-18,617	-0,292	-0,126
210,334	364,750	-0,161	-0,225
211,348	30,166	-0,222	-0,131
212,363	511,529	-0,167	-0,270
213,377	18,385	-0,308	-0,170
214,392	277,315	-0,123	-0,153
215,407	25,758	-0,238	-0,137
216,421	-77,254	-0,165	0,040
217,436	-43,434	-0,111	-0,039
218,450	83,668	-0,203	-0,154
219,465	-149,579	-0,201	-0,011
220,480	68,520	-0,187	-0,133
221,494	7,061	-0,283	-0,146
222,509	-171,802	-0,233	0,005
223,523	-173,720	-0,221	-0,004
224,538	-25,919	-0,324	-0,132
225,553	244,715	-0,121	-0,141
226,567	179,311	-0,157	-0,160
227,582	236,051	-0,143	-0,164
228,596	800,000	-0,026	-0,054
229,611	-200,000	-0,018	-0,103
230,626	-15,972	-0,183	-0,081
231,640	-60,130	-0,235	-0,069
232,655	111,306	-0,266	-0,222
233,669	29,277	-0,175	-0,103
234,684	52,586	-0,218	-0,144
235,699	30,335	-0,199	-0,117
236,713	-22,785	-0,231	-0,096
237,728	118,703	-0,232	-0,198
238,742	147,057	-0,162	-0,151
239,757	87,224	-0,223	-0,171
240,772	241,898	-0,260	-0,302
241,786	57,347	-0,166	-0,112
242,801	181,975	-0,203	-0,208
243,815	-114,825	-0,117	-0,015
244,830	56,779	-0,245	-0,165
245,844	111,703	-0,190	-0,159
246,859	-9,492	-0,243	-0,112
247,874	644,023	-0,104	-0,185
248,888	341,672	-0,167	-0,227
249,903	137,800	-0,113	-0,103
250,917	-69,006	-0,135	-0,036
251,932	29,276	-0,168	-0,099
252,947	37,098	-0,225	-0,137
253,961	139,115	-0,180	-0,163
254,976	-109,348	-0,335	-0,048
255,990	-4,945	-0,246	-0,117
257,005	114,303	-0,247	-0,208
258,020	-82,118	-0,189	-0,042
259,034	40,310	-0,208	-0,129
260,049	-37,159	-0,165	-0,061
261,063	106,452	-0,188	-0,154
262,078	86,703	-0,110	-0,084
263,093	66,765	-0,267	-0,187
264,107	456,162	-0,152	-0,234
265,122	-127,537	-0,163	0,016
266,136	70,037	-0,183	-0,130
267,151	39,541	-0,225	-0,139
268,166	78,607	-0,275	-0,203
269,180	472,362	-0,152	-0,237
270,195	777,650	-0,138	-0,261
271,209	51,605	-0,232	-0,152
272,224	63,625	-0,234	-0,162
273,239	54,298	-0,146	0,097
274,253	176,953	-0,188	-0,189
275,268	-26,075	-0,204	-0,082
276,282	-90,644	-0,201	-0,040
277,297	-25,883	-0,113	-0,046
278,312	800,000	-0,101	-0,214
279,326	-23,743	-0,071	0,029
280,341	800,000	0,039	-0,113
281,355	52,606	-0,193	-0,127
282,370	83,799	-0,159	-0,119
283,384	-15,967	-0,247	-0,108
284,399	373,555	-0,148	-0,208
285,414	208,817	-0,184	-0,199
286,428	181,151	-0,139	-0,141
287,443	-200,000	-0,012	-0,042
288,457	582,451	-0,062	-0,105
289,472	100,019	-0,182	-0,145
290,487	174,992	-0,304	-0,304
291,501	800,000	-0,104	-0,198
292,516	234,259	-0,158	-0,180
293,530	-60,306	-0,131	-0,038
294,545	641,042	-0,069	-0,122
295,560	-6,897	-0,241	-0,113
296,574	83,133	-0,070	-0,053
297,589	800,000	-0,139	-0,310
298,603	-42,525	-0,201	-0,070
299,618	-43,940	-0,188	0,065
300,633	-200,000	-0,026	-0,110
301,647	54,218	-0,199	-0,131
302,662	-138,594	-0,082	0,006
303,676	-36,589	-0,154	-0,057
304,691	379,304	-0,088	-0,124
305,706	-200,000	-0,029	-0,144
306,720	-109,309	-0,253	-0,037
307,735	-144,199	-0,178	-0,011
308,749	80,337	-0,085	-0,063
309,764	-75,717	-0,049	-0,012
310,779	139,591	-0,166	-0,150
311,793	-105,421	-0,183	0,028
312,808	71,856	-0,208	-0,149
313,822	691,680	-0,134	-0,243
314,837	-64,698	-0,203	-0,056
315,852	-92,264	-0,193	0,037
316,866	401,263	-0,121	-0,175
317,881	395,744	-0,100	-0,144
318,895	-35,270	-0,222	-0,083
319,910	156,414	-0,203	-0,193
320,925	171,087	-0,173	-0,170
321,939	542,426	-0,091	-0,150
322,954	800,000	-0,023	-0,066
323,968	70,072	-0,115	-0,081
324,983	66,034	-0,141	-0,098
325,997	-200,000	-0,016	-0,064
327,012	-200,000	-0,010	-0,119
328,027	800,000	-0,091	-0,184
329,041	135,289	-0,169	-0,151
330,056	292,337	-0,150	-0,188
331,070	-13,801	-0,055	-0,024
332,085	-66,744	-0,126	-0,034
333,100	-133,765	-0,061	-0,005
334,114	730,485	-0,106	-0,195
335,129	-28,856	-0,145	-0,057
336,143	48,670	-0,119	-0,077
337,158	126,471	-0,103	-0,090
338,173	-81,549	-0,225	0,050
339,187	48,181	-0,096	-0,062
340,202	318,824	-0,122	-0,159
341,216	-36,288	-0,183	-0,067
342,231	70,109	-0,109	-0,077
343,246	61,264	-0,194	-0,132
344,260	800,000	-0,070	-0,150
345,275	-9,025	-0,080	-0,037
346,289	335,191	-0,096	-0,128
347,304	-72,120	-0,154	-0,039
348,319	-96,880	-0,345	-0,062
349,333	14,739	-0,155	-0,083
350,348	475,891	-0,112	-0,175
351,362	195,251	-0,093	0,097
352,377	115,024	-0,118	0,099
353,392	19,722	-0,155	-0,085
354,406	391,710	-0,062	-0,088
355,421	210,030	1314,144	1415,123
356,435	161,672	1474,779	1415,598
