DTS Sentinel unit serial number:	SN410029Multiplexer serial number:	ORYXHardware model number:	OX2-SRSoftware version number:	ORYX F/W v4,00 Oryx Data Collector v3.7.2.0data status	okinstallation	B3 Nyhavnadifferential loss correction	single-endedforward channel	channel 1reverse channel	N/Adate	2023/12/04time	12:42:30forward acquisition time	300,00reverse acquisition time	0,00gamma	499,1914k internal	0,3202k external	0,3202temperature offset calibration	1,0000default loss term (dB/km)	0,3820temperature slope calibration	1,0000multiplexer offset coefficient	1,0000multiplexer slope coefficient	1,0000fibre end	0,00T internal ref (°C)	14,57T ext. ref 1 (°C)	0,22T ext. ref 2 (°C)	0,20length (m)	temperature (°C)	Stokes	anti-Stokes-744,400	113,749	-0,380	-0,336
-743,385	800,000	-0,138	0,389
-742,371	69,900	-0,106	-0,079
-741,356	-200,000	0,042	0,366
-740,342	800,000	-0,034	-0,101
-739,327	-200,000	-0,062	0,358
-738,312	800,000	-0,133	-0,305
-737,298	-200,000	0,039	0,175
-736,283	22,764	-0,215	-0,127
-735,269	-200,000	-0,021	0,297
-734,254	-30,060	-0,252	-0,104
-733,239	114,596	-0,197	0,174
-732,225	-200,000	-0,092	-0,340
-731,210	-0,976	0,126	0,064
-730,196	-200,000	0,004	-0,017
-729,181	472,258	0,053	-0,086
-728,167	304,755	-0,105	-0,142
-727,152	-22,073	0,082	0,036
-726,137	166,987	-0,009	-0,009
-725,123	103,622	-0,149	-0,127
-724,108	93,761	-0,052	-0,043
-723,094	382,682	-0,104	-0,156
-722,079	112,457	-0,129	-0,113
-721,064	11,600	-0,105	-0,058
-720,050	-200,000	0,018	-0,154
-719,035	-200,000	-0,023	0,075
-718,021	-200,000	-0,011	-0,067
-717,006	686,591	0,058	-0,110
-715,991	-64,960	-0,137	-0,040
-714,977	84,253	-0,182	-0,145
-713,962	-200,000	-0,013	-0,088
-712,948	708,846	-0,051	-0,099
-711,933	43,876	-0,054	0,036
-710,918	229,799	-0,035	0,041
-709,904	-182,692	0,076	-0,001
-708,889	-42,699	0,092	0,034
-707,875	-48,606	-0,072	-0,025
-706,860	-65,707	-0,105	-0,030
-705,845	223,543	-0,013	-0,016
-704,831	408,672	-0,049	0,075
-703,816	-60,021	-0,052	-0,016
-702,802	41,201	0,032	0,021
-701,787	-200,000	0,026	-0,160
-700,772	250,242	0,041	0,051
-699,758	48,889	0,069	0,047
-698,743	-200,000	0,024	0,121
-697,729	-153,736	0,033	0,002
-696,714	45,944	0,196	0,131
-695,699	-138,102	-0,084	0,007
-694,685	800,000	0,037	-0,111
-693,670	-107,101	0,034	-0,005
-692,656	-200,000	0,011	-0,070
-691,641	193,654	0,060	-0,066
-690,627	79,348	0,084	0,066
-689,612	126,463	-0,050	0,046
-688,597	565,987	-0,018	-0,032
-687,583	800,000	-0,032	-0,080
-686,568	216,550	0,031	-0,036
-685,554	-200,000	0,005	0,037
-684,539	687,554	-0,057	0,109
-683,524	19,186	0,053	-0,031
-682,510	39,468	0,035	-0,023
-681,495	-19,066	0,030	0,014
-680,481	365,438	-0,038	0,056
-679,466	54,695	-0,093	0,065
-678,451	368,724	-0,075	-0,111
-677,437	71,216	0,042	0,032
-676,422	135,156	0,043	0,041
-675,408	-30,666	-0,148	-0,060
-674,393	-80,728	0,139	-0,033
-673,378	-148,607	0,126	-0,007
-672,364	18,077	-0,037	-0,021
-671,349	-25,855	-0,034	-0,014
-670,335	-3,692	-0,067	-0,034
-669,320	7,333	0,015	0,008
-668,305	-200,000	0,018	0,069
-667,291	89,864	0,032	0,026
-666,276	-200,000	0,001	-0,013
-665,262	159,192	0,018	-0,018
-664,247	226,289	-0,093	-0,110
-663,232	-40,071	-0,134	-0,050
-662,218	-92,774	0,094	0,019
-661,203	-67,254	0,082	-0,023
-660,189	800,000	0,022	0,068
-659,174	298,414	-0,122	-0,163
-658,159	54,220	-0,144	-0,101
-657,145	161,500	-0,041	0,041
-656,130	-167,770	-0,053	-0,001
-655,116	10,890	0,187	0,103
-654,101	-200,000	-0,040	0,142
-653,086	800,000	-0,009	-0,024
-652,072	121,376	-0,066	-0,059
-651,057	475,221	-0,083	-0,136
-650,043	198,663	-0,077	-0,086
-649,028	800,000	-0,055	-0,119
-648,014	-190,732	0,197	-0,001
-646,999	-6,366	-0,031	-0,015
-645,984	56,617	-0,063	0,044
-644,970	800,000	-0,033	-0,077
-643,955	-119,676	-0,118	-0,015
-642,941	310,974	-0,068	-0,092
-641,926	322,515	0,013	0,018
-640,911	-200,000	-0,003	-0,038
-639,897	504,108	0,097	0,162
-638,882	276,702	-0,031	-0,040
-637,868	736,722	0,033	0,064
-636,853	-200,000	-0,043	-0,218
-635,838	9,392	-0,156	0,085
-634,824	-170,417	0,048	-0,001
-633,809	741,608	-0,010	0,019
-632,795	-200,000	0,028	-0,113
-631,780	4,047	-0,182	0,096
-630,765	-112,616	-0,083	-0,012
-629,751	800,000	0,051	-0,105
-628,736	-139,828	-0,139	-0,010
-627,722	-28,114	-0,018	-0,007
-626,707	50,662	0,083	-0,057
-625,692	-200,000	-0,006	0,094
-624,678	800,000	0,022	-0,053
-623,663	622,000	0,095	-0,174
-622,649	-109,205	-0,136	-0,021
-621,634	-114,816	0,053	0,007
-620,619	-113,292	0,077	0,011
-619,605	-80,160	0,110	-0,026
-618,590	-106,856	0,051	-0,008
-617,576	800,000	-0,064	0,135
-616,561	800,000	-0,011	-0,027
-615,546	344,013	0,066	-0,094
-614,532	113,424	0,062	-0,054
-613,517	-98,895	-0,107	-0,019
-612,503	41,115	0,126	0,082
-611,488	800,000	-0,045	0,092
-610,474	800,000	-0,022	0,064
-609,459	-200,000	-0,003	0,110
-608,444	-58,879	-0,095	-0,029
-607,430	-132,715	-0,052	0,005
-606,415	232,296	-0,021	-0,025
-605,401	800,000	-0,012	0,026
-604,386	-200,000	0,070	0,253
-603,371	316,216	0,042	0,057
-602,357	-152,304	-0,116	-0,006
-601,342	139,095	-0,060	-0,057
-600,328	-112,957	0,146	0,021
-599,313	800,000	-0,065	0,203
-598,298	-200,000	-0,038	0,140
-597,284	-48,149	0,124	-0,043
-596,269	-84,220	-0,099	0,023
-595,255	16,917	0,169	-0,096
-594,240	800,000	-0,042	0,094
-593,225	245,023	-0,105	-0,127
-592,211	-91,974	0,046	0,009
-591,196	-200,000	-0,007	0,140
-590,182	-200,000	0,007	0,143
-589,167	-28,093	0,028	-0,012
-588,152	800,000	-0,045	0,131
-587,138	636,603	-0,030	-0,056
-586,123	-183,520	-0,062	-0,001
-585,109	-49,436	-0,051	-0,018
-584,094	60,336	-0,095	-0,068
-583,079	-69,207	0,080	-0,022
-582,065	-81,033	0,103	-0,025
-581,050	393,785	0,046	0,070
-580,036	-200,000	0,027	-0,093
-579,021	800,000	-0,069	-0,203
-578,006	-200,000	0,005	-0,125
-576,992	80,702	0,139	0,108
-575,977	-147,997	0,049	0,003
-574,963	-50,409	-0,076	0,026
-573,948	-0,913	-0,047	0,024
-572,934	593,766	0,039	0,070
-571,919	-183,010	0,043	0,001
-570,904	800,000	-0,019	0,045
-569,890	241,936	0,067	0,081
-568,875	38,678	0,097	0,063
-567,861	-169,674	-0,046	-0,001
-566,846	-200,000	0,006	-0,029
-565,831	235,704	0,020	-0,023
-564,817	-80,333	-0,072	0,017
-563,802	-163,872	-0,219	0,007
-562,788	356,823	-0,015	0,021
-561,773	-200,000	0,025	-0,084
-560,758	-173,519	0,085	-0,002
-559,744	-142,756	0,092	-0,006
-558,729	306,288	-0,054	0,073
-557,715	74,579	0,180	-0,136
-556,700	-200,000	0,015	0,063
-555,685	800,000	0,043	-0,086
-554,671	-47,891	0,030	-0,010
-553,656	190,938	0,051	0,056
-552,642	399,656	0,054	-0,082
-551,627	102,476	-0,073	0,061
-550,612	-200,000	-0,002	-0,021
-549,598	270,905	0,092	-0,118
-548,583	-155,762	-0,041	0,002
-547,569	800,000	0,022	0,068
-546,554	698,223	0,095	0,181
-545,539	800,000	0,074	0,188
-544,525	-116,731	-0,077	0,010
-543,510	377,653	0,031	0,045
-542,496	-56,619	-0,061	-0,020
-541,481	183,242	0,027	0,028
-540,466	17,558	0,101	-0,058
-539,452	289,721	0,056	0,074
-538,437	61,748	0,162	0,116
-537,423	-138,680	0,050	0,004
-536,408	-26,368	-0,048	0,020
-535,393	0,121	-0,136	0,070
-534,379	221,829	0,069	0,080
-533,364	-23,846	-0,067	-0,029
-532,350	-142,421	0,165	-0,012
-531,335	-29,050	0,101	-0,042
-530,321	226,387	0,097	-0,114
-529,306	141,399	-0,099	-0,095
-528,291	-9,446	-0,148	0,071
-527,277	44,947	-0,072	-0,048
-526,262	800,000	0,034	-0,104
-525,248	34,556	0,085	0,053
-524,233	800,000	0,025	0,076
-523,218	-200,000	0,004	0,180
-522,204	-33,253	0,062	0,025
-521,189	-108,768	-0,121	0,018
-520,175	-98,510	-0,076	-0,014
-519,160	22,056	-0,094	0,055
-518,145	692,599	0,027	-0,052
-517,131	-200,000	0,002	0,125
-516,116	128,872	0,025	0,023
-515,102	21,299	-0,070	-0,041
-514,087	-131,409	-0,087	-0,008
-513,072	59,675	0,118	-0,084
-512,058	86,356	-0,023	-0,018
-511,043	-68,607	-0,093	-0,026
-510,029	-100,870	-0,097	0,017
-509,014	21,501	0,074	0,043
-507,999	800,000	0,015	-0,043
-506,985	-41,492	0,069	0,025
-505,970	-35,071	-0,209	-0,082
-504,956	-200,000	0,044	0,183
-503,941	-17,406	0,025	0,011
-502,926	236,125	-0,038	-0,045
-501,912	-130,004	0,086	0,008
-500,897	-200,000	0,001	-0,085
-499,883	260,595	-0,086	-0,108
-498,868	-200,000	0,013	-0,176
-497,853	-56,143	0,067	0,021
-496,839	-200,000	0,010	0,062
-495,824	154,280	-0,062	0,061
-494,810	67,423	0,139	0,102
-493,795	93,913	-0,044	0,036
-492,781	-110,984	0,086	-0,013
-491,766	-30,800	-0,217	-0,088
-490,751	-123,906	-0,100	0,011
-489,737	45,182	0,057	0,038
-488,722	215,244	0,040	0,046
-487,708	-7,971	0,115	0,056
-486,693	-200,000	0,033	0,110
-485,678	118,649	0,076	0,067
-484,664	237,706	-0,016	0,019
-483,649	75,837	-0,189	-0,143
-482,635	-101,097	0,055	0,010
-481,620	800,000	0,042	0,090
-480,605	197,914	-0,021	-0,023
-479,591	-40,861	0,029	-0,011
-478,576	49,670	-0,071	-0,048
-477,562	-37,226	-0,036	-0,014
-476,547	275,354	0,086	-0,110
-475,532	800,000	-0,019	-0,055
-474,518	-200,000	0,003	0,132
-473,503	-200,000	-0,007	0,049
-472,489	-9,358	0,042	-0,020
-471,474	7,881	0,014	0,007
-470,459	77,842	-0,050	-0,038
-469,445	-97,312	-0,162	0,030
-468,430	-90,002	-0,074	-0,015
-467,416	2,944	0,069	0,036
-466,401	-200,000	-0,014	0,072
-465,386	-17,017	0,098	0,044
-464,372	8,347	0,154	0,083
-463,357	199,890	-0,015	0,017
-462,343	-91,015	0,038	-0,008
-461,328	-169,915	-0,053	0,001
-460,313	-200,000	0,005	-0,032
-459,299	-106,861	-0,038	-0,006
-458,284	-200,000	-0,033	0,138
-457,270	131,890	-0,092	0,085
-456,255	71,634	-0,068	0,051
-455,241	800,000	-0,033	-0,069
-454,226	369,050	0,084	-0,122
-453,211	-149,262	-0,147	-0,008
-452,197	-200,000	-0,014	-0,114
-451,182	-133,604	0,159	0,014
-450,168	211,528	0,030	0,033
-449,153	-200,000	-0,029	-0,174
-448,138	136,467	-0,050	0,047
-447,124	800,000	-0,036	-0,076
-446,109	1,712	-0,042	0,022
-445,095	84,147	0,056	0,044
-444,080	463,279	-0,021	-0,033
-443,065	-200,000	-0,033	0,164
-442,051	-200,000	0,024	-0,078
-441,036	185,269	-0,092	-0,098
-440,022	88,625	-0,108	-0,087
-439,007	-200,000	0,001	-0,026
-437,992	24,201	0,053	0,031
-436,978	43,401	0,015	-0,010
-435,963	91,581	-0,071	-0,057
-434,949	-200,000	-0,013	0,123
-433,934	-164,750	-0,024	-0,001
-432,919	32,950	0,088	0,054
-431,905	281,315	-0,045	0,059
-430,890	800,000	-0,020	0,065
-429,876	319,432	0,052	0,071
-428,861	800,000	0,005	-0,011
-427,846	2,032	0,049	0,025
-426,832	-200,000	0,003	0,101
-425,817	-169,555	-0,038	0,001
-424,803	-109,698	-0,039	-0,006
-423,788	-200,000	-0,004	-0,100
-422,773	199,780	0,073	0,081
-421,759	-55,008	0,066	0,021
-420,744	-119,256	-0,113	0,014
-419,730	314,387	-0,021	0,029
-418,715	119,141	-0,080	-0,071
-417,701	-200,000	0,026	0,104
-416,686	-200,000	-0,004	0,052
-415,671	-200,000	0,025	0,093
-414,657	-65,422	0,100	0,029
-413,642	800,000	0,022	0,050
-412,628	-107,985	-0,077	0,012
-411,613	625,467	-0,026	-0,047
-410,598	208,678	-0,022	0,025
-409,584	-200,000	0,005	0,070
-408,569	0,070	0,099	-0,051
-407,555	188,924	-0,056	0,061
-406,540	-200,000	0,021	0,103
-405,525	161,436	-0,061	-0,062
-404,511	-173,922	-0,061	-0,001
-403,496	108,434	0,123	0,105
-402,482	-200,000	0,009	0,041
-401,467	793,487	-0,039	-0,078
-400,452	191,194	0,086	-0,093
-399,438	35,075	-0,038	-0,024
-398,423	-88,307	-0,125	-0,027
-397,409	-96,945	-0,088	-0,016
-396,394	-128,512	-0,047	0,005
-395,379	-162,001	-0,055	0,002
-394,365	-69,919	0,144	0,039
-393,350	-51,476	0,115	0,038
-392,336	-200,000	0,065	0,209
-391,321	259,753	-0,079	0,098
-390,306	800,000	0,051	-0,132
-389,292	140,299	0,035	-0,034
-388,277	-53,617	0,131	-0,043
-387,263	-40,647	0,049	-0,018
-386,248	75,492	0,077	-0,058
-385,233	-200,000	-0,012	-0,121
-384,219	304,172	-0,062	-0,082
-383,204	0,118	-0,049	-0,025
-382,190	-200,000	0,012	-0,150
-381,175	41,300	-0,110	-0,071
-380,160	371,544	-0,030	0,043
-379,146	-29,942	0,172	-0,070
-378,131	-26,169	0,139	-0,058
-377,117	-200,000	0,006	-0,129
-376,102	-30,724	-0,128	-0,051
-375,088	8,285	-0,107	-0,058
-374,073	-46,873	0,085	0,030
-373,058	-97,100	-0,011	-0,002
-372,044	342,510	0,035	-0,049
-371,029	800,000	0,016	-0,037
-370,015	-16,229	0,216	-0,098
-369,000	800,000	-0,031	-0,064
-367,985	800,000	-0,042	-0,084
-366,971	-83,504	0,077	-0,018
-365,956	-130,301	0,100	0,010
-364,942	416,658	-0,023	0,036
-363,927	21,222	0,058	0,034
-362,912	82,786	0,039	0,030
-361,898	132,100	-0,136	-0,125
-360,883	288,183	0,037	-0,048
-359,869	49,983	0,060	0,041
-358,854	32,327	-0,099	0,061
-357,839	-200,000	0,014	-0,054
-356,825	140,332	0,045	0,042
-355,810	692,593	0,036	0,068
-354,796	-200,000	-0,005	0,060
-353,781	-200,000	-0,035	-0,118
-352,766	-4,039	-0,025	0,013
-351,752	-200,000	0,002	-0,011
-350,737	800,000	-0,047	-0,120
-349,723	51,294	0,040	-0,027
-348,708	514,412	0,024	0,041
-347,693	462,421	-0,029	0,046
-346,679	-200,000	-0,002	0,017
-345,664	-54,727	-0,048	-0,016
-344,650	-92,830	-0,168	0,033
-343,635	562,763	0,047	0,082
-342,620	548,164	-0,047	0,081
-341,606	-47,034	-0,242	0,084
-340,591	85,794	-0,016	0,013
-339,577	-121,964	-0,100	0,012
-338,562	800,000	-0,044	-0,090
-337,548	800,000	0,036	-0,100
-336,533	291,588	-0,031	-0,040
-335,518	69,865	0,102	0,075
-334,504	-69,673	-0,050	-0,014
-333,489	-71,187	0,042	-0,011
-332,475	800,000	0,022	0,045
-331,460	-156,104	-0,062	-0,003
-330,445	161,563	0,136	0,136
-329,431	-33,731	0,120	0,047
-328,416	343,832	-0,049	0,069
-327,402	-200,000	0,007	-0,072
-326,387	270,079	0,049	-0,062
-325,372	-200,000	0,005	-0,117
-324,358	222,034	0,097	-0,112
-323,343	-200,000	-0,006	0,048
-322,329	-83,346	-0,133	0,030
-321,314	51,122	0,052	0,035
-320,299	-126,333	0,073	0,008
-319,285	-152,768	-0,068	-0,003
-318,270	-200,000	-0,006	0,027
-317,256	800,000	-0,036	-0,077
-316,241	230,779	-0,065	-0,077
-315,226	-187,050	0,109	-0,001
-314,212	-200,000	0,021	0,134
-313,197	165,317	0,059	0,060
-312,183	-68,267	0,048	-0,013
-311,168	171,747	-0,062	-0,063
-310,153	-139,482	-0,060	-0,005
-309,139	3,674	-0,090	-0,047
-308,124	-200,000	-0,007	-0,109
-307,110	-200,000	0,000	-0,033
-306,095	101,158	-0,057	0,048
-305,080	39,474	-0,016	0,010
-304,066	-25,223	-0,088	-0,037
-303,051	-200,000	-0,042	-0,181
-302,037	800,000	-0,013	-0,027
-301,022	73,667	0,048	0,036
-300,008	800,000	-0,039	0,083
-298,993	-2,477	-0,053	0,027
-297,978	311,608	0,017	-0,023
-296,964	800,000	0,051	-0,131
-295,949	800,000	-0,031	0,082
-294,935	104,064	0,112	-0,094
-293,920	148,021	0,086	-0,083
-292,905	-200,000	0,001	0,095
-291,891	-19,128	0,121	0,053
-290,876	800,000	-0,046	0,104
-289,862	145,956	-0,006	0,006
-288,847	-200,000	-0,026	-0,096
-287,832	263,469	0,049	0,061
-286,818	-44,346	-0,047	0,017
-285,803	800,000	-0,030	0,066
-284,789	347,277	-0,026	0,037
-283,774	159,881	0,138	0,138
-282,759	194,372	-0,045	-0,049
-281,745	800,000	0,022	-0,052
-280,730	800,000	-0,045	0,113
-279,716	-185,910	-0,021	0,000
-278,701	800,000	-0,039	0,117
-277,686	-200,000	0,023	0,159
-276,672	18,028	0,084	-0,048
-275,657	25,767	-0,021	0,013
-274,643	-37,626	0,059	-0,022
-273,628	-200,000	-0,011	-0,110
-272,613	800,000	0,032	-0,070
-271,599	-200,000	-0,019	-0,158
-270,584	-152,148	0,040	-0,002
-269,570	-119,624	0,097	-0,012
-268,555	-158,964	-0,128	0,005
-267,540	-200,000	0,016	0,070
-266,526	-87,773	-0,071	-0,015
-265,511	800,000	-0,052	-0,114
-264,497	-105,648	0,155	-0,025
-263,482	143,696	0,070	-0,067
-262,467	-158,876	0,085	0,003
-261,453	800,000	-0,044	-0,092
-260,438	800,000	-0,039	-0,097
-259,424	-200,000	-0,004	-0,068
-258,409	-200,000	-0,108	-0,000
-257,395	-200,000	-0,006	-0,045
-256,380	63,309	0,155	0,111
-255,365	126,126	0,236	0,213
-254,351	-154,570	0,005	0,000
-253,336	-12,578	-0,099	-0,046
-252,322	170,737	-0,064	0,066
-251,307	-91,039	0,108	-0,022
-250,292	-162,373	-0,067	-0,002
-249,278	800,000	-0,029	-0,067
-248,263	-200,000	0,022	-0,174
-247,249	-122,756	-0,144	-0,016
-246,234	98,130	0,011	-0,009
-245,219	14,951	-0,097	-0,054
-244,205	-200,000	-0,008	0,100
-243,190	-200,000	-0,002	0,041
-242,176	109,169	0,118	0,101
-241,161	75,615	-0,053	0,040
-240,146	-200,000	-0,029	-0,121
-239,132	800,000	-0,014	0,044
-238,117	49,433	-0,111	-0,074
-237,103	253,451	-0,042	-0,051
-236,088	-200,000	-0,002	0,042
-235,073	21,176	0,127	0,073
-234,059	56,557	-0,065	-0,045
-233,044	297,535	0,024	0,032
-232,030	-200,000	-0,019	-0,091
-231,015	-74,610	-0,150	-0,038
-230,000	10,603	-0,049	-0,026
-228,986	-84,637	-0,031	-0,007
-227,971	-88,732	0,070	0,015
-226,957	-93,014	0,185	-0,036
-225,942	-200,000	-0,012	-0,044
-224,927	-200,000	0,016	0,139
-223,913	-153,522	0,050	-0,002
-222,898	185,005	-0,066	-0,070
-221,884	-105,292	-0,108	0,017
-220,869	378,809	0,056	-0,082
-219,855	-80,541	0,046	0,011
-218,840	-200,000	-0,008	0,074
-217,825	11,084	-0,068	-0,037
-216,811	-143,826	-0,072	-0,005
-215,796	-200,000	-0,007	0,106
-214,782	122,687	-0,026	-0,023
-213,767	-200,000	0,033	-0,129
-212,752	541,733	0,027	0,046
-211,738	-79,475	0,036	-0,008
-210,723	800,000	-0,037	0,111
-209,709	387,394	-0,083	-0,123
-208,694	302,937	-0,120	-0,159
-207,679	456,128	-0,064	-0,101
-206,665	800,000	-0,017	-0,048
-205,650	-200,000	-0,010	0,183
-204,636	-26,780	0,183	-0,076
-203,621	800,000	0,017	-0,043
-202,606	-108,972	-0,083	-0,012
-201,592	-57,343	-0,082	0,025
-200,577	28,244	0,100	0,060
-199,563	-200,000	0,032	-0,183
-198,548	-200,000	0,012	-0,202
-197,533	-200,000	-0,006	0,100
-196,519	190,940	-0,070	-0,075
-195,504	-200,000	0,011	-0,074
-194,490	-200,000	0,022	0,114
-193,475	-200,000	-0,053	-0,214
-192,460	423,587	0,033	-0,051
-191,446	-107,237	0,117	0,018
-190,431	130,967	0,053	-0,048
-189,417	39,333	-0,123	0,078
-188,402	-200,000	-0,001	0,078
-187,387	800,000	-0,052	0,106
-186,373	-200,000	-0,027	-0,102
-185,358	-63,069	0,076	0,022
-184,344	66,928	0,165	0,120
-183,329	-37,450	0,058	0,022
-182,315	-45,613	0,025	-0,009
-181,300	574,216	-0,028	0,048
-180,285	398,502	0,072	-0,107
-179,271	-143,232	-0,113	0,008
-178,256	-200,000	0,001	-0,029
-177,242	341,852	0,024	0,034
-176,227	22,728	-0,127	0,074
-175,212	-200,000	-0,011	0,039
-174,198	-200,000	-0,009	-0,091
-173,183	-148,378	-0,097	0,006
-172,169	-198,439	0,138	-0,001
-171,154	-200,000	0,008	0,139
-170,139	331,736	-0,035	0,048
-169,125	-139,661	0,107	-0,008
-168,110	800,000	0,010	0,026
-167,096	306,702	-0,017	-0,023
-166,081	800,000	-0,014	0,033
-165,066	112,291	-0,097	-0,083
-164,052	-4,844	-0,057	-0,028
-163,037	3,227	0,033	0,017
-162,023	-200,000	0,003	0,097
-161,008	216,033	0,121	0,137
-159,993	58,849	-0,078	-0,054
-158,979	3,339	0,116	-0,060
-157,964	-77,912	-0,071	0,017
-156,950	-200,000	0,007	-0,142
-155,935	30,710	0,076	0,046
-154,920	-200,000	-0,002	-0,046
-153,906	530,978	0,042	0,071
-152,891	306,666	-0,050	0,067
-151,877	-200,000	0,015	0,074
-150,862	606,219	-0,040	-0,071
-149,847	-110,987	-0,084	0,012
-148,833	160,549	-0,143	0,142
-147,818	-88,938	0,115	-0,024
-146,804	378,070	0,047	0,068
-145,789	149,441	0,105	-0,101
-144,775	33,060	-0,042	-0,026
-143,760	-200,000	-0,004	-0,040
-142,745	199,647	-0,046	-0,050
-141,731	-200,000	-0,003	-0,087
-140,716	88,318	0,069	0,055
-139,702	-200,000	0,024	0,102
-138,687	-42,603	0,177	0,064
-137,672	-200,000	-0,011	-0,063
-136,658	276,218	-0,067	-0,085
-135,643	-45,926	-0,030	0,010
-134,629	-118,302	-0,097	-0,012
-133,614	-200,000	0,009	-0,055
-132,599	-31,815	0,195	0,077
-131,585	134,171	0,041	0,038
-130,570	800,000	0,027	-0,061
-129,556	-32,871	-0,121	0,048
-128,541	800,000	-0,011	0,023
-127,526	-88,079	0,080	0,017
-126,512	246,119	0,114	0,137
-125,497	800,000	0,025	0,065
-124,483	-200,000	0,051	0,178
-123,468	-200,000	0,014	0,051
-122,453	57,011	-0,057	-0,040
-121,439	-113,478	-0,053	0,007
-120,424	-200,000	0,017	0,125
-119,410	175,123	-0,054	0,056
-118,395	-200,000	0,026	0,118
-117,380	213,943	-0,037	0,042
-116,366	-200,000	0,005	0,130
-115,351	156,051	0,095	-0,093
-114,337	-15,525	-0,148	-0,067
-113,322	157,203	0,063	-0,062
-112,307	155,122	-0,020	0,020
-111,293	80,474	-0,050	0,038
-110,278	-200,000	0,035	-0,166
-109,264	800,000	-0,067	-0,160
-108,249	800,000	-0,031	-0,087
-107,234	-115,949	0,084	0,011
-106,220	-200,000	0,011	-0,040
-105,205	-200,000	0,006	0,044
-104,191	279,400	-0,075	-0,095
-103,176	-200,000	0,020	0,172
-102,162	-200,000	0,003	-0,022
-101,147	150,731	-0,047	-0,045
-100,132	800,000	0,025	-0,051
-99,118	-200,000	-0,022	-0,129
-98,103	-200,000	-0,003	-0,056
-97,089	76,313	0,046	-0,034
-96,074	-102,623	0,130	-0,022
-95,059	800,000	0,040	0,083
-94,045	63,848	-0,007	0,005
-93,030	122,059	-0,140	-0,124
-92,016	61,858	0,085	0,060
-91,001	-200,000	0,019	0,074
-89,986	-158,313	0,156	0,006
-88,972	76,728	0,114	-0,085
-87,957	-51,982	-0,084	0,028
-86,943	-200,000	-0,023	0,140
-85,928	149,190	-0,158	-0,151
-84,913	584,724	-0,018	-0,031
-83,899	800,000	-0,049	0,119
-82,884	-63,946	0,060	-0,017
-81,870	-91,271	0,071	0,014
-80,855	23,214	-0,036	0,021
-79,840	366,093	0,053	-0,075
-78,826	-124,111	-0,048	-0,005
-77,811	278,206	-0,125	-0,158
-76,797	800,000	-0,041	-0,083
-75,782	-200,000	0,045	-0,142
-74,767	-59,940	-0,024	-0,007
-73,753	1,715	0,183	0,093
-72,738	-56,808	-0,125	0,039
-71,724	-78,914	-0,082	0,020
-70,709	-200,000	0,023	-0,095
-69,694	-200,000	-0,011	-0,068
-68,680	251,581	0,024	0,029
-67,665	-200,000	0,021	0,065
-66,651	168,920	0,044	0,045
-65,636	-29,923	0,208	-0,084
-64,622	-0,464	-0,028	-0,014
-63,607	-124,060	-0,025	0,003
-62,592	800,000	0,045	-0,121
-61,578	87,148	0,034	0,027
-60,563	338,548	-0,078	-0,108
-59,549	-71,574	-0,121	0,032
-58,534	-56,904	-1,507	-0,468
-57,519	456,565	-1,344	-2,120
-56,505	-200,000	-0,590	-4,407
-55,490	217,896	0,907	1,025
-54,476	800,000	4,764	10,911
-53,461	-200,000	18,344	294,633
-52,446	800,000	729,910	2249,342
-51,432	558,161	1645,844	2821,004
-50,417	78,960	1666,884	1261,785
-49,403	22,439	1540,513	889,196
-48,388	16,444	1463,396	815,629
-47,373	17,810	1453,410	816,611
-46,359	17,094	1443,820	807,767
-45,344	14,694	1439,309	793,745
-44,330	14,637	1436,985	792,159
-43,315	14,630	1435,578	791,322
-42,300	14,658	1433,941	790,520
-41,286	14,692	1432,665	789,948
-40,271	14,621	1431,494	788,932
-39,257	14,630	1430,195	788,228
-38,242	14,695	1428,794	787,732
-37,227	14,647	1427,707	786,874
-36,213	14,673	1426,623	786,371
-35,198	14,657	1425,153	785,451
-34,184	14,687	1424,368	785,130
-33,169	14,639	1422,827	784,022
-32,154	14,674	1422,138	783,775
-31,140	14,681	1420,403	782,822
-30,125	14,725	1419,355	782,424
-29,111	14,695	1418,300	781,669
-28,096	14,684	1417,101	780,925
-27,082	14,640	1416,187	780,182
-26,067	14,600	1415,221	779,434
-25,052	14,586	1414,153	778,748
-24,038	14,610	1413,068	778,233
-23,023	14,608	1411,922	777,560
-22,009	14,598	1411,137	777,052
-20,994	14,560	1410,086	776,260
-19,979	14,522	1409,339	775,643
-18,965	14,495	1408,286	774,905
-17,950	14,503	1407,464	774,459
-16,936	14,530	1406,535	774,046
-15,921	14,498	1405,306	773,186
-14,906	14,540	1404,416	772,862
-13,892	14,533	1403,558	772,330
-12,877	14,500	1402,550	771,591
-11,863	14,574	1401,371	771,253
-10,848	14,486	1400,886	770,548
-9,833	14,458	1399,773	769,773
-8,819	14,444	1399,075	769,293
-7,804	14,382	1398,123	768,454
-6,790	14,394	1397,116	767,926
-5,775	14,431	1395,853	767,372
-4,760	14,423	1395,125	766,904
-3,746	14,412	1394,356	766,401
-2,731	14,431	1393,540	766,006
-1,717	14,409	1392,559	765,337
-0,702	14,443	1390,630	764,405
0,313	18,324	1309,389	737,687
1,327	34,871	706,049	436,070
2,342	53,556	124,327	84,237
3,356	4,322	16,597	8,574
4,371	9,969	3,179	1,702
5,386	-40,830	0,593	0,216
6,400	259,487	0,126	0,154
7,415	-40,279	-0,245	-0,090
8,429	70,140	-0,393	-0,286
9,444	255,019	-0,286	-0,347
10,459	211,435	-0,160	-0,179
11,473	-101,337	-0,541	-0,092
12,488	54,948	-0,204	-0,139
13,502	150,015	-0,289	-0,277
14,517	73,195	-0,302	-0,223
15,531	69,001	-0,294	-0,213
16,546	-54,998	-0,463	-0,146
17,561	25,568	-0,398	-0,233
18,575	187,915	-0,205	-0,216
19,590	287,984	-0,180	-0,231
20,604	-111,178	-0,285	0,041
21,619	-10,879	-0,474	-0,220
22,634	-11,905	-0,452	-0,209
23,648	59,512	-0,416	-0,289
24,663	19,278	-0,484	-0,274
25,677	30,826	-0,414	-0,250
26,692	68,907	-0,310	-0,224
27,707	-85,096	-0,378	-0,083
28,721	126,519	-0,401	-0,359
29,736	67,823	-0,422	-0,304
30,750	47,078	-0,457	-0,299
31,765	120,355	-0,401	-0,351
32,780	148,325	-0,396	-0,377
33,794	190,231	-0,228	-0,241
34,809	25,653	-0,382	-0,224
35,823	21,356	-0,408	-0,233
36,838	82,197	-0,432	-0,330
37,853	110,463	-0,393	-0,333
38,867	55,398	-0,387	-0,263
39,882	16,299	-0,395	-0,219
40,896	300,484	-0,272	-0,355
41,911	475,259	-0,206	-0,328
42,926	2,955	-0,417	-0,213
43,940	1,513	-0,308	-0,156
44,955	111,523	-0,316	-0,269
45,969	-24,862	-0,403	-0,168
46,984	-138,369	-0,319	-0,024
47,999	14,970	-0,357	-0,196
49,013	105,161	-0,308	-0,256
50,028	-67,151	-0,311	-0,086
51,042	254,367	-0,258	-0,312
52,057	-15,795	-0,288	-0,129
53,071	62,303	-0,415	-0,292
54,086	76,292	-0,235	-0,175
55,101	55,617	-0,314	-0,214
56,115	-19,420	-0,353	-0,153
57,130	-11,562	-0,445	-0,205
58,144	84,836	-0,355	-0,274
59,159	108,125	-0,286	-0,240
60,174	287,390	-0,301	-0,384
61,188	93,592	-0,351	-0,280
62,203	516,919	-0,150	-0,248
63,217	48,264	-0,385	-0,253
64,232	154,424	-0,341	-0,330
65,247	20,799	-0,353	-0,201
66,261	225,632	-0,324	-0,370
67,276	163,982	-0,219	-0,217
68,290	49,067	-0,301	-0,199
69,305	27,681	-0,323	-0,191
70,320	31,732	-0,347	-0,210
71,334	102,200	-0,239	-0,196
72,349	25,161	-0,207	-0,121
73,363	163,483	-0,336	-0,333
74,378	287,392	-0,261	-0,332
75,393	166,822	-0,123	-0,123
76,407	31,510	-0,367	-0,221
77,422	65,743	-0,204	-0,145
78,436	-42,875	-0,310	-0,110
79,451	18,830	-0,229	-0,128
80,466	202,017	-0,194	-0,211
81,480	-36,292	-0,399	-0,150
82,495	408,424	-0,209	-0,312
83,509	105,636	-0,211	-0,175
84,524	15,113	-0,245	-0,134
85,539	274,371	-0,307	-0,382
86,553	-66,410	-0,223	-0,062
87,568	9,069	-0,323	-0,171
88,582	165,180	-0,264	-0,262
89,597	-55,176	-0,296	-0,093
90,611	48,852	-0,378	-0,249
91,626	-73,490	-0,215	-0,055
92,641	508,658	-0,202	-0,331
93,655	-74,400	-0,344	-0,086
94,670	-14,914	-0,158	-0,071
95,684	147,312	-0,348	-0,329
96,699	347,519	-0,214	-0,297
97,714	73,270	-0,274	-0,201
98,728	0,383	-0,270	-0,135
99,743	10,561	-0,363	-0,194
100,757	1,074	-0,253	-0,127
101,772	146,030	-0,258	-0,243
102,787	-85,118	-0,255	-0,055
103,801	62,557	-0,192	-0,134
104,816	29,575	-0,308	-0,183
105,830	-87,940	-0,346	-0,072
106,845	14,734	-0,266	-0,145
107,860	-152,112	-0,235	-0,012
108,874	174,125	-0,227	-0,230
109,889	19,310	-0,236	-0,132
110,903	-47,381	-0,370	-0,125
111,918	-66,488	-0,301	-0,083
112,933	139,925	-0,126	-0,117
113,947	-26,020	-0,365	-0,150
114,962	-76,074	-0,208	-0,051
115,976	-59,342	-0,369	-0,111
116,991	-14,591	-0,330	-0,148
118,006	216,894	-0,245	-0,273
119,020	-58,729	-0,291	-0,088
120,035	-59,320	-0,317	-0,095
121,049	-117,366	-0,274	-0,034
122,064	-73,202	-0,203	-0,052
123,079	185,080	-0,256	-0,266
124,093	200,132	-0,265	-0,285
125,108	12,811	-0,263	-0,142
126,122	161,949	-0,278	-0,272
127,137	-178,208	-0,260	-0,004
128,151	74,991	-0,122	-0,090
129,166	-76,574	-0,307	-0,075
130,181	41,240	-0,359	-0,227
131,195	189,719	-0,187	-0,197
132,210	89,771	-0,311	-0,243
133,224	472,583	-0,192	-0,304
134,239	-91,333	-0,240	-0,048
135,254	-7,536	-0,255	-0,120
136,268	-51,497	-0,328	-0,106
137,283	-156,164	-0,334	-0,014
138,297	-33,112	-0,320	-0,123
139,312	2,361	-0,293	-0,148
140,327	489,189	-0,154	-0,247
141,341	-84,842	-0,269	0,059
142,356	-71,801	-0,173	-0,045
143,370	205,912	-0,134	-0,146
144,385	170,571	-0,188	-0,188
145,400	29,069	-0,278	-0,164
146,414	43,359	-0,187	-0,119
147,429	105,755	-0,182	-0,150
148,443	520,148	-0,150	-0,246
149,458	15,657	-0,300	-0,164
150,473	240,893	-0,239	-0,279
151,487	155,710	-0,182	-0,175
152,502	487,657	-0,149	-0,238
153,516	58,124	-0,263	-0,180
154,531	348,897	-0,153	-0,212
155,546	-125,255	-0,263	-0,028
156,560	72,814	-0,247	-0,180
157,575	661,774	-0,103	-0,185
158,589	-146,395	-0,328	-0,020
159,604	-96,432	-0,249	-0,046
160,619	132,704	-0,317	-0,286
161,633	72,772	-0,298	-0,217
162,648	101,396	-0,311	-0,252
163,662	88,181	-0,201	-0,155
164,677	158,374	-0,153	-0,148
165,692	-53,806	-0,227	-0,072
166,706	14,181	-0,214	-0,116
167,721	156,515	-0,249	-0,240
168,735	800,000	-0,088	-0,185
169,750	111,925	-0,302	-0,254
170,764	20,621	-0,111	-0,063
171,779	127,720	-0,143	-0,127
172,794	-2,512	-0,179	-0,087
173,808	468,428	-0,178	-0,279
174,823	27,123	-0,315	-0,184
175,837	242,129	-0,152	-0,178
176,852	800,000	-0,080	-0,177
177,867	130,178	-0,193	-0,173
178,881	363,567	-0,135	-0,189
179,896	-22,941	-0,199	-0,083
180,910	148,004	-0,099	-0,093
181,925	32,522	-0,210	-0,126
182,940	86,759	-0,247	-0,189
183,954	13,548	-0,355	-0,191
184,969	166,278	-0,219	-0,216
185,983	196,051	-0,227	-0,240
186,998	366,130	-0,133	-0,187
188,013	-77,023	-0,233	-0,056
189,027	278,537	-0,168	-0,209
190,042	-127,382	-0,308	-0,031
191,056	-161,756	-0,165	-0,006
192,071	-96,122	-0,330	-0,060
193,086	56,356	-0,196	-0,132
194,100	92,021	-0,154	-0,120
195,115	70,182	-0,279	-0,200
196,129	168,196	-0,157	-0,156
197,144	43,330	-0,314	-0,199
198,159	-22,883	-0,232	-0,097
199,173	800,000	-0,136	-0,275
200,188	-11,093	-0,282	-0,129
201,202	224,722	-0,201	-0,226
202,217	6,152	-0,134	-0,069
203,232	18,476	-0,206	-0,114
204,246	-12,201	-0,124	-0,056
205,261	14,436	-0,207	-0,112
206,275	-4,600	-0,263	-0,126
207,290	106,356	-0,166	-0,137
208,304	-44,537	-0,105	0,036
209,319	21,597	-0,226	-0,127
210,334	133,030	-0,211	-0,190
211,348	139,644	-0,243	-0,223
212,363	119,588	-0,279	-0,240
213,377	66,252	-0,150	-0,106
214,392	237,953	-0,180	-0,208
215,407	417,652	-0,112	-0,166
216,421	-200,000	-0,057	-0,177
217,436	45,107	-0,204	-0,130
218,450	58,159	-0,092	-0,063
219,465	103,790	-0,290	-0,236
220,480	33,404	-0,228	-0,137
221,494	-0,272	-0,203	-0,100
222,509	-200,000	0,019	-0,084
223,523	452,425	-0,117	-0,180
224,538	-10,899	-0,230	-0,105
225,553	145,928	-0,229	-0,213
226,567	101,468	-0,205	-0,166
227,582	45,758	-0,202	-0,129
228,596	54,332	-0,082	-0,055
229,611	-62,823	-0,195	-0,056
230,626	-52,444	-0,204	-0,065
231,640	4,210	-0,185	-0,094
232,655	-47,474	-0,319	-0,107
233,669	196,472	-0,192	-0,203
234,684	-200,000	-0,021	-0,223
235,699	199,371	-0,137	-0,146
236,713	23,572	-0,206	-0,117
237,728	-34,721	-0,126	-0,048
238,742	-39,461	-0,159	-0,057
239,757	137,921	-0,173	-0,157
240,772	167,436	-0,208	-0,205
241,786	-87,348	-0,140	-0,029
242,801	800,000	-0,070	-0,186
243,815	72,582	-0,200	-0,144
244,830	84,586	-0,156	-0,118
245,844	-200,000	-0,013	-0,103
246,859	800,000	-0,147	-0,321
247,874	-171,505	-0,154	-0,003
248,888	-186,534	-0,150	0,001
249,903	47,050	-0,221	-0,142
250,917	31,855	-0,166	-0,099
251,932	-105,258	-0,174	-0,027
252,947	-25,775	-0,244	-0,099
253,961	105,935	-0,176	-0,144
254,976	75,024	-0,151	-0,110
255,990	70,116	-0,213	-0,152
257,005	-107,414	-0,194	0,029
258,020	-55,294	-0,292	-0,090
259,034	-42,472	-0,269	-0,094
260,049	168,076	-0,075	-0,073
261,063	461,118	-0,096	-0,149
262,078	-33,102	-0,264	-0,101
263,093	11,065	-0,258	-0,136
264,107	-51,932	-0,182	-0,058
265,122	-92,196	-0,187	-0,036
266,136	73,153	-0,144	-0,104
267,151	-81,128	-0,196	-0,044
268,166	-90,382	-0,190	-0,038
269,180	191,512	-0,138	-0,144
270,195	578,041	-0,178	-0,302
271,209	206,748	-0,234	-0,252
272,224	7,407	-0,163	-0,084
273,239	-200,000	0,014	-0,171
274,253	-60,164	-0,139	0,041
275,268	78,892	-0,124	-0,091
276,282	109,879	-0,214	-0,177
277,297	178,394	-0,173	-0,174
278,312	800,000	-0,079	-0,170
279,326	-118,310	-0,153	-0,019
280,341	64,900	-0,130	-0,091
281,355	-142,139	-0,110	-0,007
282,370	69,741	-0,243	-0,172
283,384	-154,608	-0,231	-0,010
284,399	-164,245	-0,177	-0,006
285,414	94,508	-0,189	-0,148
286,428	-24,133	-0,171	0,070
287,443	-37,452	-0,151	0,055
288,457	-200,000	-0,032	-0,168
289,472	346,929	-0,093	-0,127
290,487	117,733	-0,187	-0,159
291,501	185,781	-0,170	-0,174
292,516	247,927	-0,217	-0,254
293,530	-200,000	-0,025	-0,137
294,545	-200,000	-0,018	-0,089
295,560	-139,316	-0,156	0,011
296,574	-39,025	-0,202	-0,073
297,589	100,834	-0,147	-0,118
298,603	218,606	-0,216	-0,238
299,618	16,739	-0,123	-0,067
300,633	100,376	-0,137	-0,109
301,647	-154,884	-0,136	0,006
302,662	-79,875	-0,031	-0,007
303,676	-92,203	-0,177	-0,034
304,691	528,612	-0,099	-0,162
305,706	-4,226	-0,226	-0,107
306,720	63,586	-0,238	-0,165
307,735	2,371	-0,287	-0,143
308,749	-21,110	-0,182	-0,076
309,764	542,185	-0,115	-0,190
310,779	172,576	-0,205	-0,203
311,793	800,000	-0,072	-0,160
312,808	-71,402	-0,235	-0,060
313,822	180,211	-0,165	-0,166
314,837	-36,106	-0,198	-0,073
315,852	41,136	-0,226	-0,140
316,866	263,077	-0,102	-0,123
317,881	339,372	-0,032	-0,043
318,895	800,000	-0,162	-0,329
319,910	-5,323	-0,142	-0,067
320,925	-68,758	-0,186	-0,049
321,939	-145,186	-0,115	-0,007
322,954	-200,000	-0,030	-0,108
323,968	-200,000	0,005	-0,060
324,983	-54,452	-0,108	-0,033
325,997	-75,389	-0,215	-0,052
327,012	195,786	-0,091	-0,095
328,027	800,000	-0,095	-0,209
329,041	-16,308	-0,032	-0,014
330,056	-99,865	-0,161	0,027
331,070	42,315	-0,062	-0,038
332,085	482,656	-0,060	-0,094
333,100	-200,000	0,000	-0,088
334,114	11,476	-0,157	-0,082
335,129	-159,901	-0,152	0,006
336,143	-134,773	-0,153	-0,013
337,158	-15,433	-0,129	-0,056
338,173	-138,989	-0,164	0,012
339,187	130,717	-0,085	-0,075
340,202	-187,569	-0,130	-0,001
341,216	588,043	-0,057	-0,097
342,231	670,017	-0,075	-0,135
343,246	-97,541	-0,117	0,021
344,260	800,000	0,040	-0,118
345,275	-108,762	-0,044	0,006
346,289	28,591	-0,079	-0,046
347,304	116,421	-0,043	-0,036
348,319	-200,000	-0,050	-0,160
349,333	87,641	-0,125	-0,095
350,348	-8,236	-0,108	-0,050
351,362	78,385	-0,195	-0,143
352,377	374,208	-0,112	-0,156
353,392	-178,672	-0,021	0,000
354,406	-16,118	-0,131	-0,057
355,421	209,818	1315,073	1416,115
356,435	161,497	1475,864	1416,619
