DTS Sentinel unit serial number:	SN410029Multiplexer serial number:	ORYXHardware model number:	OX2-SRSoftware version number:	ORYX F/W v4,00 Oryx Data Collector v3.7.2.0data status	okinstallation	B3 Nyhavnadifferential loss correction	single-endedforward channel	channel 1reverse channel	N/Adate	2023/12/04time	00:57:30forward acquisition time	300,00reverse acquisition time	0,00gamma	499,1914k internal	0,3203k external	0,3203temperature offset calibration	1,0000default loss term (dB/km)	0,3820temperature slope calibration	1,0000multiplexer offset coefficient	1,0000multiplexer slope coefficient	1,0000fibre end	0,00T internal ref (°C)	12,56T ext. ref 1 (°C)	-2,69T ext. ref 2 (°C)	-2,73length (m)	temperature (°C)	Stokes	anti-Stokes-744,400	649,276	-0,153	-0,286
-743,385	800,000	0,102	0,231
-742,371	73,207	-0,136	-0,103
-741,356	-200,000	-0,076	0,267
-740,342	800,000	-0,091	-0,266
-739,327	652,676	-0,137	0,256
-738,312	-200,000	-0,072	-0,366
-737,298	-200,000	-0,062	0,287
-736,283	62,616	-0,285	-0,207
-735,269	-200,000	0,010	0,280
-734,254	800,000	-0,056	-0,171
-733,239	-82,630	-0,176	0,041
-732,225	-200,000	0,058	-0,268
-731,210	210,896	0,134	0,154
-730,196	-158,435	0,073	-0,003
-729,181	-109,016	-0,140	0,021
-728,167	640,163	0,034	-0,064
-727,152	800,000	-0,019	0,045
-726,137	-72,718	-0,086	-0,023
-725,123	-176,240	-0,046	-0,001
-724,108	-60,027	-0,051	0,016
-723,094	191,341	0,085	-0,093
-722,079	92,073	-0,118	0,096
-721,064	-200,000	0,007	0,054
-720,050	800,000	-0,030	-0,077
-719,035	547,444	0,073	-0,127
-718,021	-108,270	0,081	-0,013
-717,006	26,915	-0,057	0,034
-715,991	40,889	-0,052	-0,034
-714,977	-58,781	-0,146	0,046
-713,962	-200,000	-0,007	0,044
-712,948	256,208	0,024	-0,030
-711,933	191,642	-0,028	0,030
-710,918	800,000	-0,018	-0,053
-709,904	800,000	0,083	-0,178
-708,889	218,871	0,057	-0,066
-707,875	800,000	-0,053	-0,149
-706,860	101,947	-0,098	-0,083
-705,845	247,021	0,017	0,021
-704,831	800,000	0,032	-0,073
-703,816	800,000	0,039	-0,117
-702,802	-200,000	-0,015	-0,095
-701,787	145,039	0,068	0,066
-700,772	-200,000	0,022	-0,083
-699,758	-200,000	0,001	-0,111
-698,743	43,854	0,122	0,081
-697,729	-55,378	0,161	-0,052
-696,714	142,015	-0,051	-0,049
-695,699	-200,000	-0,047	-0,179
-694,685	155,149	-0,052	-0,052
-693,670	342,049	-0,037	-0,053
-692,656	-10,786	0,105	0,050
-691,641	473,605	0,037	0,061
-690,627	800,000	-0,047	0,103
-689,612	-115,498	-0,106	0,014
-688,597	-100,181	-0,065	-0,012
-687,583	-18,278	-0,158	0,071
-686,568	-200,000	0,009	-0,037
-685,554	-200,000	-0,019	-0,128
-684,539	200,172	0,092	0,102
-683,524	658,871	-0,087	0,162
-682,510	360,022	0,043	0,063
-681,495	-200,000	-0,005	0,084
-680,481	-200,000	-0,012	-0,078
-679,466	-200,000	-0,053	-0,195
-678,451	-39,586	-0,069	0,026
-677,437	395,317	0,062	0,094
-676,422	258,485	0,012	0,015
-675,408	-200,000	0,013	-0,054
-674,393	44,306	-0,078	-0,052
-673,378	30,422	-0,184	0,113
-672,364	-200,000	-0,020	-0,090
-671,349	-200,000	-0,008	-0,222
-670,335	-57,975	-0,100	0,032
-669,320	-200,000	0,019	-0,194
-668,305	185,932	-0,061	0,066
-667,291	425,488	0,048	-0,076
-666,276	-81,253	-0,180	-0,043
-665,262	-12,857	-0,109	0,051
-664,247	36,361	0,122	0,078
-663,232	800,000	-0,037	0,112
-662,218	2,548	-0,052	0,027
-661,203	-200,000	-0,008	0,059
-660,189	800,000	0,057	0,126
-659,174	-200,000	-0,015	-0,108
-658,159	-78,489	-0,200	0,049
-657,145	800,000	-0,031	-0,094
-656,130	39,311	-0,036	-0,023
-655,116	-200,000	-0,037	-0,142
-654,101	129,624	-0,080	-0,074
-653,086	154,125	-0,068	-0,068
-652,072	42,802	-0,069	-0,046
-651,057	-200,000	0,006	-0,027
-650,043	-200,000	-0,019	-0,122
-649,028	-93,672	-0,144	-0,029
-648,014	156,665	0,096	-0,097
-646,999	669,073	0,058	-0,110
-645,984	296,338	-0,036	-0,048
-644,970	800,000	0,019	0,042
-643,955	3,490	0,097	-0,051
-642,941	-32,826	0,057	-0,023
-641,926	97,399	-0,101	-0,084
-640,911	-90,194	0,071	0,015
-639,897	347,884	-0,062	-0,088
-638,882	256,437	-0,042	-0,052
-637,868	-122,411	-0,137	0,016
-636,853	800,000	0,039	-0,122
-635,838	119,275	0,058	0,052
-634,824	800,000	-0,008	-0,022
-633,809	-200,000	-0,004	0,072
-632,795	-67,925	0,063	-0,018
-631,780	143,753	0,031	0,030
-630,765	-200,000	0,019	0,076
-629,751	399,163	-0,079	-0,120
-628,736	52,680	0,050	0,034
-627,722	-41,804	-0,028	0,010
-626,707	-200,000	0,001	0,025
-625,692	-200,000	0,004	0,109
-624,678	20,845	0,076	-0,045
-623,663	800,000	0,030	-0,075
-622,649	-78,407	-0,140	0,035
-621,634	-200,000	-0,019	0,077
-620,619	-200,000	0,005	0,108
-619,605	-1,123	-0,086	0,044
-618,590	303,822	-0,034	0,046
-617,576	486,081	0,022	0,036
-616,561	-56,378	-0,091	-0,029
-615,546	326,241	-0,050	-0,069
-614,532	-200,000	0,003	-0,051
-613,517	56,253	-0,036	-0,025
-612,503	-34,725	0,122	0,048
-611,488	261,987	-0,121	0,152
-610,474	-172,768	0,107	-0,002
-609,459	27,099	0,017	0,010
-608,444	125,901	0,047	0,043
-607,430	-123,321	-0,090	-0,010
-606,415	-196,077	0,043	-0,000
-605,401	-200,000	0,003	-0,040
-604,386	-200,000	0,010	0,048
-603,371	-55,762	0,086	0,028
-602,357	164,856	-0,131	0,134
-601,342	13,667	0,203	-0,113
-600,328	-200,000	-0,027	0,175
-599,313	-200,000	-0,013	0,081
-598,298	151,528	0,081	-0,080
-597,284	240,547	0,093	0,112
-596,269	-182,583	0,083	-0,001
-595,255	800,000	0,031	-0,083
-594,240	496,754	0,016	0,026
-593,225	800,000	-0,071	-0,155
-592,211	52,392	0,030	-0,021
-591,196	-91,952	0,071	-0,014
-590,182	-151,837	-0,037	-0,002
-589,167	70,787	0,063	0,047
-588,152	228,162	-0,057	0,067
-587,138	-65,016	0,050	-0,014
-586,123	-60,081	-0,081	-0,025
-585,109	16,161	0,059	-0,034
-584,094	176,037	0,060	-0,063
-583,079	-189,475	0,040	0,000
-582,065	-111,615	0,085	0,012
-581,050	-182,079	-0,074	0,001
-580,036	419,673	-0,065	-0,101
-579,021	800,000	0,039	-0,102
-578,006	718,612	-0,029	0,055
-576,992	800,000	0,030	-0,076
-575,977	-200,000	0,018	-0,087
-574,963	-200,000	-0,032	0,222
-573,948	355,707	-0,057	0,082
-572,934	26,376	0,045	0,027
-571,919	-31,674	-0,156	0,063
-570,904	619,102	0,040	-0,073
-569,890	273,018	0,049	0,063
-568,875	28,368	-0,052	-0,032
-567,861	791,241	0,062	0,123
-566,846	11,549	0,102	0,056
-565,831	-83,450	-0,039	-0,009
-564,817	800,000	-0,044	-0,092
-563,802	-22,550	0,046	0,020
-562,788	160,306	-0,079	-0,080
-561,773	208,887	0,043	0,049
-560,758	800,000	0,037	0,084
-559,744	-25,002	0,084	-0,036
-558,729	-141,690	0,048	-0,003
-557,715	180,836	-0,107	-0,113
-556,700	-32,448	-0,078	-0,031
-555,685	21,005	-0,048	-0,028
-554,671	520,678	-0,041	-0,070
-553,656	-133,246	0,220	0,020
-552,642	-200,000	0,011	0,132
-551,627	-0,519	-0,157	-0,080
-550,612	196,854	0,011	0,013
-549,598	-80,932	0,075	-0,018
-548,583	183,317	0,037	-0,039
-547,569	-84,368	-0,012	-0,003
-546,554	-200,000	-0,014	-0,052
-545,539	-200,000	0,035	-0,117
-544,525	-124,922	-0,126	0,014
-543,510	585,913	-0,040	-0,071
-542,496	-175,230	-0,078	0,002
-541,481	-129,754	-0,128	0,013
-540,466	119,537	0,048	0,043
-539,452	482,637	0,085	0,140
-538,437	332,728	0,073	0,102
-537,423	-159,119	0,059	-0,002
-536,408	-11,393	-0,087	-0,041
-535,393	268,311	0,055	-0,069
-534,379	-81,792	-0,243	-0,057
-533,364	23,273	-0,145	-0,086
-532,350	-200,000	-0,008	-0,065
-531,335	-200,000	-0,009	-0,183
-530,321	112,272	0,093	0,081
-529,306	-5,357	-0,055	-0,027
-528,291	44,235	-0,041	-0,027
-527,277	-70,670	-0,111	0,030
-526,262	7,252	-0,082	0,044
-525,248	525,163	0,082	0,140
-524,233	-122,513	-0,072	0,008
-523,218	26,588	0,133	-0,080
-522,204	800,000	0,030	0,089
-521,189	243,336	-0,036	-0,043
-520,175	-200,000	0,004	-0,050
-519,160	549,378	0,058	-0,101
-518,145	687,267	0,013	-0,024
-517,131	74,479	-0,120	0,090
-516,116	-60,790	0,131	-0,040
-515,102	-200,000	-0,028	-0,104
-514,087	-97,759	0,072	0,013
-513,072	431,692	-0,082	-0,129
-512,058	-25,006	-0,116	-0,049
-511,043	695,709	0,025	0,048
-510,029	-130,097	0,195	-0,019
-509,014	93,704	0,055	0,044
-507,999	320,344	0,024	0,033
-506,985	-97,847	-0,043	0,008
-505,970	649,968	-0,115	-0,213
-504,956	-35,766	0,085	0,033
-503,941	-93,563	0,020	-0,004
-502,926	221,660	-0,032	0,037
-501,912	-0,031	-0,051	0,026
-500,897	-200,000	-0,041	0,143
-499,883	-55,653	0,037	-0,012
-498,868	98,080	-0,135	-0,112
-497,853	64,305	-0,018	-0,013
-496,839	-200,000	0,005	0,063
-495,824	158,804	0,148	0,148
-494,810	-200,000	0,023	-0,072
-493,795	-75,525	-0,048	0,012
-492,781	421,491	-0,041	0,063
-491,766	-200,000	0,016	0,058
-490,751	63,830	-0,016	-0,011
-489,737	345,928	0,046	0,065
-488,722	-26,459	0,039	0,016
-487,708	215,142	-0,065	-0,075
-486,693	-125,600	-0,055	-0,006
-485,678	-200,000	-0,003	0,104
-484,664	800,000	0,045	0,099
-483,649	99,857	0,062	-0,051
-482,635	-200,000	0,007	0,042
-481,620	88,245	0,065	0,052
-480,605	-200,000	-0,013	0,096
-479,591	-32,595	0,186	0,074
-478,576	89,535	0,077	-0,062
-477,562	-200,000	-0,012	0,105
-476,547	800,000	0,027	-0,066
-475,532	-52,393	-0,146	-0,048
-474,518	154,028	0,093	0,091
-473,503	-11,725	-0,100	0,047
-472,489	569,005	0,058	0,103
-471,474	-43,251	-0,133	-0,048
-470,459	102,773	-0,032	-0,027
-469,445	-200,000	-0,048	0,164
-468,430	-61,026	0,047	0,014
-467,416	1,576	0,070	-0,036
-466,401	-176,889	-0,079	0,001
-465,386	246,205	0,069	0,084
-464,372	-128,852	0,045	-0,005
-463,357	15,750	-0,021	0,012
-462,343	491,517	-0,051	-0,084
-461,328	-100,370	-0,069	0,012
-460,313	-52,088	0,095	0,032
-459,299	-200,000	-0,004	-0,015
-458,284	80,343	-0,051	-0,040
-457,270	33,047	-0,020	0,013
-456,255	-82,216	-0,090	-0,021
-455,241	-184,300	0,094	0,001
-454,226	-119,302	-0,044	0,005
-453,211	175,402	0,103	0,108
-452,197	-200,000	-0,000	0,027
-451,182	800,000	-0,054	0,164
-450,168	-33,724	0,127	0,050
-449,153	-200,000	-0,023	-0,184
-448,138	451,410	0,044	0,071
-447,124	-200,000	-0,001	-0,021
-446,109	81,229	0,093	-0,072
-445,095	-146,544	0,074	-0,005
-444,080	-200,000	-0,021	0,078
-443,065	800,000	0,047	0,146
-442,051	238,843	0,031	0,037
-441,036	653,109	-0,075	-0,139
-440,022	-200,000	-0,030	-0,106
-439,007	800,000	-0,025	-0,073
-437,992	-9,314	0,084	-0,040
-436,978	800,000	0,012	0,025
-435,963	800,000	0,046	0,132
-434,949	135,167	0,012	0,011
-433,934	730,029	-0,020	0,038
-432,919	-35,175	0,104	0,040
-431,905	800,000	-0,007	-0,016
-430,890	13,246	0,140	0,078
-429,876	-79,602	-0,035	0,008
-428,861	89,355	0,080	0,064
-427,846	-52,324	-0,110	0,036
-426,832	94,034	0,095	-0,077
-425,817	800,000	0,072	-0,201
-424,803	-61,849	-0,089	-0,026
-423,788	-93,067	0,184	-0,036
-422,773	-200,000	-0,003	-0,054
-421,759	-40,606	-0,063	0,023
-420,744	800,000	0,017	0,038
-419,730	-19,019	-0,037	-0,016
-418,715	267,816	-0,023	0,029
-417,701	-28,801	-0,167	0,068
-416,686	-200,000	-0,004	-0,016
-415,671	800,000	0,054	0,120
-414,657	-200,000	0,024	0,079
-413,642	-43,463	0,079	0,029
-412,628	694,898	-0,058	-0,110
-411,613	185,196	-0,079	-0,084
-410,598	-200,000	0,011	-0,093
-409,584	-200,000	-0,004	-0,089
-408,569	800,000	0,076	-0,181
-407,555	-200,000	0,018	0,204
-406,540	-200,000	0,013	0,083
-405,525	-200,000	-0,007	0,080
-404,511	3,765	-0,099	-0,052
-403,496	144,272	0,062	0,059
-402,482	-95,272	-0,027	-0,005
-401,467	700,539	-0,016	0,030
-400,452	161,484	-0,091	0,092
-399,438	-178,502	-0,047	0,001
-398,423	-200,000	0,019	0,103
-397,409	-200,000	0,010	-0,098
-396,394	66,244	-0,040	0,029
-395,379	442,078	-0,062	0,097
-394,365	-88,476	0,050	0,011
-393,350	800,000	-0,046	0,123
-392,336	-108,698	0,071	-0,011
-391,321	36,484	0,074	-0,047
-390,306	321,931	0,019	0,026
-389,292	365,502	-0,035	0,051
-388,277	249,369	-0,073	-0,089
-387,263	350,801	0,030	-0,043
-386,248	742,399	-0,017	0,034
-385,233	800,000	0,036	0,090
-384,219	800,000	0,048	0,113
-383,204	800,000	-0,086	-0,205
-382,190	195,776	0,047	-0,051
-381,175	-16,519	0,043	0,020
-380,160	800,000	-0,039	-0,095
-379,146	34,902	-0,055	0,034
-378,131	-200,000	-0,006	-0,037
-377,117	-37,660	-0,066	0,025
-376,102	85,438	0,021	-0,016
-375,088	-200,000	0,035	-0,237
-374,073	735,415	0,020	0,039
-373,058	31,697	-0,042	0,026
-372,044	-45,692	0,102	-0,036
-371,029	119,587	0,075	-0,067
-370,015	-91,374	-0,038	-0,008
-369,000	-200,000	0,023	-0,129
-367,985	488,118	0,107	-0,176
-366,971	191,844	-0,111	-0,120
-365,956	272,345	0,016	0,020
-364,942	66,582	0,085	-0,062
-363,927	-1,428	0,104	0,052
-362,912	-200,000	0,014	0,088
-361,898	34,362	-0,071	-0,044
-360,883	72,840	0,101	0,075
-359,869	-76,243	-0,078	0,019
-358,854	800,000	-0,031	0,079
-357,839	-200,000	0,001	0,068
-356,825	328,251	0,083	0,114
-355,810	324,771	-0,062	0,085
-354,796	-32,429	0,171	0,068
-353,781	155,012	0,031	-0,030
-352,766	122,225	0,010	-0,009
-351,752	411,082	-0,034	-0,052
-350,737	279,220	0,028	0,035
-349,723	85,023	0,056	0,044
-348,708	800,000	0,051	0,117
-347,693	-200,000	0,014	-0,046
-346,679	-35,610	-0,060	0,023
-345,664	-71,987	-0,078	-0,021
-344,650	795,095	-0,039	0,078
-343,635	10,980	0,181	0,099
-342,620	191,153	-0,064	0,069
-341,606	296,219	0,136	-0,179
-340,591	-61,861	-0,058	0,017
-339,577	118,484	-0,061	0,053
-338,562	800,000	-0,006	0,015
-337,548	358,848	-0,054	0,077
-336,533	192,277	0,096	0,104
-335,518	-200,000	0,002	0,059
-334,504	185,443	0,052	-0,056
-333,489	800,000	0,043	0,095
-332,475	-55,057	-0,105	0,034
-331,460	-10,094	-0,070	-0,033
-330,445	124,220	-0,060	-0,054
-329,431	-200,000	0,006	0,065
-328,416	800,000	-0,026	0,082
-327,402	800,000	0,021	0,049
-326,387	-200,000	-0,018	0,062
-325,372	-113,781	0,048	0,007
-324,358	435,947	-0,023	-0,036
-323,343	128,973	-0,024	-0,022
-322,329	140,413	0,014	-0,013
-321,314	328,602	0,080	0,110
-320,299	209,131	-0,040	0,045
-319,285	265,158	0,115	0,144
-318,270	800,000	-0,029	0,072
-317,256	-200,000	0,002	-0,008
-316,241	358,470	-0,059	-0,084
-315,226	-200,000	-0,006	-0,038
-314,212	422,109	-0,031	0,047
-313,197	-200,000	0,006	-0,071
-312,183	463,307	-0,008	0,013
-311,168	800,000	0,032	0,078
-310,153	-48,203	-0,079	-0,027
-309,139	-46,716	-0,008	0,003
-308,124	234,079	0,146	-0,173
-307,110	-200,000	0,002	-0,017
-306,095	9,465	0,130	0,070
-305,080	800,000	-0,011	0,031
-304,066	25,659	-0,107	0,064
-303,051	-59,152	0,114	-0,035
-302,037	-200,000	0,005	-0,066
-301,022	708,539	-0,029	0,054
-300,008	-200,000	-0,029	0,098
-298,993	800,000	0,035	0,106
-297,978	137,960	-0,043	0,041
-296,964	-200,000	0,006	-0,118
-295,949	63,576	-0,038	-0,027
-294,935	420,302	0,090	-0,138
-293,920	-94,037	-0,043	0,008
-292,905	31,703	0,080	0,049
-291,891	-200,000	-0,021	0,075
-290,876	354,751	-0,008	0,012
-289,862	79,252	0,048	-0,037
-288,847	-200,000	-0,048	-0,160
-287,832	144,578	0,053	-0,050
-286,818	-64,070	-0,058	-0,017
-285,803	-200,000	0,008	-0,066
-284,789	-200,000	0,034	-0,143
-283,774	-69,024	0,140	-0,038
-282,759	-61,839	-0,081	-0,024
-281,745	-113,790	-0,032	0,004
-280,730	241,925	-0,049	0,058
-279,716	-161,368	-0,081	0,003
-278,701	-200,000	-0,018	-0,102
-277,686	-33,753	0,073	0,029
-276,672	416,087	0,068	0,104
-275,657	-200,000	-0,000	-0,048
-274,643	-200,000	0,023	-0,084
-273,628	-29,322	-0,063	-0,026
-272,613	-200,000	-0,005	-0,055
-271,599	800,000	0,034	-0,082
-270,584	-200,000	0,032	-0,162
-269,570	-22,799	0,093	-0,040
-268,555	95,704	-0,017	-0,014
-267,540	125,872	-0,010	-0,009
-266,526	800,000	-0,022	-0,046
-265,511	180,248	-0,106	-0,111
-264,497	204,584	0,053	-0,059
-263,482	-200,000	0,006	0,053
-262,467	-25,922	0,071	-0,030
-261,453	800,000	0,032	0,079
-260,438	-156,873	-0,128	-0,006
-259,424	386,308	0,052	-0,076
-258,409	27,322	-0,092	-0,055
-257,395	-106,346	0,074	0,012
-256,380	211,107	0,023	0,025
-255,365	-200,000	-0,001	0,018
-254,351	800,000	-0,043	0,131
-253,336	-200,000	0,009	-0,127
-252,322	-19,059	-0,085	-0,038
-251,307	800,000	0,066	-0,166
-250,292	635,649	-0,045	-0,081
-249,278	-200,000	0,001	0,091
-248,263	-104,050	0,119	0,020
-247,249	800,000	0,056	0,150
-246,234	-56,535	-0,132	0,041
-245,219	-200,000	-0,005	-0,040
-244,205	-200,000	0,003	-0,073
-243,190	-200,000	-0,022	-0,077
-242,176	44,706	0,136	-0,089
-241,161	800,000	-0,034	0,080
-240,146	800,000	0,061	0,124
-239,132	-200,000	0,003	-0,059
-238,117	-54,091	0,007	0,002
-237,103	145,237	-0,053	-0,051
-236,088	-91,792	-0,127	0,025
-235,073	772,880	0,024	-0,047
-234,059	174,577	0,047	0,049
-233,044	-97,090	0,108	0,020
-232,030	543,795	-0,010	-0,017
-231,015	-200,000	0,010	-0,109
-230,000	534,894	-0,079	0,134
-228,986	-200,000	-0,013	-0,269
-227,971	-43,914	0,197	0,070
-226,957	800,000	0,017	0,046
-225,942	-200,000	-0,034	-0,146
-224,927	-200,000	-0,010	-0,084
-223,913	10,458	-0,078	-0,042
-222,898	94,222	-0,079	-0,064
-221,884	-37,592	-0,159	-0,060
-220,869	-200,000	0,033	0,129
-219,855	800,000	0,020	0,060
-218,840	-91,620	-0,189	0,038
-217,825	-103,836	0,078	0,013
-216,811	40,197	-0,098	-0,063
-215,796	-200,000	-0,008	-0,026
-214,782	-87,055	-0,048	-0,010
-213,767	-36,504	0,091	0,035
-212,752	800,000	0,027	-0,059
-211,738	336,974	-0,040	0,056
-210,723	800,000	0,006	0,013
-209,709	86,372	-0,056	0,044
-208,694	-200,000	0,018	-0,088
-207,679	800,000	0,034	-0,081
-206,665	29,582	0,055	0,033
-205,650	213,119	0,090	0,101
-204,636	-68,667	0,185	0,051
-203,621	80,009	0,091	0,069
-202,606	-123,941	-0,152	-0,017
-201,592	104,879	-0,044	-0,037
-200,577	41,577	-0,134	-0,086
-199,563	54,686	-0,139	0,096
-198,548	-200,000	0,005	0,074
-197,533	235,347	-0,082	0,097
-196,519	-200,000	-0,007	-0,054
-195,504	-159,708	-0,269	-0,010
-194,490	123,553	-0,021	0,018
-193,475	800,000	0,044	-0,092
-192,460	185,034	-0,043	0,045
-191,446	-200,000	0,007	0,074
-190,431	-200,000	0,015	0,102
-189,417	800,000	-0,048	-0,095
-188,402	-200,000	0,018	-0,086
-187,387	-19,461	0,057	-0,025
-186,373	111,382	-0,163	-0,140
-185,358	193,784	-0,078	0,084
-184,344	16,914	0,135	0,076
-183,329	691,291	0,009	-0,017
-182,315	51,730	0,064	-0,043
-181,300	414,430	-0,043	-0,065
-180,285	37,779	0,046	0,029
-179,271	-200,000	0,003	-0,079
-178,256	800,000	-0,032	-0,079
-177,242	-17,124	0,025	-0,011
-176,227	-200,000	0,019	0,075
-175,212	86,048	-0,110	0,086
-174,198	40,832	0,095	0,061
-173,183	-33,109	-0,107	-0,042
-172,169	17,959	-0,010	0,006
-171,154	2,503	-0,109	-0,056
-170,139	-200,000	0,022	-0,089
-169,125	-40,079	0,139	-0,051
-168,110	23,607	0,093	-0,054
-167,096	291,782	-0,090	0,116
-166,081	800,000	-0,039	0,095
-165,066	-200,000	-0,024	0,126
-164,052	-87,716	-0,067	0,014
-163,037	361,125	0,066	-0,094
-162,023	169,117	-0,099	-0,100
-161,008	-114,199	-0,053	0,007
-159,993	26,601	-0,094	0,056
-158,979	-200,000	-0,005	-0,175
-157,964	48,273	-0,041	-0,027
-156,950	597,483	-0,046	-0,082
-155,935	-85,365	0,068	0,015
-154,920	-200,000	0,034	0,136
-153,906	166,387	-0,142	0,143
-152,891	800,000	-0,049	0,117
-151,877	300,751	0,036	-0,047
-150,862	-200,000	-0,011	-0,115
-149,847	167,423	-0,038	0,038
-148,833	347,891	-0,019	-0,027
-147,818	11,107	0,052	0,028
-146,804	800,000	0,016	0,040
-145,789	227,157	-0,045	0,052
-144,775	-93,798	-0,103	0,020
-143,760	430,981	0,081	0,125
-142,745	-32,493	-0,091	0,036
-141,731	-200,000	0,034	0,108
-140,716	800,000	0,045	-0,136
-139,702	319,120	0,048	0,065
-138,687	800,000	-0,010	0,027
-137,672	12,721	-0,071	-0,039
-136,658	-200,000	-0,006	-0,111
-135,643	-119,534	0,061	-0,007
-134,629	-152,353	-0,123	0,006
-133,614	-200,000	-0,015	0,220
-132,599	192,758	0,051	0,055
-131,585	-200,000	0,020	-0,170
-130,570	111,357	-0,073	0,062
-129,556	-123,857	0,018	-0,002
-128,541	-76,202	-0,163	-0,041
-127,526	299,845	0,037	0,048
-126,512	133,479	0,107	0,098
-125,497	-90,617	0,131	0,027
-124,483	-63,427	0,116	0,034
-123,468	-86,984	0,079	-0,017
-122,453	116,885	0,149	0,130
-121,439	-68,643	-0,152	0,041
-120,424	425,716	-0,074	0,113
-119,410	-97,008	0,092	0,017
-118,395	739,253	-0,071	0,135
-117,380	82,090	0,049	-0,038
-116,366	-200,000	-0,004	0,181
-115,351	105,880	-0,059	-0,050
-114,337	800,000	-0,047	-0,105
-113,322	800,000	-0,006	0,018
-112,307	142,238	-0,043	0,041
-111,293	-50,480	0,164	0,054
-110,278	581,669	0,062	0,108
-109,264	132,826	0,076	0,069
-108,249	108,244	-0,091	0,077
-107,234	-133,893	0,060	0,005
-106,220	380,632	-0,095	0,139
-105,205	226,436	0,046	0,053
-104,191	-200,000	0,008	0,029
-103,176	-8,287	-0,050	-0,024
-102,162	200,436	-0,056	-0,061
-101,147	-150,899	0,160	-0,008
-100,132	-51,353	-0,065	-0,021
-99,118	800,000	0,032	-0,095
-98,103	258,608	-0,103	0,126
-97,089	-200,000	-0,009	0,047
-96,074	-200,000	-0,001	0,180
-95,059	-154,040	-0,103	0,005
-94,045	295,944	-0,013	-0,017
-93,030	-84,093	-0,068	-0,015
-92,016	83,082	0,026	-0,020
-91,001	-200,000	0,010	-0,097
-89,986	461,852	0,042	0,066
-88,972	30,439	0,076	0,046
-87,957	-173,257	-0,133	-0,003
-86,943	239,396	0,056	0,066
-85,928	800,000	-0,019	0,044
-84,913	-200,000	-0,020	-0,165
-83,899	800,000	0,023	-0,063
-82,884	12,477	-0,032	-0,017
-81,870	-200,000	-0,002	0,052
-80,855	-200,000	-0,013	-0,060
-79,840	123,851	0,044	0,039
-78,826	-56,758	0,116	0,036
-77,811	-200,000	0,012	-0,045
-76,797	-20,254	-0,079	0,034
-75,782	105,994	0,025	-0,021
-74,767	-200,000	0,041	0,154
-73,753	329,858	0,026	-0,036
-72,738	177,632	0,032	-0,033
-71,724	-131,694	0,092	-0,008
-70,709	-20,707	-0,154	-0,067
-69,694	797,474	0,032	-0,063
-68,680	5,292	0,100	0,052
-67,665	-69,995	-0,039	0,010
-66,651	800,000	0,038	-0,096
-65,636	-72,634	-0,056	-0,015
-64,622	-200,000	-0,041	-0,156
-63,607	696,207	0,028	-0,052
-62,592	-200,000	0,020	-0,065
-61,578	-116,300	-0,090	0,012
-60,563	258,863	0,064	-0,079
-59,549	-200,000	0,049	0,181
-58,534	2,506	-1,857	-0,948
-57,519	613,289	-1,208	-2,150
-56,505	-200,000	-0,594	-4,636
-55,490	242,975	0,987	1,172
-54,476	800,000	5,047	11,512
-53,461	-200,000	19,882	326,283
-52,446	800,000	749,049	2325,283
-51,432	557,824	1660,262	2843,530
-50,417	76,104	1671,809	1250,269
-49,403	20,441	1544,662	880,936
-48,388	14,373	1467,196	807,230
-47,373	18,250	1457,205	820,437
-46,359	16,507	1446,808	806,198
-45,344	12,668	1442,448	785,346
-44,330	12,621	1440,350	783,947
-43,315	12,607	1438,666	782,933
-42,300	12,643	1436,876	782,098
-41,286	12,643	1435,783	781,472
-40,271	12,586	1434,363	780,399
-39,257	12,593	1433,121	779,724
-38,242	12,664	1431,893	779,365
-37,227	12,645	1430,736	778,610
-36,213	12,607	1429,467	777,711
-35,198	12,657	1428,369	777,318
-34,184	12,694	1427,278	776,869
-33,169	12,606	1426,012	775,735
-32,154	12,684	1424,775	775,399
-31,140	12,698	1423,577	774,780
-30,125	12,675	1422,465	774,036
-29,111	12,681	1421,246	773,371
-28,096	12,688	1420,229	772,822
-27,082	12,601	1419,297	771,871
-26,067	12,582	1418,272	771,194
-25,052	12,586	1417,082	770,537
-24,038	12,597	1416,165	770,057
-23,023	12,573	1414,925	769,239
-22,009	12,583	1413,962	768,732
-20,994	12,540	1413,132	768,049
-19,979	12,582	1412,071	767,639
-18,965	12,575	1411,099	767,046
-17,950	12,508	1410,479	766,369
-16,936	12,534	1409,454	765,901
-15,921	12,491	1408,458	765,131
-14,906	12,500	1407,613	764,680
-13,892	12,491	1406,344	763,918
-12,877	12,515	1405,631	763,614
-11,863	12,553	1404,677	763,245
-10,848	12,461	1403,902	762,363
-9,833	12,468	1402,980	761,866
-8,819	12,442	1402,252	761,317
-7,804	12,389	1401,386	760,572
-6,790	12,414	1400,290	760,063
-5,775	12,384	1399,319	759,363
-4,760	12,425	1398,062	758,845
-3,746	12,396	1396,997	758,102
-2,731	12,404	1396,400	757,782
-1,717	12,364	1395,522	757,090
-0,702	12,364	1393,689	756,068
0,313	16,272	1309,322	728,367
1,327	32,623	700,869	427,521
2,342	50,655	122,289	81,687
3,356	1,186	16,543	8,368
4,371	13,644	3,251	1,780
5,386	5,701	0,632	0,329
6,400	-200,000	-0,012	0,247
7,415	39,339	-0,174	-0,110
8,429	72,952	-0,239	-0,176
9,444	14,428	-0,320	-0,176
10,459	117,454	-0,256	-0,223
11,473	402,157	-0,137	-0,205
12,488	38,639	-0,357	-0,224
13,502	182,686	-0,252	-0,263
14,517	196,208	-0,264	-0,284
15,531	29,810	-0,311	-0,187
16,546	325,711	-0,307	-0,416
17,561	150,137	-0,484	-0,464
18,575	146,022	-0,165	-0,156
19,590	19,368	-0,301	-0,170
20,604	189,088	-0,201	-0,212
21,619	85,824	-0,404	-0,314
22,634	135,810	-0,419	-0,385
23,648	71,452	-0,476	-0,348
24,663	174,907	-0,290	-0,296
25,677	86,507	-0,322	-0,251
26,692	216,120	-0,291	-0,327
27,707	190,009	-0,251	-0,266
28,721	35,507	-0,337	-0,208
29,736	45,172	-0,356	-0,231
30,750	-1,082	-0,446	-0,222
31,765	85,768	-0,341	-0,264
32,780	190,886	-0,396	-0,421
33,794	268,959	-0,273	-0,338
34,809	70,546	-0,358	-0,261
35,823	-91,567	-0,375	-0,075
36,838	77,006	-0,404	-0,302
37,853	131,194	-0,414	-0,375
38,867	119,132	-0,484	-0,422
39,882	58,029	-0,333	-0,229
40,896	90,079	-0,256	-0,202
41,911	159,991	-0,195	-0,192
42,926	25,880	-0,455	-0,267
43,940	166,481	-0,350	-0,349
44,955	694,852	-0,224	-0,416
45,969	52,352	-0,280	-0,188
46,984	156,978	-0,199	-0,193
47,999	113,371	-0,324	-0,276
49,013	74,399	-0,406	-0,300
50,028	0,324	-0,340	-0,170
51,042	130,591	-0,301	-0,271
52,057	151,202	-0,245	-0,234
53,071	327,791	-0,211	-0,285
54,086	12,158	-0,421	-0,227
55,101	237,995	-0,288	-0,337
56,115	-47,942	-0,403	-0,136
57,130	95,878	-0,250	-0,201
58,144	147,394	-0,298	-0,283
59,159	8,280	-0,399	-0,210
60,174	16,809	-0,392	-0,218
61,188	107,790	-0,297	-0,249
62,203	445,289	-0,185	-0,287
63,217	16,105	-0,362	-0,200
64,232	57,407	-0,358	-0,245
65,247	-41,917	-0,440	-0,158
66,261	-32,611	-0,275	-0,107
67,276	145,349	-0,309	-0,291
68,290	120,914	-0,349	-0,305
69,305	75,558	-0,257	-0,191
70,320	-66,432	-0,361	-0,100
71,334	71,597	-0,208	-0,151
72,349	-28,338	-0,257	-0,104
73,363	46,907	-0,306	-0,199
74,378	83,306	-0,400	-0,306
75,393	11,917	-0,365	-0,197
76,407	103,738	-0,337	-0,278
77,422	167,911	-0,273	-0,273
78,436	168,754	-0,359	-0,360
79,451	90,622	-0,253	-0,199
80,466	48,777	-0,454	-0,298
81,480	70,705	-0,323	-0,235
82,495	134,554	-0,314	-0,286
83,509	73,310	-0,303	-0,222
84,524	46,312	-0,332	-0,215
85,539	2,895	-0,199	-0,101
86,553	120,254	-0,168	-0,147
87,568	-70,103	-0,303	-0,080
88,582	54,625	-0,220	-0,149
89,597	-78,868	-0,254	-0,060
90,611	0,176	-0,337	-0,168
91,626	-87,204	-0,235	-0,050
92,641	313,290	-0,155	-0,205
93,655	-27,442	-0,287	-0,117
94,670	123,593	-0,203	-0,179
95,684	17,945	-0,360	-0,201
96,699	88,016	-0,350	-0,272
97,714	-34,989	-0,268	-0,102
98,728	108,859	-0,225	-0,189
99,743	52,470	-0,166	-0,111
100,757	-87,279	-0,354	-0,075
101,772	48,452	-0,267	-0,175
102,787	46,289	-0,326	-0,211
103,801	146,054	-0,275	-0,259
104,816	-85,738	-0,255	-0,055
105,830	51,927	-0,124	-0,083
106,845	269,099	-0,122	-0,150
107,860	54,982	-0,316	-0,213
108,874	-64,461	-0,337	-0,095
109,889	23,161	-0,242	-0,139
110,903	364,722	-0,125	-0,177
111,918	57,983	-0,229	-0,156
112,933	-10,532	-0,272	-0,126
113,947	123,329	-0,208	-0,183
114,962	-111,430	-0,233	-0,033
115,976	-83,719	-0,254	-0,056
116,991	169,754	-0,346	-0,347
118,006	-54,633	-0,194	-0,061
119,020	11,363	-0,174	-0,093
120,035	24,760	-0,246	-0,142
121,049	-13,557	-0,309	-0,140
122,064	54,428	-0,257	-0,173
123,079	179,576	-0,264	-0,271
124,093	54,990	-0,230	-0,155
125,108	215,343	-0,234	-0,259
126,122	140,955	-0,238	-0,220
127,137	22,633	-0,190	-0,109
128,151	267,596	-0,162	-0,199
129,166	83,397	-0,183	-0,139
130,181	137,906	-0,218	-0,199
131,195	89,281	-0,238	-0,185
132,210	20,844	-0,240	-0,135
133,224	168,576	-0,170	-0,169
134,239	4,536	-0,234	-0,120
135,254	800,000	-0,100	-0,218
136,268	61,656	-0,337	-0,234
137,283	69,717	-0,243	-0,175
138,297	87,392	-0,168	-0,130
139,312	105,391	-0,336	-0,278
140,327	125,765	-0,217	-0,192
141,341	66,651	-0,309	-0,219
142,356	-127,004	-0,195	0,020
143,370	-42,329	-0,266	-0,094
144,385	124,002	-0,200	-0,175
145,400	-18,931	-0,169	-0,073
146,414	103,840	-0,239	-0,196
147,429	-78,589	-0,281	-0,067
148,443	179,063	-0,214	-0,219
149,458	61,739	-0,232	-0,161
150,473	59,224	-0,218	-0,149
151,487	4,563	-0,180	-0,092
152,502	-10,673	-0,411	-0,189
153,516	212,065	-0,169	-0,186
154,531	64,844	-0,260	-0,183
155,546	5,819	-0,140	-0,072
156,560	66,384	-0,234	-0,165
157,575	140,228	-0,149	-0,137
158,589	-52,228	-0,243	-0,078
159,604	15,286	-0,218	-0,119
160,619	20,741	-0,274	-0,155
161,633	-7,661	-0,360	-0,169
162,648	365,844	-0,190	-0,268
163,662	3,957	-0,173	-0,088
164,677	203,335	-0,166	-0,179
165,692	30,300	-0,225	-0,133
166,706	409,302	-0,149	-0,220
167,721	22,889	-0,303	-0,173
168,735	238,679	-0,176	-0,205
169,750	72,639	-0,263	-0,191
170,764	-27,085	-0,195	-0,079
171,779	-189,151	-0,133	-0,001
172,794	-92,560	-0,226	-0,044
173,808	-2,825	-0,275	-0,133
174,823	289,312	-0,263	-0,333
175,837	77,886	-0,188	-0,139
176,852	-21,289	-0,225	-0,095
177,867	-151,449	-0,327	-0,017
178,881	216,160	-0,100	-0,111
179,896	1,704	-0,193	-0,096
180,910	-141,391	-0,145	0,010
181,925	-200,000	-0,046	-0,248
182,940	793,230	-0,154	-0,297
183,954	326,514	-0,159	-0,212
184,969	165,879	-0,191	-0,188
185,983	-2,127	-0,302	-0,147
186,998	98,645	-0,103	-0,083
188,013	-47,599	-0,156	-0,052
189,027	342,763	-0,160	-0,219
190,042	98,257	-0,319	-0,256
191,056	750,712	-0,143	-0,270
192,071	-31,418	-0,198	-0,077
193,086	187,309	-0,141	-0,147
194,100	-19,244	-0,273	-0,117
195,115	155,293	-0,256	-0,245
196,129	201,631	-0,176	-0,188
197,144	-18,645	-0,257	-0,111
198,159	110,868	-0,175	-0,147
199,173	798,914	-0,084	-0,162
200,188	-200,000	-0,031	-0,184
201,202	-55,227	-0,190	-0,059
202,217	-87,032	-0,099	-0,021
203,232	800,000	-0,132	-0,261
204,246	326,092	-0,216	-0,288
205,261	301,865	-0,195	-0,251
206,275	107,244	-0,193	-0,159
207,290	-20,877	-0,191	-0,081
208,304	110,953	-0,197	-0,164
209,319	-34,357	-0,186	-0,071
210,334	152,513	-0,123	-0,116
211,348	147,903	-0,218	-0,204
212,363	-25,571	-0,159	-0,065
213,377	231,669	-0,212	-0,242
214,392	-16,379	-0,264	-0,116
215,407	141,805	-0,237	-0,218
216,421	114,903	-0,175	-0,148
217,436	800,000	-0,119	-0,240
218,450	-14,360	-0,322	-0,143
219,465	49,739	-0,279	-0,182
220,480	386,687	-0,137	-0,196
221,494	234,549	-0,212	-0,243
222,509	-200,000	-0,037	-0,240
223,523	-51,791	-0,230	-0,074
224,538	-143,996	-0,182	-0,012
225,553	23,145	-0,247	-0,140
226,567	149,274	-0,239	-0,224
227,582	-56,676	-0,275	-0,084
228,596	205,644	-0,110	-0,119
229,611	598,635	-0,060	-0,104
230,626	513,151	-0,116	-0,189
231,640	-200,000	0,003	-0,063
232,655	373,546	-0,187	-0,264
233,669	263,376	-0,143	-0,173
234,684	5,366	-0,333	-0,169
235,699	255,190	-0,177	-0,210
236,713	41,207	-0,096	-0,060
237,728	-35,035	-0,187	-0,070
238,742	36,953	-0,290	-0,177
239,757	-7,584	-0,228	-0,106
240,772	138,712	-0,207	-0,188
241,786	275,652	-0,156	-0,192
242,801	236,528	-0,081	-0,092
243,815	-52,522	-0,226	-0,072
244,830	-154,316	-0,229	-0,010
245,844	-30,686	-0,237	-0,092
246,859	20,471	-0,221	-0,123
247,874	-15,528	-0,275	-0,121
248,888	99,677	-0,145	-0,116
249,903	-5,880	-0,281	-0,132
250,917	-87,545	-0,203	-0,042
251,932	382,202	-0,180	-0,256
252,947	11,633	-0,209	-0,111
253,961	204,062	-0,145	-0,156
254,976	-48,647	-0,214	-0,071
255,990	123,346	-0,183	-0,159
257,005	79,799	-0,184	-0,137
258,020	378,083	-0,070	-0,100
259,034	736,588	-0,076	-0,142
260,049	-200,000	-0,021	-0,116
261,063	53,084	-0,165	-0,109
262,078	297,841	-0,165	-0,210
263,093	-36,322	-0,130	-0,048
264,107	235,084	-0,106	-0,121
265,122	40,292	-0,226	-0,140
266,136	-200,000	-0,017	-0,149
267,151	24,391	-0,188	-0,107
268,166	-10,633	-0,099	-0,045
269,180	-53,344	-0,213	-0,067
270,195	199,616	-0,092	-0,098
271,209	620,321	-0,053	-0,092
272,224	-48,792	-0,187	-0,062
273,239	79,449	-0,178	-0,132
274,253	12,826	-0,300	-0,159
275,268	-1,936	-0,235	-0,113
276,282	-51,332	-0,130	-0,042
277,297	-200,000	-0,047	-0,195
278,312	189,755	-0,138	-0,144
279,326	89,004	-0,251	-0,192
280,341	66,141	-0,187	-0,131
281,355	-4,493	-0,167	-0,079
282,370	110,631	-0,198	-0,164
283,384	159,425	-0,141	-0,135
284,399	410,513	-0,124	-0,182
285,414	50,056	-0,166	-0,108
286,428	706,460	-0,100	-0,183
287,443	-27,147	-0,089	0,035
288,457	-44,552	-0,136	-0,047
289,472	-91,068	-0,217	-0,043
290,487	-63,673	-0,076	-0,021
291,501	-94,463	-0,099	-0,018
292,516	-123,511	-0,250	-0,027
293,530	484,675	-0,076	-0,120
294,545	118,449	-0,232	-0,197
295,560	93,587	-0,097	-0,076
296,574	-162,981	-0,073	0,002
297,589	8,210	-0,232	-0,120
298,603	43,017	-0,215	-0,135
299,618	170,552	-0,135	-0,133
300,633	-118,207	-0,113	-0,014
301,647	800,000	-0,008	-0,022
302,662	-124,712	-0,192	0,020
303,676	-95,203	-0,220	0,040
304,691	339,493	-0,078	-0,104
305,706	184,550	-0,263	-0,268
306,720	800,000	-0,088	-0,170
307,735	534,384	-0,095	-0,156
308,749	-17,357	-0,174	-0,075
309,764	-13,309	-0,099	-0,044
310,779	-200,000	-0,047	-0,186
311,793	565,321	-0,104	-0,175
312,808	-57,420	-0,141	-0,042
313,822	41,879	-0,199	-0,124
314,837	62,905	-0,229	-0,157
315,852	94,440	-0,197	-0,154
316,866	86,841	-0,118	-0,090
317,881	102,973	-0,070	-0,056
318,895	250,228	-0,189	-0,221
319,910	-21,191	-0,143	-0,060
320,925	-6,663	-0,239	-0,112
321,939	-8,052	-0,215	-0,099
322,954	166,044	0,086	-0,083
323,968	800,000	-0,128	-0,254
324,983	3,001	-0,100	0,050
325,997	215,124	-0,073	-0,080
327,012	84,208	-0,179	-0,134
328,027	-89,634	-0,183	0,037
329,041	-11,469	-0,120	-0,054
330,056	-200,000	0,010	-0,068
331,070	-23,276	-0,156	-0,064
332,085	-200,000	0,021	0,135
333,100	251,142	-0,098	-0,115
334,114	-44,090	-0,184	-0,063
335,129	429,675	-0,169	-0,252
336,143	-166,967	-0,169	0,005
337,158	145,022	-0,072	0,066
338,173	-42,423	-0,158	-0,055
339,187	-96,347	-0,071	-0,013
340,202	-163,854	-0,158	-0,005
341,216	164,629	-0,154	-0,149
342,231	-100,168	-0,144	-0,024
343,246	800,000	-0,097	-0,217
344,260	-39,159	-0,041	-0,015
345,275	161,865	-0,113	-0,109
346,289	589,133	-0,079	-0,134
347,304	147,668	-0,138	-0,128
348,319	9,984	-0,252	-0,131
349,333	-103,799	-0,147	-0,023
350,348	230,834	-0,095	-0,107
351,362	800,000	-0,123	-0,242
352,377	-57,504	-0,091	0,027
353,392	-98,475	-0,190	0,033
354,406	-99,432	-0,124	-0,021
355,421	207,236	1315,201	1407,668
356,435	159,410	1475,968	1408,148
