DTS Sentinel unit serial number:	SN410029Multiplexer serial number:	ORYXHardware model number:	OX2-SRSoftware version number:	ORYX F/W v4,00 Oryx Data Collector v3.7.2.0data status	okinstallation	B3 Nyhavnadifferential loss correction	single-endedforward channel	channel 1reverse channel	N/Adate	2023/11/29time	05:52:30forward acquisition time	300,00reverse acquisition time	0,00gamma	499,1914k internal	0,3211k external	0,3211temperature offset calibration	1,0000default loss term (dB/km)	0,3820temperature slope calibration	1,0000multiplexer offset coefficient	1,0000multiplexer slope coefficient	1,0000fibre end	0,00T internal ref (°C)	9,02T ext. ref 1 (°C)	-6,47T ext. ref 2 (°C)	-6,59length (m)	temperature (°C)	Stokes	anti-Stokes-744,400	352,961	-0,135	-0,195
-743,385	-200,000	-0,069	0,308
-742,371	800,000	-0,113	-0,271
-741,356	-200,000	0,079	0,290
-740,342	-45,596	-0,226	-0,081
-739,327	-200,000	-0,013	0,239
-738,312	30,559	-0,268	-0,166
-737,298	-200,000	-0,010	0,117
-736,283	369,365	-0,082	-0,121
-735,269	172,176	-0,137	0,143
-734,254	482,353	-0,198	-0,328
-733,239	-200,000	-0,182	0,001
-732,225	-200,000	-0,027	-0,201
-731,210	-138,438	0,040	0,003
-730,196	-94,818	0,070	-0,014
-729,181	-73,030	-0,059	-0,016
-728,167	70,917	-0,060	0,045
-727,152	636,738	-0,038	-0,071
-726,137	503,591	-0,058	-0,097
-725,123	-45,632	-0,072	-0,026
-724,108	-46,611	-0,218	0,077
-723,094	351,026	-0,057	-0,082
-722,079	800,000	-0,012	0,036
-721,064	-200,000	-0,006	-0,089
-720,050	800,000	-0,029	0,068
-719,035	165,768	-0,076	-0,078
-718,021	800,000	0,046	-0,138
-717,006	-46,379	-0,141	0,050
-715,991	30,205	-0,094	-0,058
-714,977	-200,000	0,024	-0,161
-713,962	-200,000	-0,002	0,018
-712,948	-200,000	0,001	0,102
-711,933	19,726	0,012	0,007
-710,918	-157,184	0,028	-0,001
-709,904	107,850	0,069	0,060
-708,889	311,509	0,042	-0,057
-707,875	-124,186	-0,080	0,009
-706,860	800,000	0,012	-0,037
-705,845	800,000	-0,010	-0,028
-704,831	108,932	-0,130	0,112
-703,816	-200,000	-0,004	-0,037
-702,802	44,293	-0,073	0,048
-701,787	324,389	-0,060	-0,084
-700,772	223,988	-0,084	-0,099
-699,758	-200,000	-0,005	-0,155
-698,743	800,000	0,059	-0,135
-697,729	615,648	-0,074	-0,135
-696,714	13,579	-0,087	-0,049
-695,699	-150,567	-0,082	0,004
-694,685	234,195	0,017	0,020
-693,670	359,530	-0,074	-0,107
-692,656	-94,074	0,065	0,013
-691,641	540,470	-0,033	-0,056
-690,627	-41,871	0,194	0,072
-689,612	-200,000	0,020	0,118
-688,597	-102,868	-0,122	0,021
-687,583	-54,112	-0,120	0,039
-686,568	741,272	0,065	-0,127
-685,554	-55,331	-0,065	-0,021
-684,539	-170,657	-0,098	-0,002
-683,524	-200,000	0,053	0,000
-682,510	-17,410	-0,064	0,029
-681,495	-165,552	-0,096	0,003
-680,481	-200,000	0,002	-0,075
-679,466	-200,000	-0,035	-0,136
-678,451	-200,000	-0,010	-0,035
-677,437	-26,195	0,154	0,065
-676,422	44,501	-0,198	0,132
-675,408	391,986	0,026	0,039
-674,393	800,000	-0,036	-0,080
-673,378	-37,851	-0,079	-0,030
-672,364	622,342	-0,025	-0,045
-671,349	271,118	0,042	0,053
-670,335	36,506	0,073	0,046
-669,320	-200,000	-0,026	0,126
-668,305	247,281	0,077	0,095
-667,291	-200,000	0,016	-0,119
-666,276	800,000	-0,022	0,066
-665,262	-200,000	-0,026	-0,100
-664,247	-89,519	0,107	0,022
-663,232	639,088	-0,082	0,151
-662,218	800,000	0,007	-0,019
-661,203	-200,000	0,004	0,069
-660,189	56,619	0,162	-0,114
-659,174	-200,000	-0,002	0,039
-658,159	800,000	0,048	-0,111
-657,145	687,988	-0,044	-0,083
-656,130	800,000	-0,014	-0,038
-655,116	210,599	0,071	0,081
-654,101	-200,000	0,002	-0,120
-653,086	-200,000	-0,019	0,186
-652,072	-53,047	-0,097	-0,032
-651,057	189,317	-0,085	-0,092
-650,043	325,832	0,066	-0,092
-649,028	231,070	-0,058	0,069
-648,014	-162,413	-0,098	0,003
-646,999	-139,477	0,032	0,002
-645,984	-21,862	-0,134	0,059
-644,970	-70,739	-0,100	-0,027
-643,955	56,469	0,057	0,040
-642,941	-200,000	0,025	-0,100
-641,926	-162,746	0,055	0,002
-640,911	56,627	0,080	0,056
-639,897	252,240	-0,059	-0,073
-638,882	78,922	0,043	0,033
-637,868	-102,256	-0,047	-0,008
-636,853	302,652	-0,049	-0,065
-635,838	605,928	-0,039	-0,071
-634,824	800,000	-0,048	-0,098
-633,809	-107,548	-0,086	-0,013
-632,795	-200,000	0,001	-0,051
-631,780	800,000	-0,021	-0,061
-630,765	800,000	-0,039	-0,091
-629,751	-43,640	-0,167	-0,061
-628,736	-200,000	-0,008	-0,125
-627,722	-200,000	0,007	0,104
-626,707	800,000	0,059	-0,121
-625,692	-200,000	0,032	0,178
-624,678	733,979	-0,056	0,108
-623,663	455,477	0,037	-0,060
-622,649	27,190	-0,095	-0,058
-621,634	108,213	-0,031	-0,027
-620,619	-200,000	-0,010	-0,068
-619,605	-82,022	0,077	-0,018
-618,590	25,956	0,076	0,046
-617,576	73,137	0,142	0,107
-616,561	182,340	-0,037	-0,039
-615,546	-167,716	-0,128	-0,004
-614,532	-200,000	-0,003	-0,062
-613,517	146,343	-0,038	-0,037
-612,503	60,750	0,108	0,077
-611,488	42,795	0,048	0,032
-610,474	169,029	-0,043	-0,045
-609,459	11,044	0,026	-0,014
-608,444	420,018	0,058	0,090
-607,430	800,000	-0,053	0,121
-606,415	40,191	0,175	-0,114
-605,401	-103,496	-0,003	-0,000
-604,386	-49,796	0,148	-0,050
-603,371	-159,861	0,065	-0,003
-602,357	-200,000	0,002	-0,021
-601,342	556,985	-0,030	0,052
-600,328	-3,622	0,054	-0,027
-599,313	-9,901	-0,065	-0,031
-598,298	-154,160	0,179	-0,009
-597,284	652,611	-0,022	0,041
-596,269	-96,619	-0,116	0,022
-595,255	-88,008	0,197	0,042
-594,240	-200,000	-0,009	-0,074
-593,225	77,328	-0,106	-0,081
-592,211	322,187	-0,039	-0,053
-591,196	2,493	0,095	0,050
-590,182	-200,000	0,010	0,199
-589,167	119,266	0,082	0,073
-588,152	175,515	0,097	-0,101
-587,138	280,276	-0,015	0,020
-586,123	-140,338	-0,030	0,002
-585,109	-34,817	0,049	-0,019
-584,094	-92,493	-0,094	0,019
-583,079	800,000	0,030	0,094
-582,065	721,672	0,044	0,086
-581,050	505,758	-0,022	0,038
-580,036	-200,000	-0,030	0,173
-579,021	-67,818	0,049	0,014
-578,006	-200,000	-0,039	-0,127
-576,992	53,991	-0,053	-0,037
-575,977	8,109	-0,138	0,074
-574,963	139,091	0,029	0,027
-573,948	-87,293	-0,093	0,020
-572,934	157,476	0,049	0,049
-571,919	263,819	-0,025	0,031
-570,904	329,604	-0,047	-0,065
-569,890	58,624	-0,099	-0,070
-568,875	96,562	-0,120	0,099
-567,861	-200,000	0,051	0,232
-566,846	-200,000	-0,006	0,071
-565,831	-27,086	0,068	-0,028
-564,817	-94,762	-0,095	-0,018
-563,802	562,456	-0,043	-0,075
-562,788	-1,019	0,083	0,042
-561,773	-200,000	0,003	-0,037
-560,758	-200,000	-0,011	0,046
-559,744	-200,000	0,013	-0,064
-558,729	-55,400	0,044	-0,014
-557,715	800,000	-0,029	-0,066
-556,700	161,393	0,092	-0,093
-555,685	-35,344	-0,060	0,023
-554,671	288,082	0,038	0,049
-553,656	158,656	-0,096	0,096
-552,642	267,402	0,120	-0,152
-551,627	546,180	0,027	-0,047
-550,612	166,681	-0,072	-0,073
-549,598	-92,236	-0,070	-0,014
-548,583	185,437	-0,078	-0,083
-547,569	83,680	-0,058	-0,046
-546,554	800,000	-0,022	0,054
-545,539	48,727	-0,096	-0,065
-544,525	-33,024	0,052	-0,021
-543,510	-55,428	-0,083	-0,027
-542,496	10,621	0,064	0,035
-541,481	88,515	-0,116	-0,093
-540,466	-84,032	0,121	-0,027
-539,452	244,754	0,078	-0,094
-538,437	-117,987	0,159	0,020
-537,423	-200,000	0,006	-0,069
-536,408	-200,000	-0,031	-0,138
-535,393	185,093	0,062	-0,066
-534,379	-4,914	-0,066	0,032
-533,364	-17,006	0,157	-0,071
-532,350	241,209	-0,046	0,055
-531,335	-114,339	-0,081	0,011
-530,321	586,553	0,069	0,123
-529,306	-200,000	0,003	0,026
-528,291	121,239	-0,077	-0,069
-527,277	83,727	-0,010	-0,008
-526,262	-55,401	-0,073	0,023
-525,248	800,000	-0,018	0,045
-524,233	52,530	0,065	-0,045
-523,218	-77,718	0,029	0,007
-522,204	21,733	0,036	0,021
-521,189	800,000	0,032	-0,093
-520,175	80,266	-0,031	-0,024
-519,160	-200,000	-0,008	0,091
-518,145	-200,000	-0,005	-0,189
-517,131	-37,184	0,081	-0,031
-516,116	800,000	-0,035	0,092
-515,102	174,630	0,021	0,022
-514,087	-129,850	-0,116	-0,011
-513,072	800,000	-0,059	0,128
-512,058	-25,038	-0,067	-0,028
-511,043	44,529	0,102	-0,067
-510,029	-99,422	0,096	0,017
-509,014	91,433	0,044	0,036
-507,999	800,000	0,047	-0,103
-506,985	292,555	-0,057	0,075
-505,970	-142,490	-0,133	0,009
-504,956	186,764	-0,041	0,044
-503,941	-147,702	0,045	0,003
-502,926	-32,634	0,121	0,048
-501,912	-108,495	-0,105	-0,016
-500,897	476,222	-0,030	0,050
-499,883	77,906	0,097	0,074
-498,868	376,782	0,047	0,070
-497,853	-200,000	-0,004	0,118
-496,839	366,762	0,055	-0,080
-495,824	-107,156	0,150	0,024
-494,810	800,000	0,059	0,172
-493,795	520,065	0,066	0,112
-492,781	42,958	0,034	0,022
-491,766	800,000	0,062	-0,156
-490,751	-95,891	-0,073	-0,014
-489,737	73,435	-0,105	0,078
-488,722	-149,912	0,140	-0,008
-487,708	66,711	-0,075	-0,054
-486,693	102,313	0,068	0,057
-485,678	-175,988	-0,092	0,002
-484,664	800,000	0,026	-0,053
-483,649	128,919	-0,023	-0,021
-482,635	8,878	-0,052	-0,028
-481,620	-121,698	0,089	0,010
-480,605	44,144	-0,050	-0,033
-479,591	268,950	-0,050	0,063
-478,576	-152,135	-0,104	-0,005
-477,562	-200,000	0,010	-0,063
-476,547	228,830	-0,136	-0,160
-475,532	336,387	0,077	0,108
-474,518	800,000	0,033	-0,083
-473,503	241,580	-0,092	0,111
-472,489	800,000	-0,056	0,169
-471,474	-181,112	0,192	0,003
-470,459	-200,000	-0,019	-0,093
-469,445	-200,000	0,004	-0,116
-468,430	-64,752	-0,039	-0,011
-467,416	439,008	0,039	-0,061
-466,401	800,000	0,024	0,055
-465,386	104,888	-0,016	0,014
-464,372	-200,000	-0,203	0,000
-463,357	-12,525	-0,118	0,055
-462,343	97,942	-0,097	-0,080
-461,328	323,063	0,026	-0,036
-460,313	431,333	-0,033	-0,051
-459,299	-200,000	-0,023	0,150
-458,284	-200,000	-0,019	-0,066
-457,270	-13,475	0,033	-0,015
-456,255	-172,989	-0,107	-0,002
-455,241	191,266	-0,105	-0,113
-454,226	-200,000	-0,003	0,051
-453,211	-81,000	0,103	-0,024
-452,197	12,896	0,021	-0,012
-451,182	-200,000	0,025	-0,097
-450,168	-55,966	0,109	0,035
-449,153	-200,000	-0,010	-0,139
-448,138	24,072	-0,024	0,014
-447,124	67,351	-0,061	0,045
-446,109	-200,000	0,002	0,079
-445,095	-200,000	0,005	-0,093
-444,080	160,582	0,127	0,127
-443,065	-83,778	0,074	0,017
-442,051	-41,851	-0,077	0,028
-441,036	23,378	0,082	-0,048
-440,022	-88,002	0,172	-0,037
-439,007	104,530	0,053	-0,045
-437,992	-200,000	0,035	-0,110
-436,978	539,481	0,030	0,051
-435,963	-157,335	-0,029	-0,001
-434,949	106,148	0,089	0,075
-433,934	474,192	-0,054	0,087
-432,919	800,000	0,014	0,040
-431,905	-200,000	-0,009	0,109
-430,890	-200,000	0,000	0,007
-429,876	104,545	0,139	0,117
-428,861	-63,131	-0,089	-0,026
-427,846	-200,000	0,006	-0,035
-426,832	-200,000	-0,002	-0,082
-425,817	-200,000	-0,008	0,034
-424,803	218,190	0,058	0,067
-423,788	-3,024	-0,125	0,062
-422,773	109,800	0,027	-0,023
-421,759	162,088	-0,027	-0,027
-420,744	548,958	0,017	0,030
-419,730	11,171	-0,020	-0,011
-418,715	-200,000	0,018	-0,151
-417,701	800,000	0,027	-0,063
-416,686	185,254	0,074	-0,078
-415,671	800,000	0,023	0,059
-414,657	282,555	0,021	-0,027
-413,642	800,000	0,034	0,090
-412,628	505,552	0,011	-0,018
-411,613	-200,000	0,004	-0,172
-410,598	800,000	-0,042	0,119
-409,584	213,305	0,027	0,031
-408,569	800,000	0,024	-0,048
-407,555	346,246	0,068	0,096
-406,540	-200,000	-0,004	0,057
-405,525	800,000	-0,070	0,145
-404,511	-200,000	0,005	-0,103
-403,496	369,567	-0,036	0,052
-402,482	-200,000	0,005	0,051
-401,467	-97,544	-0,033	-0,006
-400,452	-28,686	-0,106	0,044
-399,438	516,260	0,054	0,090
-398,423	-200,000	0,002	-0,050
-397,409	365,102	-0,074	-0,106
-396,394	-200,000	0,001	0,007
-395,379	-52,750	-0,145	0,048
-394,365	307,425	0,045	0,060
-393,350	-200,000	0,017	0,119
-392,336	168,024	0,029	0,029
-391,321	-43,293	0,072	-0,026
-390,306	800,000	-0,038	-0,097
-389,292	-200,000	-0,013	-0,051
-388,277	-101,097	0,068	0,012
-387,263	-77,818	0,041	0,010
-386,248	169,237	0,108	-0,110
-385,233	-54,485	0,060	0,019
-384,219	458,610	-0,060	0,096
-383,204	421,835	-0,087	-0,133
-382,190	93,889	0,092	-0,074
-381,175	74,451	-0,059	-0,044
-380,160	-25,739	0,071	-0,030
-379,146	800,000	0,088	0,181
-378,131	-200,000	0,027	0,157
-377,117	17,547	-0,091	0,052
-376,102	-200,000	0,001	-0,070
-375,088	4,404	-0,117	0,061
-374,073	152,119	-0,128	-0,124
-373,058	163,604	0,054	0,054
-372,044	-194,547	0,063	-0,000
-371,029	160,566	-0,052	0,052
-370,015	82,169	0,076	0,059
-369,000	-76,533	0,102	-0,025
-367,985	106,960	-0,044	0,038
-366,971	800,000	-0,043	-0,125
-365,956	-200,000	0,013	-0,041
-364,942	800,000	-0,031	0,070
-363,927	-7,249	-0,089	-0,043
-362,912	-34,791	-0,008	-0,003
-361,898	464,293	-0,033	-0,053
-360,883	20,056	-0,046	0,026
-359,869	190,626	0,050	0,054
-358,854	111,256	-0,088	-0,075
-357,839	-94,306	0,042	-0,008
-356,825	237,518	0,193	0,229
-355,810	-130,962	-0,112	0,011
-354,796	-200,000	0,012	0,070
-353,781	800,000	-0,024	0,075
-352,766	-142,043	0,138	-0,010
-351,752	23,516	-0,101	0,059
-350,737	1,327	-0,130	0,067
-349,723	-30,595	-0,075	-0,030
-348,708	96,713	-0,090	-0,073
-347,693	125,022	-0,050	0,045
-346,679	-200,000	-0,009	0,043
-345,664	-110,816	-0,019	-0,003
-344,650	800,000	0,023	-0,050
-343,635	406,581	0,058	0,088
-342,620	-200,000	0,003	0,101
-341,606	88,581	0,123	-0,098
-340,591	800,000	-0,045	-0,117
-339,577	627,169	-0,039	0,070
-338,562	800,000	0,022	0,065
-337,548	-200,000	-0,045	0,230
-336,533	-8,863	0,153	0,073
-335,518	19,787	0,089	-0,051
-334,504	-200,000	-0,011	0,250
-333,489	-200,000	-0,021	0,195
-332,475	334,958	-0,051	-0,071
-331,460	177,252	0,071	-0,074
-330,445	649,877	-0,012	-0,022
-329,431	-200,000	-0,028	-0,102
-328,416	101,642	-0,022	0,019
-327,402	538,734	0,077	0,132
-326,387	-200,000	0,003	0,052
-325,372	-200,000	-0,009	-0,111
-324,358	-158,610	0,157	0,006
-323,343	21,221	-0,034	0,020
-322,329	48,886	0,103	0,069
-321,314	-74,937	-0,116	0,029
-320,299	800,000	0,049	-0,105
-319,285	3,790	0,086	-0,045
-318,270	138,852	-0,083	-0,077
-317,256	632,511	-0,059	-0,108
-316,241	149,751	-0,078	0,076
-315,226	4,226	-0,143	0,075
-314,212	-104,331	-0,032	0,005
-313,197	800,000	-0,071	0,156
-312,183	800,000	-0,031	0,088
-311,168	-200,000	0,019	-0,156
-310,153	642,898	-0,110	-0,200
-309,139	94,758	-0,133	-0,108
-308,124	401,472	0,086	-0,129
-307,110	-200,000	-0,003	0,087
-306,095	800,000	-0,009	-0,028
-305,080	114,817	0,050	0,043
-304,066	-200,000	-0,013	-0,125
-303,051	800,000	0,022	-0,057
-302,037	800,000	0,060	-0,153
-301,022	800,000	-0,042	0,087
-300,008	191,646	0,100	0,107
-298,993	304,109	-0,119	-0,158
-297,978	104,484	-0,062	0,052
-296,964	81,593	0,032	0,024
-295,949	364,764	-0,082	-0,118
-294,935	32,862	0,075	-0,046
-293,920	-200,000	0,014	-0,092
-292,905	233,503	0,025	0,030
-291,891	89,159	-0,069	0,055
-290,876	800,000	-0,013	-0,035
-289,862	145,121	0,158	-0,150
-288,847	-162,434	-0,140	0,005
-287,832	596,880	0,042	0,074
-286,818	-188,325	0,034	0,000
-285,803	800,000	0,026	-0,069
-284,789	-56,480	-0,040	-0,013
-283,774	261,733	0,134	0,166
-282,759	800,000	0,015	0,045
-281,745	50,925	-0,125	-0,084
-280,730	-22,647	0,026	-0,011
-279,716	-5,887	0,095	0,046
-278,701	-200,000	0,034	0,123
-277,686	237,974	0,022	0,026
-276,672	-200,000	-0,004	0,148
-275,657	24,923	0,122	-0,072
-274,643	441,504	-0,063	0,098
-273,628	-193,777	-0,213	-0,001
-272,613	746,795	-0,026	-0,051
-271,599	-200,000	0,004	0,039
-270,584	-59,925	-0,071	0,021
-269,570	-200,000	-0,001	0,055
-268,555	124,010	0,037	-0,033
-267,540	-200,000	0,003	-0,166
-266,526	-25,266	-0,153	-0,064
-265,511	800,000	-0,053	0,147
-264,497	75,767	0,088	-0,066
-263,482	-84,884	0,091	-0,020
-262,467	247,778	-0,036	0,043
-261,453	-200,000	0,029	0,093
-260,438	107,532	-0,098	-0,083
-259,424	-200,000	-0,116	-0,000
-258,409	41,086	-0,129	-0,083
-257,395	-200,000	0,004	-0,046
-256,380	114,105	0,025	0,022
-255,365	800,000	-0,038	-0,115
-254,351	-122,103	0,099	-0,011
-253,336	190,076	-0,042	-0,045
-252,322	-200,000	-0,007	0,067
-251,307	13,714	0,038	-0,021
-250,292	800,000	-0,013	0,037
-249,278	-175,446	0,197	0,004
-248,263	-79,675	0,068	0,016
-247,249	205,347	-0,092	0,101
-246,234	-200,000	-0,019	0,085
-245,219	-200,000	-0,008	-0,026
-244,205	800,000	-0,066	-0,146
-243,190	-200,000	-0,049	0,159
-242,176	-200,000	-0,006	0,020
-241,161	27,260	0,046	0,027
-240,146	-131,218	0,085	-0,008
-239,132	-98,457	0,165	0,030
-238,117	149,668	-0,047	-0,046
-237,103	-200,000	-0,007	0,023
-236,088	-60,280	0,079	-0,024
-235,073	117,812	0,081	0,070
-234,059	32,540	0,021	-0,013
-233,044	266,326	0,059	0,073
-232,030	800,000	-0,031	-0,078
-231,015	70,229	0,051	0,037
-230,000	-200,000	-0,008	-0,031
-228,986	-84,451	-0,038	-0,008
-227,971	-171,882	0,125	-0,003
-226,957	-161,783	0,050	0,002
-225,942	-61,817	0,033	-0,010
-224,927	-121,483	-0,051	-0,006
-223,913	-134,769	-0,068	0,006
-222,898	302,988	0,023	0,031
-221,884	-158,820	-0,067	0,003
-220,869	51,798	0,125	0,084
-219,855	-200,000	0,061	-0,238
-218,840	66,283	0,061	-0,044
-217,825	-145,541	0,109	-0,007
-216,811	-127,923	-0,071	-0,007
-215,796	55,225	-0,085	0,059
-214,782	800,000	-0,039	-0,089
-213,767	-200,000	-0,023	-0,118
-212,752	253,350	-0,082	0,100
-211,738	-162,441	0,060	-0,002
-210,723	24,230	0,115	-0,067
-209,709	15,134	-0,119	0,066
-208,694	-130,294	-0,089	-0,008
-207,679	137,791	0,113	0,105
-206,665	-167,225	-0,144	0,004
-205,650	800,000	0,050	0,141
-204,636	333,559	-0,039	0,053
-203,621	-116,291	-0,015	-0,002
-202,606	403,861	-0,038	-0,057
-201,592	-200,000	-0,031	0,110
-200,577	800,000	-0,050	-0,110
-199,563	-200,000	-0,005	-0,131
-198,548	554,319	0,039	0,068
-197,533	-84,384	0,167	0,037
-196,519	-34,644	-0,098	-0,038
-195,504	169,840	0,108	-0,110
-194,490	800,000	-0,050	-0,126
-193,475	800,000	-0,014	-0,037
-192,460	800,000	0,052	-0,104
-191,446	626,685	-0,039	-0,070
-190,431	-106,488	-0,095	0,015
-189,417	-136,898	0,039	-0,003
-188,402	-18,246	-0,051	-0,022
-187,387	-101,717	-0,031	-0,005
-186,373	46,385	0,110	-0,072
-185,358	-166,354	-0,115	-0,003
-184,344	-157,851	0,080	0,003
-183,329	800,000	0,022	-0,045
-182,315	-158,227	0,139	-0,006
-181,300	397,461	-0,104	-0,154
-180,285	-134,321	0,092	0,008
-179,271	411,160	-0,033	-0,051
-178,256	293,188	-0,064	-0,083
-177,242	800,000	-0,044	0,111
-176,227	377,650	0,040	-0,059
-175,212	-22,616	0,120	0,051
-174,198	800,000	-0,032	0,089
-173,183	-200,000	0,003	0,057
-172,169	-200,000	0,031	-0,116
-171,154	487,152	0,089	-0,144
-170,139	535,701	-0,048	0,081
-169,125	800,000	-0,028	0,055
-168,110	79,028	0,053	0,040
-167,096	-200,000	-0,010	-0,100
-166,081	107,947	-0,123	-0,104
-165,066	-143,735	-0,062	-0,004
-164,052	-200,000	0,001	0,029
-163,037	192,383	0,099	0,106
-162,023	59,223	0,043	-0,030
-161,008	-200,000	-0,065	0,254
-159,993	-200,000	-0,054	0,212
-158,979	385,289	-0,054	-0,079
-157,964	-200,000	0,023	-0,211
-156,950	-151,385	-0,077	0,004
-155,935	1,090	0,092	0,047
-154,920	97,275	0,073	0,059
-153,906	246,954	0,006	-0,007
-152,891	-92,393	0,027	0,005
-151,877	-200,000	0,008	-0,091
-150,862	800,000	0,027	0,070
-149,847	786,119	-0,062	-0,122
-148,833	-151,621	-0,144	0,007
-147,818	-200,000	0,021	-0,171
-146,804	-200,000	-0,003	-0,036
-145,789	347,187	0,030	-0,041
-144,775	48,583	-0,149	-0,099
-143,760	-200,000	0,005	-0,017
-142,745	-67,263	-0,110	0,030
-141,731	653,298	-0,009	-0,016
-140,716	-101,815	0,135	0,023
-139,702	-67,717	-0,086	0,024
-138,687	73,854	0,087	0,064
-137,672	-200,000	-0,014	0,085
-136,658	668,041	-0,016	0,029
-135,643	-113,415	-0,111	0,015
-134,629	-200,000	0,022	-0,110
-133,614	-128,919	0,079	-0,008
-132,599	800,000	0,045	0,115
-131,585	-12,430	0,060	0,027
-130,570	-200,000	0,009	-0,098
-129,556	-200,000	-0,009	-0,050
-128,541	760,133	0,030	0,057
-127,526	800,000	-0,065	0,191
-126,512	453,074	-0,015	0,024
-125,497	-200,000	0,049	0,169
-124,483	-200,000	-0,001	0,079
-123,468	-200,000	-0,025	-0,118
-122,453	215,270	-0,055	0,062
-121,439	800,000	0,007	-0,018
-120,424	182,861	-0,036	-0,038
-119,410	800,000	-0,023	0,055
-118,395	-14,981	0,063	0,028
-117,380	800,000	-0,052	0,136
-116,366	-25,656	-0,062	0,026
-115,351	60,162	-0,078	-0,055
-114,337	-81,966	-0,010	-0,002
-113,322	21,686	-0,079	0,045
-112,307	-200,000	-0,059	-0,214
-111,293	-56,659	0,101	0,031
-110,278	305,932	0,069	-0,090
-109,264	-8,646	0,045	-0,021
-108,249	-200,000	0,011	0,063
-107,234	27,785	0,058	-0,035
-106,220	-25,022	-0,069	-0,029
-105,205	-37,186	-0,109	0,041
-104,191	-128,056	0,061	-0,006
-103,176	262,597	-0,127	0,157
-102,162	599,115	-0,086	0,151
-101,147	800,000	-0,018	-0,041
-100,132	29,083	0,124	0,074
-99,118	-131,704	0,017	0,002
-98,103	116,176	0,067	-0,058
-97,089	108,416	0,066	-0,055
-96,074	154,131	-0,102	-0,099
-95,059	-200,000	0,099	-0,000
-94,045	261,903	-0,059	0,072
-93,030	-137,987	-0,123	0,010
-92,016	150,130	0,140	-0,135
-91,001	-15,289	-0,028	-0,012
-89,986	-21,960	0,020	0,008
-88,972	-10,939	0,152	0,070
-87,957	232,283	0,108	-0,126
-86,943	38,486	0,071	0,044
-85,928	551,716	-0,097	-0,166
-84,913	-200,000	-0,010	0,041
-83,899	-47,459	-0,068	-0,023
-82,884	800,000	0,083	0,224
-81,870	346,754	0,030	-0,041
-80,855	-200,000	0,170	0,000
-79,840	-200,000	-0,039	-0,134
-78,826	57,712	-0,061	-0,042
-77,811	800,000	-0,029	-0,089
-76,797	-108,317	0,063	0,010
-75,782	2,968	0,060	0,031
-74,767	96,684	-0,027	0,021
-73,753	140,820	0,097	-0,091
-72,738	-28,881	-0,030	0,012
-71,724	-200,000	-0,026	-0,146
-70,709	800,000	-0,038	-0,096
-69,694	-200,000	-0,024	-0,120
-68,680	229,070	0,050	0,058
-67,665	145,969	0,023	0,022
-66,651	49,993	0,081	0,054
-65,636	371,623	0,042	-0,061
-64,622	531,221	0,047	-0,078
-63,607	-200,000	0,031	-0,142
-62,592	74,477	0,131	-0,097
-61,578	361,391	0,060	-0,085
-60,563	-36,368	0,075	0,028
-59,549	66,061	-0,024	0,017
-58,534	58,069	-2,149	-1,484
-57,519	675,980	-1,109	-2,042
-56,505	-200,000	-0,291	-4,436
-55,490	800,000	0,836	1,721
-54,476	800,000	5,202	11,419
-53,461	-200,000	21,978	337,462
-52,446	800,000	759,627	2299,763
-51,432	534,080	1653,520	2775,735
-50,417	69,392	1650,930	1197,688
-49,403	16,685	1525,543	849,039
-48,388	10,828	1450,202	778,911
-47,373	18,978	1442,180	813,503
-46,359	14,159	1430,840	784,271
-45,344	9,127	1426,800	758,177
-44,330	9,097	1424,976	757,037
-43,315	9,056	1423,167	755,847
-42,300	9,089	1421,566	755,123
-41,286	9,064	1420,368	754,339
-40,271	9,066	1419,192	753,696
-39,257	9,054	1417,935	752,944
-38,242	9,133	1416,642	752,595
-37,227	9,128	1415,581	751,980
-36,213	9,112	1414,223	751,154
-35,198	9,079	1413,007	750,321
-34,184	9,152	1412,112	750,161
-33,169	9,005	1410,792	748,738
-32,154	9,108	1409,807	748,671
-31,140	9,079	1408,533	747,830
-30,125	9,111	1407,364	747,326
-29,111	9,109	1406,193	746,666
-28,096	9,038	1405,238	745,800
-27,082	9,035	1403,764	744,973
-26,067	9,033	1402,889	744,471
-25,052	9,068	1401,808	744,030
-24,038	9,067	1400,730	743,421
-23,023	9,042	1400,050	742,916
-22,009	9,069	1398,705	742,298
-20,994	9,057	1397,980	741,829
-19,979	9,057	1396,855	741,201
-18,965	9,017	1396,155	740,616
-17,950	9,036	1394,852	739,983
-16,936	8,986	1394,325	739,442
-15,921	8,948	1393,159	738,619
-14,906	8,977	1392,232	738,233
-13,892	8,998	1391,304	737,807
-12,877	8,969	1390,518	737,228
-11,863	8,973	1389,907	736,894
-10,848	8,977	1388,841	736,315
-9,833	8,892	1387,889	735,393
-8,819	8,888	1386,879	734,807
-7,804	8,837	1386,146	734,155
-6,790	8,870	1384,880	733,606
-5,775	8,876	1384,082	733,185
-4,760	8,887	1382,915	732,587
-3,746	8,924	1382,009	732,249
-2,731	8,924	1381,128	731,750
-1,717	8,839	1380,412	730,953
-0,702	8,862	1378,589	730,063
0,313	12,884	1290,305	701,590
1,327	28,810	682,544	406,873
2,342	44,416	117,509	75,970
3,356	0,992	16,348	8,239
4,371	-0,336	3,770	1,883
5,386	17,329	1,086	0,606
6,400	800,000	0,258	0,611
7,415	-45,839	-0,161	-0,056
8,429	-23,855	-0,398	-0,167
9,444	-65,124	-0,335	-0,095
10,459	66,220	-0,162	-0,116
11,473	-45,853	-0,318	-0,110
12,488	-23,689	-0,384	-0,162
13,502	46,588	-0,300	-0,196
14,517	46,023	-0,325	-0,211
15,531	692,951	-0,164	-0,304
16,546	95,470	-0,311	-0,250
17,561	-5,504	-0,477	-0,230
18,575	-200,000	0,002	-0,061
19,590	78,002	-0,184	-0,138
20,604	-132,945	-0,310	0,027
21,619	-37,697	-0,382	-0,143
22,634	207,428	-0,420	-0,462
23,648	5,400	-0,521	-0,270
24,663	66,194	-0,319	-0,228
25,677	181,337	-0,287	-0,297
26,692	52,579	-0,457	-0,307
27,707	-43,744	-0,404	-0,143
28,721	70,056	-0,505	-0,366
29,736	11,496	-0,369	-0,198
30,750	55,163	-0,406	-0,275
31,765	171,674	-0,337	-0,341
32,780	31,631	-0,345	-0,208
33,794	123,011	-0,244	-0,215
34,809	53,750	-0,331	-0,223
35,823	-7,479	-0,422	-0,200
36,838	167,101	-0,354	-0,354
37,853	152,611	-0,406	-0,390
38,867	117,359	-0,394	-0,341
39,882	148,192	-0,343	-0,325
40,896	136,146	-0,243	-0,223
41,911	63,657	-0,326	-0,230
42,926	117,184	-0,323	-0,279
43,940	7,112	-0,355	-0,185
44,955	41,291	-0,453	-0,287
45,969	26,187	-0,307	-0,180
46,984	-53,126	-0,374	-0,120
47,999	100,089	-0,375	-0,305
49,013	98,005	-0,312	-0,252
50,028	154,016	-0,341	-0,329
51,042	-24,631	-0,351	-0,146
52,057	-22,387	-0,319	-0,135
53,071	99,550	-0,297	-0,241
54,086	-10,475	-0,391	-0,181
55,101	-12,731	-0,362	-0,165
56,115	41,090	-0,344	-0,218
57,130	11,851	-0,301	-0,162
58,144	82,174	-0,323	-0,246
59,159	74,921	-0,367	-0,271
60,174	64,631	-0,367	-0,259
61,188	33,338	-0,341	-0,207
62,203	257,035	-0,261	-0,316
63,217	179,478	-0,227	-0,234
64,232	74,571	-0,269	-0,198
65,247	-0,973	-0,433	-0,214
66,261	30,506	-0,454	-0,271
67,276	14,964	-0,407	-0,223
68,290	118,140	-0,278	-0,240
69,305	53,806	-0,222	-0,149
70,320	44,798	-0,294	-0,189
71,334	-16,493	-0,409	-0,181
72,349	10,433	-0,330	-0,176
73,363	61,267	-0,325	-0,226
74,378	31,442	-0,293	-0,176
75,393	-68,436	-0,303	-0,082
76,407	46,202	-0,231	-0,150
77,422	18,235	-0,360	-0,201
78,436	-62,932	-0,283	-0,082
79,451	-91,572	-0,242	-0,048
80,466	-85,275	-0,401	-0,087
81,480	43,215	-0,254	-0,162
82,495	85,832	-0,290	-0,223
83,509	88,841	-0,221	-0,172
84,524	148,499	-0,221	-0,209
85,539	619,319	-0,088	-0,155
86,553	-32,978	-0,305	-0,118
87,568	35,526	-0,280	-0,172
88,582	272,590	-0,268	-0,332
89,597	212,154	-0,204	-0,226
90,611	124,498	-0,174	-0,153
91,626	-65,672	-0,319	-0,089
92,641	-86,755	-0,155	0,033
93,655	-9,481	-0,328	-0,152
94,670	52,499	-0,324	-0,216
95,684	98,714	-0,278	-0,224
96,699	136,065	-0,335	-0,306
97,714	27,153	-0,274	-0,160
98,728	-7,148	-0,330	-0,156
99,743	25,835	-0,254	-0,148
100,757	15,194	-0,148	-0,081
101,772	15,948	-0,309	-0,170
102,787	-22,504	-0,322	-0,136
103,801	157,882	-0,218	-0,211
104,816	-75,771	-0,188	-0,046
105,830	-119,293	-0,249	-0,030
106,845	-37,780	-0,338	-0,125
107,860	127,344	-0,181	-0,161
108,874	15,500	-0,201	-0,110
109,889	104,336	-0,293	-0,241
110,903	19,084	-0,184	-0,103
111,918	409,078	-0,188	-0,279
112,933	-1,445	-0,223	-0,109
113,947	-35,086	-0,189	-0,072
114,962	221,256	-0,274	-0,308
115,976	223,399	-0,294	-0,331
116,991	27,641	-0,290	-0,170
118,006	133,531	-0,274	-0,248
119,020	37,174	-0,331	-0,204
120,035	318,568	-0,156	-0,207
121,049	201,063	-0,177	-0,190
122,064	-92,503	-0,337	-0,066
123,079	-34,006	-0,178	-0,068
124,093	75,787	-0,306	-0,225
125,108	4,022	-0,238	-0,121
126,122	-49,451	-0,338	-0,112
127,137	800,000	-0,079	-0,180
128,151	480,811	-0,123	-0,195
129,166	-65,516	-0,292	-0,081
130,181	78,474	-0,324	-0,241
131,195	36,405	-0,295	-0,181
132,210	-29,115	-0,292	-0,116
133,224	-200,000	-0,081	-0,306
134,239	-32,152	-0,272	-0,106
135,254	-72,974	-0,238	-0,061
136,268	-17,644	-0,215	-0,094
137,283	-58,781	-0,191	-0,057
138,297	800,000	-0,143	-0,304
139,312	184,058	-0,232	-0,239
140,327	354,859	-0,189	-0,263
141,341	355,048	-0,193	-0,268
142,356	91,285	-0,232	-0,181
143,370	-75,633	-0,268	0,066
144,385	99,429	-0,171	-0,138
145,400	137,072	-0,211	-0,192
146,414	46,594	-0,331	-0,214
147,429	218,112	-0,147	-0,164
148,443	-71,876	-0,108	-0,028
149,458	-131,440	-0,300	-0,027
150,473	106,179	-0,177	-0,146
151,487	101,023	-0,232	-0,188
152,502	145,376	-0,254	-0,237
153,516	109,702	-0,227	-0,189
154,531	545,633	-0,115	-0,191
155,546	103,893	-0,207	-0,170
156,560	-21,843	-0,279	-0,118
157,575	-98,537	-0,248	-0,044
158,589	-27,230	-0,241	-0,097
159,604	57,605	-0,157	-0,107
160,619	-58,449	-0,231	-0,069
161,633	462,675	-0,148	-0,231
162,648	-54,697	-0,102	-0,032
163,662	-136,672	-0,107	-0,008
164,677	27,765	-0,233	-0,136
165,692	244,972	-0,153	-0,179
166,706	-7,164	-0,173	-0,081
167,721	-14,224	-0,292	-0,130
168,735	160,130	-0,216	-0,209
169,750	249,698	-0,207	-0,245
170,764	110,663	-0,155	-0,130
171,779	52,473	-0,225	-0,149
172,794	-47,003	-0,266	-0,090
173,808	32,175	-0,224	-0,134
174,823	235,758	-0,233	-0,268
175,837	174,664	-0,229	-0,230
176,852	238,863	-0,219	-0,253
177,867	-52,698	-0,039	0,013
178,881	43,372	-0,185	-0,117
179,896	422,658	-0,143	-0,214
180,910	63,433	-0,206	-0,143
181,925	286,943	-0,146	-0,183
182,940	237,252	-0,165	-0,190
183,954	44,781	-0,210	-0,134
184,969	28,806	-0,146	-0,086
185,983	-107,767	-0,318	-0,048
186,998	-200,000	-0,032	-0,188
188,013	90,891	-0,232	-0,181
189,027	800,000	-0,085	-0,220
190,042	278,135	-0,177	-0,219
191,056	144,027	-0,177	-0,163
192,071	-6,251	-0,181	-0,085
193,086	-35,990	-0,189	-0,071
194,100	126,428	-0,228	-0,200
195,115	403,559	-0,101	-0,148
196,129	27,370	-0,367	-0,213
197,144	293,573	-0,151	-0,192
198,159	-200,000	-0,110	-0,407
199,173	147,295	-0,186	-0,173
200,188	800,000	-0,066	-0,175
201,202	63,652	-0,078	-0,054
202,217	464,319	-0,119	-0,186
203,232	-66,112	-0,249	0,068
204,246	-91,189	-0,293	-0,058
205,261	192,097	-0,115	-0,121
206,275	800,000	-0,109	-0,217
207,290	269,372	-0,117	-0,142
208,304	141,229	-0,221	-0,203
209,319	160,041	-0,169	-0,163
210,334	69,267	-0,183	-0,130
211,348	16,358	-0,212	-0,115
212,363	438,040	-0,182	-0,276
213,377	669,266	-0,119	-0,213
214,392	-76,830	-0,208	-0,050
215,407	101,021	-0,271	-0,218
216,421	24,308	-0,114	-0,065
217,436	24,365	-0,281	-0,160
218,450	800,000	-0,142	-0,282
219,465	151,040	-0,188	-0,177
220,480	27,715	-0,118	-0,069
221,494	55,204	-0,204	-0,136
222,509	421,859	-0,165	-0,246
223,523	10,717	-0,331	-0,174
224,538	30,529	-0,098	-0,058
225,553	800,000	-0,162	-0,318
226,567	-91,259	-0,282	-0,055
227,582	9,967	-0,312	-0,163
228,596	659,710	-0,079	-0,140
229,611	110,829	-0,136	-0,113
230,626	-55,342	-0,139	-0,043
231,640	-89,620	-0,156	-0,031
232,655	162,512	-0,210	-0,204
233,669	422,497	-0,196	-0,292
234,684	-96,241	-0,191	-0,035
235,699	265,952	-0,142	-0,171
236,713	-34,352	-0,165	-0,062
237,728	32,101	-0,244	-0,145
238,742	131,865	-0,213	-0,189
239,757	-1,069	-0,204	-0,100
240,772	1,633	-0,157	-0,078
241,786	-7,818	-0,231	-0,107
242,801	129,101	-0,150	-0,132
243,815	-59,384	-0,187	-0,055
244,830	-135,165	-0,141	0,012
245,844	-131,697	-0,236	-0,021
246,859	-125,839	-0,222	-0,023
247,874	152,731	-0,249	-0,235
248,888	13,256	-0,147	-0,079
249,903	236,830	-0,121	-0,138
250,917	-200,000	-0,009	-0,120
251,932	44,632	-0,090	-0,057
252,947	537,704	-0,145	-0,239
253,961	800,000	-0,098	-0,205
254,976	649,043	-0,128	-0,226
255,990	-14,435	-0,163	-0,072
257,005	284,086	0,027	0,034
258,020	-17,626	-0,103	-0,045
259,034	127,319	-0,180	-0,158
260,049	202,187	-0,132	-0,140
261,063	-59,358	-0,107	-0,032
262,078	191,204	-0,184	-0,191
263,093	313,247	-0,104	-0,135
264,107	261,583	-0,161	-0,193
265,122	-91,919	-0,176	-0,034
266,136	-22,523	-0,131	-0,054
267,151	793,020	-0,075	-0,143
268,166	80,639	-0,246	-0,182
269,180	-38,082	-0,173	-0,063
270,195	81,520	-0,190	-0,142
271,209	-200,000	-0,046	-0,204
272,224	317,968	-0,124	-0,161
273,239	297,492	-0,101	-0,128
274,253	-22,137	-0,153	-0,064
275,268	-94,295	-0,117	-0,022
276,282	280,803	-0,160	-0,198
277,297	141,247	-0,166	-0,151
278,312	211,261	-0,160	-0,173
279,326	136,077	-0,091	-0,082
280,341	301,572	-0,177	-0,226
281,355	85,128	-0,138	-0,104
282,370	-38,141	-0,085	0,031
283,384	-16,906	-0,202	-0,087
284,399	66,787	-0,209	-0,147
285,414	320,973	-0,089	-0,117
286,428	-40,270	-0,241	-0,086
287,443	271,192	-0,080	-0,098
288,457	445,774	-0,132	-0,201
289,472	-153,978	-0,293	0,013
290,487	296,349	-0,223	-0,281
291,501	16,437	-0,221	-0,119
292,516	-21,617	-0,172	-0,072
293,530	501,764	0,004	0,007
294,545	337,155	-0,134	-0,180
295,560	-144,320	-0,137	0,009
296,574	-200,000	-0,050	-0,197
297,589	435,531	-0,117	-0,176
298,603	13,625	-0,268	-0,143
299,618	310,243	-0,178	-0,229
300,633	-2,872	-0,088	0,042
301,647	389,590	-0,207	-0,296
302,662	440,534	-0,123	-0,186
303,676	61,552	-0,170	-0,116
304,691	162,037	-0,159	-0,153
305,706	76,155	-0,161	-0,117
306,720	800,000	-0,088	-0,173
307,735	22,270	-0,077	0,043
308,749	-19,839	-0,107	-0,045
309,764	34,534	-0,141	-0,084
310,779	696,238	-0,115	-0,208
311,793	39,376	-0,180	-0,111
312,808	202,382	-0,133	-0,141
313,822	50,033	-0,198	-0,128
314,837	-46,506	-0,122	-0,041
315,852	89,734	-0,106	-0,081
316,866	378,611	-0,077	-0,109
317,881	-103,410	-0,171	0,027
318,895	-2,413	-0,215	-0,103
319,910	650,496	-0,052	-0,092
320,925	435,852	-0,115	-0,172
321,939	-54,859	-0,167	-0,051
322,954	-200,000	0,005	-0,179
323,968	-58,078	-0,030	0,009
324,983	-200,000	-0,012	-0,133
325,997	-46,282	-0,184	-0,062
327,012	269,736	-0,163	-0,197
328,027	-155,001	-0,139	0,006
329,041	5,570	-0,109	-0,055
330,056	-75,531	-0,102	-0,025
331,070	126,077	-0,120	-0,104
332,085	800,000	-0,042	-0,096
333,100	-169,341	-0,116	-0,003
334,114	-20,263	-0,185	-0,078
335,129	46,392	-0,161	-0,102
336,143	309,442	-0,093	-0,119
337,158	149,956	-0,050	0,047
338,173	-114,619	-0,038	-0,005
339,187	-115,235	-0,162	-0,021
340,202	-62,982	-0,095	0,027
341,216	11,311	-0,120	-0,063
342,231	61,591	-0,145	-0,099
343,246	195,430	-0,161	-0,168
344,260	22,602	-0,083	-0,046
345,275	-200,000	-0,019	-0,123
346,289	85,590	-0,112	-0,084
347,304	-92,070	-0,121	-0,023
348,319	-120,899	-0,137	0,016
349,333	800,000	-0,095	-0,202
350,348	800,000	-0,047	-0,102
351,362	-132,957	-0,115	-0,010
352,377	-19,325	-0,167	-0,071
353,392	-146,205	-0,132	0,008
354,406	382,370	-0,119	-0,168
355,421	207,243	1306,164	1394,679
356,435	159,419	1465,807	1395,149
