DTS Sentinel unit serial number:	SN410029Multiplexer serial number:	ORYXHardware model number:	OX2-SRSoftware version number:	ORYX F/W v4,00 Oryx Data Collector v3.7.2.0data status	okinstallation	B3 Nyhavnadifferential loss correction	single-endedforward channel	channel 1reverse channel	N/Adate	2023/12/01time	17:57:30forward acquisition time	300,00reverse acquisition time	0,00gamma	499,1914k internal	0,3203k external	0,3203temperature offset calibration	1,0000default loss term (dB/km)	0,3820temperature slope calibration	1,0000multiplexer offset coefficient	1,0000multiplexer slope coefficient	1,0000fibre end	0,00T internal ref (°C)	14,50T ext. ref 1 (°C)	0,53T ext. ref 2 (°C)	0,49length (m)	temperature (°C)	Stokes	anti-Stokes-744,400	272,168	-0,274	-0,352
-743,385	512,200	-0,125	0,212
-742,371	41,249	-0,266	-0,174
-741,356	-200,000	0,071	0,292
-740,342	206,969	-0,224	-0,254
-739,327	-200,000	-0,009	0,225
-738,312	336,965	-0,152	-0,215
-737,298	800,000	-0,140	0,342
-736,283	5,857	-0,213	-0,114
-735,269	-200,000	0,049	0,256
-734,254	655,025	-0,099	-0,185
-733,239	113,053	-0,178	0,157
-732,225	-200,000	-0,045	-0,332
-731,210	18,598	0,106	0,061
-730,196	94,878	-0,030	0,025
-729,181	-149,173	-0,102	0,006
-728,167	146,473	0,024	-0,024
-727,152	289,644	0,092	0,122
-726,137	162,639	-0,053	-0,054
-725,123	-86,487	0,100	-0,022
-724,108	-0,864	-0,180	-0,092
-723,094	-200,000	0,007	-0,022
-722,079	137,235	0,105	-0,099
-721,064	-94,088	0,093	0,018
-720,050	-97,023	-0,030	-0,006
-719,035	-32,974	-0,132	-0,053
-718,021	-200,000	0,019	-0,089
-717,006	104,956	-0,090	-0,077
-715,991	-200,000	-0,011	-0,148
-714,977	406,206	-0,078	0,119
-713,962	-200,000	-0,009	-0,063
-712,948	125,124	-0,052	-0,047
-711,933	142,431	-0,098	0,095
-710,918	800,000	-0,023	-0,073
-709,904	-106,255	-0,054	-0,009
-708,889	-100,506	-0,163	-0,029
-707,875	157,817	-0,118	-0,119
-706,860	39,198	0,080	-0,052
-705,845	-76,569	0,106	-0,027
-704,831	60,166	-0,032	0,023
-703,816	204,035	-0,030	-0,034
-702,802	-200,000	-0,024	0,124
-701,787	-5,455	-0,103	-0,051
-700,772	322,951	0,181	-0,250
-699,758	799,178	-0,053	-0,107
-698,743	-13,569	0,091	-0,043
-697,729	58,830	-0,039	-0,028
-696,714	44,649	0,040	0,027
-695,699	-111,721	-0,140	-0,020
-694,685	800,000	-0,022	0,050
-693,670	58,773	-0,057	0,041
-692,656	-200,000	-0,004	0,016
-691,641	-59,855	-0,062	0,019
-690,627	800,000	-0,022	0,054
-689,612	-187,786	0,044	0,000
-688,597	75,207	0,043	-0,033
-687,583	-200,000	0,011	-0,076
-686,568	-200,000	-0,028	-0,106
-685,554	800,000	-0,011	-0,028
-684,539	800,000	-0,027	0,062
-683,524	237,948	-0,003	0,003
-682,510	-105,237	0,066	-0,011
-681,495	642,129	0,003	0,006
-680,481	-67,323	-0,097	-0,027
-679,466	473,210	0,084	-0,137
-678,451	-200,000	-0,006	-0,052
-677,437	-109,550	-0,011	-0,002
-676,422	-44,361	0,103	0,037
-675,408	-200,000	0,006	0,086
-674,393	94,405	-0,053	-0,043
-673,378	-200,000	0,020	-0,081
-672,364	-101,678	0,056	-0,010
-671,349	42,036	-0,097	-0,064
-670,335	-200,000	-0,021	-0,137
-669,320	800,000	-0,036	0,093
-668,305	-71,331	-0,090	-0,024
-667,291	-200,000	0,017	-0,113
-666,276	44,683	-0,117	0,078
-665,262	-42,299	-0,126	0,046
-664,247	41,554	-0,052	-0,034
-663,232	-122,550	-0,061	-0,007
-662,218	-200,000	-0,002	0,022
-661,203	289,626	-0,074	-0,098
-660,189	-26,783	0,014	0,006
-659,174	75,348	-0,104	0,079
-658,159	800,000	-0,089	-0,195
-657,145	479,393	-0,032	-0,053
-656,130	221,983	0,073	0,085
-655,116	235,552	-0,066	-0,079
-654,101	-200,000	0,030	-0,128
-653,086	184,801	-0,060	0,064
-652,072	-200,000	0,032	0,151
-651,057	800,000	-0,049	-0,124
-650,043	571,597	0,012	-0,022
-649,028	189,328	-0,016	-0,017
-648,014	115,451	-0,076	-0,068
-646,999	485,493	-0,056	-0,093
-645,984	-104,953	-0,106	-0,017
-644,970	800,000	0,030	-0,090
-643,955	-18,435	0,100	-0,045
-642,941	800,000	-0,023	-0,055
-641,926	319,655	-0,066	-0,091
-640,911	243,691	0,004	-0,005
-639,897	368,777	0,074	0,109
-638,882	-117,233	-0,081	-0,010
-637,868	-24,538	0,009	-0,004
-636,853	231,468	-0,069	0,081
-635,838	51,710	-0,073	-0,050
-634,824	-200,000	0,018	-0,092
-633,809	276,838	-0,101	-0,130
-632,795	-200,000	0,011	0,056
-631,780	240,772	0,126	0,152
-630,765	-200,000	-0,010	-0,052
-629,751	70,246	-0,068	-0,051
-628,736	-200,000	0,005	-0,073
-627,722	266,734	-0,100	-0,127
-626,707	-82,252	0,128	0,030
-625,692	-1,236	0,130	0,066
-624,678	-60,287	-0,078	-0,024
-623,663	163,895	0,076	-0,077
-622,649	-200,000	-0,014	-0,101
-621,634	257,383	-0,054	0,068
-620,619	-200,000	-0,011	0,080
-619,605	800,000	0,035	-0,079
-618,590	-48,365	-0,068	0,024
-617,576	-200,000	0,004	-0,053
-616,561	96,587	-0,043	-0,036
-615,546	78,487	-0,055	0,042
-614,532	-200,000	-0,026	-0,127
-613,517	102,455	-0,083	-0,070
-612,503	403,108	-0,050	-0,077
-611,488	-200,000	0,000	0,001
-610,474	-122,191	-0,067	-0,008
-609,459	-200,000	-0,004	0,019
-608,444	235,361	-0,023	0,027
-607,430	-73,445	0,101	-0,027
-606,415	-125,719	-0,080	-0,009
-605,401	401,890	-0,022	-0,033
-604,386	-200,000	-0,007	-0,040
-603,371	-180,243	0,131	0,002
-602,357	800,000	-0,046	0,116
-601,342	-200,000	-0,010	-0,051
-600,328	31,462	-0,052	0,032
-599,313	689,019	-0,036	-0,069
-598,298	150,580	-0,052	0,051
-597,284	42,103	0,104	0,068
-596,269	643,504	-0,046	0,086
-595,255	191,860	0,059	0,064
-594,240	-173,668	-0,129	-0,003
-593,225	-67,159	-0,078	-0,022
-592,211	-4,049	-0,044	0,022
-591,196	-200,000	-0,003	0,048
-590,182	42,683	0,113	-0,074
-589,167	72,028	0,116	-0,087
-588,152	83,596	-0,029	0,023
-587,138	-200,000	0,011	0,157
-586,123	-123,362	0,053	-0,006
-585,109	554,489	-0,048	-0,084
-584,094	27,757	-0,083	0,051
-583,079	666,287	0,016	-0,031
-582,065	-200,000	-0,021	0,083
-581,050	-170,387	0,074	0,002
-580,036	355,541	0,042	-0,060
-579,021	-200,000	-0,007	-0,098
-578,006	800,000	-0,083	-0,206
-576,992	6,392	-0,076	-0,040
-575,977	800,000	-0,010	0,030
-574,963	137,048	0,092	0,086
-573,948	800,000	-0,012	0,025
-572,934	72,158	0,074	0,056
-571,919	-200,000	0,001	0,082
-570,904	-28,487	-0,113	-0,047
-569,890	-154,292	0,043	-0,002
-568,875	-200,000	0,007	0,061
-567,861	-200,000	0,004	0,030
-566,846	525,123	0,061	-0,104
-565,831	63,454	-0,102	0,074
-564,817	-48,293	-0,033	0,011
-563,802	189,331	0,040	-0,043
-562,788	93,799	-0,119	-0,097
-561,773	122,523	0,059	-0,053
-560,758	-102,754	-0,027	-0,005
-559,744	388,182	0,033	-0,050
-558,729	-200,000	-0,012	-0,073
-557,715	-200,000	0,013	-0,109
-556,700	327,444	0,049	0,068
-555,685	-200,000	-0,016	-0,101
-554,671	-21,898	-0,170	-0,074
-553,656	-123,460	0,183	0,021
-552,642	-200,000	0,031	0,140
-551,627	-38,562	-0,055	0,021
-550,612	-200,000	-0,011	-0,071
-549,598	-80,821	-0,151	-0,036
-548,583	-200,000	-0,029	-0,161
-547,569	75,054	0,016	0,012
-546,554	-103,723	-0,040	-0,007
-545,539	-21,747	-0,172	0,075
-544,525	766,495	0,025	-0,050
-543,510	115,005	-0,080	-0,071
-542,496	-11,907	0,104	-0,049
-541,481	-200,000	0,005	0,088
-540,466	800,000	0,022	0,065
-539,452	140,767	-0,073	0,069
-538,437	208,365	-0,065	-0,073
-537,423	-141,202	0,103	-0,007
-536,408	45,549	-0,019	-0,013
-535,393	146,536	-0,047	0,046
-534,379	-54,864	-0,049	-0,016
-533,364	-14,721	-0,066	0,031
-532,350	17,627	0,117	0,067
-531,335	84,841	0,025	-0,020
-530,321	800,000	-0,025	-0,056
-529,306	800,000	0,047	-0,126
-528,291	684,303	-0,019	-0,037
-527,277	-131,733	0,011	-0,001
-526,262	511,129	0,023	0,038
-525,248	-200,000	-0,018	0,204
-524,233	573,534	-0,033	0,059
-523,218	511,189	0,051	-0,085
-522,204	-200,000	-0,009	-0,082
-521,189	-82,169	0,154	-0,036
-520,175	478,299	-0,029	-0,047
-519,160	-200,000	-0,018	-0,085
-518,145	-80,203	0,065	-0,015
-517,131	800,000	0,051	0,134
-516,116	800,000	-0,057	0,140
-515,102	-95,888	-0,048	0,009
-514,087	-119,187	0,115	0,014
-513,072	-157,987	-0,117	-0,005
-512,058	800,000	0,089	-0,254
-511,043	364,422	-0,008	-0,011
-510,029	162,060	-0,116	0,117
-509,014	-75,046	0,201	0,051
-507,999	-5,044	-0,032	-0,016
-506,985	-120,876	-0,115	-0,014
-505,970	-51,080	-0,080	-0,027
-504,956	800,000	-0,100	-0,249
-503,941	308,335	-0,039	-0,052
-502,926	63,232	0,097	0,070
-501,912	-141,297	-0,069	-0,005
-500,897	-200,000	-0,011	-0,041
-499,883	597,760	0,041	-0,073
-498,868	685,311	-0,165	-0,312
-497,853	-200,000	0,006	-0,138
-496,839	800,000	0,024	-0,061
-495,824	-55,783	0,080	0,026
-494,810	800,000	0,015	-0,034
-493,795	162,842	0,005	0,005
-492,781	52,565	-0,121	0,083
-491,766	8,301	0,041	0,022
-490,751	800,000	0,026	-0,053
-489,737	-117,083	0,100	0,013
-488,722	127,863	0,068	0,063
-487,708	-94,400	0,103	-0,020
-486,693	-200,000	-0,027	0,132
-485,678	539,686	0,033	-0,056
-484,664	326,323	-0,067	-0,092
-483,649	242,778	-0,076	-0,092
-482,635	101,827	0,025	0,021
-481,620	-200,000	0,049	0,218
-480,605	15,682	0,060	0,034
-479,591	-1,562	0,096	0,049
-478,576	150,061	-0,057	0,056
-477,562	17,916	0,078	0,045
-476,547	-121,467	0,121	-0,014
-475,532	-53,609	0,162	0,053
-474,518	800,000	-0,027	-0,057
-473,503	-61,446	0,047	0,014
-472,489	800,000	-0,007	0,017
-471,474	-200,000	0,008	-0,117
-470,459	23,510	-0,127	0,075
-469,445	-51,599	-0,073	-0,024
-468,430	-200,000	0,030	-0,161
-467,416	68,320	0,140	0,103
-466,401	-200,000	-0,026	0,100
-465,386	-3,471	0,021	-0,010
-464,372	262,927	0,072	0,091
-463,357	800,000	0,050	-0,105
-462,343	-200,000	-0,002	-0,139
-461,328	-200,000	-0,014	-0,075
-460,313	227,988	0,081	-0,095
-459,299	-100,959	0,157	0,027
-458,284	-134,608	0,086	-0,007
-457,270	78,191	-0,058	-0,045
-456,255	319,953	0,080	0,109
-455,241	117,790	-0,035	0,031
-454,226	-200,000	0,001	-0,038
-453,211	-200,000	0,003	-0,012
-452,197	68,826	0,134	0,099
-451,182	56,731	-0,071	-0,050
-450,168	311,118	-0,015	0,020
-449,153	247,587	0,044	-0,053
-448,138	-144,374	-0,049	0,003
-447,124	800,000	-0,066	-0,136
-446,109	-200,000	0,010	-0,116
-445,095	2,876	-0,089	0,046
-444,080	339,187	0,104	0,145
-443,065	-200,000	-0,017	-0,088
-442,051	-161,788	-0,120	0,004
-441,036	437,110	-0,094	0,148
-440,022	390,656	-0,029	-0,043
-439,007	-100,127	0,155	0,027
-437,992	-99,750	0,117	0,021
-436,978	-165,205	0,187	-0,006
-435,963	-200,000	0,018	0,114
-434,949	57,291	-0,062	-0,043
-433,934	19,478	0,175	-0,101
-432,919	180,651	-0,097	-0,102
-431,905	527,508	0,054	0,092
-430,890	-125,073	0,053	-0,006
-429,876	800,000	0,050	0,110
-428,861	80,196	0,110	-0,085
-427,846	93,470	-0,017	-0,014
-426,832	61,805	-0,142	0,102
-425,817	176,239	-0,126	-0,131
-424,803	-200,000	-0,000	-0,128
-423,788	90,195	-0,035	-0,028
-422,773	-151,599	0,132	-0,007
-421,759	112,826	0,081	0,070
-420,744	-137,854	0,063	0,005
-419,730	121,899	-0,006	0,005
-418,715	555,043	-0,008	-0,013
-417,701	794,478	0,029	-0,057
-416,686	73,399	0,041	-0,031
-415,671	-200,000	0,012	0,057
-414,657	800,000	-0,022	0,045
-413,642	-200,000	0,000	-0,049
-412,628	800,000	0,022	0,056
-411,613	50,071	0,147	-0,100
-410,598	-59,441	0,027	-0,008
-409,584	-131,714	0,048	-0,004
-408,569	263,267	0,100	0,124
-407,555	-35,596	0,170	0,066
-406,540	119,974	0,043	0,039
-405,525	-7,638	-0,182	0,088
-404,511	-18,538	-0,121	0,054
-403,496	-98,755	0,075	-0,014
-402,482	297,052	-0,018	-0,024
-401,467	10,286	0,039	-0,021
-400,452	118,179	0,075	0,066
-399,438	170,835	-0,109	-0,112
-398,423	-200,000	0,028	-0,091
-397,409	-114,839	0,061	0,008
-396,394	-200,000	-0,001	0,074
-395,379	-200,000	0,004	0,238
-394,365	800,000	0,096	0,195
-393,350	-114,565	0,105	0,014
-392,336	-200,000	-0,001	0,147
-391,321	-200,000	0,030	-0,099
-390,306	-200,000	0,004	-0,080
-389,292	73,572	0,082	-0,061
-388,277	497,287	-0,059	0,098
-387,263	-112,536	-0,043	-0,006
-386,248	-200,000	0,014	0,058
-385,233	-73,914	-0,104	0,027
-384,219	-30,286	-0,132	0,053
-383,204	-200,000	0,022	-0,114
-382,190	-59,382	-0,138	-0,042
-381,175	189,635	-0,050	0,054
-380,160	800,000	-0,015	-0,039
-379,146	178,468	0,037	0,039
-378,131	-200,000	0,042	0,160
-377,117	-200,000	-0,044	0,179
-376,102	800,000	-0,023	-0,047
-375,088	-79,677	0,044	-0,010
-374,073	-31,840	0,164	0,065
-373,058	-160,187	-0,105	-0,004
-372,044	200,818	0,106	0,117
-371,029	-200,000	0,017	-0,090
-370,015	-200,000	-0,013	0,093
-369,000	8,711	-0,023	-0,012
-367,985	800,000	0,017	-0,035
-366,971	124,857	0,013	0,012
-365,956	-100,386	-0,068	-0,012
-364,942	800,000	0,026	0,063
-363,927	203,336	0,015	0,017
-362,912	139,673	0,066	0,063
-361,898	-175,796	0,052	-0,001
-360,883	-200,000	-0,014	-0,049
-359,869	-200,000	0,012	-0,109
-358,854	-133,933	0,160	0,014
-357,839	24,308	0,085	-0,050
-356,825	-79,401	0,186	0,045
-355,810	-60,779	-0,137	0,041
-354,796	-91,050	0,059	-0,012
-353,781	800,000	-0,079	-0,160
-352,766	-147,276	-0,079	0,005
-351,752	800,000	0,017	0,036
-350,737	-200,000	-0,019	-0,077
-349,723	-134,357	0,066	-0,006
-348,708	800,000	-0,031	0,070
-347,693	-200,000	0,017	0,068
-346,679	143,233	-0,081	0,077
-345,664	-50,468	-0,128	0,043
-344,650	439,879	-0,070	-0,110
-343,635	522,563	0,093	0,158
-342,620	-200,000	0,031	0,138
-341,606	-200,000	0,049	0,197
-340,591	-80,641	-0,069	0,016
-339,577	-200,000	-0,014	-0,082
-338,562	-200,000	0,000	-0,040
-337,548	17,245	0,128	-0,072
-336,533	89,249	0,121	0,096
-335,518	230,092	-0,067	0,079
-334,504	-200,000	0,021	0,117
-333,489	-151,514	-0,089	0,005
-332,475	-200,000	0,006	0,029
-331,460	800,000	0,040	-0,088
-330,445	792,540	0,062	0,122
-329,431	149,358	0,050	0,048
-328,416	635,217	-0,048	0,087
-327,402	-200,000	-0,038	0,130
-326,387	143,349	-0,024	0,023
-325,372	-171,725	-0,056	-0,001
-324,358	-96,406	0,158	0,030
-323,343	39,808	-0,085	-0,055
-322,329	-1,476	-0,169	-0,085
-321,314	-156,460	0,064	0,003
-320,299	800,000	0,027	0,068
-319,285	-200,000	-0,000	-0,066
-318,270	356,079	-0,092	-0,132
-317,256	61,740	-0,029	-0,021
-316,241	-200,000	0,003	-0,064
-315,226	342,794	0,032	0,045
-314,212	-51,692	0,034	-0,011
-313,197	-96,370	0,050	0,009
-312,183	622,869	0,045	0,082
-311,168	-200,000	0,026	-0,107
-310,153	55,443	0,038	-0,026
-309,139	124,531	-0,038	0,034
-308,124	125,535	0,059	0,053
-307,110	660,124	-0,046	0,085
-306,095	800,000	-0,004	0,010
-305,080	36,665	0,038	-0,024
-304,066	-125,375	-0,096	0,010
-303,051	201,895	0,057	0,063
-302,037	-99,235	-0,134	-0,024
-301,022	294,525	-0,028	-0,037
-300,008	651,446	0,028	0,051
-298,993	93,379	0,024	-0,020
-297,978	-190,405	-0,083	0,001
-296,964	51,605	0,099	-0,067
-295,949	-200,000	0,007	-0,094
-294,935	-200,000	-0,012	0,093
-293,920	800,000	-0,037	-0,113
-292,905	-200,000	0,031	-0,170
-291,891	29,118	0,062	0,038
-290,876	-43,157	-0,091	0,033
-289,862	293,832	0,045	-0,059
-288,847	100,594	0,032	-0,026
-287,832	275,175	0,045	-0,057
-286,818	-92,275	0,029	-0,006
-285,803	-200,000	-0,003	0,017
-284,789	800,000	-0,034	0,085
-283,774	-189,764	-0,188	0,001
-282,759	429,736	0,019	-0,030
-281,745	234,400	-0,066	-0,078
-280,730	-158,101	-0,126	-0,005
-279,716	9,677	-0,077	-0,041
-278,701	800,000	0,012	0,034
-277,686	-29,252	0,142	0,058
-276,672	304,186	-0,045	0,060
-275,657	-200,000	-0,008	0,075
-274,643	-200,000	-0,006	-0,036
-273,628	-121,978	-0,170	-0,020
-272,613	32,193	0,048	0,029
-271,599	800,000	0,039	0,097
-270,584	-42,374	0,042	-0,015
-269,570	101,761	-0,044	-0,037
-268,555	610,280	-0,027	0,048
-267,540	800,000	0,044	0,098
-266,526	-142,714	-0,027	-0,002
-265,511	361,029	0,023	-0,033
-264,497	-200,000	0,014	0,120
-263,482	59,406	0,072	-0,050
-262,467	12,343	0,014	-0,008
-261,453	350,050	0,030	0,043
-260,438	317,115	-0,051	-0,069
-259,424	800,000	-0,005	-0,014
-258,409	-113,560	-0,089	0,012
-257,395	800,000	-0,035	-0,079
-256,380	314,860	0,076	-0,102
-255,365	105,218	0,070	-0,059
-254,351	-89,358	0,149	0,031
-253,336	82,085	-0,044	0,034
-252,322	-77,474	-0,212	0,052
-251,307	95,519	0,030	0,024
-250,292	100,212	0,114	-0,094
-249,278	-200,000	0,003	-0,015
-248,263	402,540	0,120	0,180
-247,249	800,000	-0,014	0,028
-246,234	-54,886	-0,135	0,043
-245,219	-200,000	-0,006	-0,130
-244,205	94,450	0,086	-0,069
-243,190	51,530	0,039	-0,026
-242,176	-11,164	0,077	-0,036
-241,161	-104,067	0,178	-0,029
-240,146	11,512	-0,148	0,081
-239,132	800,000	0,042	0,089
-238,117	-98,674	0,065	-0,012
-237,103	12,638	-0,208	0,114
-236,088	-82,727	-0,091	-0,021
-235,073	-127,653	0,082	0,008
-234,059	-34,765	0,136	0,053
-233,044	-46,919	0,028	-0,010
-232,030	216,532	0,029	-0,033
-231,015	800,000	-0,058	-0,116
-230,000	17,903	-0,101	-0,057
-228,986	588,465	-0,093	-0,164
-227,971	136,399	-0,044	0,041
-226,957	-147,405	-0,011	-0,001
-225,942	-106,843	-0,111	-0,017
-224,927	-200,000	-0,008	-0,028
-223,913	-200,000	0,020	-0,067
-222,898	112,013	-0,101	0,087
-221,884	217,402	-0,033	0,037
-220,869	130,850	0,075	0,068
-219,855	60,740	0,096	0,068
-218,840	137,972	0,024	0,022
-217,825	40,328	-0,013	-0,009
-216,811	-200,000	-0,001	-0,063
-215,796	-140,712	-0,149	0,011
-214,782	-32,316	-0,192	0,076
-213,767	172,011	-0,092	-0,094
-212,752	11,553	0,056	-0,030
-211,738	800,000	-0,060	0,185
-210,723	491,077	-0,096	0,157
-209,709	800,000	-0,043	-0,106
-208,694	-200,000	0,002	-0,084
-207,679	-200,000	-0,003	-0,036
-206,665	-104,650	0,019	-0,003
-205,650	-200,000	-0,032	0,125
-204,636	229,196	0,023	0,026
-203,621	-200,000	-0,010	0,086
-202,606	525,664	0,051	0,086
-201,592	-79,582	-0,121	-0,029
-200,577	55,490	0,009	-0,006
-199,563	-200,000	0,003	0,112
-198,548	-57,025	0,064	-0,020
-197,533	61,283	-0,075	0,053
-196,519	43,845	-0,031	-0,020
-195,504	26,858	-0,124	-0,074
-194,490	-143,320	0,134	-0,009
-193,475	438,416	-0,084	-0,130
-192,460	27,872	-0,058	0,035
-191,446	163,433	0,064	0,064
-190,431	94,718	-0,030	0,024
-189,417	252,701	-0,101	0,123
-188,402	27,731	-0,072	0,043
-187,387	-200,000	-0,033	-0,112
-186,373	135,316	-0,066	-0,061
-185,358	231,701	-0,088	-0,103
-184,344	-34,388	0,175	-0,068
-183,329	226,436	-0,092	-0,106
-182,315	254,769	0,038	-0,047
-181,300	421,702	0,058	0,089
-180,285	40,303	-0,082	-0,052
-179,271	-157,421	0,023	-0,001
-178,256	800,000	0,028	0,055
-177,242	-200,000	0,033	-0,140
-176,227	-200,000	0,009	0,062
-175,212	800,000	-0,051	0,130
-174,198	209,744	0,017	0,019
-173,183	291,647	-0,007	0,009
-172,169	-129,391	-0,060	0,006
-171,154	-109,521	-0,050	-0,007
-170,139	-200,000	0,005	-0,027
-169,125	-200,000	0,011	0,150
-168,110	125,653	0,074	0,067
-167,096	-200,000	0,019	-0,063
-166,081	-27,648	-0,068	0,028
-165,066	26,676	-0,109	-0,065
-164,052	-60,427	0,008	-0,002
-163,037	-106,345	-0,049	0,008
-162,023	149,815	0,124	0,120
-161,008	388,690	-0,066	0,098
-159,993	21,878	0,045	-0,026
-158,979	800,000	-0,018	0,047
-157,964	370,333	-0,069	-0,099
-156,950	207,968	0,138	0,153
-155,935	800,000	0,048	0,113
-154,920	-105,263	0,100	0,016
-153,906	-147,087	0,170	-0,010
-152,891	-200,000	0,004	-0,077
-151,877	-113,959	0,031	-0,004
-150,862	360,646	0,046	0,066
-149,847	264,211	-0,039	-0,049
-148,833	-200,000	0,017	-0,113
-147,818	126,769	0,108	-0,097
-146,804	-10,543	-0,078	-0,037
-145,789	-200,000	0,007	-0,065
-144,775	-200,000	-0,006	-0,064
-143,760	-200,000	-0,005	0,145
-142,745	-200,000	-0,011	-0,083
-141,731	-200,000	0,046	0,157
-140,716	800,000	0,044	0,117
-139,702	800,000	0,016	0,034
-138,687	-200,000	0,032	0,127
-137,672	0,097	-0,102	-0,051
-136,658	-200,000	0,038	-0,153
-135,643	-55,136	-0,083	-0,026
-134,629	800,000	-0,048	-0,100
-133,614	-200,000	-0,002	-0,058
-132,599	152,335	-0,005	-0,005
-131,585	727,274	-0,024	0,046
-130,570	-24,233	0,079	0,033
-129,556	33,663	0,058	0,036
-128,541	800,000	-0,043	-0,088
-127,526	-200,000	0,010	-0,188
-126,512	-200,000	0,009	0,116
-125,497	-2,971	0,179	0,088
-124,483	456,314	-0,060	0,095
-123,468	191,544	-0,052	0,055
-122,453	-29,728	-0,149	-0,060
-121,439	-200,000	-0,008	-0,104
-120,424	55,212	-0,100	-0,068
-119,410	377,570	0,057	0,082
-118,395	-33,183	0,085	0,033
-117,380	-160,103	0,105	0,004
-116,366	156,351	-0,018	0,018
-115,351	-27,468	-0,148	0,061
-114,337	65,248	0,086	-0,061
-113,322	290,765	0,028	-0,036
-112,307	-67,296	0,053	-0,015
-111,293	-200,000	-0,071	-0,000
-110,278	235,994	-0,004	0,005
-109,264	-200,000	-0,003	0,049
-108,249	7,592	-0,010	-0,005
-107,234	-200,000	0,005	-0,091
-106,220	-176,371	-0,012	-0,000
-105,205	-92,971	0,090	-0,018
-104,191	-200,000	-0,019	0,072
-103,176	662,555	0,041	0,075
-102,162	376,680	-0,004	-0,006
-101,147	114,325	0,030	0,026
-100,132	-34,384	-0,047	-0,018
-99,118	409,664	-0,072	-0,108
-98,103	-116,355	0,063	0,008
-97,089	8,788	0,098	0,052
-96,074	425,369	0,038	0,057
-95,059	303,780	-0,051	0,067
-94,045	-124,828	-0,058	-0,006
-93,030	-97,485	-0,079	0,014
-92,016	-5,404	-0,062	0,030
-91,001	273,653	-0,052	0,065
-89,986	143,785	0,132	0,124
-88,972	182,119	-0,015	0,016
-87,957	258,669	-0,062	0,076
-86,943	137,314	-0,048	0,045
-85,928	-200,000	0,024	-0,110
-84,913	-39,686	-0,069	-0,025
-83,899	-146,687	0,140	0,008
-82,884	-105,619	-0,071	0,011
-81,870	337,724	0,066	0,092
-80,855	800,000	0,011	0,031
-79,840	-200,000	-0,026	-0,090
-78,826	-109,338	0,063	-0,009
-77,811	-200,000	0,046	-0,172
-76,797	46,563	-0,106	0,070
-75,782	38,842	0,058	-0,037
-74,767	672,808	-0,053	0,097
-73,753	21,394	0,067	0,038
-72,738	-200,000	-0,012	0,061
-71,724	-126,027	-0,087	0,009
-70,709	-200,000	-0,004	0,067
-69,694	-200,000	0,002	0,018
-68,680	62,234	0,140	0,099
-67,665	800,000	-0,028	0,084
-66,651	11,263	0,052	0,028
-65,636	-62,838	0,017	-0,005
-64,622	-6,334	0,044	-0,021
-63,607	-200,000	-0,005	-0,047
-62,592	287,826	-0,088	-0,112
-61,578	-84,732	0,024	0,005
-60,563	125,999	-0,084	0,075
-59,549	-200,000	0,004	0,054
-58,534	-34,187	-1,593	-0,616
-57,519	328,931	-1,555	-2,120
-56,505	-200,000	-0,441	-4,316
-55,490	260,438	0,791	0,969
-54,476	800,000	4,859	11,357
-53,461	-200,000	18,344	292,273
-52,446	800,000	728,160	2238,321
-51,432	556,706	1642,517	2810,887
-50,417	78,753	1663,282	1257,360
-49,403	22,397	1536,852	886,413
-48,388	16,379	1459,946	812,970
-47,373	17,813	1450,185	814,396
-46,359	17,097	1440,313	805,401
-45,344	14,645	1435,818	791,179
-44,330	14,565	1433,704	789,601
-43,315	14,579	1432,266	788,843
-42,300	14,553	1430,585	787,765
-41,286	14,637	1429,465	787,515
-40,271	14,549	1428,139	786,337
-39,257	14,538	1426,980	785,612
-38,242	14,631	1425,534	785,229
-37,227	14,608	1424,371	784,445
-36,213	14,591	1423,110	783,642
-35,198	14,581	1421,895	782,892
-34,184	14,633	1421,139	782,693
-33,169	14,568	1419,558	781,484
-32,154	14,587	1418,883	781,172
-31,140	14,614	1417,367	780,431
-30,125	14,620	1416,273	779,827
-29,111	14,639	1415,168	779,274
-28,096	14,669	1414,108	778,801
-27,082	14,525	1413,129	777,558
-26,067	14,514	1412,127	776,923
-25,052	14,557	1410,864	776,399
-24,038	14,499	1409,964	775,601
-23,023	14,527	1408,832	775,079
-22,009	14,534	1407,724	774,469
-20,994	14,475	1407,086	773,816
-19,979	14,497	1406,078	773,333
-18,965	14,459	1405,118	772,594
-17,950	14,461	1404,235	772,090
-16,936	14,476	1403,119	771,514
-15,921	14,441	1402,114	770,766
-14,906	14,390	1401,216	770,007
-13,892	14,457	1400,185	769,719
-12,877	14,431	1399,376	769,125
-11,863	14,460	1398,202	768,584
-10,848	14,411	1397,629	768,010
-9,833	14,419	1396,601	767,453
-8,819	14,373	1395,824	766,784
-7,804	14,330	1394,871	766,029
-6,790	14,291	1393,896	765,283
-5,775	14,344	1392,845	764,921
-4,760	14,342	1391,833	764,324
-3,746	14,319	1391,061	763,766
-2,731	14,319	1390,400	763,372
-1,717	14,307	1389,447	762,765
-0,702	14,325	1387,513	761,755
0,313	18,244	1306,551	735,366
1,327	34,684	704,706	434,589
2,342	53,269	124,172	83,976
3,356	2,774	16,667	8,519
4,371	5,680	3,194	1,664
5,386	80,276	0,584	0,444
6,400	800,000	-0,060	0,131
7,415	124,188	-0,176	-0,156
8,429	123,569	-0,188	-0,166
9,444	-8,374	-0,443	-0,210
10,459	18,044	-0,318	-0,178
11,473	98,786	-0,352	-0,286
12,488	168,137	-0,202	-0,204
13,502	10,960	-0,233	-0,125
14,517	44,337	-0,329	-0,213
15,531	113,203	-0,286	-0,245
16,546	105,504	-0,357	-0,298
17,561	119,408	-0,472	-0,413
18,575	-123,389	-0,279	0,031
19,590	-43,218	-0,350	-0,125
20,604	22,461	-0,304	-0,175
21,619	50,739	-0,369	-0,246
22,634	338,817	-0,368	-0,508
23,648	122,925	-0,456	-0,403
24,663	343,376	-0,270	-0,374
25,677	2,766	-0,410	-0,209
26,692	-132,258	-0,365	-0,033
27,707	112,355	-0,323	-0,276
28,721	31,533	-0,420	-0,254
29,736	23,619	-0,401	-0,232
30,750	97,067	-0,363	-0,293
31,765	215,978	-0,280	-0,314
32,780	39,704	-0,405	-0,255
33,794	-15,911	-0,314	-0,140
34,809	36,596	-0,397	-0,247
35,823	274,398	-0,244	-0,306
36,838	-38,765	-0,427	-0,158
37,853	-10,767	-0,514	-0,238
38,867	63,292	-0,482	-0,340
39,882	47,745	-0,371	-0,244
40,896	136,649	-0,266	-0,245
41,911	110,623	-0,254	-0,215
42,926	-23,489	-0,447	-0,188
43,940	63,554	-0,372	-0,263
44,955	26,483	-0,444	-0,261
45,969	236,583	-0,200	-0,233
46,984	-81,468	-0,239	-0,055
47,999	-18,980	-0,407	-0,178
49,013	-1,000	-0,397	-0,197
50,028	134,822	-0,334	-0,305
51,042	200,245	-0,334	-0,361
52,057	104,995	-0,377	-0,313
53,071	123,140	-0,339	-0,299
54,086	154,362	-0,300	-0,290
55,101	75,889	-0,334	-0,248
56,115	64,838	-0,271	-0,192
57,130	17,091	-0,416	-0,231
58,144	57,484	-0,392	-0,269
59,159	-1,422	-0,388	-0,192
60,174	94,467	-0,444	-0,355
61,188	68,695	-0,419	-0,302
62,203	116,276	-0,238	-0,205
63,217	28,125	-0,192	-0,114
64,232	3,428	-0,348	-0,178
65,247	-4,472	-0,437	-0,211
66,261	99,852	-0,296	-0,241
67,276	-49,706	-0,290	-0,096
68,290	48,264	-0,298	-0,196
69,305	52,624	-0,228	-0,153
70,320	-113,104	-0,357	-0,049
71,334	70,524	-0,300	-0,218
72,349	80,766	-0,325	-0,246
73,363	82,484	-0,272	-0,207
74,378	98,264	-0,333	-0,269
75,393	128,700	-0,366	-0,327
76,407	3,642	-0,264	-0,135
77,422	497,051	-0,220	-0,357
78,436	-24,687	-0,257	-0,107
79,451	256,685	-0,222	-0,268
80,466	91,621	-0,400	-0,316
81,480	17,738	-0,391	-0,218
82,495	167,206	-0,240	-0,239
83,509	-63,320	-0,301	-0,087
84,524	173,274	-0,285	-0,289
85,539	20,067	-0,368	-0,208
86,553	61,982	-0,290	-0,203
87,568	23,293	-0,340	-0,196
88,582	378,530	-0,201	-0,290
89,597	28,919	-0,271	-0,161
90,611	35,366	-0,229	-0,140
91,626	115,729	-0,197	-0,169
92,641	-8,012	-0,226	-0,106
93,655	41,426	-0,325	-0,206
94,670	45,287	-0,249	-0,161
95,684	221,086	-0,250	-0,282
96,699	53,553	-0,324	-0,218
97,714	378,903	-0,163	-0,234
98,728	88,686	-0,267	-0,208
99,743	800,000	-0,129	-0,298
100,757	89,503	-0,280	-0,219
101,772	109,289	-0,308	-0,258
102,787	111,743	-0,395	-0,334
103,801	39,486	-0,288	-0,181
104,816	445,396	-0,171	-0,264
105,830	29,166	-0,286	-0,169
106,845	35,275	-0,239	-0,147
107,860	33,067	-0,260	-0,157
108,874	-2,488	-0,229	-0,112
109,889	-6,347	-0,356	-0,169
110,903	70,167	-0,194	-0,140
111,918	148,188	-0,185	-0,175
112,933	70,483	-0,136	-0,098
113,947	135,220	-0,248	-0,226
114,962	-66,588	-0,231	-0,064
115,976	104,786	-0,261	-0,215
116,991	184,129	-0,238	-0,247
118,006	157,010	-0,206	-0,199
119,020	25,851	-0,238	-0,138
120,035	22,347	-0,284	-0,162
121,049	-3,999	-0,169	-0,082
122,064	-7,749	-0,243	-0,114
123,079	100,576	-0,250	-0,203
124,093	64,865	-0,363	-0,256
125,108	161,345	-0,186	-0,182
126,122	18,103	-0,193	-0,107
127,137	-57,667	-0,249	-0,076
128,151	-96,072	-0,217	-0,040
129,166	36,262	-0,273	-0,168
130,181	-6,946	-0,370	-0,175
131,195	7,126	-0,247	-0,129
132,210	7,596	-0,242	-0,126
133,224	-46,125	-0,223	-0,076
134,239	144,944	-0,185	-0,173
135,254	-85,631	-0,221	-0,048
136,268	65,640	-0,192	-0,135
137,283	14,223	-0,275	-0,149
138,297	114,986	-0,265	-0,226
139,312	277,792	-0,291	-0,363
140,327	26,548	-0,278	-0,162
141,341	69,186	-0,200	-0,144
142,356	4,556	-0,285	-0,146
143,370	112,769	-0,260	-0,220
144,385	-190,540	-0,401	-0,003
145,400	224,779	-0,207	-0,234
146,414	66,352	-0,331	-0,234
147,429	181,052	-0,226	-0,232
148,443	800,000	-0,054	-0,160
149,458	40,311	-0,154	-0,097
150,473	16,258	-0,196	-0,108
151,487	64,448	-0,253	-0,178
152,502	182,416	-0,224	-0,230
153,516	3,905	-0,349	-0,177
154,531	271,609	-0,130	-0,160
155,546	114,443	-0,170	-0,144
156,560	-9,175	-0,258	-0,120
157,575	-24,532	-0,198	-0,082
158,589	234,154	-0,168	-0,193
159,604	86,890	-0,181	-0,140
160,619	270,708	-0,156	-0,192
161,633	442,469	-0,171	-0,262
162,648	197,527	-0,251	-0,267
163,662	115,986	-0,149	-0,127
164,677	93,109	-0,231	-0,182
165,692	800,000	-0,090	-0,179
166,706	126,198	-0,270	-0,238
167,721	800,000	-0,135	-0,314
168,735	48,127	-0,315	-0,205
169,750	40,476	-0,238	-0,149
170,764	-62,762	-0,248	-0,071
171,779	78,057	-0,223	-0,165
172,794	-96,855	-0,230	-0,042
173,808	-40,793	-0,187	-0,067
174,823	169,273	-0,251	-0,250
175,837	142,810	-0,198	-0,183
176,852	-118,432	-0,198	-0,024
177,867	316,747	-0,168	-0,222
178,881	293,197	-0,285	-0,362
179,896	33,562	-0,209	-0,126
180,910	158,299	-0,168	-0,162
181,925	154,306	-0,260	-0,249
182,940	415,841	-0,148	-0,220
183,954	-46,290	-0,268	-0,091
184,969	209,613	-0,181	-0,197
185,983	51,013	-0,174	-0,114
186,998	35,931	-0,312	-0,191
188,013	569,022	-0,145	-0,246
189,027	31,378	-0,350	-0,209
190,042	253,213	-0,238	-0,283
191,056	-27,158	-0,323	-0,130
192,071	-55,719	-0,204	-0,063
193,086	20,873	-0,113	-0,064
194,100	-116,419	-0,173	-0,022
195,115	-34,874	-0,265	-0,100
196,129	47,248	-0,201	-0,130
197,144	65,714	-0,219	-0,154
198,159	228,421	-0,154	-0,175
199,173	128,242	-0,241	-0,213
200,188	-200,000	-0,033	-0,172
201,202	-10,285	-0,137	0,063
202,217	19,268	-0,164	-0,091
203,232	-51,962	-0,264	-0,085
204,246	-61,956	-0,214	-0,062
205,261	794,647	-0,084	-0,162
206,275	310,544	-0,101	-0,131
207,290	800,000	-0,051	-0,107
208,304	800,000	-0,042	-0,085
209,319	84,125	-0,138	-0,105
210,334	197,191	-0,185	-0,196
211,348	37,996	-0,237	-0,146
212,363	-200,000	-0,047	-0,152
213,377	298,708	-0,148	-0,189
214,392	53,201	-0,175	-0,116
215,407	366,835	-0,100	-0,140
216,421	456,464	-0,085	0,132
217,436	1,949	-0,202	-0,101
218,450	189,013	-0,251	-0,261
219,465	-128,514	-0,332	-0,032
220,480	181,038	-0,148	-0,151
221,494	20,060	-0,101	-0,057
222,509	-19,853	-0,094	-0,040
223,523	4,411	-0,185	-0,094
224,538	-13,841	-0,115	-0,051
225,553	120,744	-0,169	-0,146
226,567	100,261	-0,207	-0,167
227,582	800,000	-0,140	-0,276
228,596	-200,000	-0,010	-0,098
229,611	245,208	-0,235	-0,274
230,626	52,675	-0,275	-0,182
231,640	54,778	-0,282	-0,188
232,655	221,119	-0,192	-0,214
233,669	67,043	-0,258	-0,182
234,684	-55,735	-0,130	-0,040
235,699	-30,487	-0,274	0,107
236,713	-97,383	-0,073	-0,013
237,728	132,610	-0,131	-0,117
238,742	-24,840	-0,200	-0,082
239,757	34,095	-0,222	-0,134
240,772	-200,000	-0,097	-0,322
241,786	168,994	-0,162	-0,160
242,801	225,857	-0,129	-0,145
243,815	-145,248	-0,165	-0,010
244,830	-62,126	-0,048	0,014
245,844	165,332	-0,214	-0,209
246,859	54,534	-0,204	-0,136
247,874	-21,908	-0,245	-0,102
248,888	-168,295	-0,149	-0,004
249,903	81,079	-0,130	-0,097
250,917	571,398	-0,098	-0,166
251,932	-91,710	-0,147	0,029
252,947	-57,525	-0,092	0,028
253,961	-172,361	-0,342	-0,007
254,976	-153,649	-0,231	-0,011
255,990	-58,721	-0,222	-0,066
257,005	127,367	-0,090	-0,079
258,020	12,440	-0,126	-0,067
259,034	37,611	-0,208	-0,127
260,049	85,660	-0,167	-0,127
261,063	65,059	-0,135	-0,094
262,078	99,056	-0,234	-0,187
263,093	109,734	-0,152	-0,126
264,107	327,300	-0,127	-0,169
265,122	109,625	-0,228	-0,189
266,136	800,000	-0,079	-0,200
267,151	-93,961	-0,113	-0,021
268,166	573,651	-0,127	-0,215
269,180	75,521	-0,148	-0,108
270,195	229,369	-0,177	-0,200
271,209	800,000	-0,104	-0,206
272,224	0,583	-0,226	-0,111
273,239	-157,234	-0,192	0,008
274,253	45,620	-0,161	-0,102
275,268	111,849	-0,118	-0,098
276,282	106,399	-0,262	-0,214
277,297	-45,288	-0,203	-0,069
278,312	347,071	-0,095	-0,129
279,326	140,559	-0,154	-0,140
280,341	184,078	-0,174	-0,178
281,355	108,821	-0,132	-0,108
282,370	85,265	-0,164	-0,124
283,384	210,866	-0,195	-0,211
284,399	34,362	-0,198	-0,119
285,414	120,299	-0,105	-0,090
286,428	-88,412	-0,169	-0,035
287,443	-121,513	-0,100	0,011
288,457	58,820	-0,185	-0,125
289,472	-194,085	-0,176	-0,001
290,487	47,902	-0,174	-0,112
291,501	60,607	-0,230	-0,157
292,516	-42,982	-0,187	-0,065
293,530	-179,649	-0,214	-0,003
294,545	80,387	-0,178	-0,132
295,560	-137,229	-0,062	0,005
296,574	-73,669	-0,097	0,024
297,589	800,000	-0,055	-0,160
298,603	160,826	-0,170	-0,164
299,618	800,000	-0,078	-0,199
300,633	-25,303	-0,096	-0,039
301,647	-200,000	0,011	-0,072
302,662	-154,489	-0,096	-0,004
303,676	-200,000	-0,049	-0,169
304,691	-200,000	0,011	-0,165
305,706	574,720	-0,126	-0,213
306,720	65,947	-0,182	-0,127
307,735	256,267	-0,082	-0,097
308,749	72,735	-0,173	-0,124
309,764	-12,619	-0,203	-0,091
310,779	-200,000	-0,001	-0,088
311,793	54,087	-0,109	-0,072
312,808	80,659	-0,150	-0,111
313,822	541,558	-0,138	-0,227
314,837	432,332	-0,081	-0,121
315,852	117,086	-0,048	-0,040
316,866	563,029	-0,030	-0,050
317,881	88,061	-0,080	0,061
318,895	-51,990	-0,121	-0,038
319,910	679,107	-0,127	-0,228
320,925	63,509	-0,158	-0,109
321,939	800,000	-0,084	-0,183
322,954	-97,610	-0,144	0,025
323,968	71,727	-0,088	-0,063
324,983	33,753	-0,073	-0,044
325,997	-0,190	-0,090	-0,044
327,012	94,297	-0,138	-0,107
328,027	287,088	-0,127	-0,158
329,041	-83,980	-0,181	-0,039
330,056	-104,863	-0,162	-0,025
331,070	-136,575	-0,168	-0,013
332,085	-66,202	-0,153	-0,042
333,100	-200,000	-0,003	-0,180
334,114	-200,000	-0,180	0,000
335,129	679,035	-0,070	-0,126
336,143	-103,137	-0,117	-0,019
337,158	174,855	-0,187	-0,186
338,173	-200,000	-0,015	-0,102
339,187	748,548	0,032	-0,059
340,202	-30,544	-0,157	0,061
341,216	-31,495	-0,097	-0,037
342,231	478,105	-0,212	-0,331
343,246	139,578	-0,148	-0,134
344,260	94,926	-0,119	-0,093
345,275	-0,383	-0,136	-0,066
346,289	-104,323	-0,104	-0,016
347,304	218,664	-0,068	-0,075
348,319	240,831	-0,157	-0,179
349,333	47,738	-0,098	-0,063
350,348	96,785	-0,135	-0,106
351,362	122,290	-0,147	-0,126
352,377	73,508	-0,169	-0,121
353,392	129,784	-0,130	0,114
354,406	186,790	-0,083	-0,085
355,421	208,986	1312,976	1410,609
356,435	160,826	1473,515	1411,127
