DTS Sentinel unit serial number:	SN410029Multiplexer serial number:	ORYXHardware model number:	OX2-SRSoftware version number:	ORYX F/W v4,00 Oryx Data Collector v3.7.2.0data status	okinstallation	B3 Nyhavnadifferential loss correction	single-endedforward channel	channel 1reverse channel	N/Adate	2023/12/04time	21:07:30forward acquisition time	300,00reverse acquisition time	0,00gamma	499,1914k internal	0,3201k external	0,3201temperature offset calibration	1,0000default loss term (dB/km)	0,3820temperature slope calibration	1,0000multiplexer offset coefficient	1,0000multiplexer slope coefficient	1,0000fibre end	0,00T internal ref (°C)	14,50T ext. ref 1 (°C)	-0,32T ext. ref 2 (°C)	-0,33length (m)	temperature (°C)	Stokes	anti-Stokes-744,400	80,121	-0,274	-0,214
-743,385	800,000	0,131	0,375
-742,371	210,085	-0,133	-0,152
-741,356	-200,000	0,043	0,337
-740,342	-200,000	-0,051	-0,243
-739,327	447,101	0,134	0,215
-738,312	101,266	-0,162	-0,137
-737,298	-200,000	-0,034	0,306
-736,283	691,119	-0,135	-0,258
-735,269	-200,000	-0,077	0,264
-734,254	27,017	-0,173	-0,105
-733,239	-52,051	-0,312	0,105
-732,225	213,447	-0,239	-0,276
-731,210	-133,709	0,045	0,004
-730,196	611,212	-0,040	-0,074
-729,181	-200,000	0,013	-0,058
-728,167	800,000	-0,024	-0,058
-727,152	-150,676	-0,113	-0,006
-726,137	800,000	0,076	-0,155
-725,123	683,168	-0,104	-0,197
-724,108	60,551	-0,112	-0,080
-723,094	-200,000	0,007	-0,032
-722,079	-151,045	-0,039	0,002
-721,064	-36,354	0,085	0,033
-720,050	166,008	-0,058	0,059
-719,035	800,000	-0,063	0,134
-718,021	-200,000	-0,027	-0,185
-717,006	800,000	-0,047	-0,140
-715,991	800,000	-0,023	-0,066
-714,977	154,617	0,046	-0,046
-713,962	65,581	-0,058	-0,042
-712,948	-136,882	0,147	0,012
-711,933	215,024	0,096	-0,111
-710,918	445,044	-0,052	-0,084
-709,904	185,868	-0,118	-0,127
-708,889	-200,000	0,004	-0,036
-707,875	-79,820	-0,196	0,048
-706,860	697,776	0,072	-0,139
-705,845	564,172	0,100	-0,177
-704,831	82,586	-0,078	0,061
-703,816	800,000	-0,080	0,169
-702,802	102,577	-0,073	0,062
-701,787	-200,000	-0,001	-0,114
-700,772	-52,542	-0,153	-0,051
-699,758	303,085	0,036	0,048
-698,743	-200,000	0,027	-0,095
-697,729	-200,000	0,047	-0,153
-696,714	-200,000	-0,025	-0,141
-695,699	124,185	-0,080	-0,073
-694,685	-48,604	0,090	-0,031
-693,670	-200,000	0,004	-0,112
-692,656	304,803	-0,064	-0,086
-691,641	18,935	0,113	-0,066
-690,627	-80,212	-0,194	0,047
-689,612	8,655	-0,073	-0,040
-688,597	254,099	0,029	0,036
-687,583	800,000	-0,016	-0,038
-686,568	391,279	-0,038	-0,058
-685,554	16,362	-0,103	-0,059
-684,539	44,596	0,033	0,022
-683,524	398,392	0,048	0,073
-682,510	800,000	-0,013	0,027
-681,495	-200,000	0,020	-0,117
-680,481	-200,000	0,012	-0,179
-679,466	-200,000	0,033	-0,120
-678,451	-118,661	-0,119	-0,015
-677,437	-200,000	0,005	-0,019
-676,422	641,146	0,016	0,029
-675,408	126,992	-0,082	-0,075
-674,393	-200,000	0,011	-0,160
-673,378	-200,000	-0,011	-0,093
-672,364	140,692	-0,061	0,059
-671,349	-200,000	-0,010	-0,090
-670,335	29,157	0,029	-0,018
-669,320	18,883	0,129	0,075
-668,305	-111,361	0,089	0,013
-667,291	-99,894	-0,118	-0,021
-666,276	-143,317	-0,151	-0,010
-665,262	-108,108	-0,158	-0,025
-664,247	130,902	-0,066	-0,062
-663,232	-200,000	-0,020	-0,083
-662,218	-36,640	-0,186	0,072
-661,203	492,966	0,025	0,042
-660,189	49,513	-0,119	-0,081
-659,174	382,446	0,093	-0,139
-658,159	328,830	-0,040	0,056
-657,145	70,398	-0,046	0,034
-656,130	128,869	0,044	-0,040
-655,116	-111,840	-0,094	-0,014
-654,101	2,124	0,100	0,052
-653,086	30,184	0,010	0,006
-652,072	35,021	-0,188	-0,119
-651,057	145,956	-0,124	-0,121
-650,043	106,525	-0,032	-0,027
-649,028	-200,000	-0,002	-0,051
-648,014	98,660	0,088	0,074
-646,999	-200,000	-0,003	0,049
-645,984	-200,000	-0,016	0,219
-644,970	-200,000	-0,001	0,022
-643,955	-200,000	-0,009	-0,030
-642,941	-51,560	-0,109	-0,037
-641,926	135,375	0,059	-0,056
-640,911	40,395	0,059	-0,038
-639,897	287,696	-0,052	0,068
-638,882	209,338	-0,100	-0,113
-637,868	169,559	-0,056	-0,058
-636,853	115,364	-0,092	0,082
-635,838	800,000	-0,039	-0,109
-634,824	-62,340	-0,092	-0,028
-633,809	-77,253	-0,028	-0,007
-632,795	-25,171	0,095	0,041
-631,780	-97,084	-0,135	-0,025
-630,765	-44,300	-0,120	-0,043
-629,751	-200,000	-0,000	-0,034
-628,736	-49,673	-0,196	-0,067
-627,722	800,000	-0,020	-0,049
-626,707	269,322	-0,112	-0,143
-625,692	14,832	0,091	0,052
-624,678	685,667	-0,032	0,061
-623,663	330,455	0,031	-0,043
-622,649	-131,679	-0,136	0,013
-621,634	-133,070	0,043	0,004
-620,619	301,859	-0,063	-0,085
-619,605	-200,000	0,019	-0,140
-618,590	575,047	-0,075	0,134
-617,576	-200,000	0,034	0,122
-616,561	800,000	0,043	0,129
-615,546	-20,661	0,117	0,052
-614,532	113,449	-0,091	-0,080
-613,517	209,211	-0,035	0,040
-612,503	2,754	0,086	-0,045
-611,488	-200,000	0,025	-0,174
-610,474	464,046	-0,018	-0,030
-609,459	594,285	0,019	-0,034
-608,444	196,997	-0,051	0,057
-607,430	-200,000	0,011	-0,145
-606,415	523,409	-0,064	-0,110
-605,401	-71,654	-0,074	-0,020
-604,386	-162,106	0,172	-0,006
-603,371	124,751	-0,021	0,019
-602,357	-200,000	0,013	0,065
-601,342	207,505	-0,090	0,102
-600,328	-128,915	-0,034	0,003
-599,313	-32,436	-0,038	-0,015
-598,298	177,603	0,018	-0,019
-597,284	-200,000	0,015	0,079
-596,269	307,532	0,082	0,111
-595,255	800,000	0,016	0,037
-594,240	13,149	-0,104	0,058
-593,225	-48,748	-0,112	0,039
-592,211	40,712	-0,091	0,059
-591,196	-200,000	0,005	0,037
-590,182	111,387	-0,061	-0,053
-589,167	29,455	-0,024	-0,015
-588,152	-200,000	0,009	0,060
-587,138	-74,725	0,059	-0,015
-586,123	54,499	0,022	-0,015
-585,109	130,318	0,043	-0,040
-584,094	-200,000	-0,026	-0,220
-583,079	602,371	0,102	-0,183
-582,065	-169,125	-0,069	-0,002
-581,050	380,714	-0,050	-0,074
-580,036	203,513	0,067	-0,075
-579,021	453,654	-0,037	-0,059
-578,006	132,618	-0,074	0,069
-576,992	800,000	0,043	-0,102
-575,977	-176,091	0,103	-0,002
-574,963	-200,000	0,049	0,191
-573,948	73,386	-0,017	0,013
-572,934	-193,761	-0,071	-0,000
-571,919	800,000	-0,042	-0,133
-570,904	515,961	0,052	0,087
-569,890	-200,000	0,011	-0,072
-568,875	-200,000	-0,009	0,051
-567,861	-200,000	0,009	0,041
-566,846	-200,000	-0,005	0,121
-565,831	800,000	0,054	-0,116
-564,817	201,684	-0,025	-0,028
-563,802	447,582	-0,029	-0,046
-562,788	412,486	-0,061	0,094
-561,773	431,461	0,024	-0,038
-560,758	115,781	0,007	0,006
-559,744	-137,545	0,055	-0,004
-558,729	800,000	-0,039	-0,081
-557,715	-58,156	0,023	-0,007
-556,700	58,097	-0,080	-0,057
-555,685	198,662	-0,011	-0,013
-554,671	-132,694	0,052	-0,005
-553,656	800,000	0,035	-0,084
-552,642	30,539	0,053	-0,032
-551,627	307,602	0,031	0,042
-550,612	86,535	-0,081	0,064
-549,598	251,277	0,033	-0,041
-548,583	-200,000	-0,046	-0,254
-547,569	423,515	0,023	-0,036
-546,554	531,555	-0,069	0,119
-545,539	-200,000	0,006	0,054
-544,525	-29,661	-0,071	-0,029
-543,510	169,423	0,092	0,095
-542,496	-41,506	0,073	0,027
-541,481	166,375	0,043	-0,044
-540,466	-103,646	-0,097	-0,016
-539,452	-36,039	0,023	0,009
-538,437	24,674	0,049	0,029
-537,423	213,573	-0,094	0,107
-536,408	-124,176	-0,058	-0,006
-535,393	749,101	0,020	-0,038
-534,379	-200,000	-0,021	-0,091
-533,364	800,000	-0,012	-0,035
-532,350	-200,000	0,014	-0,114
-531,335	368,063	0,036	-0,052
-530,321	-6,372	0,102	0,050
-529,306	-21,538	0,094	0,041
-528,291	-32,860	-0,103	-0,041
-527,277	39,972	0,020	0,013
-526,262	23,216	-0,088	0,052
-525,248	-92,305	-0,054	0,011
-524,233	-98,979	0,135	0,024
-523,218	800,000	0,061	-0,135
-522,204	142,375	-0,096	-0,092
-521,189	42,016	0,061	-0,040
-520,175	445,808	-0,018	-0,029
-519,160	626,578	-0,052	-0,095
-518,145	-124,170	0,115	-0,013
-517,131	64,636	0,111	-0,081
-516,116	214,111	0,020	0,023
-515,102	-65,372	-0,056	-0,016
-514,087	10,116	0,023	0,013
-513,072	800,000	-0,025	0,055
-512,058	-112,665	-0,076	0,011
-511,043	-200,000	0,004	0,033
-510,029	-186,809	0,078	0,001
-509,014	672,613	0,037	-0,070
-507,999	105,706	0,071	-0,061
-506,985	-86,121	-0,129	0,028
-505,970	33,419	-0,020	0,013
-504,956	-200,000	-0,001	0,075
-503,941	-15,147	0,113	0,052
-502,926	800,000	-0,064	0,148
-501,912	800,000	-0,024	0,066
-500,897	22,549	0,064	0,037
-499,883	731,542	-0,024	-0,046
-498,868	185,160	-0,062	-0,066
-497,853	153,812	0,077	-0,076
-496,839	800,000	-0,056	0,166
-495,824	423,147	0,125	0,195
-494,810	-98,095	-0,060	-0,011
-493,795	336,406	0,021	-0,030
-492,781	-96,131	-0,090	0,017
-491,766	-200,000	0,029	-0,115
-490,751	-200,000	-0,003	-0,139
-489,737	-200,000	0,015	-0,161
-488,722	109,044	-0,059	0,050
-487,708	-200,000	-0,011	0,063
-486,693	277,657	-0,016	-0,021
-485,678	103,814	-0,079	0,067
-484,664	226,354	0,075	0,088
-483,649	-116,391	-0,158	0,021
-482,635	-72,548	-0,028	0,007
-481,620	-41,470	0,058	0,021
-480,605	453,661	0,059	0,095
-479,591	178,270	-0,078	0,082
-478,576	166,272	0,051	0,052
-477,562	-200,000	-0,027	-0,141
-476,547	-200,000	-0,010	-0,072
-475,532	-33,162	-0,046	-0,018
-474,518	81,122	-0,044	0,034
-473,503	82,311	0,170	0,132
-472,489	12,533	0,214	0,119
-471,474	800,000	0,046	-0,098
-470,459	91,345	0,044	-0,036
-469,445	55,289	-0,089	0,062
-468,430	726,557	0,088	-0,169
-467,416	-200,000	0,009	0,068
-466,401	455,009	0,096	0,153
-465,386	-1,987	0,143	0,072
-464,372	-200,000	-0,004	0,110
-463,357	1,869	-0,080	-0,041
-462,343	195,055	-0,058	-0,063
-461,328	800,000	-0,036	-0,079
-460,313	-77,330	-0,036	-0,009
-459,299	-141,132	0,058	-0,004
-458,284	383,171	-0,059	0,087
-457,270	-200,000	-0,003	0,040
-456,255	-200,000	0,012	0,138
-455,241	-4,053	-0,062	-0,031
-454,226	-200,000	-0,008	-0,031
-453,211	23,158	0,073	0,043
-452,197	-95,726	0,089	0,017
-451,182	253,083	0,046	0,057
-450,168	420,186	-0,029	-0,044
-449,153	156,099	-0,022	-0,022
-448,138	75,407	0,103	-0,078
-447,124	-157,270	0,066	0,003
-446,109	-31,913	-0,021	-0,008
-445,095	-147,161	0,029	0,002
-444,080	16,975	0,042	0,024
-443,065	227,269	0,019	0,023
-442,051	-200,000	0,011	-0,107
-441,036	232,217	-0,064	-0,075
-440,022	198,081	0,048	0,053
-439,007	-200,000	-0,010	0,107
-437,992	61,124	-0,019	0,014
-436,978	110,540	-0,081	0,070
-435,963	346,305	0,079	0,112
-434,949	800,000	-0,039	-0,088
-433,934	746,121	-0,053	-0,103
-432,919	344,989	-0,071	-0,101
-431,905	800,000	0,054	-0,113
-430,890	-200,000	0,003	0,178
-429,876	205,226	-0,052	0,058
-428,861	-162,601	0,121	-0,004
-427,846	92,048	0,152	-0,123
-426,832	130,547	-0,146	-0,134
-425,817	-77,852	-0,074	-0,018
-424,803	800,000	-0,015	-0,046
-423,788	-191,014	0,033	0,000
-422,773	800,000	-0,032	0,091
-421,759	359,947	-0,038	0,055
-420,744	-20,778	0,157	-0,069
-419,730	800,000	0,069	0,198
-418,715	800,000	-0,018	0,051
-417,701	-200,000	0,010	-0,066
-416,686	245,345	0,108	0,131
-415,671	-200,000	0,025	-0,093
-414,657	249,091	-0,038	-0,047
-413,642	91,391	-0,110	0,089
-412,628	-139,856	-0,040	-0,003
-411,613	-70,137	0,080	-0,022
-410,598	86,484	-0,050	0,039
-409,584	297,204	0,058	-0,076
-408,569	800,000	-0,012	0,025
-407,555	-45,868	0,053	0,019
-406,540	-200,000	-0,006	0,088
-405,525	-28,415	-0,092	-0,038
-404,511	135,321	-0,165	-0,154
-403,496	-6,727	-0,109	-0,053
-402,482	-200,000	0,027	-0,088
-401,467	176,214	0,054	0,057
-400,452	71,484	0,107	0,079
-399,438	39,024	-0,144	-0,092
-398,423	-200,000	0,037	-0,147
-397,409	5,230	-0,073	-0,039
-396,394	76,935	-0,096	-0,073
-395,379	-101,138	0,074	-0,013
-394,365	-125,488	0,149	-0,016
-393,350	564,178	0,047	-0,082
-392,336	10,895	0,033	-0,018
-391,321	90,300	-0,039	-0,031
-390,306	41,797	-0,103	-0,067
-389,292	-84,611	-0,057	-0,013
-388,277	-36,092	-0,073	0,028
-387,263	56,009	-0,074	0,052
-386,248	-200,000	0,029	-0,161
-385,233	560,223	-0,088	-0,152
-384,219	-200,000	-0,005	-0,048
-383,204	331,825	-0,055	-0,076
-382,190	-0,704	-0,074	-0,038
-381,175	-125,286	0,078	-0,008
-380,160	-73,630	-0,095	0,025
-379,146	800,000	0,037	0,107
-378,131	258,990	-0,025	0,031
-377,117	-26,363	-0,062	-0,026
-376,102	-200,000	0,009	0,044
-375,088	-43,181	0,094	-0,034
-374,073	-45,721	-0,068	-0,024
-373,058	308,589	0,053	0,072
-372,044	310,788	0,112	0,151
-371,029	-20,259	-0,030	-0,013
-370,015	-200,000	0,008	0,041
-369,000	-200,000	-0,016	0,131
-367,985	89,783	-0,059	0,047
-366,971	-200,000	-0,002	-0,042
-365,956	17,612	-0,065	-0,037
-364,942	154,879	0,116	0,114
-363,927	-200,000	0,040	0,144
-362,912	-187,979	-0,081	-0,001
-361,898	-30,596	0,035	-0,014
-360,883	-141,923	-0,081	-0,006
-359,869	447,904	-0,033	-0,052
-358,854	166,912	-0,063	-0,065
-357,839	-103,176	0,115	-0,019
-356,825	-157,740	0,081	0,003
-355,810	98,130	-0,139	0,114
-354,796	66,970	0,081	0,059
-353,781	-200,000	0,008	-0,028
-352,766	800,000	0,044	-0,100
-351,752	-25,306	0,047	0,020
-350,737	-152,573	0,165	-0,008
-349,723	-200,000	-0,004	-0,173
-348,708	254,272	-0,072	-0,088
-347,693	-61,925	0,052	0,015
-346,679	-29,008	-0,079	-0,032
-345,664	763,435	-0,056	-0,109
-344,650	153,945	0,054	-0,053
-343,635	288,954	0,076	-0,098
-342,620	800,000	0,028	-0,084
-341,606	-28,421	-0,084	0,035
-340,591	60,304	-0,092	0,065
-339,577	800,000	-0,050	0,124
-338,562	800,000	0,017	-0,040
-337,548	-7,092	-0,077	-0,037
-336,533	-200,000	0,001	0,087
-335,518	800,000	0,064	0,164
-334,504	-200,000	-0,029	0,091
-333,489	159,066	0,040	-0,040
-332,475	-75,926	-0,194	-0,049
-331,460	65,274	0,088	0,064
-330,445	-200,000	-0,006	-0,033
-329,431	184,911	0,080	-0,085
-328,416	93,962	0,031	-0,025
-327,402	-45,933	-0,062	0,022
-326,387	-200,000	-0,025	0,087
-325,372	800,000	-0,061	0,136
-324,358	27,262	-0,047	-0,028
-323,343	-18,474	-0,053	-0,023
-322,329	-190,203	0,067	-0,001
-321,314	46,522	0,052	0,035
-320,299	-94,629	-0,022	0,004
-319,285	100,022	-0,066	0,055
-318,270	15,321	0,077	-0,043
-317,256	-200,000	0,005	-0,018
-316,241	-63,939	0,050	0,015
-315,226	56,214	0,051	0,035
-314,212	-200,000	0,017	0,157
-313,197	133,022	0,039	-0,036
-312,183	527,220	0,033	0,055
-311,168	-3,057	0,034	-0,017
-310,153	-200,000	0,013	-0,083
-309,139	-107,464	-0,036	-0,006
-308,124	-25,450	0,074	-0,031
-307,110	-98,108	0,127	0,023
-306,095	800,000	0,021	0,062
-305,080	772,665	0,018	0,035
-304,066	574,891	-0,067	-0,117
-303,051	-200,000	-0,012	-0,084
-302,037	-85,766	-0,041	0,009
-301,022	-69,171	-0,063	-0,017
-300,008	132,231	0,031	0,028
-298,993	-85,751	0,025	-0,005
-297,978	18,623	0,154	0,088
-296,964	-200,000	0,018	-0,060
-295,949	-200,000	-0,034	-0,135
-294,935	800,000	0,031	-0,075
-293,920	-200,000	-0,018	0,203
-292,905	-95,143	0,099	0,019
-291,891	21,447	0,028	0,016
-290,876	-44,188	-0,158	-0,056
-289,862	-22,110	0,029	0,012
-288,847	87,971	-0,088	-0,070
-287,832	-200,000	-0,009	0,064
-286,818	181,576	0,049	0,051
-285,803	124,285	-0,092	0,082
-284,789	-200,000	0,019	0,062
-283,774	800,000	0,043	0,123
-282,759	73,020	-0,090	0,067
-281,745	162,495	0,049	-0,050
-280,730	-160,267	-0,072	0,003
-279,716	800,000	-0,020	-0,046
-278,701	800,000	0,037	0,108
-277,686	-200,000	-0,000	0,046
-276,672	798,319	-0,026	-0,052
-275,657	-200,000	-0,009	0,130
-274,643	-200,000	0,007	0,026
-273,628	-200,000	-0,003	-0,043
-272,613	654,749	-0,016	0,030
-271,599	342,468	0,081	0,114
-270,584	462,372	0,097	0,156
-269,570	376,773	0,092	0,134
-268,555	69,981	0,090	0,066
-267,540	431,890	-0,049	-0,076
-266,526	-137,399	-0,106	0,008
-265,511	78,439	0,109	0,083
-264,497	-200,000	0,002	-0,142
-263,482	262,502	0,105	0,130
-262,467	-200,000	0,005	0,054
-261,453	102,027	0,050	-0,042
-260,438	-200,000	0,008	-0,094
-259,424	123,995	0,069	-0,062
-258,409	800,000	0,057	-0,170
-257,395	-135,133	-0,091	0,008
-256,380	-38,600	-0,036	0,014
-255,365	114,574	0,065	0,056
-254,351	149,991	-0,025	0,025
-253,336	103,665	0,034	-0,029
-252,322	800,000	-0,043	-0,111
-251,307	-200,000	-0,012	-0,137
-250,292	653,628	0,049	0,089
-249,278	21,731	-0,054	0,031
-248,263	-173,188	0,051	0,001
-247,249	18,777	0,091	0,052
-246,234	123,844	-0,004	-0,003
-245,219	-200,000	0,006	0,073
-244,205	-200,000	-0,006	-0,055
-243,190	800,000	0,069	-0,153
-242,176	-33,597	0,028	-0,011
-241,161	-121,692	0,099	-0,012
-240,146	65,221	0,097	-0,070
-239,132	35,496	0,032	0,020
-238,117	-28,046	0,147	-0,061
-237,103	112,264	-0,053	-0,046
-236,088	-200,000	0,038	-0,156
-235,073	-38,598	0,033	0,012
-234,059	440,210	0,031	0,049
-233,044	378,581	0,025	0,037
-232,030	724,471	-0,062	0,119
-231,015	-200,000	-0,016	0,168
-230,000	264,239	0,024	0,030
-228,986	-14,543	0,074	0,034
-227,971	800,000	-0,045	0,113
-226,957	-200,000	0,019	-0,096
-225,942	-145,436	0,103	0,006
-224,927	202,284	-0,017	-0,019
-223,913	800,000	-0,024	-0,059
-222,898	263,100	-0,044	-0,054
-221,884	54,164	-0,093	-0,064
-220,869	800,000	-0,017	0,037
-219,855	70,523	0,039	-0,028
-218,840	800,000	0,015	-0,044
-217,825	-200,000	0,014	-0,076
-216,811	-24,817	0,052	0,022
-215,796	-200,000	-0,013	0,096
-214,782	-118,091	-0,028	-0,004
-213,767	-150,416	-0,160	-0,009
-212,752	-21,903	-0,124	0,054
-211,738	-200,000	0,007	0,058
-210,723	800,000	-0,053	0,128
-209,709	-200,000	-0,011	0,054
-208,694	8,245	-0,082	0,044
-207,679	-78,069	0,093	-0,023
-206,665	299,431	0,053	-0,069
-205,650	27,073	0,081	0,048
-204,636	800,000	-0,020	0,039
-203,621	-200,000	-0,003	0,032
-202,606	-47,114	0,102	0,035
-201,592	-2,880	0,017	0,008
-200,577	140,677	0,140	-0,132
-199,563	200,544	-0,097	0,107
-198,548	25,149	0,047	0,028
-197,533	47,346	0,038	0,025
-196,519	-90,113	0,127	0,026
-195,504	100,678	-0,112	-0,093
-194,490	140,152	-0,094	-0,088
-193,475	228,631	-0,061	-0,071
-192,460	322,432	-0,067	-0,091
-191,446	19,956	-0,043	0,025
-190,431	-200,000	-0,007	0,049
-189,417	-152,943	0,111	-0,005
-188,402	-51,278	0,124	-0,041
-187,387	-142,193	-0,138	0,010
-186,373	-200,000	-0,032	-0,105
-185,358	800,000	-0,024	-0,052
-184,344	-200,000	0,010	-0,062
-183,329	-200,000	-0,011	0,126
-182,315	-9,992	-0,058	0,028
-181,300	19,417	-0,077	0,044
-180,285	387,508	0,120	0,176
-179,271	16,076	0,054	0,030
-178,256	-200,000	-0,003	-0,018
-177,242	-118,062	0,128	0,016
-176,227	53,964	-0,086	0,059
-175,212	800,000	0,019	0,042
-174,198	425,600	0,085	-0,131
-173,183	-200,000	-0,034	0,126
-172,169	-74,237	-0,058	0,015
-171,154	101,708	-0,022	-0,018
-170,139	72,733	0,117	-0,087
-169,125	249,680	0,047	-0,057
-168,110	-3,356	-0,034	0,017
-167,096	-52,522	0,089	0,029
-166,081	230,745	-0,111	-0,129
-165,066	-200,000	0,002	0,008
-164,052	574,346	-0,063	0,109
-163,037	-200,000	0,008	-0,088
-162,023	396,703	-0,081	0,120
-161,008	-200,000	-0,007	0,091
-159,993	175,930	-0,021	-0,021
-158,979	-65,406	0,022	-0,006
-157,964	-101,050	-0,249	0,043
-156,950	-3,081	0,050	0,025
-155,935	204,806	-0,066	-0,073
-154,920	109,635	-0,019	0,016
-153,906	73,810	-0,056	0,042
-152,891	-36,731	0,078	0,030
-151,877	800,000	-0,023	0,051
-150,862	164,249	0,020	-0,020
-149,847	800,000	0,002	-0,006
-148,833	518,118	0,023	0,038
-147,818	-140,297	0,208	0,015
-146,804	800,000	-0,009	-0,023
-145,789	-143,295	-0,121	0,008
-144,775	185,663	-0,111	-0,117
-143,760	618,188	-0,018	-0,032
-142,745	37,035	-0,076	-0,048
-141,731	-125,195	-0,087	-0,009
-140,716	-122,247	0,025	-0,003
-139,702	-200,000	-0,011	-0,036
-138,687	800,000	0,023	0,066
-137,672	212,232	0,061	-0,068
-136,658	733,719	0,053	-0,101
-135,643	89,928	-0,198	-0,157
-134,629	200,670	-0,046	0,050
-133,614	-130,889	0,041	0,004
-132,599	239,114	0,089	0,105
-131,585	-200,000	-0,000	0,196
-130,570	-133,425	-0,074	0,006
-129,556	99,704	-0,047	-0,039
-128,541	-200,000	-0,007	0,060
-127,526	-200,000	-0,000	-0,053
-126,512	-200,000	0,004	0,019
-125,497	639,402	0,007	0,013
-124,483	-200,000	0,004	-0,047
-123,468	285,193	0,040	0,051
-122,453	-77,690	-0,131	0,032
-121,439	-160,851	-0,123	-0,005
-120,424	-200,000	-0,006	0,083
-119,410	-200,000	0,011	0,089
-118,395	-156,251	0,064	-0,003
-117,380	235,141	0,067	0,079
-116,366	-13,118	-0,042	-0,019
-115,351	120,076	-0,058	-0,051
-114,337	253,357	-0,120	0,146
-113,322	204,203	0,138	0,151
-112,307	262,458	0,043	-0,053
-111,293	501,776	0,067	-0,110
-110,278	800,000	0,045	0,095
-109,264	-200,000	0,000	0,097
-108,249	-31,466	0,063	0,025
-107,234	8,749	-0,088	0,047
-106,220	-150,676	0,071	-0,004
-105,205	800,000	0,012	-0,031
-104,191	-200,000	0,020	0,091
-103,176	750,642	0,056	0,108
-102,162	208,550	-0,059	0,065
-101,147	-159,111	-0,260	-0,010
-100,132	800,000	0,070	-0,198
-99,118	-3,744	0,179	-0,088
-98,103	800,000	0,038	0,090
-97,089	-85,568	0,038	0,008
-96,074	-70,228	0,142	0,038
-95,059	-200,000	0,002	0,070
-94,045	381,223	-0,037	-0,055
-93,030	443,109	-0,036	-0,057
-92,016	182,699	-0,017	0,018
-91,001	49,553	-0,064	0,043
-89,986	800,000	0,023	0,069
-88,972	-200,000	0,005	-0,035
-87,957	-76,128	-0,083	-0,021
-86,943	-47,004	-0,052	-0,018
-85,928	-99,951	-0,148	0,026
-84,913	-46,471	-0,077	0,027
-83,899	170,575	-0,030	-0,030
-82,884	93,021	0,105	-0,084
-81,870	96,384	0,038	0,031
-80,855	78,261	-0,075	-0,056
-79,840	-200,000	-0,006	0,024
-78,826	315,016	0,046	-0,062
-77,811	-200,000	-0,044	-0,147
-76,797	-200,000	0,001	0,039
-75,782	-192,156	-0,081	-0,001
-74,767	-200,000	-0,003	-0,079
-73,753	97,471	-0,066	-0,054
-72,738	-132,063	-0,053	0,005
-71,724	-0,573	-0,064	-0,032
-70,709	-200,000	0,042	0,155
-69,694	-200,000	-0,020	-0,078
-68,680	235,090	-0,038	0,045
-67,665	792,396	-0,043	0,085
-66,651	-200,000	-0,012	0,126
-65,636	101,849	0,067	0,056
-64,622	301,940	0,067	0,088
-63,607	-160,372	-0,112	-0,004
-62,592	800,000	0,005	-0,014
-61,578	282,265	0,011	0,013
-60,563	800,000	0,025	0,058
-59,549	800,000	0,024	0,074
-58,534	-59,139	-1,617	-0,491
-57,519	307,525	-1,583	-2,095
-56,505	-200,000	-0,726	-4,588
-55,490	162,863	0,920	0,915
-54,476	800,000	4,868	11,239
-53,461	-200,000	18,531	297,304
-52,446	800,000	730,959	2257,716
-51,432	559,466	1647,848	2827,966
-50,417	78,958	1668,513	1263,396
-49,403	22,405	1541,472	889,849
-48,388	16,342	1464,507	816,001
-47,373	17,843	1454,288	817,515
-46,359	17,044	1444,748	808,295
-45,344	14,615	1440,042	794,017
-44,330	14,622	1437,877	792,826
-43,315	14,597	1436,341	791,828
-42,300	14,572	1434,871	790,866
-41,286	14,633	1433,473	790,352
-40,271	14,556	1432,305	789,311
-39,257	14,591	1431,061	788,763
-38,242	14,635	1429,690	788,186
-37,227	14,621	1428,729	787,557
-36,213	14,649	1427,261	786,847
-35,198	14,582	1426,111	785,867
-34,184	14,628	1425,185	785,543
-33,169	14,583	1423,866	784,573
-32,154	14,602	1422,858	784,072
-31,140	14,586	1421,543	783,245
-30,125	14,607	1420,443	782,703
-29,111	14,618	1419,217	782,050
-28,096	14,557	1418,291	781,223
-27,082	14,516	1417,175	780,381
-26,067	14,515	1416,007	779,706
-25,052	14,540	1414,951	779,210
-24,038	14,523	1414,023	778,589
-23,023	14,521	1412,973	777,970
-22,009	14,511	1411,938	777,322
-20,994	14,441	1411,393	776,661
-19,979	14,513	1410,200	776,314
-18,965	14,455	1409,159	775,435
-17,950	14,470	1408,147	774,917
-16,936	14,475	1407,293	774,442
-15,921	14,417	1406,125	773,498
-14,906	14,410	1405,436	773,057
-13,892	14,452	1404,614	772,767
-12,877	14,477	1403,612	772,302
-11,863	14,414	1402,572	771,405
-10,848	14,433	1401,772	771,025
-9,833	14,389	1400,926	770,323
-8,819	14,352	1399,997	769,611
-7,804	14,344	1399,022	769,005
-6,790	14,365	1397,904	768,461
-5,775	14,358	1396,795	767,786
-4,760	14,353	1395,977	767,285
-3,746	14,311	1395,387	766,733
-2,731	14,350	1394,380	766,330
-1,717	14,333	1393,539	765,759
-0,702	14,318	1391,886	764,751
0,313	18,149	1310,101	737,558
1,327	34,537	706,476	435,703
2,342	52,994	124,516	84,169
3,356	3,412	16,637	8,547
4,371	-7,422	3,229	1,541
5,386	-59,076	0,537	0,163
6,400	-200,000	0,040	0,133
7,415	-4,541	-0,362	-0,176
8,429	-18,767	-0,317	-0,139
9,444	10,332	-0,349	-0,187
10,459	218,447	-0,259	-0,293
11,473	-26,976	-0,227	-0,093
12,488	6,412	-0,268	-0,140
13,502	210,427	-0,327	-0,364
14,517	357,126	-0,288	-0,408
15,531	253,511	-0,315	-0,381
16,546	166,298	-0,315	-0,316
17,561	146,454	-0,332	-0,315
18,575	-7,989	-0,325	-0,154
19,590	106,983	-0,252	-0,212
20,604	-40,156	-0,251	-0,092
21,619	6,546	-0,425	-0,222
22,634	114,935	-0,406	-0,350
23,648	142,112	-0,553	-0,518
24,663	95,797	-0,402	-0,324
25,677	28,556	-0,475	-0,283
26,692	-108,993	-0,264	-0,039
27,707	290,755	-0,346	-0,445
28,721	63,243	-0,370	-0,261
29,736	136,476	-0,402	-0,370
30,750	4,528	-0,350	-0,181
31,765	3,380	-0,465	-0,238
32,780	13,785	-0,417	-0,228
33,794	229,475	-0,386	-0,446
34,809	176,137	-0,363	-0,372
35,823	90,203	-0,319	-0,251
36,838	109,087	-0,500	-0,422
37,853	144,540	-0,387	-0,365
38,867	-47,215	-0,342	-0,117
39,882	1,590	-0,352	-0,178
40,896	-106,834	-0,407	-0,063
41,911	-4,965	-0,365	-0,177
42,926	-22,836	-0,399	-0,169
43,940	113,486	-0,383	-0,328
44,955	84,311	-0,373	-0,287
45,969	113,090	-0,345	-0,294
46,984	164,556	-0,296	-0,294
47,999	90,402	-0,211	-0,167
49,013	39,679	-0,302	-0,191
50,028	-3,075	-0,405	-0,198
51,042	44,160	-0,430	-0,277
52,057	50,413	-0,361	-0,240
53,071	176,549	-0,183	-0,187
54,086	114,990	-0,274	-0,235
55,101	8,519	-0,398	-0,210
56,115	86,006	-0,281	-0,218
57,130	-37,573	-0,471	-0,176
58,144	97,437	-0,400	-0,323
59,159	59,904	-0,403	-0,280
60,174	69,044	-0,360	-0,260
61,188	111,854	-0,348	-0,296
62,203	47,128	-0,411	-0,268
63,217	124,866	-0,331	-0,293
64,232	-30,436	-0,354	-0,141
65,247	96,743	-0,431	-0,347
66,261	75,750	-0,363	-0,270
67,276	78,906	-0,359	-0,270
68,290	48,364	-0,260	-0,171
69,305	258,894	-0,166	-0,201
70,320	19,400	-0,343	-0,193
71,334	-131,620	-0,349	-0,032
72,349	113,455	-0,391	-0,334
73,363	24,375	-0,397	-0,230
74,378	110,919	-0,365	-0,309
75,393	73,889	-0,361	-0,266
76,407	308,265	-0,222	-0,291
77,422	185,239	-0,209	-0,218
78,436	24,050	-0,220	-0,128
79,451	-89,262	-0,359	-0,074
80,466	-42,077	-0,383	-0,137
81,480	26,180	-0,298	-0,174
82,495	66,414	-0,299	-0,213
83,509	631,507	-0,142	-0,253
84,524	73,885	-0,211	-0,155
85,539	21,254	-0,344	-0,196
86,553	14,663	-0,239	-0,131
87,568	99,423	-0,405	-0,329
88,582	115,046	-0,335	-0,287
89,597	46,520	-0,417	-0,271
90,611	316,881	-0,213	-0,283
91,626	-9,495	-0,250	-0,116
92,641	-131,959	-0,201	0,018
93,655	-124,962	-0,303	-0,032
94,670	87,494	-0,220	-0,171
95,684	-37,655	-0,479	-0,178
96,699	214,550	-0,213	-0,238
97,714	501,274	-0,155	-0,253
98,728	107,021	-0,274	-0,228
99,743	49,444	-0,306	-0,202
100,757	84,237	-0,214	-0,164
101,772	74,030	-0,238	-0,175
102,787	163,863	-0,362	-0,358
103,801	136,303	-0,240	-0,219
104,816	-12,842	-0,241	-0,110
105,830	161,254	-0,233	-0,229
106,845	137,019	-0,210	-0,193
107,860	-20,962	-0,296	-0,127
108,874	149,017	-0,347	-0,329
109,889	376,072	-0,237	-0,339
110,903	187,890	-0,328	-0,343
111,918	20,158	-0,383	-0,216
112,933	60,813	-0,192	-0,133
113,947	41,483	-0,310	-0,196
114,962	149,895	-0,184	-0,175
115,976	-77,148	-0,229	-0,056
116,991	177,656	-0,221	-0,226
118,006	-39,148	-0,409	-0,150
119,020	93,269	-0,257	-0,203
120,035	-136,219	-0,254	-0,020
121,049	-42,678	-0,148	-0,052
122,064	76,652	-0,279	-0,207
123,079	800,000	-0,151	-0,307
124,093	91,294	-0,394	-0,309
125,108	-15,424	-0,308	-0,137
126,122	436,507	-0,145	-0,222
127,137	78,851	-0,212	-0,159
128,151	7,940	-0,224	-0,117
129,166	-23,798	-0,198	-0,083
130,181	-4,979	-0,360	-0,173
131,195	233,015	-0,141	-0,162
132,210	-73,264	-0,298	-0,076
133,224	200,566	-0,196	-0,211
134,239	29,825	-0,206	-0,122
135,254	-4,010	-0,227	-0,109
136,268	-36,144	-0,263	-0,099
137,283	14,551	-0,200	-0,109
138,297	275,151	-0,178	-0,221
139,312	100,238	-0,294	-0,238
140,327	323,304	-0,159	-0,213
141,341	200,382	-0,151	-0,162
142,356	41,200	-0,255	-0,161
143,370	52,677	-0,228	-0,152
144,385	64,203	-0,222	-0,156
145,400	94,207	-0,255	-0,202
146,414	800,000	-0,143	-0,309
147,429	88,703	-0,226	-0,175
148,443	88,655	-0,178	-0,138
149,458	331,421	-0,196	-0,264
150,473	-5,292	-0,169	-0,081
151,487	-45,353	-0,329	-0,113
152,502	219,482	-0,223	-0,249
153,516	800,000	-0,110	-0,248
154,531	89,909	-0,202	-0,157
155,546	21,157	-0,435	-0,246
156,560	69,800	-0,184	-0,132
157,575	-25,280	-0,086	-0,035
158,589	-25,428	-0,172	-0,070
159,604	-110,789	-0,315	-0,045
160,619	116,304	-0,260	-0,222
161,633	101,751	-0,201	-0,164
162,648	-20,624	-0,235	-0,100
163,662	-62,053	-0,272	-0,079
164,677	145,470	-0,233	-0,218
165,692	-29,130	-0,241	-0,096
166,706	22,226	-0,156	-0,089
167,721	149,955	-0,229	-0,217
168,735	123,058	-0,308	-0,269
169,750	172,864	-0,195	-0,196
170,764	162,802	-0,155	-0,152
171,779	38,955	-0,246	-0,153
172,794	40,977	-0,248	-0,156
173,808	800,000	-0,084	-0,174
174,823	-1,769	-0,225	-0,110
175,837	-18,995	-0,117	-0,050
176,852	299,767	-0,141	-0,181
177,867	5,787	-0,172	-0,088
178,881	26,249	-0,122	-0,071
179,896	-120,752	-0,184	0,021
180,910	35,804	-0,186	-0,114
181,925	-94,159	-0,376	-0,071
182,940	471,783	-0,175	-0,275
183,954	-40,037	-0,247	-0,089
184,969	101,858	-0,348	-0,283
185,983	40,072	-0,219	-0,136
186,998	132,114	-0,206	-0,185
188,013	-43,653	-0,196	-0,068
189,027	-20,425	-0,306	-0,130
190,042	-6,748	-0,262	-0,124
191,056	210,161	-0,137	-0,150
192,071	-76,297	-0,213	-0,052
193,086	153,676	-0,176	-0,167
194,100	86,078	-0,207	-0,158
195,115	74,564	-0,283	-0,207
196,129	421,556	-0,095	-0,143
197,144	59,599	-0,253	-0,173
198,159	-34,761	-0,201	-0,076
199,173	410,164	-0,145	-0,214
200,188	-65,040	-0,149	-0,042
201,202	-38,994	-0,230	-0,084
202,217	-24,249	-0,250	-0,103
203,232	26,592	-0,263	-0,152
204,246	-89,152	-0,243	-0,049
205,261	148,523	-0,277	-0,260
206,275	133,118	-0,299	-0,269
207,290	335,326	-0,168	-0,227
208,304	-87,770	-0,134	-0,028
209,319	365,437	-0,154	-0,216
210,334	-30,874	-0,209	0,082
211,348	113,572	-0,226	-0,190
212,363	314,129	-0,137	-0,179
213,377	74,751	-0,201	-0,147
214,392	116,508	-0,206	-0,175
215,407	25,652	-0,174	-0,100
216,421	290,239	-0,176	-0,223
217,436	4,226	-0,275	-0,139
218,450	398,969	-0,157	-0,229
219,465	58,567	-0,242	-0,165
220,480	31,039	-0,262	-0,156
221,494	61,999	-0,125	-0,086
222,509	-57,734	-0,130	-0,039
223,523	242,754	-0,193	-0,225
224,538	19,737	-0,168	-0,094
225,553	-29,634	-0,244	-0,096
226,567	302,921	-0,165	-0,213
227,582	162,686	-0,230	-0,224
228,596	196,384	-0,173	-0,183
229,611	11,957	-0,251	-0,133
230,626	775,277	-0,067	-0,128
231,640	152,933	-0,124	-0,117
232,655	295,716	-0,185	-0,236
233,669	599,549	-0,119	-0,206
234,684	73,291	-0,226	-0,164
235,699	117,775	-0,269	-0,230
236,713	170,156	-0,172	-0,171
237,728	387,615	-0,097	-0,139
238,742	223,379	-0,155	-0,173
239,757	69,933	-0,208	-0,149
240,772	105,136	-0,186	-0,152
241,786	-8,106	-0,230	-0,107
242,801	-78,507	-0,142	-0,033
243,815	101,359	-0,095	-0,076
244,830	89,942	-0,116	-0,090
245,844	800,000	-0,078	-0,201
246,859	95,307	-0,335	-0,264
247,874	47,657	-0,301	-0,194
248,888	-5,359	-0,080	-0,038
249,903	-187,364	-0,134	0,001
250,917	150,710	-0,217	-0,204
251,932	299,769	-0,157	-0,201
252,947	138,365	-0,180	-0,163
253,961	-42,562	-0,083	-0,029
254,976	153,839	-0,147	-0,139
255,990	166,429	-0,213	-0,209
257,005	-56,886	-0,156	-0,047
258,020	-50,186	-0,165	-0,054
259,034	530,273	-0,092	-0,151
260,049	800,000	-0,057	-0,130
261,063	-148,575	-0,227	-0,013
262,078	-10,135	-0,212	-0,097
263,093	56,174	-0,263	-0,176
264,107	156,370	-0,113	-0,108
265,122	-69,712	-0,173	-0,045
266,136	-69,164	-0,145	-0,038
267,151	357,843	-0,080	-0,110
268,166	247,095	-0,174	-0,203
269,180	3,612	-0,220	-0,110
270,195	3,840	-0,153	-0,077
271,209	27,940	-0,284	-0,165
272,224	84,739	-0,179	-0,135
273,239	279,971	-0,121	-0,150
274,253	232,568	-0,130	-0,147
275,268	-66,689	-0,184	-0,050
276,282	59,146	-0,212	-0,144
277,297	327,851	-0,081	-0,107
278,312	800,000	-0,124	-0,269
279,326	122,190	-0,177	-0,153
280,341	-122,040	0,031	-0,003
281,355	-38,546	-0,200	-0,073
282,370	233,197	-0,089	-0,101
283,384	304,850	-0,139	-0,179
284,399	129,294	-0,078	-0,069
285,414	5,736	-0,201	-0,102
286,428	38,348	-0,041	0,025
287,443	669,918	-0,065	-0,116
288,457	-51,714	-0,148	-0,047
289,472	225,879	-0,087	-0,098
290,487	-42,003	-0,264	-0,093
291,501	28,603	-0,144	-0,084
292,516	174,525	-0,140	-0,139
293,530	316,588	-0,109	-0,142
294,545	97,190	-0,078	-0,062
295,560	61,667	-0,144	-0,099
296,574	-20,490	-0,154	-0,065
297,589	-25,891	-0,205	-0,083
298,603	294,427	-0,143	-0,180
299,618	-42,603	-0,170	-0,059
300,633	180,344	-0,069	-0,070
301,647	-100,405	-0,042	0,007
302,662	213,799	-0,047	0,052
303,676	-60,014	-0,137	0,040
304,691	-66,938	-0,228	-0,062
305,706	45,465	-0,107	-0,068
306,720	800,000	-0,074	-0,173
307,735	223,411	-0,168	-0,187
308,749	-99,641	-0,138	-0,024
309,764	-38,214	-0,190	0,069
310,779	-56,979	-0,289	0,087
311,793	-26,814	-0,225	-0,090
312,808	138,684	-0,155	-0,140
313,822	55,331	-0,241	-0,161
314,837	-175,036	-0,223	-0,004
315,852	-121,499	-0,242	0,027
316,866	-114,424	-0,157	-0,020
317,881	70,351	-0,069	0,049
318,895	-77,190	-0,095	0,022
319,910	-0,411	-0,203	-0,099
320,925	76,076	-0,139	-0,101
321,939	800,000	-0,111	-0,239
322,954	-200,000	-0,003	-0,095
323,968	210,735	-0,122	-0,132
324,983	-200,000	-0,004	-0,085
325,997	-25,766	-0,199	-0,080
327,012	92,962	-0,078	-0,060
328,027	631,915	-0,115	-0,202
329,041	457,895	-0,081	-0,125
330,056	-200,000	-0,018	-0,161
331,070	587,839	-0,075	-0,127
332,085	-79,075	-0,196	-0,045
333,100	-88,246	-0,245	-0,050
334,114	92,354	-0,177	-0,137
335,129	35,606	-0,224	-0,135
336,143	-13,359	-0,144	-0,064
337,158	11,156	-0,215	-0,113
338,173	22,988	-0,188	-0,106
339,187	748,254	-0,033	0,062
340,202	235,934	-0,130	-0,148
341,216	-116,276	-0,147	-0,018
342,231	-49,032	-0,214	-0,070
343,246	-57,942	-0,187	-0,056
344,260	76,405	-0,136	-0,099
345,275	-126,235	-0,216	-0,022
346,289	800,000	-0,054	-0,107
347,304	-105,808	-0,062	0,010
348,319	-81,465	-0,205	-0,046
349,333	-64,641	-0,188	-0,052
350,348	86,478	-0,218	-0,165
351,362	156,380	-0,096	-0,091
352,377	54,005	-0,096	0,063
353,392	-92,961	-0,107	0,020
354,406	-51,857	-0,094	-0,030
355,421	208,186	1317,069	1413,736
356,435	160,178	1478,083	1414,231
