DTS Sentinel unit serial number:	SN410029Multiplexer serial number:	ORYXHardware model number:	OX2-SRSoftware version number:	ORYX F/W v4,00 Oryx Data Collector v3.7.2.0data status	okinstallation	B3 Nyhavnadifferential loss correction	single-endedforward channel	channel 1reverse channel	N/Adate	2023/12/01time	04:22:30forward acquisition time	300,00reverse acquisition time	0,00gamma	499,1914k internal	0,3212k external	0,3212temperature offset calibration	1,0000default loss term (dB/km)	0,3820temperature slope calibration	1,0000multiplexer offset coefficient	1,0000multiplexer slope coefficient	1,0000fibre end	0,00T internal ref (°C)	8,09T ext. ref 1 (°C)	-7,12T ext. ref 2 (°C)	-7,24length (m)	temperature (°C)	Stokes	anti-Stokes-744,400	167,044	-0,231	-0,238
-743,385	-200,000	0,019	0,124
-742,371	-66,075	-0,118	-0,034
-741,356	640,271	-0,146	0,271
-740,342	800,000	-0,088	-0,278
-739,327	-200,000	0,067	0,241
-738,312	317,734	-0,217	-0,298
-737,298	160,087	0,066	0,067
-736,283	435,357	-0,175	-0,277
-735,269	-200,000	-0,051	0,296
-734,254	466,797	-0,156	-0,254
-733,239	-148,611	-0,172	-0,010
-732,225	484,498	-0,121	-0,201
-731,210	-56,289	0,069	0,022
-730,196	19,450	0,077	0,045
-729,181	133,901	-0,192	-0,180
-728,167	-200,000	0,015	0,138
-727,152	-200,000	0,010	0,075
-726,137	142,876	-0,061	-0,059
-725,123	-200,000	-0,010	-0,037
-724,108	-63,235	-0,235	-0,070
-723,094	57,859	-0,206	-0,146
-722,079	-200,000	-0,024	-0,137
-721,064	182,847	0,033	-0,035
-720,050	-200,000	-0,026	0,139
-719,035	800,000	-0,041	0,116
-718,021	-200,000	-0,045	-0,255
-717,006	134,417	0,086	-0,081
-715,991	-28,871	-0,091	-0,038
-714,977	38,003	-0,107	-0,069
-713,962	800,000	-0,060	-0,135
-712,948	-24,060	0,034	0,015
-711,933	800,000	0,015	-0,036
-710,918	-200,000	-0,014	-0,146
-709,904	-188,956	-0,092	0,001
-708,889	-39,911	-0,022	-0,008
-707,875	317,347	0,043	-0,059
-706,860	-73,685	0,123	-0,032
-705,845	-13,702	0,100	-0,047
-704,831	37,127	0,116	-0,074
-703,816	-200,000	-0,019	-0,071
-702,802	148,697	-0,088	-0,086
-701,787	-200,000	0,055	-0,215
-700,772	800,000	-0,025	-0,065
-699,758	-200,000	0,004	-0,098
-698,743	199,344	0,091	0,101
-697,729	-200,000	-0,002	-0,024
-696,714	-200,000	-0,029	-0,133
-695,699	123,409	-0,103	0,093
-694,685	33,537	-0,069	-0,043
-693,670	-200,000	0,006	-0,035
-692,656	800,000	-0,051	-0,134
-691,641	6,618	0,062	0,034
-690,627	19,195	0,057	-0,033
-689,612	59,212	-0,135	0,096
-688,597	-200,000	0,010	0,073
-687,583	800,000	-0,050	-0,114
-686,568	-200,000	0,000	0,045
-685,554	12,958	-0,113	-0,063
-684,539	-200,000	-0,040	-0,128
-683,524	-99,720	0,101	-0,018
-682,510	41,926	0,023	-0,015
-681,495	800,000	0,003	-0,006
-680,481	-200,000	-0,021	-0,138
-679,466	-200,000	-0,021	-0,079
-678,451	81,810	-0,093	-0,073
-677,437	-200,000	0,043	0,194
-676,422	-115,112	-0,049	0,007
-675,408	-101,756	0,016	0,003
-674,393	631,165	-0,039	0,071
-673,378	229,412	0,027	-0,032
-672,364	124,027	-0,121	0,110
-671,349	205,810	0,151	0,170
-670,335	196,428	-0,068	0,075
-669,320	39,792	0,118	0,076
-668,305	-200,000	0,032	0,104
-667,291	800,000	0,025	-0,069
-666,276	-200,000	-0,006	0,023
-665,262	47,006	0,086	-0,058
-664,247	108,496	-0,101	-0,087
-663,232	599,786	-0,054	-0,097
-662,218	100,740	0,095	-0,080
-661,203	74,457	0,082	0,062
-660,189	110,992	-0,017	0,015
-659,174	-200,000	-0,005	-0,127
-658,159	-103,610	0,065	0,011
-657,145	-123,382	-0,167	-0,019
-656,130	205,470	0,027	-0,031
-655,116	-165,773	-0,171	0,005
-654,101	206,782	-0,064	-0,072
-653,086	800,000	-0,081	0,187
-652,072	-51,627	-0,075	-0,025
-651,057	-200,000	0,001	0,026
-650,043	295,583	-0,080	0,106
-649,028	252,938	0,019	-0,023
-648,014	-200,000	-0,014	-0,063
-646,999	-6,966	0,086	0,042
-645,984	-45,917	-0,124	-0,044
-644,970	556,661	-0,108	-0,189
-643,955	800,000	-0,013	-0,028
-642,941	29,279	-0,149	-0,091
-641,926	572,619	-0,059	-0,103
-640,911	60,261	-0,040	-0,028
-639,897	50,390	0,157	0,107
-638,882	-162,951	-0,075	-0,003
-637,868	66,276	0,099	-0,073
-636,853	-200,000	0,014	-0,056
-635,838	-91,078	-0,161	-0,033
-634,824	-42,091	0,110	-0,040
-633,809	186,716	0,087	0,094
-632,795	266,227	0,009	0,011
-631,780	-200,000	0,005	0,117
-630,765	270,478	0,050	-0,063
-629,751	37,744	-0,125	-0,080
-628,736	197,005	0,059	-0,065
-627,722	574,447	0,049	-0,086
-626,707	-81,820	-0,075	-0,018
-625,692	2,273	0,065	0,034
-624,678	9,428	-0,057	0,031
-623,663	200,604	0,071	0,079
-622,649	176,033	-0,194	0,204
-621,634	103,718	0,078	-0,066
-620,619	298,539	-0,027	-0,036
-619,605	-139,634	0,065	-0,005
-618,590	-200,000	-0,001	0,054
-617,576	22,119	0,027	-0,016
-616,561	2,821	-0,122	-0,064
-615,546	88,172	0,073	-0,058
-614,532	-64,533	-0,008	0,002
-613,517	40,563	-0,138	-0,089
-612,503	-88,334	0,075	0,016
-611,488	394,714	0,112	-0,169
-610,474	-200,000	-0,026	-0,105
-609,459	-200,000	-0,030	-0,117
-608,444	192,381	-0,101	-0,110
-607,430	223,206	0,048	-0,055
-606,415	-200,000	0,031	-0,122
-605,401	-114,085	-0,098	-0,014
-604,386	92,605	-0,082	-0,066
-603,371	690,368	-0,022	-0,042
-602,357	-47,915	-0,093	0,032
-601,342	340,621	0,041	0,058
-600,328	-200,000	0,011	0,073
-599,313	-200,000	-0,008	-0,034
-598,298	274,008	-0,046	-0,059
-597,284	88,834	0,109	-0,088
-596,269	-158,224	0,050	0,002
-595,255	368,455	0,050	0,073
-594,240	-200,000	0,007	0,024
-593,225	-43,241	-0,090	0,033
-592,211	-67,468	0,102	-0,029
-591,196	800,000	-0,046	0,130
-590,182	-200,000	0,032	0,124
-589,167	-200,000	-0,034	0,128
-588,152	176,554	-0,067	0,070
-587,138	90,755	-0,058	-0,047
-586,123	-21,504	-0,021	-0,009
-585,109	25,818	0,033	-0,020
-584,094	800,000	-0,012	0,029
-583,079	295,810	-0,048	0,063
-582,065	71,754	0,060	0,045
-581,050	-200,000	0,011	0,077
-580,036	800,000	0,002	-0,005
-579,021	619,445	-0,061	0,111
-578,006	370,436	-0,085	-0,124
-576,992	785,964	0,073	-0,145
-575,977	338,844	0,146	0,206
-574,963	-200,000	0,098	0,000
-573,948	-41,924	0,033	0,012
-572,934	-200,000	-0,021	0,114
-571,919	42,901	-0,022	0,015
-570,904	-200,000	0,048	0,162
-569,890	-145,228	0,049	0,003
-568,875	-200,000	-0,005	-0,112
-567,861	165,305	0,064	0,066
-566,846	142,789	-0,031	0,030
-565,831	-75,040	0,025	0,007
-564,817	-200,000	0,014	0,081
-563,802	63,825	0,011	0,008
-562,788	46,938	-0,061	-0,041
-561,773	800,000	0,050	-0,109
-560,758	419,670	0,005	-0,007
-559,744	-159,389	0,062	-0,002
-558,729	800,000	-0,070	0,196
-557,715	-65,435	-0,044	-0,013
-556,700	99,521	-0,105	-0,088
-555,685	-200,000	0,003	-0,146
-554,671	-200,000	0,004	-0,078
-553,656	-200,000	0,001	0,024
-552,642	74,117	-0,093	0,070
-551,627	76,675	-0,063	-0,048
-550,612	154,105	-0,098	0,096
-549,598	27,587	-0,032	0,019
-548,583	-200,000	-0,054	-0,208
-547,569	-30,125	0,023	-0,009
-546,554	134,451	0,035	-0,032
-545,539	-18,221	-0,102	-0,046
-544,525	800,000	0,034	0,089
-543,510	138,081	-0,052	0,049
-542,496	-200,000	0,017	-0,148
-541,481	120,943	0,023	0,020
-540,466	-58,811	-0,053	-0,016
-539,452	-200,000	-0,014	0,135
-538,437	800,000	-0,049	0,138
-537,423	-200,000	0,006	0,078
-536,408	-45,440	-0,115	-0,041
-535,393	-200,000	0,030	-0,113
-534,379	-100,999	-0,073	-0,013
-533,364	-200,000	0,022	-0,093
-532,350	48,267	0,025	-0,017
-531,335	-166,811	0,127	0,004
-530,321	79,290	0,039	-0,030
-529,306	132,769	-0,086	-0,080
-528,291	-125,095	-0,177	0,019
-527,277	238,955	0,083	0,099
-526,262	-17,645	-0,145	0,065
-525,248	-0,070	0,205	0,105
-524,233	-200,000	-0,001	-0,064
-523,218	-200,000	-0,042	0,195
-522,204	21,395	0,007	-0,004
-521,189	-200,000	0,013	0,050
-520,175	-52,959	0,044	-0,014
-519,160	-200,000	-0,045	0,206
-518,145	113,118	0,109	-0,095
-517,131	-33,924	0,160	-0,063
-516,116	-77,995	0,093	0,023
-515,102	-200,000	0,015	-0,141
-514,087	-200,000	-0,008	-0,054
-513,072	-200,000	0,022	-0,074
-512,058	175,073	0,040	-0,042
-511,043	338,280	-0,061	-0,086
-510,029	800,000	0,047	0,101
-509,014	7,085	0,043	-0,023
-507,999	306,538	0,128	-0,172
-506,985	-200,000	0,002	-0,062
-505,970	-200,000	-0,016	-0,086
-504,956	-200,000	-0,035	-0,277
-503,941	-200,000	0,009	-0,132
-502,926	58,364	-0,124	0,087
-501,912	-200,000	-0,018	0,102
-500,897	311,133	0,050	0,067
-499,883	168,488	-0,002	0,003
-498,868	-76,024	-0,064	0,016
-497,853	153,849	-0,046	-0,045
-496,839	800,000	0,027	0,083
-495,824	764,427	-0,014	0,028
-494,810	-200,000	-0,050	0,193
-493,795	149,689	-0,042	0,041
-492,781	800,000	0,039	-0,105
-491,766	800,000	-0,070	0,150
-490,751	-140,939	-0,117	-0,009
-489,737	-97,800	-0,135	0,025
-488,722	-21,593	-0,127	0,055
-487,708	-87,719	-0,159	0,034
-486,693	-135,590	0,075	0,006
-485,678	79,067	-0,105	0,081
-484,664	800,000	-0,050	-0,134
-483,649	800,000	-0,042	-0,107
-482,635	244,268	-0,028	-0,034
-481,620	800,000	0,033	0,104
-480,605	160,367	0,054	0,054
-479,591	-35,975	-0,073	0,028
-478,576	159,458	-0,021	0,021
-477,562	800,000	0,023	-0,053
-476,547	-74,035	-0,118	0,030
-475,532	-35,919	-0,050	0,019
-474,518	-25,189	0,036	-0,015
-473,503	-200,000	-0,000	0,075
-472,489	-189,502	0,077	-0,001
-471,474	-200,000	0,004	-0,025
-470,459	239,530	-0,061	-0,073
-469,445	30,173	-0,073	0,044
-468,430	-200,000	0,000	-0,019
-467,416	320,305	-0,052	-0,072
-466,401	8,701	0,150	0,081
-465,386	256,810	0,054	0,066
-464,372	800,000	0,043	0,125
-463,357	32,870	0,061	0,038
-462,343	69,713	-0,030	0,022
-461,328	800,000	-0,053	0,126
-460,313	-200,000	0,002	0,076
-459,299	102,042	0,025	0,021
-458,284	43,861	-0,078	-0,051
-457,270	-132,427	0,178	0,016
-456,255	-150,788	-0,033	0,002
-455,241	419,373	-0,039	0,060
-454,226	19,098	-0,052	-0,030
-453,211	6,774	0,071	-0,038
-452,197	-88,632	0,056	0,012
-451,182	-57,313	0,074	0,023
-450,168	-22,079	0,023	0,010
-449,153	-30,875	-0,066	-0,027
-448,138	-134,736	0,015	0,001
-447,124	-169,109	0,064	-0,002
-446,109	-5,919	0,024	0,012
-445,095	243,424	-0,036	0,044
-444,080	106,606	0,036	-0,031
-443,065	-47,308	-0,071	0,025
-442,051	-134,378	-0,208	-0,018
-441,036	-39,373	-0,041	0,015
-440,022	142,970	-0,011	-0,010
-439,007	-200,000	0,021	-0,104
-437,992	-110,525	0,088	-0,013
-436,978	43,509	0,038	-0,025
-435,963	-55,996	-0,060	0,019
-434,949	-200,000	0,011	0,047
-433,934	-52,429	0,157	-0,052
-432,919	-128,208	0,154	0,016
-431,905	-106,854	-0,107	-0,017
-430,890	800,000	0,021	0,048
-429,876	-200,000	0,005	0,052
-428,861	-95,236	0,184	-0,035
-427,846	155,725	-0,039	-0,038
-426,832	418,779	-0,028	-0,043
-425,817	-188,445	0,034	-0,000
-424,803	504,534	0,024	0,040
-423,788	250,951	-0,036	-0,044
-422,773	305,426	0,077	-0,103
-421,759	-200,000	-0,003	-0,035
-420,744	-167,308	0,078	-0,002
-419,730	800,000	0,032	-0,076
-418,715	-130,562	-0,043	0,004
-417,701	-14,215	0,166	0,076
-416,686	-136,403	-0,017	0,001
-415,671	-89,092	0,043	-0,009
-414,657	420,278	0,091	0,141
-413,642	800,000	-0,030	0,064
-412,628	423,571	-0,034	-0,052
-411,613	800,000	0,014	-0,028
-410,598	50,522	0,102	-0,069
-409,584	-28,579	0,108	0,044
-408,569	127,150	0,062	0,057
-407,555	-200,000	0,007	-0,059
-406,540	-136,579	0,120	0,010
-405,525	423,334	-0,055	-0,085
-404,511	-36,851	-0,156	-0,060
-403,496	800,000	-0,024	-0,071
-402,482	-109,807	-0,056	-0,008
-401,467	800,000	0,012	0,032
-400,452	38,429	-0,122	-0,078
-399,438	-200,000	-0,050	0,229
-398,423	-151,114	0,140	0,007
-397,409	-200,000	-0,001	-0,045
-396,394	573,932	0,021	-0,036
-395,379	-200,000	-0,027	-0,096
-394,365	75,964	0,051	0,038
-393,350	81,545	0,067	0,052
-392,336	139,712	0,020	-0,019
-391,321	-200,000	0,007	0,054
-390,306	84,284	-0,125	0,098
-389,292	800,000	-0,026	-0,074
-388,277	800,000	0,023	0,067
-387,263	800,000	0,066	0,142
-386,248	514,457	0,030	-0,051
-385,233	-200,000	-0,003	0,086
-384,219	-147,193	0,053	0,003
-383,204	-33,486	0,085	-0,033
-382,190	0,392	-0,150	0,076
-381,175	-200,000	0,009	0,038
-380,160	99,854	0,072	-0,059
-379,146	331,672	0,044	0,061
-378,131	800,000	-0,012	0,025
-377,117	-43,963	-0,070	0,025
-376,102	-200,000	0,006	-0,070
-375,088	-76,402	0,025	-0,006
-374,073	-200,000	0,001	0,059
-373,058	5,194	0,011	0,006
-372,044	-200,000	-0,015	0,055
-371,029	-200,000	0,004	0,055
-370,015	-125,270	-0,070	0,008
-369,000	478,512	-0,044	0,072
-367,985	178,209	-0,086	-0,089
-366,971	589,161	-0,020	0,035
-365,956	416,820	-0,052	0,079
-364,942	800,000	-0,056	0,140
-363,927	-200,000	0,025	-0,116
-362,912	193,748	0,028	0,031
-361,898	-68,814	-0,064	0,018
-360,883	-113,870	-0,027	0,004
-359,869	-200,000	-0,023	-0,120
-358,854	-37,729	0,115	0,043
-357,839	363,945	-0,144	0,207
-356,825	-162,942	0,088	-0,003
-355,810	-88,442	-0,118	0,025
-354,796	-68,031	0,092	0,026
-353,781	80,145	-0,106	-0,082
-352,766	54,763	0,005	-0,004
-351,752	800,000	-0,029	-0,086
-350,737	167,552	-0,070	0,071
-349,723	-200,000	0,012	0,146
-348,708	-48,918	0,142	-0,048
-347,693	-200,000	0,010	-0,147
-346,679	-200,000	0,008	-0,110
-345,664	800,000	0,026	-0,060
-344,650	-121,501	-0,052	-0,006
-343,635	-118,562	0,123	0,015
-342,620	-200,000	0,038	0,130
-341,606	247,020	0,060	-0,073
-340,591	-68,475	-0,076	0,021
-339,577	-200,000	-0,036	-0,130
-338,562	77,676	0,066	-0,050
-337,548	478,055	-0,023	-0,038
-336,533	-70,057	0,093	-0,025
-335,518	-200,000	0,150	-0,000
-334,504	15,793	0,134	0,075
-333,489	-95,448	0,087	0,016
-332,475	147,926	-0,049	0,047
-331,460	-200,000	-0,046	-0,154
-330,445	800,000	-0,049	-0,118
-329,431	531,662	0,046	0,077
-328,416	-11,237	-0,046	-0,021
-327,402	-200,000	0,004	0,048
-326,387	-116,698	-0,061	-0,008
-325,372	613,632	-0,058	-0,104
-324,358	-84,819	0,017	0,004
-323,343	241,184	-0,129	-0,153
-322,329	-88,005	0,089	0,019
-321,314	0,453	0,083	-0,042
-320,299	800,000	-0,049	0,106
-319,285	-106,790	-0,060	-0,009
-318,270	800,000	0,010	0,023
-317,256	800,000	-0,057	-0,125
-316,241	-181,255	-0,045	-0,001
-315,226	181,015	0,097	-0,102
-314,212	800,000	-0,024	0,054
-313,197	13,549	0,046	-0,025
-312,183	306,454	-0,011	0,015
-311,168	46,404	0,086	-0,057
-310,153	-200,000	-0,008	-0,136
-309,139	-36,720	0,068	-0,026
-308,124	-33,957	0,006	0,003
-307,110	140,342	0,064	0,061
-306,095	102,224	-0,025	-0,021
-305,080	800,000	0,012	0,023
-304,066	-44,700	-0,072	-0,025
-303,051	-39,305	-0,048	0,018
-302,037	800,000	-0,061	-0,146
-301,022	-49,819	-0,101	0,034
-300,008	-12,349	0,127	0,059
-298,993	800,000	0,039	-0,101
-297,978	-200,000	-0,000	-0,048
-296,964	463,123	-0,093	-0,148
-295,949	-40,154	-0,057	-0,021
-294,935	800,000	0,034	-0,100
-293,920	96,677	0,056	-0,046
-292,905	33,474	-0,034	-0,021
-291,891	744,007	-0,030	-0,058
-290,876	55,473	-0,123	0,085
-289,862	-168,229	-0,027	-0,001
-288,847	658,067	-0,029	-0,054
-287,832	800,000	0,050	-0,125
-286,818	231,433	0,066	-0,077
-285,803	89,097	0,155	0,122
-284,789	283,102	0,082	0,105
-283,774	74,113	0,075	0,056
-282,759	-200,000	0,009	-0,089
-281,745	-200,000	-0,025	-0,096
-280,730	-48,507	-0,066	-0,023
-279,716	11,895	0,089	0,049
-278,701	-82,100	0,142	-0,033
-277,686	582,237	0,029	-0,050
-276,672	-200,000	0,036	0,195
-275,657	800,000	-0,038	0,089
-274,643	-7,136	-0,040	0,019
-273,628	428,386	0,060	-0,093
-272,613	-111,234	-0,111	0,016
-271,599	-67,224	0,081	0,022
-270,584	-200,000	0,035	-0,164
-269,570	-145,703	-0,121	0,008
-268,555	-62,405	0,088	-0,026
-267,540	-29,813	-0,082	0,033
-266,526	-200,000	0,012	0,049
-265,511	-40,450	-0,136	0,050
-264,497	-200,000	-0,007	0,209
-263,482	800,000	0,037	-0,116
-262,467	-200,000	0,002	0,138
-261,453	-200,000	0,008	-0,037
-260,438	-136,957	0,104	0,008
-259,424	-200,000	0,014	-0,153
-258,409	-49,716	0,059	0,020
-257,395	-200,000	-0,003	-0,019
-256,380	-49,153	0,089	0,030
-255,365	77,649	0,055	0,041
-254,351	628,695	0,066	0,119
-253,336	800,000	0,014	-0,040
-252,322	-200,000	0,012	-0,119
-251,307	-89,256	-0,016	0,003
-250,292	388,126	-0,132	0,195
-249,278	-12,316	0,099	-0,046
-248,263	800,000	-0,037	0,099
-247,249	373,812	0,019	0,027
-246,234	-200,000	0,004	0,067
-245,219	-200,000	-0,006	-0,062
-244,205	4,346	-0,086	-0,045
-243,190	-190,871	0,048	0,000
-242,176	-89,353	0,075	-0,016
-241,161	800,000	0,017	0,034
-240,146	-9,567	-0,074	0,035
-239,132	-82,170	0,042	-0,010
-238,117	-200,000	0,030	0,103
-237,103	141,965	-0,031	-0,030
-236,088	-65,538	0,162	0,046
-235,073	-200,000	-0,023	0,106
-234,059	-200,000	0,009	0,088
-233,044	285,650	-0,094	0,121
-232,030	118,300	-0,026	-0,023
-231,015	800,000	-0,049	-0,113
-230,000	194,356	-0,039	0,042
-228,986	156,672	-0,093	-0,091
-227,971	-96,041	-0,158	-0,030
-226,957	800,000	-0,021	0,047
-225,942	800,000	-0,048	0,111
-224,927	84,338	0,168	-0,131
-223,913	800,000	-0,073	-0,148
-222,898	290,265	-0,075	-0,097
-221,884	652,812	-0,006	-0,011
-220,869	39,959	0,072	0,046
-219,855	733,479	-0,030	0,058
-218,840	389,639	-0,081	-0,120
-217,825	-49,173	0,040	0,014
-216,811	-99,323	0,042	-0,007
-215,796	451,432	-0,029	0,046
-214,782	-200,000	0,009	0,067
-213,767	-55,400	-0,100	0,032
-212,752	66,126	0,051	0,037
-211,738	363,858	-0,052	0,074
-210,723	-200,000	-0,002	-0,118
-209,709	-200,000	-0,031	-0,104
-208,694	451,419	-0,048	-0,075
-207,679	690,210	0,032	0,059
-206,665	-200,000	0,001	0,019
-205,650	127,937	0,111	0,100
-204,636	-123,186	-0,034	-0,004
-203,621	330,446	-0,019	0,026
-202,606	84,635	-0,148	-0,115
-201,592	-200,000	-0,004	0,019
-200,577	230,365	-0,062	0,072
-199,563	144,363	0,114	0,108
-198,548	800,000	-0,045	-0,100
-197,533	-48,862	0,046	-0,016
-196,519	-200,000	0,000	-0,043
-195,504	-200,000	-0,038	-0,154
-194,490	-115,435	-0,027	0,004
-193,475	-58,781	-0,072	-0,022
-192,460	-200,000	0,020	0,112
-191,446	-200,000	-0,012	0,069
-190,431	800,000	-0,072	0,170
-189,417	242,720	0,018	-0,022
-188,402	800,000	0,016	-0,033
-187,387	91,334	-0,074	-0,059
-186,373	122,808	-0,098	0,087
-185,358	-92,805	0,178	0,035
-184,344	-200,000	0,008	-0,056
-183,329	-200,000	-0,019	-0,176
-182,315	639,143	0,049	0,088
-181,300	299,523	-0,076	-0,099
-180,285	82,797	-0,057	0,044
-179,271	-59,716	-0,083	-0,025
-178,256	14,134	0,111	-0,061
-177,242	-17,879	-0,045	0,020
-176,227	6,130	0,061	0,032
-175,212	-72,456	0,163	0,042
-174,198	-200,000	0,020	-0,073
-173,183	-120,810	-0,178	0,021
-172,169	77,086	-0,087	-0,065
-171,154	82,591	0,053	0,040
-170,139	356,667	0,049	0,070
-169,125	609,260	0,046	0,082
-168,110	800,000	0,009	0,026
-167,096	178,465	0,071	0,073
-166,081	-200,000	-0,005	0,048
-165,066	800,000	0,024	-0,051
-164,052	131,609	0,053	0,048
-163,037	222,850	0,114	0,131
-162,023	-200,000	0,027	0,215
-161,008	-81,534	0,135	-0,031
-159,993	-200,000	0,012	0,058
-158,979	94,577	0,054	0,043
-157,964	98,575	-0,045	0,037
-156,950	83,880	-0,026	-0,020
-155,935	800,000	0,046	-0,126
-154,920	-72,740	0,093	0,024
-153,906	-9,233	-0,183	0,086
-152,891	-72,460	0,089	-0,023
-151,877	-114,074	-0,199	0,027
-150,862	411,900	-0,087	0,131
-149,847	113,009	0,014	-0,012
-148,833	14,167	0,078	0,043
-147,818	-200,000	0,022	-0,081
-146,804	-31,812	-0,102	0,040
-145,789	-91,779	0,096	-0,019
-144,775	-109,311	-0,142	-0,021
-143,760	-149,682	-0,134	0,007
-142,745	341,512	-0,067	-0,093
-141,731	112,031	0,040	-0,034
-140,716	-200,000	-0,032	0,175
-139,702	-51,487	0,234	0,077
-138,687	23,710	0,061	0,035
-137,672	800,000	-0,041	-0,100
-136,658	138,882	-0,155	-0,144
-135,643	-171,900	0,099	-0,002
-134,629	800,000	0,031	0,061
-133,614	132,220	0,061	-0,056
-132,599	233,365	-0,087	-0,101
-131,585	-200,000	-0,011	-0,053
-130,570	-49,652	-0,068	0,023
-129,556	-68,090	0,089	0,024
-128,541	-7,379	-0,118	-0,056
-127,526	-100,436	0,088	0,015
-126,512	-73,366	-0,195	-0,050
-125,497	87,831	0,106	0,083
-124,483	-61,798	0,094	0,028
-123,468	800,000	-0,026	-0,061
-122,453	-42,656	-0,053	0,019
-121,439	49,314	-0,095	-0,063
-120,424	-115,544	0,189	0,025
-119,410	-200,000	-0,002	-0,127
-118,395	289,365	-0,062	0,080
-117,380	-95,180	-0,114	0,022
-116,366	-200,000	-0,020	0,123
-115,351	193,806	-0,050	-0,054
-114,337	-200,000	0,015	0,074
-113,322	-200,000	0,003	-0,038
-112,307	-200,000	0,015	0,052
-111,293	-200,000	-0,012	0,100
-110,278	43,272	0,046	0,030
-109,264	215,683	0,019	0,021
-108,249	215,231	-0,035	0,039
-107,234	-200,000	0,025	0,109
-106,220	140,563	-0,079	0,074
-105,205	-68,444	-0,087	0,024
-104,191	-200,000	0,004	0,064
-103,176	212,833	0,193	0,216
-102,162	-58,608	0,053	0,016
-101,147	-200,000	0,018	-0,088
-100,132	26,982	-0,025	-0,015
-99,118	670,393	-0,034	-0,063
-98,103	7,081	-0,019	-0,010
-97,089	29,591	0,073	0,044
-96,074	214,836	0,026	0,029
-95,059	712,150	0,030	0,057
-94,045	-47,060	0,095	-0,033
-93,030	800,000	-0,026	-0,062
-92,016	-200,000	-0,049	-0,165
-91,001	-76,171	-0,226	0,056
-89,986	-121,861	0,063	0,007
-88,972	-9,999	0,056	0,026
-87,957	-30,449	0,075	0,030
-86,943	-105,760	0,130	0,021
-85,928	-33,731	-0,109	0,042
-84,913	-17,520	-0,109	-0,048
-83,899	361,410	0,105	0,148
-82,884	-102,965	-0,052	0,009
-81,870	67,764	-0,075	-0,054
-80,855	-117,515	0,063	0,008
-79,840	211,347	-0,107	-0,119
-78,826	-200,000	-0,005	-0,106
-77,811	262,983	-0,106	-0,130
-76,797	-41,946	-0,035	-0,013
-75,782	129,706	-0,086	0,078
-74,767	196,858	-0,105	0,113
-73,753	166,061	-0,152	0,152
-72,738	-200,000	-0,008	-0,038
-71,724	-155,839	-0,087	0,004
-70,709	-102,944	-0,051	0,008
-69,694	-128,835	-0,059	-0,006
-68,680	-82,068	0,130	0,030
-67,665	619,959	0,074	0,131
-66,651	304,309	0,082	0,107
-65,636	-200,000	-0,023	0,159
-64,622	152,618	-0,094	-0,091
-63,607	800,000	-0,135	-0,307
-62,592	3,329	0,097	-0,050
-61,578	-128,766	0,038	0,004
-60,563	20,091	0,106	0,060
-59,549	128,090	-0,008	0,007
-58,534	67,329	-2,066	-1,485
-57,519	627,441	-1,085	-1,942
-56,505	-200,000	-0,362	-4,589
-55,490	660,137	0,856	1,562
-54,476	800,000	5,442	11,599
-53,461	-200,000	22,375	346,878
-52,446	800,000	756,574	2295,595
-51,432	535,009	1643,497	2759,951
-50,417	68,240	1642,621	1185,420
-49,403	15,724	1519,913	840,795
-48,388	9,957	1445,724	772,059
-47,373	19,268	1438,479	812,523
-46,359	13,437	1427,138	778,564
-45,344	8,274	1422,846	751,782
-44,330	8,187	1421,137	750,436
-43,315	8,190	1419,190	749,393
-42,300	8,147	1417,615	748,331
-41,286	8,231	1416,088	747,890
-40,271	8,158	1414,896	746,889
-39,257	8,150	1413,915	746,299
-38,242	8,217	1412,552	745,866
-37,227	8,179	1411,701	745,210
-36,213	8,184	1410,409	744,522
-35,198	8,200	1409,115	743,886
-34,184	8,238	1408,162	743,530
-33,169	8,169	1406,794	742,454
-32,154	8,184	1405,919	742,035
-31,140	8,151	1404,596	741,152
-30,125	8,217	1403,229	740,711
-29,111	8,186	1402,290	740,037
-28,096	8,170	1401,081	739,296
-27,082	8,118	1399,937	738,421
-26,067	8,066	1399,242	737,782
-25,052	8,119	1397,743	737,210
-24,038	8,168	1396,680	736,849
-23,023	8,112	1395,947	736,174
-22,009	8,101	1395,126	735,659
-20,994	8,071	1393,947	734,872
-19,979	8,087	1392,899	734,361
-18,965	8,084	1391,888	733,784
-17,950	8,066	1390,868	733,137
-16,936	8,057	1390,276	732,752
-15,921	8,002	1389,083	731,842
-14,906	8,061	1388,111	731,572
-13,892	8,127	1386,991	731,255
-12,877	7,998	1386,736	730,499
-11,863	8,028	1385,569	729,991
-10,848	8,012	1384,828	729,499
-9,833	7,953	1384,103	728,816
-8,819	7,967	1382,782	728,159
-7,804	7,962	1382,018	727,706
-6,790	7,925	1380,993	726,966
-5,775	7,890	1380,202	726,359
-4,760	7,967	1379,034	726,067
-3,746	8,005	1378,116	725,731
-2,731	7,984	1377,186	725,115
-1,717	7,912	1376,543	724,421
-0,702	7,925	1374,826	723,547
0,313	11,858	1285,181	694,197
1,327	27,552	677,127	400,728
2,342	42,690	116,631	74,733
3,356	-0,005	16,543	8,279
4,371	1,838	3,819	1,934
5,386	8,254	1,298	0,685
6,400	754,880	0,307	0,587
7,415	26,285	-0,124	-0,073
8,429	-12,098	-0,161	-0,074
9,444	37,327	-0,281	-0,175
10,459	-46,438	-0,305	-0,105
11,473	6,154	-0,328	-0,171
12,488	163,063	-0,111	-0,110
13,502	-7,642	-0,270	-0,128
14,517	-34,084	-0,344	-0,133
15,531	21,486	-0,304	-0,174
16,546	114,514	-0,244	-0,209
17,561	143,319	-0,354	-0,332
18,575	-53,053	-0,189	-0,061
19,590	-13,272	-0,214	-0,097
20,604	-2,304	-0,173	-0,085
21,619	4,835	-0,375	-0,193
22,634	60,900	-0,413	-0,288
23,648	23,840	-0,402	-0,233
24,663	49,342	-0,467	-0,308
25,677	-91,258	-0,297	-0,059
26,692	134,599	-0,329	-0,300
27,707	-32,342	-0,466	-0,182
28,721	-8,863	-0,330	-0,155
29,736	136,651	-0,279	-0,256
30,750	107,404	-0,448	-0,375
31,765	89,678	-0,377	-0,296
32,780	26,638	-0,412	-0,242
33,794	141,098	-0,261	-0,243
34,809	39,255	-0,270	-0,169
35,823	-72,406	-0,388	-0,100
36,838	44,147	-0,363	-0,234
37,853	77,755	-0,376	-0,281
38,867	73,494	-0,292	-0,215
39,882	77,575	-0,315	-0,235
40,896	-49,715	-0,467	-0,155
41,911	-8,461	-0,214	-0,100
42,926	94,811	-0,270	-0,215
43,940	43,810	-0,242	-0,155
44,955	14,314	-0,450	-0,246
45,969	232,609	-0,299	-0,345
46,984	70,368	-0,351	-0,254
47,999	-59,624	-0,332	-0,100
49,013	-35,242	-0,348	-0,132
50,028	96,920	-0,322	-0,259
51,042	-33,857	-0,340	-0,131
52,057	96,244	-0,283	-0,227
53,071	118,921	-0,330	-0,286
54,086	72,823	-0,359	-0,263
55,101	83,748	-0,336	-0,257
56,115	50,874	-0,274	-0,182
57,130	119,615	-0,283	-0,246
58,144	78,973	-0,312	-0,234
59,159	106,550	-0,355	-0,296
60,174	179,486	-0,308	-0,316
61,188	197,546	-0,244	-0,262
62,203	-10,837	-0,345	-0,159
63,217	80,988	-0,255	-0,193
64,232	47,806	-0,302	-0,197
65,247	-38,943	-0,403	-0,148
66,261	60,974	-0,357	-0,248
67,276	231,627	-0,308	-0,354
68,290	109,727	-0,242	-0,203
69,305	-17,420	-0,348	-0,153
70,320	2,271	-0,403	-0,204
71,334	46,522	-0,349	-0,226
72,349	25,636	-0,390	-0,227
73,363	106,315	-0,353	-0,293
74,378	222,511	-0,266	-0,301
75,393	41,960	-0,283	-0,180
76,407	69,194	-0,255	-0,184
77,422	19,073	-0,217	-0,121
78,436	-33,815	-0,354	-0,136
79,451	65,724	-0,281	-0,199
80,466	151,370	-0,362	-0,345
81,480	-36,326	-0,323	-0,121
82,495	92,531	-0,228	-0,180
83,509	116,365	-0,147	-0,126
84,524	257,849	-0,189	-0,228
85,539	-0,771	-0,293	-0,145
86,553	124,561	-0,268	-0,236
87,568	73,855	-0,333	-0,244
88,582	255,724	-0,224	-0,269
89,597	29,213	-0,385	-0,228
90,611	166,951	-0,174	-0,173
91,626	-22,836	-0,316	-0,133
92,641	177,426	-0,272	-0,277
93,655	-58,888	-0,261	-0,078
94,670	-15,692	-0,254	-0,113
95,684	106,824	-0,389	-0,322
96,699	-67,542	-0,455	-0,124
97,714	-114,911	-0,272	0,036
98,728	38,595	-0,171	-0,106
99,743	-15,132	-0,293	-0,130
100,757	6,721	-0,165	-0,086
101,772	98,012	-0,193	-0,155
102,787	154,311	-0,246	-0,236
103,801	-37,791	-0,282	-0,104
104,816	11,199	-0,267	-0,142
105,830	104,342	-0,174	-0,143
106,845	-125,140	-0,255	-0,027
107,860	343,143	-0,129	-0,176
108,874	297,485	-0,225	-0,290
109,889	-9,044	-0,282	-0,131
110,903	27,736	-0,175	-0,103
111,918	48,837	-0,337	-0,220
112,933	1,430	-0,185	-0,092
113,947	92,733	-0,233	-0,184
114,962	69,474	-0,257	-0,184
115,976	71,550	-0,235	-0,170
116,991	74,520	-0,234	-0,172
118,006	213,341	-0,156	-0,173
119,020	102,021	-0,257	-0,209
120,035	-166,414	-0,202	-0,006
121,049	531,253	-0,126	-0,209
122,064	82,293	-0,173	-0,131
123,079	161,165	-0,213	-0,208
124,093	85,581	-0,331	-0,254
125,108	310,441	-0,120	-0,158
126,122	800,000	-0,172	-0,354
127,137	31,894	-0,281	-0,169
128,151	406,918	-0,169	-0,249
129,166	35,969	-0,297	-0,182
130,181	73,367	-0,192	-0,140
131,195	-71,541	-0,227	-0,059
132,210	693,645	-0,099	-0,181
133,224	93,410	-0,304	-0,239
134,239	78,264	-0,224	-0,166
135,254	-53,440	-0,261	-0,083
136,268	-23,558	-0,336	-0,140
137,283	159,668	-0,165	-0,160
138,297	203,454	-0,281	-0,303
139,312	81,908	-0,224	-0,169
140,327	-98,371	-0,171	-0,030
141,341	192,010	-0,117	-0,123
142,356	37,118	-0,188	-0,116
143,370	54,628	-0,153	-0,103
144,385	-127,889	-0,246	-0,024
145,400	71,520	-0,283	-0,204
146,414	23,217	-0,211	-0,120
147,429	704,417	-0,183	-0,337
148,443	346,468	-0,212	-0,292
149,458	-51,732	-0,070	-0,023
150,473	7,843	-0,167	0,087
151,487	4,344	-0,239	-0,121
152,502	67,821	-0,292	-0,208
153,516	-141,225	-0,324	-0,023
154,531	390,730	-0,136	-0,197
155,546	100,624	-0,251	-0,203
156,560	1,305	-0,327	-0,163
157,575	146,465	-0,283	-0,264
158,589	55,035	-0,207	-0,139
159,604	84,329	-0,319	-0,242
160,619	148,255	-0,312	-0,293
161,633	-51,450	-0,317	-0,102
162,648	0,704	-0,157	-0,078
163,662	-68,127	-0,267	-0,072
164,677	5,237	-0,167	-0,085
165,692	122,750	-0,112	-0,097
166,706	-86,182	-0,322	-0,068
167,721	-8,713	-0,231	-0,107
168,735	277,838	-0,245	-0,304
169,750	44,389	-0,266	-0,169
170,764	164,281	-0,235	-0,230
171,779	226,254	-0,158	-0,178
172,794	50,782	-0,188	-0,124
173,808	118,075	-0,266	-0,228
174,823	48,424	-0,189	-0,123
175,837	137,774	-0,212	-0,193
176,852	62,580	-0,197	-0,136
177,867	83,900	-0,255	-0,193
178,881	-104,854	-0,080	-0,013
179,896	63,929	-0,224	-0,156
180,910	7,346	-0,277	-0,143
181,925	40,365	-0,234	-0,146
182,940	55,756	-0,253	-0,170
183,954	-94,565	-0,264	-0,049
184,969	115,980	-0,170	-0,145
185,983	80,950	-0,205	-0,154
186,998	29,717	-0,224	-0,132
188,013	256,437	-0,138	-0,165
189,027	127,240	-0,263	-0,232
190,042	-87,150	-0,293	-0,061
191,056	149,456	-0,213	-0,200
192,071	113,157	-0,177	-0,148
193,086	115,294	-0,208	-0,176
194,100	60,538	-0,204	-0,140
195,115	187,163	-0,215	-0,222
196,129	345,580	-0,113	-0,155
197,144	0,838	-0,169	-0,084
198,159	490,493	-0,154	-0,245
199,173	74,976	-0,162	-0,118
200,188	-117,490	-0,162	-0,020
201,202	3,927	-0,138	-0,070
202,217	316,044	-0,100	-0,131
203,232	657,829	-0,081	-0,145
204,246	18,836	-0,254	-0,140
205,261	340,826	-0,113	-0,153
206,275	-17,469	-0,293	-0,127
207,290	-86,274	-0,247	-0,052
208,304	503,400	-0,140	-0,226
209,319	-116,032	-0,223	-0,028
210,334	-15,860	-0,205	-0,090
211,348	-9,007	-0,299	-0,138
212,363	364,497	-0,135	-0,189
213,377	146,255	-0,121	-0,112
214,392	-125,557	-0,178	-0,019
215,407	10,914	-0,123	-0,065
216,421	800,000	-0,065	-0,162
217,436	102,303	-0,240	-0,194
218,450	118,001	-0,221	-0,188
219,465	-24,037	-0,129	-0,053
220,480	561,373	-0,151	-0,253
221,494	-18,306	-0,211	-0,091
222,509	9,984	-0,217	-0,114
223,523	-137,856	-0,160	-0,012
224,538	349,481	-0,089	-0,122
225,553	213,369	-0,246	-0,269
226,567	800,000	-0,097	-0,234
227,582	18,627	-0,138	-0,076
228,596	291,098	-0,149	-0,188
229,611	296,855	-0,148	-0,188
230,626	71,611	-0,222	-0,160
231,640	76,788	-0,116	-0,085
232,655	92,021	-0,227	-0,176
233,669	331,026	-0,206	-0,275
234,684	565,213	-0,070	-0,118
235,699	-119,468	-0,163	0,019
236,713	-29,773	-0,161	-0,063
237,728	330,810	-0,109	-0,145
238,742	198,375	-0,106	-0,112
239,757	104,675	-0,223	-0,181
240,772	254,802	-0,097	-0,115
241,786	-177,530	-0,123	-0,002
242,801	800,000	-0,057	-0,110
243,815	12,100	-0,188	-0,099
244,830	-28,426	-0,229	-0,091
245,844	800,000	-0,110	-0,238
246,859	429,200	-0,180	-0,269
247,874	235,910	-0,179	-0,204
248,888	-70,474	-0,218	-0,057
249,903	-62,047	-0,039	-0,011
250,917	191,178	-0,118	-0,123
251,932	270,429	-0,137	-0,167
252,947	62,301	-0,200	-0,138
253,961	22,080	-0,173	-0,097
254,976	-176,007	-0,221	0,004
255,990	137,350	-0,158	-0,143
257,005	158,575	-0,156	-0,149
258,020	-41,591	-0,156	-0,055
259,034	-48,303	-0,158	-0,052
260,049	-74,276	-0,240	-0,059
261,063	163,573	-0,163	-0,158
262,078	499,427	-0,155	-0,247
263,093	-12,809	-0,145	-0,065
264,107	147,442	-0,100	-0,093
265,122	-79,113	-0,115	0,027
266,136	278,328	-0,093	-0,114
267,151	-200,000	0,005	-0,215
268,166	800,000	-0,095	-0,192
269,180	-0,815	-0,240	-0,116
270,195	-200,000	-0,041	-0,186
271,209	236,036	-0,183	-0,208
272,224	800,000	-0,058	-0,138
273,239	-0,009	-0,155	0,076
274,253	-3,537	-0,134	0,064
275,268	87,916	-0,103	-0,079
276,282	174,240	-0,180	-0,179
277,297	-45,578	-0,254	-0,086
278,312	-28,656	-0,223	-0,088
279,326	40,243	-0,176	-0,109
280,341	-5,020	-0,204	-0,096
281,355	800,000	-0,102	-0,202
282,370	137,551	-0,115	-0,104
283,384	178,821	-0,229	-0,231
284,399	194,183	-0,106	-0,111
285,414	-63,245	-0,150	-0,042
286,428	44,561	-0,137	-0,086
287,443	189,575	-0,072	-0,075
288,457	-80,659	-0,241	-0,055
289,472	-7,863	-0,114	-0,053
290,487	98,180	-0,188	-0,149
291,501	151,609	-0,115	-0,107
292,516	-200,000	-0,075	-0,287
293,530	-1,211	-0,247	-0,120
294,545	800,000	-0,073	-0,166
295,560	613,852	-0,088	-0,151
296,574	-200,000	-0,015	-0,121
297,589	376,151	-0,023	-0,033
298,603	103,879	-0,214	-0,173
299,618	369,729	-0,129	-0,179
300,633	-139,600	-0,169	-0,012
301,647	800,000	-0,029	-0,077
302,662	108,773	-0,182	-0,150
303,676	-10,827	-0,151	-0,068
304,691	155,457	-0,160	-0,151
305,706	76,615	-0,140	-0,102
306,720	-116,159	-0,105	0,013
307,735	267,285	-0,111	-0,134
308,749	-110,002	-0,052	0,007
309,764	-73,395	-0,127	-0,032
310,779	-122,688	-0,135	-0,015
311,793	800,000	-0,083	-0,166
312,808	-101,835	-0,253	-0,042
313,822	800,000	-0,040	-0,105
314,837	87,613	-0,101	-0,077
315,852	370,880	-0,124	-0,173
316,866	-63,023	-0,174	-0,049
317,881	-38,115	-0,091	0,033
318,895	800,000	-0,078	-0,208
319,910	-33,615	-0,181	-0,068
320,925	27,658	-0,155	-0,089
321,939	800,000	-0,062	-0,170
322,954	484,930	-0,087	-0,137
323,968	-58,619	-0,077	0,023
324,983	-91,818	-0,128	-0,025
325,997	0,036	-0,054	0,027
327,012	172,864	-0,111	-0,109
328,027	40,755	-0,165	-0,102
329,041	139,686	-0,203	-0,184
330,056	71,960	-0,118	-0,084
331,070	-39,831	-0,113	-0,040
332,085	-88,645	-0,155	-0,031
333,100	-75,235	-0,162	0,039
334,114	71,689	-0,184	-0,131
335,129	345,643	-0,130	-0,175
336,143	-3,033	-0,156	-0,074
337,158	-43,602	-0,098	-0,034
338,173	800,000	-0,043	-0,088
339,187	-51,918	-0,178	0,056
340,202	181,453	-0,120	-0,121
341,216	-52,874	-0,214	-0,067
342,231	229,424	-0,147	-0,164
343,246	194,146	-0,162	-0,168
344,260	800,000	-0,092	-0,244
345,275	500,944	-0,041	-0,064
346,289	-41,465	-0,118	-0,041
347,304	422,611	-0,091	-0,134
348,319	299,963	-0,072	0,091
349,333	800,000	-0,049	-0,094
350,348	-65,023	-0,133	-0,037
351,362	239,370	-0,078	-0,088
352,377	-11,639	-0,062	-0,028
353,392	-200,000	-0,005	-0,121
354,406	-200,000	-0,024	-0,226
355,421	206,793	1310,408	1397,379
356,435	159,055	1470,531	1397,819
