DTS Sentinel unit serial number:	SN410029Multiplexer serial number:	ORYXHardware model number:	OX2-SRSoftware version number:	ORYX F/W v4,00 Oryx Data Collector v3.7.2.0data status	okinstallation	B3 Nyhavnadifferential loss correction	single-endedforward channel	channel 1reverse channel	N/Adate	2023/12/01time	18:07:30forward acquisition time	300,00reverse acquisition time	0,00gamma	499,1914k internal	0,3204k external	0,3204temperature offset calibration	1,0000default loss term (dB/km)	0,3820temperature slope calibration	1,0000multiplexer offset coefficient	1,0000multiplexer slope coefficient	1,0000fibre end	0,00T internal ref (°C)	14,62T ext. ref 1 (°C)	0,68T ext. ref 2 (°C)	0,67length (m)	temperature (°C)	Stokes	anti-Stokes-744,400	434,390	-0,100	-0,158
-743,385	-200,000	-0,054	0,426
-742,371	76,555	-0,153	-0,118
-741,356	-200,000	-0,022	0,263
-740,342	800,000	-0,109	-0,346
-739,327	-200,000	0,064	0,351
-738,312	33,176	-0,287	-0,181
-737,298	-200,000	-0,068	0,273
-736,283	243,311	-0,238	-0,290
-735,269	800,000	0,129	0,293
-734,254	557,538	-0,217	-0,381
-733,239	144,291	-0,155	0,150
-732,225	800,000	-0,067	-0,181
-731,210	-200,000	0,003	0,164
-730,196	195,903	0,022	-0,025
-729,181	-200,000	-0,073	0,299
-728,167	-200,000	0,007	-0,105
-727,152	1,008	0,139	0,072
-726,137	-200,000	0,057	-0,201
-725,123	800,000	-0,058	-0,128
-724,108	-200,000	0,010	-0,120
-723,094	641,835	-0,062	-0,115
-722,079	800,000	-0,102	-0,299
-721,064	95,690	0,086	0,071
-720,050	800,000	-0,033	0,075
-719,035	678,850	-0,041	-0,079
-718,021	55,008	-0,103	-0,072
-717,006	8,385	-0,114	-0,062
-715,991	117,797	-0,117	-0,104
-714,977	-62,213	0,059	-0,018
-713,962	-31,628	-0,128	0,052
-712,948	-84,134	0,061	-0,014
-711,933	-200,000	-0,013	-0,080
-710,918	449,217	0,027	-0,043
-709,904	800,000	0,025	-0,069
-708,889	107,004	-0,124	-0,107
-707,875	84,728	0,060	-0,048
-706,860	-200,000	0,012	0,054
-705,845	-86,282	0,119	-0,026
-704,831	381,329	0,026	0,039
-703,816	-62,603	0,022	0,006
-702,802	-99,511	-0,046	-0,008
-701,787	-200,000	0,007	-0,084
-700,772	298,034	0,024	-0,032
-699,758	52,042	-0,146	0,101
-698,743	10,728	0,083	-0,046
-697,729	198,674	0,049	-0,055
-696,714	800,000	-0,021	-0,055
-695,699	-200,000	-0,025	-0,141
-694,685	-200,000	0,024	0,085
-693,670	-46,160	0,159	-0,056
-692,656	153,219	-0,046	0,046
-691,641	-140,992	0,134	-0,010
-690,627	-91,211	-0,119	0,024
-689,612	-200,000	0,046	-0,163
-688,597	-200,000	0,002	-0,098
-687,583	-200,000	-0,022	-0,156
-686,568	-16,559	-0,078	0,036
-685,554	-200,000	-0,031	-0,128
-684,539	800,000	0,034	-0,087
-683,524	-200,000	-0,002	-0,067
-682,510	800,000	-0,022	0,049
-681,495	-37,148	-0,078	0,030
-680,481	-51,513	0,111	-0,037
-679,466	628,439	-0,032	-0,059
-678,451	111,176	-0,088	-0,077
-677,437	411,538	-0,035	0,054
-676,422	-61,872	0,125	-0,038
-675,408	500,566	-0,047	0,078
-674,393	800,000	-0,041	-0,112
-673,378	352,401	0,077	0,111
-672,364	270,730	-0,081	-0,104
-671,349	-200,000	0,033	-0,180
-670,335	-200,000	0,017	0,054
-669,320	129,591	-0,045	0,042
-668,305	-76,317	0,084	0,021
-667,291	-200,000	0,010	0,076
-666,276	800,000	0,029	-0,076
-665,262	-47,049	-0,110	0,039
-664,247	154,990	-0,064	-0,063
-663,232	1,284	-0,110	-0,057
-662,218	692,189	-0,057	-0,109
-661,203	-66,681	0,129	-0,037
-660,189	-200,000	-0,005	0,068
-659,174	353,867	-0,030	0,043
-658,159	-98,022	-0,036	0,007
-657,145	547,635	-0,100	-0,174
-656,130	800,000	-0,014	-0,036
-655,116	172,803	0,032	-0,033
-654,101	-200,000	0,005	-0,100
-653,086	2,384	-0,051	0,026
-652,072	-75,322	-0,033	-0,008
-651,057	499,473	-0,047	0,079
-650,043	-67,049	0,091	0,026
-649,028	-6,991	0,081	-0,040
-648,014	53,885	-0,060	-0,042
-646,999	252,099	-0,052	0,065
-645,984	800,000	0,005	-0,016
-644,970	-200,000	-0,041	-0,180
-643,955	47,416	-0,061	0,041
-642,941	800,000	-0,042	-0,097
-641,926	123,234	-0,066	-0,060
-640,911	-200,000	-0,022	0,086
-639,897	24,473	0,149	-0,089
-638,882	-182,262	-0,106	0,001
-637,868	530,959	0,041	-0,070
-636,853	567,757	0,030	-0,052
-635,838	9,766	-0,111	0,061
-634,824	386,155	0,062	0,093
-633,809	800,000	-0,029	0,086
-632,795	90,024	-0,022	-0,018
-631,780	-200,000	-0,004	0,020
-630,765	338,253	-0,066	-0,094
-629,751	202,468	-0,083	0,093
-628,736	190,796	-0,077	-0,083
-627,722	-200,000	-0,002	-0,022
-626,707	356,650	-0,046	-0,067
-625,692	-32,678	0,070	0,028
-624,678	-142,961	0,141	0,010
-623,663	228,046	-0,099	-0,117
-622,649	-200,000	0,006	-0,133
-621,634	-200,000	0,022	0,073
-620,619	-41,479	-0,157	-0,058
-619,605	-200,000	-0,011	0,043
-618,590	58,135	0,159	0,112
-617,576	78,767	-0,040	-0,031
-616,561	-200,000	-0,034	0,175
-615,546	-100,605	-0,087	0,015
-614,532	-115,662	0,072	0,010
-613,517	-200,000	-0,003	-0,174
-612,503	110,032	0,055	0,048
-611,488	-95,315	0,048	0,009
-610,474	-200,000	0,006	0,069
-609,459	-169,516	0,048	-0,001
-608,444	800,000	0,043	0,093
-607,430	-200,000	-0,001	-0,005
-606,415	-33,855	-0,071	-0,028
-605,401	113,951	-0,156	0,137
-604,386	339,955	-0,030	-0,042
-603,371	-21,276	0,067	0,029
-602,357	33,725	-0,075	-0,047
-601,342	119,448	-0,046	-0,041
-600,328	323,331	-0,065	-0,090
-599,313	464,105	-0,042	-0,069
-598,298	-200,000	0,000	0,028
-597,284	-200,000	0,031	0,101
-596,269	421,557	0,087	0,136
-595,255	-200,000	-0,091	0,314
-594,240	759,434	-0,009	0,018
-593,225	73,868	0,100	-0,075
-592,211	-200,000	0,015	-0,119
-591,196	339,439	0,051	0,072
-590,182	800,000	0,030	-0,069
-589,167	-200,000	-0,003	0,122
-588,152	-52,432	-0,038	0,013
-587,138	16,380	-0,158	-0,090
-586,123	26,056	0,100	0,060
-585,109	-169,874	-0,066	0,002
-584,094	-93,810	-0,093	0,018
-583,079	161,179	0,094	-0,095
-582,065	800,000	0,016	0,047
-581,050	-161,309	-0,025	0,001
-580,036	221,165	0,046	-0,054
-579,021	-200,000	0,028	-0,127
-578,006	212,112	-0,047	-0,053
-576,992	-200,000	-0,005	-0,057
-575,977	167,686	0,070	0,072
-574,963	800,000	-0,069	0,172
-573,948	156,182	0,071	0,070
-572,934	74,167	-0,028	0,022
-571,919	-108,268	-0,123	-0,019
-570,904	3,587	-0,097	-0,051
-569,890	-200,000	-0,042	-0,149
-568,875	-200,000	0,033	-0,111
-567,861	149,419	0,152	-0,149
-566,846	204,629	0,010	-0,011
-565,831	-133,367	-0,136	0,012
-564,817	170,459	-0,130	0,134
-563,802	-200,000	-0,039	-0,151
-562,788	-102,271	-0,072	-0,012
-561,773	287,406	-0,053	0,069
-560,758	114,376	-0,060	0,052
-559,744	800,000	-0,007	0,019
-558,729	431,132	-0,095	-0,149
-557,715	-61,279	-0,053	-0,016
-556,700	74,658	-0,051	0,039
-555,685	-41,302	0,069	0,026
-554,671	-200,000	-0,011	0,058
-553,656	-71,207	0,116	0,031
-552,642	-14,610	0,083	0,038
-551,627	613,561	-0,041	0,074
-550,612	135,353	-0,105	-0,098
-549,598	661,162	-0,055	-0,103
-548,583	800,000	-0,046	-0,102
-547,569	500,374	0,080	-0,133
-546,554	642,878	0,050	0,093
-545,539	-200,000	0,009	-0,031
-544,525	6,148	0,122	0,065
-543,510	800,000	-0,023	-0,058
-542,496	-84,953	-0,064	0,014
-541,481	-81,846	-0,074	-0,017
-540,466	-200,000	0,011	-0,174
-539,452	445,993	0,034	0,055
-538,437	800,000	0,040	0,104
-537,423	253,939	-0,045	0,055
-536,408	89,972	-0,074	-0,060
-535,393	164,706	-0,166	-0,169
-534,379	4,892	-0,088	-0,047
-533,364	-15,666	0,056	-0,026
-532,350	-200,000	-0,018	0,118
-531,335	-30,477	-0,012	0,005
-530,321	102,786	0,079	0,066
-529,306	-35,099	0,202	0,079
-528,291	-168,192	-0,112	0,003
-527,277	800,000	-0,063	-0,132
-526,262	-61,202	0,124	0,037
-525,248	-200,000	0,003	-0,040
-524,233	723,157	0,068	-0,131
-523,218	283,185	-0,037	0,048
-522,204	-8,560	-0,134	-0,065
-521,189	97,216	-0,044	0,036
-520,175	-200,000	-0,005	-0,108
-519,160	-200,000	0,001	-0,092
-518,145	358,867	0,044	-0,063
-517,131	797,778	-0,018	0,036
-516,116	-200,000	0,040	0,149
-515,102	49,494	-0,045	-0,030
-514,087	-200,000	0,012	-0,132
-513,072	-115,747	-0,131	0,017
-512,058	800,000	-0,031	-0,093
-511,043	-200,000	0,002	0,046
-510,029	800,000	0,053	0,116
-509,014	800,000	0,049	0,105
-507,999	-200,000	-0,010	-0,076
-506,985	-200,000	-0,017	-0,108
-505,970	127,301	-0,073	-0,066
-504,956	23,509	-0,118	-0,070
-503,941	800,000	-0,040	-0,117
-502,926	2,059	0,112	0,058
-501,912	-96,584	0,158	-0,030
-500,897	183,390	0,078	0,083
-499,883	-114,197	-0,095	0,013
-498,868	-200,000	-0,012	-0,043
-497,853	27,626	0,027	0,016
-496,839	-176,794	0,114	0,002
-495,824	109,431	0,121	-0,104
-494,810	800,000	-0,063	0,147
-493,795	-155,384	0,041	-0,002
-492,781	166,097	-0,050	0,051
-491,766	-2,514	0,031	0,016
-490,751	-200,000	-0,016	-0,093
-489,737	800,000	0,067	-0,142
-488,722	800,000	-0,018	-0,041
-487,708	393,958	-0,046	0,069
-486,693	-200,000	-0,016	-0,072
-485,678	-38,389	0,056	0,021
-484,664	-200,000	-0,016	-0,059
-483,649	-44,918	-0,075	0,027
-482,635	-125,139	-0,010	0,001
-481,620	177,150	-0,029	-0,031
-480,605	-200,000	0,017	0,112
-479,591	-18,244	-0,124	0,056
-478,576	545,509	-0,052	-0,089
-477,562	223,729	-0,060	0,070
-476,547	-119,551	0,094	0,012
-475,532	-10,657	0,164	0,078
-474,518	733,548	0,058	0,112
-473,503	669,509	0,055	0,103
-472,489	-17,984	-0,068	0,030
-471,474	96,521	0,071	0,059
-470,459	462,453	-0,028	0,046
-469,445	-91,912	0,071	0,014
-468,430	389,542	-0,056	0,084
-467,416	212,218	-0,067	-0,076
-466,401	175,339	0,095	0,099
-465,386	-200,000	-0,022	0,128
-464,372	321,603	0,052	-0,071
-463,357	-200,000	0,006	-0,098
-462,343	761,825	-0,020	-0,039
-461,328	211,649	-0,016	0,018
-460,313	-31,872	0,207	0,083
-459,299	-170,250	0,028	0,001
-458,284	-41,313	-0,139	-0,051
-457,270	800,000	-0,026	0,081
-456,255	800,000	-0,058	0,117
-455,241	762,469	-0,038	0,075
-454,226	-200,000	-0,031	0,100
-453,211	139,252	0,050	0,047
-452,197	800,000	0,027	-0,057
-451,182	87,278	-0,030	0,024
-450,168	38,214	0,072	0,046
-449,153	-141,369	-0,262	-0,019
-448,138	254,646	-0,035	0,043
-447,124	125,181	-0,022	-0,020
-446,109	-24,975	0,037	0,016
-445,095	800,000	0,042	0,109
-444,080	612,058	0,054	0,097
-443,065	67,267	-0,035	0,025
-442,051	-24,880	0,028	0,012
-441,036	-51,261	-0,074	0,025
-440,022	-67,199	-0,141	0,040
-439,007	636,691	0,025	-0,047
-437,992	287,152	0,064	0,083
-436,978	-173,819	0,059	0,001
-435,963	-146,646	-0,101	-0,006
-434,949	800,000	0,053	0,149
-433,934	356,094	-0,020	0,029
-432,919	-31,742	-0,146	-0,059
-431,905	716,137	-0,028	0,055
-430,890	109,056	-0,066	-0,057
-429,876	-156,239	0,180	0,008
-428,861	182,026	0,125	0,133
-427,846	75,393	-0,008	0,006
-426,832	406,464	-0,047	0,071
-425,817	172,752	-0,092	-0,095
-424,803	-125,126	0,147	0,016
-423,788	218,211	0,064	-0,073
-422,773	81,966	0,103	-0,080
-421,759	562,318	0,071	0,124
-420,744	337,115	0,005	-0,007
-419,730	84,259	0,060	-0,047
-418,715	510,024	0,090	0,150
-417,701	108,427	-0,086	0,074
-416,686	83,928	0,036	0,028
-415,671	709,575	-0,061	0,116
-414,657	800,000	0,090	0,237
-413,642	-100,700	0,108	0,019
-412,628	-200,000	-0,013	0,045
-411,613	173,029	0,043	-0,045
-410,598	208,691	0,012	-0,014
-409,584	75,829	-0,036	-0,027
-408,569	-200,000	0,005	0,125
-407,555	212,866	-0,035	0,039
-406,540	53,283	-0,047	-0,033
-405,525	174,328	-0,027	-0,028
-404,511	-200,000	-0,011	0,069
-403,496	520,321	0,089	-0,151
-402,482	-29,694	0,146	0,060
-401,467	-200,000	0,065	-0,000
-400,452	27,040	0,061	0,037
-399,438	-200,000	-0,020	0,101
-398,423	119,115	0,019	0,017
-397,409	-200,000	-0,000	-0,074
-396,394	-200,000	-0,004	-0,052
-395,379	-70,338	-0,058	0,016
-394,365	142,232	-0,042	-0,040
-393,350	-24,285	0,027	-0,011
-392,336	182,511	0,068	0,072
-391,321	-155,044	-0,018	0,001
-390,306	85,687	-0,085	-0,067
-389,292	-200,000	0,002	0,035
-388,277	438,387	0,044	0,069
-387,263	730,201	0,067	0,130
-386,248	-200,000	-0,001	-0,091
-385,233	-200,000	-0,072	0,000
-384,219	-164,520	0,218	0,007
-383,204	-200,000	-0,029	-0,168
-382,190	800,000	0,051	-0,144
-381,175	-133,217	0,098	-0,009
-380,160	-200,000	-0,001	0,114
-379,146	362,201	0,024	0,034
-378,131	-124,594	-0,176	-0,019
-377,117	-200,000	-0,005	-0,067
-376,102	740,295	-0,100	-0,193
-375,088	-115,690	-0,097	-0,013
-374,073	107,758	-0,124	0,106
-373,058	192,110	-0,023	-0,025
-372,044	-56,492	0,123	-0,039
-371,029	-58,017	-0,045	-0,014
-370,015	-200,000	-0,002	-0,080
-369,000	396,588	-0,070	-0,105
-367,985	-200,000	0,019	-0,222
-366,971	651,091	-0,035	-0,065
-365,956	151,297	0,035	0,035
-364,942	800,000	0,011	-0,026
-363,927	167,197	0,031	-0,031
-362,912	-153,217	-0,077	0,004
-361,898	-64,565	-0,061	-0,018
-360,883	-200,000	-0,014	0,070
-359,869	70,622	-0,051	-0,038
-358,854	-200,000	-0,027	0,110
-357,839	-169,011	0,068	-0,002
-356,825	-200,000	-0,011	0,069
-355,810	671,483	-0,007	0,014
-354,796	765,792	0,060	0,118
-353,781	-200,000	0,010	0,073
-352,766	432,573	0,036	-0,056
-351,752	-200,000	-0,013	0,068
-350,737	122,409	0,023	0,020
-349,723	178,014	0,089	-0,093
-348,708	-82,081	0,034	-0,008
-347,693	800,000	0,012	-0,034
-346,679	-200,000	-0,022	-0,132
-345,664	-66,696	-0,072	0,020
-344,650	226,111	-0,063	0,074
-343,635	475,246	0,075	0,121
-342,620	800,000	-0,012	0,032
-341,606	258,869	0,056	0,069
-340,591	-200,000	-0,010	-0,109
-339,577	59,148	-0,125	-0,088
-338,562	-1,962	-0,108	-0,054
-337,548	145,883	-0,050	-0,048
-336,533	800,000	-0,014	0,037
-335,518	16,563	0,165	0,093
-334,504	800,000	-0,013	0,034
-333,489	92,467	0,064	0,051
-332,475	485,936	-0,049	-0,080
-331,460	167,837	0,030	-0,030
-330,445	306,349	-0,093	-0,123
-329,431	139,700	0,086	0,081
-328,416	184,652	-0,057	0,060
-327,402	143,888	-0,063	-0,060
-326,387	60,246	0,084	0,059
-325,372	-106,347	0,074	-0,012
-324,358	-200,000	-0,038	-0,159
-323,343	-200,000	0,060	-0,216
-322,329	800,000	-0,048	-0,125
-321,314	600,526	0,038	-0,067
-320,299	-21,964	0,053	0,023
-319,285	-84,937	0,033	-0,007
-318,270	255,853	-0,028	0,034
-317,256	-200,000	-0,014	-0,096
-316,241	564,446	0,088	-0,153
-315,226	-109,567	0,027	-0,004
-314,212	800,000	0,069	0,159
-313,197	-200,000	-0,017	0,068
-312,183	147,071	-0,090	0,087
-311,168	-200,000	0,003	0,035
-310,153	19,149	-0,133	-0,076
-309,139	800,000	-0,053	0,110
-308,124	-200,000	-0,027	-0,098
-307,110	120,366	0,092	0,082
-306,095	-117,376	0,134	-0,017
-305,080	-200,000	-0,012	0,061
-304,066	-77,775	0,069	-0,017
-303,051	-200,000	-0,017	-0,106
-302,037	210,043	-0,069	0,077
-301,022	-200,000	-0,033	-0,143
-300,008	-94,404	0,119	0,023
-298,993	-200,000	-0,012	0,066
-297,978	-200,000	-0,025	0,133
-296,964	-60,393	0,063	-0,019
-295,949	-133,973	-0,177	0,015
-294,935	54,825	-0,134	-0,092
-293,920	-200,000	-0,026	-0,108
-292,905	-138,622	0,103	-0,008
-291,891	-74,480	0,071	0,018
-290,876	-200,000	0,035	0,119
-289,862	-113,716	-0,116	-0,016
-288,847	-200,000	-0,010	-0,145
-287,832	270,783	0,062	0,079
-286,818	185,162	-0,054	-0,057
-285,803	-200,000	0,033	0,107
-284,789	-50,718	-0,094	0,031
-283,774	-140,725	0,070	-0,005
-282,759	260,223	0,108	0,134
-281,745	-200,000	0,023	-0,125
-280,730	15,851	0,043	0,024
-279,716	-100,979	0,046	-0,008
-278,701	129,020	-0,092	-0,084
-277,686	800,000	-0,050	0,145
-276,672	-200,000	-0,007	-0,084
-275,657	213,992	-0,042	0,048
-274,643	-167,688	-0,123	0,003
-273,628	-200,000	-0,011	-0,048
-272,613	-86,224	-0,155	-0,034
-271,599	-89,916	0,063	-0,013
-270,584	563,258	-0,046	-0,079
-269,570	800,000	0,071	0,143
-268,555	290,300	0,065	-0,085
-267,540	216,939	-0,030	-0,034
-266,526	-154,666	-0,184	-0,009
-265,511	7,965	-0,044	-0,024
-264,497	800,000	0,013	-0,031
-263,482	128,475	0,077	0,070
-262,467	-90,333	-0,041	0,008
-261,453	44,437	0,107	-0,070
-260,438	-15,327	-0,055	0,025
-259,424	800,000	-0,022	-0,055
-258,409	-92,555	0,096	-0,019
-257,395	-200,000	0,012	0,068
-256,380	-200,000	0,021	-0,066
-255,365	-200,000	-0,017	-0,077
-254,351	213,276	-0,114	-0,129
-253,336	69,477	-0,037	-0,027
-252,322	-12,103	-0,044	-0,020
-251,307	-200,000	-0,009	0,149
-250,292	276,030	0,071	0,090
-249,278	-87,954	0,106	-0,023
-248,263	-200,000	-0,008	0,042
-247,249	-200,000	-0,008	0,097
-246,234	301,136	-0,042	0,055
-245,219	502,853	-0,015	0,025
-244,205	-87,023	0,096	-0,021
-243,190	156,610	-0,056	0,056
-242,176	-200,000	-0,023	0,183
-241,161	-85,009	0,059	0,013
-240,146	-90,734	-0,050	0,010
-239,132	-200,000	-0,018	-0,082
-238,117	439,379	-0,043	0,067
-237,103	-200,000	-0,011	0,092
-236,088	-200,000	-0,011	0,038
-235,073	60,743	0,066	0,047
-234,059	171,915	0,171	0,175
-233,044	-77,233	-0,099	-0,024
-232,030	-136,489	-0,104	-0,008
-231,015	248,163	-0,090	-0,108
-230,000	186,731	0,043	-0,046
-228,986	-200,000	-0,006	0,034
-227,971	-65,769	0,081	0,023
-226,957	-132,710	0,162	0,015
-225,942	17,496	0,210	0,118
-224,927	-161,804	-0,076	-0,003
-223,913	-200,000	0,027	0,150
-222,898	97,741	-0,075	0,062
-221,884	800,000	0,037	-0,088
-220,869	164,460	0,017	0,017
-219,855	-200,000	-0,035	0,130
-218,840	-200,000	0,004	0,111
-217,825	57,449	-0,135	-0,093
-216,811	-200,000	-0,007	0,062
-215,796	280,116	0,112	-0,142
-214,782	532,695	-0,022	-0,037
-213,767	800,000	0,016	-0,032
-212,752	92,803	0,083	0,067
-211,738	364,861	0,100	0,144
-210,723	13,580	0,068	0,038
-209,709	-94,877	-0,067	-0,013
-208,694	178,950	-0,079	-0,082
-207,679	112,288	0,102	-0,088
-206,665	690,533	0,051	0,095
-205,650	800,000	0,032	0,087
-204,636	480,755	0,084	0,136
-203,621	-200,000	0,026	0,087
-202,606	18,008	-0,065	-0,037
-201,592	-200,000	-0,002	-0,064
-200,577	146,782	0,040	-0,038
-199,563	519,423	-0,018	0,031
-198,548	800,000	-0,032	-0,079
-197,533	-17,459	0,138	0,062
-196,519	-40,552	0,079	0,029
-195,504	-149,485	-0,104	-0,006
-194,490	326,072	0,022	-0,030
-193,475	-7,183	0,074	0,036
-192,460	309,759	0,073	-0,098
-191,446	278,743	0,071	0,090
-190,431	118,753	-0,070	-0,061
-189,417	284,336	0,023	0,030
-188,402	800,000	-0,017	-0,041
-187,387	89,670	0,015	-0,012
-186,373	-200,000	-0,016	-0,053
-185,358	-200,000	-0,030	-0,100
-184,344	60,483	-0,056	0,040
-183,329	800,000	0,051	-0,140
-182,315	-23,385	0,214	0,091
-181,300	-15,106	-0,041	-0,019
-180,285	428,032	0,039	-0,059
-179,271	-200,000	0,039	-0,158
-178,256	-118,160	0,122	-0,015
-177,242	100,563	-0,093	-0,077
-176,227	-115,326	0,095	-0,013
-175,212	-200,000	0,005	0,154
-174,198	111,452	0,066	0,056
-173,183	-44,928	0,067	0,023
-172,169	-43,990	-0,089	-0,032
-171,154	101,962	-0,034	-0,028
-170,139	-200,000	-0,005	-0,126
-169,125	593,531	0,051	-0,091
-168,110	-53,669	-0,119	0,038
-167,096	800,000	-0,040	-0,095
-166,081	303,172	-0,084	0,110
-165,066	-200,000	0,006	-0,051
-164,052	-200,000	-0,008	-0,061
-163,037	-29,071	-0,153	0,062
-162,023	-200,000	0,027	-0,106
-161,008	800,000	0,066	-0,134
-159,993	800,000	-0,051	-0,114
-158,979	-200,000	0,005	-0,149
-157,964	212,896	0,132	-0,148
-156,950	-51,067	-0,118	-0,039
-155,935	-200,000	0,050	0,190
-154,920	800,000	-0,009	0,029
-153,906	-91,270	0,062	-0,012
-152,891	-13,617	0,124	-0,057
-151,877	-200,000	-0,039	0,159
-150,862	378,486	-0,110	-0,161
-149,847	-51,611	0,104	0,034
-148,833	-200,000	-0,008	0,105
-147,818	-200,000	0,001	0,036
-146,804	-200,000	-0,016	0,106
-145,789	217,628	0,065	-0,074
-144,775	-200,000	-0,003	0,014
-143,760	-200,000	0,005	0,085
-142,745	800,000	0,009	-0,026
-141,731	-103,433	0,117	0,019
-140,716	347,217	-0,024	-0,034
-139,702	-81,401	-0,098	0,023
-138,687	-200,000	-0,015	0,072
-137,672	473,076	0,030	-0,048
-136,658	-200,000	0,012	-0,092
-135,643	-86,175	-0,071	0,015
-134,629	250,337	0,033	-0,040
-133,614	34,079	-0,014	-0,009
-132,599	-148,068	0,079	-0,005
-131,585	-200,000	0,024	0,082
-130,570	46,325	-0,105	0,069
-129,556	800,000	-0,031	-0,086
-128,541	800,000	0,040	0,099
-127,526	800,000	0,031	0,063
-126,512	127,365	0,059	0,053
-125,497	-200,000	0,019	0,068
-124,483	651,963	0,066	0,121
-123,468	147,629	-0,059	-0,056
-122,453	-143,825	-0,140	-0,009
-121,439	-75,236	0,083	-0,021
-120,424	-181,544	-0,052	-0,001
-119,410	800,000	-0,037	0,114
-118,395	156,022	0,111	0,109
-117,380	64,700	0,070	-0,050
-116,366	423,947	0,009	0,014
-115,351	-16,214	0,084	0,038
-114,337	-128,262	-0,075	-0,008
-113,322	-1,220	0,030	0,015
-112,307	-41,941	-0,041	0,015
-111,293	-200,000	0,003	0,106
-110,278	800,000	0,042	0,110
-109,264	245,563	-0,096	0,115
-108,249	800,000	-0,047	0,115
-107,234	173,916	-0,119	0,121
-106,220	70,128	-0,074	-0,054
-105,205	548,523	-0,049	0,083
-104,191	800,000	-0,063	0,176
-103,176	38,927	0,023	-0,014
-102,162	-200,000	-0,001	0,110
-101,147	68,075	-0,091	-0,066
-100,132	603,459	-0,058	-0,104
-99,118	-200,000	0,003	-0,126
-98,103	122,562	-0,037	-0,033
-97,089	-0,572	0,141	-0,070
-96,074	-200,000	0,000	-0,048
-95,059	-22,276	0,005	0,002
-94,045	-148,378	0,063	0,004
-93,030	225,152	-0,085	-0,098
-92,016	-12,969	0,119	0,054
-91,001	136,873	0,095	0,088
-89,986	53,107	-0,085	-0,057
-88,972	-132,262	0,129	-0,012
-87,957	-54,229	0,112	0,036
-86,943	-200,000	0,032	-0,138
-85,928	800,000	-0,022	0,046
-84,913	71,244	0,060	-0,044
-83,899	-167,654	0,037	0,001
-82,884	263,255	0,023	0,028
-81,870	56,423	-0,027	-0,019
-80,855	-142,117	-0,091	-0,006
-79,840	-47,058	-0,087	0,030
-78,826	571,503	0,052	-0,089
-77,811	-200,000	-0,035	-0,145
-76,797	-103,182	-0,128	0,021
-75,782	-44,237	0,098	-0,035
-74,767	19,029	-0,081	-0,046
-73,753	-200,000	-0,001	0,085
-72,738	800,000	-0,015	0,040
-71,724	-97,357	-0,093	-0,017
-70,709	-119,837	-0,047	0,006
-69,694	800,000	-0,017	-0,052
-68,680	588,794	-0,128	-0,224
-67,665	-49,408	0,137	0,046
-66,651	-112,663	-0,144	-0,020
-65,636	-200,000	-0,008	0,061
-64,622	-200,000	0,011	-0,108
-63,607	800,000	-0,074	-0,160
-62,592	-23,838	0,158	-0,067
-61,578	80,772	0,057	0,043
-60,563	800,000	0,049	0,111
-59,549	-200,000	0,026	0,103
-58,534	-12,907	-1,415	-0,649
-57,519	418,582	-1,511	-2,293
-56,505	-200,000	-0,506	-4,337
-55,490	133,543	0,961	0,880
-54,476	800,000	4,904	11,224
-53,461	-200,000	18,297	290,676
-52,446	800,000	727,682	2234,217
-51,432	556,638	1641,824	2809,445
-50,417	78,899	1662,882	1257,744
-49,403	22,471	1536,716	886,670
-48,388	16,459	1460,069	813,391
-47,373	17,818	1449,919	814,236
-46,359	17,118	1440,278	805,448
-45,344	14,764	1435,478	791,526
-44,330	14,677	1433,785	790,147
-43,315	14,675	1432,098	789,175
-42,300	14,694	1430,339	788,263
-41,286	14,688	1429,427	787,701
-40,271	14,661	1428,169	786,850
-39,257	14,711	1426,688	786,241
-38,242	14,728	1425,431	785,596
-37,227	14,772	1424,068	785,024
-36,213	14,726	1422,852	784,104
-35,198	14,704	1421,896	783,443
-34,184	14,721	1420,909	782,947
-33,169	14,667	1419,480	781,873
-32,154	14,728	1418,667	781,680
-31,140	14,766	1417,168	781,003
-30,125	14,757	1416,171	780,383
-29,111	14,716	1414,917	779,466
-28,096	14,706	1413,902	778,831
-27,082	14,673	1412,746	778,008
-26,067	14,644	1411,704	777,267
-25,052	14,683	1410,601	776,814
-24,038	14,608	1409,836	776,010
-23,023	14,646	1408,691	775,524
-22,009	14,639	1407,531	774,822
-20,994	14,584	1406,892	774,183
-19,979	14,652	1405,759	773,848
-18,965	14,572	1404,993	773,020
-17,950	14,535	1404,061	772,303
-16,936	14,568	1403,027	771,860
-15,921	14,546	1401,846	771,075
-14,906	14,527	1401,045	770,518
-13,892	14,568	1400,045	770,129
-12,877	14,563	1399,188	769,601
-11,863	14,533	1398,275	768,932
-10,848	14,562	1397,338	768,521
-9,833	14,501	1396,571	767,783
-8,819	14,498	1395,519	767,160
-7,804	14,459	1394,616	766,453
-6,790	14,462	1393,630	765,895
-5,775	14,461	1392,548	765,266
-4,760	14,468	1391,642	764,772
-3,746	14,475	1390,872	764,349
-2,731	14,430	1390,189	763,738
-1,717	14,429	1389,278	763,201
-0,702	14,474	1387,329	762,308
0,313	18,251	1306,263	735,204
1,327	34,529	704,885	434,327
2,342	53,227	124,200	83,974
3,356	3,120	16,591	8,499
4,371	6,827	3,082	1,617
5,386	-39,114	0,571	0,211
6,400	-200,000	0,007	0,045
7,415	192,278	-0,220	-0,235
8,429	30,542	-0,296	-0,178
9,444	173,785	-0,322	-0,329
10,459	49,544	-0,246	-0,163
11,473	501,719	-0,173	-0,283
12,488	-147,004	-0,397	-0,024
13,502	54,304	-0,245	-0,166
14,517	187,846	-0,238	-0,251
15,531	124,105	-0,288	-0,256
16,546	-13,163	-0,374	-0,171
17,561	220,828	-0,302	-0,343
18,575	-79,933	-0,291	-0,068
19,590	-29,585	-0,281	-0,113
20,604	86,185	-0,132	-0,103
21,619	54,912	-0,475	-0,323
22,634	58,216	-0,349	-0,241
23,648	16,959	-0,420	-0,234
24,663	23,371	-0,374	-0,216
25,677	49,850	-0,317	-0,210
26,692	-101,004	-0,365	-0,063
27,707	5,415	-0,385	-0,200
28,721	83,642	-0,423	-0,325
29,736	-3,897	-0,426	-0,208
30,750	187,657	-0,316	-0,333
31,765	8,382	-0,449	-0,237
32,780	75,667	-0,361	-0,269
33,794	269,009	-0,172	-0,213
34,809	151,324	-0,292	-0,281
35,823	116,387	-0,318	-0,275
36,838	204,536	-0,297	-0,325
37,853	143,063	-0,453	-0,424
38,867	-7,039	-0,461	-0,220
39,882	224,765	-0,257	-0,293
40,896	163,693	-0,294	-0,292
41,911	126,429	-0,368	-0,328
42,926	50,919	-0,416	-0,278
43,940	43,575	-0,445	-0,286
44,955	127,623	-0,353	-0,316
45,969	47,201	-0,334	-0,218
46,984	17,629	-0,311	-0,174
47,999	-58,405	-0,305	-0,093
49,013	-98,721	-0,317	-0,056
50,028	-12,531	-0,371	-0,170
51,042	153,104	-0,338	-0,326
52,057	182,015	-0,305	-0,316
53,071	367,328	-0,227	-0,323
54,086	38,843	-0,531	-0,333
55,101	-57,787	-0,340	-0,104
56,115	15,190	-0,368	-0,203
57,130	-3,958	-0,323	-0,157
58,144	-22,104	-0,424	-0,180
59,159	57,075	-0,350	-0,240
60,174	113,004	-0,305	-0,260
61,188	17,768	-0,453	-0,253
62,203	41,052	-0,293	-0,186
63,217	-17,490	-0,352	-0,155
64,232	105,913	-0,310	-0,258
65,247	48,567	-0,383	-0,252
66,261	201,438	-0,323	-0,350
67,276	174,795	-0,290	-0,295
68,290	318,334	-0,228	-0,304
69,305	258,202	-0,225	-0,273
70,320	145,334	-0,252	-0,237
71,334	194,154	-0,243	-0,259
72,349	219,751	-0,179	-0,202
73,363	42,181	-0,449	-0,286
74,378	412,753	-0,213	-0,319
75,393	122,114	-0,363	-0,318
76,407	47,328	-0,274	-0,179
77,422	114,829	-0,218	-0,187
78,436	269,818	-0,190	-0,235
79,451	123,295	-0,266	-0,234
80,466	-78,704	-0,446	-0,106
81,480	339,510	-0,182	-0,249
82,495	56,902	-0,390	-0,266
83,509	68,206	-0,189	-0,135
84,524	1,320	-0,261	-0,131
85,539	50,739	-0,380	-0,252
86,553	94,807	-0,328	-0,262
87,568	57,305	-0,392	-0,268
88,582	51,454	-0,405	-0,269
89,597	108,645	-0,296	-0,248
90,611	305,554	-0,136	-0,178
91,626	7,961	-0,200	-0,105
92,641	-12,787	-0,333	-0,152
93,655	117,998	-0,268	-0,232
94,670	6,987	-0,287	-0,149
95,684	-45,555	-0,405	-0,140
96,699	149,896	-0,267	-0,254
97,714	52,872	-0,303	-0,203
98,728	75,275	-0,264	-0,195
99,743	-30,067	-0,294	-0,117
100,757	201,239	-0,297	-0,321
101,772	-114,528	-0,321	-0,043
102,787	198,545	-0,257	-0,276
103,801	562,947	-0,221	-0,376
104,816	173,634	-0,304	-0,307
105,830	-80,945	-0,377	-0,087
106,845	-84,318	-0,331	-0,073
107,860	14,476	-0,316	-0,172
108,874	-45,315	-0,312	-0,108
109,889	282,061	-0,175	-0,220
110,903	454,335	-0,090	-0,139
111,918	50,078	-0,274	-0,181
112,933	267,060	-0,164	-0,201
113,947	308,858	-0,155	-0,204
114,962	20,294	-0,307	-0,173
115,976	-12,874	-0,253	-0,115
116,991	43,571	-0,271	-0,173
118,006	329,964	-0,210	-0,283
119,020	25,071	-0,224	-0,130
120,035	-15,520	-0,209	-0,093
121,049	-162,539	-0,321	-0,011
122,064	0,916	-0,185	-0,093
123,079	-85,675	-0,337	-0,073
124,093	11,997	-0,314	-0,168
125,108	108,502	-0,234	-0,195
126,122	603,599	-0,156	-0,272
127,137	149,907	-0,182	-0,173
128,151	-89,551	-0,208	-0,042
129,166	-106,708	-0,324	-0,050
130,181	-59,617	-0,299	-0,089
131,195	13,854	-0,335	-0,182
132,210	-33,298	-0,393	-0,151
133,224	-60,132	-0,263	-0,078
134,239	800,000	-0,045	-0,107
135,254	-71,268	-0,279	-0,073
136,268	43,585	-0,258	-0,164
137,283	109,286	-0,208	-0,174
138,297	145,093	-0,267	-0,250
139,312	215,150	-0,343	-0,381
140,327	114,380	-0,299	-0,254
141,341	-45,245	-0,204	-0,070
142,356	302,854	-0,166	-0,216
143,370	323,273	-0,201	-0,268
144,385	243,502	-0,144	-0,168
145,400	-66,050	-0,301	-0,083
146,414	187,113	-0,329	-0,343
147,429	65,769	-0,255	-0,180
148,443	67,440	-0,233	-0,166
149,458	-200,000	-0,044	-0,173
150,473	129,724	-0,173	-0,155
151,487	381,397	-0,197	-0,283
152,502	435,610	-0,256	-0,390
153,516	97,518	-0,295	-0,236
154,531	800,000	-0,137	-0,278
155,546	-110,645	-0,229	-0,033
156,560	-200,000	-0,085	-0,313
157,575	226,779	-0,232	-0,263
158,589	30,200	-0,384	-0,228
159,604	800,000	-0,146	-0,287
160,619	89,643	-0,186	-0,145
161,633	301,698	-0,214	-0,277
162,648	423,298	-0,154	-0,231
163,662	385,136	-0,097	-0,140
164,677	-9,998	-0,184	-0,085
165,692	-68,364	-0,172	-0,046
166,706	-20,906	-0,262	-0,111
167,721	154,677	-0,277	-0,265
168,735	-85,114	-0,253	-0,055
169,750	61,285	-0,277	-0,191
170,764	48,084	-0,198	-0,128
171,779	800,000	-0,107	-0,227
172,794	215,969	-0,145	-0,161
173,808	800,000	-0,114	-0,225
174,823	145,599	-0,218	-0,203
175,837	275,526	-0,177	-0,219
176,852	82,850	-0,280	-0,212
177,867	-136,860	-0,264	-0,021
178,881	-31,549	-0,354	-0,138
179,896	503,571	-0,137	-0,222
180,910	241,421	-0,145	-0,169
181,925	39,551	-0,306	-0,190
182,940	146,601	-0,193	-0,181
183,954	278,558	-0,175	-0,217
184,969	281,718	-0,193	-0,241
185,983	-39,588	-0,188	-0,068
186,998	357,960	-0,104	-0,145
188,013	77,568	-0,241	-0,178
189,027	7,057	-0,128	-0,066
190,042	101,170	-0,302	-0,245
191,056	105,632	-0,165	-0,136
192,071	-42,568	-0,287	-0,101
193,086	80,674	-0,121	-0,091
194,100	74,865	-0,191	-0,140
195,115	-36,514	-0,303	-0,113
196,129	121,097	-0,190	-0,165
197,144	800,000	-0,124	-0,317
198,159	260,492	-0,162	-0,194
199,173	105,713	-0,216	-0,177
200,188	-25,430	-0,222	-0,091
201,202	332,511	-0,161	-0,216
202,217	283,617	-0,202	-0,253
203,232	258,369	-0,169	-0,202
204,246	131,487	-0,191	-0,171
205,261	-21,124	-0,293	-0,124
206,275	-53,431	-0,140	-0,044
207,290	-57,595	-0,234	-0,071
208,304	59,023	-0,142	-0,097
209,319	220,650	-0,140	-0,156
210,334	-87,931	-0,249	-0,052
211,348	297,916	-0,149	-0,191
212,363	72,720	-0,236	-0,171
213,377	2,309	-0,217	-0,109
214,392	384,913	-0,180	-0,259
215,407	462,532	-0,075	-0,117
216,421	7,709	-0,248	-0,128
217,436	7,068	-0,230	-0,119
218,450	38,264	-0,361	-0,222
219,465	526,049	-0,142	-0,234
220,480	346,085	-0,129	-0,176
221,494	-200,000	-0,064	-0,238
222,509	-86,636	-0,214	0,045
223,523	-44,110	-0,335	-0,116
224,538	207,078	-0,232	-0,252
225,553	390,728	-0,160	-0,231
226,567	132,047	-0,170	-0,152
227,582	-26,210	-0,236	-0,095
228,596	133,787	-0,159	-0,143
229,611	6,497	-0,261	-0,134
230,626	45,917	-0,055	-0,035
231,640	-178,306	-0,224	0,004
232,655	32,275	-0,174	-0,104
233,669	-71,379	-0,287	-0,074
234,684	78,831	-0,161	-0,119
235,699	187,786	-0,185	-0,191
236,713	134,888	-0,151	-0,136
237,728	-7,788	-0,205	-0,096
238,742	-89,744	-0,220	-0,044
239,757	492,578	-0,136	-0,216
240,772	800,000	-0,122	-0,261
241,786	-21,127	-0,209	-0,088
242,801	116,677	-0,087	0,074
243,815	95,775	-0,162	-0,128
244,830	9,861	-0,121	-0,063
245,844	-37,561	-0,204	-0,075
246,859	378,474	-0,151	-0,215
247,874	502,585	-0,181	-0,290
248,888	-76,367	-0,190	-0,046
249,903	8,090	-0,161	-0,083
250,917	122,401	-0,155	-0,134
251,932	6,339	-0,209	-0,107
252,947	800,000	-0,029	-0,085
253,961	615,714	-0,187	-0,326
254,976	-41,743	-0,239	-0,085
255,990	99,548	-0,101	-0,080
257,005	-200,000	-0,047	-0,237
258,020	800,000	-0,072	-0,208
259,034	-200,000	0,000	-0,028
260,049	461,501	-0,114	-0,177
261,063	-169,318	-0,180	-0,004
262,078	19,291	-0,295	-0,163
263,093	30,359	-0,260	-0,153
264,107	386,591	-0,117	-0,167
265,122	-52,119	-0,196	-0,062
266,136	220,241	-0,139	-0,154
267,151	434,578	-0,126	-0,189
268,166	-90,920	-0,055	0,011
269,180	9,355	-0,256	-0,133
270,195	-41,353	-0,203	-0,072
271,209	-197,995	-0,230	0,001
272,224	34,139	-0,092	-0,055
273,239	-200,000	-0,023	-0,174
274,253	124,777	-0,115	-0,100
275,268	-200,000	-0,048	-0,242
276,282	113,620	-0,130	-0,109
277,297	-61,770	-0,230	-0,066
278,312	348,045	-0,145	-0,198
279,326	309,392	-0,166	-0,214
280,341	21,982	-0,200	-0,112
281,355	734,055	-0,111	-0,206
282,370	85,517	-0,171	-0,129
283,384	67,321	-0,196	-0,138
284,399	458,966	-0,146	-0,225
285,414	47,991	-0,249	-0,160
286,428	-199,501	-0,159	-0,001
287,443	-44,383	-0,103	-0,035
288,457	344,717	-0,107	-0,145
289,472	504,090	-0,151	-0,241
290,487	-18,891	-0,211	-0,090
291,501	-98,115	-0,239	-0,042
292,516	-200,000	-0,076	-0,254
293,530	246,210	-0,094	-0,110
294,545	-200,000	-0,022	-0,098
295,560	-61,121	-0,133	-0,039
296,574	446,827	-0,118	-0,180
297,589	-76,871	-0,272	-0,065
298,603	-15,676	-0,240	-0,105
299,618	-113,933	-0,106	-0,014
300,633	134,574	-0,137	-0,123
301,647	-119,065	-0,116	-0,014
302,662	-4,174	-0,101	-0,048
303,676	-134,192	-0,208	-0,017
304,691	149,054	-0,187	-0,174
305,706	112,860	-0,180	-0,150
306,720	408,452	-0,147	-0,215
307,735	-19,918	-0,244	-0,103
308,749	98,531	-0,133	-0,105
309,764	-18,655	-0,168	-0,072
310,779	-200,000	-0,002	-0,141
311,793	-182,457	-0,240	0,003
312,808	-25,288	-0,076	0,031
313,822	-69,335	-0,286	-0,075
314,837	92,794	-0,145	-0,113
315,852	81,987	-0,087	-0,065
316,866	-68,979	-0,193	-0,051
317,881	-87,794	-0,170	-0,035
318,895	188,848	-0,195	-0,201
319,910	-200,000	-0,020	-0,155
320,925	111,590	-0,267	-0,222
321,939	-79,180	-0,172	-0,040
322,954	-88,633	-0,212	0,043
323,968	634,615	-0,072	-0,126
324,983	82,985	-0,104	-0,077
325,997	386,188	-0,128	-0,182
327,012	259,194	-0,116	-0,138
328,027	150,994	-0,173	-0,161
329,041	800,000	-0,051	-0,122
330,056	60,091	-0,141	-0,096
331,070	-28,948	-0,138	-0,054
332,085	42,722	-0,225	-0,141
333,100	568,746	-0,083	-0,140
334,114	141,172	-0,121	-0,110
335,129	4,153	-0,211	-0,106
336,143	41,123	-0,169	-0,105
337,158	-200,000	-0,033	-0,144
338,173	-200,000	-0,012	-0,067
339,187	800,000	-0,103	-0,197
340,202	40,659	-0,185	-0,114
341,216	89,967	-0,202	-0,155
342,231	168,306	-0,206	-0,201
343,246	-75,156	-0,167	-0,041
344,260	18,015	-0,166	-0,091
345,275	51,312	-0,171	-0,111
346,289	136,993	-0,100	-0,090
347,304	195,385	-0,110	-0,114
348,319	567,726	-0,059	-0,098
349,333	594,640	-0,114	-0,194
350,348	229,370	-0,124	-0,139
351,362	-98,464	-0,091	-0,016
352,377	-28,204	-0,192	-0,076
353,392	58,674	-0,134	-0,090
354,406	-88,257	-0,114	-0,023
355,421	210,579	1312,292	1414,630
356,435	162,120	1472,736	1415,152
