DTS Sentinel unit serial number:	SN410029Multiplexer serial number:	ORYXHardware model number:	OX2-SRSoftware version number:	ORYX F/W v4,00 Oryx Data Collector v3.7.2.0data status	okinstallation	B3 Nyhavnadifferential loss correction	single-endedforward channel	channel 1reverse channel	N/Adate	2023/11/30time	03:57:30forward acquisition time	300,00reverse acquisition time	0,00gamma	499,1914k internal	0,3211k external	0,3211temperature offset calibration	1,0000default loss term (dB/km)	0,3820temperature slope calibration	1,0000multiplexer offset coefficient	1,0000multiplexer slope coefficient	1,0000fibre end	0,00T internal ref (°C)	10,14T ext. ref 1 (°C)	-5,35T ext. ref 2 (°C)	-5,43length (m)	temperature (°C)	Stokes	anti-Stokes-744,400	287,185	-0,176	-0,231
-743,385	-200,000	0,031	0,251
-742,371	239,010	-0,166	-0,200
-741,356	-200,000	0,046	0,290
-740,342	253,519	-0,168	-0,209
-739,327	474,528	-0,116	0,190
-738,312	21,669	-0,265	-0,156
-737,298	117,093	-0,199	0,178
-736,283	175,542	-0,190	-0,200
-735,269	-200,000	-0,054	0,285
-734,254	156,249	-0,244	-0,244
-733,239	33,465	-0,186	0,117
-732,225	272,429	-0,141	-0,181
-731,210	-95,273	0,165	0,032
-730,196	-182,330	-0,099	-0,001
-729,181	-127,591	0,023	-0,002
-728,167	661,180	-0,099	-0,185
-727,152	301,437	-0,055	-0,073
-726,137	-200,000	-0,008	0,196
-725,123	800,000	-0,035	-0,103
-724,108	-200,000	-0,046	-0,149
-723,094	240,123	-0,090	-0,109
-722,079	455,502	0,034	-0,055
-721,064	18,916	0,081	-0,047
-720,050	-200,000	-0,019	-0,081
-719,035	85,211	-0,059	-0,047
-718,021	-155,471	-0,153	0,007
-717,006	481,907	-0,005	0,009
-715,991	-46,546	-0,093	-0,033
-714,977	-200,000	-0,014	-0,154
-713,962	-33,556	-0,203	0,081
-712,948	-5,392	0,123	-0,061
-711,933	240,681	-0,091	-0,110
-710,918	68,715	-0,059	0,044
-709,904	-200,000	0,003	0,024
-708,889	69,183	-0,196	-0,146
-707,875	-66,069	-0,113	-0,032
-706,860	11,946	-0,169	-0,094
-705,845	-200,000	0,023	0,170
-704,831	288,726	0,002	0,003
-703,816	65,417	-0,057	0,041
-702,802	800,000	0,048	-0,135
-701,787	76,199	-0,123	-0,094
-700,772	285,175	0,015	0,020
-699,758	-200,000	0,007	-0,079
-698,743	105,007	-0,053	-0,045
-697,729	83,072	-0,093	0,073
-696,714	-68,997	0,043	0,012
-695,699	-200,000	0,003	0,062
-694,685	110,688	-0,016	-0,014
-693,670	156,432	-0,118	-0,118
-692,656	96,871	0,102	-0,085
-691,641	-200,000	0,009	0,087
-690,627	57,679	0,045	0,032
-689,612	-200,000	-0,031	0,148
-688,597	-77,712	-0,056	-0,014
-687,583	800,000	-0,017	0,039
-686,568	105,304	-0,066	-0,057
-685,554	388,947	0,006	0,009
-684,539	-200,000	-0,017	0,092
-683,524	-23,909	0,116	0,050
-682,510	-153,496	-0,173	0,009
-681,495	-97,246	-0,070	-0,013
-680,481	149,723	-0,050	0,049
-679,466	-14,045	-0,083	-0,038
-678,451	-61,310	-0,082	0,025
-677,437	-4,247	0,075	0,037
-676,422	-200,000	0,012	-0,087
-675,408	98,689	-0,052	-0,043
-674,393	-41,749	0,011	0,004
-673,378	50,023	-0,163	-0,111
-672,364	618,349	0,021	0,037
-671,349	-200,000	-0,016	-0,076
-670,335	83,788	-0,049	0,039
-669,320	-200,000	-0,008	-0,088
-668,305	504,890	0,085	0,143
-667,291	-44,681	0,099	0,035
-666,276	71,873	-0,129	-0,097
-665,262	-55,795	-0,186	-0,060
-664,247	634,758	0,044	-0,081
-663,232	-97,758	0,129	-0,024
-662,218	260,442	-0,008	0,010
-661,203	-49,259	0,168	-0,058
-660,189	-200,000	-0,122	-0,000
-659,174	64,721	0,069	-0,050
-658,159	-200,000	-0,010	-0,102
-657,145	271,507	-0,033	0,042
-656,130	-56,295	0,041	-0,013
-655,116	800,000	-0,049	0,109
-654,101	87,975	0,079	-0,063
-653,086	-11,708	-0,153	-0,072
-652,072	800,000	-0,019	-0,044
-651,057	84,182	-0,086	-0,068
-650,043	549,408	-0,080	-0,140
-649,028	-105,716	0,116	-0,019
-648,014	800,000	-0,022	-0,056
-646,999	-200,000	-0,007	0,038
-645,984	-200,000	0,007	0,100
-644,970	7,355	-0,075	0,040
-643,955	800,000	-0,033	-0,084
-642,941	166,167	-0,044	-0,045
-641,926	53,598	-0,048	-0,033
-640,911	-200,000	0,003	-0,078
-639,897	-200,000	0,016	-0,121
-638,882	-200,000	-0,022	-0,073
-637,868	367,851	-0,055	-0,080
-636,853	47,783	0,108	-0,072
-635,838	-132,059	-0,112	0,010
-634,824	224,642	0,085	-0,099
-633,809	-103,637	0,072	0,012
-632,795	-79,554	0,095	-0,023
-631,780	284,482	-0,049	0,064
-630,765	97,732	-0,045	-0,037
-629,751	-48,079	-0,073	-0,025
-628,736	-140,474	-0,067	0,005
-627,722	182,496	-0,148	0,158
-626,707	587,939	0,082	0,147
-625,692	800,000	0,040	0,120
-624,678	-200,000	0,017	0,066
-623,663	154,770	-0,027	0,027
-622,649	246,068	0,013	0,015
-621,634	800,000	-0,058	-0,140
-620,619	-200,000	-0,011	0,076
-619,605	-50,354	-0,140	0,047
-618,590	800,000	0,058	0,165
-617,576	140,550	0,104	0,100
-616,561	-24,479	-0,055	-0,024
-615,546	-200,000	0,001	-0,127
-614,532	800,000	-0,010	0,023
-613,517	-107,961	0,059	0,009
-612,503	387,400	0,088	0,132
-611,488	800,000	-0,093	-0,198
-610,474	800,000	-0,021	0,049
-609,459	239,123	0,095	0,114
-608,444	-0,626	-0,036	0,018
-607,430	34,477	-0,178	-0,112
-606,415	-136,362	0,097	0,008
-605,401	-200,000	-0,039	-0,127
-604,386	-200,000	0,000	0,038
-603,371	63,205	0,136	0,098
-602,357	-200,000	0,025	0,167
-601,342	-200,000	-0,000	0,030
-600,328	617,033	-0,067	-0,122
-599,313	-109,800	0,071	0,011
-598,298	-79,831	0,068	-0,016
-597,284	-11,823	0,147	0,069
-596,269	-51,575	-0,078	0,026
-595,255	-200,000	-0,017	-0,076
-594,240	-23,885	0,110	-0,047
-593,225	142,859	0,097	0,093
-592,211	217,609	-0,051	-0,059
-591,196	-150,264	-0,112	0,006
-590,182	-76,804	-0,114	0,029
-589,167	-200,000	0,003	0,057
-588,152	-23,269	-0,054	-0,023
-587,138	-101,027	-0,085	0,015
-586,123	127,325	-0,143	-0,130
-585,109	-200,000	0,005	-0,111
-584,094	800,000	-0,021	-0,065
-583,079	-123,107	0,111	0,013
-582,065	604,970	0,023	-0,042
-581,050	35,981	-0,007	0,005
-580,036	-200,000	0,034	0,115
-579,021	-112,264	-0,179	0,026
-578,006	30,665	-0,074	-0,045
-576,992	-200,000	-0,004	0,024
-575,977	-200,000	0,003	-0,078
-574,963	-131,530	0,060	-0,006
-573,948	-18,758	0,023	-0,010
-572,934	-200,000	-0,021	0,072
-571,919	-187,451	-0,104	0,001
-570,904	225,259	-0,141	-0,165
-569,890	155,566	0,065	-0,065
-568,875	-200,000	-0,005	0,104
-567,861	-87,376	-0,091	-0,020
-566,846	670,000	0,030	0,056
-565,831	-109,061	-0,011	-0,002
-564,817	139,949	-0,087	0,083
-563,802	-200,000	-0,002	-0,058
-562,788	-68,119	-0,080	0,022
-561,773	-152,484	-0,053	0,003
-560,758	-200,000	0,006	-0,060
-559,744	-72,528	-0,121	0,032
-558,729	-26,186	0,091	0,038
-557,715	-200,000	-0,028	-0,163
-556,700	-164,913	0,120	-0,004
-555,685	-200,000	0,010	0,074
-554,671	-9,453	-0,091	0,044
-553,656	255,458	0,013	-0,016
-552,642	-114,786	0,103	-0,014
-551,627	68,309	0,013	-0,010
-550,612	800,000	0,027	-0,059
-549,598	259,371	-0,105	-0,131
-548,583	184,569	-0,032	0,034
-547,569	-158,674	-0,035	0,001
-546,554	81,627	-0,064	0,050
-545,539	-115,178	0,119	0,016
-544,525	6,673	0,026	-0,014
-543,510	800,000	-0,106	-0,237
-542,496	-200,000	-0,029	-0,121
-541,481	-119,287	-0,146	-0,018
-540,466	-77,159	0,038	-0,010
-539,452	-200,000	-0,007	0,114
-538,437	86,761	-0,061	0,048
-537,423	-200,000	0,001	0,095
-536,408	800,000	-0,036	-0,078
-535,393	-200,000	0,020	-0,097
-534,379	-200,000	-0,005	-0,065
-533,364	200,919	0,046	-0,050
-532,350	-103,399	0,121	0,020
-531,335	30,147	-0,126	0,077
-530,321	-200,000	0,005	0,046
-529,306	-200,000	0,038	-0,126
-528,291	-39,329	0,051	0,019
-527,277	800,000	-0,031	-0,087
-526,262	-200,000	0,027	-0,119
-525,248	-200,000	-0,007	-0,082
-524,233	-200,000	0,027	0,179
-523,218	80,452	0,105	0,081
-522,204	-93,704	0,067	0,013
-521,189	800,000	-0,042	-0,128
-520,175	393,553	0,065	0,097
-519,160	325,523	0,046	-0,064
-518,145	15,638	0,037	-0,021
-517,131	-200,000	-0,003	-0,069
-516,116	-57,973	0,091	0,029
-515,102	-200,000	0,011	0,061
-514,087	588,536	-0,052	-0,092
-513,072	59,318	-0,082	-0,058
-512,058	77,228	0,067	0,051
-511,043	-50,364	0,108	0,036
-510,029	657,685	0,091	0,169
-509,014	800,000	0,027	0,057
-507,999	413,998	0,076	0,117
-506,985	722,322	-0,045	0,086
-505,970	-94,811	-0,100	-0,019
-504,956	46,471	-0,125	-0,083
-503,941	800,000	0,041	-0,109
-502,926	-120,830	0,060	-0,007
-501,912	163,079	0,119	-0,121
-500,897	81,047	-0,071	0,055
-499,883	-9,696	-0,063	0,030
-498,868	14,743	-0,076	-0,043
-497,853	-140,258	0,082	-0,006
-496,839	130,596	0,021	-0,020
-495,824	263,341	0,106	-0,133
-494,810	-92,658	0,114	-0,023
-493,795	461,135	-0,041	0,066
-492,781	273,218	-0,068	0,086
-491,766	-91,566	-0,067	-0,014
-490,751	222,075	0,066	0,076
-489,737	648,224	-0,063	-0,117
-488,722	37,065	0,211	0,134
-487,708	800,000	0,060	0,145
-486,693	265,327	-0,108	0,136
-485,678	16,549	-0,040	0,023
-484,664	-192,470	0,050	0,000
-483,649	36,591	0,058	-0,037
-482,635	-31,679	-0,048	-0,019
-481,620	-200,000	-0,022	0,126
-480,605	255,182	-0,116	0,143
-479,591	800,000	-0,084	0,193
-478,576	-86,449	0,063	-0,014
-477,562	63,417	0,049	-0,035
-476,547	-34,668	-0,154	0,060
-475,532	-6,441	-0,052	0,025
-474,518	-3,717	-0,040	0,020
-473,503	800,000	0,060	0,130
-472,489	-162,177	-0,037	0,001
-471,474	467,588	-0,076	-0,123
-470,459	147,769	0,118	-0,114
-469,445	-56,980	-0,047	-0,015
-468,430	155,250	-0,126	-0,125
-467,416	-200,000	-0,012	-0,128
-466,401	487,532	-0,066	0,108
-465,386	-200,000	0,015	-0,089
-464,372	-200,000	0,008	0,052
-463,357	-157,571	-0,089	0,004
-462,343	106,736	-0,100	-0,085
-461,328	-45,222	0,083	0,029
-460,313	117,191	0,069	0,061
-459,299	437,681	-0,051	0,081
-458,284	135,039	-0,051	0,048
-457,270	-52,382	0,106	-0,035
-456,255	14,981	0,040	-0,022
-455,241	14,026	-0,061	0,034
-454,226	-118,782	-0,075	0,009
-453,211	-200,000	-0,002	0,074
-452,197	-200,000	-0,006	0,023
-451,182	-35,060	-0,154	0,060
-450,168	800,000	0,008	0,017
-449,153	198,161	-0,101	0,111
-448,138	-71,822	-0,108	-0,029
-447,124	174,885	-0,065	0,067
-446,109	800,000	-0,011	0,025
-445,095	800,000	0,015	0,040
-444,080	67,380	0,066	-0,048
-443,065	-200,000	-0,001	-0,045
-442,051	204,846	-0,055	0,061
-441,036	663,754	-0,037	-0,068
-440,022	800,000	-0,100	-0,204
-439,007	-134,014	0,036	0,003
-437,992	800,000	-0,041	0,092
-436,978	-72,387	0,179	-0,047
-435,963	-95,944	0,065	-0,012
-434,949	800,000	-0,015	0,034
-433,934	-117,592	0,036	-0,005
-432,919	-200,000	-0,024	-0,081
-431,905	-200,000	0,035	0,136
-430,890	-200,000	0,008	0,051
-429,876	246,059	0,070	0,085
-428,861	554,385	0,090	0,155
-427,846	147,797	0,046	-0,045
-426,832	453,217	-0,096	-0,152
-425,817	81,817	-0,089	0,069
-424,803	21,003	0,042	0,024
-423,788	3,785	0,077	0,040
-422,773	-143,616	-0,016	-0,001
-421,759	515,705	-0,087	0,146
-420,744	141,352	-0,135	0,128
-419,730	55,055	-0,062	-0,043
-418,715	-176,274	0,100	0,002
-417,701	-2,638	-0,035	0,017
-416,686	92,202	-0,121	0,098
-415,671	355,401	-0,039	-0,055
-414,657	279,511	0,136	0,175
-413,642	227,872	-0,079	0,093
-412,628	-51,591	-0,041	-0,014
-411,613	-200,000	-0,018	-0,070
-410,598	800,000	-0,081	-0,186
-409,584	54,641	-0,158	-0,109
-408,569	-194,283	0,075	0,000
-407,555	-113,864	-0,127	0,017
-406,540	71,106	-0,075	-0,056
-405,525	207,927	0,078	-0,088
-404,511	88,383	-0,073	-0,058
-403,496	-200,000	0,025	-0,098
-402,482	-12,314	0,194	0,091
-401,467	-135,682	0,070	-0,006
-400,452	-86,237	0,045	-0,010
-399,438	97,959	0,061	0,050
-398,423	-200,000	0,036	-0,160
-397,409	26,236	-0,107	-0,064
-396,394	-102,872	0,047	-0,008
-395,379	158,786	-0,027	-0,027
-394,365	40,382	0,044	-0,028
-393,350	-200,000	-0,035	0,150
-392,336	512,674	-0,084	0,141
-391,321	22,284	-0,175	-0,102
-390,306	-135,711	0,044	-0,004
-389,292	-200,000	0,029	-0,142
-388,277	-200,000	0,017	-0,154
-387,263	-21,847	0,100	0,043
-386,248	-200,000	0,031	-0,109
-385,233	-200,000	-0,003	0,066
-384,219	94,057	0,070	-0,057
-383,204	-89,757	0,016	-0,003
-382,190	262,527	-0,056	0,069
-381,175	-58,618	0,041	-0,013
-380,160	800,000	0,004	-0,008
-379,146	-109,115	-0,052	-0,008
-378,131	-115,149	0,090	0,012
-377,117	66,032	0,159	0,115
-376,102	-59,514	-0,151	-0,046
-375,088	681,809	0,104	-0,194
-374,073	-200,000	-0,016	0,068
-373,058	466,671	0,085	0,137
-372,044	-128,646	-0,027	-0,003
-371,029	268,484	0,083	0,104
-370,015	199,544	0,055	0,060
-369,000	35,756	-0,131	-0,082
-367,985	-84,826	-0,009	-0,002
-366,971	-95,473	0,057	-0,011
-365,956	-200,000	-0,011	0,131
-364,942	-69,596	0,172	0,047
-363,927	800,000	-0,055	-0,113
-362,912	-37,389	-0,137	-0,052
-361,898	-200,000	-0,003	0,056
-360,883	-200,000	-0,032	0,121
-359,869	24,104	0,071	0,042
-358,854	-200,000	-0,020	-0,123
-357,839	-200,000	0,025	-0,129
-356,825	800,000	0,043	0,116
-355,810	-77,801	0,135	0,033
-354,796	15,809	-0,154	-0,087
-353,781	-200,000	0,008	-0,048
-352,766	-200,000	-0,020	-0,159
-351,752	282,981	0,065	0,084
-350,737	-200,000	0,005	0,051
-349,723	561,070	0,047	-0,082
-348,708	82,222	0,053	-0,041
-347,693	-200,000	-0,023	-0,072
-346,679	730,527	-0,039	0,074
-345,664	3,332	-0,088	-0,045
-344,650	-76,311	0,095	-0,024
-343,635	106,347	-0,024	0,020
-342,620	-108,730	0,093	0,014
-341,606	-150,025	0,083	-0,005
-340,591	-200,000	-0,025	0,113
-339,577	800,000	-0,008	-0,017
-338,562	176,110	-0,045	0,047
-337,548	-68,563	-0,040	-0,011
-336,533	-52,849	-0,036	0,012
-335,518	309,229	-0,054	0,072
-334,504	-200,000	0,009	0,118
-333,489	339,076	-0,032	-0,045
-332,475	598,582	0,052	0,093
-331,460	476,048	-0,016	-0,026
-330,445	114,761	0,102	-0,088
-329,431	49,171	0,195	-0,131
-328,416	-150,971	0,133	-0,007
-327,402	-200,000	0,011	0,119
-326,387	-140,231	0,116	-0,009
-325,372	54,056	0,138	0,095
-324,358	-55,547	-0,143	-0,045
-323,343	245,677	0,055	0,066
-322,329	-200,000	0,001	-0,017
-321,314	248,056	-0,054	-0,065
-320,299	-150,811	0,053	0,003
-319,285	50,034	-0,063	0,042
-318,270	-200,000	-0,033	0,124
-317,256	7,714	-0,012	-0,007
-316,241	-114,283	0,071	-0,010
-315,226	800,000	-0,008	0,018
-314,212	308,678	-0,077	-0,103
-313,197	163,945	0,067	-0,067
-312,183	-71,071	-0,056	0,015
-311,168	323,371	0,053	0,072
-310,153	9,268	-0,090	-0,048
-309,139	-35,299	-0,190	-0,073
-308,124	-135,452	-0,097	-0,008
-307,110	-130,759	0,183	0,017
-306,095	316,007	0,086	0,116
-305,080	44,963	0,098	-0,064
-304,066	-157,419	-0,151	0,006
-303,051	-19,879	-0,082	0,036
-302,037	17,309	-0,181	0,102
-301,022	-200,000	0,010	0,087
-300,008	19,661	0,047	0,027
-298,993	160,106	-0,016	0,016
-297,978	95,597	-0,061	-0,049
-296,964	520,670	0,018	-0,029
-295,949	187,282	0,008	-0,008
-294,935	232,315	-0,044	-0,051
-293,920	-129,413	-0,020	-0,002
-292,905	-50,177	0,083	0,028
-291,891	354,550	0,058	0,083
-290,876	-200,000	0,000	-0,053
-289,862	22,629	-0,059	-0,034
-288,847	-170,869	-0,104	0,002
-287,832	-35,362	0,058	0,022
-286,818	643,390	-0,054	-0,099
-285,803	800,000	0,069	0,138
-284,789	-70,877	0,066	-0,018
-283,774	-78,910	0,129	0,031
-282,759	-55,683	-0,067	0,021
-281,745	-118,851	0,027	-0,003
-280,730	-148,648	-0,142	-0,008
-279,716	-107,104	0,093	0,014
-278,701	88,147	-0,076	0,060
-277,686	-72,005	0,043	-0,011
-276,672	-183,043	-0,097	-0,001
-275,657	-2,881	-0,081	-0,040
-274,643	392,754	-0,088	-0,131
-273,628	800,000	-0,019	0,046
-272,613	163,001	-0,056	-0,056
-271,599	-32,734	0,073	0,029
-270,584	-200,000	-0,011	0,071
-269,570	7,952	0,046	-0,025
-268,555	-55,286	-0,108	-0,034
-267,540	800,000	-0,028	-0,073
-266,526	704,271	-0,058	-0,109
-265,511	800,000	-0,030	-0,060
-264,497	-200,000	0,004	0,024
-263,482	93,344	0,054	-0,043
-262,467	800,000	-0,050	-0,102
-261,453	247,585	-0,059	0,071
-260,438	800,000	0,061	-0,169
-259,424	-200,000	-0,005	-0,029
-258,409	800,000	-0,012	0,035
-257,395	-91,177	0,124	0,025
-256,380	-79,719	0,084	0,020
-255,365	-200,000	-0,005	0,102
-254,351	-109,304	0,067	-0,010
-253,336	800,000	0,028	-0,077
-252,322	185,263	-0,076	-0,081
-251,307	164,746	-0,014	0,014
-250,292	-128,697	0,124	-0,012
-249,278	-77,621	0,076	-0,018
-248,263	-200,000	0,023	0,129
-247,249	158,962	0,064	-0,064
-246,234	-123,586	-0,208	-0,023
-245,219	97,229	-0,123	-0,100
-244,205	800,000	0,021	-0,044
-243,190	-200,000	0,009	0,114
-242,176	-200,000	-0,023	-0,143
-241,161	-72,053	0,049	0,013
-240,146	27,202	0,139	-0,083
-239,132	230,211	-0,108	-0,125
-238,117	668,054	0,100	-0,184
-237,103	107,845	-0,052	-0,044
-236,088	41,911	0,070	0,045
-235,073	323,305	0,031	0,041
-234,059	249,128	-0,084	0,101
-233,044	-40,824	0,118	-0,043
-232,030	-200,000	-0,021	0,147
-231,015	636,031	0,082	-0,149
-230,000	-47,620	-0,058	-0,020
-228,986	15,712	0,113	0,063
-227,971	1,161	0,176	0,090
-226,957	758,427	0,049	0,095
-225,942	-200,000	0,010	0,144
-224,927	342,835	0,004	-0,006
-223,913	-49,446	-0,040	0,014
-222,898	-200,000	0,011	-0,063
-221,884	132,612	0,085	0,078
-220,869	800,000	0,028	-0,068
-219,855	-12,985	-0,095	0,044
-218,840	-200,000	-0,017	0,194
-217,825	-200,000	0,009	-0,128
-216,811	-123,043	0,033	-0,004
-215,796	286,241	0,034	-0,044
-214,782	-115,496	-0,100	-0,013
-213,767	209,952	-0,139	-0,155
-212,752	210,014	0,074	-0,083
-211,738	-155,483	0,146	0,007
-210,723	-200,000	0,020	0,108
-209,709	-200,000	0,004	0,069
-208,694	145,215	0,139	-0,132
-207,679	62,978	-0,080	-0,056
-206,665	-139,380	0,170	0,013
-205,650	358,105	0,048	0,068
-204,636	-99,474	0,055	-0,010
-203,621	472,464	0,054	0,086
-202,606	-73,374	0,094	-0,024
-201,592	-60,646	-0,032	0,009
-200,577	447,823	0,020	0,031
-199,563	800,000	0,018	0,040
-198,548	188,783	0,062	-0,066
-197,533	-98,009	0,038	-0,007
-196,519	109,092	0,098	0,083
-195,504	28,523	-0,159	0,095
-194,490	284,974	0,070	-0,089
-193,475	-7,216	-0,058	0,028
-192,460	-46,450	0,040	-0,014
-191,446	-65,489	0,066	0,019
-190,431	800,000	-0,013	-0,028
-189,417	59,748	0,058	0,040
-188,402	800,000	0,024	-0,052
-187,387	-200,000	0,009	-0,031
-186,373	20,501	-0,135	-0,077
-185,358	-138,606	0,086	-0,007
-184,344	423,076	-0,057	0,087
-183,329	12,876	0,077	-0,042
-182,315	-200,000	0,000	0,017
-181,300	-2,568	-0,092	-0,045
-180,285	-200,000	-0,000	0,086
-179,271	123,458	-0,079	-0,070
-178,256	55,917	-0,057	-0,039
-177,242	82,693	-0,077	0,060
-176,227	206,474	-0,028	-0,031
-175,212	-200,000	0,033	0,119
-174,198	-18,572	0,020	0,009
-173,183	182,069	-0,036	0,037
-172,169	490,073	0,074	-0,120
-171,154	-200,000	0,000	-0,049
-170,139	-38,099	-0,108	0,040
-169,125	318,272	-0,072	-0,097
-168,110	209,945	0,070	-0,078
-167,096	-20,734	0,014	-0,006
-166,081	313,435	-0,121	-0,161
-165,066	233,043	0,028	-0,032
-164,052	800,000	0,039	0,116
-163,037	800,000	0,030	0,062
-162,023	-200,000	0,067	0,000
-161,008	-132,855	0,030	0,003
-159,993	-200,000	0,061	0,199
-158,979	28,070	0,013	-0,008
-157,964	492,186	-0,024	-0,038
-156,950	76,184	-0,050	-0,037
-155,935	3,380	0,031	0,016
-154,920	-32,591	0,194	0,076
-153,906	-200,000	-0,029	0,149
-152,891	483,624	-0,036	-0,059
-151,877	-200,000	-0,002	-0,064
-150,862	469,748	-0,101	-0,162
-149,847	30,372	0,139	-0,084
-148,833	77,002	0,075	0,057
-147,818	214,970	-0,059	0,067
-146,804	63,652	0,091	0,064
-145,789	-65,599	-0,044	0,012
-144,775	-200,000	0,058	-0,185
-143,760	-99,236	-0,088	-0,016
-142,745	-200,000	0,022	-0,150
-141,731	-133,287	0,097	0,009
-140,716	-200,000	-0,010	0,072
-139,702	114,938	0,155	0,134
-138,687	-158,393	0,160	0,006
-137,672	-173,600	-0,109	-0,002
-136,658	17,600	-0,082	0,046
-135,643	-200,000	-0,023	-0,080
-134,629	63,668	0,068	-0,048
-133,614	666,338	0,065	0,120
-132,599	-200,000	-0,017	0,102
-131,585	609,902	-0,013	-0,024
-130,570	-67,126	-0,027	-0,007
-129,556	-69,597	-0,073	-0,020
-128,541	19,664	-0,016	-0,009
-127,526	-200,000	0,012	-0,080
-126,512	-200,000	0,021	-0,067
-125,497	-4,346	0,029	0,014
-124,483	69,710	0,052	0,038
-123,468	-200,000	-0,063	0,000
-122,453	-200,000	-0,100	-0,000
-121,439	800,000	-0,030	-0,071
-120,424	-89,208	-0,130	-0,027
-119,410	58,535	0,064	0,044
-118,395	-200,000	-0,003	-0,082
-117,380	354,557	0,011	0,015
-116,366	-75,901	0,076	-0,019
-115,351	46,830	0,046	0,030
-114,337	264,339	-0,078	-0,096
-113,322	-168,151	0,112	-0,003
-112,307	-200,000	0,003	0,052
-111,293	537,943	-0,090	0,152
-110,278	207,634	-0,078	0,086
-109,264	800,000	0,054	0,139
-108,249	-200,000	-0,000	-0,029
-107,234	-15,920	0,101	-0,045
-106,220	-129,400	-0,128	-0,012
-105,205	590,935	0,013	-0,023
-104,191	-200,000	-0,002	0,018
-103,176	800,000	0,038	0,085
-102,162	800,000	0,019	-0,050
-101,147	595,995	0,042	0,073
-100,132	502,831	0,023	0,037
-99,118	-200,000	-0,005	0,066
-98,103	31,157	0,012	0,007
-97,089	31,058	0,129	0,078
-96,074	298,556	0,046	0,060
-95,059	-200,000	-0,039	-0,149
-94,045	-200,000	-0,005	-0,028
-93,030	439,353	-0,083	-0,128
-92,016	800,000	-0,022	0,058
-91,001	14,241	-0,071	-0,039
-89,986	735,124	-0,017	-0,032
-88,972	44,290	-0,069	-0,045
-87,957	68,997	0,029	-0,021
-86,943	800,000	0,029	0,063
-85,928	523,320	0,049	0,081
-84,913	800,000	-0,059	-0,126
-83,899	-200,000	0,024	-0,100
-82,884	123,263	0,045	-0,040
-81,870	-200,000	-0,001	0,102
-80,855	-200,000	0,009	0,038
-79,840	428,141	-0,059	0,090
-78,826	-135,167	-0,128	-0,011
-77,811	-135,041	0,014	-0,001
-76,797	-121,142	-0,151	0,018
-75,782	201,177	-0,097	-0,105
-74,767	702,526	-0,075	-0,141
-73,753	-66,945	0,102	0,028
-72,738	-57,402	0,095	0,029
-71,724	-90,283	-0,068	-0,014
-70,709	-71,827	-0,143	0,037
-69,694	18,280	-0,064	0,036
-68,680	88,778	0,140	0,110
-67,665	183,857	0,080	-0,084
-66,651	-64,780	0,029	-0,008
-65,636	97,318	-0,035	-0,028
-64,622	770,449	-0,044	-0,086
-63,607	-200,000	0,011	-0,056
-62,592	5,654	-0,157	0,081
-61,578	-200,000	0,007	0,102
-60,563	-194,616	0,180	-0,001
-59,549	-200,000	-0,003	0,032
-58,534	37,351	-1,909	-1,192
-57,519	656,497	-1,151	-2,096
-56,505	-200,000	-0,270	-4,201
-55,490	553,638	0,772	1,315
-54,476	800,000	5,195	11,252
-53,461	-200,000	21,317	340,542
-52,446	800,000	759,785	2360,738
-51,432	560,330	1662,526	2845,989
-50,417	73,651	1661,513	1227,239
-49,403	18,049	1534,904	861,243
-48,388	11,971	1458,600	789,031
-47,373	19,429	1449,612	819,925
-46,359	15,485	1438,569	794,897
-45,344	10,254	1434,794	767,873
-44,330	10,192	1432,943	766,556
-43,315	10,177	1431,123	765,482
-42,300	10,228	1429,134	764,630
-41,286	10,211	1427,980	763,898
-40,271	10,171	1426,653	762,970
-39,257	10,174	1425,552	762,363
-38,242	10,208	1424,536	761,954
-37,227	10,255	1423,305	761,486
-36,213	10,234	1422,140	760,734
-35,198	10,221	1421,011	760,037
-34,184	10,282	1420,053	759,784
-33,169	10,190	1418,675	758,583
-32,154	10,198	1417,801	758,121
-31,140	10,250	1416,374	757,573
-30,125	10,314	1415,125	757,174
-29,111	10,246	1414,287	756,378
-28,096	10,192	1412,977	755,392
-27,082	10,174	1411,880	754,692
-26,067	10,168	1410,860	754,090
-25,052	10,245	1409,746	753,826
-24,038	10,219	1408,502	753,007
-23,023	10,213	1407,596	752,464
-22,009	10,210	1406,703	751,947
-20,994	10,156	1405,704	751,130
-19,979	10,172	1404,714	750,647
-18,965	10,128	1403,895	749,971
-17,950	10,121	1403,069	749,468
-16,936	10,147	1402,309	749,154
-15,921	10,079	1401,308	748,270
-14,906	10,052	1400,428	747,647
-13,892	10,075	1399,365	747,156
-12,877	10,076	1398,569	746,706
-11,863	10,102	1397,605	746,281
-10,848	10,087	1396,675	745,686
-9,833	9,975	1396,066	744,814
-8,819	9,972	1395,045	744,225
-7,804	9,992	1394,182	743,828
-6,790	9,942	1393,068	742,971
-5,775	9,964	1392,178	742,569
-4,760	10,046	1390,896	742,238
-3,746	9,981	1390,179	741,526
-2,731	10,006	1389,287	741,135
-1,717	9,970	1388,366	740,447
-0,702	9,992	1386,533	739,541
0,313	14,092	1299,474	711,844
1,327	30,443	690,016	415,037
2,342	46,991	119,579	78,299
3,356	0,879	16,453	8,286
4,371	6,697	3,439	1,799
5,386	-17,827	1,113	0,491
6,400	-200,000	0,184	0,586
7,415	-149,567	-0,274	-0,015
8,429	-55,214	-0,339	-0,107
9,444	-32,494	-0,358	-0,140
10,459	136,992	-0,218	-0,201
11,473	5,497	-0,468	-0,243
12,488	-0,072	-0,336	-0,168
13,502	5,138	-0,250	-0,129
14,517	49,342	-0,294	-0,194
15,531	129,642	-0,338	-0,305
16,546	198,182	-0,229	-0,247
17,561	112,617	-0,292	-0,249
18,575	8,574	-0,214	-0,113
19,590	93,694	-0,233	-0,186
20,604	-54,860	-0,286	-0,090
21,619	132,967	-0,425	-0,387
22,634	141,034	-0,452	-0,421
23,648	264,749	-0,326	-0,401
24,663	-11,632	-0,394	-0,182
25,677	29,049	-0,351	-0,209
26,692	-97,573	-0,406	-0,074
27,707	-0,513	-0,307	-0,153
28,721	53,754	-0,437	-0,295
29,736	508,396	-0,302	-0,496
30,750	66,586	-0,487	-0,348
31,765	24,133	-0,355	-0,206
32,780	3,110	-0,297	-0,151
33,794	24,450	-0,269	-0,156
34,809	307,074	-0,301	-0,395
35,823	167,217	-0,205	-0,205
36,838	-1,118	-0,336	-0,167
37,853	187,250	-0,250	-0,262
38,867	110,911	-0,302	-0,255
39,882	236,455	-0,239	-0,278
40,896	61,424	-0,280	-0,195
41,911	125,679	-0,365	-0,324
42,926	17,004	-0,311	-0,173
43,940	81,170	-0,371	-0,281
44,955	85,383	-0,363	-0,280
45,969	322,641	-0,271	-0,363
46,984	244,476	-0,197	-0,233
47,999	-39,702	-0,260	-0,095
49,013	67,134	-0,327	-0,234
50,028	98,786	-0,231	-0,187
51,042	36,198	-0,350	-0,216
52,057	188,695	-0,258	-0,271
53,071	-10,292	-0,186	-0,086
54,086	150,495	-0,272	-0,260
55,101	172,535	-0,286	-0,290
56,115	49,849	-0,298	-0,197
57,130	247,727	-0,253	-0,301
58,144	110,834	-0,336	-0,284
59,159	-7,711	-0,434	-0,205
60,174	139,562	-0,288	-0,267
61,188	190,126	-0,335	-0,354
62,203	421,820	-0,142	-0,215
63,217	33,077	-0,351	-0,213
64,232	55,809	-0,321	-0,218
65,247	119,760	-0,256	-0,223
66,261	62,712	-0,352	-0,246
67,276	62,763	-0,341	-0,239
68,290	444,539	-0,181	-0,280
69,305	98,362	-0,295	-0,239
70,320	-6,509	-0,216	-0,103
71,334	-42,755	-0,437	-0,155
72,349	135,373	-0,296	-0,270
73,363	13,557	-0,403	-0,219
74,378	4,398	-0,371	-0,190
75,393	61,797	-0,360	-0,251
76,407	29,096	-0,381	-0,226
77,422	-4,603	-0,394	-0,190
78,436	12,327	-0,307	-0,165
79,451	-23,851	-0,429	-0,179
80,466	73,093	-0,447	-0,327
81,480	88,653	-0,380	-0,296
82,495	259,218	-0,217	-0,263
83,509	64,436	-0,286	-0,202
84,524	65,358	-0,222	-0,157
85,539	141,919	-0,280	-0,260
86,553	84,549	-0,278	-0,212
87,568	221,238	-0,245	-0,276
88,582	76,656	-0,335	-0,248
89,597	-130,586	-0,414	-0,039
90,611	36,900	-0,199	-0,123
91,626	7,725	-0,295	-0,154
92,641	-149,700	-0,236	-0,013
93,655	130,838	-0,275	-0,247
94,670	-175,631	-0,221	0,004
95,684	183,855	-0,270	-0,279
96,699	305,712	-0,225	-0,293
97,714	-6,495	-0,166	-0,079
98,728	179,627	-0,272	-0,279
99,743	190,562	-0,266	-0,280
100,757	29,313	-0,433	-0,257
101,772	47,197	-0,225	-0,146
102,787	62,587	-0,250	-0,174
103,801	57,635	-0,326	-0,222
104,816	-16,557	-0,258	-0,114
105,830	97,750	-0,208	-0,167
106,845	15,150	-0,209	-0,114
107,860	64,574	-0,256	-0,180
108,874	136,773	-0,307	-0,281
109,889	287,903	-0,164	-0,207
110,903	269,003	-0,139	-0,171
111,918	166,778	-0,285	-0,282
112,933	0,032	-0,309	-0,153
113,947	3,943	-0,248	-0,126
114,962	131,988	-0,255	-0,229
115,976	49,891	-0,280	-0,184
116,991	2,145	-0,228	-0,114
118,006	111,165	-0,232	-0,195
119,020	-59,096	-0,312	-0,093
120,035	64,223	-0,332	-0,233
121,049	-30,009	-0,179	-0,071
122,064	80,867	-0,265	-0,199
123,079	-74,196	-0,256	-0,064
124,093	26,929	-0,259	-0,151
125,108	-3,620	-0,291	-0,141
126,122	148,497	-0,255	-0,240
127,137	251,059	-0,301	-0,358
128,151	233,623	-0,141	-0,162
129,166	16,053	-0,201	-0,110
130,181	88,609	-0,244	-0,189
131,195	70,405	-0,192	-0,138
132,210	45,018	-0,514	-0,329
133,224	119,599	-0,158	-0,137
134,239	31,658	-0,196	-0,117
135,254	40,810	-0,222	-0,139
136,268	58,090	-0,324	-0,221
137,283	89,124	-0,234	-0,181
138,297	-8,729	-0,327	-0,153
139,312	271,666	-0,192	-0,236
140,327	65,007	-0,303	-0,213
141,341	220,819	-0,147	-0,165
142,356	175,626	-0,282	-0,285
143,370	35,749	-0,348	-0,213
144,385	172,383	-0,183	-0,183
145,400	69,954	-0,245	-0,176
146,414	222,549	-0,197	-0,221
147,429	57,112	-0,302	-0,204
148,443	67,790	-0,318	-0,226
149,458	30,295	-0,134	-0,079
150,473	203,861	-0,241	-0,260
151,487	57,670	-0,193	-0,131
152,502	128,766	-0,283	-0,251
153,516	41,047	-0,256	-0,160
154,531	183,947	-0,167	-0,172
155,546	88,288	-0,263	-0,203
156,560	16,775	-0,126	-0,069
157,575	-10,986	-0,214	-0,098
158,589	82,090	-0,193	-0,146
159,604	359,317	-0,149	-0,207
160,619	682,165	-0,156	-0,285
161,633	23,180	-0,161	-0,092
162,648	38,003	-0,267	-0,165
163,662	-32,139	-0,278	-0,107
164,677	69,221	-0,211	-0,151
165,692	123,514	-0,159	-0,138
166,706	59,817	-0,219	-0,150
167,721	508,500	-0,208	-0,336
168,735	98,260	-0,274	-0,219
169,750	420,895	-0,225	-0,337
170,764	393,494	-0,128	-0,186
171,779	13,356	-0,206	-0,111
172,794	54,946	-0,259	-0,173
173,808	110,763	-0,256	-0,214
174,823	81,738	-0,400	-0,300
175,837	284,928	-0,215	-0,270
176,852	302,148	-0,218	-0,280
177,867	-61,838	-0,215	-0,062
178,881	-24,094	-0,247	-0,102
179,896	-82,767	-0,191	-0,043
180,910	144,342	-0,274	-0,254
181,925	172,173	-0,184	-0,184
182,940	82,721	-0,265	-0,200
183,954	374,037	-0,166	-0,235
184,969	-193,340	-0,147	0,001
185,983	36,154	-0,270	-0,165
186,998	96,425	-0,296	-0,235
188,013	150,906	-0,231	-0,219
189,027	213,724	-0,155	-0,170
190,042	269,930	-0,207	-0,253
191,056	-1,276	-0,183	-0,089
192,071	-12,253	-0,134	-0,061
193,086	254,621	-0,167	-0,199
194,100	14,656	-0,278	-0,150
195,115	368,806	-0,160	-0,226
196,129	62,612	-0,238	-0,165
197,144	230,609	-0,228	-0,259
198,159	236,786	-0,185	-0,212
199,173	130,731	-0,175	-0,155
200,188	539,399	-0,095	-0,157
201,202	188,618	-0,157	-0,163
202,217	123,497	-0,178	-0,155
203,232	560,933	-0,067	-0,113
204,246	-14,090	-0,219	-0,097
205,261	-26,708	-0,226	-0,091
206,275	254,006	-0,190	-0,225
207,290	144,237	-0,232	-0,215
208,304	8,825	-0,205	-0,107
209,319	800,000	-0,088	-0,189
210,334	37,300	-0,252	-0,154
211,348	259,197	-0,223	-0,267
212,363	200,742	-0,144	-0,154
213,377	176,662	-0,164	-0,165
214,392	82,440	-0,272	-0,205
215,407	-125,758	-0,247	0,025
216,421	85,220	-0,234	-0,178
217,436	120,651	-0,213	-0,183
218,450	303,060	-0,168	-0,216
219,465	283,546	-0,223	-0,278
220,480	107,981	-0,138	-0,114
221,494	72,085	-0,186	-0,134
222,509	49,491	-0,224	-0,146
223,523	-126,912	-0,199	-0,020
224,538	-146,144	-0,188	-0,011
225,553	160,327	-0,236	-0,228
226,567	373,697	-0,197	-0,279
227,582	126,494	-0,158	-0,138
228,596	55,691	-0,157	-0,105
229,611	290,545	-0,136	-0,172
230,626	28,940	-0,187	-0,109
231,640	-109,802	-0,279	-0,040
232,655	127,948	-0,207	-0,182
233,669	274,712	-0,107	-0,131
234,684	-42,619	-0,232	-0,081
235,699	106,539	-0,189	-0,155
236,713	19,682	-0,182	-0,101
237,728	151,399	-0,150	-0,142
238,742	-65,376	-0,294	-0,081
239,757	235,644	-0,257	-0,294
240,772	109,622	-0,126	-0,104
241,786	-0,507	-0,169	-0,083
242,801	421,918	-0,061	-0,090
243,815	135,526	-0,163	-0,146
244,830	800,000	-0,069	-0,179
245,844	-59,521	-0,120	-0,035
246,859	117,857	-0,152	-0,129
247,874	128,527	-0,174	-0,153
248,888	151,977	-0,244	-0,230
249,903	92,787	-0,121	-0,094
250,917	321,618	-0,147	-0,193
251,932	149,910	-0,123	-0,115
252,947	97,340	-0,144	-0,114
253,961	793,124	-0,087	-0,166
254,976	-117,235	-0,186	-0,023
255,990	-7,304	-0,203	-0,095
257,005	257,818	-0,202	-0,240
258,020	-6,932	-0,209	-0,098
259,034	280,998	-0,139	-0,172
260,049	-60,271	-0,312	-0,091
261,063	531,824	-0,078	-0,128
262,078	448,448	-0,111	-0,170
263,093	248,188	-0,265	-0,310
264,107	-76,302	-0,182	0,044
265,122	131,555	-0,088	-0,078
266,136	-25,615	-0,138	-0,056
267,151	-18,292	-0,118	-0,050
268,166	-31,554	-0,213	-0,082
269,180	97,267	-0,136	-0,108
270,195	-85,282	-0,134	0,029
271,209	275,661	-0,125	-0,153
272,224	126,139	-0,179	-0,156
273,239	-173,876	-0,185	-0,004
274,253	78,772	-0,177	-0,130
275,268	-14,938	-0,195	-0,086
276,282	-3,993	-0,204	-0,097
277,297	-114,560	-0,149	-0,019
278,312	-157,186	-0,226	-0,009
279,326	265,387	-0,122	-0,147
280,341	-55,664	-0,182	-0,056
281,355	800,000	-0,054	-0,137
282,370	-48,841	-0,239	-0,079
283,384	196,213	-0,210	-0,220
284,399	-200,000	-0,072	-0,220
285,414	800,000	-0,059	-0,137
286,428	-192,203	-0,203	-0,001
287,443	12,432	-0,058	-0,031
288,457	9,759	-0,255	-0,133
289,472	63,832	-0,169	-0,117
290,487	-55,646	-0,137	-0,042
291,501	103,142	-0,233	-0,188
292,516	-200,000	-0,046	-0,177
293,530	800,000	-0,071	-0,168
294,545	800,000	-0,054	-0,149
295,560	677,063	-0,023	-0,041
296,574	-87,764	-0,175	0,036
297,589	-166,763	-0,136	0,004
298,603	11,828	-0,212	-0,112
299,618	188,616	-0,170	-0,175
300,633	549,046	-0,097	-0,160
301,647	-191,062	-0,154	0,001
302,662	454,325	-0,071	-0,108
303,676	435,987	-0,049	0,073
304,691	537,681	-0,016	-0,027
305,706	-95,264	-0,134	-0,025
306,720	60,251	-0,231	-0,157
307,735	800,000	-0,080	-0,174
308,749	598,391	-0,077	-0,131
309,764	24,697	-0,121	0,069
310,779	-200,000	-0,007	-0,030
311,793	-49,372	-0,130	-0,042
312,808	66,155	-0,109	-0,076
313,822	723,634	-0,118	-0,217
314,837	800,000	-0,055	0,107
315,852	-116,124	-0,209	0,026
316,866	300,023	-0,086	-0,109
317,881	-59,585	-0,129	-0,038
318,895	-69,546	-0,225	-0,059
319,910	82,113	-0,140	-0,104
320,925	-21,620	-0,174	-0,073
321,939	192,523	-0,067	-0,069
322,954	-22,023	-0,092	0,038
323,968	24,560	-0,082	-0,047
324,983	-85,861	-0,220	-0,046
325,997	-79,433	-0,229	-0,053
327,012	149,680	-0,112	-0,104
328,027	226,279	-0,173	-0,193
329,041	62,261	-0,182	-0,124
330,056	35,320	-0,066	0,039
331,070	-13,028	-0,123	-0,055
332,085	223,326	-0,123	0,137
333,100	-69,820	-0,164	-0,043
334,114	142,552	-0,110	-0,100
335,129	-200,000	-0,005	-0,051
336,143	359,528	-0,099	-0,136
337,158	-134,923	-0,192	-0,016
338,173	800,000	-0,022	0,055
339,187	691,431	-0,059	-0,106
340,202	129,319	-0,162	-0,142
341,216	487,799	-0,119	-0,187
342,231	117,716	-0,047	-0,039
343,246	148,262	-0,157	-0,145
344,260	343,785	-0,083	-0,111
345,275	393,522	-0,064	-0,092
346,289	800,000	-0,044	-0,109
347,304	-59,704	-0,175	0,051
348,319	-102,114	-0,287	-0,047
349,333	-200,000	0,002	-0,124
350,348	800,000	-0,038	-0,080
351,362	800,000	-0,058	-0,159
352,377	209,844	-0,170	-0,183
353,392	800,000	-0,025	-0,060
354,406	-76,004	-0,109	-0,026
355,421	208,259	1310,432	1402,429
356,435	160,239	1470,604	1402,897
