DTS Sentinel unit serial number:	SN410029Multiplexer serial number:	ORYXHardware model number:	OX2-SRSoftware version number:	ORYX F/W v4,00 Oryx Data Collector v3.7.2.0data status	okinstallation	B3 Nyhavnadifferential loss correction	single-endedforward channel	channel 1reverse channel	N/Adate	2023/12/01time	16:37:30forward acquisition time	300,00reverse acquisition time	0,00gamma	499,1914k internal	0,3206k external	0,3206temperature offset calibration	1,0000default loss term (dB/km)	0,3820temperature slope calibration	1,0000multiplexer offset coefficient	1,0000multiplexer slope coefficient	1,0000fibre end	0,00T internal ref (°C)	13,37T ext. ref 1 (°C)	-0,25T ext. ref 2 (°C)	-0,29length (m)	temperature (°C)	Stokes	anti-Stokes-744,400	-200,000	0,011	-0,282
-743,385	-200,000	-0,017	0,274
-742,371	782,352	-0,128	-0,256
-741,356	-200,000	0,048	0,183
-740,342	2,588	-0,283	-0,148
-739,327	-200,000	-0,003	0,306
-738,312	800,000	-0,123	-0,252
-737,298	800,000	0,123	0,300
-736,283	123,874	-0,223	-0,203
-735,269	800,000	0,072	0,176
-734,254	-200,000	-0,047	-0,296
-733,239	138,730	-0,211	0,201
-732,225	-200,000	-0,025	-0,192
-731,210	800,000	0,081	0,192
-730,196	147,405	0,006	0,006
-729,181	-108,979	-0,160	-0,025
-728,167	17,356	-0,126	-0,072
-727,152	325,351	-0,028	-0,039
-726,137	800,000	-0,040	-0,126
-725,123	-127,717	-0,029	0,003
-724,108	-88,951	0,019	-0,004
-723,094	52,986	-0,096	0,066
-722,079	-200,000	-0,029	-0,114
-721,064	-81,675	0,064	0,015
-720,050	-200,000	-0,044	0,144
-719,035	138,907	-0,055	0,052
-718,021	800,000	0,031	-0,083
-717,006	-104,805	-0,151	-0,025
-715,991	43,068	0,064	-0,042
-714,977	800,000	-0,059	-0,123
-713,962	-127,651	-0,073	-0,008
-712,948	378,832	0,147	0,219
-711,933	800,000	0,024	0,052
-710,918	-108,391	-0,093	0,014
-709,904	303,082	-0,083	-0,112
-708,889	63,749	-0,163	-0,118
-707,875	139,379	-0,170	0,162
-706,860	-200,000	-0,005	0,058
-705,845	705,992	-0,024	0,047
-704,831	800,000	0,036	-0,107
-703,816	-132,621	-0,130	0,012
-702,802	-151,482	0,050	0,003
-701,787	-200,000	0,015	-0,055
-700,772	-74,473	0,024	0,006
-699,758	649,217	-0,082	-0,153
-698,743	-106,966	-0,158	0,025
-697,729	800,000	0,041	-0,110
-696,714	150,022	0,076	-0,075
-695,699	800,000	-0,055	-0,111
-694,685	-200,000	-0,002	-0,240
-693,670	-100,389	-0,189	-0,034
-692,656	800,000	0,048	-0,137
-691,641	201,773	0,067	-0,075
-690,627	-2,006	0,022	0,011
-689,612	-43,637	-0,107	0,039
-688,597	25,402	-0,090	-0,054
-687,583	-200,000	0,000	-0,049
-686,568	54,553	-0,036	-0,025
-685,554	235,598	0,014	0,017
-684,539	-28,737	0,062	0,026
-683,524	-149,169	0,122	-0,007
-682,510	-16,050	0,033	-0,015
-681,495	-107,273	-0,080	-0,013
-680,481	-200,000	0,006	-0,044
-679,466	-175,500	-0,082	0,002
-678,451	-189,411	-0,243	0,002
-677,437	238,189	-0,089	0,107
-676,422	-15,382	0,115	0,053
-675,408	800,000	0,030	0,061
-674,393	39,571	-0,107	0,069
-673,378	-200,000	-0,015	-0,053
-672,364	378,828	-0,017	-0,026
-671,349	622,686	-0,053	0,097
-670,335	-67,774	0,175	-0,049
-669,320	56,650	0,056	0,039
-668,305	-10,609	0,179	-0,086
-667,291	-76,669	-0,090	-0,023
-666,276	149,190	0,046	-0,045
-665,262	109,302	0,094	-0,081
-664,247	349,696	-0,088	-0,126
-663,232	-84,325	-0,107	0,024
-662,218	-200,000	0,032	0,108
-661,203	119,138	-0,100	0,090
-660,189	622,528	0,059	-0,109
-659,174	-161,723	0,115	0,004
-658,159	235,261	-0,122	-0,146
-657,145	-72,356	-0,067	-0,018
-656,130	4,507	-0,018	0,010
-655,116	232,927	-0,016	-0,019
-654,101	-200,000	-0,002	0,123
-653,086	94,626	0,103	0,085
-652,072	-115,547	0,036	-0,005
-651,057	-200,000	0,013	-0,096
-650,043	-47,549	-0,121	-0,042
-649,028	-200,000	0,020	0,150
-648,014	-122,404	-0,076	-0,009
-646,999	-56,939	0,167	0,053
-645,984	-108,886	0,089	-0,014
-644,970	-1,612	0,052	-0,026
-643,955	-200,000	-0,032	0,117
-642,941	401,760	-0,027	0,042
-641,926	-200,000	0,023	-0,105
-640,911	-178,892	0,058	0,001
-639,897	-157,728	-0,022	0,001
-638,882	309,705	-0,064	0,086
-637,868	33,775	0,139	0,087
-636,853	-117,566	-0,040	-0,005
-635,838	-39,460	0,062	0,023
-634,824	136,962	-0,111	0,105
-633,809	-200,000	-0,001	0,135
-632,795	16,548	0,061	0,035
-631,780	66,802	-0,118	0,086
-630,765	152,197	-0,137	0,135
-629,751	23,087	0,038	-0,023
-628,736	-35,387	-0,055	0,021
-627,722	290,497	0,062	-0,082
-626,707	-89,377	0,084	-0,018
-625,692	28,125	-0,116	0,071
-624,678	800,000	0,078	0,204
-623,663	-200,000	0,017	0,056
-622,649	522,866	-0,051	-0,086
-621,634	-102,536	-0,170	-0,029
-620,619	726,834	-0,064	0,124
-619,605	430,809	-0,026	-0,041
-618,590	215,709	-0,008	-0,009
-617,576	1,242	-0,046	-0,024
-616,561	800,000	-0,006	-0,014
-615,546	-200,000	-0,013	-0,156
-614,532	391,181	-0,125	-0,188
-613,517	800,000	0,010	0,024
-612,503	-76,122	-0,029	-0,007
-611,488	-86,649	0,123	-0,027
-610,474	-200,000	-0,017	0,105
-609,459	-113,596	-0,163	0,023
-608,444	161,689	0,079	0,080
-607,430	800,000	-0,030	-0,069
-606,415	800,000	0,025	0,067
-605,401	186,142	0,123	0,132
-604,386	492,292	-0,045	0,075
-603,371	800,000	0,050	-0,108
-602,357	-86,694	-0,033	0,007
-601,342	-32,218	-0,107	0,043
-600,328	-15,999	-0,068	-0,031
-599,313	101,454	0,059	-0,050
-598,298	37,371	-0,086	-0,055
-597,284	-200,000	-0,025	-0,086
-596,269	248,424	0,053	0,065
-595,255	800,000	0,008	0,020
-594,240	44,816	-0,052	0,035
-593,225	-7,165	-0,210	-0,103
-592,211	-93,816	-0,189	-0,037
-591,196	-200,000	0,021	-0,095
-590,182	214,220	0,063	0,073
-589,167	-118,664	0,067	0,008
-588,152	175,278	-0,061	0,064
-587,138	-36,611	-0,122	0,047
-586,123	62,584	-0,083	-0,059
-585,109	-200,000	0,006	-0,140
-584,094	-52,908	0,093	-0,031
-583,079	-114,268	0,051	0,007
-582,065	-50,787	0,173	0,058
-581,050	800,000	0,042	0,096
-580,036	-39,379	-0,072	0,027
-579,021	800,000	0,026	0,057
-578,006	271,679	0,064	0,082
-576,992	214,346	-0,024	-0,027
-575,977	47,584	-0,072	-0,048
-574,963	477,331	-0,060	0,099
-573,948	55,430	0,152	-0,106
-572,934	12,122	0,102	0,057
-571,919	-200,000	-0,022	-0,108
-570,904	800,000	0,046	-0,130
-569,890	11,284	-0,029	-0,016
-568,875	337,790	0,063	-0,088
-567,861	-14,685	0,061	-0,028
-566,846	-200,000	0,045	0,165
-565,831	119,824	0,046	0,041
-564,817	255,737	-0,057	-0,070
-563,802	-200,000	-0,002	0,092
-562,788	-200,000	-0,024	-0,139
-561,773	54,312	0,026	0,018
-560,758	564,171	0,080	0,140
-559,744	729,454	-0,039	0,075
-558,729	-95,717	-0,094	0,018
-557,715	2,402	0,051	-0,026
-556,700	-200,000	0,024	0,106
-555,685	765,816	-0,039	0,077
-554,671	731,076	-0,058	-0,113
-553,656	287,425	0,047	-0,062
-552,642	-200,000	-0,030	0,112
-551,627	707,613	0,015	0,029
-550,612	35,857	-0,083	-0,053
-549,598	673,309	-0,045	-0,084
-548,583	199,210	-0,121	-0,134
-547,569	800,000	-0,039	-0,118
-546,554	-58,994	0,283	-0,088
-545,539	142,098	-0,107	0,102
-544,525	-200,000	0,003	0,072
-543,510	-97,323	-0,204	0,038
-542,496	139,490	-0,058	0,055
-541,481	-200,000	-0,010	-0,143
-540,466	82,717	0,054	-0,042
-539,452	-27,837	-0,075	0,031
-538,437	240,527	0,061	-0,074
-537,423	601,019	0,013	-0,023
-536,408	-18,198	-0,062	-0,028
-535,393	-14,424	0,140	-0,065
-534,379	-77,375	-0,112	0,028
-533,364	-200,000	0,028	-0,142
-532,350	-200,000	-0,007	-0,122
-531,335	466,047	0,039	0,064
-530,321	800,000	-0,051	0,155
-529,306	-200,000	0,021	-0,114
-528,291	-200,000	0,014	-0,076
-527,277	-143,433	-0,147	-0,010
-526,262	40,625	-0,100	-0,065
-525,248	46,067	-0,114	-0,076
-524,233	-14,196	-0,025	-0,011
-523,218	721,942	0,038	0,073
-522,204	-87,297	-0,047	-0,010
-521,189	171,432	-0,052	-0,054
-520,175	-63,916	0,103	0,030
-519,160	800,000	0,038	-0,107
-518,145	23,057	-0,053	0,031
-517,131	-200,000	0,012	0,162
-516,116	107,504	0,106	0,091
-515,102	-200,000	-0,002	-0,028
-514,087	322,387	-0,031	-0,043
-513,072	-200,000	0,009	-0,180
-512,058	179,582	-0,084	-0,088
-511,043	-60,502	0,066	-0,020
-510,029	-94,635	0,080	-0,015
-509,014	-65,111	-0,169	-0,049
-507,999	-146,956	-0,058	0,004
-506,985	-56,935	-0,049	0,016
-505,970	-29,925	-0,045	0,018
-504,956	-20,011	-0,054	-0,024
-503,941	-77,075	0,083	-0,021
-502,926	691,645	-0,062	0,117
-501,912	800,000	0,072	0,222
-500,897	436,844	0,017	0,027
-499,883	469,824	-0,022	-0,036
-498,868	800,000	0,032	-0,065
-497,853	800,000	-0,068	-0,162
-496,839	86,211	-0,079	0,062
-495,824	242,580	0,123	-0,149
-494,810	344,453	0,057	0,081
-493,795	169,077	0,071	0,073
-492,781	-200,000	0,035	-0,133
-491,766	-158,305	-0,114	0,005
-490,751	800,000	0,023	-0,063
-489,737	604,293	0,052	-0,093
-488,722	21,568	-0,035	0,020
-487,708	305,542	0,034	0,045
-486,693	800,000	0,022	0,069
-485,678	-200,000	-0,006	-0,135
-484,664	-53,315	-0,019	-0,006
-483,649	800,000	-0,006	-0,017
-482,635	-57,744	-0,115	-0,036
-481,620	-120,146	0,086	-0,010
-480,605	116,711	-0,083	0,073
-479,591	-13,926	-0,114	0,053
-478,576	21,463	-0,130	0,076
-477,562	196,604	-0,050	-0,055
-476,547	653,491	-0,028	-0,052
-475,532	-200,000	-0,002	-0,053
-474,518	800,000	0,055	-0,113
-473,503	-98,255	0,055	0,010
-472,489	98,297	-0,099	-0,082
-471,474	800,000	-0,016	-0,039
-470,459	-200,000	-0,057	-0,196
-469,445	24,530	0,031	0,018
-468,430	-46,541	0,135	-0,047
-467,416	179,818	0,096	-0,101
-466,401	13,305	0,034	0,019
-465,386	-200,000	0,003	-0,018
-464,372	800,000	-0,050	0,109
-463,357	-200,000	-0,038	-0,124
-462,343	10,324	-0,150	0,082
-461,328	9,052	-0,089	-0,048
-460,313	-200,000	0,021	-0,146
-459,299	-83,885	0,132	-0,030
-458,284	-200,000	0,007	0,167
-457,270	7,511	-0,012	-0,006
-456,255	-47,476	-0,110	-0,038
-455,241	16,880	-0,128	-0,073
-454,226	-109,954	-0,071	-0,011
-453,211	-53,827	-0,201	-0,065
-452,197	84,125	-0,033	0,026
-451,182	-200,000	-0,025	0,090
-450,168	-200,000	-0,010	-0,062
-449,153	800,000	0,036	0,078
-448,138	-200,000	-0,002	-0,021
-447,124	-200,000	0,000	-0,095
-446,109	633,248	0,022	0,040
-445,095	4,929	-0,026	-0,014
-444,080	-56,915	-0,065	-0,020
-443,065	-60,330	-0,056	0,017
-442,051	-14,245	0,076	-0,035
-441,036	-52,219	-0,063	0,021
-440,022	800,000	-0,059	-0,120
-439,007	13,128	-0,117	0,065
-437,992	172,473	0,090	0,093
-436,978	769,801	-0,028	-0,055
-435,963	-44,321	0,083	-0,030
-434,949	669,834	-0,032	-0,059
-433,934	189,143	0,076	0,082
-432,919	117,764	-0,008	0,007
-431,905	57,157	0,053	-0,037
-430,890	87,596	0,097	0,077
-429,876	140,440	-0,085	-0,081
-428,861	355,372	0,060	-0,086
-427,846	-45,084	-0,057	0,020
-426,832	293,043	-0,004	0,006
-425,817	508,088	0,041	-0,068
-424,803	-0,986	0,085	0,043
-423,788	-111,801	-0,178	-0,026
-422,773	22,594	-0,044	0,026
-421,759	-200,000	-0,014	0,129
-420,744	-102,158	0,062	0,011
-419,730	-26,024	-0,114	-0,048
-418,715	-200,000	-0,007	-0,059
-417,701	200,238	0,052	-0,057
-416,686	-36,082	0,099	0,038
-415,671	800,000	-0,030	0,069
-414,657	92,989	-0,021	0,017
-413,642	-53,488	0,159	-0,052
-412,628	148,983	-0,106	0,103
-411,613	-200,000	-0,021	0,082
-410,598	404,892	-0,055	-0,083
-409,584	-110,056	0,053	0,008
-408,569	-55,757	-0,110	0,035
-407,555	-161,461	0,184	0,007
-406,540	95,382	0,031	-0,025
-405,525	122,117	-0,126	-0,113
-404,511	-200,000	-0,000	-0,029
-403,496	-200,000	-0,010	-0,050
-402,482	-54,537	0,044	0,014
-401,467	-75,063	0,129	-0,033
-400,452	168,148	0,071	0,073
-399,438	800,000	0,060	-0,129
-398,423	800,000	-0,045	0,104
-397,409	-122,900	0,149	0,017
-396,394	-69,927	-0,122	0,033
-395,379	-70,815	0,138	0,037
-394,365	-156,453	0,041	0,002
-393,350	75,627	0,086	-0,065
-392,336	165,424	0,153	0,155
-391,321	-49,380	-0,051	-0,017
-390,306	79,892	-0,017	0,013
-389,292	426,696	-0,039	-0,060
-388,277	-200,000	-0,006	-0,034
-387,263	315,180	0,090	0,122
-386,248	306,013	-0,102	0,136
-385,233	800,000	0,026	-0,056
-384,219	-65,635	-0,084	-0,024
-383,204	-200,000	0,002	0,046
-382,190	-200,000	0,059	-0,202
-381,175	79,293	-0,073	-0,056
-380,160	-200,000	-0,004	0,032
-379,146	800,000	0,025	-0,053
-378,131	800,000	0,032	-0,069
-377,117	685,320	0,037	-0,069
-376,102	112,729	-0,122	-0,106
-375,088	-200,000	-0,030	-0,138
-374,073	-200,000	-0,012	0,043
-373,058	219,553	0,059	0,068
-372,044	800,000	0,032	0,084
-371,029	-4,608	0,048	0,023
-370,015	115,247	-0,105	0,092
-369,000	-159,116	0,116	0,005
-367,985	-200,000	-0,017	-0,086
-366,971	-147,811	-0,012	-0,001
-365,956	-130,029	0,096	0,009
-364,942	101,230	0,074	0,062
-363,927	294,919	-0,065	0,085
-362,912	711,644	-0,029	0,056
-361,898	800,000	-0,007	0,019
-360,883	-200,000	-0,016	-0,084
-359,869	80,180	-0,061	0,047
-358,854	-50,974	0,059	0,020
-357,839	88,664	-0,035	0,028
-356,825	800,000	0,057	0,139
-355,810	-184,542	-0,110	0,001
-354,796	-200,000	-0,019	0,064
-353,781	-118,269	0,084	-0,011
-352,766	-176,272	-0,120	-0,002
-351,752	292,579	-0,072	-0,094
-350,737	67,377	0,096	0,070
-349,723	58,999	-0,105	0,074
-348,708	-68,405	0,064	-0,018
-347,693	-200,000	0,016	-0,065
-346,679	-171,885	0,101	-0,002
-345,664	-158,168	0,022	-0,001
-344,650	-200,000	0,008	-0,061
-343,635	17,350	0,112	0,063
-342,620	-179,075	0,058	-0,001
-341,606	124,085	-0,025	0,022
-340,591	-200,000	-0,028	-0,130
-339,577	800,000	-0,045	-0,090
-338,562	31,913	-0,079	0,048
-337,548	-70,221	0,062	-0,017
-336,533	-131,777	0,121	-0,011
-335,518	-200,000	0,013	0,060
-334,504	6,668	0,101	-0,053
-333,489	258,304	0,114	-0,141
-332,475	259,794	-0,097	-0,120
-331,460	800,000	-0,080	-0,181
-330,445	-29,205	0,035	0,014
-329,431	800,000	0,051	0,158
-328,416	-145,852	0,213	-0,013
-327,402	352,280	0,075	0,107
-326,387	-15,773	-0,109	-0,050
-325,372	-200,000	0,008	0,095
-324,358	-83,536	0,044	-0,010
-323,343	-89,110	-0,121	-0,025
-322,329	136,707	0,072	-0,067
-321,314	39,047	0,097	0,062
-320,299	-138,831	0,116	-0,009
-319,285	-200,000	0,044	0,148
-318,270	249,153	-0,084	0,101
-317,256	190,489	0,053	-0,057
-316,241	88,399	-0,053	-0,042
-315,226	493,897	0,099	0,163
-314,212	-62,720	0,060	-0,018
-313,197	-200,000	-0,003	0,042
-312,183	6,334	0,034	-0,018
-311,168	-54,562	0,078	0,025
-310,153	132,619	-0,140	-0,129
-309,139	480,283	-0,072	0,117
-308,124	194,930	0,098	0,106
-307,110	736,918	0,081	0,157
-306,095	26,107	0,010	0,006
-305,080	232,413	-0,063	0,074
-304,066	82,123	0,087	-0,067
-303,051	343,906	0,086	-0,120
-302,037	-200,000	-0,006	-0,071
-301,022	800,000	-0,024	0,051
-300,008	-131,757	0,036	-0,003
-298,993	22,828	-0,072	-0,042
-297,978	-54,340	-0,060	0,019
-296,964	-200,000	-0,005	0,047
-295,949	188,147	0,017	0,018
-294,935	31,016	0,116	-0,071
-293,920	-200,000	-0,037	-0,132
-292,905	37,230	0,056	0,035
-291,891	142,397	-0,044	0,042
-290,876	169,802	0,093	0,095
-289,862	-200,000	0,010	0,089
-288,847	-132,909	0,075	0,007
-287,832	-200,000	-0,007	-0,028
-286,818	248,226	0,070	-0,085
-285,803	340,419	-0,052	0,072
-284,789	800,000	0,013	0,032
-283,774	-8,519	-0,072	-0,035
-282,759	9,638	0,113	0,061
-281,745	-80,901	0,039	0,009
-280,730	695,017	-0,091	-0,170
-279,716	280,458	0,030	0,038
-278,701	406,988	-0,023	-0,035
-277,686	-51,365	0,021	0,007
-276,672	-135,388	0,048	-0,004
-275,657	-135,033	-0,029	0,002
-274,643	-64,233	0,104	-0,030
-273,628	140,960	-0,067	-0,064
-272,613	438,543	-0,046	0,072
-271,599	167,520	0,044	0,045
-270,584	800,000	0,039	0,107
-269,570	-200,000	-0,012	-0,085
-268,555	153,457	0,062	0,060
-267,540	16,899	0,035	-0,020
-266,526	12,188	-0,160	-0,088
-265,511	-67,756	0,050	0,014
-264,497	666,695	0,044	-0,082
-263,482	-126,081	-0,035	0,004
-262,467	800,000	-0,019	-0,056
-261,453	-124,075	0,190	0,021
-260,438	103,342	0,087	-0,073
-259,424	-200,000	0,040	-0,221
-258,409	59,963	-0,113	-0,079
-257,395	38,163	0,028	-0,017
-256,380	-2,806	0,085	0,042
-255,365	13,038	-0,097	0,053
-254,351	385,009	0,084	-0,124
-253,336	-145,612	-0,068	-0,004
-252,322	8,403	0,082	-0,044
-251,307	-200,000	0,010	0,034
-250,292	8,489	-0,033	0,018
-249,278	-21,145	-0,061	-0,026
-248,263	-200,000	0,006	0,023
-247,249	107,159	-0,018	0,015
-246,234	800,000	-0,018	-0,042
-245,219	-125,330	-0,155	0,017
-244,205	-200,000	0,001	-0,060
-243,190	800,000	-0,047	-0,115
-242,176	94,563	-0,043	0,035
-241,161	-2,964	0,175	0,087
-240,146	-200,000	0,011	-0,063
-239,132	323,499	-0,103	0,141
-238,117	446,505	0,080	0,126
-237,103	-200,000	-0,044	-0,188
-236,088	-33,443	0,107	0,042
-235,073	-165,746	0,067	0,002
-234,059	-22,378	0,103	0,044
-233,044	161,891	0,103	0,103
-232,030	-200,000	-0,019	0,101
-231,015	800,000	0,045	0,094
-230,000	-200,000	0,017	0,103
-228,986	464,974	-0,022	-0,036
-227,971	124,599	-0,054	-0,049
-226,957	-200,000	-0,014	0,066
-225,942	800,000	0,069	0,144
-224,927	582,532	-0,067	0,118
-223,913	-61,329	0,037	-0,011
-222,898	-42,614	-0,036	-0,013
-221,884	184,246	-0,086	-0,090
-220,869	-178,412	0,056	-0,001
-219,855	-200,000	0,009	-0,043
-218,840	-200,000	0,031	0,148
-217,825	16,669	0,096	-0,054
-216,811	800,000	-0,039	0,119
-215,796	56,244	-0,090	-0,062
-214,782	-135,481	-0,090	0,008
-213,767	43,853	-0,100	0,065
-212,752	-36,113	0,136	-0,052
-211,738	800,000	0,079	0,182
-210,723	800,000	0,038	0,104
-209,709	-200,000	-0,001	0,092
-208,694	-142,620	0,056	0,004
-207,679	-200,000	0,015	0,100
-206,665	99,485	-0,064	-0,052
-205,650	566,061	0,009	0,016
-204,636	117,747	0,167	0,147
-203,621	144,666	-0,064	0,061
-202,606	800,000	-0,025	-0,075
-201,592	-165,860	-0,020	0,001
-200,577	800,000	-0,068	-0,156
-199,563	-92,819	-0,024	0,005
-198,548	1,343	0,096	0,049
-197,533	109,615	0,091	-0,078
-196,519	-39,320	-0,094	-0,035
-195,504	-195,568	-0,074	-0,000
-194,490	-200,000	-0,007	-0,061
-193,475	246,722	0,072	-0,087
-192,460	-30,854	-0,126	-0,050
-191,446	-200,000	0,022	0,101
-190,431	500,207	-0,054	0,089
-189,417	41,012	0,028	-0,018
-188,402	-42,187	-0,063	0,023
-187,387	180,742	-0,081	0,085
-186,373	800,000	0,065	-0,136
-185,358	-200,000	0,001	0,085
-184,344	138,436	-0,090	0,084
-183,329	-114,160	-0,102	-0,014
-182,315	66,260	0,011	0,008
-181,300	-28,409	-0,045	0,018
-180,285	181,476	0,024	-0,026
-179,271	594,391	0,090	-0,159
-178,256	-102,083	-0,040	-0,007
-177,242	-50,714	0,061	-0,020
-176,227	800,000	-0,038	0,118
-175,212	-200,000	0,020	-0,116
-174,198	-200,000	-0,022	0,082
-173,183	-200,000	-0,012	-0,088
-172,169	-145,801	0,122	-0,008
-171,154	265,429	-0,041	0,051
-170,139	65,336	-0,048	-0,034
-169,125	-200,000	-0,012	0,072
-168,110	-200,000	-0,003	0,136
-167,096	-200,000	0,009	-0,098
-166,081	800,000	0,022	0,048
-165,066	-105,912	-0,149	-0,024
-164,052	-90,053	0,050	-0,010
-163,037	47,062	-0,101	-0,066
-162,023	-39,123	0,104	0,039
-161,008	86,945	0,130	0,102
-159,993	-200,000	0,011	0,075
-158,979	38,402	-0,044	-0,028
-157,964	270,147	-0,058	-0,073
-156,950	800,000	-0,018	-0,047
-155,935	711,410	0,037	0,069
-154,920	604,419	0,057	0,102
-153,906	761,206	0,006	-0,011
-152,891	-200,000	0,008	-0,057
-151,877	36,194	0,078	0,049
-150,862	-104,208	0,083	-0,014
-149,847	37,649	0,050	-0,031
-148,833	-200,000	-0,030	0,136
-147,818	460,775	-0,006	0,010
-146,804	133,157	0,048	0,044
-145,789	-89,867	0,046	-0,009
-144,775	749,021	-0,034	-0,065
-143,760	-126,956	-0,070	0,007
-142,745	63,074	-0,069	0,049
-141,731	535,997	0,049	-0,083
-140,716	620,713	0,061	0,110
-139,702	27,839	0,075	-0,045
-138,687	18,944	0,022	-0,012
-137,672	-200,000	-0,045	0,231
-136,658	182,624	0,038	0,040
-135,643	121,124	-0,048	-0,042
-134,629	-200,000	-0,010	-0,055
-133,614	-200,000	0,018	0,091
-132,599	-49,443	0,048	0,016
-131,585	194,190	0,034	0,036
-130,570	-200,000	0,044	0,160
-129,556	95,131	-0,016	0,013
-128,541	-13,753	-0,102	0,047
-127,526	-58,351	0,095	0,029
-126,512	400,854	-0,076	0,114
-125,497	-200,000	0,012	0,044
-124,483	292,002	0,023	-0,030
-123,468	800,000	0,015	0,032
-122,453	117,584	-0,047	0,041
-121,439	-200,000	-0,000	0,046
-120,424	-108,244	0,099	-0,015
-119,410	-77,109	0,125	0,031
-118,395	107,020	0,060	-0,050
-117,380	575,652	-0,078	0,136
-116,366	-200,000	0,002	0,097
-115,351	800,000	0,008	-0,017
-114,337	-37,954	0,090	-0,034
-113,322	0,088	0,095	-0,048
-112,307	75,437	0,053	-0,039
-111,293	-118,338	0,199	0,025
-110,278	-200,000	-0,027	-0,167
-109,264	545,582	0,037	-0,063
-108,249	-49,032	-0,050	-0,017
-107,234	-103,350	0,038	-0,006
-106,220	-43,401	-0,013	-0,005
-105,205	222,134	0,051	-0,058
-104,191	160,037	-0,005	0,005
-103,176	9,994	0,036	0,019
-102,162	800,000	-0,027	0,064
-101,147	-43,691	-0,105	0,037
-100,132	219,464	0,044	-0,050
-99,118	-200,000	-0,002	-0,184
-98,103	-60,282	-0,016	-0,005
-97,089	-200,000	0,023	0,097
-96,074	698,240	0,062	0,117
-95,059	-152,308	-0,141	0,007
-94,045	131,137	-0,029	-0,027
-93,030	-200,000	-0,007	-0,097
-92,016	800,000	-0,010	0,020
-91,001	-144,670	0,097	0,006
-89,986	654,813	0,061	0,112
-88,972	-141,764	-0,021	0,001
-87,957	158,170	0,081	0,080
-86,943	-200,000	-0,003	0,109
-85,928	-200,000	0,010	-0,036
-84,913	800,000	0,019	-0,049
-83,899	-27,527	-0,028	-0,011
-82,884	-42,447	0,091	0,033
-81,870	800,000	0,039	0,091
-80,855	135,060	0,015	0,014
-79,840	-200,000	-0,001	-0,051
-78,826	132,577	-0,060	0,055
-77,811	172,658	0,064	-0,065
-76,797	-134,300	0,128	-0,011
-75,782	-19,514	-0,177	0,077
-74,767	145,921	0,041	0,039
-73,753	-200,000	-0,013	0,050
-72,738	-85,326	-0,101	-0,022
-71,724	-124,113	-0,090	0,010
-70,709	414,132	-0,074	0,112
-69,694	-200,000	-0,012	-0,132
-68,680	234,121	-0,029	0,034
-67,665	35,040	0,140	-0,086
-66,651	-14,421	0,149	0,068
-65,636	555,909	-0,051	0,088
-64,622	440,466	-0,029	-0,045
-63,607	230,775	-0,101	-0,117
-62,592	593,653	-0,023	-0,041
-61,578	59,027	0,036	-0,025
-60,563	-86,962	0,103	-0,022
-59,549	634,411	-0,121	0,218
-58,534	-17,467	-1,587	-0,703
-57,519	418,368	-1,398	-2,119
-56,505	-200,000	-0,405	-4,558
-55,490	156,279	0,934	0,912
-54,476	800,000	4,858	11,495
-53,461	-200,000	19,077	317,942
-52,446	-200,000	737,733	2325,464
-51,432	574,831	1651,177	2859,693
-50,417	78,479	1667,013	1257,655
-49,403	21,368	1539,741	882,056
-48,388	15,250	1462,489	808,178
-47,373	18,079	1452,787	816,396
-46,359	16,860	1442,458	804,742
-45,344	13,480	1438,054	786,134
-44,330	13,414	1436,056	784,694
-43,315	13,411	1434,439	783,768
-42,300	13,415	1432,569	782,734
-41,286	13,462	1431,467	782,323
-40,271	13,415	1430,191	781,370
-39,257	13,408	1428,956	780,634
-38,242	13,445	1427,615	780,047
-37,227	13,466	1426,533	779,524
-36,213	13,450	1425,304	778,742
-35,198	13,471	1423,924	778,058
-34,184	13,513	1423,144	777,800
-33,169	13,461	1421,632	776,698
-32,154	13,544	1420,531	776,457
-31,140	13,472	1419,418	775,478
-30,125	13,482	1418,354	774,914
-29,111	13,474	1417,030	774,120
-28,096	13,465	1416,001	773,486
-27,082	13,380	1415,075	772,551
-26,067	13,413	1413,798	771,976
-25,052	13,414	1412,724	771,365
-24,038	13,396	1411,950	770,828
-23,023	13,372	1410,858	770,089
-22,009	13,400	1409,727	769,570
-20,994	13,391	1408,871	769,029
-19,979	13,357	1408,025	768,380
-18,965	13,316	1407,307	767,764
-17,950	13,357	1406,109	767,275
-16,936	13,347	1405,291	766,750
-15,921	13,320	1404,063	765,925
-14,906	13,266	1403,457	765,310
-13,892	13,384	1402,060	765,066
-12,877	13,337	1401,329	764,420
-11,863	13,287	1400,656	763,790
-10,848	13,274	1399,754	763,206
-9,833	13,278	1398,877	762,718
-8,819	13,231	1397,987	761,983
-7,804	13,245	1397,044	761,506
-6,790	13,249	1395,964	760,906
-5,775	13,228	1394,995	760,252
-4,760	13,220	1394,015	759,650
-3,746	13,215	1393,127	759,111
-2,731	13,187	1392,318	758,511
-1,717	13,172	1391,482	757,957
-0,702	13,184	1389,738	757,031
0,313	17,151	1306,876	730,160
1,327	33,536	702,175	430,019
2,342	51,455	123,102	82,469
3,356	1,675	16,669	8,451
4,371	14,026	3,288	1,802
5,386	-75,419	0,453	0,113
6,400	800,000	0,097	0,221
7,415	57,375	-0,229	-0,158
8,429	-12,525	-0,248	-0,114
9,444	115,723	-0,143	-0,123
10,459	-25,711	-0,234	-0,097
11,473	95,911	-0,275	-0,222
12,488	-25,139	-0,255	-0,106
13,502	-126,774	-0,298	-0,031
14,517	68,412	-0,303	-0,219
15,531	-7,550	-0,415	-0,197
16,546	34,402	-0,313	-0,192
17,561	12,141	-0,469	-0,254
18,575	-72,676	-0,139	0,036
19,590	-16,451	-0,267	-0,119
20,604	-7,634	-0,219	-0,104
21,619	46,348	-0,421	-0,275
22,634	238,939	-0,353	-0,415
23,648	23,503	-0,401	-0,232
24,663	17,457	-0,440	-0,246
25,677	278,711	-0,334	-0,421
26,692	210,808	-0,312	-0,346
27,707	-74,376	-0,376	-0,095
28,721	99,624	-0,358	-0,292
29,736	92,902	-0,322	-0,256
30,750	-15,122	-0,376	-0,169
31,765	96,970	-0,357	-0,288
32,780	25,182	-0,352	-0,206
33,794	9,947	-0,368	-0,196
34,809	57,651	-0,350	-0,241
35,823	75,565	-0,422	-0,313
36,838	140,821	-0,254	-0,237
37,853	65,184	-0,428	-0,304
38,867	200,093	-0,358	-0,387
39,882	253,546	-0,292	-0,352
40,896	224,588	-0,114	-0,130
41,911	20,782	-0,364	-0,207
42,926	36,873	-0,281	-0,174
43,940	28,402	-0,380	-0,226
44,955	54,403	-0,377	-0,255
45,969	16,076	-0,424	-0,234
46,984	-48,327	-0,313	-0,105
47,999	-3,198	-0,283	-0,138
49,013	-5,926	-0,369	-0,177
50,028	-10,202	-0,267	-0,124
51,042	68,141	-0,353	-0,254
52,057	82,945	-0,352	-0,269
53,071	64,980	-0,334	-0,237
54,086	417,073	-0,202	-0,304
55,101	145,008	-0,374	-0,352
56,115	558,508	-0,220	-0,374
57,130	93,921	-0,374	-0,298
58,144	80,149	-0,445	-0,336
59,159	26,233	-0,347	-0,203
60,174	91,037	-0,333	-0,262
61,188	43,354	-0,267	-0,171
62,203	-50,581	-0,314	-0,103
63,217	166,650	-0,311	-0,310
64,232	-18,906	-0,390	-0,170
65,247	-85,273	-0,409	-0,089
66,261	31,125	-0,443	-0,266
67,276	137,543	-0,224	-0,206
68,290	33,963	-0,248	-0,151
69,305	46,992	-0,280	-0,183
70,320	27,494	-0,297	-0,175
71,334	-96,097	-0,313	-0,058
72,349	-77,368	-0,352	-0,085
73,363	-50,619	-0,554	-0,182
74,378	247,304	-0,265	-0,315
75,393	30,155	-0,278	-0,166
76,407	40,937	-0,152	-0,096
77,422	296,081	-0,129	-0,166
78,436	73,396	-0,199	-0,146
79,451	38,987	-0,338	-0,211
80,466	-12,311	-0,368	-0,168
81,480	-91,974	-0,393	-0,077
82,495	-25,540	-0,329	-0,136
83,509	482,234	-0,120	-0,191
84,524	47,007	-0,353	-0,230
85,539	101,543	-0,168	-0,137
86,553	104,432	-0,316	-0,261
87,568	133,103	-0,339	-0,307
88,582	182,139	-0,336	-0,348
89,597	259,972	-0,266	-0,323
90,611	182,540	-0,304	-0,315
91,626	82,102	-0,243	-0,185
92,641	95,745	-0,178	-0,142
93,655	27,348	-0,314	-0,184
94,670	86,143	-0,223	-0,172
95,684	2,571	-0,410	-0,207
96,699	53,384	-0,218	-0,146
97,714	-10,932	-0,235	-0,108
98,728	-8,298	-0,280	-0,131
99,743	9,201	-0,309	-0,163
100,757	4,982	-0,315	-0,162
101,772	453,364	-0,209	-0,324
102,787	133,497	-0,366	-0,331
103,801	252,598	-0,221	-0,264
104,816	-18,923	-0,187	-0,081
105,830	-148,906	-0,143	0,008
106,845	160,758	-0,225	-0,220
107,860	-117,507	-0,213	-0,027
108,874	270,639	-0,195	-0,240
109,889	144,943	-0,166	-0,155
110,903	76,379	-0,353	-0,261
111,918	-8,170	-0,258	-0,121
112,933	-6,897	-0,291	-0,138
113,947	132,948	-0,240	-0,217
114,962	232,600	-0,166	-0,191
115,976	89,647	-0,330	-0,258
116,991	18,079	-0,300	-0,167
118,006	-67,905	-0,319	-0,086
119,020	-46,132	-0,293	-0,100
120,035	70,495	-0,237	-0,171
121,049	64,274	-0,212	-0,149
122,064	-105,977	-0,260	-0,040
123,079	-66,271	-0,310	-0,086
124,093	155,069	-0,270	-0,259
125,108	49,640	-0,300	-0,197
126,122	170,754	-0,265	-0,265
127,137	800,000	-0,090	-0,189
128,151	66,890	-0,223	-0,159
129,166	-7,251	-0,192	-0,091
130,181	121,210	-0,184	-0,160
131,195	159,857	-0,211	-0,205
132,210	-11,630	-0,336	-0,153
133,224	189,201	-0,253	-0,265
134,239	72,547	-0,298	-0,217
135,254	133,940	-0,148	-0,134
136,268	124,638	-0,236	-0,207
137,283	-3,672	-0,286	-0,138
138,297	419,358	-0,143	-0,214
139,312	92,987	-0,161	-0,127
140,327	-42,178	-0,397	-0,141
141,341	301,382	-0,200	-0,258
142,356	800,000	-0,084	-0,223
143,370	427,097	-0,140	-0,211
144,385	101,220	-0,211	-0,172
145,400	101,454	-0,337	-0,274
146,414	800,000	-0,109	-0,232
147,429	-13,995	-0,340	-0,152
148,443	800,000	-0,111	-0,239
149,458	129,124	-0,235	-0,209
150,473	406,813	-0,138	-0,203
151,487	541,221	-0,145	-0,242
152,502	-8,962	-0,251	-0,117
153,516	-18,361	-0,260	-0,113
154,531	-31,963	-0,358	-0,139
155,546	71,788	-0,258	-0,187
156,560	73,923	-0,116	-0,085
157,575	361,529	-0,164	-0,230
158,589	-20,966	-0,252	-0,107
159,604	-85,427	-0,305	-0,066
160,619	40,856	-0,204	-0,128
161,633	31,025	-0,305	-0,182
162,648	-3,023	-0,256	-0,124
163,662	124,876	-0,167	-0,147
164,677	5,474	-0,308	-0,158
165,692	-56,231	-0,174	0,054
166,706	259,168	-0,144	-0,173
167,721	383,781	-0,176	-0,253
168,735	181,729	-0,166	-0,170
169,750	256,137	-0,219	-0,262
170,764	57,159	-0,337	-0,228
171,779	6,101	-0,180	-0,092
172,794	-79,393	-0,307	-0,072
173,808	70,204	-0,267	-0,192
174,823	468,660	-0,103	-0,161
175,837	207,259	-0,260	-0,282
176,852	-83,029	-0,225	-0,050
177,867	6,863	-0,204	-0,105
178,881	319,381	-0,071	-0,093
179,896	112,224	-0,259	-0,218
180,910	25,360	-0,397	-0,229
181,925	141,251	-0,227	-0,209
182,940	52,224	-0,311	-0,206
183,954	392,200	-0,160	-0,232
184,969	213,887	-0,177	-0,194
185,983	-53,890	-0,144	-0,045
186,998	270,080	-0,213	-0,261
188,013	9,410	-0,213	-0,112
189,027	124,519	-0,241	-0,211
190,042	164,544	-0,238	-0,233
191,056	-8,386	-0,293	-0,136
192,071	149,917	-0,250	-0,236
193,086	302,702	-0,215	-0,278
194,100	131,406	-0,203	-0,181
195,115	278,054	-0,205	-0,254
196,129	128,923	-0,151	-0,134
197,144	72,390	-0,335	-0,242
198,159	279,325	-0,203	-0,253
199,173	104,186	-0,234	-0,191
200,188	283,141	-0,073	-0,091
201,202	157,794	-0,120	-0,115
202,217	-55,268	-0,181	-0,056
203,232	238,808	-0,221	-0,255
204,246	90,137	-0,262	-0,203
205,261	155,119	-0,202	-0,193
206,275	473,931	-0,091	-0,142
207,290	154,181	-0,139	-0,133
208,304	-1,610	-0,220	-0,107
209,319	14,261	-0,236	-0,127
210,334	-73,367	-0,159	-0,040
211,348	116,813	-0,184	-0,157
212,363	76,507	-0,157	-0,115
213,377	153,144	-0,102	-0,096
214,392	88,135	-0,146	-0,112
215,407	-8,184	-0,255	-0,119
216,421	37,889	-0,146	-0,089
217,436	113,159	-0,222	-0,186
218,450	-11,831	-0,285	-0,129
219,465	800,000	-0,142	-0,275
220,480	18,214	-0,119	-0,066
221,494	662,895	-0,153	-0,274
222,509	-143,404	-0,130	0,008
223,523	305,096	-0,150	-0,193
224,538	217,301	-0,194	-0,214
225,553	483,403	-0,155	-0,245
226,567	-73,468	-0,190	-0,048
227,582	8,820	-0,194	-0,101
228,596	800,000	-0,098	-0,188
229,611	782,775	-0,020	0,038
230,626	-54,490	-0,184	-0,058
231,640	-88,924	-0,138	-0,028
232,655	478,509	-0,141	-0,221
233,669	-200,000	-0,041	-0,270
234,684	87,253	-0,159	-0,122
235,699	73,569	-0,163	-0,118
236,713	-167,565	-0,102	-0,003
237,728	95,113	-0,283	-0,223
238,742	-200,000	-0,055	-0,212
239,757	-142,580	-0,130	-0,009
240,772	141,002	-0,139	-0,127
241,786	7,527	-0,212	-0,109
242,801	60,818	-0,180	-0,123
243,815	205,386	-0,141	-0,152
244,830	136,560	-0,224	-0,202
245,844	434,244	-0,225	-0,338
246,859	22,434	-0,204	-0,115
247,874	680,967	-0,176	-0,318
248,888	-200,000	-0,054	-0,184
249,903	24,263	-0,154	-0,088
250,917	131,682	-0,139	-0,124
251,932	110,995	-0,118	-0,098
252,947	143,138	-0,148	-0,136
253,961	74,559	-0,102	-0,074
254,976	232,019	-0,232	-0,263
255,990	-200,000	-0,063	-0,196
257,005	249,623	-0,167	-0,196
258,020	-79,204	-0,151	-0,035
259,034	-25,226	-0,174	-0,071
260,049	800,000	-0,074	-0,189
261,063	120,131	-0,188	-0,161
262,078	86,251	-0,174	-0,132
263,093	42,370	-0,206	-0,129
264,107	75,252	-0,117	-0,085
265,122	-55,742	-0,024	0,008
266,136	-7,036	-0,245	-0,114
267,151	-32,931	-0,187	-0,071
268,166	17,486	-0,245	-0,134
269,180	-20,475	-0,206	-0,087
270,195	-66,082	-0,195	-0,053
271,209	107,346	-0,214	-0,175
272,224	272,060	-0,090	-0,110
273,239	-56,589	-0,158	0,048
274,253	305,525	-0,074	-0,095
275,268	-161,594	-0,313	-0,011
276,282	82,173	-0,282	-0,211
277,297	262,460	-0,082	-0,098
278,312	4,311	-0,242	-0,122
279,326	277,083	-0,153	-0,188
280,341	-23,173	-0,092	0,038
281,355	141,934	-0,091	-0,083
282,370	-28,069	-0,223	-0,089
283,384	616,311	-0,103	-0,178
284,399	800,000	-0,083	-0,232
285,414	461,663	-0,077	-0,119
286,428	-200,000	-0,029	-0,163
287,443	6,914	-0,091	0,047
288,457	362,389	-0,192	-0,265
289,472	-47,824	-0,135	-0,045
290,487	304,513	-0,152	-0,195
291,501	52,802	-0,152	-0,100
292,516	-50,564	-0,177	-0,057
293,530	-20,018	-0,267	-0,113
294,545	-133,863	-0,128	-0,011
295,560	-144,993	-0,170	0,011
296,574	550,454	-0,141	-0,234
297,589	191,177	-0,151	-0,157
298,603	132,073	-0,238	-0,211
299,618	-108,552	-0,121	-0,018
300,633	-200,000	-0,007	-0,192
301,647	-200,000	-0,040	-0,151
302,662	-120,481	-0,159	-0,018
303,676	-75,495	-0,145	-0,035
304,691	240,945	-0,154	-0,177
305,706	334,988	-0,086	-0,115
306,720	342,785	-0,141	-0,190
307,735	-11,920	-0,141	-0,063
308,749	-114,680	-0,219	-0,028
309,764	-138,429	-0,277	0,021
310,779	45,023	-0,098	-0,062
311,793	-52,185	-0,210	-0,067
312,808	504,209	-0,152	-0,243
313,822	-8,586	-0,197	-0,091
314,837	-139,437	-0,145	-0,011
315,852	-120,068	-0,068	0,008
316,866	16,677	-0,184	-0,100
317,881	29,127	-0,154	-0,090
318,895	42,580	-0,092	-0,057
319,910	-91,196	-0,206	-0,040
320,925	41,390	-0,135	-0,084
321,939	140,965	-0,089	-0,081
322,954	-200,000	-0,006	-0,140
323,968	355,210	-0,060	-0,082
324,983	-152,583	-0,079	-0,004
325,997	-200,000	-0,024	-0,115
327,012	-87,748	-0,119	-0,024
328,027	-200,000	0,000	-0,153
329,041	-60,792	-0,041	-0,012
330,056	199,700	-0,105	-0,110
331,070	157,105	-0,112	-0,106
332,085	338,404	-0,057	0,076
333,100	-26,029	-0,251	-0,101
334,114	92,839	-0,153	-0,119
335,129	-116,468	-0,175	-0,022
336,143	176,336	-0,111	-0,111
337,158	13,831	-0,108	-0,057
338,173	-171,165	-0,188	0,004
339,187	123,343	-0,140	-0,121
340,202	403,816	-0,198	-0,286
341,216	67,865	-0,149	-0,104
342,231	152,127	-0,217	-0,204
343,246	-200,000	-0,074	-0,234
344,260	122,287	-0,092	-0,079
345,275	207,590	-0,074	-0,080
346,289	-200,000	-0,031	-0,191
347,304	221,938	-0,149	-0,164
348,319	549,366	-0,087	-0,143
349,333	293,679	-0,122	-0,153
350,348	514,745	-0,104	-0,167
351,362	800,000	-0,058	-0,142
352,377	800,000	-0,028	-0,077
353,392	48,158	-0,046	-0,030
354,406	233,162	-0,110	-0,124
355,421	209,500	1313,073	1410,995
356,435	161,244	1473,602	1411,497
