DTS Sentinel unit serial number:	SN410029Multiplexer serial number:	ORYXHardware model number:	OX2-SRSoftware version number:	ORYX F/W v4,00 Oryx Data Collector v3.7.2.0data status	okinstallation	B3 Nyhavnadifferential loss correction	single-endedforward channel	channel 1reverse channel	N/Adate	2023/12/04time	20:32:30forward acquisition time	300,00reverse acquisition time	0,00gamma	499,1914k internal	0,3200k external	0,3200temperature offset calibration	1,0000default loss term (dB/km)	0,3820temperature slope calibration	1,0000multiplexer offset coefficient	1,0000multiplexer slope coefficient	1,0000fibre end	0,00T internal ref (°C)	14,44T ext. ref 1 (°C)	-0,46T ext. ref 2 (°C)	-0,48length (m)	temperature (°C)	Stokes	anti-Stokes-744,400	102,386	-0,289	-0,246
-743,385	-200,000	0,084	0,326
-742,371	800,000	-0,103	-0,241
-741,356	-200,000	0,054	0,328
-740,342	57,227	-0,327	-0,232
-739,327	-200,000	-0,007	0,260
-738,312	88,714	-0,265	-0,214
-737,298	-200,000	0,041	0,255
-736,283	800,000	-0,112	-0,347
-735,269	-200,000	0,081	0,344
-734,254	269,497	-0,239	-0,306
-733,239	441,494	-0,132	0,211
-732,225	175,601	-0,123	-0,130
-731,210	20,858	0,059	0,035
-730,196	42,457	0,058	-0,038
-729,181	-59,600	-0,073	-0,023
-728,167	-200,000	-0,020	-0,070
-727,152	-200,000	-0,007	-0,093
-726,137	-200,000	-0,041	-0,143
-725,123	610,619	0,044	-0,081
-724,108	468,321	-0,052	-0,084
-723,094	-50,529	-0,157	-0,053
-722,079	231,338	-0,125	-0,149
-721,064	21,098	-0,023	-0,014
-720,050	-10,924	-0,068	-0,032
-719,035	-200,000	-0,035	-0,163
-718,021	-200,000	-0,020	0,069
-717,006	800,000	-0,047	0,113
-715,991	182,443	-0,153	-0,164
-714,977	125,795	0,051	-0,047
-713,962	99,176	-0,054	-0,045
-712,948	-74,024	-0,057	-0,015
-711,933	395,842	0,033	0,051
-710,918	-158,723	-0,160	0,007
-709,904	-115,499	-0,167	-0,023
-708,889	-31,849	0,080	-0,032
-707,875	-128,469	-0,137	0,014
-706,860	-200,000	0,011	-0,096
-705,845	58,811	0,117	-0,083
-704,831	-200,000	0,022	-0,117
-703,816	-122,907	0,001	-0,000
-702,802	455,923	-0,014	-0,023
-701,787	-200,000	-0,028	-0,110
-700,772	76,365	0,092	-0,071
-699,758	-200,000	-0,025	-0,096
-698,743	-110,120	-0,101	-0,015
-697,729	-200,000	0,021	0,084
-696,714	48,673	-0,083	-0,056
-695,699	6,953	-0,076	-0,041
-694,685	-57,330	0,003	-0,001
-693,670	-102,530	-0,093	-0,016
-692,656	13,276	0,040	-0,022
-691,641	800,000	-0,009	0,023
-690,627	-167,232	-0,077	-0,002
-689,612	131,448	0,084	0,079
-688,597	711,535	-0,017	-0,033
-687,583	-35,686	-0,093	-0,036
-686,568	68,910	-0,130	-0,097
-685,554	800,000	0,035	0,096
-684,539	331,987	0,075	-0,105
-683,524	-11,448	-0,114	-0,054
-682,510	456,807	0,098	0,158
-681,495	411,477	-0,043	-0,066
-680,481	-200,000	-0,049	-0,173
-679,466	-149,103	-0,116	0,007
-678,451	126,941	0,029	-0,027
-677,437	-96,216	0,102	-0,019
-676,422	-200,000	-0,017	0,132
-675,408	800,000	-0,051	-0,129
-674,393	195,736	0,059	-0,065
-673,378	-101,315	-0,066	-0,012
-672,364	-200,000	-0,023	-0,103
-671,349	88,250	-0,104	-0,084
-670,335	-129,785	0,163	0,016
-669,320	-134,070	0,012	0,001
-668,305	-90,113	-0,071	-0,015
-667,291	-52,186	-0,073	-0,024
-666,276	-142,764	0,103	-0,007
-665,262	800,000	0,034	0,088
-664,247	699,573	0,027	0,052
-663,232	-200,000	-0,001	-0,042
-662,218	800,000	-0,039	0,104
-661,203	13,412	0,157	-0,088
-660,189	-150,780	-0,108	0,006
-659,174	381,234	-0,026	0,039
-658,159	102,762	0,060	-0,051
-657,145	800,000	-0,053	0,140
-656,130	-200,000	0,011	0,095
-655,116	82,263	0,057	0,044
-654,101	719,735	-0,046	-0,089
-653,086	38,774	-0,052	-0,034
-652,072	-116,216	-0,104	-0,014
-651,057	-200,000	-0,030	-0,130
-650,043	-17,678	0,158	-0,072
-649,028	-200,000	-0,015	-0,088
-648,014	-57,913	0,143	0,045
-646,999	800,000	-0,049	-0,118
-645,984	-200,000	0,001	-0,015
-644,970	6,319	-0,020	0,011
-643,955	-200,000	-0,034	0,170
-642,941	503,638	-0,080	-0,135
-641,926	-200,000	0,001	0,066
-640,911	82,212	0,051	0,040
-639,897	-10,714	0,018	0,008
-638,882	84,564	0,055	0,043
-637,868	-58,211	-0,124	-0,039
-636,853	-34,005	0,041	-0,016
-635,838	8,627	0,077	-0,042
-634,824	49,177	-0,073	0,049
-633,809	23,860	-0,086	0,051
-632,795	-78,299	-0,135	-0,033
-631,780	-200,000	0,035	0,164
-630,765	217,968	-0,093	0,107
-629,751	-200,000	-0,007	0,154
-628,736	-111,101	0,158	0,023
-627,722	800,000	-0,006	-0,017
-626,707	147,610	0,046	0,045
-625,692	220,497	-0,032	-0,038
-624,678	296,412	0,039	-0,051
-623,663	800,000	-0,020	-0,052
-622,649	247,405	-0,071	-0,087
-621,634	545,355	-0,057	0,099
-620,619	104,567	-0,076	-0,065
-619,605	66,320	-0,075	0,055
-618,590	-200,000	-0,019	-0,087
-617,576	22,953	0,046	-0,027
-616,561	-200,000	0,015	-0,050
-615,546	142,707	-0,075	-0,072
-614,532	110,263	-0,135	-0,118
-613,517	19,097	-0,036	0,021
-612,503	-40,729	-0,090	0,033
-611,488	127,490	-0,081	0,074
-610,474	63,459	-0,072	-0,052
-609,459	-93,644	0,100	0,020
-608,444	196,787	0,137	-0,152
-607,430	119,459	-0,087	-0,078
-606,415	-200,000	-0,003	-0,013
-605,401	85,156	0,063	-0,050
-604,386	-186,594	0,082	-0,001
-603,371	-200,000	-0,022	-0,122
-602,357	417,933	0,056	-0,087
-601,342	233,307	-0,032	0,039
-600,328	-200,000	0,025	-0,131
-599,313	85,018	0,010	0,008
-598,298	-200,000	0,015	-0,072
-597,284	-45,547	0,105	0,038
-596,269	345,997	-0,038	0,053
-595,255	-200,000	-0,014	0,058
-594,240	-42,328	-0,112	-0,041
-593,225	-118,203	-0,055	0,007
-592,211	-200,000	-0,001	-0,062
-591,196	-200,000	-0,011	-0,072
-590,182	800,000	-0,068	-0,137
-589,167	9,282	0,029	-0,016
-588,152	-82,545	-0,098	0,023
-587,138	96,203	-0,069	0,057
-586,123	-108,727	-0,116	-0,018
-585,109	42,151	0,146	-0,096
-584,094	800,000	-0,082	0,199
-583,079	58,577	0,056	-0,040
-582,065	-42,838	0,115	0,042
-581,050	-24,256	-0,137	0,059
-580,036	366,101	0,056	0,082
-579,021	800,000	0,025	0,059
-578,006	800,000	-0,027	-0,082
-576,992	63,149	-0,022	0,016
-575,977	40,353	0,095	0,062
-574,963	-57,709	0,111	0,035
-573,948	-111,097	-0,098	0,014
-572,934	-7,811	0,043	-0,021
-571,919	0,517	-0,090	-0,046
-570,904	476,035	0,062	-0,101
-569,890	101,163	0,026	0,022
-568,875	385,494	-0,040	0,060
-567,861	-200,000	-0,018	0,075
-566,846	-13,369	-0,016	0,008
-565,831	800,000	-0,010	-0,024
-564,817	149,278	-0,052	0,051
-563,802	402,059	0,010	0,015
-562,788	-106,927	0,066	0,010
-561,773	29,332	0,071	0,043
-560,758	96,218	0,036	-0,029
-559,744	-133,106	-0,127	-0,012
-558,729	-82,557	-0,089	0,021
-557,715	-93,183	-0,052	0,010
-556,700	800,000	0,016	-0,049
-555,685	-57,972	-0,153	-0,048
-554,671	-200,000	0,020	-0,083
-553,656	471,591	0,042	0,069
-552,642	77,013	-0,054	-0,042
-551,627	473,275	0,037	-0,060
-550,612	-200,000	0,018	-0,090
-549,598	-200,000	-0,011	-0,058
-548,583	22,434	-0,102	-0,060
-547,569	354,361	0,052	0,075
-546,554	-107,446	0,122	0,019
-545,539	-81,276	0,170	0,040
-544,525	96,558	0,006	-0,005
-543,510	-200,000	-0,015	0,111
-542,496	165,479	-0,039	-0,040
-541,481	378,040	0,041	-0,060
-540,466	-200,000	0,009	-0,054
-539,452	200,333	-0,015	-0,016
-538,437	399,578	0,073	0,111
-537,423	62,940	-0,083	-0,060
-536,408	333,306	-0,033	0,047
-535,393	71,949	0,035	0,026
-534,379	-200,000	0,008	-0,057
-533,364	113,000	-0,045	0,039
-532,350	-42,259	0,119	-0,044
-531,335	-129,238	0,070	-0,007
-530,321	-67,497	-0,057	-0,016
-529,306	300,367	0,021	-0,028
-528,291	-33,197	-0,015	0,006
-527,277	66,753	-0,116	0,085
-526,262	96,044	0,071	-0,059
-525,248	-57,399	0,133	-0,042
-524,233	44,090	0,031	-0,021
-523,218	-200,000	-0,012	0,059
-522,204	-110,757	-0,078	0,011
-521,189	-15,476	-0,052	0,024
-520,175	67,865	0,071	-0,052
-519,160	-145,145	-0,075	-0,005
-518,145	-78,721	0,085	-0,021
-517,131	33,259	0,109	0,068
-516,116	-91,064	-0,140	-0,029
-515,102	190,781	0,049	0,053
-514,087	-200,000	-0,001	-0,031
-513,072	425,122	-0,068	-0,105
-512,058	-49,155	0,067	-0,023
-511,043	363,279	0,048	0,070
-510,029	-161,838	0,137	0,005
-509,014	-200,000	0,004	-0,052
-507,999	-200,000	0,022	0,085
-506,985	544,606	-0,040	0,070
-505,970	-11,745	-0,054	-0,026
-504,956	-200,000	-0,010	0,101
-503,941	-200,000	-0,012	0,061
-502,926	-102,997	0,152	0,026
-501,912	388,041	-0,032	0,048
-500,897	436,335	0,061	0,096
-499,883	478,234	-0,014	-0,023
-498,868	23,621	-0,037	0,022
-497,853	110,903	0,032	-0,028
-496,839	406,705	-0,052	0,080
-495,824	800,000	-0,014	0,033
-494,810	145,319	0,013	0,012
-493,795	-200,000	0,004	0,016
-492,781	429,977	-0,079	-0,123
-491,766	-200,000	0,003	-0,145
-490,751	-50,769	-0,082	-0,028
-489,737	-35,474	-0,046	-0,018
-488,722	18,522	0,051	0,029
-487,708	-106,041	0,036	0,006
-486,693	227,251	-0,047	0,055
-485,678	27,808	-0,065	-0,039
-484,664	216,776	-0,163	-0,187
-483,649	563,429	0,039	-0,069
-482,635	201,657	-0,071	-0,079
-481,620	-165,117	0,071	-0,002
-480,605	28,645	-0,020	-0,012
-479,591	-200,000	-0,004	-0,092
-478,576	-37,034	0,168	0,065
-477,562	-41,046	-0,111	0,041
-476,547	185,622	0,091	0,098
-475,532	-37,441	0,094	-0,036
-474,518	800,000	-0,036	0,091
-473,503	-91,763	0,125	0,025
-472,489	-200,000	-0,003	-0,026
-471,474	498,769	-0,033	0,055
-470,459	-118,178	0,052	-0,007
-469,445	100,309	-0,085	-0,071
-468,430	197,483	-0,125	-0,138
-467,416	800,000	0,079	-0,182
-466,401	498,500	0,035	0,058
-465,386	-200,000	-0,006	0,041
-464,372	800,000	0,068	0,162
-463,357	67,993	0,034	-0,025
-462,343	800,000	0,034	-0,078
-461,328	800,000	0,012	-0,028
-460,313	-193,532	0,080	0,000
-459,299	-88,564	0,091	0,019
-458,284	40,223	-0,114	-0,074
-457,270	171,394	-0,021	0,022
-456,255	153,752	0,088	-0,087
-455,241	328,173	-0,050	0,070
-454,226	279,584	0,038	0,049
-453,211	800,000	0,028	0,079
-452,197	-200,000	-0,025	0,128
-451,182	-190,988	0,199	0,001
-450,168	-200,000	-0,016	-0,117
-449,153	-27,036	-0,039	-0,016
-448,138	-200,000	-0,019	-0,101
-447,124	-11,638	-0,092	0,043
-446,109	399,151	0,100	-0,151
-445,095	-38,370	0,058	-0,022
-444,080	406,751	0,044	0,067
-443,065	-200,000	0,002	0,054
-442,051	-200,000	0,007	-0,066
-441,036	-197,749	0,091	-0,000
-440,022	232,077	0,052	-0,061
-439,007	323,349	-0,081	-0,112
-437,992	-30,791	-0,132	0,053
-436,978	800,000	0,045	0,096
-435,963	-99,433	0,080	0,014
-434,949	322,001	0,047	0,065
-433,934	-200,000	0,051	0,165
-432,919	-152,946	-0,148	0,007
-431,905	-2,288	0,122	-0,061
-430,890	167,118	0,022	0,022
-429,876	171,784	0,058	0,060
-428,861	-89,508	0,082	-0,017
-427,846	327,790	0,043	0,060
-426,832	800,000	-0,006	0,017
-425,817	-200,000	-0,006	-0,068
-424,803	78,981	-0,119	-0,091
-423,788	-137,899	0,078	0,006
-422,773	-200,000	0,041	0,158
-421,759	-200,000	0,028	0,179
-420,744	427,246	0,043	0,068
-419,730	45,456	0,045	0,030
-418,715	-57,391	-0,050	0,016
-417,701	-168,703	-0,042	0,001
-416,686	120,708	-0,032	-0,028
-415,671	-106,055	0,056	0,009
-414,657	800,000	0,040	0,114
-413,642	292,475	-0,064	0,084
-412,628	-140,512	-0,087	0,006
-411,613	57,765	-0,072	-0,051
-410,598	284,198	0,130	-0,169
-409,584	72,112	-0,033	-0,025
-408,569	-200,000	-0,005	0,062
-407,555	-94,785	0,128	0,025
-406,540	-42,130	-0,032	0,012
-405,525	90,768	0,030	0,024
-404,511	355,078	0,065	0,093
-403,496	3,576	0,065	-0,034
-402,482	145,477	0,110	0,106
-401,467	-200,000	-0,009	-0,124
-400,452	800,000	0,027	0,080
-399,438	162,084	-0,036	-0,036
-398,423	9,047	-0,121	-0,065
-397,409	-12,093	-0,035	0,016
-396,394	800,000	-0,029	0,070
-395,379	395,948	-0,033	0,049
-394,365	261,925	0,032	0,039
-393,350	-200,000	-0,010	-0,046
-392,336	-73,519	-0,011	0,003
-391,321	-200,000	-0,025	0,096
-390,306	15,264	-0,095	0,053
-389,292	-200,000	0,006	0,115
-388,277	45,087	-0,093	0,061
-387,263	1,641	0,109	0,056
-386,248	-38,241	-0,115	-0,044
-385,233	800,000	-0,071	-0,157
-384,219	154,734	0,037	0,037
-383,204	5,872	-0,092	-0,049
-382,190	-46,805	-0,029	0,010
-381,175	77,192	0,050	0,038
-380,160	800,000	0,023	0,073
-379,146	800,000	-0,043	0,125
-378,131	336,632	-0,048	0,067
-377,117	140,014	0,090	0,085
-376,102	-200,000	-0,017	0,058
-375,088	-18,710	-0,115	-0,051
-374,073	141,324	0,070	-0,066
-373,058	800,000	0,006	-0,015
-372,044	572,288	0,043	0,076
-371,029	-42,658	-0,050	-0,018
-370,015	-174,894	-0,069	-0,001
-369,000	-63,389	-0,060	-0,017
-367,985	102,115	-0,096	-0,080
-366,971	620,095	-0,024	-0,043
-365,956	-1,803	-0,115	0,058
-364,942	163,196	0,091	0,092
-363,927	-108,669	0,156	0,024
-362,912	-200,000	0,027	0,120
-361,898	132,167	-0,075	0,070
-360,883	-200,000	-0,003	-0,044
-359,869	-200,000	-0,008	0,053
-358,854	705,870	-0,038	-0,073
-357,839	-200,000	-0,006	0,042
-356,825	244,281	-0,037	0,044
-355,810	224,587	-0,050	0,058
-354,796	350,443	-0,089	-0,127
-353,781	278,617	0,065	-0,083
-352,766	-63,220	-0,125	-0,037
-351,752	136,828	0,057	0,053
-350,737	-200,000	-0,014	0,065
-349,723	745,013	-0,035	-0,067
-348,708	-200,000	-0,018	-0,069
-347,693	-107,330	-0,079	-0,012
-346,679	-180,609	-0,146	0,002
-345,664	321,956	0,039	-0,053
-344,650	-119,066	0,061	-0,008
-343,635	92,178	0,136	0,110
-342,620	176,625	-0,095	0,099
-341,606	292,166	-0,048	-0,063
-340,591	178,953	0,092	0,096
-339,577	-200,000	-0,007	-0,037
-338,562	157,544	-0,052	-0,052
-337,548	-167,154	-0,029	-0,001
-336,533	-76,670	0,092	0,023
-335,518	85,592	0,082	0,065
-334,504	497,235	0,065	0,108
-333,489	29,757	0,062	0,038
-332,475	-200,000	0,007	0,042
-331,460	800,000	-0,020	-0,057
-330,445	-200,000	-0,039	0,152
-329,431	-100,125	0,032	-0,006
-328,416	-200,000	0,024	0,109
-327,402	-80,597	0,218	-0,051
-326,387	-173,443	-0,135	0,003
-325,372	-41,067	-0,093	-0,034
-324,358	98,535	-0,158	0,131
-323,343	253,684	-0,063	0,077
-322,329	-195,763	0,053	0,000
-321,314	234,414	-0,060	0,071
-320,299	-126,729	-0,071	-0,007
-319,285	800,000	0,015	0,044
-318,270	-200,000	0,035	-0,113
-317,256	104,464	-0,027	-0,023
-316,241	-50,367	-0,110	-0,037
-315,226	78,660	0,092	-0,070
-314,212	-200,000	0,036	-0,143
-313,197	-200,000	-0,002	-0,081
-312,183	-200,000	0,003	0,009
-311,168	455,699	-0,033	-0,052
-310,153	-200,000	0,030	-0,157
-309,139	-75,065	-0,083	-0,021
-308,124	-114,668	-0,110	0,015
-307,110	101,545	0,062	0,052
-306,095	-14,401	0,162	0,074
-305,080	193,374	0,085	0,092
-304,066	800,000	0,032	-0,075
-303,051	36,367	-0,073	-0,046
-302,037	-88,102	-0,059	-0,012
-301,022	293,811	-0,074	-0,097
-300,008	-200,000	-0,022	-0,101
-298,993	90,729	0,106	-0,085
-297,978	-200,000	-0,004	0,075
-296,964	-143,673	0,074	-0,005
-295,949	-200,000	0,023	-0,152
-294,935	9,460	0,160	-0,086
-293,920	373,796	-0,024	-0,035
-292,905	559,373	-0,070	0,122
-291,891	93,109	0,093	0,075
-290,876	-153,345	0,078	0,004
-289,862	-127,964	0,096	-0,010
-288,847	157,436	0,072	0,071
-287,832	-104,635	-0,070	0,011
-286,818	-15,611	-0,104	-0,047
-285,803	-144,673	0,093	-0,006
-284,789	120,108	0,101	0,089
-283,774	-200,000	0,024	0,161
-282,759	-200,000	-0,020	-0,084
-281,745	756,719	0,086	-0,167
-280,730	800,000	0,032	0,073
-279,716	-200,000	-0,001	0,051
-278,701	244,732	0,051	0,062
-277,686	174,148	-0,029	0,030
-276,672	-3,060	0,140	0,069
-275,657	64,750	0,036	-0,026
-274,643	-200,000	-0,049	-0,178
-273,628	-77,843	-0,037	-0,009
-272,613	218,614	-0,065	0,074
-271,599	-200,000	0,005	0,066
-270,584	83,461	0,055	0,043
-269,570	152,947	-0,099	0,097
-268,555	-172,501	0,056	-0,001
-267,540	-200,000	-0,001	-0,066
-266,526	-80,125	-0,156	-0,037
-265,511	706,809	0,050	-0,094
-264,497	230,094	0,120	-0,141
-263,482	429,283	0,034	0,053
-262,467	-25,864	0,013	-0,006
-261,453	480,741	0,016	0,027
-260,438	191,248	-0,032	-0,035
-259,424	800,000	-0,047	-0,102
-258,409	800,000	-0,037	-0,105
-257,395	-200,000	0,010	0,077
-256,380	-41,570	0,213	-0,078
-255,365	-66,617	0,054	-0,015
-254,351	100,404	-0,069	-0,057
-253,336	149,256	0,033	0,032
-252,322	800,000	-0,066	-0,145
-251,307	397,238	0,028	0,042
-250,292	-89,970	0,086	-0,018
-249,278	198,322	-0,012	-0,013
-248,263	-159,237	-0,083	0,003
-247,249	-128,097	-0,128	-0,013
-246,234	-200,000	-0,001	0,012
-245,219	-58,494	-0,039	-0,012
-244,205	114,316	0,079	0,068
-243,190	-8,226	-0,054	-0,026
-242,176	-26,981	0,046	0,019
-241,161	-117,778	0,054	-0,007
-240,146	-200,000	-0,011	0,057
-239,132	-200,000	-0,004	-0,024
-238,117	-6,083	-0,097	-0,047
-237,103	-95,160	-0,050	-0,009
-236,088	74,985	-0,033	-0,025
-235,073	-200,000	0,009	-0,047
-234,059	-40,460	-0,149	-0,055
-233,044	-200,000	0,006	0,082
-232,030	281,174	0,028	-0,036
-231,015	2,791	-0,068	-0,035
-230,000	438,218	-0,046	-0,072
-228,986	223,696	0,037	0,042
-227,971	474,886	-0,062	0,100
-226,957	290,705	0,131	0,170
-225,942	185,418	0,069	-0,073
-224,927	-200,000	0,001	-0,021
-223,913	-1,499	0,050	-0,025
-222,898	-43,385	-0,042	-0,015
-221,884	36,608	0,038	-0,024
-220,869	114,650	-0,022	-0,019
-219,855	800,000	-0,024	0,051
-218,840	15,605	0,119	0,067
-217,825	81,686	-0,081	0,063
-216,811	-90,696	-0,078	-0,016
-215,796	190,464	-0,073	-0,078
-214,782	800,000	-0,061	-0,163
-213,767	-200,000	-0,011	-0,106
-212,752	800,000	0,051	0,126
-211,738	569,824	0,069	0,121
-210,723	7,716	-0,131	-0,070
-209,709	-6,097	-0,054	-0,026
-208,694	-200,000	0,017	0,066
-207,679	101,943	-0,040	-0,033
-206,665	-155,332	0,103	-0,005
-205,650	800,000	0,038	0,106
-204,636	4,758	0,092	0,048
-203,621	800,000	0,031	0,088
-202,606	-171,876	0,074	-0,002
-201,592	365,166	-0,035	0,050
-200,577	800,000	-0,033	-0,102
-199,563	-200,000	0,016	-0,079
-198,548	17,701	0,086	0,049
-197,533	399,010	-0,023	0,034
-196,519	-27,381	-0,062	-0,026
-195,504	-200,000	0,028	0,101
-194,490	-83,029	-0,070	-0,016
-193,475	179,051	0,059	0,062
-192,460	-200,000	0,016	-0,061
-191,446	800,000	-0,037	-0,079
-190,431	198,287	0,056	-0,061
-189,417	202,352	-0,049	-0,054
-188,402	-37,687	0,047	-0,018
-187,387	-183,555	-0,103	0,001
-186,373	-4,695	-0,140	-0,069
-185,358	-74,759	0,149	-0,038
-184,344	588,072	-0,090	0,158
-183,329	192,222	-0,014	-0,015
-182,315	151,708	0,019	0,018
-181,300	398,789	-0,087	-0,130
-180,285	-94,377	0,051	-0,010
-179,271	-99,419	0,048	-0,009
-178,256	592,051	0,023	-0,040
-177,242	-200,000	-0,012	0,039
-176,227	-200,000	0,021	0,068
-175,212	42,804	-0,023	0,015
-174,198	-200,000	0,016	-0,090
-173,183	-135,685	-0,152	0,013
-172,169	365,651	0,059	-0,084
-171,154	-200,000	0,013	-0,072
-170,139	-84,693	0,063	0,014
-169,125	-63,121	-0,095	-0,028
-168,110	-186,547	-0,027	0,000
-167,096	-200,000	0,010	-0,058
-166,081	43,769	0,061	-0,040
-165,066	-26,432	-0,079	0,033
-164,052	80,831	0,163	-0,125
-163,037	-200,000	-0,018	0,151
-162,023	265,078	0,071	0,089
-161,008	250,345	-0,050	-0,060
-159,993	-200,000	0,049	0,183
-158,979	33,566	-0,072	-0,044
-157,964	-152,084	-0,052	-0,003
-156,950	-200,000	-0,033	-0,109
-155,935	-71,925	0,095	-0,025
-154,920	-22,477	-0,084	-0,036
-153,906	800,000	0,027	0,077
-152,891	-200,000	0,013	0,050
-151,877	-200,000	0,005	0,047
-150,862	-156,660	-0,071	0,003
-149,847	789,606	0,024	-0,048
-148,833	800,000	0,036	-0,073
-147,818	-200,000	0,023	0,129
-146,804	9,791	0,062	-0,033
-145,789	121,839	-0,071	-0,063
-144,775	-200,000	0,033	-0,275
-143,760	168,028	-0,082	-0,083
-142,745	-200,000	0,020	-0,107
-141,731	187,289	0,103	-0,109
-140,716	-200,000	-0,005	-0,082
-139,702	1,857	0,142	0,073
-138,687	-35,958	0,128	-0,049
-137,672	133,190	-0,065	-0,059
-136,658	74,131	-0,128	-0,095
-135,643	-200,000	-0,037	-0,164
-134,629	-200,000	-0,003	0,025
-133,614	-148,822	0,045	-0,003
-132,599	54,941	0,132	0,091
-131,585	-71,811	-0,140	0,037
-130,570	47,362	0,057	-0,038
-129,556	800,000	0,042	0,107
-128,541	10,624	-0,053	-0,029
-127,526	96,021	0,026	-0,021
-126,512	-200,000	0,007	-0,075
-125,497	800,000	0,050	0,140
-124,483	-51,062	-0,070	-0,023
-123,468	-151,659	-0,011	0,001
-122,453	437,544	-0,124	0,192
-121,439	-82,237	-0,035	0,008
-120,424	12,655	-0,037	-0,020
-119,410	-65,853	0,111	-0,031
-118,395	40,313	0,096	-0,061
-117,380	95,309	0,029	0,024
-116,366	-200,000	-0,027	0,112
-115,351	800,000	0,012	-0,025
-114,337	-200,000	0,010	0,043
-113,322	5,380	0,045	-0,024
-112,307	27,034	-0,129	0,077
-111,293	90,673	-0,078	0,062
-110,278	31,327	-0,046	-0,028
-109,264	43,088	-0,016	-0,010
-108,249	-138,195	-0,063	0,005
-107,234	800,000	-0,070	0,178
-106,220	446,112	-0,035	-0,054
-105,205	-200,000	0,010	-0,054
-104,191	-5,455	0,145	0,070
-103,176	-67,449	0,036	-0,010
-102,162	-200,000	-0,006	-0,102
-101,147	-60,692	-0,033	-0,010
-100,132	-200,000	0,020	-0,124
-99,118	31,484	0,031	-0,019
-98,103	481,719	0,012	-0,020
-97,089	-200,000	0,002	0,039
-96,074	800,000	0,031	-0,088
-95,059	-200,000	0,015	-0,061
-94,045	538,159	0,069	-0,118
-93,030	-200,000	-0,032	0,128
-92,016	108,277	-0,102	-0,086
-91,001	283,062	0,130	0,167
-89,986	-182,070	0,170	-0,002
-88,972	610,856	0,040	0,071
-87,957	290,466	-0,083	0,107
-86,943	-200,000	0,021	-0,113
-85,928	468,858	-0,059	-0,093
-84,913	-69,804	-0,100	-0,027
-83,899	149,257	0,078	0,075
-82,884	-124,186	0,148	-0,016
-81,870	-50,729	0,033	-0,011
-80,855	187,865	0,110	0,116
-79,840	-200,000	0,029	-0,108
-78,826	-169,344	-0,091	0,002
-77,811	-33,809	-0,091	0,035
-76,797	376,478	-0,029	0,042
-75,782	800,000	0,032	0,063
-74,767	176,937	0,124	0,128
-73,753	-200,000	-0,006	0,051
-72,738	261,305	0,074	0,091
-71,724	52,894	0,101	-0,068
-70,709	-200,000	-0,026	-0,088
-69,694	-5,640	0,037	-0,018
-68,680	-200,000	0,025	0,116
-67,665	-45,300	0,149	0,052
-66,651	800,000	0,005	0,011
-65,636	-96,640	0,184	0,034
-64,622	800,000	-0,025	-0,054
-63,607	141,903	-0,069	0,064
-62,592	341,756	0,039	-0,054
-61,578	36,585	0,125	-0,078
-60,563	800,000	0,037	-0,075
-59,549	-200,000	-0,006	0,067
-58,534	-34,032	-1,554	-0,602
-57,519	475,018	-1,322	-2,121
-56,505	-200,000	-0,669	-4,537
-55,490	98,478	1,058	0,864
-54,476	800,000	4,877	11,319
-53,461	-200,000	18,560	298,260
-52,446	800,000	732,670	2262,236
-51,432	559,125	1649,036	2829,896
-50,417	78,764	1668,690	1262,807
-49,403	22,369	1541,559	889,896
-48,388	16,311	1464,511	816,025
-47,373	17,799	1454,394	817,535
-46,359	16,990	1444,939	808,309
-45,344	14,567	1440,302	794,095
-44,330	14,496	1438,293	792,617
-43,315	14,527	1436,637	791,818
-42,300	14,525	1434,977	790,862
-41,286	14,548	1433,961	790,382
-40,271	14,525	1432,506	789,437
-39,257	14,495	1431,070	788,475
-38,242	14,583	1429,896	788,214
-37,227	14,544	1428,856	787,425
-36,213	14,562	1427,379	786,663
-35,198	14,499	1426,389	785,790
-34,184	14,586	1425,210	785,521
-33,169	14,497	1424,038	784,423
-32,154	14,522	1423,004	783,941
-31,140	14,531	1421,769	783,272
-30,125	14,568	1420,761	782,859
-29,111	14,578	1419,410	782,129
-28,096	14,525	1418,102	781,128
-27,082	14,501	1417,124	780,444
-26,067	14,506	1416,042	779,844
-25,052	14,447	1415,292	779,121
-24,038	14,470	1414,115	778,552
-23,023	14,436	1413,228	777,871
-22,009	14,478	1412,189	777,467
-20,994	14,400	1411,309	776,586
-19,979	14,429	1410,185	776,069
-18,965	14,402	1409,464	775,516
-17,950	14,410	1408,394	774,933
-16,936	14,426	1407,365	774,412
-15,921	14,389	1406,491	773,728
-14,906	14,332	1405,541	772,910
-13,892	14,383	1404,543	772,567
-12,877	14,354	1403,673	771,923
-11,863	14,374	1402,717	771,462
-10,848	14,354	1401,989	770,934
-9,833	14,301	1401,101	770,171
-8,819	14,302	1400,048	769,565
-7,804	14,269	1399,224	768,927
-6,790	14,286	1398,213	768,421
-5,775	14,268	1397,287	767,800
-4,760	14,260	1396,297	767,187
-3,746	14,267	1395,376	766,681
-2,731	14,288	1394,529	766,286
-1,717	14,263	1393,593	765,625
-0,702	14,285	1391,784	764,700
0,313	18,124	1310,273	737,698
1,327	34,595	705,871	435,553
2,342	53,038	124,171	83,970
3,356	3,999	16,528	8,525
4,371	5,233	3,328	1,730
5,386	14,872	0,508	0,281
6,400	212,621	0,105	0,117
7,415	800,000	-0,121	-0,271
8,429	200,841	-0,218	-0,238
9,444	15,324	-0,338	-0,187
10,459	130,826	-0,287	-0,260
11,473	-30,408	-0,304	-0,121
12,488	162,479	-0,229	-0,227
13,502	-39,667	-0,299	-0,110
14,517	72,360	-0,283	-0,208
15,531	49,754	-0,252	-0,168
16,546	89,639	-0,292	-0,230
17,561	157,314	-0,364	-0,356
18,575	545,155	-0,088	-0,149
19,590	26,510	-0,249	-0,147
20,604	-39,629	-0,267	-0,098
21,619	161,061	-0,382	-0,378
22,634	197,828	-0,441	-0,476
23,648	81,793	-0,433	-0,331
24,663	119,825	-0,260	-0,227
25,677	55,902	-0,273	-0,186
26,692	151,601	-0,171	-0,164
27,707	118,228	-0,309	-0,269
28,721	129,377	-0,263	-0,237
29,736	94,001	-0,493	-0,394
30,750	185,625	-0,341	-0,358
31,765	121,034	-0,283	-0,248
32,780	-25,847	-0,395	-0,163
33,794	10,400	-0,301	-0,161
34,809	43,633	-0,310	-0,200
35,823	-6,576	-0,338	-0,162
36,838	69,220	-0,358	-0,259
37,853	82,423	-0,293	-0,224
38,867	114,494	-0,449	-0,386
39,882	19,392	-0,387	-0,219
40,896	120,811	-0,380	-0,333
41,911	166,184	-0,361	-0,361
42,926	45,345	-0,316	-0,205
43,940	325,484	-0,211	-0,285
44,955	-13,784	-0,445	-0,202
45,969	452,726	-0,197	-0,309
46,984	328,442	-0,222	-0,301
47,999	272,208	-0,212	-0,264
49,013	23,157	-0,327	-0,189
50,028	350,083	-0,248	-0,346
51,042	5,675	-0,411	-0,213
52,057	-49,027	-0,313	-0,105
53,071	173,288	-0,283	-0,288
54,086	86,174	-0,326	-0,253
55,101	-2,933	-0,356	-0,175
56,115	47,777	-0,368	-0,241
57,130	20,273	-0,322	-0,182
58,144	16,043	-0,396	-0,219
59,159	141,329	-0,360	-0,335
60,174	40,938	-0,382	-0,242
61,188	-15,403	-0,391	-0,175
62,203	35,447	-0,325	-0,201
63,217	-12,735	-0,262	-0,120
64,232	409,422	-0,212	-0,317
65,247	-41,670	-0,402	-0,144
66,261	5,557	-0,358	-0,186
67,276	38,311	-0,270	-0,169
68,290	59,651	-0,317	-0,220
69,305	163,796	-0,243	-0,241
70,320	57,735	-0,329	-0,226
71,334	92,448	-0,270	-0,214
72,349	-28,442	-0,445	-0,180
73,363	21,127	-0,317	-0,180
74,378	-1,097	-0,438	-0,217
75,393	61,663	-0,362	-0,253
76,407	87,523	-0,280	-0,218
77,422	126,956	-0,340	-0,303
78,436	-43,886	-0,342	-0,120
79,451	-32,306	-0,300	-0,117
80,466	-88,301	-0,417	-0,087
81,480	-41,732	-0,216	0,078
82,495	64,319	-0,317	-0,224
83,509	127,490	-0,148	-0,132
84,524	18,353	-0,146	-0,082
85,539	-52,910	-0,355	-0,114
86,553	275,919	-0,218	-0,273
87,568	43,694	-0,232	-0,149
88,582	183,934	-0,330	-0,344
89,597	14,391	-0,336	-0,184
90,611	66,994	-0,266	-0,190
91,626	159,297	-0,245	-0,239
92,641	144,894	-0,250	-0,235
93,655	104,869	-0,185	-0,153
94,670	89,928	-0,325	-0,255
95,684	45,210	-0,376	-0,243
96,699	59,727	-0,304	-0,210
97,714	287,216	-0,158	-0,201
98,728	-1,731	-0,307	-0,151
99,743	84,018	-0,272	-0,208
100,757	3,113	-0,114	-0,058
101,772	212,945	-0,200	-0,222
102,787	171,855	-0,278	-0,280
103,801	11,601	-0,260	-0,139
104,816	-40,221	-0,281	-0,102
105,830	64,147	-0,143	-0,100
106,845	14,031	-0,267	-0,145
107,860	25,786	-0,269	-0,157
108,874	3,638	-0,331	-0,169
109,889	156,707	-0,203	-0,197
110,903	303,125	-0,238	-0,310
111,918	162,258	-0,272	-0,267
112,933	99,444	-0,204	-0,165
113,947	247,531	-0,099	-0,117
114,962	64,470	-0,336	-0,237
115,976	-23,742	-0,294	-0,123
116,991	81,339	-0,299	-0,226
118,006	-54,503	-0,409	-0,129
119,020	111,284	-0,211	-0,178
120,035	120,966	-0,240	-0,209
121,049	-2,470	-0,194	-0,095
122,064	-173,096	-0,290	-0,006
123,079	-70,178	-0,264	-0,070
124,093	81,203	-0,205	-0,155
125,108	82,992	-0,343	-0,261
126,122	195,313	-0,228	-0,243
127,137	503,751	-0,159	-0,258
128,151	-3,498	-0,399	-0,194
129,166	48,851	-0,218	-0,143
130,181	1,625	-0,267	-0,134
131,195	124,596	-0,240	-0,211
132,210	22,226	-0,213	-0,121
133,224	-34,324	-0,246	-0,094
134,239	5,125	-0,205	-0,105
135,254	-200,000	-0,046	-0,212
136,268	-44,250	-0,228	-0,080
137,283	79,417	-0,153	-0,115
138,297	221,842	-0,240	-0,271
139,312	62,735	-0,343	-0,240
140,327	294,000	-0,250	-0,320
141,341	136,769	-0,162	-0,148
142,356	79,033	-0,229	-0,171
143,370	90,836	-0,188	-0,147
144,385	-14,617	-0,335	-0,150
145,400	135,574	-0,204	-0,186
146,414	269,465	-0,212	-0,260
147,429	180,718	-0,284	-0,291
148,443	-31,522	-0,305	-0,119
149,458	509,298	-0,142	-0,232
150,473	-7,936	-0,210	-0,099
151,487	239,488	-0,200	-0,233
152,502	-48,273	-0,215	-0,072
153,516	-121,589	-0,236	-0,027
154,531	18,012	-0,353	-0,196
155,546	209,608	-0,249	-0,272
156,560	138,291	-0,308	-0,282
157,575	-49,635	-0,132	-0,044
158,589	466,324	-0,231	-0,362
159,604	56,341	-0,255	-0,172
160,619	82,414	-0,287	-0,217
161,633	218,468	-0,240	-0,268
162,648	321,910	-0,183	-0,244
163,662	387,316	-0,166	-0,241
164,677	-27,241	-0,275	-0,111
165,692	277,701	-0,128	-0,159
166,706	13,762	-0,184	-0,100
167,721	7,875	-0,326	-0,170
168,735	94,769	-0,263	-0,208
169,750	482,687	-0,117	-0,186
170,764	-32,415	-0,050	-0,019
171,779	-26,240	-0,155	-0,063
172,794	-97,552	-0,193	-0,035
173,808	131,850	-0,174	-0,156
174,823	261,916	-0,171	-0,207
175,837	93,455	-0,197	-0,155
176,852	98,183	-0,265	-0,213
177,867	46,089	-0,181	-0,117
178,881	38,245	-0,223	-0,138
179,896	-5,323	-0,218	-0,104
180,910	-57,995	-0,181	-0,055
181,925	529,687	-0,158	-0,261
182,940	237,411	-0,197	-0,228
183,954	169,808	-0,207	-0,206
184,969	124,680	-0,113	-0,099
185,983	-186,516	-0,228	0,002
186,998	-58,812	-0,245	-0,073
188,013	-94,984	-0,218	-0,041
189,027	325,910	-0,206	-0,276
190,042	158,004	-0,316	-0,305
191,056	109,211	-0,320	-0,267
192,071	194,506	-0,132	-0,139
193,086	137,180	-0,173	-0,158
194,100	-70,443	-0,338	-0,088
195,115	800,000	-0,077	-0,199
196,129	-172,640	-0,407	-0,009
197,144	209,725	-0,192	-0,209
198,159	168,758	-0,173	-0,172
199,173	180,319	-0,254	-0,259
200,188	-110,736	-0,110	-0,016
201,202	143,459	-0,223	-0,207
202,217	30,346	-0,120	-0,071
203,232	17,404	-0,196	-0,108
204,246	11,912	-0,165	-0,088
205,261	110,971	-0,163	-0,136
206,275	86,177	-0,196	-0,150
207,290	49,229	-0,231	-0,151
208,304	-5,377	-0,086	-0,041
209,319	106,852	-0,153	-0,126
210,334	-33,831	-0,237	-0,090
211,348	-81,667	-0,238	-0,054
212,363	169,732	-0,197	-0,196
213,377	27,305	-0,209	-0,122
214,392	-56,254	-0,111	-0,034
215,407	-84,714	-0,162	-0,035
216,421	153,649	-0,197	-0,187
217,436	5,238	-0,228	-0,116
218,450	50,393	-0,182	-0,119
219,465	318,479	-0,169	-0,222
220,480	-31,972	-0,249	-0,096
221,494	-48,427	-0,157	-0,052
222,509	31,669	-0,122	-0,072
223,523	91,107	-0,208	-0,162
224,538	66,453	-0,249	-0,176
225,553	-62,446	-0,421	-0,121
226,567	258,379	-0,258	-0,309
227,582	109,107	-0,243	-0,202
228,596	-84,604	-0,181	0,039
229,611	32,527	-0,249	-0,149
230,626	-200,000	-0,018	-0,170
231,640	34,898	-0,146	-0,088
232,655	40,036	-0,155	-0,096
233,669	-74,222	-0,289	-0,072
234,684	199,705	-0,151	-0,160
235,699	110,357	-0,218	-0,182
236,713	59,978	-0,100	-0,069
237,728	-76,680	-0,235	-0,057
238,742	138,465	-0,112	0,102
239,757	31,551	-0,237	-0,141
240,772	169,268	-0,155	-0,154
241,786	96,468	-0,153	-0,121
242,801	220,182	-0,140	-0,156
243,815	38,066	-0,203	-0,125
244,830	115,732	-0,210	-0,178
245,844	208,162	-0,219	-0,238
246,859	168,745	-0,277	-0,274
247,874	-60,965	-0,288	-0,084
248,888	-16,693	-0,318	-0,139
249,903	354,127	-0,170	-0,234
250,917	317,609	-0,113	-0,149
251,932	-23,841	-0,236	-0,098
252,947	800,000	-0,100	-0,204
253,961	-200,000	-0,053	-0,217
254,976	48,709	-0,276	-0,179
255,990	109,849	-0,312	-0,259
257,005	16,101	-0,210	-0,114
258,020	-154,732	-0,205	-0,009
259,034	-59,596	-0,240	-0,071
260,049	-18,992	-0,184	-0,079
261,063	172,410	-0,216	-0,215
262,078	120,749	-0,163	-0,140
263,093	261,759	-0,125	-0,150
264,107	29,259	-0,196	-0,115
265,122	109,606	-0,137	-0,113
266,136	133,817	-0,137	-0,122
267,151	800,000	-0,089	-0,174
268,166	32,709	-0,147	-0,088
269,180	-124,079	-0,279	-0,030
270,195	216,066	-0,168	-0,184
271,209	69,582	-0,250	-0,178
272,224	-44,339	-0,159	-0,055
273,239	734,801	-0,112	-0,208
274,253	-54,260	-0,193	-0,060
275,268	-138,571	-0,162	0,012
276,282	-112,662	-0,223	0,030
277,297	800,000	-0,140	-0,317
278,312	230,686	-0,169	-0,191
279,326	384,206	-0,031	-0,044
280,341	-63,289	-0,209	-0,059
281,355	157,893	-0,151	-0,144
282,370	24,637	-0,119	-0,068
283,384	-163,695	-0,201	0,006
284,399	4,790	-0,282	-0,143
285,414	-118,616	-0,152	-0,018
286,428	-12,877	-0,193	-0,086
287,443	304,234	-0,157	-0,201
288,457	-144,871	-0,180	-0,011
289,472	22,912	-0,163	-0,092
290,487	34,353	-0,170	-0,102
291,501	-37,320	-0,248	-0,091
292,516	586,485	-0,098	-0,167
293,530	275,668	-0,084	0,103
294,545	29,777	-0,195	-0,114
295,560	-159,499	-0,176	0,007
296,574	103,461	-0,182	-0,147
297,589	75,202	-0,164	-0,119
298,603	71,107	-0,181	-0,129
299,618	800,000	-0,120	-0,237
300,633	-142,247	-0,279	-0,019
301,647	-9,103	-0,168	-0,077
302,662	23,724	-0,073	0,042
303,676	-42,325	-0,173	-0,060
304,691	800,000	-0,057	-0,129
305,706	134,766	-0,186	-0,166
306,720	11,803	-0,091	-0,048
307,735	147,763	-0,160	-0,149
308,749	299,310	-0,083	-0,105
309,764	-85,626	-0,109	-0,023
310,779	139,976	-0,137	-0,125
311,793	-131,063	-0,240	0,022
312,808	-121,895	-0,246	-0,028
313,822	-177,584	-0,188	-0,003
314,837	-200,000	-0,001	-0,090
315,852	25,258	-0,170	-0,097
316,866	178,313	0,046	-0,046
317,881	51,466	-0,214	-0,140
318,895	139,503	-0,099	0,089
319,910	800,000	-0,064	-0,147
320,925	312,033	-0,125	-0,161
321,939	383,719	-0,188	-0,267
322,954	757,420	-0,050	-0,093
323,968	800,000	-0,087	-0,187
324,983	-17,236	-0,162	-0,070
325,997	-88,924	-0,230	-0,046
327,012	-195,568	-0,231	0,001
328,027	50,142	-0,219	-0,142
329,041	-106,580	-0,183	-0,028
330,056	373,133	-0,066	-0,092
331,070	124,016	-0,058	-0,050
332,085	353,789	-0,090	-0,123
333,100	-73,940	-0,190	-0,047
334,114	-79,548	-0,271	-0,062
335,129	476,460	-0,122	-0,190
336,143	62,221	-0,036	0,024
337,158	-172,645	-0,090	-0,002
338,173	-104,245	-0,130	-0,021
339,187	-141,275	-0,153	-0,011
340,202	49,684	-0,091	-0,059
341,216	42,988	-0,176	-0,110
342,231	327,584	-0,155	-0,205
343,246	385,190	-0,141	-0,200
344,260	62,605	-0,141	-0,097
345,275	-109,797	-0,069	0,010
346,289	132,618	-0,088	-0,078
347,304	-83,815	-0,218	-0,047
348,319	-14,714	-0,223	-0,098
349,333	37,748	-0,104	-0,063
350,348	263,240	-0,091	-0,109
351,362	135,601	-0,088	-0,079
352,377	-136,188	-0,147	-0,012
353,392	121,755	-0,221	-0,189
354,406	2,595	-0,162	-0,080
355,421	207,461	1317,036	1411,784
356,435	159,587	1478,063	1412,281
