DTS Sentinel unit serial number:	SN410029Multiplexer serial number:	ORYXHardware model number:	OX2-SRSoftware version number:	ORYX F/W v4,00 Oryx Data Collector v3.7.2.0data status	okinstallation	B3 Nyhavnadifferential loss correction	single-endedforward channel	channel 1reverse channel	N/Adate	2023/12/03time	03:22:30forward acquisition time	300,00reverse acquisition time	0,00gamma	499,1914k internal	0,3200k external	0,3200temperature offset calibration	1,0000default loss term (dB/km)	0,3820temperature slope calibration	1,0000multiplexer offset coefficient	1,0000multiplexer slope coefficient	1,0000fibre end	0,00T internal ref (°C)	13,32T ext. ref 1 (°C)	-1,71T ext. ref 2 (°C)	-1,72length (m)	temperature (°C)	Stokes	anti-Stokes-744,400	357,806	-0,163	-0,238
-743,385	-200,000	-0,067	0,265
-742,371	207,091	-0,146	-0,166
-741,356	-200,000	0,043	0,271
-740,342	800,000	-0,075	-0,153
-739,327	-200,000	0,071	0,329
-738,312	396,496	-0,223	-0,339
-737,298	-200,000	-0,041	0,369
-736,283	113,909	-0,272	-0,240
-735,269	800,000	0,131	0,339
-734,254	548,057	-0,164	-0,287
-733,239	-69,145	-0,159	-0,044
-732,225	699,708	-0,090	-0,173
-731,210	93,522	0,101	0,083
-730,196	-200,000	-0,016	-0,087
-729,181	59,205	0,065	0,047
-728,167	-200,000	0,008	-0,030
-727,152	-114,299	0,060	-0,008
-726,137	800,000	0,035	-0,097
-725,123	655,782	-0,092	-0,173
-724,108	439,995	-0,111	-0,177
-723,094	-200,000	-0,004	-0,095
-722,079	-79,186	-0,102	0,025
-721,064	-96,222	-0,123	0,024
-720,050	683,429	-0,035	0,066
-719,035	281,524	0,021	-0,027
-718,021	20,543	-0,071	-0,042
-717,006	-157,968	-0,037	-0,002
-715,991	5,757	-0,105	-0,056
-714,977	677,976	-0,051	-0,096
-713,962	-26,983	0,055	0,023
-712,948	-145,138	-0,067	0,004
-711,933	100,488	-0,142	-0,119
-710,918	152,945	-0,075	-0,075
-709,904	245,745	-0,011	0,013
-708,889	493,552	-0,061	-0,103
-707,875	392,083	-0,072	-0,109
-706,860	464,424	-0,024	0,038
-705,845	800,000	-0,051	-0,126
-704,831	-200,000	-0,005	-0,033
-703,816	-200,000	-0,137	-0,000
-702,802	-41,174	0,091	-0,034
-701,787	-83,585	-0,056	-0,013
-700,772	521,523	0,033	-0,057
-699,758	-73,384	0,059	0,016
-698,743	-200,000	0,026	0,182
-697,729	-200,000	0,007	-0,069
-696,714	677,434	0,044	-0,083
-695,699	641,301	0,064	-0,120
-694,685	124,558	-0,089	-0,081
-693,670	-3,019	0,099	-0,050
-692,656	6,711	-0,030	-0,016
-691,641	-37,575	0,100	0,039
-690,627	-200,000	0,023	0,084
-689,612	-13,020	-0,021	0,010
-688,597	-200,000	-0,025	-0,091
-687,583	800,000	0,045	-0,141
-686,568	158,363	-0,040	-0,040
-685,554	-104,463	-0,154	-0,026
-684,539	-200,000	-0,008	-0,027
-683,524	-117,093	0,089	-0,012
-682,510	80,222	-0,021	-0,016
-681,495	-92,473	0,040	-0,008
-680,481	180,058	0,065	-0,069
-679,466	426,350	-0,114	-0,180
-678,451	597,445	0,108	-0,196
-677,437	333,251	0,030	0,042
-676,422	384,795	-0,038	-0,057
-675,408	-32,992	-0,024	-0,010
-674,393	190,274	-0,010	0,011
-673,378	38,683	-0,128	-0,083
-672,364	-7,399	-0,060	-0,029
-671,349	236,444	-0,057	-0,068
-670,335	-200,000	0,020	0,119
-669,320	-200,000	-0,002	-0,022
-668,305	-128,436	-0,131	0,013
-667,291	0,163	-0,093	0,048
-666,276	308,828	0,030	0,041
-665,262	-8,859	-0,097	-0,047
-664,247	-141,596	0,095	-0,007
-663,232	-59,947	0,118	0,036
-662,218	203,747	-0,049	0,056
-661,203	-200,000	0,026	-0,091
-660,189	-200,000	-0,019	0,101
-659,174	-127,917	-0,097	0,010
-658,159	193,666	-0,158	-0,174
-657,145	290,684	-0,055	-0,072
-656,130	13,143	-0,067	0,038
-655,116	19,288	0,008	-0,005
-654,101	-200,000	0,001	-0,009
-653,086	-66,947	0,064	-0,018
-652,072	34,851	-0,036	-0,023
-651,057	-200,000	-0,002	-0,079
-650,043	-51,644	-0,104	-0,035
-649,028	24,456	-0,028	0,017
-648,014	-200,000	-0,006	-0,052
-646,999	-200,000	0,018	0,197
-645,984	115,766	-0,002	-0,002
-644,970	154,066	0,059	-0,059
-643,955	-200,000	0,004	-0,020
-642,941	-65,798	-0,036	0,010
-641,926	-200,000	0,006	-0,159
-640,911	28,030	0,107	-0,065
-639,897	158,590	-0,094	0,095
-638,882	132,963	-0,081	-0,076
-637,868	-200,000	0,042	-0,262
-636,853	-200,000	-0,063	0,000
-635,838	184,503	0,065	-0,070
-634,824	-137,972	0,093	-0,007
-633,809	-200,000	-0,020	0,115
-632,795	-186,808	0,052	0,001
-631,780	-34,303	0,111	-0,044
-630,765	-77,809	-0,191	0,047
-629,751	-20,337	-0,109	-0,049
-628,736	-173,225	-0,121	-0,003
-627,722	-200,000	-0,002	-0,055
-626,707	33,673	-0,102	-0,064
-625,692	420,724	0,041	0,063
-624,678	50,263	-0,136	0,093
-623,663	-31,698	0,061	0,025
-622,649	-4,562	-0,176	0,088
-621,634	708,945	-0,071	-0,137
-620,619	800,000	-0,071	-0,198
-619,605	800,000	0,044	-0,131
-618,590	27,508	0,091	-0,055
-617,576	-131,428	-0,114	-0,011
-616,561	181,963	0,087	0,093
-615,546	-200,000	-0,030	0,133
-614,532	24,097	-0,102	-0,061
-613,517	-29,469	-0,100	-0,041
-612,503	-158,494	-0,056	-0,002
-611,488	249,710	0,024	-0,029
-610,474	-54,899	-0,055	0,018
-609,459	236,473	-0,065	0,078
-608,444	-107,835	-0,081	0,013
-607,430	282,751	0,076	-0,098
-606,415	800,000	-0,050	-0,125
-605,401	-200,000	0,021	-0,089
-604,386	-200,000	-0,015	-0,135
-603,371	358,791	0,028	0,041
-602,357	-200,000	-0,012	-0,074
-601,342	-21,767	-0,059	0,026
-600,328	88,258	0,132	0,106
-599,313	-126,240	-0,096	0,010
-598,298	800,000	0,024	-0,068
-597,284	35,466	0,083	-0,052
-596,269	-145,681	0,057	0,004
-595,255	341,942	0,046	0,065
-594,240	800,000	-0,037	0,091
-593,225	-31,258	-0,106	0,043
-592,211	280,726	0,092	-0,119
-591,196	48,998	-0,087	-0,059
-590,182	-148,549	-0,012	0,001
-589,167	-76,091	-0,019	-0,005
-588,152	800,000	-0,039	0,108
-587,138	13,919	-0,046	0,026
-586,123	800,000	-0,063	-0,190
-585,109	131,723	-0,040	-0,038
-584,094	-47,094	0,159	0,056
-583,079	-173,948	0,034	-0,001
-582,065	-200,000	0,040	-0,146
-581,050	800,000	0,029	-0,064
-580,036	800,000	0,037	-0,096
-579,021	-200,000	-0,006	-0,086
-578,006	800,000	-0,025	-0,055
-576,992	241,403	-0,010	0,012
-575,977	800,000	0,014	-0,034
-574,963	-46,526	-0,042	0,015
-573,948	-200,000	0,003	0,185
-572,934	303,162	0,072	0,097
-571,919	-37,303	-0,104	0,040
-570,904	104,428	-0,053	0,045
-569,890	-142,701	-0,090	0,006
-568,875	-200,000	-0,003	0,117
-567,861	-160,669	0,188	0,007
-566,846	800,000	-0,041	0,108
-565,831	800,000	-0,020	-0,057
-564,817	39,028	-0,055	0,036
-563,802	376,743	0,032	-0,048
-562,788	-97,120	-0,164	-0,031
-561,773	673,509	-0,030	-0,056
-560,758	469,571	0,032	0,053
-559,744	-200,000	-0,003	0,040
-558,729	-200,000	0,016	-0,121
-557,715	-167,485	-0,142	-0,004
-556,700	-33,074	-0,120	-0,048
-555,685	230,626	-0,048	-0,057
-554,671	-200,000	0,038	-0,123
-553,656	-84,068	-0,048	0,011
-552,642	-105,523	-0,053	0,009
-551,627	-200,000	-0,014	-0,054
-550,612	-200,000	-0,029	0,166
-549,598	-91,404	0,103	0,021
-548,583	-12,723	-0,082	-0,039
-547,569	1,536	0,089	-0,046
-546,554	-200,000	0,009	-0,119
-545,539	182,034	-0,088	-0,094
-544,525	400,467	0,017	-0,026
-543,510	-66,368	-0,133	-0,038
-542,496	-42,311	-0,051	-0,019
-541,481	98,729	-0,050	0,042
-540,466	756,856	-0,020	-0,038
-539,452	800,000	0,042	0,101
-538,437	-200,000	0,016	0,131
-537,423	-30,684	-0,148	0,060
-536,408	747,107	-0,053	-0,103
-535,393	800,000	-0,064	0,160
-534,379	800,000	-0,048	-0,141
-533,364	584,172	0,030	-0,053
-532,350	800,000	-0,051	0,117
-531,335	59,422	0,176	0,125
-530,321	29,190	-0,024	0,015
-529,306	-126,563	-0,176	0,019
-528,291	800,000	0,027	0,075
-527,277	800,000	-0,021	-0,052
-526,262	88,438	0,025	0,020
-525,248	-125,457	-0,122	0,013
-524,233	-200,000	0,010	0,064
-523,218	-200,000	-0,000	0,019
-522,204	-200,000	0,013	-0,110
-521,189	387,386	-0,069	-0,102
-520,175	-68,550	-0,043	-0,012
-519,160	276,703	-0,089	-0,114
-518,145	233,702	0,074	-0,088
-517,131	-145,330	0,116	0,007
-516,116	88,779	-0,058	-0,047
-515,102	36,522	-0,077	-0,049
-514,087	39,881	0,060	0,039
-513,072	131,234	-0,128	-0,119
-512,058	165,130	-0,073	-0,074
-511,043	-96,202	0,020	0,004
-510,029	800,000	-0,005	0,015
-509,014	389,727	0,012	0,019
-507,999	53,023	0,141	0,097
-506,985	-64,436	-0,139	-0,040
-505,970	-200,000	0,006	-0,135
-504,956	122,316	-0,085	0,076
-503,941	39,668	-0,123	-0,080
-502,926	-200,000	0,008	0,071
-501,912	272,317	0,050	0,064
-500,897	511,970	0,082	0,138
-499,883	10,618	0,004	0,002
-498,868	459,681	0,048	0,077
-497,853	800,000	-0,009	-0,019
-496,839	-200,000	0,002	-0,021
-495,824	16,086	0,126	0,071
-494,810	265,830	-0,110	0,139
-493,795	-95,990	-0,035	0,007
-492,781	-107,003	0,057	-0,009
-491,766	-87,185	-0,069	0,015
-490,751	-200,000	-0,022	-0,079
-489,737	-154,382	0,124	0,006
-488,722	-200,000	-0,016	0,108
-487,708	50,179	-0,070	0,047
-486,693	-200,000	0,031	0,137
-485,678	-200,000	0,064	0,232
-484,664	-117,259	-0,076	-0,010
-483,649	-200,000	0,007	-0,031
-482,635	-13,350	-0,108	0,050
-481,620	166,759	0,094	-0,096
-480,605	-94,687	-0,107	-0,021
-479,591	-96,942	0,108	-0,020
-478,576	800,000	-0,018	0,047
-477,562	87,696	0,137	0,109
-476,547	-200,000	-0,032	0,182
-475,532	14,677	-0,038	-0,022
-474,518	-200,000	-0,000	0,100
-473,503	158,100	0,078	0,078
-472,489	-129,711	0,046	0,005
-471,474	800,000	0,017	0,034
-470,459	-200,000	-0,035	-0,114
-469,445	90,977	-0,066	0,053
-468,430	167,381	-0,058	-0,060
-467,416	-8,181	-0,138	-0,067
-466,401	-29,894	0,150	-0,061
-465,386	800,000	0,056	0,122
-464,372	800,000	-0,044	-0,090
-463,357	75,952	0,039	0,029
-462,343	-200,000	0,047	-0,150
-461,328	-200,000	0,019	0,066
-460,313	-171,490	-0,130	-0,003
-459,299	-66,278	0,126	0,036
-458,284	-200,000	-0,013	0,079
-457,270	-200,000	0,004	0,104
-456,255	164,454	-0,021	0,022
-455,241	60,446	-0,078	-0,055
-454,226	-154,752	-0,074	-0,003
-453,211	-200,000	-0,023	-0,088
-452,197	14,213	0,127	0,071
-451,182	-186,937	-0,016	0,000
-450,168	84,563	0,050	0,040
-449,153	-6,167	0,110	0,054
-448,138	10,455	-0,048	0,026
-447,124	-200,000	-0,025	-0,162
-446,109	62,144	-0,113	0,081
-445,095	143,130	0,012	-0,012
-444,080	-12,972	-0,120	0,056
-443,065	-200,000	-0,036	0,163
-442,051	-200,000	0,030	0,125
-441,036	-147,037	0,118	0,007
-440,022	318,718	0,031	0,043
-439,007	-146,189	-0,124	-0,008
-437,992	211,859	-0,048	0,055
-436,978	173,755	0,118	0,122
-435,963	-6,795	0,032	-0,016
-434,949	-200,000	-0,026	0,125
-433,934	-95,398	0,097	-0,019
-432,919	-103,181	-0,063	-0,011
-431,905	66,278	-0,054	-0,040
-430,890	-200,000	-0,024	0,163
-429,876	-200,000	0,035	-0,146
-428,861	-86,633	0,131	-0,029
-427,846	497,390	0,032	0,053
-426,832	-115,226	-0,139	-0,019
-425,817	-100,224	-0,079	0,014
-424,803	-200,000	0,006	-0,047
-423,788	19,872	0,036	0,021
-422,773	307,499	0,039	0,052
-421,759	-106,042	-0,014	-0,002
-420,744	-81,706	-0,066	-0,015
-419,730	27,220	-0,131	0,079
-418,715	425,043	-0,122	-0,189
-417,701	792,826	0,043	0,085
-416,686	599,283	-0,059	0,105
-415,671	-200,000	-0,001	-0,005
-414,657	-200,000	0,015	-0,068
-413,642	-151,863	0,163	-0,008
-412,628	145,069	-0,095	0,091
-411,613	-110,899	0,013	0,002
-410,598	-114,631	0,052	0,007
-409,584	188,541	-0,067	-0,072
-408,569	198,453	0,066	0,073
-407,555	-200,000	-0,047	0,000
-406,540	800,000	0,016	0,046
-405,525	-200,000	-0,006	-0,049
-404,511	-8,844	0,022	0,011
-403,496	767,318	0,036	0,071
-402,482	-70,027	-0,023	0,006
-401,467	230,864	0,053	0,062
-400,452	152,701	0,074	-0,073
-399,438	135,964	-0,025	0,024
-398,423	46,846	-0,033	-0,022
-397,409	-50,843	0,066	0,022
-396,394	458,323	-0,038	-0,061
-395,379	144,412	0,108	0,104
-394,365	137,885	0,062	0,058
-393,350	133,909	0,103	0,096
-392,336	77,553	0,049	0,037
-391,321	-180,130	-0,068	-0,001
-390,306	800,000	0,037	0,101
-389,292	192,742	-0,151	-0,163
-388,277	7,913	-0,063	-0,034
-387,263	538,763	0,021	-0,036
-386,248	-22,313	0,141	-0,061
-385,233	493,496	0,053	0,087
-384,219	21,879	-0,008	-0,005
-383,204	192,507	0,046	-0,050
-382,190	800,000	-0,007	0,018
-381,175	-200,000	0,045	-0,157
-380,160	-200,000	0,015	0,111
-379,146	-28,485	0,140	0,058
-378,131	800,000	-0,043	0,123
-377,117	184,266	-0,016	-0,017
-376,102	800,000	0,051	-0,109
-375,088	787,268	-0,058	-0,115
-374,073	500,737	0,002	0,003
-373,058	179,165	0,115	-0,120
-372,044	3,676	-0,071	0,037
-371,029	-33,694	0,115	0,045
-370,015	55,269	0,073	-0,050
-369,000	638,190	-0,057	-0,105
-367,985	378,176	-0,026	-0,038
-366,971	473,552	-0,060	-0,098
-365,956	49,900	0,042	0,028
-364,942	-103,628	-0,014	-0,002
-363,927	-200,000	0,011	0,063
-362,912	40,392	0,118	0,076
-361,898	-26,695	-0,068	0,028
-360,883	98,755	-0,063	-0,052
-359,869	-83,931	-0,150	0,034
-358,854	-123,897	0,078	-0,009
-357,839	-200,000	-0,019	-0,113
-356,825	-200,000	-0,026	0,243
-355,810	41,290	0,007	-0,005
-354,796	248,719	-0,039	-0,047
-353,781	-200,000	-0,020	-0,066
-352,766	-85,750	0,053	0,012
-351,752	-200,000	0,022	-0,106
-350,737	36,769	0,023	0,015
-349,723	97,101	0,083	0,068
-348,708	654,254	0,043	-0,079
-347,693	-84,469	0,041	0,009
-346,679	-104,202	-0,097	0,016
-345,664	-68,408	-0,063	0,017
-344,650	800,000	0,028	0,069
-343,635	-18,406	0,162	-0,072
-342,620	-200,000	0,021	0,139
-341,606	-57,142	-0,064	0,020
-340,591	216,921	0,051	0,059
-339,577	-41,425	0,063	0,023
-338,562	416,790	0,030	-0,047
-337,548	800,000	-0,022	0,046
-336,533	-88,861	-0,162	-0,034
-335,518	77,698	0,018	-0,014
-334,504	-101,772	0,065	0,011
-333,489	-51,227	0,039	0,013
-332,475	281,673	-0,036	0,046
-331,460	-200,000	0,017	-0,101
-330,445	231,779	0,057	0,067
-329,431	-43,483	0,153	-0,055
-328,416	198,109	0,089	0,097
-327,402	179,481	0,045	-0,047
-326,387	28,505	0,091	-0,055
-325,372	-12,392	0,046	-0,022
-324,358	800,000	0,043	-0,122
-323,343	132,613	-0,042	-0,039
-322,329	-79,132	0,025	-0,006
-321,314	204,160	-0,022	-0,025
-320,299	-57,040	0,080	0,025
-319,285	800,000	0,051	0,122
-318,270	-200,000	0,003	-0,031
-317,256	-200,000	-0,005	0,074
-316,241	-200,000	0,009	-0,117
-315,226	51,702	0,090	0,061
-314,212	-200,000	0,018	-0,127
-313,197	424,790	0,072	0,112
-312,183	65,371	-0,073	-0,053
-311,168	-133,314	0,171	-0,015
-310,153	277,243	-0,079	0,101
-309,139	-4,159	0,055	0,027
-308,124	-200,000	0,017	-0,059
-307,110	61,596	0,028	0,020
-306,095	60,522	-0,121	0,086
-305,080	-50,008	-0,038	-0,013
-304,066	-200,000	-0,005	0,019
-303,051	-200,000	-0,009	-0,052
-302,037	800,000	-0,041	-0,086
-301,022	-60,962	-0,133	0,040
-300,008	-32,031	0,098	-0,039
-298,993	223,744	0,065	-0,075
-297,978	-84,617	0,084	-0,019
-296,964	-147,709	-0,056	-0,003
-295,949	-91,749	-0,056	-0,011
-294,935	-32,726	-0,026	0,010
-293,920	185,181	0,010	-0,011
-292,905	554,997	0,118	0,203
-291,891	-6,384	-0,122	0,059
-290,876	22,171	-0,066	0,038
-289,862	-122,913	0,033	-0,004
-288,847	-200,000	-0,019	-0,107
-287,832	-29,393	-0,184	-0,075
-286,818	35,539	0,145	-0,091
-285,803	420,514	-0,029	0,044
-284,789	-44,821	-0,112	0,040
-283,774	800,000	0,012	0,038
-282,759	-149,897	0,015	-0,001
-281,745	800,000	-0,013	-0,040
-280,730	-200,000	0,004	-0,063
-279,716	-200,000	-0,018	0,098
-278,701	739,770	0,074	0,143
-277,686	253,499	0,065	0,079
-276,672	-133,993	0,071	-0,006
-275,657	-19,992	0,017	-0,007
-274,643	-200,000	0,023	-0,115
-273,628	-144,229	-0,167	0,011
-272,613	800,000	0,052	-0,112
-271,599	800,000	-0,054	0,107
-270,584	152,185	-0,044	-0,043
-269,570	-70,560	-0,160	0,043
-268,555	-200,000	-0,012	0,111
-267,540	-74,810	0,161	0,041
-266,526	498,036	0,023	0,037
-265,511	728,694	-0,042	-0,081
-264,497	-104,642	-0,118	-0,019
-263,482	9,853	0,094	-0,051
-262,467	112,177	0,078	0,067
-261,453	-10,955	0,184	0,087
-260,438	127,581	0,019	-0,018
-259,424	485,540	-0,030	-0,049
-258,409	448,686	0,059	-0,093
-257,395	-200,000	0,010	-0,048
-256,380	-200,000	0,015	0,093
-255,365	242,207	0,050	0,060
-254,351	156,731	0,120	0,118
-253,336	-200,000	-0,001	-0,048
-252,322	-24,398	0,091	0,039
-251,307	-109,400	0,060	-0,009
-250,292	-200,000	-0,002	-0,136
-249,278	-26,237	0,126	0,052
-248,263	-200,000	-0,013	0,114
-247,249	176,529	0,091	-0,094
-246,234	-54,842	0,098	0,031
-245,219	-103,769	-0,124	-0,020
-244,205	-68,571	0,049	-0,014
-243,190	653,404	-0,009	-0,017
-242,176	800,000	0,046	0,114
-241,161	-200,000	0,019	0,110
-240,146	45,334	0,038	0,025
-239,132	637,175	-0,073	-0,133
-238,117	301,807	0,048	-0,064
-237,103	-200,000	-0,007	-0,090
-236,088	-200,000	-0,001	0,084
-235,073	800,000	0,002	-0,006
-234,059	-200,000	-0,009	-0,077
-233,044	103,341	-0,077	-0,064
-232,030	-200,000	0,006	-0,023
-231,015	121,069	-0,085	0,076
-230,000	-20,874	-0,237	-0,103
-228,986	800,000	0,047	-0,120
-227,971	-103,455	-0,047	-0,008
-226,957	-95,441	-0,044	0,008
-225,942	-49,256	-0,137	-0,046
-224,927	398,753	-0,014	-0,021
-223,913	47,457	0,054	-0,036
-222,898	-200,000	-0,015	0,055
-221,884	-200,000	0,002	-0,008
-220,869	-200,000	0,003	-0,056
-219,855	56,018	0,081	0,056
-218,840	-105,749	0,107	-0,017
-217,825	-0,327	0,053	-0,027
-216,811	-200,000	0,024	0,086
-215,796	-188,303	-0,142	-0,001
-214,782	-60,184	0,102	0,031
-213,767	43,318	-0,049	0,032
-212,752	-200,000	-0,039	0,129
-211,738	-200,000	-0,033	0,184
-210,723	340,994	-0,085	-0,119
-209,709	-200,000	-0,013	-0,048
-208,694	260,251	0,079	-0,097
-207,679	-200,000	-0,057	-0,191
-206,665	-38,661	0,026	-0,010
-205,650	238,236	0,040	0,047
-204,636	80,618	0,156	-0,120
-203,621	-2,251	-0,135	0,067
-202,606	-138,863	0,125	-0,010
-201,592	-190,077	0,118	0,001
-200,577	800,000	0,075	-0,155
-199,563	-19,746	-0,119	-0,052
-198,548	-91,061	0,104	-0,021
-197,533	-200,000	-0,017	-0,073
-196,519	473,683	0,024	0,039
-195,504	439,879	0,049	-0,076
-194,490	-53,608	0,111	0,036
-193,475	-74,758	-0,128	-0,033
-192,460	-200,000	0,012	-0,111
-191,446	37,126	-0,097	-0,061
-190,431	-24,283	0,062	-0,026
-189,417	-113,335	-0,046	0,006
-188,402	775,684	0,058	-0,112
-187,387	-65,144	-0,149	-0,042
-186,373	-26,271	0,082	0,034
-185,358	-200,000	-0,017	-0,072
-184,344	63,711	0,112	0,080
-183,329	-54,451	0,034	0,011
-182,315	183,718	0,108	0,113
-181,300	800,000	0,035	-0,102
-180,285	312,322	-0,046	-0,062
-179,271	619,623	-0,052	-0,094
-178,256	-200,000	-0,013	0,078
-177,242	396,438	0,064	0,095
-176,227	505,201	0,128	0,211
-175,212	-200,000	0,001	0,081
-174,198	417,147	0,026	-0,040
-173,183	-200,000	-0,015	-0,064
-172,169	-200,000	-0,009	-0,082
-171,154	-14,937	0,046	-0,021
-170,139	-59,129	0,083	-0,025
-169,125	-105,359	0,098	0,016
-168,110	-64,462	-0,142	-0,041
-167,096	261,094	-0,039	0,048
-166,081	-200,000	0,010	-0,050
-165,066	-164,924	0,036	0,001
-164,052	147,237	0,091	0,087
-163,037	-188,135	0,067	0,001
-162,023	473,253	-0,077	0,124
-161,008	734,661	-0,010	-0,019
-159,993	-148,746	-0,085	0,005
-158,979	-97,366	-0,022	-0,004
-157,964	42,478	0,013	-0,008
-156,950	-47,896	-0,077	-0,026
-155,935	51,390	0,180	0,122
-154,920	-73,076	-0,055	0,014
-153,906	-142,225	0,110	0,008
-152,891	174,918	-0,049	0,051
-151,877	25,118	-0,041	0,024
-150,862	-88,944	-0,118	-0,025
-149,847	499,191	0,070	-0,115
-148,833	393,905	0,071	0,106
-147,818	66,217	0,030	0,022
-146,804	800,000	-0,009	-0,020
-145,789	800,000	-0,019	0,059
-144,775	411,588	0,032	0,048
-143,760	-6,117	-0,138	-0,067
-142,745	-200,000	0,011	-0,077
-141,731	800,000	-0,070	-0,154
-140,716	181,441	0,084	0,088
-139,702	450,113	0,067	0,105
-138,687	11,742	0,088	-0,048
-137,672	-105,783	-0,084	-0,013
-136,658	44,164	0,107	-0,069
-135,643	199,424	-0,119	0,130
-134,629	-200,000	0,003	0,054
-133,614	306,047	-0,088	-0,117
-132,599	-78,561	0,116	-0,028
-131,585	-142,118	-0,070	0,005
-130,570	-57,621	0,123	-0,038
-129,556	780,847	0,043	0,084
-128,541	212,522	-0,093	-0,104
-127,526	800,000	-0,016	-0,038
-126,512	800,000	-0,025	0,065
-125,497	-81,515	0,215	0,050
-124,483	113,027	0,021	-0,018
-123,468	-88,999	-0,030	0,006
-122,453	-167,903	-0,124	0,003
-121,439	578,633	0,049	0,085
-120,424	-125,406	0,085	0,009
-119,410	-200,000	-0,019	-0,068
-118,395	800,000	0,023	0,070
-117,380	19,332	0,062	0,035
-116,366	800,000	-0,038	0,103
-115,351	58,072	0,059	-0,041
-114,337	-200,000	0,011	-0,096
-113,322	800,000	-0,041	-0,101
-112,307	-163,874	0,022	-0,001
-111,293	800,000	-0,075	0,229
-110,278	528,431	0,103	0,172
-109,264	-200,000	0,011	0,038
-108,249	-200,000	0,023	-0,131
-107,234	277,636	0,036	-0,045
-106,220	102,569	-0,107	0,089
-105,205	-61,181	-0,022	-0,007
-104,191	47,786	0,054	-0,036
-103,176	48,659	0,032	0,021
-102,162	800,000	-0,012	0,028
-101,147	-103,032	0,109	0,018
-100,132	-158,900	0,075	0,003
-99,118	-105,886	-0,101	0,016
-98,103	-32,626	0,090	-0,035
-97,089	50,042	0,007	-0,005
-96,074	-47,202	0,108	-0,037
-95,059	800,000	0,030	-0,086
-94,045	800,000	0,059	-0,154
-93,030	800,000	-0,045	-0,089
-92,016	106,120	-0,108	-0,091
-91,001	-18,068	-0,072	-0,032
-89,986	-200,000	0,004	0,103
-88,972	-92,242	0,099	-0,020
-87,957	800,000	-0,040	0,101
-86,943	47,822	0,166	0,110
-85,928	800,000	-0,010	0,027
-84,913	-200,000	-0,022	0,100
-83,899	183,774	-0,045	0,047
-82,884	-200,000	0,052	-0,171
-81,870	-69,569	0,129	0,035
-80,855	-200,000	0,038	0,135
-79,840	-200,000	-0,003	-0,096
-78,826	-200,000	0,022	-0,225
-77,811	800,000	-0,044	-0,106
-76,797	-73,686	-0,132	-0,034
-75,782	120,960	0,058	-0,051
-74,767	800,000	-0,024	-0,069
-73,753	91,327	-0,042	-0,033
-72,738	-129,269	0,048	-0,005
-71,724	123,218	0,047	0,042
-70,709	354,017	-0,089	-0,125
-69,694	800,000	0,056	-0,139
-68,680	800,000	-0,049	-0,101
-67,665	-200,000	0,039	0,154
-66,651	-200,000	-0,006	0,029
-65,636	726,905	-0,027	-0,052
-64,622	-200,000	-0,004	-0,090
-63,607	288,872	0,034	0,044
-62,592	-17,372	-0,087	-0,039
-61,578	-15,560	0,030	-0,013
-60,563	-200,000	-0,015	0,094
-59,549	-200,000	-0,036	0,141
-58,534	8,821	-1,607	-0,856
-57,519	479,742	-1,240	-1,999
-56,505	-200,000	-0,663	-4,602
-55,490	222,516	0,866	0,989
-54,476	800,000	4,961	11,528
-53,461	-200,000	19,253	320,943
-52,446	-200,000	740,612	2336,299
-51,432	573,638	1655,656	2870,517
-50,417	78,315	1671,365	1262,495
-49,403	21,294	1544,366	886,007
-48,388	15,158	1466,576	811,532
-47,373	17,986	1456,896	819,813
-46,359	16,701	1446,862	807,969
-45,344	13,405	1442,141	789,507
-44,330	13,370	1440,105	788,191
-43,315	13,324	1438,557	787,095
-42,300	13,344	1436,762	786,177
-41,286	13,395	1435,456	785,674
-40,271	13,364	1434,130	784,771
-39,257	13,363	1432,865	784,043
-38,242	13,421	1431,621	783,605
-37,227	13,436	1430,225	782,882
-36,213	13,446	1428,998	782,228
-35,198	13,387	1427,710	781,212
-34,184	13,412	1426,834	780,818
-33,169	13,399	1425,707	780,107
-32,154	13,409	1424,685	779,565
-31,140	13,451	1423,326	778,991
-30,125	13,449	1422,279	778,379
-29,111	13,445	1421,009	777,632
-28,096	13,382	1419,831	776,660
-27,082	13,357	1418,869	775,985
-26,067	13,351	1417,624	775,246
-25,052	13,373	1416,487	774,696
-24,038	13,305	1415,744	773,938
-23,023	13,299	1414,788	773,358
-22,009	13,342	1413,620	772,890
-20,994	13,316	1412,826	772,303
-19,979	13,305	1411,959	771,748
-18,965	13,259	1411,109	771,034
-17,950	13,280	1410,084	770,544
-16,936	13,317	1409,107	770,153
-15,921	13,276	1408,058	769,355
-14,906	13,270	1407,012	768,728
-13,892	13,268	1406,295	768,294
-12,877	13,242	1405,467	767,689
-11,863	13,261	1404,379	767,152
-10,848	13,245	1403,499	766,570
-9,833	13,201	1402,676	765,883
-8,819	13,198	1401,714	765,313
-7,804	13,176	1400,920	764,749
-6,790	13,159	1399,782	764,016
-5,775	13,173	1398,634	763,425
-4,760	13,182	1397,705	762,929
-3,746	13,191	1396,875	762,488
-2,731	13,122	1396,209	761,772
-1,717	13,132	1395,223	761,251
-0,702	13,104	1393,333	760,059
0,313	16,970	1310,303	732,677
1,327	33,209	703,984	431,198
2,342	51,160	123,326	82,661
3,356	3,994	16,524	8,522
4,371	0,030	3,217	1,616
5,386	39,048	0,610	0,385
6,400	288,781	0,177	0,228
7,415	21,014	-0,239	-0,137
8,429	119,088	-0,288	-0,252
9,444	-123,628	-0,340	-0,038
10,459	57,051	-0,283	-0,195
11,473	-38,650	-0,318	-0,118
12,488	120,106	-0,295	-0,259
13,502	69,593	-0,284	-0,207
14,517	138,690	-0,324	-0,301
15,531	-29,144	-0,312	-0,126
16,546	231,749	-0,265	-0,307
17,561	136,293	-0,312	-0,287
18,575	82,881	-0,186	-0,143
19,590	63,039	-0,185	-0,131
20,604	34,824	-0,282	-0,174
21,619	174,740	-0,350	-0,358
22,634	103,146	-0,431	-0,357
23,648	59,067	-0,302	-0,210
24,663	79,104	-0,399	-0,302
25,677	272,073	-0,277	-0,346
26,692	31,269	-0,323	-0,195
27,707	82,355	-0,316	-0,242
28,721	9,952	-0,468	-0,250
29,736	10,345	-0,391	-0,209
30,750	224,011	-0,343	-0,392
31,765	-6,733	-0,388	-0,186
32,780	-96,299	-0,325	-0,060
33,794	-7,006	-0,348	-0,166
34,809	42,485	-0,400	-0,256
35,823	16,083	-0,309	-0,171
36,838	64,728	-0,390	-0,278
37,853	79,202	-0,393	-0,297
38,867	34,973	-0,416	-0,256
39,882	188,616	-0,252	-0,266
40,896	38,519	-0,357	-0,224
41,911	29,817	-0,456	-0,274
42,926	141,638	-0,319	-0,298
43,940	132,884	-0,310	-0,282
44,955	-4,432	-0,462	-0,224
45,969	73,933	-0,426	-0,315
46,984	800,000	-0,172	-0,401
47,999	2,111	-0,347	-0,176
49,013	-29,284	-0,326	-0,131
50,028	89,093	-0,252	-0,197
51,042	-84,573	-0,327	-0,072
52,057	-11,655	-0,358	-0,165
53,071	-2,369	-0,311	-0,153
54,086	86,509	-0,370	-0,287
55,101	166,644	-0,230	-0,230
56,115	-36,880	-0,345	-0,130
57,130	33,391	-0,366	-0,223
58,144	11,216	-0,391	-0,210
59,159	-35,431	-0,465	-0,177
60,174	87,105	-0,338	-0,262
61,188	-49,522	-0,267	-0,089
62,203	-27,566	-0,231	-0,094
63,217	51,455	-0,269	-0,180
64,232	209,314	-0,250	-0,276
65,247	88,686	-0,441	-0,345
66,261	135,012	-0,429	-0,392
67,276	106,559	-0,309	-0,258
68,290	-58,712	-0,362	-0,110
69,305	344,215	-0,187	-0,259
70,320	37,151	-0,271	-0,169
71,334	113,762	-0,261	-0,223
72,349	503,277	-0,177	-0,289
73,363	126,902	-0,387	-0,345
74,378	15,202	-0,304	-0,167
75,393	38,815	-0,344	-0,216
76,407	272,923	-0,222	-0,276
77,422	54,496	-0,259	-0,175
78,436	-154,505	-0,378	-0,017
79,451	-20,308	-0,266	-0,115
80,466	5,268	-0,283	-0,146
81,480	22,557	-0,418	-0,240
82,495	168,823	-0,300	-0,301
83,509	138,403	-0,206	-0,190
84,524	80,115	-0,186	-0,140
85,539	6,147	-0,220	-0,114
86,553	19,593	-0,269	-0,151
87,568	7,315	-0,221	-0,116
88,582	168,222	-0,167	-0,167
89,597	-13,069	-0,392	-0,178
90,611	118,772	-0,248	-0,215
91,626	127,528	-0,179	-0,159
92,641	80,564	-0,326	-0,247
93,655	130,155	-0,303	-0,272
94,670	189,871	-0,295	-0,311
95,684	20,921	-0,260	-0,147
96,699	-58,778	-0,355	-0,107
97,714	-43,029	-0,296	-0,105
98,728	130,954	-0,210	-0,189
99,743	103,953	-0,237	-0,196
100,757	-69,176	-0,465	-0,125
101,772	328,947	-0,215	-0,290
102,787	67,568	-0,260	-0,186
103,801	142,185	-0,297	-0,277
104,816	2,458	-0,207	-0,105
105,830	325,886	-0,141	-0,190
106,845	132,121	-0,213	-0,192
107,860	93,841	-0,175	-0,139
108,874	122,199	-0,225	-0,197
109,889	123,745	-0,329	-0,290
110,903	585,776	-0,198	-0,342
111,918	45,367	-0,230	-0,148
112,933	-46,447	-0,333	-0,114
113,947	73,648	-0,264	-0,194
114,962	-37,334	-0,269	-0,100
115,976	-72,995	-0,290	-0,074
116,991	95,585	-0,202	-0,161
118,006	85,086	-0,299	-0,229
119,020	117,104	-0,125	-0,107
120,035	108,457	-0,232	-0,194
121,049	91,842	-0,220	-0,173
122,064	30,973	-0,156	-0,093
123,079	3,274	-0,266	-0,135
124,093	-200,000	-0,103	-0,395
125,108	147,831	-0,280	-0,264
126,122	55,204	-0,365	-0,246
127,137	615,923	-0,156	-0,275
128,151	15,233	-0,238	-0,130
129,166	59,071	-0,237	-0,163
130,181	32,328	-0,194	-0,117
131,195	135,789	-0,209	-0,191
132,210	293,204	-0,228	-0,292
133,224	-2,593	-0,304	-0,148
134,239	46,336	-0,173	-0,112
135,254	134,052	-0,200	-0,181
136,268	11,294	-0,248	-0,132
137,283	-93,631	-0,217	-0,042
138,297	-1,337	-0,276	-0,136
139,312	58,681	-0,238	-0,163
140,327	353,448	-0,190	-0,264
141,341	-87,901	-0,293	-0,061
142,356	-106,103	-0,300	-0,047
143,370	-35,391	-0,290	-0,110
144,385	-198,905	-0,167	0,001
145,400	46,202	-0,209	-0,135
146,414	276,378	-0,206	-0,256
147,429	22,843	-0,358	-0,205
148,443	263,393	-0,162	-0,197
149,458	210,869	-0,184	-0,202
150,473	-24,921	-0,315	-0,130
151,487	76,993	-0,282	-0,209
152,502	80,255	-0,257	-0,193
153,516	800,000	-0,209	-0,425
154,531	740,879	-0,215	-0,406
155,546	800,000	-0,121	-0,273
156,560	30,201	-0,304	-0,180
157,575	161,050	-0,266	-0,260
158,589	45,458	-0,188	-0,121
159,604	-46,624	-0,339	-0,115
160,619	-19,871	-0,232	-0,100
161,633	-14,369	-0,235	-0,105
162,648	77,122	-0,235	-0,174
163,662	-49,329	-0,344	-0,114
164,677	57,859	-0,247	-0,169
165,692	4,634	-0,256	-0,131
166,706	213,554	-0,228	-0,252
167,721	139,240	-0,207	-0,190
168,735	341,347	-0,148	-0,202
169,750	113,331	-0,194	-0,164
170,764	-0,743	-0,287	-0,141
171,779	308,223	-0,122	-0,159
172,794	-17,695	-0,182	-0,079
173,808	319,943	-0,185	-0,246
174,823	168,406	-0,260	-0,259
175,837	175,332	-0,293	-0,296
176,852	-200,000	-0,080	-0,260
177,867	340,482	-0,154	-0,210
178,881	800,000	-0,129	-0,264
179,896	-78,059	-0,151	-0,036
180,910	286,045	-0,129	-0,162
181,925	130,717	-0,258	-0,230
182,940	271,733	-0,187	-0,230
183,954	-62,497	-0,181	-0,052
184,969	-23,703	-0,265	-0,110
185,983	800,000	-0,064	-0,169
186,998	-85,437	-0,289	-0,062
188,013	-3,134	-0,180	-0,087
189,027	167,622	-0,288	-0,286
190,042	21,511	-0,168	-0,095
191,056	352,392	-0,173	-0,240
192,071	-31,168	-0,160	-0,062
193,086	-109,486	-0,114	-0,017
194,100	-200,000	-0,007	-0,236
195,115	69,831	-0,196	-0,140
196,129	79,096	-0,199	-0,148
197,144	68,274	-0,247	-0,176
198,159	41,740	-0,232	-0,146
199,173	249,559	-0,213	-0,251
200,188	202,384	-0,147	-0,158
201,202	247,511	-0,203	-0,239
202,217	151,786	-0,178	-0,168
203,232	285,426	-0,229	-0,288
204,246	62,527	-0,378	-0,262
205,261	657,578	-0,132	-0,236
206,275	82,551	-0,247	-0,187
207,290	800,000	-0,159	-0,323
208,304	59,145	-0,085	-0,058
209,319	800,000	-0,049	-0,126
210,334	-51,261	-0,297	-0,096
211,348	-33,434	-0,215	-0,082
212,363	228,851	-0,173	-0,197
213,377	800,000	-0,074	-0,207
214,392	118,602	-0,151	-0,129
215,407	331,393	-0,125	-0,168
216,421	42,509	-0,226	-0,142
217,436	122,302	-0,146	-0,126
218,450	800,000	-0,118	-0,319
219,465	4,394	-0,206	-0,105
220,480	168,251	-0,130	-0,128
221,494	-200,000	-0,081	-0,340
222,509	99,874	-0,052	-0,042
223,523	-4,730	-0,130	-0,062
224,538	-25,834	-0,261	-0,106
225,553	-200,000	0,013	-0,131
226,567	-17,143	-0,254	-0,111
227,582	-34,745	-0,217	-0,082
228,596	800,000	-0,096	-0,249
229,611	158,099	-0,106	-0,102
230,626	75,787	-0,153	-0,112
231,640	-183,830	-0,191	-0,002
232,655	85,771	-0,253	-0,193
233,669	437,425	-0,136	-0,206
234,684	719,332	-0,084	-0,155
235,699	50,814	-0,171	-0,112
236,713	-71,074	-0,178	-0,046
237,728	-94,725	-0,268	-0,050
238,742	124,996	-0,204	-0,178
239,757	118,397	-0,271	-0,232
240,772	75,502	-0,180	-0,132
241,786	-149,126	-0,178	-0,010
242,801	-28,817	-0,159	0,063
243,815	2,137	-0,151	0,075
244,830	-58,723	-0,143	-0,042
245,844	-25,154	-0,220	-0,090
246,859	203,538	-0,128	-0,137
247,874	13,410	-0,219	-0,117
248,888	112,995	-0,181	-0,152
249,903	484,221	-0,117	-0,186
250,917	703,047	-0,064	-0,118
251,932	747,644	-0,082	-0,153
252,947	-35,657	-0,137	-0,051
253,961	800,000	-0,111	-0,216
254,976	55,371	-0,102	-0,068
255,990	800,000	-0,075	-0,205
257,005	11,447	-0,225	-0,119
258,020	-25,446	-0,207	-0,084
259,034	73,326	-0,111	-0,080
260,049	3,319	-0,165	-0,083
261,063	100,528	-0,140	-0,112
262,078	65,788	-0,220	-0,154
263,093	291,405	-0,176	-0,222
264,107	800,000	-0,104	-0,202
265,122	-72,141	-0,107	-0,027
266,136	245,435	-0,198	-0,230
267,151	-91,170	-0,038	-0,007
268,166	239,617	-0,110	-0,127
269,180	6,360	-0,233	-0,119
270,195	224,775	-0,212	-0,238
271,209	174,075	-0,199	-0,199
272,224	-58,118	-0,138	-0,041
273,239	-23,641	-0,222	-0,092
274,253	94,464	-0,217	-0,170
275,268	58,574	-0,122	-0,083
276,282	429,464	-0,198	-0,297
277,297	18,777	-0,242	-0,134
278,312	559,689	-0,053	-0,089
279,326	-131,450	-0,127	-0,011
280,341	-51,671	-0,092	-0,029
281,355	-8,344	-0,094	-0,044
282,370	-19,727	-0,279	-0,119
283,384	-123,314	-0,119	-0,013
284,399	183,783	-0,232	-0,237
285,414	-200,000	-0,007	-0,072
286,428	-152,054	-0,159	0,008
287,443	800,000	-0,063	-0,140
288,457	-185,342	-0,045	-0,000
289,472	-79,263	-0,218	-0,051
290,487	22,825	-0,165	-0,093
291,501	65,730	-0,124	-0,087
292,516	-132,640	-0,162	0,014
293,530	-200,000	-0,059	-0,225
294,545	126,143	-0,091	-0,079
295,560	-21,448	-0,154	-0,065
296,574	65,992	-0,217	-0,152
297,589	11,438	-0,173	-0,091
298,603	100,725	-0,090	-0,072
299,618	-200,000	-0,054	-0,260
300,633	232,573	-0,063	-0,071
301,647	356,393	-0,054	-0,074
302,662	174,427	-0,112	-0,112
303,676	-105,851	-0,193	-0,030
304,691	800,000	-0,082	-0,198
305,706	-29,125	-0,218	-0,086
306,720	14,627	-0,249	-0,134
307,735	98,262	-0,176	-0,139
308,749	557,290	-0,090	-0,150
309,764	-57,649	-0,174	0,052
310,779	-8,094	-0,135	-0,063
311,793	698,510	-0,141	-0,257
312,808	157,769	-0,158	-0,151
313,822	55,379	-0,235	-0,156
314,837	13,222	-0,162	-0,086
315,852	245,745	-0,097	-0,113
316,866	413,175	-0,089	-0,131
317,881	370,685	-0,065	-0,091
318,895	96,269	-0,075	-0,059
319,910	56,074	-0,233	-0,155
320,925	56,078	-0,258	-0,172
321,939	321,234	-0,095	-0,125
322,954	-23,143	-0,186	-0,077
323,968	800,000	-0,037	-0,101
324,983	751,641	-0,089	-0,166
325,997	85,984	-0,206	-0,155
327,012	88,610	-0,214	-0,164
328,027	365,712	-0,151	-0,210
329,041	-200,000	-0,037	-0,146
330,056	800,000	-0,040	-0,083
331,070	-34,651	-0,111	-0,041
332,085	-140,846	-0,250	-0,017
333,100	74,324	-0,179	-0,129
334,114	-200,000	-0,051	-0,180
335,129	369,960	-0,194	-0,271
336,143	597,892	-0,115	-0,197
337,158	-120,227	-0,192	-0,022
338,173	410,625	-0,077	-0,112
339,187	-44,813	-0,073	-0,025
340,202	-115,776	-0,182	-0,023
341,216	57,638	-0,224	-0,150
342,231	19,225	-0,159	-0,088
343,246	595,764	-0,086	-0,147
344,260	448,130	-0,090	-0,136
345,275	800,000	-0,071	-0,149
346,289	-35,598	-0,121	-0,045
347,304	129,113	-0,059	-0,052
348,319	548,465	-0,035	0,058
349,333	134,356	-0,042	-0,037
350,348	-14,322	-0,091	-0,040
351,362	318,327	-0,098	-0,128
352,377	-109,021	-0,098	-0,014
353,392	125,517	-0,118	-0,102
354,406	93,729	-0,074	-0,058
355,421	209,106	1313,488	1412,931
356,435	160,927	1474,055	1413,426
