DTS Sentinel unit serial number:	SN410029Multiplexer serial number:	ORYXHardware model number:	OX2-SRSoftware version number:	ORYX F/W v4,00 Oryx Data Collector v3.7.2.0data status	okinstallation	B3 Nyhavnadifferential loss correction	single-endedforward channel	channel 1reverse channel	N/Adate	2023/12/04time	13:37:30forward acquisition time	300,00reverse acquisition time	0,00gamma	499,1914k internal	0,3201k external	0,3201temperature offset calibration	1,0000default loss term (dB/km)	0,3820temperature slope calibration	1,0000multiplexer offset coefficient	1,0000multiplexer slope coefficient	1,0000fibre end	0,00T internal ref (°C)	14,90T ext. ref 1 (°C)	0,26T ext. ref 2 (°C)	0,25length (m)	temperature (°C)	Stokes	anti-Stokes-744,400	224,434	-0,173	-0,204
-743,385	-200,000	0,029	0,198
-742,371	-112,819	-0,231	-0,033
-741,356	-200,000	0,004	0,387
-740,342	-6,500	-0,324	-0,160
-739,327	-200,000	-0,068	0,231
-738,312	64,870	-0,253	-0,186
-737,298	800,000	-0,093	0,224
-736,283	165,987	-0,220	-0,226
-735,269	-200,000	-0,069	0,415
-734,254	267,579	-0,164	-0,209
-733,239	328,004	-0,153	0,214
-732,225	133,550	-0,196	-0,185
-731,210	-75,590	0,144	-0,037
-730,196	12,878	-0,031	-0,017
-729,181	-200,000	-0,004	0,050
-728,167	130,988	0,085	-0,079
-727,152	43,038	0,031	-0,020
-726,137	-200,000	0,016	0,100
-725,123	-172,393	0,070	0,002
-724,108	-174,403	-0,200	-0,004
-723,094	592,798	-0,051	-0,093
-722,079	-173,980	-0,057	-0,001
-721,064	-200,000	0,034	-0,121
-720,050	-200,000	-0,012	-0,054
-719,035	175,761	0,066	-0,070
-718,021	261,499	-0,035	-0,044
-717,006	-69,389	-0,104	-0,029
-715,991	-10,185	-0,044	-0,021
-714,977	-80,153	-0,185	-0,045
-713,962	48,111	-0,049	-0,033
-712,948	-30,628	0,176	-0,072
-711,933	-4,892	-0,127	0,063
-710,918	-62,162	-0,060	-0,018
-709,904	3,022	-0,093	-0,049
-708,889	22,235	-0,005	-0,003
-707,875	800,000	-0,051	-0,125
-706,860	88,356	0,122	-0,098
-705,845	-200,000	0,020	-0,088
-704,831	67,107	0,099	0,074
-703,816	-89,370	0,091	-0,019
-702,802	-155,185	-0,068	-0,003
-701,787	28,239	0,027	0,017
-700,772	-200,000	-0,005	-0,024
-699,758	350,284	0,047	-0,067
-698,743	-88,036	0,008	0,002
-697,729	-200,000	-0,002	0,184
-696,714	253,274	0,038	-0,047
-695,699	249,407	0,082	-0,101
-694,685	-200,000	-0,037	-0,142
-693,670	-200,000	0,001	-0,090
-692,656	251,882	-0,018	0,023
-691,641	800,000	-0,056	0,117
-690,627	443,369	0,017	-0,028
-689,612	800,000	-0,049	0,113
-688,597	800,000	-0,029	0,070
-687,583	533,160	-0,029	-0,050
-686,568	302,200	0,061	-0,082
-685,554	629,511	-0,060	-0,111
-684,539	192,631	0,120	-0,131
-683,524	-47,780	0,100	0,035
-682,510	25,599	-0,179	-0,108
-681,495	-83,359	-0,118	0,027
-680,481	56,723	0,036	0,026
-679,466	-200,000	-0,026	0,086
-678,451	-200,000	-0,042	-0,153
-677,437	-11,169	-0,064	-0,030
-676,422	273,532	0,017	-0,022
-675,408	40,145	0,107	-0,070
-674,393	210,521	0,051	-0,058
-673,378	-60,356	-0,110	0,034
-672,364	-51,576	0,116	-0,039
-671,349	-110,781	0,045	0,007
-670,335	-200,000	0,001	-0,032
-669,320	665,348	0,023	0,044
-668,305	-200,000	-0,024	-0,089
-667,291	-45,527	-0,080	0,029
-666,276	207,148	-0,111	-0,125
-665,262	13,828	-0,036	0,020
-664,247	-200,000	0,008	0,058
-663,232	-200,000	0,017	-0,159
-662,218	-66,046	0,096	0,028
-661,203	-200,000	-0,003	0,065
-660,189	55,435	0,018	0,013
-659,174	-200,000	0,009	-0,050
-658,159	-101,870	-0,285	-0,049
-657,145	-200,000	0,002	-0,074
-656,130	-115,159	-0,209	-0,028
-655,116	-101,369	-0,042	0,007
-654,101	-200,000	-0,005	-0,065
-653,086	800,000	0,058	-0,171
-652,072	389,231	-0,090	-0,135
-651,057	-21,314	-0,081	0,036
-650,043	-116,296	-0,058	0,008
-649,028	310,236	0,076	0,103
-648,014	-87,815	-0,093	0,020
-646,999	-200,000	0,018	0,128
-645,984	-200,000	-0,004	-0,040
-644,970	-200,000	0,003	-0,121
-643,955	45,678	-0,041	-0,028
-642,941	-125,854	-0,030	-0,003
-641,926	-95,074	0,060	-0,012
-640,911	121,901	-0,072	-0,065
-639,897	78,633	0,110	0,085
-638,882	163,400	0,037	-0,038
-637,868	337,624	-0,047	-0,067
-636,853	38,364	-0,109	0,070
-635,838	-200,000	0,014	-0,083
-634,824	-42,042	-0,091	0,033
-633,809	0,632	0,106	-0,055
-632,795	800,000	-0,031	-0,078
-631,780	32,562	-0,080	-0,050
-630,765	132,611	-0,054	0,050
-629,751	-200,000	0,009	-0,028
-628,736	313,026	-0,039	0,053
-627,722	-200,000	-0,025	-0,115
-626,707	-57,198	-0,130	0,041
-625,692	-200,000	0,030	0,172
-624,678	-121,916	0,149	0,017
-623,663	137,660	-0,069	-0,066
-622,649	56,414	-0,058	-0,041
-621,634	125,832	-0,015	-0,014
-620,619	-135,935	-0,033	0,003
-619,605	133,654	0,022	0,021
-618,590	-200,000	0,001	-0,075
-617,576	800,000	-0,026	-0,066
-616,561	-200,000	-0,013	-0,184
-615,546	800,000	-0,031	0,067
-614,532	77,228	0,017	-0,013
-613,517	-200,000	-0,031	-0,108
-612,503	-200,000	0,011	-0,063
-611,488	4,382	0,013	-0,007
-610,474	246,265	-0,019	-0,023
-609,459	132,320	0,123	0,115
-608,444	-123,797	-0,070	0,008
-607,430	745,089	-0,013	0,026
-606,415	81,031	-0,085	-0,067
-605,401	736,198	-0,059	0,114
-604,386	800,000	0,025	0,064
-603,371	-123,651	0,074	-0,008
-602,357	294,623	0,064	0,085
-601,342	241,447	-0,069	-0,083
-600,328	800,000	-0,024	-0,049
-599,313	800,000	-0,037	0,075
-598,298	-200,000	0,005	-0,017
-597,284	800,000	-0,040	-0,089
-596,269	-186,529	-0,054	0,001
-595,255	-200,000	0,011	0,074
-594,240	-152,937	0,060	0,003
-593,225	-200,000	-0,077	-0,251
-592,211	-53,607	0,110	-0,036
-591,196	-200,000	0,026	-0,223
-590,182	77,532	0,089	-0,069
-589,167	47,025	-0,038	-0,026
-588,152	-92,777	0,076	0,015
-587,138	-65,712	0,025	-0,007
-586,123	-19,910	0,073	0,033
-585,109	-157,578	0,037	0,002
-584,094	481,230	0,052	-0,086
-583,079	-84,955	-0,076	-0,017
-582,065	128,627	0,058	-0,054
-581,050	252,508	0,023	0,028
-580,036	-200,000	-0,009	0,115
-579,021	800,000	0,021	0,066
-578,006	-68,518	-0,150	-0,042
-576,992	-200,000	-0,015	-0,107
-575,977	-67,658	-0,018	-0,005
-574,963	-200,000	0,014	0,175
-573,948	197,869	-0,071	0,079
-572,934	-200,000	-0,035	0,147
-571,919	800,000	0,028	-0,064
-570,904	-67,045	-0,063	-0,018
-569,890	-97,945	-0,077	-0,014
-568,875	54,295	0,092	0,064
-567,861	376,536	0,094	0,139
-566,846	-154,711	0,066	0,003
-565,831	800,000	0,052	-0,143
-564,817	66,366	0,092	0,068
-563,802	34,668	-0,012	-0,008
-562,788	146,347	-0,035	0,034
-561,773	800,000	-0,044	-0,110
-560,758	-41,671	-0,027	-0,010
-559,744	-200,000	0,019	0,069
-558,729	-200,000	0,012	-0,097
-557,715	46,556	0,051	0,034
-556,700	-66,236	0,047	0,013
-555,685	503,285	-0,095	0,159
-554,671	-59,104	0,132	0,041
-553,656	-128,140	0,181	0,018
-552,642	407,820	0,061	0,094
-551,627	800,000	0,073	-0,190
-550,612	800,000	-0,009	-0,019
-549,598	24,486	-0,081	-0,048
-548,583	-127,202	-0,044	0,005
-547,569	-200,000	-0,013	-0,048
-546,554	-200,000	-0,012	-0,063
-545,539	-89,336	0,037	-0,008
-544,525	346,183	0,044	-0,062
-543,510	-27,523	-0,118	-0,049
-542,496	-32,654	0,048	-0,019
-541,481	800,000	-0,063	-0,176
-540,466	-200,000	-0,001	0,011
-539,452	-200,000	0,011	0,088
-538,437	-200,000	-0,008	0,046
-537,423	-200,000	-0,019	0,066
-536,408	-200,000	0,002	0,124
-535,393	800,000	-0,006	0,018
-534,379	-150,408	-0,104	0,006
-533,364	3,762	-0,106	0,056
-532,350	-200,000	-0,004	0,050
-531,335	13,452	0,094	0,052
-530,321	-162,284	0,032	-0,001
-529,306	-73,315	-0,111	-0,029
-528,291	-134,628	-0,135	-0,012
-527,277	-77,577	-0,107	-0,027
-526,262	-52,641	0,070	0,023
-525,248	-40,274	-0,021	0,008
-524,233	299,825	0,042	-0,055
-523,218	-83,052	-0,081	-0,019
-522,204	800,000	-0,035	0,084
-521,189	616,546	-0,033	-0,059
-520,175	-128,650	-0,095	0,010
-519,160	603,133	-0,047	-0,085
-518,145	-200,000	-0,005	-0,061
-517,131	-78,613	0,166	0,041
-516,116	91,007	-0,036	-0,029
-515,102	695,722	-0,047	0,090
-514,087	-25,166	-0,113	0,048
-513,072	-200,000	-0,018	-0,146
-512,058	24,701	-0,072	-0,043
-511,043	418,904	0,034	-0,053
-510,029	-135,862	0,156	-0,013
-509,014	-146,196	0,106	0,007
-507,999	-121,548	-0,096	0,011
-506,985	-114,977	-0,216	0,029
-505,970	1,249	-0,088	0,045
-504,956	-39,498	0,135	-0,051
-503,941	-12,358	-0,024	-0,011
-502,926	84,310	0,085	0,067
-501,912	800,000	-0,062	0,178
-500,897	95,664	0,117	0,096
-499,883	32,041	-0,143	-0,089
-498,868	266,538	-0,068	-0,086
-497,853	308,705	-0,056	-0,076
-496,839	307,156	-0,036	-0,048
-495,824	-98,217	0,043	-0,008
-494,810	34,020	-0,080	0,050
-493,795	221,003	0,069	-0,080
-492,781	326,559	0,089	-0,124
-491,766	63,126	0,023	-0,017
-490,751	-63,090	-0,124	-0,037
-489,737	51,501	0,082	0,056
-488,722	-143,827	0,048	-0,003
-487,708	-18,198	0,094	-0,042
-486,693	-70,016	0,092	0,025
-485,678	800,000	-0,032	-0,067
-484,664	800,000	-0,026	-0,063
-483,649	50,215	0,038	-0,026
-482,635	-200,000	-0,022	-0,096
-481,620	-200,000	0,004	0,068
-480,605	800,000	-0,033	0,077
-479,591	-200,000	-0,001	-0,006
-478,576	800,000	0,059	0,163
-477,562	5,176	-0,097	0,051
-476,547	-200,000	-0,013	0,087
-475,532	278,656	-0,056	0,072
-474,518	240,614	0,071	0,086
-473,503	245,098	-0,051	0,062
-472,489	327,575	-0,027	0,037
-471,474	12,973	0,098	0,054
-470,459	-126,897	0,096	-0,010
-469,445	225,335	-0,086	-0,100
-468,430	-200,000	0,016	-0,121
-467,416	113,783	0,078	0,068
-466,401	-68,085	0,166	-0,046
-465,386	800,000	-0,042	-0,096
-464,372	9,449	0,060	0,033
-463,357	510,915	-0,007	0,012
-462,343	800,000	0,024	0,055
-461,328	104,251	0,070	-0,060
-460,313	219,783	0,048	-0,056
-459,299	-100,204	0,121	0,021
-458,284	59,661	-0,061	0,043
-457,270	800,000	0,004	-0,009
-456,255	-200,000	-0,028	-0,116
-455,241	-200,000	-0,014	-0,109
-454,226	-71,949	-0,148	0,039
-453,211	167,424	-0,111	0,113
-452,197	412,834	0,050	-0,076
-451,182	108,808	0,072	-0,061
-450,168	-108,608	-0,055	0,008
-449,153	750,766	0,042	0,081
-448,138	-1,766	0,093	0,047
-447,124	-67,114	-0,101	-0,028
-446,109	800,000	0,050	-0,146
-445,095	319,841	-0,024	-0,033
-444,080	769,620	0,025	0,049
-443,065	86,114	0,057	0,045
-442,051	306,992	-0,046	0,061
-441,036	-64,772	0,094	-0,027
-440,022	-11,089	-0,119	-0,056
-439,007	-10,912	0,052	-0,024
-437,992	51,943	-0,045	0,031
-436,978	800,000	-0,028	0,064
-435,963	-93,924	0,058	0,011
-434,949	290,225	0,097	-0,127
-433,934	-142,190	-0,175	-0,012
-432,919	245,412	0,021	-0,026
-431,905	41,717	0,047	-0,031
-430,890	-73,056	-0,055	-0,014
-429,876	800,000	0,059	0,124
-428,861	-200,000	-0,006	0,061
-427,846	-40,117	0,083	0,031
-426,832	109,904	-0,038	-0,033
-425,817	-109,712	-0,167	0,025
-424,803	7,202	0,056	-0,030
-423,788	434,931	-0,037	-0,058
-422,773	115,031	0,078	-0,068
-421,759	42,451	0,009	-0,006
-420,744	116,139	-0,133	0,117
-419,730	-200,000	-0,009	0,076
-418,715	-200,000	0,008	-0,028
-417,701	27,683	-0,113	0,068
-416,686	800,000	-0,026	-0,076
-415,671	800,000	0,016	0,033
-414,657	114,036	0,143	0,125
-413,642	320,418	0,046	-0,063
-412,628	-200,000	-0,025	-0,086
-411,613	-200,000	-0,022	-0,134
-410,598	-200,000	0,011	0,060
-409,584	-122,249	-0,178	-0,021
-408,569	-34,255	-0,104	0,041
-407,555	-200,000	-0,033	0,119
-406,540	-41,996	0,218	0,080
-405,525	-200,000	0,003	-0,051
-404,511	-74,844	0,053	0,014
-403,496	-200,000	-0,031	-0,186
-402,482	-82,071	-0,093	-0,022
-401,467	132,055	0,062	0,057
-400,452	59,908	-0,114	-0,080
-399,438	48,531	0,118	-0,079
-398,423	-20,554	0,081	-0,036
-397,409	-0,551	-0,095	0,048
-396,394	-200,000	0,017	-0,055
-395,379	281,442	0,063	0,081
-394,365	-63,020	-0,088	-0,026
-393,350	0,185	-0,125	-0,064
-392,336	38,651	0,061	-0,039
-391,321	-87,191	-0,213	-0,046
-390,306	388,727	0,017	0,026
-389,292	-38,747	-0,100	0,037
-388,277	80,121	-0,065	0,050
-387,263	-44,818	0,092	-0,033
-386,248	62,061	0,043	0,031
-385,233	800,000	-0,021	0,063
-384,219	-200,000	0,015	-0,062
-383,204	395,642	-0,007	0,010
-382,190	25,970	-0,059	-0,035
-381,175	122,705	-0,075	0,068
-380,160	-116,305	0,122	-0,016
-379,146	42,955	-0,006	-0,004
-378,131	-137,116	-0,062	0,005
-377,117	-200,000	0,001	-0,124
-376,102	-143,244	-0,119	0,008
-375,088	19,794	0,163	0,094
-374,073	206,744	-0,029	-0,032
-373,058	542,335	0,095	0,164
-372,044	-200,000	-0,003	0,105
-371,029	-24,001	0,087	0,037
-370,015	104,391	0,086	-0,073
-369,000	-94,297	-0,166	-0,032
-367,985	-200,000	-0,031	0,132
-366,971	-79,375	-0,054	0,013
-365,956	448,601	0,098	-0,155
-364,942	48,156	0,120	0,080
-363,927	-155,410	-0,055	-0,003
-362,912	119,183	-0,054	0,048
-361,898	83,319	-0,082	0,064
-360,883	-200,000	0,014	-0,088
-359,869	-13,396	-0,102	0,047
-358,854	-200,000	-0,079	0,258
-357,839	800,000	0,023	-0,048
-356,825	800,000	-0,065	0,149
-355,810	422,067	0,044	-0,068
-354,796	221,953	-0,075	-0,087
-353,781	641,260	-0,096	-0,175
-352,766	-179,102	0,117	0,002
-351,752	54,286	0,084	-0,058
-350,737	800,000	0,019	-0,038
-349,723	-67,225	-0,055	0,015
-348,708	25,493	-0,068	0,041
-347,693	-200,000	0,035	-0,115
-346,679	126,861	0,094	0,085
-345,664	-200,000	-0,001	-0,162
-344,650	239,475	-0,036	-0,043
-343,635	35,617	0,098	-0,062
-342,620	-190,412	0,071	-0,001
-341,606	120,199	-0,087	0,077
-340,591	-61,356	0,079	-0,024
-339,577	-66,390	-0,131	-0,037
-338,562	-40,609	-0,173	-0,064
-337,548	-117,941	0,068	0,009
-336,533	-200,000	-0,004	0,065
-335,518	800,000	-0,016	-0,039
-334,504	800,000	-0,026	-0,052
-333,489	35,539	-0,049	-0,031
-332,475	-119,900	-0,233	-0,028
-331,460	-200,000	-0,001	-0,024
-330,445	-59,038	-0,049	-0,015
-329,431	-200,000	-0,010	0,168
-328,416	800,000	0,068	0,138
-327,402	332,845	0,068	-0,095
-326,387	-86,400	0,169	0,037
-325,372	-200,000	0,017	0,147
-324,358	-143,376	-0,117	0,008
-323,343	800,000	0,007	-0,014
-322,329	-91,258	0,132	0,027
-321,314	-200,000	-0,005	-0,058
-320,299	800,000	0,037	0,074
-319,285	800,000	-0,067	0,136
-318,270	159,481	-0,106	-0,106
-317,256	-200,000	0,029	-0,114
-316,241	-200,000	-0,005	-0,079
-315,226	254,624	-0,030	-0,037
-314,212	800,000	0,041	0,116
-313,197	53,939	0,151	0,104
-312,183	153,372	-0,067	-0,066
-311,168	478,059	-0,072	-0,118
-310,153	-96,125	-0,005	-0,001
-309,139	-30,178	-0,137	0,055
-308,124	-51,440	-0,119	0,040
-307,110	800,000	0,048	0,109
-306,095	-95,627	-0,137	0,026
-305,080	-200,000	0,006	-0,034
-304,066	800,000	-0,016	0,032
-303,051	7,700	0,057	0,031
-302,037	-200,000	-0,001	-0,089
-301,022	800,000	-0,046	-0,138
-300,008	204,096	0,083	-0,092
-298,993	92,317	0,140	0,112
-297,978	800,000	0,037	0,077
-296,964	-200,000	-0,017	-0,079
-295,949	-200,000	-0,013	-0,105
-294,935	125,492	-0,082	-0,074
-293,920	84,483	0,149	-0,117
-292,905	-200,000	0,034	0,114
-291,891	-95,203	0,043	0,008
-290,876	-6,798	0,145	0,070
-289,862	800,000	-0,021	0,060
-288,847	-66,197	-0,059	0,017
-287,832	-93,519	0,082	-0,016
-286,818	-99,812	0,049	-0,009
-285,803	-200,000	0,001	-0,133
-284,789	396,379	-0,049	0,074
-283,774	800,000	0,038	-0,088
-282,759	-90,235	-0,128	0,026
-281,745	76,950	-0,129	-0,098
-280,730	175,238	-0,061	0,063
-279,716	167,037	-0,061	-0,062
-278,701	-153,072	0,051	-0,003
-277,686	38,528	0,058	0,037
-276,672	800,000	0,042	0,107
-275,657	-200,000	-0,015	-0,138
-274,643	-200,000	-0,004	-0,029
-273,628	800,000	0,027	0,063
-272,613	74,625	0,042	-0,031
-271,599	335,610	-0,027	0,038
-270,584	235,265	0,042	0,049
-269,570	358,865	0,042	0,060
-268,555	393,115	0,051	0,076
-267,540	64,067	0,073	0,052
-266,526	-68,682	-0,031	-0,008
-265,511	-151,900	0,076	-0,004
-264,497	800,000	0,052	0,141
-263,482	-200,000	-0,015	0,058
-262,467	182,333	-0,122	0,128
-261,453	-13,958	0,107	0,049
-260,438	330,514	-0,145	-0,199
-259,424	16,955	0,065	-0,036
-258,409	-48,149	-0,090	0,031
-257,395	-62,675	0,126	-0,037
-256,380	220,664	0,072	0,083
-255,365	-96,594	0,123	0,023
-254,351	-172,577	0,095	-0,002
-253,336	227,784	-0,033	-0,039
-252,322	-27,042	-0,083	-0,034
-251,307	-150,252	-0,046	0,002
-250,292	-29,334	-0,081	-0,033
-249,278	800,000	0,046	0,108
-248,263	800,000	-0,039	0,096
-247,249	292,771	0,052	-0,067
-246,234	159,571	0,055	-0,055
-245,219	-200,000	0,008	-0,087
-244,205	316,983	-0,091	-0,122
-243,190	-200,000	-0,028	0,104
-242,176	-42,757	-0,148	-0,053
-241,161	513,677	0,039	0,065
-240,146	425,979	0,082	0,127
-239,132	144,893	0,074	-0,070
-238,117	-200,000	0,034	-0,179
-237,103	230,169	-0,130	-0,151
-236,088	-33,644	0,051	0,020
-235,073	-65,347	0,102	-0,029
-234,059	-200,000	-0,023	0,103
-233,044	30,832	0,072	0,044
-232,030	-84,447	0,070	0,016
-231,015	628,621	0,069	-0,124
-230,000	-54,382	0,044	-0,014
-228,986	116,553	0,054	-0,047
-227,971	66,095	0,111	-0,080
-226,957	800,000	0,044	0,090
-225,942	146,427	0,074	0,070
-224,927	202,621	-0,049	-0,054
-223,913	34,850	0,055	-0,034
-222,898	626,559	-0,033	0,060
-221,884	-134,233	-0,038	0,003
-220,869	-44,028	0,088	0,031
-219,855	-142,520	0,021	0,001
-218,840	-200,000	-0,032	0,142
-217,825	578,554	-0,065	-0,114
-216,811	463,785	-0,025	-0,040
-215,796	-3,121	0,025	0,012
-214,782	7,476	-0,047	-0,025
-213,767	170,871	0,109	0,111
-212,752	800,000	0,044	0,087
-211,738	-200,000	0,006	-0,039
-210,723	10,694	0,078	0,042
-209,709	-200,000	-0,050	0,205
-208,694	-146,389	0,127	0,008
-207,679	800,000	-0,080	-0,159
-206,665	207,057	0,059	0,066
-205,650	-200,000	-0,006	-0,046
-204,636	8,014	-0,042	0,022
-203,621	516,928	0,039	0,066
-202,606	-119,159	-0,185	0,023
-201,592	-154,979	0,092	-0,004
-200,577	232,946	-0,118	-0,138
-199,563	-43,051	-0,088	-0,032
-198,548	-10,816	-0,108	0,051
-197,533	192,209	-0,030	-0,032
-196,519	800,000	0,014	-0,038
-195,504	800,000	-0,032	0,077
-194,490	-36,575	0,090	0,034
-193,475	650,689	0,077	-0,141
-192,460	686,886	0,081	0,152
-191,446	84,953	0,039	-0,030
-190,431	-138,238	-0,118	-0,009
-189,417	742,287	0,021	0,041
-188,402	593,037	0,028	-0,049
-187,387	-200,000	-0,020	0,126
-186,373	-65,394	0,134	0,038
-185,358	113,102	0,090	0,078
-184,344	-200,000	-0,013	0,052
-183,329	-23,354	-0,027	0,012
-182,315	186,404	-0,087	0,092
-181,300	-75,849	0,087	-0,022
-180,285	227,373	-0,034	-0,039
-179,271	-116,961	-0,080	0,010
-178,256	164,193	-0,013	0,013
-177,242	-73,748	0,073	-0,019
-176,227	262,138	-0,038	-0,047
-175,212	-200,000	0,005	-0,068
-174,198	-51,836	0,072	0,024
-173,183	323,629	0,008	0,011
-172,169	199,682	-0,066	-0,072
-171,154	800,000	0,037	-0,084
-170,139	454,678	0,087	0,137
-169,125	-200,000	-0,023	0,084
-168,110	61,766	0,053	-0,038
-167,096	-100,533	0,150	-0,026
-166,081	787,199	0,013	-0,026
-165,066	57,374	-0,066	0,046
-164,052	800,000	0,038	0,087
-163,037	56,466	-0,098	-0,068
-162,023	-78,704	-0,079	0,019
-161,008	-200,000	0,014	0,117
-159,993	-145,977	0,122	-0,008
-158,979	-44,929	0,142	0,050
-157,964	-200,000	-0,002	-0,014
-156,950	-99,683	-0,112	0,020
-155,935	-40,903	-0,017	0,006
-154,920	800,000	-0,062	0,127
-153,906	-5,727	0,126	0,061
-152,891	750,082	0,023	0,044
-151,877	-29,980	0,087	0,035
-150,862	145,178	0,049	-0,047
-149,847	-13,711	-0,086	-0,039
-148,833	100,559	0,117	0,096
-147,818	-200,000	-0,010	0,128
-146,804	295,731	-0,058	0,075
-145,789	800,000	-0,059	0,132
-144,775	-142,089	0,070	-0,005
-143,760	-200,000	-0,005	-0,026
-142,745	-184,709	0,042	-0,000
-141,731	558,322	-0,050	0,087
-140,716	75,424	0,111	0,083
-139,702	800,000	0,072	0,163
-138,687	79,396	0,073	0,055
-137,672	-200,000	0,028	0,121
-136,658	-200,000	0,010	-0,108
-135,643	800,000	0,048	-0,095
-134,629	-125,394	-0,173	0,019
-133,614	352,949	-0,043	-0,060
-132,599	33,598	0,104	0,064
-131,585	264,005	0,170	0,210
-130,570	-97,583	-0,045	0,008
-129,556	3,822	-0,096	-0,050
-128,541	-106,129	-0,173	-0,027
-127,526	800,000	-0,033	-0,089
-126,512	268,863	0,104	-0,129
-125,497	-25,666	0,102	0,042
-124,483	800,000	-0,054	0,138
-123,468	118,985	-0,050	0,044
-122,453	-107,315	-0,064	0,010
-121,439	-112,635	-0,045	-0,006
-120,424	-200,000	-0,004	-0,113
-119,410	305,963	0,046	-0,061
-118,395	800,000	-0,021	0,065
-117,380	140,252	0,049	-0,045
-116,366	-102,284	-0,160	0,027
-115,351	-26,457	-0,090	-0,037
-114,337	253,215	0,022	0,027
-113,322	122,165	-0,086	-0,076
-112,307	-200,000	0,003	0,042
-111,293	42,537	0,160	0,103
-110,278	375,113	0,044	-0,063
-109,264	-200,000	-0,030	-0,097
-108,249	282,695	0,015	-0,019
-107,234	122,990	-0,103	0,092
-106,220	-6,488	-0,095	0,046
-105,205	800,000	-0,035	0,107
-104,191	-200,000	0,032	0,197
-103,176	-200,000	-0,016	0,095
-102,162	499,521	-0,042	0,069
-101,147	-200,000	0,036	-0,184
-100,132	12,557	-0,060	-0,033
-99,118	495,579	-0,037	-0,060
-98,103	-56,217	0,014	0,004
-97,089	717,344	-0,016	-0,031
-96,074	203,135	0,017	-0,019
-95,059	133,259	-0,059	-0,054
-94,045	-200,000	-0,022	0,088
-93,030	-123,664	0,083	-0,009
-92,016	253,873	-0,044	-0,053
-91,001	464,969	-0,019	-0,031
-89,986	-39,409	-0,101	0,037
-88,972	77,757	-0,046	-0,034
-87,957	278,558	0,044	0,056
-86,943	800,000	0,020	0,055
-85,928	-114,408	0,105	0,014
-84,913	-142,600	-0,109	0,007
-83,899	50,263	-0,056	-0,038
-82,884	679,831	0,053	0,098
-81,870	-200,000	0,002	0,061
-80,855	-200,000	0,053	0,183
-79,840	5,000	0,087	-0,045
-78,826	-200,000	0,003	0,064
-77,811	800,000	-0,016	-0,041
-76,797	800,000	-0,061	-0,158
-75,782	-147,113	0,089	-0,005
-74,767	-127,695	0,137	-0,014
-73,753	88,003	0,062	-0,049
-72,738	56,261	0,166	-0,114
-71,724	141,643	-0,066	-0,062
-70,709	800,000	0,032	-0,098
-69,694	127,741	-0,087	-0,078
-68,680	-118,724	0,120	0,015
-67,665	260,636	0,122	0,150
-66,651	-189,863	0,097	0,001
-65,636	640,235	-0,041	0,074
-64,622	-8,084	-0,101	0,048
-63,607	-200,000	0,006	0,079
-62,592	188,032	-0,101	-0,107
-61,578	-38,035	-0,205	0,077
-60,563	103,465	0,028	-0,023
-59,549	247,580	-0,116	-0,139
-58,534	-25,598	-1,457	-0,606
-57,519	316,051	-1,521	-2,039
-56,505	-200,000	-0,708	-4,495
-55,490	224,058	0,908	1,040
-54,476	800,000	4,698	10,995
-53,461	-200,000	18,233	288,761
-52,446	800,000	727,422	2232,731
-51,432	555,871	1643,468	2813,233
-50,417	79,258	1665,547	1262,723
-49,403	22,779	1539,187	890,462
-48,388	16,791	1462,543	817,117
-47,373	17,796	1452,423	816,271
-46,359	17,256	1442,654	808,165
-45,344	15,057	1438,073	795,075
-44,330	14,947	1436,175	793,466
-43,315	14,967	1434,562	792,638
-42,300	14,985	1432,858	791,751
-41,286	14,965	1431,892	791,094
-40,271	14,964	1430,496	790,287
-39,257	15,005	1429,132	789,694
-38,242	14,990	1427,903	788,911
-37,227	15,034	1426,688	788,419
-36,213	14,988	1425,430	787,476
-35,198	14,982	1424,322	786,805
-34,184	14,986	1423,510	786,344
-33,169	14,959	1422,222	785,473
-32,154	15,012	1421,201	785,125
-31,140	15,005	1419,709	784,240
-30,125	15,032	1418,501	783,665
-29,111	15,027	1417,504	783,062
-28,096	14,997	1416,367	782,261
-27,082	15,000	1415,231	781,616
-26,067	14,926	1414,274	780,711
-25,052	14,947	1412,995	780,071
-24,038	14,899	1412,102	779,324
-23,023	14,886	1411,123	778,688
-22,009	14,923	1410,101	778,271
-20,994	14,898	1409,246	777,647
-19,979	14,841	1408,558	776,971
-18,965	14,860	1407,390	776,384
-17,950	14,824	1406,406	775,642
-16,936	14,867	1405,431	775,278
-15,921	14,876	1404,240	774,631
-14,906	14,830	1403,540	774,001
-13,892	14,844	1402,595	773,514
-12,877	14,793	1401,731	772,765
-11,863	14,863	1400,761	772,530
-10,848	14,809	1399,723	771,674
-9,833	14,826	1398,903	771,271
-8,819	14,746	1398,196	770,477
-7,804	14,709	1397,301	769,785
-6,790	14,739	1395,928	769,134
-5,775	14,716	1394,924	768,444
-4,760	14,732	1394,156	768,067
-3,746	14,708	1393,358	767,486
-2,731	14,720	1392,686	767,139
-1,717	14,723	1391,818	766,643
-0,702	14,728	1389,691	765,466
0,313	18,451	1308,863	738,196
1,327	34,733	706,680	436,295
2,342	53,385	124,776	84,503
3,356	2,357	16,506	8,421
4,371	8,861	3,155	1,678
5,386	1,304	0,491	0,249
6,400	340,935	0,128	0,178
7,415	59,846	-0,233	-0,162
8,429	160,413	-0,188	-0,186
9,444	137,528	-0,267	-0,247
10,459	96,717	-0,278	-0,225
11,473	60,685	-0,191	-0,133
12,488	149,179	-0,274	-0,262
13,502	357,568	-0,206	-0,291
14,517	-6,452	-0,287	-0,138
15,531	127,772	-0,388	-0,348
16,546	70,811	-0,468	-0,342
17,561	262,732	-0,272	-0,335
18,575	49,081	-0,203	-0,134
19,590	251,766	-0,182	-0,219
20,604	-77,776	-0,100	0,024
21,619	61,898	-0,413	-0,291
22,634	29,728	-0,525	-0,315
23,648	81,803	-0,388	-0,296
24,663	164,833	-0,331	-0,330
25,677	107,059	-0,309	-0,259
26,692	12,485	-0,389	-0,211
27,707	128,538	-0,284	-0,255
28,721	38,403	-0,349	-0,219
29,736	47,479	-0,403	-0,265
30,750	103,520	-0,370	-0,306
31,765	64,702	-0,281	-0,200
32,780	73,062	-0,404	-0,297
33,794	56,415	-0,236	-0,161
34,809	14,752	-0,394	-0,217
35,823	154,344	-0,334	-0,324
36,838	-31,112	-0,344	-0,136
37,853	-40,756	-0,480	-0,175
38,867	97,118	-0,349	-0,282
39,882	123,403	-0,244	-0,216
40,896	27,875	-0,327	-0,194
41,911	10,271	-0,326	-0,174
42,926	27,968	-0,399	-0,237
43,940	56,112	-0,356	-0,243
44,955	233,092	-0,302	-0,351
45,969	31,000	-0,349	-0,210
46,984	-16,016	-0,256	-0,114
47,999	162,830	-0,273	-0,270
49,013	125,705	-0,255	-0,227
50,028	214,992	-0,326	-0,365
51,042	95,718	-0,338	-0,271
52,057	119,031	-0,394	-0,343
53,071	86,401	-0,364	-0,283
54,086	51,938	-0,412	-0,276
55,101	36,780	-0,299	-0,186
56,115	88,655	-0,306	-0,239
57,130	95,154	-0,281	-0,225
58,144	30,644	-0,443	-0,266
59,159	241,687	-0,309	-0,364
60,174	170,603	-0,298	-0,300
61,188	185,905	-0,281	-0,294
62,203	231,430	-0,236	-0,273
63,217	81,107	-0,396	-0,300
64,232	58,291	-0,304	-0,210
65,247	64,422	-0,403	-0,285
66,261	-1,877	-0,380	-0,188
67,276	71,614	-0,319	-0,233
68,290	208,170	-0,299	-0,329
69,305	13,207	-0,325	-0,177
70,320	-27,580	-0,291	-0,119
71,334	231,207	-0,200	-0,230
72,349	257,935	-0,199	-0,242
73,363	-60,947	-0,343	-0,101
74,378	387,629	-0,205	-0,300
75,393	90,893	-0,360	-0,283
76,407	194,709	-0,230	-0,245
77,422	-72,394	-0,319	-0,082
78,436	123,160	-0,234	-0,206
79,451	46,277	-0,343	-0,223
80,466	-22,176	-0,411	-0,175
81,480	118,771	-0,388	-0,337
82,495	156,409	-0,269	-0,261
83,509	54,100	-0,292	-0,197
84,524	12,139	-0,275	-0,148
85,539	22,278	-0,284	-0,163
86,553	149,846	-0,197	-0,188
87,568	145,460	-0,295	-0,277
88,582	163,360	-0,258	-0,255
89,597	125,122	-0,250	-0,221
90,611	145,081	-0,260	-0,244
91,626	188,466	-0,225	-0,236
92,641	-36,490	-0,255	-0,096
93,655	-55,642	-0,341	-0,106
94,670	7,605	-0,379	-0,198
95,684	175,307	-0,285	-0,290
96,699	147,405	-0,290	-0,274
97,714	768,967	-0,143	-0,275
98,728	116,652	-0,259	-0,223
99,743	17,582	-0,292	-0,163
100,757	113,597	-0,211	-0,180
101,772	-42,979	-0,277	-0,098
102,787	25,230	-0,319	-0,185
103,801	129,755	-0,246	-0,221
104,816	313,423	-0,190	-0,251
105,830	143,450	-0,202	-0,189
106,845	-22,589	-0,381	-0,161
107,860	129,518	-0,237	-0,212
108,874	167,026	-0,317	-0,316
109,889	25,797	-0,317	-0,185
110,903	152,554	-0,238	-0,228
111,918	64,159	-0,180	-0,127
112,933	159,798	-0,239	-0,233
113,947	-18,408	-0,264	-0,115
114,962	6,476	-0,237	-0,123
115,976	58,258	-0,127	-0,087
116,991	58,558	-0,349	-0,240
118,006	158,209	-0,136	-0,133
119,020	88,310	-0,310	-0,241
120,035	-34,825	-0,254	-0,097
121,049	-39,511	-0,238	-0,087
122,064	70,362	-0,175	-0,126
123,079	-67,283	-0,247	-0,068
124,093	74,595	-0,255	-0,188
125,108	188,622	-0,206	-0,216
126,122	4,072	-0,278	-0,142
127,137	158,453	-0,167	-0,162
128,151	48,247	-0,276	-0,181
129,166	30,403	-0,151	-0,090
130,181	286,393	-0,187	-0,237
131,195	291,915	-0,196	-0,251
132,210	149,967	-0,300	-0,285
133,224	562,764	-0,229	-0,389
134,239	57,715	-0,264	-0,180
135,254	196,237	-0,156	-0,166
136,268	165,423	-0,228	-0,226
137,283	108,861	-0,177	-0,148
138,297	107,971	-0,341	-0,284
139,312	34,666	-0,244	-0,149
140,327	139,691	-0,167	-0,154
141,341	-200,000	-0,084	-0,272
142,356	5,101	-0,197	-0,101
143,370	-200,000	-0,029	-0,185
144,385	169,360	-0,209	-0,209
145,400	-3,681	-0,271	-0,131
146,414	-16,276	-0,305	-0,135
147,429	-9,998	-0,370	-0,171
148,443	67,486	-0,238	-0,169
149,458	63,818	-0,189	-0,133
150,473	-20,462	-0,309	-0,132
151,487	-5,190	-0,379	-0,181
152,502	69,666	-0,404	-0,291
153,516	82,261	-0,240	-0,181
154,531	42,966	-0,345	-0,219
155,546	-23,458	-0,338	-0,141
156,560	208,760	-0,268	-0,293
157,575	186,230	-0,094	-0,098
158,589	268,761	-0,167	-0,205
159,604	188,539	-0,306	-0,320
160,619	193,512	-0,170	-0,179
161,633	185,374	-0,277	-0,287
162,648	127,227	-0,200	-0,177
163,662	-80,488	-0,257	-0,059
164,677	36,409	-0,256	-0,157
165,692	-138,327	-0,160	-0,012
166,706	228,746	-0,153	-0,175
167,721	-18,916	-0,216	-0,093
168,735	251,137	-0,234	-0,279
169,750	144,376	-0,230	-0,214
170,764	370,127	-0,193	-0,274
171,779	114,102	-0,124	-0,105
172,794	-66,160	-0,298	-0,082
173,808	35,948	-0,251	-0,154
174,823	14,498	-0,336	-0,182
175,837	-14,013	-0,299	-0,134
176,852	164,509	-0,187	-0,183
177,867	82,059	-0,289	-0,218
178,881	-3,635	-0,228	-0,110
179,896	-13,432	-0,308	-0,138
180,910	-73,959	-0,201	-0,051
181,925	118,533	-0,180	-0,155
182,940	-69,722	-0,285	-0,075
183,954	71,951	-0,195	-0,141
184,969	-37,625	-0,228	-0,084
185,983	89,176	-0,144	-0,111
186,998	23,223	-0,245	-0,140
188,013	153,963	-0,267	-0,255
189,027	249,714	-0,204	-0,241
190,042	50,682	-0,300	-0,197
191,056	81,437	-0,204	-0,153
192,071	21,803	-0,290	-0,164
193,086	-41,384	-0,179	-0,064
194,100	8,867	-0,198	-0,103
195,115	100,632	-0,261	-0,211
196,129	220,843	-0,111	-0,124
197,144	100,834	-0,236	-0,191
198,159	208,851	-0,098	-0,107
199,173	160,790	-0,183	-0,178
200,188	16,849	-0,214	-0,118
201,202	63,221	-0,186	-0,130
202,217	-4,624	-0,332	-0,159
203,232	-4,258	-0,231	-0,111
204,246	2,702	-0,150	-0,075
205,261	56,966	-0,187	-0,126
206,275	-200,000	-0,063	-0,294
207,290	108,091	-0,125	-0,103
208,304	-50,408	-0,170	-0,056
209,319	800,000	-0,046	-0,094
210,334	36,612	-0,150	-0,092
211,348	139,021	-0,177	-0,162
212,363	-7,854	-0,214	-0,100
213,377	454,861	-0,130	-0,201
214,392	7,309	-0,215	-0,111
215,407	216,818	-0,166	-0,184
216,421	-17,806	-0,172	-0,075
217,436	187,603	-0,212	-0,220
218,450	440,820	-0,148	-0,226
219,465	800,000	-0,055	-0,111
220,480	35,311	-0,166	-0,101
221,494	110,320	-0,189	-0,157
222,509	22,859	-0,229	-0,130
223,523	15,165	-0,151	-0,082
224,538	800,000	-0,091	-0,215
225,553	449,511	-0,141	-0,217
226,567	231,394	-0,149	-0,170
227,582	86,555	-0,145	-0,111
228,596	206,915	-0,175	-0,189
229,611	73,071	-0,227	-0,164
230,626	-200,000	-0,179	0,000
231,640	11,249	-0,193	-0,102
232,655	33,148	-0,231	-0,139
233,669	327,571	-0,188	-0,251
234,684	84,012	-0,290	-0,219
235,699	19,787	-0,147	-0,082
236,713	-21,970	-0,278	-0,117
237,728	-64,131	-0,191	-0,054
238,742	-74,317	-0,327	-0,081
239,757	112,122	-0,144	-0,120
240,772	347,055	-0,152	-0,208
241,786	550,242	-0,123	-0,205
242,801	50,361	-0,156	-0,102
243,815	-106,449	-0,145	0,022
244,830	128,679	-0,181	-0,160
245,844	-57,748	-0,209	0,063
246,859	195,383	-0,105	-0,111
247,874	55,686	-0,213	-0,143
248,888	271,005	-0,086	-0,104
249,903	756,859	-0,099	-0,187
250,917	-97,401	-0,217	-0,039
251,932	124,851	-0,180	-0,157
252,947	43,987	-0,162	-0,103
253,961	174,365	-0,206	-0,207
254,976	278,663	-0,239	-0,295
255,990	5,086	-0,285	-0,145
257,005	165,905	-0,180	-0,177
258,020	-135,716	-0,127	-0,010
259,034	-200,000	-0,048	-0,166
260,049	-6,289	-0,178	-0,084
261,063	70,237	-0,171	-0,122
262,078	800,000	-0,161	-0,361
263,093	-19,347	-0,218	-0,093
264,107	-60,486	-0,200	-0,058
265,122	800,000	-0,055	-0,127
266,136	-123,171	-0,175	-0,019
267,151	133,334	-0,104	-0,093
268,166	100,068	-0,106	-0,085
269,180	151,881	-0,168	-0,159
270,195	281,348	-0,236	-0,292
271,209	131,607	-0,203	-0,181
272,224	-102,088	-0,318	-0,052
273,239	-4,717	-0,231	-0,110
274,253	-200,000	-0,042	-0,165
275,268	98,703	-0,135	-0,107
276,282	6,804	-0,274	-0,140
277,297	800,000	-0,194	-0,375
278,312	107,759	-0,174	-0,143
279,326	-96,847	-0,244	-0,044
280,341	-117,960	-0,093	-0,011
281,355	-47,386	-0,099	-0,033
282,370	-52,898	-0,133	-0,042
283,384	35,087	-0,207	-0,125
284,399	-84,634	-0,180	-0,039
285,414	144,865	-0,213	-0,197
286,428	91,506	-0,140	-0,109
287,443	-35,489	-0,137	-0,051
288,457	9,149	-0,069	-0,036
289,472	75,482	-0,160	-0,117
290,487	260,774	-0,141	-0,168
291,501	132,823	-0,115	-0,102
292,516	62,732	-0,245	-0,169
293,530	80,385	-0,188	-0,139
294,545	-46,267	-0,169	-0,057
295,560	266,317	-0,089	-0,107
296,574	7,279	-0,063	-0,032
297,589	-106,628	-0,177	-0,027
298,603	128,733	-0,068	-0,060
299,618	20,677	-0,251	-0,139
300,633	-114,207	-0,179	-0,024
301,647	-109,327	-0,168	0,024
302,662	-176,251	-0,165	-0,003
303,676	130,297	-0,151	-0,134
304,691	-200,000	-0,023	-0,086
305,706	138,337	-0,207	-0,187
306,720	-71,636	-0,117	-0,030
307,735	-113,679	-0,220	0,029
308,749	309,317	-0,105	-0,135
309,764	62,468	-0,088	-0,060
310,779	259,616	-0,083	-0,099
311,793	153,668	-0,107	-0,101
312,808	-200,000	-0,046	-0,223
313,822	800,000	-0,076	-0,190
314,837	171,874	0,023	-0,022
315,852	-200,000	-0,037	-0,156
316,866	-200,000	0,006	-0,159
317,881	389,629	-0,087	-0,124
318,895	800,000	-0,081	-0,168
319,910	-200,000	-0,062	-0,245
320,925	-38,889	-0,183	-0,066
321,939	-43,320	-0,195	-0,068
322,954	133,478	-0,105	-0,094
323,968	163,452	-0,119	0,115
324,983	189,815	-0,195	-0,201
325,997	128,057	-0,144	-0,126
327,012	152,510	-0,151	-0,142
328,027	96,699	-0,088	-0,069
329,041	-200,000	-0,015	-0,182
330,056	-200,000	-0,051	-0,187
331,070	-78,053	-0,166	0,039
332,085	265,845	-0,058	-0,070
333,100	106,994	-0,104	-0,085
334,114	78,963	-0,159	-0,117
335,129	800,000	-0,129	-0,247
336,143	-46,764	-0,143	-0,048
337,158	-47,183	-0,233	-0,077
338,173	-112,508	-0,122	0,016
339,187	109,600	-0,122	-0,100
340,202	-77,018	-0,147	-0,035
341,216	-200,000	0,003	-0,136
342,231	426,879	-0,069	-0,103
343,246	-200,000	-0,027	-0,192
344,260	762,992	-0,048	-0,091
345,275	800,000	-0,043	-0,114
346,289	18,592	-0,024	-0,013
347,304	369,593	-0,046	-0,063
348,319	-146,862	-0,129	-0,007
349,333	800,000	-0,112	-0,232
350,348	-54,551	-0,198	-0,061
351,362	-122,364	-0,092	-0,010
352,377	-113,953	-0,164	-0,022
353,392	-94,472	-0,102	0,019
354,406	-59,561	-0,153	-0,045
355,421	209,442	1316,408	1416,900
356,435	161,191	1477,362	1417,397
