DTS Sentinel unit serial number:	SN410029Multiplexer serial number:	ORYXHardware model number:	OX2-SRSoftware version number:	ORYX F/W v4,00 Oryx Data Collector v3.7.2.0data status	okinstallation	B3 Nyhavnadifferential loss correction	single-endedforward channel	channel 1reverse channel	N/Adate	2023/11/30time	04:22:30forward acquisition time	300,00reverse acquisition time	0,00gamma	499,1914k internal	0,3211k external	0,3211temperature offset calibration	1,0000default loss term (dB/km)	0,3820temperature slope calibration	1,0000multiplexer offset coefficient	1,0000multiplexer slope coefficient	1,0000fibre end	0,00T internal ref (°C)	10,13T ext. ref 1 (°C)	-5,35T ext. ref 2 (°C)	-5,44length (m)	temperature (°C)	Stokes	anti-Stokes-744,400	-14,146	-0,173	-0,080
-743,385	-200,000	-0,033	0,236
-742,371	365,262	-0,190	-0,279
-741,356	-200,000	0,028	0,113
-740,342	-200,000	-0,009	-0,200
-739,327	-200,000	-0,024	0,361
-738,312	163,134	-0,275	-0,280
-737,298	-200,000	-0,021	0,196
-736,283	-200,000	-0,093	-0,298
-735,269	800,000	-0,114	0,294
-734,254	-24,806	-0,159	-0,068
-733,239	-38,644	-0,236	0,090
-732,225	104,811	-0,183	-0,156
-731,210	215,741	0,059	0,068
-730,196	-200,000	0,002	-0,026
-729,181	-200,000	0,018	-0,116
-728,167	-200,000	-0,003	-0,025
-727,152	-200,000	0,007	-0,109
-726,137	800,000	0,050	-0,130
-725,123	-3,003	-0,118	-0,059
-724,108	131,649	-0,198	-0,185
-723,094	24,291	-0,056	-0,033
-722,079	-106,050	-0,034	0,006
-721,064	-200,000	-0,023	-0,075
-720,050	-16,112	-0,127	-0,058
-719,035	67,935	-0,054	0,040
-718,021	-155,199	0,145	0,007
-717,006	131,095	-0,121	-0,113
-715,991	30,468	-0,121	-0,075
-714,977	800,000	0,049	-0,145
-713,962	53,593	-0,027	0,019
-712,948	-58,630	0,024	-0,007
-711,933	-200,000	-0,032	-0,111
-710,918	46,411	-0,064	-0,043
-709,904	702,154	-0,055	-0,106
-708,889	277,506	0,028	-0,036
-707,875	719,547	0,036	-0,069
-706,860	800,000	0,022	0,062
-705,845	-200,000	0,021	-0,084
-704,831	-26,212	0,039	0,017
-703,816	65,217	-0,103	-0,075
-702,802	-43,750	-0,129	-0,047
-701,787	-3,117	-0,123	0,062
-700,772	-10,352	-0,224	-0,107
-699,758	64,185	-0,094	0,068
-698,743	144,953	0,071	0,069
-697,729	285,841	-0,089	0,117
-696,714	593,885	0,034	0,061
-695,699	591,967	-0,045	-0,080
-694,685	-48,820	0,111	-0,038
-693,670	-97,224	-0,052	-0,010
-692,656	6,600	0,164	-0,088
-691,641	800,000	0,024	-0,074
-690,627	157,661	-0,069	-0,069
-689,612	-98,172	-0,164	-0,030
-688,597	107,590	-0,082	0,071
-687,583	494,706	0,035	0,058
-686,568	800,000	0,071	-0,176
-685,554	688,103	0,042	0,079
-684,539	586,893	0,105	-0,188
-683,524	-1,479	0,049	0,025
-682,510	800,000	0,027	0,058
-681,495	8,543	-0,154	0,084
-680,481	423,765	-0,118	-0,183
-679,466	45,462	-0,107	-0,072
-678,451	800,000	-0,029	-0,077
-677,437	-73,376	0,113	-0,030
-676,422	800,000	0,053	0,133
-675,408	317,989	0,074	-0,102
-674,393	-147,803	0,114	0,007
-673,378	31,428	0,074	-0,046
-672,364	216,834	-0,090	-0,104
-671,349	351,253	-0,083	-0,119
-670,335	-200,000	-0,014	-0,075
-669,320	343,422	-0,026	0,038
-668,305	102,464	0,104	-0,087
-667,291	-200,000	-0,007	0,077
-666,276	226,639	0,065	-0,076
-665,262	142,387	-0,175	-0,168
-664,247	35,512	0,047	0,030
-663,232	-200,000	0,001	0,063
-662,218	-36,429	0,055	0,021
-661,203	-6,445	0,075	-0,037
-660,189	-200,000	-0,013	-0,088
-659,174	85,893	0,075	-0,059
-658,159	71,055	-0,100	-0,075
-657,145	-67,236	-0,027	-0,008
-656,130	-98,309	-0,019	0,003
-655,116	800,000	0,047	-0,114
-654,101	-52,845	-0,073	-0,024
-653,086	800,000	-0,005	-0,010
-652,072	565,574	-0,039	-0,068
-651,057	295,351	0,067	-0,089
-650,043	800,000	0,018	0,042
-649,028	800,000	-0,009	0,021
-648,014	156,971	0,079	-0,079
-646,999	200,238	-0,095	0,106
-645,984	352,694	0,020	0,028
-644,970	-32,985	-0,110	-0,044
-643,955	-32,460	-0,110	-0,044
-642,941	-200,000	-0,009	-0,088
-641,926	800,000	-0,025	0,075
-640,911	-154,247	0,053	0,003
-639,897	99,474	-0,041	0,034
-638,882	-81,848	0,099	0,023
-637,868	676,328	0,056	-0,106
-636,853	-25,141	-0,047	-0,020
-635,838	-131,031	0,062	0,006
-634,824	186,897	-0,051	-0,055
-633,809	467,152	0,041	-0,066
-632,795	448,471	-0,043	0,069
-631,780	-200,000	0,002	0,118
-630,765	-200,000	0,010	0,069
-629,751	800,000	0,037	-0,101
-628,736	101,223	-0,104	0,087
-627,722	26,390	-0,061	-0,037
-626,707	-144,403	0,166	-0,011
-625,692	-200,000	0,055	-0,181
-624,678	110,793	-0,111	-0,097
-623,663	347,683	0,063	-0,090
-622,649	124,216	-0,146	-0,133
-621,634	362,390	-0,093	-0,135
-620,619	-200,000	0,010	0,109
-619,605	-200,000	-0,015	-0,114
-618,590	38,684	0,044	-0,029
-617,576	186,020	0,052	-0,056
-616,561	722,792	0,020	-0,039
-615,546	-132,218	-0,206	0,019
-614,532	-200,000	0,024	-0,116
-613,517	800,000	0,033	-0,068
-612,503	-132,453	-0,017	0,002
-611,488	-66,649	0,075	0,021
-610,474	735,853	0,066	0,128
-609,459	461,608	0,083	0,135
-608,444	-36,545	-0,069	-0,027
-607,430	-200,000	0,024	-0,097
-606,415	602,446	0,032	-0,058
-605,401	3,457	0,072	-0,037
-604,386	-130,911	0,042	0,004
-603,371	800,000	-0,022	0,067
-602,357	-84,618	-0,072	0,016
-601,342	800,000	-0,021	-0,063
-600,328	-200,000	-0,013	-0,056
-599,313	318,434	0,059	0,081
-598,298	-200,000	-0,018	0,103
-597,284	96,116	-0,076	0,063
-596,269	800,000	-0,031	-0,073
-595,255	800,000	0,016	0,045
-594,240	59,786	-0,082	-0,058
-593,225	26,108	-0,061	-0,037
-592,211	-69,013	-0,086	-0,024
-591,196	-200,000	-0,006	-0,035
-590,182	-200,000	-0,002	0,011
-589,167	-200,000	0,007	0,092
-588,152	-200,000	-0,032	0,119
-587,138	20,059	-0,050	0,029
-586,123	-54,483	-0,131	-0,043
-585,109	-200,000	0,020	-0,091
-584,094	-109,959	-0,083	0,012
-583,079	-138,145	0,044	0,003
-582,065	800,000	-0,015	0,041
-581,050	-87,727	0,062	0,013
-580,036	-49,384	-0,004	-0,001
-579,021	-60,029	-0,074	0,023
-578,006	-10,844	-0,068	0,032
-576,992	424,036	-0,046	-0,071
-575,977	800,000	0,023	-0,049
-574,963	800,000	0,072	0,145
-573,948	141,137	0,074	-0,071
-572,934	-197,304	0,102	-0,000
-571,919	-200,000	-0,034	-0,140
-570,904	97,400	-0,076	-0,062
-569,890	-180,559	-0,042	-0,001
-568,875	-200,000	0,010	0,065
-567,861	98,257	-0,056	-0,046
-566,846	42,938	0,079	-0,052
-565,831	50,535	0,044	0,030
-564,817	591,610	-0,042	-0,075
-563,802	273,352	-0,053	-0,068
-562,788	-26,424	0,105	-0,044
-561,773	-200,000	-0,025	0,092
-560,758	-200,000	0,032	-0,130
-559,744	-164,634	-0,168	-0,005
-558,729	-10,371	-0,106	-0,050
-557,715	-200,000	0,023	-0,078
-556,700	-13,622	-0,024	-0,011
-555,685	45,076	-0,058	0,038
-554,671	282,576	0,046	0,060
-553,656	0,841	-0,083	0,043
-552,642	-81,987	0,028	0,007
-551,627	-200,000	-0,002	0,140
-550,612	-200,000	-0,009	-0,074
-549,598	630,783	-0,038	-0,069
-548,583	89,377	-0,084	0,067
-547,569	-200,000	0,011	0,087
-546,554	105,661	0,059	0,050
-545,539	-200,000	0,030	0,128
-544,525	184,478	0,052	0,055
-543,510	74,175	-0,096	0,072
-542,496	-159,434	-0,076	0,003
-541,481	-119,956	-0,083	-0,010
-540,466	27,491	-0,164	-0,099
-539,452	-15,836	0,217	0,099
-538,437	-200,000	0,006	0,065
-537,423	-59,279	0,142	0,044
-536,408	357,154	-0,050	-0,072
-535,393	-66,213	0,066	-0,019
-534,379	159,117	-0,139	-0,140
-533,364	-157,584	0,066	-0,003
-532,350	-37,779	0,057	-0,022
-531,335	-36,859	0,077	-0,030
-530,321	176,413	-0,095	0,100
-529,306	60,033	-0,107	-0,076
-528,291	-200,000	0,017	-0,170
-527,277	800,000	0,032	-0,085
-526,262	-179,122	-0,056	-0,001
-525,248	713,846	0,070	-0,135
-524,233	800,000	-0,024	0,075
-523,218	-43,058	0,175	0,063
-522,204	-125,151	0,095	-0,010
-521,189	-161,365	0,106	-0,004
-520,175	387,977	-0,056	-0,083
-519,160	800,000	0,011	-0,032
-518,145	-200,000	0,030	-0,117
-517,131	-200,000	0,021	0,092
-516,116	329,823	-0,075	-0,104
-515,102	27,030	0,058	0,035
-514,087	95,238	0,051	0,042
-513,072	-162,911	-0,109	-0,004
-512,058	-200,000	0,063	0,000
-511,043	-200,000	-0,018	0,080
-510,029	183,078	0,034	-0,036
-509,014	282,804	0,021	-0,028
-507,999	-200,000	0,010	-0,086
-506,985	800,000	0,055	-0,158
-505,970	800,000	-0,013	-0,030
-504,956	63,552	-0,045	0,033
-503,941	-200,000	-0,019	-0,062
-502,926	800,000	0,020	0,058
-501,912	-30,665	-0,138	0,056
-500,897	82,464	0,108	0,084
-499,883	800,000	0,047	0,096
-498,868	-113,812	-0,243	0,034
-497,853	-73,337	-0,174	-0,045
-496,839	800,000	0,029	-0,085
-495,824	-200,000	-0,005	0,117
-494,810	436,539	-0,045	0,071
-493,795	-40,950	-0,119	-0,044
-492,781	126,319	-0,073	0,066
-491,766	141,451	-0,053	-0,051
-490,751	127,822	-0,164	-0,150
-489,737	110,672	0,040	-0,034
-488,722	141,649	-0,034	-0,033
-487,708	-200,000	-0,023	0,178
-486,693	-200,000	-0,004	0,160
-485,678	234,782	-0,064	0,076
-484,664	347,251	-0,045	-0,063
-483,649	135,955	-0,064	-0,060
-482,635	800,000	0,046	-0,143
-481,620	114,652	0,065	-0,057
-480,605	244,853	-0,021	0,025
-479,591	-200,000	-0,040	0,129
-478,576	-200,000	-0,023	0,089
-477,562	-157,020	0,118	-0,005
-476,547	452,207	-0,065	-0,104
-475,532	-200,000	0,036	0,139
-474,518	67,036	0,103	0,075
-473,503	800,000	-0,018	0,037
-472,489	-200,000	-0,032	0,112
-471,474	90,758	-0,035	0,028
-470,459	-200,000	-0,035	-0,127
-469,445	695,464	-0,031	-0,060
-468,430	-82,957	-0,136	0,031
-467,416	800,000	-0,034	-0,082
-466,401	187,918	0,065	-0,070
-465,386	44,952	-0,045	0,030
-464,372	654,184	0,048	-0,090
-463,357	-200,000	-0,010	0,038
-462,343	-99,218	-0,137	-0,025
-461,328	-107,780	0,064	-0,010
-460,313	12,044	0,132	-0,073
-459,299	88,139	0,053	-0,042
-458,284	800,000	0,048	0,129
-457,270	-77,439	0,091	-0,022
-456,255	273,616	-0,058	-0,073
-455,241	560,426	-0,050	-0,087
-454,226	43,110	-0,149	-0,097
-453,211	298,966	0,055	0,073
-452,197	800,000	-0,009	0,022
-451,182	119,491	0,047	-0,041
-450,168	-200,000	-0,003	0,051
-449,153	-134,066	-0,063	-0,006
-448,138	421,017	-0,048	-0,073
-447,124	219,842	0,060	0,069
-446,109	99,473	0,106	0,088
-445,095	-47,715	0,099	0,034
-444,080	-102,122	0,078	-0,013
-443,065	386,685	-0,041	0,060
-442,051	-200,000	0,026	-0,092
-441,036	-200,000	-0,001	-0,040
-440,022	-200,000	-0,022	0,117
-439,007	347,452	-0,080	0,113
-437,992	93,762	-0,030	0,024
-436,978	18,108	-0,042	-0,024
-435,963	41,814	0,133	0,086
-434,949	534,236	0,052	0,089
-433,934	-110,074	-0,143	0,021
-432,919	-121,137	-0,094	0,011
-431,905	-121,912	0,113	-0,013
-430,890	-33,413	-0,014	-0,006
-429,876	-107,216	0,150	0,023
-428,861	-200,000	0,010	-0,134
-427,846	557,833	-0,083	-0,144
-426,832	-52,569	0,059	-0,019
-425,817	69,018	-0,049	-0,036
-424,803	-200,000	-0,009	-0,085
-423,788	146,174	0,049	0,047
-422,773	336,410	0,077	0,107
-421,759	462,944	0,051	-0,081
-420,744	12,453	0,110	0,061
-419,730	411,649	-0,125	0,191
-418,715	231,273	-0,049	-0,057
-417,701	-200,000	-0,000	-0,014
-416,686	344,988	-0,038	0,053
-415,671	-30,118	0,123	0,050
-414,657	482,990	0,022	-0,037
-413,642	-200,000	-0,006	-0,077
-412,628	528,912	-0,032	0,054
-411,613	-63,538	-0,075	0,022
-410,598	-200,000	0,002	-0,010
-409,584	-60,777	0,048	-0,014
-408,569	518,574	0,033	0,056
-407,555	-134,209	0,115	-0,010
-406,540	-110,873	-0,061	0,009
-405,525	554,595	0,098	0,169
-404,511	516,488	-0,029	0,048
-403,496	714,133	-0,030	-0,058
-402,482	-175,474	0,090	0,002
-401,467	-31,404	0,065	0,026
-400,452	800,000	0,061	0,137
-399,438	800,000	-0,014	0,038
-398,423	-200,000	-0,005	-0,149
-397,409	-200,000	0,004	-0,178
-396,394	-47,020	-0,093	-0,032
-395,379	209,959	-0,081	0,091
-394,365	-200,000	-0,023	0,077
-393,350	-200,000	0,001	0,024
-392,336	-200,000	-0,011	0,139
-391,321	430,315	-0,028	0,043
-390,306	98,506	0,099	-0,082
-389,292	72,762	-0,037	-0,028
-388,277	156,711	0,111	0,110
-387,263	28,138	0,187	0,113
-386,248	168,935	0,116	0,118
-385,233	-200,000	-0,013	-0,117
-384,219	345,253	-0,082	-0,116
-383,204	-200,000	-0,001	-0,013
-382,190	223,457	-0,010	0,012
-381,175	-200,000	0,040	-0,158
-380,160	-50,127	0,141	0,048
-379,146	632,562	0,015	-0,027
-378,131	-200,000	0,012	0,120
-377,117	50,856	-0,086	0,058
-376,102	215,331	-0,139	-0,158
-375,088	-200,000	-0,012	-0,170
-374,073	342,162	-0,040	0,057
-373,058	266,002	0,106	-0,132
-372,044	581,276	-0,023	0,041
-371,029	-200,000	0,030	-0,105
-370,015	800,000	0,035	0,080
-369,000	274,723	-0,065	-0,083
-367,985	797,783	-0,061	-0,120
-366,971	-164,960	0,063	0,002
-365,956	117,741	-0,155	-0,137
-364,942	127,213	0,099	0,090
-363,927	119,765	0,027	-0,024
-362,912	-122,686	-0,030	-0,003
-361,898	-165,493	0,064	-0,002
-360,883	-167,693	-0,056	0,002
-359,869	11,870	-0,161	0,088
-358,854	800,000	-0,046	-0,121
-357,839	208,030	0,084	0,094
-356,825	-200,000	-0,004	0,132
-355,810	97,605	0,044	-0,036
-354,796	326,427	0,082	-0,112
-353,781	-200,000	0,021	-0,096
-352,766	-101,935	-0,060	-0,010
-351,752	-3,469	0,072	-0,035
-350,737	-39,581	0,106	0,040
-349,723	-200,000	0,007	0,052
-348,708	-200,000	-0,014	0,137
-347,693	-186,013	0,114	0,001
-346,679	157,515	-0,114	-0,112
-345,664	616,913	0,017	0,031
-344,650	397,056	-0,046	0,069
-343,635	168,425	-0,095	0,096
-342,620	201,017	0,147	0,161
-341,606	27,260	0,096	0,057
-340,591	232,397	0,055	-0,064
-339,577	100,262	-0,126	-0,104
-338,562	800,000	0,028	-0,081
-337,548	56,383	-0,088	0,061
-336,533	7,050	0,067	0,035
-335,518	-49,961	0,131	0,044
-334,504	-152,984	0,132	-0,007
-333,489	5,773	-0,071	0,037
-332,475	99,370	0,120	-0,099
-331,460	-171,557	0,111	0,003
-330,445	-200,000	0,025	-0,125
-329,431	800,000	0,019	-0,050
-328,416	645,477	-0,009	-0,016
-327,402	-97,208	0,085	-0,016
-326,387	-200,000	0,019	-0,086
-325,372	-200,000	-0,022	-0,171
-324,358	-200,000	-0,007	-0,068
-323,343	146,463	-0,043	0,041
-322,329	654,883	-0,025	0,046
-321,314	273,154	-0,043	0,055
-320,299	-135,108	0,247	-0,021
-319,285	-118,974	0,022	-0,003
-318,270	576,100	0,055	0,097
-317,256	233,834	-0,086	-0,101
-316,241	-200,000	-0,001	-0,030
-315,226	-138,251	0,048	0,004
-314,212	304,997	-0,068	0,091
-313,197	-200,000	0,005	0,102
-312,183	-95,140	0,053	0,010
-311,168	276,229	-0,027	-0,035
-310,153	588,947	-0,009	-0,015
-309,139	425,764	-0,054	-0,084
-308,124	-62,496	0,113	-0,033
-307,110	135,295	-0,016	0,014
-306,095	-200,000	0,013	0,100
-305,080	800,000	-0,052	0,126
-304,066	127,478	0,086	-0,078
-303,051	-200,000	-0,016	-0,153
-302,037	-143,362	0,123	-0,008
-301,022	187,990	0,058	0,061
-300,008	-105,175	0,071	0,011
-298,993	-200,000	-0,033	0,113
-297,978	8,222	-0,163	0,087
-296,964	800,000	-0,022	0,057
-295,949	-63,330	-0,065	0,019
-294,935	-144,980	0,076	-0,005
-293,920	-101,017	0,062	0,011
-292,905	-39,980	0,133	-0,049
-291,891	-81,478	0,085	0,020
-290,876	515,905	-0,094	0,158
-289,862	39,552	-0,095	-0,060
-288,847	800,000	-0,025	-0,058
-287,832	34,664	-0,057	-0,035
-286,818	-200,000	-0,006	-0,084
-285,803	-200,000	-0,012	0,039
-284,789	-150,193	-0,070	-0,004
-283,774	83,949	0,081	0,063
-282,759	94,486	0,067	-0,054
-281,745	461,710	-0,007	-0,012
-280,730	446,111	0,010	0,015
-279,716	136,502	-0,041	0,038
-278,701	-200,000	-0,024	0,095
-277,686	-200,000	0,011	-0,039
-276,672	-61,583	0,060	0,018
-275,657	58,029	-0,047	0,033
-274,643	100,616	0,039	-0,032
-273,628	-200,000	-0,006	0,048
-272,613	-200,000	-0,001	0,069
-271,599	657,147	0,008	0,014
-270,584	-200,000	-0,015	0,082
-269,570	800,000	0,044	-0,130
-268,555	131,833	-0,030	-0,027
-267,540	185,347	0,049	0,052
-266,526	-112,993	-0,179	0,025
-265,511	-127,698	0,193	-0,020
-264,497	-200,000	0,019	-0,066
-263,482	-118,352	0,081	-0,010
-262,467	-131,334	-0,097	-0,009
-261,453	560,386	0,010	0,017
-260,438	-43,293	0,017	-0,006
-259,424	116,606	-0,072	-0,063
-258,409	-129,596	0,063	0,006
-257,395	-70,916	-0,121	0,032
-256,380	-20,073	0,068	0,030
-255,365	800,000	-0,041	-0,124
-254,351	208,767	-0,085	0,095
-253,336	-68,878	-0,118	0,032
-252,322	-200,000	0,004	-0,035
-251,307	-72,274	-0,060	0,016
-250,292	-86,284	0,118	-0,026
-249,278	564,161	-0,029	-0,050
-248,263	22,470	0,123	0,071
-247,249	-141,918	-0,157	-0,011
-246,234	-3,814	-0,115	-0,057
-245,219	-12,355	-0,112	0,052
-244,205	-200,000	-0,010	-0,048
-243,190	-4,894	-0,059	-0,029
-242,176	117,269	-0,055	0,048
-241,161	-200,000	0,002	0,169
-240,146	83,988	0,069	0,054
-239,132	-26,254	-0,111	-0,046
-238,117	75,633	0,080	-0,060
-237,103	-200,000	-0,007	0,043
-236,088	-24,888	-0,069	0,029
-235,073	457,497	0,032	-0,050
-234,059	-78,413	0,123	0,030
-233,044	359,058	-0,085	0,122
-232,030	-200,000	-0,023	0,072
-231,015	705,127	-0,055	-0,103
-230,000	-135,682	0,027	0,002
-228,986	800,000	-0,032	0,070
-227,971	4,235	-0,086	-0,045
-226,957	-200,000	-0,002	0,022
-225,942	96,225	0,127	0,103
-224,927	473,483	0,056	-0,090
-223,913	183,465	-0,077	-0,081
-222,898	-150,276	-0,089	0,005
-221,884	372,485	-0,018	-0,026
-220,869	-200,000	0,018	0,058
-219,855	-200,000	-0,002	0,083
-218,840	-103,191	0,092	0,015
-217,825	-200,000	0,009	0,169
-216,811	59,566	-0,083	-0,058
-215,796	196,714	0,038	-0,041
-214,782	800,000	0,020	-0,047
-213,767	78,758	-0,035	-0,026
-212,752	601,597	0,071	0,126
-211,738	-66,367	0,042	-0,012
-210,723	-83,606	-0,084	-0,019
-209,709	-41,235	0,089	-0,033
-208,694	-200,000	-0,003	0,082
-207,679	67,383	0,078	-0,056
-206,665	-200,000	0,000	0,017
-205,650	-98,876	-0,047	-0,008
-204,636	-13,407	0,088	0,040
-203,621	53,943	0,042	0,029
-202,606	800,000	0,026	-0,064
-201,592	-200,000	-0,005	0,078
-200,577	800,000	-0,035	0,102
-199,563	698,175	0,053	0,099
-198,548	-200,000	-0,007	0,047
-197,533	151,354	-0,066	-0,064
-196,519	1,827	-0,018	0,009
-195,504	59,753	0,071	-0,050
-194,490	31,365	-0,130	-0,079
-193,475	-200,000	-0,014	-0,085
-192,460	-200,000	-0,024	0,111
-191,446	-200,000	0,009	-0,097
-190,431	-54,723	0,108	-0,034
-189,417	-55,293	-0,026	0,008
-188,402	-66,122	0,039	-0,011
-187,387	65,530	-0,113	0,081
-186,373	-200,000	-0,006	0,078
-185,358	134,139	-0,093	0,086
-184,344	-20,703	0,093	-0,040
-183,329	54,270	0,062	-0,042
-182,315	-200,000	-0,009	0,066
-181,300	64,458	-0,109	-0,078
-180,285	-109,954	-0,145	0,021
-179,271	-44,581	-0,040	-0,014
-178,256	-49,435	0,076	-0,026
-177,242	-200,000	-0,016	0,092
-176,227	800,000	0,062	0,134
-175,212	-200,000	-0,006	-0,061
-174,198	679,351	-0,086	0,159
-173,183	-131,518	-0,152	0,014
-172,169	-200,000	-0,046	-0,163
-171,154	-50,225	-0,027	0,009
-170,139	42,161	0,085	0,055
-169,125	800,000	0,036	0,075
-168,110	2,478	0,113	-0,058
-167,096	653,224	0,061	-0,111
-166,081	800,000	-0,031	-0,081
-165,066	77,739	0,127	0,096
-164,052	-64,562	0,059	0,017
-163,037	18,297	0,097	0,055
-162,023	800,000	0,040	0,087
-161,008	188,554	0,099	0,105
-159,993	473,650	0,039	-0,062
-158,979	498,647	0,092	-0,150
-157,964	800,000	0,037	-0,076
-156,950	363,469	0,040	-0,058
-155,935	253,357	-0,022	0,027
-154,920	-98,503	-0,032	0,006
-153,906	665,970	0,040	0,074
-152,891	21,919	-0,075	0,043
-151,877	117,955	0,035	-0,031
-150,862	-64,793	-0,030	-0,009
-149,847	558,878	0,027	0,047
-148,833	551,871	0,066	0,113
-147,818	-200,000	0,018	0,126
-146,804	115,825	-0,031	-0,027
-145,789	800,000	0,011	-0,029
-144,775	-185,902	-0,114	0,001
-143,760	-55,134	0,034	-0,011
-142,745	800,000	0,023	-0,052
-141,731	104,492	0,109	0,091
-140,716	-27,755	0,125	0,051
-139,702	-98,551	0,179	0,032
-138,687	-200,000	-0,011	0,037
-137,672	542,709	-0,075	0,126
-136,658	161,742	-0,070	-0,070
-135,643	148,815	0,081	0,077
-134,629	800,000	-0,044	-0,091
-133,614	-116,905	-0,028	-0,004
-132,599	537,178	0,039	0,065
-131,585	-200,000	-0,002	0,129
-130,570	71,664	-0,041	0,030
-129,556	-140,129	-0,087	0,006
-128,541	-38,501	-0,143	-0,053
-127,526	128,044	0,109	0,098
-126,512	-38,756	0,148	0,055
-125,497	-100,126	0,121	0,021
-124,483	800,000	0,017	0,037
-123,468	-36,377	0,087	0,033
-122,453	98,454	0,017	0,014
-121,439	161,445	-0,052	-0,052
-120,424	-70,954	-0,141	-0,037
-119,410	15,452	0,083	0,046
-118,395	-45,823	0,126	-0,044
-117,380	-82,201	0,040	-0,009
-116,366	690,516	0,029	0,054
-115,351	87,541	-0,043	-0,034
-114,337	-94,353	0,070	0,013
-113,322	800,000	-0,008	0,016
-112,307	92,513	0,112	-0,090
-111,293	11,938	0,107	0,058
-110,278	40,590	-0,154	-0,098
-109,264	297,577	-0,030	-0,039
-108,249	-200,000	-0,014	-0,079
-107,234	107,668	-0,023	0,019
-106,220	-200,000	0,000	0,028
-105,205	78,406	0,108	-0,081
-104,191	-200,000	-0,008	0,093
-103,176	39,300	0,142	0,090
-102,162	-53,847	-0,107	-0,034
-101,147	800,000	-0,036	0,091
-100,132	-179,230	-0,107	-0,002
-99,118	-107,361	-0,106	-0,016
-98,103	169,390	-0,057	0,057
-97,089	-5,621	0,151	0,073
-96,074	-103,531	0,165	0,027
-95,059	-200,000	-0,012	0,052
-94,045	-67,721	0,119	-0,033
-93,030	73,158	-0,086	-0,063
-92,016	744,190	0,018	-0,035
-91,001	-34,578	-0,111	0,043
-89,986	-200,000	0,007	0,031
-88,972	-200,000	0,165	0,000
-87,957	800,000	-0,023	-0,071
-86,943	1,853	0,127	0,065
-85,928	160,466	-0,069	0,069
-84,913	800,000	0,009	-0,017
-83,899	-200,000	-0,018	-0,111
-82,884	-6,368	0,152	-0,073
-81,870	210,416	-0,009	0,010
-80,855	800,000	0,023	0,060
-79,840	-200,000	-0,021	0,085
-78,826	676,489	0,015	-0,028
-77,811	-24,518	-0,038	-0,016
-76,797	-88,245	0,191	-0,040
-75,782	-46,990	0,139	-0,048
-74,767	800,000	-0,034	0,074
-73,753	-53,833	-0,046	-0,015
-72,738	181,873	-0,054	-0,056
-71,724	-200,000	0,007	0,080
-70,709	-50,095	-0,065	0,022
-69,694	-119,299	0,029	-0,003
-68,680	-200,000	0,002	0,087
-67,665	-170,969	-0,115	-0,003
-66,651	646,423	0,064	-0,116
-65,636	404,580	-0,064	-0,095
-64,622	-200,000	0,001	0,106
-63,607	214,702	-0,114	-0,127
-62,592	800,000	-0,055	0,141
-61,578	800,000	-0,016	0,033
-60,563	-200,000	-0,015	0,073
-59,549	214,871	-0,036	0,041
-58,534	32,198	-1,994	-1,212
-57,519	733,282	-1,143	-2,169
-56,505	-200,000	-0,373	-4,307
-55,490	483,286	0,915	1,473
-54,476	800,000	5,069	11,171
-53,461	-200,000	21,125	342,274
-52,446	800,000	760,236	2362,836
-51,432	560,192	1663,217	2847,079
-50,417	73,626	1662,223	1227,718
-49,403	18,060	1535,399	861,633
-48,388	11,968	1459,220	789,401
-47,373	19,555	1450,083	820,847
-46,359	15,485	1439,526	795,480
-45,344	10,262	1435,207	768,181
-44,330	10,210	1433,196	766,828
-43,315	10,163	1431,597	765,715
-42,300	10,163	1429,853	764,752
-41,286	10,210	1428,486	764,217
-40,271	10,180	1427,398	763,461
-39,257	10,165	1426,028	762,626
-38,242	10,165	1425,065	762,081
-37,227	10,166	1423,982	761,475
-36,213	10,194	1422,778	760,936
-35,198	10,235	1421,344	760,332
-34,184	10,257	1420,560	759,985
-33,169	10,225	1419,210	759,083
-32,154	10,274	1418,251	758,771
-31,140	10,233	1416,727	757,733
-30,125	10,260	1415,720	757,288
-29,111	10,238	1414,734	756,629
-28,096	10,173	1413,515	755,642
-27,082	10,145	1412,271	754,815
-26,067	10,140	1411,325	754,255
-25,052	10,174	1410,370	753,877
-24,038	10,200	1409,170	753,325
-23,023	10,161	1408,356	752,680
-22,009	10,137	1407,447	752,052
-20,994	10,188	1406,365	751,679
-19,979	10,162	1405,320	750,973
-18,965	10,111	1404,562	750,298
-17,950	10,126	1403,586	749,817
-16,936	10,083	1402,968	749,259
-15,921	10,063	1401,789	748,506
-14,906	10,107	1400,662	748,080
-13,892	10,102	1399,678	747,499
-12,877	10,107	1398,882	747,068
-11,863	10,078	1398,255	746,568
-10,848	10,027	1397,312	745,800
-9,833	10,003	1396,449	745,197
-8,819	9,951	1395,516	744,428
-7,804	10,002	1394,661	744,178
-6,790	9,951	1393,818	743,461
-5,775	10,008	1392,629	743,064
-4,760	10,003	1391,508	742,412
-3,746	10,003	1390,389	741,784
-2,731	10,030	1389,598	741,461
-1,717	10,009	1388,899	740,959
-0,702	9,999	1387,059	739,904
0,313	14,060	1300,011	712,047
1,327	30,372	690,598	415,255
2,342	46,621	119,704	78,245
3,356	2,426	16,494	8,393
4,371	8,735	3,691	1,956
5,386	0,429	1,069	0,537
6,400	800,000	0,165	0,441
7,415	41,941	-0,175	-0,112
8,429	148,805	-0,291	-0,278
9,444	80,710	-0,340	-0,258
10,459	135,488	-0,192	-0,176
11,473	120,351	-0,213	-0,186
12,488	46,172	-0,267	-0,174
13,502	-43,460	-0,403	-0,143
14,517	-6,306	-0,461	-0,221
15,531	77,024	-0,397	-0,297
16,546	17,593	-0,327	-0,183
17,561	122,327	-0,313	-0,275
18,575	-106,413	-0,193	-0,030
19,590	-10,286	-0,272	-0,127
20,604	-56,494	-0,275	-0,085
21,619	129,899	-0,390	-0,351
22,634	61,225	-0,370	-0,258
23,648	76,680	-0,448	-0,334
24,663	103,305	-0,402	-0,332
25,677	107,479	-0,323	-0,270
26,692	62,316	-0,327	-0,229
27,707	154,286	-0,304	-0,294
28,721	29,994	-0,427	-0,256
29,736	127,444	-0,392	-0,351
30,750	250,342	-0,288	-0,344
31,765	181,594	-0,295	-0,305
32,780	138,263	-0,321	-0,296
33,794	216,456	-0,244	-0,274
34,809	-43,771	-0,347	-0,122
35,823	-62,052	-0,456	-0,133
36,838	132,259	-0,325	-0,295
37,853	91,456	-0,478	-0,377
38,867	235,147	-0,334	-0,389
39,882	57,881	-0,338	-0,232
40,896	102,756	-0,282	-0,232
41,911	-4,372	-0,326	-0,158
42,926	-36,192	-0,408	-0,154
43,940	138,839	-0,292	-0,269
44,955	117,179	-0,409	-0,353
45,969	60,802	-0,352	-0,245
46,984	55,639	-0,242	-0,165
47,999	192,539	-0,248	-0,264
49,013	-37,144	-0,212	-0,079
50,028	122,849	-0,277	-0,243
51,042	38,389	-0,342	-0,214
52,057	101,389	-0,372	-0,304
53,071	47,830	-0,291	-0,190
54,086	56,127	-0,337	-0,229
55,101	24,107	-0,366	-0,211
56,115	-131,798	-0,310	-0,028
57,130	96,223	-0,332	-0,266
58,144	-4,217	-0,315	-0,152
59,159	142,685	-0,322	-0,300
60,174	14,632	-0,412	-0,225
61,188	68,832	-0,295	-0,212
62,203	294,455	-0,223	-0,286
63,217	-0,065	-0,358	-0,178
64,232	162,308	-0,323	-0,318
65,247	156,165	-0,363	-0,351
66,261	32,699	-0,366	-0,222
67,276	161,226	-0,274	-0,269
68,290	-37,394	-0,327	-0,122
69,305	1,530	-0,327	-0,165
70,320	132,884	-0,306	-0,277
71,334	274,461	-0,253	-0,315
72,349	-106,037	-0,319	-0,050
73,363	53,304	-0,402	-0,270
74,378	54,261	-0,380	-0,256
75,393	107,604	-0,348	-0,290
76,407	269,461	-0,261	-0,321
77,422	107,482	-0,333	-0,277
78,436	-3,332	-0,218	-0,106
79,451	-63,186	-0,364	-0,104
80,466	161,977	-0,339	-0,333
81,480	29,302	-0,363	-0,215
82,495	27,471	-0,489	-0,287
83,509	198,881	-0,151	-0,162
84,524	-23,508	-0,252	-0,105
85,539	-46,143	-0,312	-0,107
86,553	-45,738	-0,393	-0,135
87,568	80,002	-0,319	-0,240
88,582	-29,610	-0,346	-0,138
89,597	140,175	-0,309	-0,285
90,611	242,432	-0,251	-0,295
91,626	-77,748	-0,204	-0,049
92,641	122,863	-0,242	-0,212
93,655	36,380	-0,262	-0,161
94,670	28,195	-0,414	-0,244
95,684	463,382	-0,194	-0,304
96,699	30,993	-0,265	-0,159
97,714	-55,164	-0,275	-0,086
98,728	538,900	-0,158	-0,264
99,743	51,950	-0,254	-0,169
100,757	-61,392	-0,337	-0,099
101,772	-99,040	-0,322	-0,057
102,787	-66,470	-0,371	-0,102
103,801	154,842	-0,229	-0,220
104,816	57,055	-0,232	-0,158
105,830	194,913	-0,220	-0,233
106,845	255,021	-0,213	-0,255
107,860	-13,327	-0,221	-0,100
108,874	64,373	-0,174	-0,123
109,889	-17,760	-0,350	-0,153
110,903	-41,147	-0,284	-0,102
111,918	9,908	-0,319	-0,168
112,933	56,506	-0,251	-0,170
113,947	157,595	-0,159	-0,154
114,962	-125,074	-0,265	-0,028
115,976	-14,440	-0,302	-0,135
116,991	164,974	-0,285	-0,281
118,006	85,471	-0,224	-0,172
119,020	-32,483	-0,381	-0,148
120,035	-200,000	-0,028	-0,133
121,049	54,561	-0,254	-0,170
122,064	38,550	-0,277	-0,172
123,079	800,000	-0,109	-0,312
124,093	125,444	-0,276	-0,243
125,108	-3,132	-0,192	-0,093
126,122	36,588	-0,405	-0,249
127,137	125,085	-0,221	-0,194
128,151	-2,986	-0,259	-0,126
129,166	83,320	-0,129	-0,098
130,181	-34,358	-0,295	-0,112
131,195	-57,506	-0,409	-0,125
132,210	75,760	-0,235	-0,173
133,224	800,000	-0,064	-0,133
134,239	265,306	-0,158	-0,193
135,254	-51,135	-0,264	-0,086
136,268	48,690	-0,219	-0,143
137,283	164,825	-0,209	-0,205
138,297	561,914	-0,156	-0,263
139,312	628,544	-0,194	-0,343
140,327	97,865	-0,285	-0,228
141,341	287,356	-0,192	-0,243
142,356	40,705	-0,279	-0,175
143,370	41,130	-0,268	-0,168
144,385	159,584	-0,211	-0,205
145,400	125,641	-0,141	-0,124
146,414	240,494	-0,216	-0,252
147,429	11,022	-0,313	-0,166
148,443	48,918	-0,219	-0,143
149,458	8,492	-0,164	-0,086
150,473	23,200	-0,150	-0,086
151,487	175,894	-0,193	-0,195
152,502	132,356	-0,278	-0,249
153,516	-200,000	-0,035	-0,137
154,531	-8,465	-0,213	-0,099
155,546	99,347	-0,199	-0,160
156,560	-72,960	-0,330	-0,084
157,575	246,356	-0,066	-0,078
158,589	-67,856	-0,160	-0,043
159,604	65,079	-0,232	-0,163
160,619	33,094	-0,399	-0,240
161,633	178,730	-0,226	-0,230
162,648	800,000	-0,117	-0,284
163,662	37,669	-0,239	-0,147
164,677	118,812	-0,232	-0,199
165,692	120,933	-0,213	-0,184
166,706	129,285	-0,288	-0,255
167,721	63,660	-0,305	-0,213
168,735	-39,338	-0,223	-0,081
169,750	206,475	-0,255	-0,276
170,764	263,264	-0,139	-0,168
171,779	122,009	-0,240	-0,208
172,794	-94,633	-0,195	-0,037
173,808	-77,847	-0,261	-0,062
174,823	-196,493	-0,229	-0,001
175,837	-55,037	-0,260	-0,081
176,852	308,147	-0,150	-0,195
177,867	-140,932	-0,208	-0,015
178,881	4,151	-0,229	-0,116
179,896	-4,707	-0,189	-0,090
180,910	-189,384	-0,282	-0,002
181,925	-63,581	-0,291	-0,082
182,940	616,305	-0,075	-0,132
183,954	68,960	-0,186	-0,132
184,969	209,397	-0,201	-0,219
185,983	-103,895	-0,165	0,026
186,998	133,630	-0,088	-0,079
188,013	-105,281	-0,171	0,027
189,027	156,134	-0,289	-0,277
190,042	203,733	-0,201	-0,216
191,056	-25,695	-0,216	-0,088
192,071	800,000	-0,090	-0,274
193,086	-167,271	-0,167	0,005
194,100	216,734	-0,172	-0,190
195,115	-117,593	-0,185	-0,023
196,129	195,270	-0,160	-0,169
197,144	271,935	-0,226	-0,277
198,159	-48,247	-0,237	-0,079
199,173	70,659	-0,164	-0,118
200,188	462,947	-0,136	-0,211
201,202	177,093	-0,067	-0,067
202,217	202,002	-0,222	-0,238
203,232	62,512	-0,241	-0,167
204,246	174,642	-0,178	-0,179
205,261	79,680	-0,187	-0,139
206,275	-0,894	-0,140	-0,068
207,290	-24,193	-0,260	-0,107
208,304	302,559	-0,140	-0,180
209,319	-94,054	-0,211	-0,040
210,334	3,853	-0,359	-0,181
211,348	-81,845	-0,198	-0,045
212,363	180,814	-0,142	-0,145
213,377	140,259	-0,207	-0,189
214,392	-200,000	-0,012	-0,124
215,407	-11,710	-0,186	-0,084
216,421	138,073	-0,148	-0,135
217,436	473,737	-0,153	-0,239
218,450	130,219	-0,222	-0,196
219,465	250,504	-0,221	-0,260
220,480	166,199	-0,228	-0,223
221,494	-7,089	-0,253	-0,118
222,509	71,228	-0,164	-0,118
223,523	-30,981	-0,239	-0,093
224,538	800,000	-0,131	-0,289
225,553	-45,934	-0,201	-0,068
226,567	-200,000	-0,051	-0,227
227,582	-24,592	-0,206	-0,084
228,596	-8,442	-0,185	-0,086
229,611	350,405	-0,169	-0,232
230,626	515,639	-0,124	-0,201
231,640	-10,695	-0,176	-0,080
232,655	181,090	-0,148	-0,150
233,669	252,868	-0,240	-0,284
234,684	66,592	-0,210	-0,147
235,699	-38,837	-0,157	-0,057
236,713	-147,023	-0,189	0,011
237,728	177,128	-0,029	-0,029
238,742	79,612	-0,227	-0,168
239,757	131,517	-0,193	-0,172
240,772	384,406	-0,179	-0,255
241,786	-19,451	-0,279	-0,119
242,801	96,216	-0,195	-0,154
243,815	88,515	-0,113	-0,087
244,830	128,066	-0,197	-0,173
245,844	170,359	-0,170	-0,168
246,859	800,000	-0,086	-0,215
247,874	16,929	-0,251	-0,137
248,888	-85,841	-0,200	-0,042
249,903	800,000	-0,103	-0,210
250,917	-163,474	-0,148	-0,005
251,932	800,000	-0,062	-0,138
252,947	100,930	-0,133	-0,107
253,961	-40,230	-0,221	-0,079
254,976	117,385	-0,146	-0,124
255,990	169,088	-0,246	-0,242
257,005	285,155	-0,172	-0,214
258,020	800,000	-0,107	-0,220
259,034	129,044	-0,199	-0,175
260,049	-102,912	-0,261	-0,042
261,063	84,799	-0,206	-0,156
262,078	214,666	-0,158	-0,173
263,093	-24,035	-0,325	-0,133
264,107	377,659	-0,107	-0,151
265,122	58,669	-0,119	-0,080
266,136	262,581	-0,134	-0,161
267,151	414,976	-0,074	-0,109
268,166	97,179	-0,108	-0,086
269,180	-7,552	-0,204	-0,095
270,195	-200,000	-0,019	-0,121
271,209	97,048	-0,132	-0,104
272,224	73,487	-0,148	-0,107
273,239	86,879	-0,126	-0,095
274,253	2,576	-0,135	-0,067
275,268	12,957	-0,243	-0,129
276,282	-156,019	-0,271	-0,012
277,297	-29,418	-0,101	-0,039
278,312	352,796	-0,132	-0,181
279,326	-182,407	-0,129	0,002
280,341	800,000	-0,090	-0,183
281,355	33,887	-0,150	-0,089
282,370	39,767	-0,222	-0,137
283,384	82,662	-0,206	0,154
284,399	11,995	-0,197	-0,104
285,414	-74,675	-0,316	-0,078
286,428	-200,000	-0,024	-0,161
287,443	28,707	-0,150	-0,087
288,457	-200,000	-0,028	-0,118
289,472	-12,604	-0,192	-0,086
290,487	191,842	-0,134	-0,139
291,501	-1,676	-0,259	-0,125
292,516	-45,536	-0,193	-0,065
293,530	141,479	-0,133	-0,121
294,545	295,552	-0,087	-0,110
295,560	544,710	-0,068	-0,112
296,574	108,681	-0,071	-0,058
297,589	-84,412	-0,062	-0,013
298,603	-174,316	-0,269	0,005
299,618	157,585	-0,141	-0,134
300,633	136,525	-0,159	-0,142
301,647	-17,515	-0,136	-0,059
302,662	183,000	-0,132	-0,134
303,676	-2,107	-0,248	-0,119
304,691	97,263	-0,125	-0,098
305,706	50,686	-0,186	-0,121
306,720	-22,696	-0,065	0,027
307,735	-200,000	0,015	-0,148
308,749	-125,522	-0,128	0,013
309,764	800,000	-0,046	-0,136
310,779	-200,000	0,021	-0,159
311,793	-48,768	-0,164	-0,054
312,808	129,166	-0,142	-0,124
313,822	97,151	-0,178	-0,140
314,837	184,114	-0,206	-0,210
315,852	-95,904	-0,139	-0,025
316,866	527,984	-0,105	-0,171
317,881	-83,586	-0,141	-0,031
318,895	-160,051	0,055	-0,002
319,910	-122,592	-0,161	-0,018
320,925	509,327	-0,114	-0,182
321,939	120,074	-0,147	-0,125
322,954	-135,471	-0,099	-0,008
323,968	239,115	-0,119	-0,136
324,983	-27,585	-0,210	-0,083
325,997	-200,000	-0,022	-0,239
327,012	373,140	-0,108	-0,151
328,027	-152,521	-0,148	-0,007
329,041	-200,000	-0,042	-0,137
330,056	137,018	-0,115	-0,103
331,070	12,922	-0,220	-0,116
332,085	-51,724	-0,061	0,019
333,100	800,000	-0,037	-0,094
334,114	112,201	-0,063	-0,053
335,129	-72,111	-0,138	0,035
336,143	17,023	-0,242	-0,131
337,158	-52,629	-0,118	-0,037
338,173	-107,449	-0,141	-0,021
339,187	-107,146	-0,185	-0,028
340,202	-146,853	-0,149	-0,009
341,216	-131,397	-0,154	-0,014
342,231	124,732	-0,154	-0,133
343,246	-200,000	-0,015	-0,056
344,260	-200,000	-0,122	0,000
345,275	-44,597	-0,146	0,049
346,289	-32,656	-0,105	0,040
347,304	-94,265	-0,194	-0,036
348,319	41,221	-0,199	-0,123
349,333	238,110	-0,153	-0,174
350,348	231,895	-0,205	-0,231
351,362	64,539	-0,111	-0,076
352,377	-12,543	-0,084	-0,037
353,392	-60,864	-0,095	0,027
354,406	294,345	-0,047	-0,059
355,421	208,095	1310,034	1401,600
356,435	160,106	1470,148	1402,060
