DTS Sentinel unit serial number:	SN410029Multiplexer serial number:	ORYXHardware model number:	OX2-SRSoftware version number:	ORYX F/W v4,00 Oryx Data Collector v3.7.2.0data status	okinstallation	B3 Nyhavnadifferential loss correction	single-endedforward channel	channel 1reverse channel	N/Adate	2023/12/03time	04:17:30forward acquisition time	300,00reverse acquisition time	0,00gamma	499,1914k internal	0,3201k external	0,3201temperature offset calibration	1,0000default loss term (dB/km)	0,3820temperature slope calibration	1,0000multiplexer offset coefficient	1,0000multiplexer slope coefficient	1,0000fibre end	0,00T internal ref (°C)	13,31T ext. ref 1 (°C)	-1,76T ext. ref 2 (°C)	-1,76length (m)	temperature (°C)	Stokes	anti-Stokes-744,400	433,382	-0,214	-0,338
-743,385	-200,000	0,089	0,337
-742,371	108,405	-0,217	-0,188
-741,356	800,000	0,107	0,316
-740,342	244,497	-0,175	-0,214
-739,327	-200,000	0,025	0,213
-738,312	86,379	-0,246	-0,197
-737,298	-200,000	0,076	0,251
-736,283	310,239	-0,225	-0,307
-735,269	-200,000	0,041	0,256
-734,254	479,715	-0,164	-0,272
-733,239	-64,689	-0,110	0,032
-732,225	-200,000	0,029	-0,182
-731,210	-101,202	0,113	-0,020
-730,196	99,153	0,059	-0,050
-729,181	-150,043	0,136	0,008
-728,167	800,000	-0,008	0,017
-727,152	-200,000	0,004	-0,093
-726,137	115,502	-0,100	-0,089
-725,123	268,336	-0,060	-0,076
-724,108	202,244	-0,111	-0,125
-723,094	-7,335	-0,212	-0,104
-722,079	800,000	0,067	-0,190
-721,064	800,000	-0,082	-0,219
-720,050	-200,000	-0,027	-0,142
-719,035	26,741	-0,070	0,042
-718,021	-200,000	-0,005	0,114
-717,006	-200,000	-0,008	-0,096
-715,991	-124,730	-0,112	-0,012
-714,977	43,588	-0,080	-0,053
-713,962	800,000	-0,069	0,166
-712,948	800,000	-0,033	-0,098
-711,933	800,000	-0,062	-0,129
-710,918	-49,196	-0,068	0,023
-709,904	-90,709	0,122	0,025
-708,889	224,884	-0,044	-0,051
-707,875	-124,958	-0,136	-0,015
-706,860	82,483	-0,067	-0,053
-705,845	73,981	0,038	-0,029
-704,831	321,185	-0,082	-0,114
-703,816	-1,437	-0,052	0,026
-702,802	-200,000	0,023	-0,123
-701,787	509,294	-0,030	-0,051
-700,772	-200,000	-0,000	0,024
-699,758	-200,000	0,016	0,142
-698,743	-200,000	0,005	0,095
-697,729	-74,399	-0,039	-0,010
-696,714	419,135	0,028	0,044
-695,699	800,000	-0,060	-0,135
-694,685	133,081	-0,031	0,030
-693,670	37,231	-0,029	-0,019
-692,656	-125,459	0,054	-0,006
-691,641	627,625	-0,088	-0,163
-690,627	390,735	0,042	0,064
-689,612	1,186	0,030	-0,016
-688,597	-200,000	0,001	-0,030
-687,583	47,700	-0,094	-0,063
-686,568	-200,000	-0,038	-0,173
-685,554	-104,907	0,141	0,023
-684,539	-59,799	-0,033	0,010
-683,524	23,094	-0,052	-0,031
-682,510	-200,000	0,014	-0,145
-681,495	-200,000	-0,013	-0,142
-680,481	216,459	-0,068	-0,079
-679,466	71,703	0,091	-0,069
-678,451	31,662	-0,149	0,093
-677,437	-200,000	0,015	-0,049
-676,422	-200,000	-0,002	-0,039
-675,408	-128,910	0,072	-0,007
-674,393	-68,989	-0,038	-0,010
-673,378	69,491	-0,054	-0,040
-672,364	800,000	0,021	-0,042
-671,349	-173,756	-0,073	0,002
-670,335	359,049	0,024	0,035
-669,320	-181,996	0,014	-0,000
-668,305	800,000	-0,066	0,148
-667,291	146,071	-0,022	-0,022
-666,276	-200,000	0,026	-0,147
-665,262	28,041	-0,188	-0,115
-664,247	-200,000	0,057	-0,207
-663,232	574,414	0,015	0,026
-662,218	245,208	0,047	0,057
-661,203	291,745	-0,057	0,075
-660,189	-95,148	0,088	0,017
-659,174	-200,000	0,031	-0,141
-658,159	-69,683	-0,116	0,032
-657,145	741,097	0,026	-0,051
-656,130	800,000	0,017	0,045
-655,116	-101,406	0,069	0,012
-654,101	800,000	-0,056	-0,141
-653,086	-145,879	-0,125	0,008
-652,072	-200,000	0,010	-0,055
-651,057	473,654	-0,038	-0,062
-650,043	-173,913	0,156	0,003
-649,028	-160,864	-0,053	0,002
-648,014	-14,531	0,117	0,054
-646,999	800,000	0,028	0,062
-645,984	-134,038	-0,061	0,005
-644,970	332,563	0,028	-0,039
-643,955	-79,482	0,060	0,015
-642,941	308,038	-0,020	-0,027
-641,926	800,000	0,015	0,041
-640,911	4,833	0,040	-0,021
-639,897	51,206	0,031	-0,021
-638,882	-200,000	-0,011	-0,146
-637,868	55,775	0,018	-0,012
-636,853	-146,935	0,124	0,008
-635,838	-200,000	-0,015	-0,104
-634,824	113,916	-0,093	-0,082
-633,809	130,452	-0,066	0,062
-632,795	-200,000	0,009	0,063
-631,780	557,548	-0,032	0,056
-630,765	87,593	-0,083	0,067
-629,751	800,000	0,061	-0,195
-628,736	0,904	-0,082	-0,043
-627,722	556,507	0,025	-0,043
-626,707	-37,852	-0,052	0,020
-625,692	527,800	0,135	-0,231
-624,678	-200,000	0,011	0,091
-623,663	800,000	-0,030	-0,082
-622,649	38,453	-0,066	-0,042
-621,634	-13,721	-0,055	0,026
-620,619	-65,948	0,202	0,058
-619,605	130,351	0,075	0,070
-618,590	-163,895	-0,032	-0,001
-617,576	113,484	-0,121	-0,106
-616,561	724,010	0,026	0,050
-615,546	800,000	-0,051	-0,128
-614,532	-93,853	-0,154	-0,030
-613,517	800,000	-0,018	0,056
-612,503	131,976	0,018	0,017
-611,488	800,000	-0,045	0,111
-610,474	-200,000	0,000	-0,036
-609,459	30,214	0,048	0,030
-608,444	82,627	-0,034	-0,027
-607,430	-110,085	-0,164	0,025
-606,415	-56,054	-0,108	0,034
-605,401	800,000	0,047	0,098
-604,386	255,110	0,137	0,170
-603,371	-32,560	0,152	-0,061
-602,357	-200,000	-0,003	0,087
-601,342	56,720	-0,096	-0,068
-600,328	-200,000	0,008	-0,031
-599,313	216,085	-0,067	-0,077
-598,298	256,468	0,043	-0,054
-597,284	-7,238	0,062	0,030
-596,269	143,031	0,047	0,045
-595,255	535,622	0,013	0,023
-594,240	-171,542	-0,135	0,003
-593,225	43,135	-0,094	0,062
-592,211	284,940	-0,079	-0,103
-591,196	-200,000	0,005	0,044
-590,182	258,847	0,065	-0,081
-589,167	-20,006	0,157	0,070
-588,152	631,840	0,038	0,069
-587,138	129,995	-0,051	0,047
-586,123	-77,935	0,091	0,023
-585,109	348,661	-0,052	-0,074
-584,094	800,000	-0,066	-0,166
-583,079	-144,405	0,131	0,009
-582,065	-57,291	0,103	0,033
-581,050	-200,000	-0,011	0,144
-580,036	800,000	-0,025	-0,066
-579,021	-116,499	-0,112	0,015
-578,006	-84,725	-0,090	-0,020
-576,992	-25,604	-0,035	-0,015
-575,977	800,000	0,036	0,092
-574,963	-176,740	-0,086	0,002
-573,948	87,121	0,212	-0,169
-572,934	-50,387	-0,111	0,038
-571,919	400,770	0,053	-0,081
-570,904	-153,460	0,056	-0,003
-569,890	800,000	-0,056	-0,126
-568,875	-200,000	-0,050	-0,188
-567,861	136,110	-0,061	0,058
-566,846	19,908	-0,042	-0,024
-565,831	123,337	0,127	0,115
-564,817	-200,000	0,022	-0,097
-563,802	-200,000	-0,024	-0,188
-562,788	147,250	0,067	-0,065
-561,773	800,000	0,026	-0,077
-560,758	-47,230	0,152	0,053
-559,744	445,507	0,074	0,118
-558,729	-189,130	0,081	0,001
-557,715	10,245	-0,141	0,077
-556,700	800,000	0,029	-0,088
-555,685	437,233	-0,018	0,028
-554,671	263,254	-0,052	0,065
-553,656	-64,470	0,079	0,023
-552,642	-200,000	0,016	0,077
-551,627	-200,000	0,026	0,155
-550,612	800,000	-0,050	0,105
-549,598	172,669	-0,074	-0,077
-548,583	-200,000	0,001	0,088
-547,569	21,667	-0,006	0,003
-546,554	-36,392	0,066	-0,025
-545,539	-200,000	0,008	-0,103
-544,525	800,000	-0,026	0,060
-543,510	-7,546	0,053	-0,026
-542,496	-200,000	-0,060	-0,205
-541,481	30,601	-0,123	0,076
-540,466	95,138	-0,164	-0,134
-539,452	72,010	-0,020	-0,015
-538,437	-200,000	0,002	-0,134
-537,423	-200,000	0,014	-0,052
-536,408	240,182	-0,122	-0,147
-535,393	800,000	-0,011	0,033
-534,379	574,362	-0,076	-0,134
-533,364	721,182	-0,043	-0,083
-532,350	-154,285	0,162	-0,008
-531,335	-125,684	-0,089	0,010
-530,321	-0,501	0,124	-0,063
-529,306	449,536	-0,026	-0,042
-528,291	800,000	0,011	-0,029
-527,277	-200,000	0,002	0,031
-526,262	-82,159	-0,072	-0,017
-525,248	-200,000	0,030	-0,148
-524,233	-111,578	0,068	0,010
-523,218	-200,000	-0,014	0,046
-522,204	346,981	0,044	0,063
-521,189	-138,264	-0,004	0,000
-520,175	-200,000	-0,008	-0,027
-519,160	322,385	-0,053	0,073
-518,145	800,000	-0,010	-0,020
-517,131	800,000	0,046	-0,137
-516,116	-154,327	0,181	-0,009
-515,102	-200,000	-0,002	0,009
-514,087	549,621	0,057	0,098
-513,072	161,196	-0,128	0,129
-512,058	49,241	-0,028	-0,019
-511,043	800,000	-0,023	-0,061
-510,029	13,446	-0,159	-0,089
-509,014	38,188	0,070	0,045
-507,999	-200,000	0,025	0,138
-506,985	59,158	0,033	0,023
-505,970	-63,419	-0,123	0,036
-504,956	132,141	0,048	-0,045
-503,941	-200,000	0,016	0,061
-502,926	96,706	0,086	-0,071
-501,912	11,030	-0,092	0,051
-500,897	-200,000	0,002	0,023
-499,883	-78,466	-0,065	0,016
-498,868	-109,368	-0,097	-0,015
-497,853	-172,881	0,068	-0,001
-496,839	115,277	-0,091	0,080
-495,824	-200,000	-0,038	0,130
-494,810	-200,000	0,012	-0,078
-493,795	-200,000	0,005	0,084
-492,781	5,686	-0,181	-0,096
-491,766	8,766	-0,091	-0,049
-490,751	800,000	-0,023	-0,050
-489,737	-81,116	0,129	-0,031
-488,722	-200,000	-0,002	0,077
-487,708	-142,522	0,162	0,011
-486,693	6,894	0,066	0,036
-485,678	-200,000	0,061	0,207
-484,664	-85,690	0,085	-0,019
-483,649	376,602	-0,106	-0,157
-482,635	151,121	0,054	-0,053
-481,620	39,960	0,053	0,034
-480,605	800,000	0,037	0,102
-479,591	-200,000	0,042	0,188
-478,576	800,000	-0,056	-0,128
-477,562	-200,000	-0,020	-0,069
-476,547	121,981	-0,029	-0,026
-475,532	-137,838	-0,047	0,004
-474,518	81,024	0,074	0,057
-473,503	800,000	0,038	0,081
-472,489	171,109	0,072	-0,075
-471,474	-99,596	0,099	-0,018
-470,459	25,582	0,033	0,019
-469,445	630,527	-0,047	-0,085
-468,430	800,000	-0,093	-0,190
-467,416	-110,719	0,165	0,024
-466,401	367,070	0,070	0,103
-465,386	-200,000	-0,058	0,196
-464,372	-16,878	0,165	-0,075
-463,357	800,000	0,003	0,008
-462,343	800,000	0,007	-0,020
-461,328	522,346	-0,061	-0,104
-460,313	-200,000	-0,010	0,114
-459,299	-186,130	-0,039	-0,000
-458,284	-69,353	0,058	0,016
-457,270	-200,000	0,004	-0,036
-456,255	146,895	0,076	-0,074
-455,241	51,589	-0,173	-0,118
-454,226	800,000	0,011	-0,035
-453,211	351,548	-0,028	-0,040
-452,197	172,555	-0,123	0,128
-451,182	402,319	0,052	-0,078
-450,168	-41,528	0,047	-0,017
-449,153	51,286	-0,093	0,063
-448,138	-200,000	0,014	-0,086
-447,124	86,063	-0,076	0,060
-446,109	-30,981	-0,092	-0,037
-445,095	322,811	0,083	0,115
-444,080	92,502	0,019	-0,015
-443,065	-200,000	-0,020	-0,091
-442,051	800,000	-0,027	-0,066
-441,036	-48,672	0,000	0,000
-440,022	800,000	0,056	-0,160
-439,007	800,000	0,016	0,046
-437,992	-200,000	0,001	0,055
-436,978	155,145	0,019	-0,019
-435,963	-44,908	0,037	-0,013
-434,949	18,023	0,060	-0,034
-433,934	490,988	-0,062	-0,103
-432,919	-200,000	-0,006	-0,109
-431,905	374,697	0,079	-0,116
-430,890	800,000	-0,010	0,022
-429,876	-200,000	0,020	0,122
-428,861	40,032	-0,130	0,084
-427,846	-200,000	-0,023	0,075
-426,832	-17,971	-0,046	-0,021
-425,817	-200,000	-0,042	-0,164
-424,803	40,111	-0,079	0,051
-423,788	-21,277	-0,103	-0,045
-422,773	55,121	0,075	0,052
-421,759	-53,661	0,025	0,008
-420,744	800,000	-0,033	0,073
-419,730	186,823	0,051	0,055
-418,715	157,699	-0,060	-0,060
-417,701	143,420	-0,112	0,107
-416,686	-200,000	-0,014	0,055
-415,671	154,978	0,084	0,083
-414,657	90,866	0,118	0,095
-413,642	-200,000	-0,006	0,053
-412,628	63,189	-0,033	0,023
-411,613	800,000	0,076	-0,196
-410,598	800,000	0,020	0,057
-409,584	101,639	-0,178	-0,149
-408,569	35,668	0,054	0,034
-407,555	-200,000	-0,015	-0,073
-406,540	9,934	0,020	0,011
-405,525	114,700	-0,033	0,029
-404,511	-71,439	-0,130	-0,035
-403,496	-200,000	0,021	0,070
-402,482	-117,547	-0,055	0,007
-401,467	-200,000	0,017	0,118
-400,452	-30,429	0,046	0,018
-399,438	-19,779	-0,031	0,014
-398,423	-59,439	-0,093	-0,028
-397,409	567,383	-0,048	0,084
-396,394	-84,120	-0,072	-0,016
-395,379	482,948	0,050	-0,082
-394,365	16,445	0,021	-0,012
-393,350	-60,325	0,067	0,020
-392,336	289,817	-0,007	-0,009
-391,321	-200,000	-0,042	0,164
-390,306	-200,000	0,010	0,033
-389,292	570,278	-0,044	-0,077
-388,277	165,176	-0,023	0,023
-387,263	-55,512	0,069	-0,022
-386,248	-200,000	0,012	0,111
-385,233	-200,000	0,015	0,133
-384,219	135,662	0,086	-0,081
-383,204	159,274	-0,092	-0,092
-382,190	-91,093	-0,048	0,010
-381,175	-138,772	-0,060	-0,005
-380,160	-45,766	0,130	0,046
-379,146	106,527	-0,027	0,023
-378,131	106,362	-0,026	-0,022
-377,117	800,000	0,051	0,101
-376,102	236,272	0,125	0,148
-375,088	-200,000	-0,029	0,112
-374,073	800,000	0,048	-0,113
-373,058	-200,000	0,010	-0,072
-372,044	-200,000	0,022	-0,073
-371,029	-200,000	-0,021	-0,069
-370,015	800,000	-0,005	-0,014
-369,000	800,000	-0,037	-0,114
-367,985	800,000	-0,013	-0,042
-366,971	113,582	0,075	-0,065
-365,956	-71,177	-0,032	0,009
-364,942	-200,000	0,017	0,165
-363,927	-176,079	0,034	-0,001
-362,912	800,000	0,028	-0,072
-361,898	129,767	-0,142	-0,130
-360,883	800,000	-0,021	0,060
-359,869	449,896	-0,054	-0,086
-358,854	69,626	0,064	-0,047
-357,839	-93,549	0,065	-0,013
-356,825	44,505	0,100	0,066
-355,810	-98,430	0,137	-0,025
-354,796	-134,204	0,044	-0,004
-353,781	-122,151	0,041	0,005
-352,766	-200,000	-0,011	-0,067
-351,752	118,007	0,039	-0,035
-350,737	-156,763	-0,028	0,001
-349,723	-70,936	-0,071	0,019
-348,708	-200,000	-0,004	0,067
-347,693	18,074	-0,075	-0,043
-346,679	-11,093	-0,185	-0,087
-345,664	-91,386	0,088	0,018
-344,650	-200,000	0,013	0,080
-343,635	-19,298	0,174	-0,077
-342,620	46,864	-0,045	0,030
-341,606	135,260	-0,108	0,101
-340,591	-200,000	-0,037	0,181
-339,577	-87,172	0,058	0,013
-338,562	800,000	-0,072	-0,145
-337,548	285,371	0,101	-0,131
-336,533	-200,000	-0,009	0,119
-335,518	-60,676	0,093	0,028
-334,504	207,782	-0,092	-0,103
-333,489	-24,936	0,083	0,035
-332,475	800,000	0,037	-0,076
-331,460	618,249	0,051	-0,093
-330,445	91,844	-0,052	-0,042
-329,431	-200,000	0,004	-0,050
-328,416	-110,196	-0,059	0,009
-327,402	190,746	-0,104	0,111
-326,387	-30,407	0,005	0,002
-325,372	-28,566	-0,104	-0,043
-324,358	-200,000	0,043	-0,228
-323,343	-52,148	0,038	-0,012
-322,329	-71,741	0,033	0,009
-321,314	800,000	0,026	-0,079
-320,299	-92,716	0,083	0,017
-319,285	-146,954	0,116	-0,007
-318,270	-89,561	-0,080	-0,017
-317,256	-96,274	-0,023	0,004
-316,241	157,282	0,044	-0,043
-315,226	196,563	-0,070	-0,077
-314,212	800,000	0,059	0,124
-313,197	-150,499	0,063	0,003
-312,183	-126,725	0,061	-0,006
-311,168	731,724	0,041	-0,078
-310,153	-43,210	0,018	-0,007
-309,139	225,938	-0,053	-0,061
-308,124	-200,000	0,000	0,002
-307,110	-200,000	-0,003	0,144
-306,095	-6,762	0,071	0,034
-305,080	-200,000	-0,010	0,091
-304,066	-119,120	-0,157	-0,019
-303,051	800,000	0,035	0,074
-302,037	-55,746	-0,159	-0,050
-301,022	38,795	-0,078	0,049
-300,008	42,800	0,069	0,045
-298,993	78,759	0,145	0,111
-297,978	4,127	-0,053	0,028
-296,964	-19,393	-0,075	-0,033
-295,949	800,000	-0,035	-0,083
-294,935	800,000	-0,015	-0,044
-293,920	-1,764	0,185	0,093
-292,905	800,000	0,020	0,046
-291,891	-200,000	0,003	0,192
-290,876	480,981	-0,026	0,042
-289,862	381,802	-0,036	-0,053
-288,847	464,246	-0,050	-0,079
-287,832	-88,099	-0,072	-0,015
-286,818	-200,000	0,007	0,027
-285,803	227,495	-0,048	-0,056
-284,789	117,691	0,139	-0,122
-283,774	159,456	-0,043	0,042
-282,759	27,405	-0,069	0,041
-281,745	511,431	0,047	0,079
-280,730	-15,067	-0,047	0,022
-279,716	132,718	0,039	0,036
-278,701	-200,000	0,001	0,088
-277,686	32,421	0,032	0,020
-276,672	-20,473	0,044	0,019
-275,657	-200,000	-0,004	0,048
-274,643	800,000	0,049	-0,117
-273,628	767,631	-0,073	-0,143
-272,613	-200,000	-0,015	0,116
-271,599	-42,423	0,101	0,037
-270,584	102,832	0,032	-0,027
-269,570	105,917	0,179	0,151
-268,555	221,025	-0,103	-0,118
-267,540	-200,000	0,002	0,027
-266,526	-200,000	-0,002	-0,022
-265,511	-124,823	0,129	-0,014
-264,497	-200,000	-0,012	0,096
-263,482	-200,000	-0,012	-0,041
-262,467	112,748	-0,008	0,007
-261,453	-173,835	-0,004	0,000
-260,438	-35,403	0,038	-0,015
-259,424	68,116	-0,155	0,113
-258,409	50,751	0,071	-0,048
-257,395	-23,208	0,052	0,022
-256,380	169,137	0,029	-0,029
-255,365	248,403	0,035	-0,042
-254,351	565,607	0,036	-0,062
-253,336	198,979	0,050	0,055
-252,322	43,854	0,048	-0,031
-251,307	800,000	0,028	0,067
-250,292	-129,128	0,103	-0,010
-249,278	36,919	0,028	0,018
-248,263	279,541	-0,056	-0,072
-247,249	-26,197	-0,106	-0,044
-246,234	-85,698	-0,079	-0,017
-245,219	-149,950	-0,150	0,008
-244,205	-17,932	-0,131	-0,059
-243,190	-37,046	0,168	0,064
-242,176	-200,000	0,017	-0,111
-241,161	-200,000	-0,033	0,126
-240,146	-200,000	0,023	-0,087
-239,132	153,125	0,059	-0,057
-238,117	-200,000	0,005	-0,084
-237,103	12,282	0,025	0,014
-236,088	-105,754	0,112	0,018
-235,073	214,470	-0,048	-0,055
-234,059	-35,623	-0,173	-0,066
-233,044	146,003	0,107	-0,102
-232,030	-200,000	0,001	0,020
-231,015	-62,490	0,039	-0,012
-230,000	-107,029	0,052	0,008
-228,986	182,875	-0,074	-0,078
-227,971	752,603	-0,025	0,049
-226,957	34,740	0,055	0,034
-225,942	184,867	-0,014	-0,015
-224,927	800,000	0,043	0,104
-223,913	613,139	0,066	0,118
-222,898	223,283	0,015	0,018
-221,884	800,000	0,045	0,113
-220,869	-66,252	0,101	0,029
-219,855	800,000	0,041	0,091
-218,840	35,609	0,049	-0,031
-217,825	9,417	-0,052	0,028
-216,811	194,781	0,052	0,056
-215,796	-136,651	0,074	-0,006
-214,782	-140,504	0,088	0,006
-213,767	-10,841	0,068	0,032
-212,752	124,025	0,143	0,128
-211,738	266,820	-0,033	0,041
-210,723	-200,000	0,028	0,099
-209,709	-200,000	-0,017	0,107
-208,694	237,124	-0,086	-0,101
-207,679	-200,000	0,034	-0,116
-206,665	-200,000	0,003	-0,065
-205,650	-4,254	-0,030	0,015
-204,636	105,975	0,058	-0,049
-203,621	148,291	0,018	0,017
-202,606	37,337	-0,035	-0,022
-201,592	800,000	0,052	-0,108
-200,577	-200,000	-0,011	0,039
-199,563	-55,645	0,186	0,059
-198,548	-200,000	0,018	0,105
-197,533	-200,000	-0,017	0,063
-196,519	53,935	0,129	0,088
-195,504	407,560	-0,059	0,089
-194,490	-118,818	-0,157	-0,019
-193,475	-83,675	0,007	0,002
-192,460	-169,824	-0,068	-0,002
-191,446	800,000	-0,093	0,212
-190,431	800,000	0,023	0,051
-189,417	74,714	-0,030	0,023
-188,402	45,377	-0,048	0,032
-187,387	-73,839	0,062	0,016
-186,373	-200,000	-0,043	-0,179
-185,358	294,097	-0,021	0,027
-184,344	4,448	0,149	0,077
-183,329	-200,000	0,024	0,139
-182,315	800,000	0,019	-0,048
-181,300	-126,652	-0,088	0,009
-180,285	-118,824	-0,065	0,008
-179,271	-53,669	-0,086	0,028
-178,256	254,410	-0,032	-0,039
-177,242	-200,000	0,014	-0,125
-176,227	800,000	0,048	0,102
-175,212	77,759	0,060	-0,045
-174,198	344,990	-0,046	0,065
-173,183	-103,034	-0,200	-0,033
-172,169	-162,223	-0,108	-0,004
-171,154	405,512	-0,061	0,091
-170,139	-142,204	-0,045	-0,003
-169,125	719,993	0,038	0,072
-168,110	93,290	-0,016	0,013
-167,096	-1,323	-0,019	-0,010
-166,081	35,825	-0,049	-0,031
-165,066	-189,383	-0,203	0,002
-164,052	-136,254	-0,107	0,009
-163,037	84,041	0,108	-0,084
-162,023	-200,000	0,011	0,116
-161,008	161,381	-0,068	0,067
-159,993	-15,750	-0,061	0,027
-158,979	153,060	-0,126	-0,123
-157,964	-119,205	0,026	-0,003
-156,950	800,000	-0,051	0,106
-155,935	-66,396	-0,101	-0,028
-154,920	182,200	0,082	0,085
-153,906	44,060	0,061	0,040
-152,891	-200,000	0,018	-0,058
-151,877	-200,000	0,022	-0,135
-150,862	676,906	0,015	0,028
-149,847	173,734	-0,042	-0,043
-148,833	-200,000	0,010	-0,133
-147,818	88,569	-0,140	0,111
-146,804	-91,888	0,122	0,024
-145,789	-125,448	-0,150	-0,016
-144,775	29,608	0,032	-0,020
-143,760	0,749	-0,110	0,056
-142,745	-173,193	0,110	-0,002
-141,731	371,084	-0,026	-0,038
-140,716	-80,897	0,043	0,010
-139,702	223,390	0,043	0,049
-138,687	171,738	0,110	0,113
-137,672	-200,000	0,028	0,117
-136,658	374,350	-0,028	-0,040
-135,643	68,257	-0,013	0,009
-134,629	0,104	-0,061	0,031
-133,614	-74,866	0,198	0,050
-132,599	800,000	0,082	0,192
-131,585	639,465	-0,032	0,058
-130,570	-126,976	0,074	0,008
-129,556	-200,000	-0,012	-0,052
-128,541	-177,759	0,166	-0,003
-127,526	148,816	-0,100	-0,096
-126,512	25,629	0,032	-0,019
-125,497	-200,000	0,024	0,143
-124,483	800,000	0,008	0,021
-123,468	-184,648	0,056	-0,001
-122,453	-150,541	0,071	0,004
-121,439	157,458	0,086	0,085
-120,424	86,542	-0,100	-0,078
-119,410	260,025	0,023	0,029
-118,395	18,819	0,029	-0,016
-117,380	37,087	0,074	-0,046
-116,366	-200,000	-0,081	0,000
-115,351	5,991	-0,081	-0,043
-114,337	185,575	0,053	-0,056
-113,322	234,689	0,059	-0,069
-112,307	101,743	-0,099	0,082
-111,293	671,428	0,063	0,116
-110,278	230,954	0,099	0,115
-109,264	-0,641	-0,075	0,037
-108,249	83,469	-0,088	0,068
-107,234	153,348	-0,037	-0,036
-106,220	-108,778	0,074	-0,011
-105,205	800,000	-0,027	0,071
-104,191	-175,343	-0,027	-0,001
-103,176	637,257	-0,053	0,096
-102,162	-200,000	0,002	-0,023
-101,147	-200,000	-0,032	-0,187
-100,132	-200,000	-0,007	-0,153
-99,118	101,363	-0,088	0,073
-98,103	800,000	0,083	0,186
-97,089	-200,000	0,036	0,115
-96,074	256,983	-0,041	-0,050
-95,059	-200,000	-0,025	-0,123
-94,045	-118,021	-0,067	0,008
-93,030	-200,000	-0,011	-0,037
-92,016	121,882	-0,041	0,037
-91,001	653,438	-0,060	-0,110
-89,986	-200,000	-0,002	-0,038
-88,972	-200,000	0,002	0,045
-87,957	81,056	0,041	0,031
-86,943	-108,608	0,083	0,013
-85,928	-200,000	-0,017	-0,072
-84,913	234,513	0,102	-0,119
-83,899	627,227	-0,038	-0,069
-82,884	800,000	-0,038	0,077
-81,870	373,280	0,017	0,025
-80,855	-200,000	-0,012	0,182
-79,840	134,821	-0,008	-0,007
-78,826	-33,090	-0,036	-0,014
-77,811	25,620	0,051	-0,030
-76,797	800,000	-0,006	0,017
-75,782	-98,170	-0,111	-0,020
-74,767	-200,000	-0,015	0,130
-73,753	388,855	-0,058	0,086
-72,738	38,878	0,113	0,071
-71,724	-200,000	0,012	-0,156
-70,709	399,692	-0,095	0,141
-69,694	-53,278	-0,135	0,043
-68,680	-27,646	0,054	-0,022
-67,665	377,452	0,038	0,055
-66,651	112,761	0,105	0,090
-65,636	-175,419	-0,084	-0,002
-64,622	-79,354	0,134	0,032
-63,607	19,793	-0,118	-0,067
-62,592	-89,738	0,156	0,032
-61,578	800,000	0,027	-0,056
-60,563	-200,000	0,007	-0,047
-59,549	-132,344	-0,182	0,016
-58,534	-16,192	-1,718	-0,770
-57,519	461,063	-1,289	-2,042
-56,505	-200,000	-0,437	-4,609
-55,490	194,184	0,902	0,969
-54,476	800,000	5,023	11,359
-53,461	-200,000	19,252	319,743
-52,446	-200,000	740,632	2333,878
-51,432	573,001	1655,663	2868,617
-50,417	78,288	1670,896	1261,726
-49,403	21,273	1544,042	885,518
-48,388	15,218	1466,257	811,467
-47,373	17,923	1456,593	819,158
-46,359	16,664	1446,437	807,375
-45,344	13,446	1441,836	789,363
-44,330	13,298	1440,166	787,704
-43,315	13,380	1437,893	786,825
-42,300	13,361	1436,488	785,933
-41,286	13,411	1435,290	785,487
-40,271	13,344	1433,948	784,400
-39,257	13,341	1432,551	783,591
-38,242	13,427	1431,126	783,191
-37,227	13,445	1430,130	782,698
-36,213	13,420	1428,632	781,728
-35,198	13,416	1427,549	781,087
-34,184	13,475	1426,507	780,767
-33,169	13,395	1425,260	779,672
-32,154	13,440	1424,110	779,225
-31,140	13,386	1422,922	778,288
-30,125	13,463	1421,843	778,031
-29,111	13,404	1420,925	777,220
-28,096	13,383	1419,799	776,477
-27,082	13,364	1418,477	775,631
-26,067	13,327	1417,405	774,840
-25,052	13,325	1416,457	774,282
-24,038	13,296	1415,590	773,638
-23,023	13,373	1414,240	773,231
-22,009	13,313	1413,431	772,478
-20,994	13,292	1412,510	771,845
-19,979	13,283	1411,709	771,338
-18,965	13,299	1410,594	770,769
-17,950	13,298	1409,757	770,276
-16,936	13,320	1408,577	769,707
-15,921	13,250	1407,767	768,904
-14,906	13,272	1406,719	768,406
-13,892	13,266	1405,839	767,866
-12,877	13,211	1405,210	767,233
-11,863	13,235	1404,118	766,722
-10,848	13,228	1403,219	766,165
-9,833	13,196	1402,350	765,513
-8,819	13,191	1401,719	765,113
-7,804	13,171	1400,553	764,353
-6,790	13,114	1399,695	763,592
-5,775	13,140	1398,524	763,044
-4,760	13,152	1397,410	762,459
-3,746	13,127	1396,839	762,001
-2,731	13,138	1395,977	761,552
-1,717	13,140	1394,872	760,931
-0,702	13,155	1392,988	759,938
0,313	16,973	1309,874	732,290
1,327	33,190	703,784	430,934
2,342	51,321	123,264	82,664
3,356	2,471	16,613	8,481
4,371	1,105	3,315	1,677
5,386	5,825	0,551	0,287
6,400	220,642	0,158	0,180
7,415	-23,059	-0,281	-0,119
8,429	10,161	-0,370	-0,198
9,444	94,246	-0,291	-0,233
10,459	-51,910	-0,371	-0,121
11,473	86,443	-0,370	-0,288
12,488	203,146	-0,183	-0,201
13,502	39,716	-0,267	-0,169
14,517	143,283	-0,312	-0,293
15,531	120,422	-0,408	-0,358
16,546	-23,090	-0,397	-0,168
17,561	248,322	-0,289	-0,347
18,575	33,228	-0,226	0,138
19,590	82,493	-0,269	-0,206
20,604	-47,599	-0,286	-0,097
21,619	71,423	-0,402	-0,295
22,634	106,563	-0,434	-0,364
23,648	83,361	-0,461	-0,355
24,663	174,261	-0,376	-0,384
25,677	132,386	-0,381	-0,346
26,692	132,663	-0,451	-0,411
27,707	-40,485	-0,320	-0,117
28,721	-39,757	-0,394	-0,144
29,736	194,733	-0,277	-0,297
30,750	28,730	-0,448	-0,267
31,765	25,310	-0,365	-0,213
32,780	64,558	-0,254	-0,181
33,794	181,845	-0,269	-0,280
34,809	1,111	-0,399	-0,201
35,823	31,359	-0,322	-0,195
36,838	19,072	-0,421	-0,237
37,853	78,734	-0,434	-0,327
38,867	13,561	-0,409	-0,223
39,882	-95,309	-0,362	-0,068
40,896	-61,144	-0,333	-0,098
41,911	135,199	-0,385	-0,353
42,926	79,879	-0,363	-0,275
43,940	138,047	-0,353	-0,326
44,955	66,655	-0,328	-0,235
45,969	142,372	-0,336	-0,314
46,984	50,025	-0,352	-0,234
47,999	-18,194	-0,274	-0,120
49,013	-125,032	-0,441	-0,047
50,028	174,615	-0,264	-0,269
51,042	221,018	-0,233	-0,264
52,057	49,861	-0,453	-0,300
53,071	121,209	-0,341	-0,299
54,086	16,349	-0,377	-0,209
55,101	223,342	-0,325	-0,370
56,115	274,410	-0,218	-0,272
57,130	-0,394	-0,365	-0,182
58,144	94,924	-0,333	-0,267
59,159	54,286	-0,350	-0,237
60,174	277,336	-0,279	-0,350
61,188	15,677	-0,376	-0,208
62,203	15,687	-0,422	-0,233
63,217	294,788	-0,222	-0,287
64,232	-89,337	-0,397	-0,082
65,247	-23,657	-0,438	-0,184
66,261	211,911	-0,386	-0,428
67,276	-30,487	-0,376	-0,149
68,290	65,282	-0,362	-0,257
69,305	91,286	-0,313	-0,247
70,320	133,693	-0,287	-0,261
71,334	35,049	-0,355	-0,218
72,349	-62,575	-0,394	-0,114
73,363	272,150	-0,239	-0,296
74,378	89,482	-0,225	-0,176
75,393	11,989	-0,248	-0,134
76,407	98,920	-0,289	-0,235
77,422	271,213	-0,180	-0,223
78,436	-85,439	-0,339	-0,074
79,451	174,161	-0,219	-0,222
80,466	11,132	-0,403	-0,216
81,480	85,595	-0,311	-0,240
82,495	39,539	-0,275	-0,173
83,509	124,829	-0,245	-0,217
84,524	45,069	-0,316	-0,204
85,539	413,582	-0,201	-0,302
86,553	29,102	-0,177	-0,105
87,568	75,497	-0,301	-0,223
88,582	27,982	-0,323	-0,191
89,597	-15,545	-0,292	-0,131
90,611	79,167	-0,252	-0,189
91,626	2,627	-0,316	-0,160
92,641	71,728	-0,266	-0,194
93,655	-1,802	-0,331	-0,163
94,670	-10,335	-0,199	-0,092
95,684	15,018	-0,350	-0,192
96,699	9,983	-0,206	-0,110
97,714	147,564	-0,336	-0,317
98,728	-19,735	-0,207	-0,090
99,743	146,931	-0,235	-0,222
100,757	14,586	-0,279	-0,152
101,772	-152,370	-0,280	-0,014
102,787	90,520	-0,302	-0,237
103,801	84,339	-0,294	-0,225
104,816	-2,572	-0,299	-0,146
105,830	-194,914	-0,304	-0,002
106,845	-0,874	-0,328	-0,163
107,860	-125,941	-0,171	-0,018
108,874	34,836	-0,329	-0,202
109,889	107,724	-0,237	-0,198
110,903	-13,663	-0,285	-0,129
111,918	55,118	-0,260	-0,175
112,933	-24,357	-0,245	-0,102
113,947	67,722	-0,181	-0,129
114,962	-33,886	-0,220	-0,084
115,976	11,241	-0,366	-0,195
116,991	86,801	-0,328	-0,254
118,006	101,523	-0,255	-0,208
119,020	278,060	-0,206	-0,258
120,035	-56,183	-0,262	-0,081
121,049	306,860	-0,145	-0,190
122,064	190,992	-0,144	-0,151
123,079	-62,875	-0,297	-0,086
124,093	103,186	-0,265	-0,217
125,108	39,573	-0,261	-0,163
126,122	182,329	-0,169	-0,175
127,137	129,238	-0,195	-0,174
128,151	115,387	-0,197	-0,168
129,166	-161,269	-0,149	0,005
130,181	146,898	-0,338	-0,318
131,195	125,348	-0,265	-0,233
132,210	137,427	-0,245	-0,224
133,224	32,551	-0,173	-0,104
134,239	118,714	-0,232	-0,201
135,254	199,385	-0,117	-0,126
136,268	17,816	-0,312	-0,173
137,283	-182,315	-0,335	0,004
138,297	40,477	-0,216	-0,136
139,312	-3,038	-0,237	-0,115
140,327	71,936	-0,257	-0,187
141,341	-60,036	-0,155	-0,046
142,356	-4,411	-0,286	-0,138
143,370	800,000	-0,047	-0,114
144,385	349,083	-0,220	-0,304
145,400	104,834	-0,334	-0,275
146,414	206,777	-0,285	-0,310
147,429	80,983	-0,328	-0,247
148,443	55,598	-0,123	-0,083
149,458	117,331	-0,169	-0,145
150,473	-21,260	-0,333	-0,142
151,487	-40,431	-0,264	-0,095
152,502	-25,436	-0,250	-0,103
153,516	-57,430	-0,330	-0,101
154,531	110,112	-0,258	-0,216
155,546	42,497	-0,176	-0,112
156,560	-128,169	-0,196	-0,019
157,575	22,061	-0,184	-0,105
158,589	77,861	-0,215	-0,160
159,604	259,298	-0,230	-0,278
160,619	193,893	-0,280	-0,296
161,633	25,109	-0,293	-0,169
162,648	258,320	-0,145	-0,175
163,662	244,156	-0,180	-0,211
164,677	95,454	-0,235	-0,187
165,692	8,086	-0,217	-0,113
166,706	89,083	-0,270	-0,209
167,721	186,906	-0,186	-0,193
168,735	-187,071	-0,379	-0,004
169,750	-6,835	-0,245	-0,116
170,764	519,500	-0,109	-0,178
171,779	-148,714	-0,265	-0,015
172,794	234,127	-0,163	-0,188
173,808	105,091	-0,150	-0,123
174,823	148,856	-0,250	-0,236
175,837	23,785	-0,278	-0,159
176,852	185,927	-0,286	-0,297
177,867	123,995	-0,254	-0,222
178,881	-14,624	-0,235	-0,105
179,896	198,503	-0,149	-0,159
180,910	142,161	-0,231	-0,213
181,925	259,744	-0,214	-0,257
182,940	80,874	-0,237	-0,178
183,954	351,374	-0,139	-0,192
184,969	-160,237	-0,236	-0,009
185,983	-124,389	-0,234	-0,025
186,998	54,960	-0,102	-0,068
188,013	-114,714	-0,165	-0,022
189,027	-32,056	-0,234	-0,091
190,042	101,912	-0,320	-0,260
191,056	347,454	-0,182	-0,251
192,071	83,382	-0,195	-0,148
193,086	-10,096	-0,174	-0,080
194,100	189,218	-0,184	-0,192
195,115	225,760	-0,145	-0,164
196,129	186,440	-0,156	-0,162
197,144	264,430	-0,132	-0,160
198,159	501,999	-0,143	-0,230
199,173	426,542	-0,165	-0,249
200,188	77,492	-0,140	-0,104
201,202	83,737	-0,286	-0,217
202,217	141,192	-0,165	-0,152
203,232	560,153	-0,152	-0,256
204,246	589,989	-0,119	-0,205
205,261	-1,237	-0,226	-0,111
206,275	186,137	-0,193	-0,200
207,290	62,497	-0,106	-0,074
208,304	83,363	-0,198	-0,150
209,319	201,916	-0,145	-0,156
210,334	-74,623	-0,233	-0,058
211,348	-92,879	-0,254	-0,049
212,363	124,627	-0,195	-0,170
213,377	77,866	-0,263	-0,195
214,392	748,170	-0,125	-0,235
215,407	-190,731	-0,154	0,001
216,421	-5,202	-0,105	-0,050
217,436	42,456	-0,237	-0,149
218,450	-30,704	-0,256	-0,100
219,465	262,559	-0,186	-0,224
220,480	14,993	-0,187	-0,101
221,494	800,000	-0,105	-0,226
222,509	-115,995	-0,143	0,018
223,523	1,990	-0,232	-0,116
224,538	-200,000	0,004	-0,143
225,553	50,433	-0,234	-0,153
226,567	800,000	-0,111	-0,309
227,582	211,139	-0,138	-0,151
228,596	37,332	-0,232	-0,142
229,611	72,387	-0,265	-0,191
230,626	145,383	-0,188	-0,174
231,640	113,345	-0,188	-0,158
232,655	12,956	-0,221	-0,118
233,669	-21,303	-0,369	-0,156
234,684	12,839	-0,250	-0,134
235,699	-200,000	-0,024	-0,269
236,713	21,178	-0,207	-0,116
237,728	-5,230	-0,185	-0,088
238,742	490,339	-0,099	-0,157
239,757	212,406	-0,155	-0,170
240,772	-2,314	-0,266	-0,129
241,786	168,982	-0,118	-0,117
242,801	2,498	-0,175	-0,087
243,815	315,779	-0,052	-0,069
244,830	68,557	-0,138	-0,098
245,844	4,165	-0,140	-0,071
246,859	-200,000	0,008	-0,170
247,874	-200,000	-0,115	-0,421
248,888	204,571	-0,170	-0,183
249,903	93,731	-0,245	-0,192
250,917	96,301	-0,215	-0,170
251,932	-82,523	-0,207	0,046
252,947	66,027	-0,095	-0,067
253,961	-116,923	-0,194	0,024
254,976	279,255	-0,144	-0,178
255,990	134,360	-0,151	-0,136
257,005	-22,580	-0,158	-0,066
258,020	-66,547	-0,088	-0,024
259,034	53,522	-0,084	-0,056
260,049	303,106	-0,133	-0,171
261,063	431,953	-0,100	-0,150
262,078	751,399	-0,065	-0,122
263,093	90,642	-0,169	-0,131
264,107	609,980	-0,084	-0,146
265,122	407,353	-0,143	-0,210
266,136	94,230	-0,192	-0,151
267,151	-81,623	-0,178	-0,040
268,166	152,088	-0,128	-0,120
269,180	228,079	-0,129	-0,145
270,195	259,368	-0,214	-0,256
271,209	-70,023	-0,146	-0,038
272,224	-28,502	-0,089	-0,035
273,239	92,949	-0,129	-0,101
274,253	105,950	-0,155	-0,126
275,268	-20,629	-0,062	-0,026
276,282	-3,037	-0,171	-0,082
277,297	-78,922	-0,204	-0,048
278,312	274,417	-0,110	-0,134
279,326	184,160	-0,038	-0,039
280,341	-163,391	-0,113	-0,004
281,355	261,567	-0,105	-0,126
282,370	75,220	-0,278	-0,202
283,384	637,159	-0,075	-0,132
284,399	251,112	-0,123	-0,144
285,414	800,000	-0,107	-0,220
286,428	-200,000	-0,053	-0,185
287,443	-15,372	-0,028	0,012
288,457	-179,747	-0,102	-0,001
289,472	-5,407	-0,229	-0,108
290,487	71,345	-0,190	-0,136
291,501	90,295	-0,225	-0,174
292,516	188,415	-0,197	-0,204
293,530	17,287	-0,242	-0,132
294,545	172,614	-0,219	-0,218
295,560	116,265	-0,121	-0,102
296,574	-62,119	-0,102	-0,029
297,589	-94,954	-0,154	-0,028
298,603	-181,889	-0,086	0,001
299,618	434,204	-0,085	-0,128
300,633	90,407	-0,209	-0,161
301,647	689,445	0,045	-0,081
302,662	14,017	-0,073	-0,039
303,676	55,091	-0,186	-0,124
304,691	-128,419	-0,038	0,004
305,706	273,505	-0,213	-0,260
306,720	248,163	-0,262	-0,306
307,735	6,574	-0,122	-0,062
308,749	58,494	-0,118	-0,079
309,764	82,728	-0,068	-0,051
310,779	280,920	-0,103	-0,128
311,793	150,951	-0,184	-0,172
312,808	215,655	-0,206	-0,226
313,822	-200,000	-0,050	-0,208
314,837	-12,985	-0,196	-0,088
315,852	434,863	0,103	-0,155
316,866	96,024	-0,046	-0,036
317,881	-60,959	-0,207	-0,060
318,895	80,578	-0,132	-0,098
319,910	13,132	-0,164	-0,087
320,925	176,125	-0,141	-0,141
321,939	-94,427	-0,122	0,023
322,954	-126,962	-0,098	0,010
323,968	154,124	-0,031	0,029
324,983	-81,188	-0,199	-0,045
325,997	610,339	-0,057	-0,099
327,012	100,607	-0,216	-0,172
328,027	496,607	-0,093	-0,148
329,041	552,281	-0,058	-0,097
330,056	324,375	-0,124	-0,164
331,070	18,984	-0,153	-0,084
332,085	-157,121	-0,139	-0,006
333,100	77,803	-0,090	-0,066
334,114	619,252	-0,078	-0,135
335,129	94,223	-0,088	-0,069
336,143	324,306	-0,164	-0,215
337,158	196,732	-0,114	-0,120
338,173	-200,000	-0,051	-0,156
339,187	86,290	-0,151	-0,114
340,202	185,697	-0,139	-0,142
341,216	-163,587	-0,235	0,007
342,231	800,000	-0,086	-0,188
343,246	91,204	-0,130	-0,100
344,260	445,829	-0,096	-0,145
345,275	-106,325	-0,056	0,009
346,289	-162,571	-0,168	-0,006
347,304	145,615	-0,086	-0,079
348,319	86,289	-0,260	-0,196
349,333	-29,223	-0,182	-0,071
350,348	624,489	-0,120	-0,209
351,362	800,000	-0,108	-0,242
352,377	800,000	-0,104	-0,209
353,392	161,520	-0,088	-0,084
354,406	-200,000	-0,016	-0,073
355,421	209,266	1312,463	1412,000
356,435	161,055	1472,899	1412,484
