DTS Sentinel unit serial number:	SN410029Multiplexer serial number:	ORYXHardware model number:	OX2-SRSoftware version number:	ORYX F/W v4,00 Oryx Data Collector v3.7.2.0data status	okinstallation	B3 Nyhavnadifferential loss correction	single-endedforward channel	channel 1reverse channel	N/Adate	2023/12/01time	20:22:30forward acquisition time	300,00reverse acquisition time	0,00gamma	499,1914k internal	0,3197k external	0,3197temperature offset calibration	1,0000default loss term (dB/km)	0,3820temperature slope calibration	1,0000multiplexer offset coefficient	1,0000multiplexer slope coefficient	1,0000fibre end	0,00T internal ref (°C)	15,82T ext. ref 1 (°C)	1,46T ext. ref 2 (°C)	1,46length (m)	temperature (°C)	Stokes	anti-Stokes-744,400	332,955	-0,271	-0,383
-743,385	-200,000	0,051	0,325
-742,371	316,610	-0,158	-0,218
-741,356	-200,000	-0,009	0,381
-740,342	-13,940	-0,281	-0,131
-739,327	-200,000	0,039	0,300
-738,312	283,277	-0,268	-0,351
-737,298	800,000	0,089	0,184
-736,283	312,242	-0,179	-0,245
-735,269	329,360	0,150	0,211
-734,254	174,368	-0,193	-0,203
-733,239	66,738	-0,096	0,071
-732,225	-200,000	-0,026	-0,224
-731,210	-200,000	0,049	0,201
-730,196	341,634	0,053	0,076
-729,181	147,892	-0,145	-0,142
-728,167	-18,563	-0,049	-0,022
-727,152	-200,000	0,028	-0,116
-726,137	0,445	-0,058	0,030
-725,123	-66,921	-0,069	-0,020
-724,108	282,082	-0,092	-0,120
-723,094	-200,000	-0,016	-0,076
-722,079	-200,000	0,009	-0,053
-721,064	321,597	-0,076	-0,105
-720,050	360,971	0,043	0,063
-719,035	-40,490	0,088	-0,033
-718,021	-200,000	0,003	0,079
-717,006	35,575	-0,187	-0,119
-715,991	-200,000	-0,040	-0,255
-714,977	800,000	-0,045	-0,098
-713,962	648,095	0,041	0,076
-712,948	-21,866	0,082	0,036
-711,933	197,040	0,022	0,024
-710,918	81,603	-0,075	-0,059
-709,904	136,242	-0,065	0,062
-708,889	-91,077	-0,154	-0,032
-707,875	-200,000	-0,003	0,057
-706,860	-21,264	0,043	0,019
-705,845	686,676	0,043	-0,082
-704,831	-200,000	0,010	-0,158
-703,816	-64,797	-0,089	-0,026
-702,802	-142,768	-0,033	0,002
-701,787	800,000	-0,042	-0,114
-700,772	-200,000	-0,016	-0,077
-699,758	-200,000	0,020	-0,066
-698,743	103,692	-0,035	-0,030
-697,729	-14,197	-0,071	0,033
-696,714	-109,470	0,104	-0,016
-695,699	-14,310	-0,020	-0,009
-694,685	-200,000	-0,023	-0,085
-693,670	210,863	-0,103	-0,118
-692,656	421,424	0,067	-0,104
-691,641	-100,114	-0,096	-0,017
-690,627	180,518	0,112	0,119
-689,612	-200,000	0,003	-0,145
-688,597	-125,054	-0,118	-0,013
-687,583	800,000	0,011	0,027
-686,568	44,594	-0,145	-0,097
-685,554	-200,000	0,029	-0,187
-684,539	-200,000	0,034	0,113
-683,524	800,000	-0,020	-0,058
-682,510	-16,828	-0,061	0,028
-681,495	454,564	0,085	-0,137
-680,481	-102,990	-0,058	0,010
-679,466	473,428	-0,116	-0,190
-678,451	399,366	-0,064	-0,098
-677,437	90,786	0,012	-0,009
-676,422	-200,000	-0,010	-0,035
-675,408	800,000	0,071	-0,192
-674,393	121,042	-0,067	0,061
-673,378	132,437	0,026	-0,024
-672,364	-53,003	0,123	0,041
-671,349	167,019	-0,103	0,106
-670,335	800,000	-0,032	0,081
-669,320	188,027	0,024	0,026
-668,305	-115,207	0,014	0,002
-667,291	708,961	0,009	0,017
-666,276	800,000	-0,068	-0,155
-665,262	-134,333	-0,119	0,010
-664,247	72,222	0,084	0,064
-663,232	800,000	-0,011	-0,030
-662,218	-9,016	0,026	-0,013
-661,203	-136,596	-0,023	0,002
-660,189	558,137	0,044	-0,078
-659,174	152,813	0,030	-0,030
-658,159	171,146	-0,060	0,063
-657,145	-200,000	0,009	-0,125
-656,130	-19,862	-0,110	-0,049
-655,116	19,296	-0,211	-0,123
-654,101	-200,000	0,040	0,143
-653,086	-200,000	-0,035	0,120
-652,072	503,191	-0,099	-0,167
-651,057	735,989	0,082	-0,160
-650,043	177,805	-0,111	-0,118
-649,028	89,487	-0,049	-0,039
-648,014	-48,610	0,127	0,044
-646,999	-23,161	0,181	-0,079
-645,984	460,671	-0,020	-0,032
-644,970	53,445	0,087	-0,060
-643,955	384,211	-0,056	-0,084
-642,941	-50,931	0,052	0,017
-641,926	150,171	-0,037	-0,036
-640,911	-200,000	-0,010	0,039
-639,897	800,000	-0,030	0,078
-638,882	-63,574	-0,005	0,002
-637,868	-137,471	-0,209	-0,017
-636,853	-200,000	-0,036	-0,183
-635,838	52,337	0,046	-0,032
-634,824	-73,068	-0,081	-0,021
-633,809	55,516	-0,093	-0,065
-632,795	-44,005	-0,037	-0,014
-631,780	106,891	-0,041	0,035
-630,765	-41,148	-0,126	0,047
-629,751	76,481	0,082	0,063
-628,736	-200,000	0,018	0,089
-627,722	800,000	0,088	-0,177
-626,707	-200,000	0,004	-0,031
-625,692	-200,000	-0,006	-0,071
-624,678	-154,517	0,116	-0,006
-623,663	800,000	-0,048	0,116
-622,649	166,207	-0,042	-0,043
-621,634	99,202	-0,066	-0,055
-620,619	357,436	-0,093	-0,135
-619,605	44,180	0,076	0,050
-618,590	64,251	0,050	0,036
-617,576	322,937	-0,089	-0,124
-616,561	-200,000	0,024	-0,130
-615,546	-200,000	-0,009	0,075
-614,532	-200,000	0,004	0,057
-613,517	-105,897	0,071	0,011
-612,503	96,445	0,078	-0,064
-611,488	800,000	0,050	-0,136
-610,474	-200,000	0,001	-0,013
-609,459	800,000	-0,066	-0,185
-608,444	800,000	0,034	0,102
-607,430	183,833	-0,123	-0,132
-606,415	80,786	-0,055	0,043
-605,401	95,819	0,115	0,095
-604,386	-134,024	0,081	0,007
-603,371	-41,751	0,031	0,012
-602,357	-200,000	-0,005	-0,059
-601,342	436,573	-0,053	0,084
-600,328	283,893	0,028	-0,037
-599,313	-3,661	-0,128	0,064
-598,298	-200,000	0,017	0,069
-597,284	-144,362	0,111	0,007
-596,269	46,616	-0,047	0,032
-595,255	202,703	-0,105	0,118
-594,240	-145,106	-0,116	0,008
-593,225	-13,302	-0,196	-0,092
-592,211	2,531	-0,138	-0,072
-591,196	-126,821	0,061	0,006
-590,182	-200,000	0,048	0,215
-589,167	-86,974	0,145	0,032
-588,152	-124,880	-0,048	0,005
-587,138	270,349	0,073	0,093
-586,123	-52,521	0,059	0,020
-585,109	800,000	-0,067	0,144
-584,094	-62,331	-0,233	-0,070
-583,079	123,499	0,043	-0,039
-582,065	12,690	0,073	-0,041
-581,050	50,416	-0,098	-0,067
-580,036	624,837	-0,059	-0,109
-579,021	144,732	0,061	-0,059
-578,006	324,207	-0,086	0,120
-576,992	-115,842	0,047	-0,006
-575,977	235,370	0,093	-0,111
-574,963	-172,557	0,086	-0,002
-573,948	-200,000	0,019	0,114
-572,934	-103,621	-0,133	-0,022
-571,919	-164,413	-0,038	-0,001
-570,904	-200,000	-0,024	-0,127
-569,890	-83,842	-0,100	0,023
-568,875	37,999	0,127	-0,081
-567,861	384,526	0,045	-0,068
-566,846	66,243	0,084	0,062
-565,831	-64,015	0,094	-0,028
-564,817	800,000	-0,009	-0,023
-563,802	506,695	0,001	0,002
-562,788	800,000	-0,017	-0,039
-561,773	84,376	-0,023	-0,018
-560,758	800,000	0,025	0,067
-559,744	-119,120	-0,051	-0,006
-558,729	683,277	-0,087	-0,164
-557,715	-200,000	0,012	-0,060
-556,700	-200,000	-0,009	-0,167
-555,685	-172,105	-0,105	-0,002
-554,671	381,426	0,042	0,063
-553,656	-200,000	-0,059	0,208
-552,642	800,000	0,046	-0,105
-551,627	81,443	-0,053	-0,042
-550,612	46,600	-0,131	-0,088
-549,598	800,000	-0,064	-0,185
-548,583	91,907	0,067	-0,055
-547,569	78,614	-0,079	-0,061
-546,554	800,000	0,041	-0,118
-545,539	-4,374	-0,036	0,018
-544,525	-200,000	0,014	-0,045
-543,510	-187,989	0,103	0,001
-542,496	-200,000	-0,018	-0,106
-541,481	800,000	0,037	-0,081
-540,466	-200,000	0,042	0,224
-539,452	800,000	-0,014	-0,033
-538,437	-200,000	-0,032	-0,120
-537,423	800,000	0,053	0,136
-536,408	-200,000	-0,010	0,049
-535,393	-200,000	0,015	-0,115
-534,379	-126,662	-0,121	0,013
-533,364	70,561	-0,119	0,089
-532,350	800,000	-0,021	-0,048
-531,335	22,350	-0,167	0,098
-530,321	-23,238	-0,093	-0,040
-529,306	98,355	0,122	0,102
-528,291	-47,441	-0,026	-0,009
-527,277	401,750	-0,063	0,096
-526,262	-47,810	0,111	-0,039
-525,248	-160,559	0,098	-0,004
-524,233	206,409	0,024	0,027
-523,218	87,584	0,114	0,091
-522,204	-74,243	0,177	0,046
-521,189	800,000	-0,047	-0,114
-520,175	50,195	0,051	-0,035
-519,160	-200,000	0,010	-0,067
-518,145	360,600	0,078	0,114
-517,131	800,000	0,019	-0,042
-516,116	75,054	-0,091	0,069
-515,102	800,000	0,003	-0,007
-514,087	699,014	0,054	0,104
-513,072	-12,617	-0,063	-0,030
-512,058	-200,000	-0,004	-0,019
-511,043	69,961	-0,039	-0,029
-510,029	10,723	0,093	0,051
-509,014	279,626	-0,040	-0,052
-507,999	341,796	0,087	0,123
-506,985	272,948	-0,051	-0,065
-505,970	-34,675	0,029	-0,011
-504,956	-80,518	0,055	-0,013
-503,941	-40,596	0,036	0,013
-502,926	-200,000	0,001	-0,102
-501,912	800,000	0,031	-0,065
-500,897	-200,000	0,013	-0,075
-499,883	-200,000	-0,000	0,064
-498,868	191,852	0,101	-0,110
-497,853	-66,824	-0,071	0,020
-496,839	167,286	-0,017	0,018
-495,824	355,257	-0,029	-0,041
-494,810	-200,000	0,002	-0,011
-493,795	-75,562	0,088	-0,022
-492,781	800,000	-0,013	0,030
-491,766	-111,972	0,170	0,024
-490,751	162,845	-0,062	-0,063
-489,737	-200,000	-0,026	-0,104
-488,722	234,597	-0,047	0,057
-487,708	-96,252	0,069	0,013
-486,693	-200,000	0,015	0,084
-485,678	-61,439	-0,087	-0,026
-484,664	-66,040	-0,088	0,025
-483,649	244,387	0,066	-0,080
-482,635	-200,000	-0,006	-0,031
-481,620	520,517	0,060	0,102
-480,605	12,756	0,149	-0,083
-479,591	64,807	-0,096	-0,070
-478,576	250,967	-0,041	0,050
-477,562	-119,106	-0,124	-0,015
-476,547	-200,000	-0,006	-0,088
-475,532	639,821	-0,051	-0,093
-474,518	391,568	0,056	0,084
-473,503	-200,000	0,023	-0,111
-472,489	-200,000	-0,022	0,092
-471,474	-13,777	0,015	-0,007
-470,459	-102,003	0,038	-0,007
-469,445	-149,390	-0,047	0,003
-468,430	-200,000	-0,006	0,059
-467,416	125,476	0,065	0,059
-466,401	744,095	0,047	0,091
-465,386	572,134	-0,026	-0,046
-464,372	-98,812	-0,058	0,010
-463,357	800,000	0,015	0,031
-462,343	26,592	0,025	0,015
-461,328	-83,923	0,075	0,017
-460,313	800,000	0,066	-0,132
-459,299	128,173	-0,074	-0,068
-458,284	-3,823	-0,070	0,035
-457,270	15,948	-0,083	0,047
-456,255	-200,000	-0,011	-0,072
-455,241	123,744	-0,030	0,027
-454,226	800,000	-0,067	-0,140
-453,211	137,051	0,067	-0,063
-452,197	-200,000	-0,014	0,119
-451,182	-200,000	-0,005	-0,055
-450,168	291,895	-0,024	-0,031
-449,153	443,961	-0,055	-0,088
-448,138	800,000	-0,079	-0,172
-447,124	-200,000	-0,001	-0,066
-446,109	-200,000	-0,014	-0,073
-445,095	-200,000	-0,003	-0,009
-444,080	-32,347	-0,096	0,038
-443,065	800,000	0,026	0,076
-442,051	-200,000	-0,004	0,072
-441,036	76,895	-0,063	0,048
-440,022	32,115	0,031	-0,019
-439,007	150,156	-0,038	-0,038
-437,992	15,527	0,082	0,046
-436,978	182,065	0,051	-0,054
-435,963	-37,846	-0,025	0,009
-434,949	-200,000	-0,006	0,097
-433,934	-53,748	-0,108	0,035
-432,919	-200,000	0,049	-0,174
-431,905	178,871	0,088	-0,093
-430,890	-13,921	-0,078	-0,036
-429,876	-123,611	0,277	0,031
-428,861	83,343	-0,104	0,082
-427,846	115,204	0,080	-0,070
-426,832	44,653	-0,139	0,092
-425,817	-200,000	-0,029	0,138
-424,803	157,879	-0,066	0,066
-423,788	301,849	0,072	0,096
-422,773	2,128	0,137	0,071
-421,759	230,959	0,052	0,061
-420,744	-142,570	0,161	-0,011
-419,730	597,059	0,016	-0,029
-418,715	244,616	-0,090	-0,109
-417,701	357,692	-0,051	-0,073
-416,686	-12,390	-0,078	0,037
-415,671	-200,000	-0,004	0,073
-414,657	800,000	0,052	0,148
-413,642	-95,640	0,153	-0,029
-412,628	-52,221	-0,130	0,043
-411,613	-107,870	0,077	-0,012
-410,598	-10,852	-0,063	-0,030
-409,584	632,837	-0,022	-0,039
-408,569	45,807	0,027	0,018
-407,555	-174,759	-0,061	-0,001
-406,540	-200,000	-0,011	0,060
-405,525	-60,772	-0,070	0,021
-404,511	-200,000	0,018	-0,068
-403,496	-187,892	-0,099	-0,001
-402,482	-200,000	0,013	-0,057
-401,467	229,248	0,021	0,024
-400,452	162,802	0,093	0,094
-399,438	9,160	-0,038	-0,020
-398,423	-17,099	0,031	0,014
-397,409	-32,715	-0,156	-0,062
-396,394	146,605	0,059	0,057
-395,379	-114,195	0,094	0,013
-394,365	800,000	-0,061	0,134
-393,350	90,341	0,062	0,050
-392,336	800,000	0,025	-0,069
-391,321	718,906	-0,100	0,192
-390,306	-200,000	-0,002	0,127
-389,292	94,342	-0,113	-0,092
-388,277	433,392	0,031	0,049
-387,263	-78,072	0,100	-0,025
-386,248	-200,000	-0,021	0,136
-385,233	-18,674	0,060	0,027
-384,219	270,663	-0,066	-0,084
-383,204	-89,505	-0,032	0,007
-382,190	132,648	0,195	-0,180
-381,175	-200,000	0,005	-0,083
-380,160	794,803	-0,016	-0,033
-379,146	-200,000	-0,012	0,101
-378,131	28,360	0,057	0,035
-377,117	6,140	0,023	-0,012
-376,102	800,000	0,010	-0,024
-375,088	-125,295	-0,100	0,011
-374,073	48,965	-0,025	-0,017
-373,058	800,000	-0,029	-0,062
-372,044	120,664	0,081	0,072
-371,029	-72,337	0,070	-0,019
-370,015	-103,419	-0,039	-0,006
-369,000	130,127	-0,055	-0,051
-367,985	27,972	-0,159	-0,096
-366,971	8,522	0,089	0,048
-365,956	277,193	0,079	0,101
-364,942	-15,712	-0,144	-0,066
-363,927	-51,562	0,126	0,042
-362,912	-88,374	0,043	-0,009
-361,898	-49,051	0,017	0,006
-360,883	309,685	-0,003	-0,004
-359,869	800,000	-0,048	-0,096
-358,854	569,013	-0,037	-0,065
-357,839	83,754	0,159	0,124
-356,825	-113,756	-0,078	-0,011
-355,810	59,921	-0,093	0,065
-354,796	156,973	-0,033	-0,033
-353,781	-200,000	0,022	-0,087
-352,766	624,993	-0,075	-0,137
-351,752	-53,884	0,100	0,033
-350,737	434,724	-0,042	0,066
-349,723	297,902	0,086	0,114
-348,708	-200,000	0,016	0,101
-347,693	459,466	0,048	-0,077
-346,679	-60,852	-0,056	-0,017
-345,664	-200,000	0,016	-0,170
-344,650	-200,000	-0,006	0,131
-343,635	106,118	-0,077	0,065
-342,620	-197,543	0,169	0,001
-341,606	800,000	0,030	-0,077
-340,591	4,325	0,062	0,032
-339,577	16,577	-0,059	-0,034
-338,562	-68,776	-0,057	-0,016
-337,548	-58,424	0,145	-0,045
-336,533	5,800	0,006	0,003
-335,518	800,000	-0,064	0,129
-334,504	308,240	0,119	0,159
-333,489	-200,000	-0,009	-0,036
-332,475	-200,000	-0,018	-0,197
-331,460	-84,491	0,067	-0,015
-330,445	-6,572	0,031	0,015
-329,431	800,000	-0,017	0,051
-328,416	-19,118	-0,016	0,007
-327,402	-200,000	0,012	0,152
-326,387	193,993	-0,032	-0,035
-325,372	139,993	-0,038	-0,036
-324,358	-127,170	-0,087	-0,009
-323,343	-52,389	-0,115	-0,038
-322,329	240,360	0,087	0,104
-321,314	-29,698	0,094	-0,038
-320,299	-200,000	-0,002	-0,164
-319,285	-59,704	-0,100	-0,031
-318,270	-200,000	0,007	0,086
-317,256	704,538	0,010	0,020
-316,241	800,000	-0,070	-0,165
-315,226	800,000	0,031	-0,083
-314,212	-72,402	0,161	-0,042
-313,197	-200,000	0,007	0,110
-312,183	-18,645	-0,071	0,031
-311,168	-33,919	-0,083	0,033
-310,153	273,768	0,012	0,015
-309,139	-71,096	-0,071	0,019
-308,124	-200,000	-0,000	0,107
-307,110	-79,270	0,036	-0,009
-306,095	185,418	0,024	0,026
-305,080	-8,167	0,068	0,033
-304,066	493,744	-0,024	0,040
-303,051	-27,676	-0,052	-0,022
-302,037	-119,489	0,111	-0,014
-301,022	-184,218	-0,040	0,000
-300,008	256,754	0,040	0,049
-298,993	129,041	-0,011	-0,010
-297,978	392,099	0,043	-0,064
-296,964	-200,000	0,009	-0,079
-295,949	-200,000	-0,000	-0,117
-294,935	-128,372	-0,115	-0,012
-293,920	30,845	0,110	-0,067
-292,905	-200,000	-0,008	0,047
-291,891	-200,000	0,004	0,095
-290,876	238,085	0,013	0,016
-289,862	622,721	0,053	0,095
-288,847	785,902	-0,099	-0,195
-287,832	800,000	0,085	0,184
-286,818	73,037	-0,125	0,093
-285,803	23,096	0,010	-0,006
-284,789	-200,000	0,012	0,115
-283,774	-155,901	0,045	0,002
-282,759	-143,306	-0,119	-0,008
-281,745	-200,000	0,004	0,077
-280,730	800,000	0,038	-0,112
-279,716	-45,331	0,065	-0,023
-278,701	800,000	0,018	0,047
-277,686	-65,643	0,232	0,066
-276,672	245,711	0,024	-0,029
-275,657	800,000	-0,023	0,058
-274,643	800,000	-0,039	-0,085
-273,628	-38,509	-0,139	-0,052
-272,613	77,694	0,116	0,089
-271,599	800,000	0,027	0,071
-270,584	800,000	0,039	0,087
-269,570	-200,000	-0,007	0,183
-268,555	444,641	0,050	0,079
-267,540	93,077	0,015	-0,012
-266,526	294,369	-0,047	0,061
-265,511	-9,842	-0,079	0,038
-264,497	-30,746	-0,112	-0,045
-263,482	-200,000	-0,012	0,084
-262,467	222,818	0,104	0,120
-261,453	99,613	0,019	-0,015
-260,438	-39,061	-0,233	-0,087
-259,424	622,712	-0,087	-0,158
-258,409	368,099	-0,026	-0,038
-257,395	-117,789	0,127	-0,016
-256,380	53,327	0,097	-0,066
-255,365	-63,549	0,078	0,023
-254,351	106,923	0,034	0,029
-253,336	516,061	-0,030	0,051
-252,322	-116,854	0,042	-0,005
-251,307	317,645	0,062	0,083
-250,292	81,344	-0,086	0,067
-249,278	-35,446	0,083	0,032
-248,263	-56,447	0,061	-0,019
-247,249	800,000	-0,030	0,071
-246,234	145,365	0,011	-0,010
-245,219	800,000	0,007	-0,014
-244,205	800,000	-0,027	-0,084
-243,190	378,963	0,042	-0,062
-242,176	-200,000	0,019	0,085
-241,161	113,186	0,084	0,072
-240,146	-200,000	0,014	0,159
-239,132	-94,683	-0,023	0,004
-238,117	138,351	0,056	0,053
-237,103	189,385	0,018	-0,019
-236,088	-200,000	-0,019	0,088
-235,073	1,082	-0,117	-0,060
-234,059	-200,000	-0,001	0,054
-233,044	-200,000	-0,011	-0,045
-232,030	-200,000	0,049	-0,213
-231,015	179,754	-0,028	0,029
-230,000	-200,000	-0,029	-0,106
-228,986	52,465	-0,026	0,017
-227,971	517,870	-0,082	0,137
-226,957	-200,000	-0,006	0,040
-225,942	39,978	0,046	-0,029
-224,927	40,151	-0,114	0,073
-223,913	-200,000	0,009	-0,113
-222,898	53,730	-0,153	-0,105
-221,884	135,379	-0,045	-0,042
-220,869	12,515	0,098	-0,054
-219,855	-200,000	0,010	0,042
-218,840	39,637	0,199	0,127
-217,825	408,056	0,044	-0,066
-216,811	-197,797	-0,059	-0,000
-215,796	293,251	0,037	-0,048
-214,782	-29,482	-0,090	0,037
-213,767	-95,663	0,047	-0,009
-212,752	42,661	0,101	-0,065
-211,738	-200,000	0,020	0,122
-210,723	-200,000	-0,028	0,000
-209,709	163,795	0,004	0,004
-208,694	139,439	0,029	0,028
-207,679	688,736	-0,068	-0,127
-206,665	-109,388	-0,027	-0,004
-205,650	-112,454	-0,111	0,016
-204,636	-15,514	0,188	0,085
-203,621	-200,000	0,010	0,138
-202,606	211,662	-0,049	0,055
-201,592	144,193	-0,010	0,010
-200,577	168,809	-0,085	-0,086
-199,563	-200,000	-0,008	-0,029
-198,548	-29,745	0,044	-0,018
-197,533	800,000	0,005	-0,013
-196,519	-200,000	-0,000	-0,024
-195,504	196,275	0,076	0,083
-194,490	146,944	0,021	-0,020
-193,475	-200,000	-0,007	-0,127
-192,460	-110,839	0,043	-0,006
-191,446	800,000	-0,044	0,096
-190,431	-55,291	0,094	-0,030
-189,417	328,506	-0,040	0,055
-188,402	-200,000	-0,033	-0,111
-187,387	-97,231	-0,017	0,003
-186,373	729,419	-0,037	-0,071
-185,358	-14,327	-0,079	-0,036
-184,344	-200,000	-0,014	-0,057
-183,329	-200,000	0,032	0,120
-182,315	-84,344	0,156	0,035
-181,300	235,266	-0,013	0,015
-180,285	-200,000	-0,001	0,112
-179,271	800,000	-0,021	-0,050
-178,256	-36,547	-0,071	-0,027
-177,242	-49,785	0,121	0,041
-176,227	114,455	0,040	0,035
-175,212	-162,815	0,097	-0,003
-174,198	75,668	-0,155	0,116
-173,183	800,000	0,020	0,062
-172,169	-200,000	-0,012	-0,043
-171,154	-200,000	0,017	0,056
-170,139	75,770	0,104	-0,079
-169,125	743,779	-0,021	0,040
-168,110	-165,984	-0,113	-0,003
-167,096	800,000	0,038	-0,076
-166,081	-50,868	-0,048	-0,016
-165,066	-21,548	-0,027	-0,012
-164,052	-200,000	0,003	-0,026
-163,037	228,062	0,111	0,129
-162,023	-33,715	0,073	0,028
-161,008	-41,977	0,137	0,050
-159,993	-58,061	-0,084	-0,026
-158,979	165,695	-0,020	0,020
-157,964	-72,993	-0,163	-0,042
-156,950	-200,000	-0,010	0,191
-155,935	-200,000	0,050	0,199
-154,920	-77,716	-0,171	-0,042
-153,906	306,026	-0,016	0,021
-152,891	-11,358	-0,059	-0,028
-151,877	800,000	-0,029	0,070
-150,862	-5,374	0,069	0,034
-149,847	140,905	-0,028	-0,026
-148,833	-200,000	0,009	-0,066
-147,818	-200,000	-0,021	0,150
-146,804	16,917	0,113	-0,063
-145,789	-97,947	0,087	0,016
-144,775	-8,149	-0,068	-0,033
-143,760	56,921	-0,098	-0,068
-142,745	55,781	-0,050	-0,034
-141,731	800,000	-0,030	-0,075
-140,716	-95,390	0,008	0,001
-139,702	484,517	0,045	0,073
-138,687	-13,699	-0,036	-0,016
-137,672	-91,137	-0,008	0,002
-136,658	-200,000	-0,017	-0,143
-135,643	52,829	-0,084	0,057
-134,629	166,548	0,069	-0,069
-133,614	526,509	0,025	-0,042
-132,599	360,251	0,059	0,084
-131,585	-30,184	0,112	-0,045
-130,570	-56,167	0,099	-0,031
-129,556	-67,971	-0,037	0,010
-128,541	94,585	0,071	-0,057
-127,526	205,944	-0,116	-0,129
-126,512	-200,000	0,012	0,041
-125,497	361,582	0,051	0,073
-124,483	800,000	0,061	0,156
-123,468	800,000	0,055	-0,120
-122,453	93,415	-0,065	-0,052
-121,439	-200,000	-0,000	0,104
-120,424	44,150	-0,089	-0,058
-119,410	1,805	-0,009	0,004
-118,395	-200,000	0,010	0,037
-117,380	-200,000	0,018	0,067
-116,366	82,664	0,094	0,073
-115,351	-9,659	-0,116	0,055
-114,337	107,688	0,062	0,053
-113,322	328,205	0,052	-0,071
-112,307	302,807	-0,025	-0,033
-111,293	-200,000	0,029	0,109
-110,278	-200,000	0,015	0,175
-109,264	-200,000	-0,055	0,000
-108,249	-200,000	-0,003	0,053
-107,234	31,579	-0,071	0,043
-106,220	800,000	0,053	0,143
-105,205	-90,469	0,098	0,020
-104,191	-200,000	-0,013	0,117
-103,176	800,000	0,049	0,098
-102,162	2,644	0,080	0,041
-101,147	-200,000	-0,019	0,079
-100,132	-74,516	-0,114	-0,029
-99,118	-200,000	0,010	0,073
-98,103	-200,000	-0,015	-0,131
-97,089	162,697	0,121	-0,120
-96,074	-200,000	-0,017	0,118
-95,059	98,320	-0,094	0,077
-94,045	-200,000	0,011	-0,098
-93,030	244,802	-0,083	0,100
-92,016	-146,052	-0,160	0,010
-91,001	800,000	0,020	-0,044
-89,986	-22,504	-0,086	-0,037
-88,972	-200,000	0,010	-0,096
-87,957	184,500	-0,043	-0,045
-86,943	508,772	-0,064	-0,106
-85,928	-200,000	0,024	-0,093
-84,913	-96,297	0,056	-0,011
-83,899	40,958	-0,119	0,076
-82,884	-10,388	-0,054	0,025
-81,870	353,967	0,057	0,081
-80,855	-74,282	-0,097	-0,025
-79,840	-200,000	-0,019	0,061
-78,826	-109,019	-0,078	-0,012
-77,811	-200,000	0,042	0,142
-76,797	457,561	-0,027	0,042
-75,782	800,000	0,031	-0,080
-74,767	314,773	0,069	0,093
-73,753	147,532	-0,013	-0,012
-72,738	59,802	-0,032	-0,023
-71,724	-200,000	0,006	-0,024
-70,709	800,000	-0,015	-0,032
-69,694	59,041	-0,028	-0,019
-68,680	-200,000	0,016	0,059
-67,665	-189,268	0,043	0,000
-66,651	195,861	0,094	-0,102
-65,636	-200,000	-0,013	-0,111
-64,622	-38,959	0,215	-0,080
-63,607	-200,000	0,001	0,068
-62,592	-51,088	0,083	0,028
-61,578	-200,000	0,036	-0,129
-60,563	161,444	-0,044	0,043
-59,549	800,000	-0,026	-0,059
-58,534	-55,062	-1,439	-0,457
-57,519	360,838	-1,486	-2,117
-56,505	-200,000	-0,439	-4,431
-55,490	113,525	0,882	0,759
-54,476	800,000	4,751	11,220
-53,461	-200,000	17,770	282,286
-52,446	800,000	720,658	2223,843
-51,432	560,968	1634,797	2812,044
-50,417	80,812	1658,154	1266,461
-49,403	23,689	1532,271	892,116
-48,388	17,625	1455,919	818,416
-47,373	18,189	1445,195	815,062
-46,359	17,809	1435,829	807,938
-45,344	15,965	1431,178	796,521
-44,330	15,893	1429,242	795,069
-43,315	15,943	1427,519	794,320
-42,300	15,923	1425,826	793,251
-41,286	15,957	1424,669	792,735
-40,271	15,909	1423,375	791,755
-39,257	15,860	1422,181	790,829
-38,242	15,927	1420,852	790,375
-37,227	15,990	1419,654	789,976
-36,213	15,916	1418,390	788,893
-35,198	15,893	1417,214	788,098
-34,184	15,964	1416,237	787,858
-33,169	15,880	1414,982	786,731
-32,154	15,901	1414,068	786,291
-31,140	15,940	1412,624	785,644
-30,125	15,980	1411,486	785,167
-29,111	15,932	1410,319	784,261
-28,096	15,927	1409,185	783,574
-27,082	15,873	1408,272	782,784
-26,067	15,862	1406,957	781,970
-25,052	15,855	1406,020	781,385
-24,038	15,834	1405,020	780,699
-23,023	15,808	1404,015	779,989
-22,009	15,844	1403,015	779,573
-20,994	15,779	1402,154	778,761
-19,979	15,769	1401,130	778,115
-18,965	15,782	1400,122	777,584
-17,950	15,768	1399,059	776,895
-16,936	15,800	1398,046	776,454
-15,921	15,764	1396,685	775,497
-14,906	15,766	1395,961	775,076
-13,892	15,810	1394,973	774,698
-12,877	15,764	1394,277	774,071
-11,863	15,761	1393,329	773,499
-10,848	15,778	1392,379	773,019
-9,833	15,733	1391,367	772,218
-8,819	15,684	1390,533	771,497
-7,804	15,625	1389,677	770,722
-6,790	15,643	1388,529	770,136
-5,775	15,669	1387,427	769,614
-4,760	15,659	1386,751	769,162
-3,746	15,640	1385,971	768,613
-2,731	15,634	1385,168	768,109
-1,717	15,611	1384,336	767,509
-0,702	15,628	1382,268	766,412
0,313	19,390	1303,076	739,860
1,327	35,678	706,146	438,655
2,342	54,433	125,091	85,233
3,356	3,239	16,551	8,503
4,371	14,043	3,091	1,699
5,386	48,439	0,468	0,310
6,400	104,008	0,062	0,051
7,415	14,386	-0,293	-0,162
8,429	236,862	-0,215	-0,253
9,444	148,180	-0,256	-0,244
10,459	-8,378	-0,489	-0,232
11,473	77,066	-0,376	-0,282
12,488	13,524	-0,304	-0,166
13,502	38,971	-0,289	-0,182
14,517	85,337	-0,328	-0,255
15,531	123,684	-0,390	-0,346
16,546	-15,659	-0,566	-0,254
17,561	518,542	-0,193	-0,320
18,575	186,991	-0,196	-0,207
19,590	202,285	-0,241	-0,263
20,604	29,762	-0,256	-0,154
21,619	78,306	-0,540	-0,407
22,634	76,207	-0,489	-0,366
23,648	124,013	-0,501	-0,445
24,663	33,263	-0,495	-0,303
25,677	3,047	-0,372	-0,191
26,692	93,705	-0,346	-0,277
27,707	192,721	-0,325	-0,347
28,721	46,269	-0,496	-0,324
29,736	31,224	-0,441	-0,267
30,750	30,098	-0,395	-0,238
31,765	38,217	-0,370	-0,232
32,780	255,871	-0,349	-0,424
33,794	24,014	-0,413	-0,240
34,809	383,075	-0,246	-0,359
35,823	-5,063	-0,366	-0,178
36,838	18,237	-0,404	-0,227
37,853	128,328	-0,371	-0,334
38,867	186,900	-0,358	-0,377
39,882	27,519	-0,305	-0,181
40,896	-35,831	-0,332	-0,126
41,911	162,957	-0,291	-0,289
42,926	20,454	-0,322	-0,183
43,940	95,195	-0,363	-0,292
44,955	281,337	-0,268	-0,339
45,969	63,638	-0,260	-0,184
46,984	-0,411	-0,302	-0,151
47,999	171,233	-0,292	-0,296
49,013	240,450	-0,297	-0,350
50,028	143,515	-0,252	-0,236
51,042	131,101	-0,290	-0,263
52,057	155,538	-0,354	-0,344
53,071	101,515	-0,438	-0,360
54,086	141,863	-0,247	-0,231
55,101	-16,339	-0,427	-0,190
56,115	25,698	-0,257	-0,151
57,130	-61,814	-0,319	-0,094
58,144	23,969	-0,425	-0,247
59,159	287,285	-0,235	-0,301
60,174	12,110	-0,417	-0,225
61,188	134,813	-0,379	-0,347
62,203	-6,853	-0,295	-0,141
63,217	103,791	-0,230	-0,190
64,232	-28,040	-0,346	-0,140
65,247	93,487	-0,396	-0,316
66,261	182,288	-0,303	-0,315
67,276	68,202	-0,355	-0,256
68,290	-27,279	-0,303	-0,124
69,305	86,614	-0,333	-0,258
70,320	68,748	-0,394	-0,285
71,334	100,040	-0,262	-0,213
72,349	6,298	-0,247	-0,129
73,363	149,231	-0,297	-0,283
74,378	63,618	-0,230	-0,163
75,393	30,267	-0,301	-0,180
76,407	171,212	-0,304	-0,307
77,422	94,383	-0,241	-0,193
78,436	105,943	-0,312	-0,260
79,451	33,642	-0,255	-0,155
80,466	142,917	-0,213	-0,199
81,480	55,027	-0,251	-0,170
82,495	418,418	-0,206	-0,310
83,509	163,473	-0,243	-0,240
84,524	-29,302	-0,268	-0,107
85,539	41,174	-0,236	-0,150
86,553	-13,872	-0,258	-0,117
87,568	287,921	-0,269	-0,343
88,582	71,660	-0,278	-0,203
89,597	-83,903	-0,255	-0,057
90,611	5,392	-0,244	-0,126
91,626	-3,379	-0,228	-0,111
92,641	38,612	-0,238	-0,149
93,655	-39,542	-0,329	-0,121
94,670	-53,726	-0,361	-0,115
95,684	99,618	-0,305	-0,248
96,699	-62,558	-0,319	-0,092
97,714	-93,015	-0,318	-0,062
98,728	110,364	-0,335	-0,283
99,743	-29,492	-0,419	-0,167
100,757	-18,222	-0,360	-0,158
101,772	3,352	-0,337	-0,172
102,787	93,584	-0,280	-0,223
103,801	266,150	-0,256	-0,314
104,816	86,214	-0,260	-0,201
105,830	457,809	-0,128	-0,201
106,845	16,287	-0,187	-0,103
107,860	7,394	-0,241	-0,126
108,874	140,532	-0,288	-0,267
109,889	240,882	-0,289	-0,339
110,903	510,981	-0,223	-0,366
111,918	39,927	-0,359	-0,226
112,933	156,461	-0,260	-0,252
113,947	58,514	-0,353	-0,243
114,962	58,238	-0,310	-0,213
115,976	-27,546	-0,210	-0,085
116,991	40,763	-0,192	-0,121
118,006	148,751	-0,240	-0,227
119,020	361,106	-0,217	-0,306
120,035	-17,777	-0,221	-0,097
121,049	143,142	-0,221	-0,206
122,064	2,132	-0,258	-0,130
123,079	-69,464	-0,195	-0,052
124,093	10,673	-0,264	-0,141
125,108	27,282	-0,242	-0,142
126,122	565,933	-0,198	-0,338
127,137	-61,242	-0,304	-0,089
128,151	589,529	-0,149	-0,258
129,166	-32,173	-0,347	-0,135
130,181	125,479	-0,267	-0,236
131,195	800,000	-0,128	-0,296
132,210	-6,345	-0,237	-0,113
133,224	800,000	-0,111	-0,308
134,239	149,428	-0,194	-0,184
135,254	-46,567	-0,315	-0,108
136,268	60,140	-0,302	-0,209
137,283	431,580	-0,186	-0,283
138,297	15,589	-0,386	-0,211
139,312	311,518	-0,232	-0,306
140,327	241,539	-0,271	-0,317
141,341	47,029	-0,259	-0,168
142,356	509,449	-0,125	-0,204
143,370	387,006	-0,120	-0,174
144,385	30,510	-0,307	-0,183
145,400	-137,600	-0,272	-0,021
146,414	-9,635	-0,327	-0,152
147,429	173,059	-0,201	-0,203
148,443	800,000	-0,092	-0,194
149,458	297,869	-0,145	-0,186
150,473	95,412	-0,207	-0,165
151,487	-7,626	-0,300	-0,141
152,502	171,570	-0,269	-0,271
153,516	85,179	-0,182	-0,140
154,531	81,652	-0,253	-0,192
155,546	36,884	-0,222	-0,137
156,560	-70,506	-0,246	-0,065
157,575	-27,243	-0,221	-0,089
158,589	714,171	-0,129	-0,241
159,604	72,037	-0,221	-0,160
160,619	179,207	-0,226	-0,231
161,633	-59,919	-0,294	-0,087
162,648	713,637	-0,186	-0,346
163,662	-21,371	-0,187	-0,080
164,677	33,631	-0,147	-0,089
165,692	-77,752	-0,328	-0,078
166,706	148,418	-0,164	-0,155
167,721	42,831	-0,222	-0,141
168,735	15,942	-0,310	-0,170
169,750	239,226	-0,219	-0,255
170,764	0,983	-0,272	-0,136
171,779	14,348	-0,181	-0,098
172,794	560,950	-0,167	-0,282
173,808	88,097	-0,153	-0,118
174,823	105,040	-0,211	-0,174
175,837	-27,419	-0,308	-0,124
176,852	251,073	-0,188	-0,223
177,867	103,104	-0,180	-0,147
178,881	4,855	-0,255	-0,131
179,896	28,228	-0,224	-0,132
180,910	157,048	-0,245	-0,236
181,925	196,547	-0,257	-0,274
182,940	397,715	-0,167	-0,245
183,954	374,187	-0,209	-0,298
184,969	159,025	-0,255	-0,247
185,983	40,107	-0,124	-0,077
186,998	-83,556	-0,209	-0,046
188,013	184,113	-0,171	-0,176
189,027	67,120	-0,248	-0,176
190,042	96,491	-0,299	-0,238
191,056	282,845	-0,092	-0,116
192,071	130,433	-0,215	-0,192
193,086	45,860	-0,199	-0,128
194,100	800,000	-0,058	-0,122
195,115	192,062	-0,162	-0,170
196,129	126,969	-0,184	-0,162
197,144	283,099	-0,239	-0,300
198,159	211,614	-0,255	-0,280
199,173	-22,409	-0,265	-0,111
200,188	-38,774	-0,139	0,051
201,202	800,000	-0,032	-0,077
202,217	122,067	-0,143	-0,124
203,232	800,000	-0,091	-0,197
204,246	419,951	-0,237	-0,355
205,261	-19,379	-0,186	-0,080
206,275	173,129	-0,144	-0,145
207,290	-102,173	-0,293	-0,049
208,304	-100,947	-0,183	-0,031
209,319	22,173	-0,250	-0,142
210,334	-22,247	-0,199	-0,084
211,348	114,119	-0,210	-0,178
212,363	-2,323	-0,334	-0,162
213,377	-20,019	-0,136	-0,058
214,392	-172,852	-0,147	-0,003
215,407	-6,420	-0,131	-0,062
216,421	130,971	-0,153	-0,136
217,436	48,725	-0,236	-0,154
218,450	7,257	-0,201	-0,104
219,465	114,434	-0,154	-0,131
220,480	786,481	-0,134	-0,257
221,494	-91,113	-0,234	-0,046
222,509	-38,083	-0,158	-0,058
223,523	-200,000	0,006	-0,194
224,538	-64,360	-0,206	-0,058
225,553	79,527	-0,121	-0,090
226,567	26,716	-0,165	-0,096
227,582	-9,635	-0,209	-0,096
228,596	-57,069	-0,099	0,030
229,611	800,000	-0,115	-0,231
230,626	67,094	-0,210	-0,148
231,640	-84,367	-0,231	-0,050
232,655	-0,456	-0,265	-0,130
233,669	58,950	-0,257	-0,175
234,684	127,175	-0,198	-0,174
235,699	400,420	-0,111	-0,162
236,713	119,712	-0,247	-0,212
237,728	207,587	-0,147	-0,160
238,742	102,245	-0,214	-0,174
239,757	227,551	-0,137	-0,154
240,772	581,211	-0,085	-0,145
241,786	257,129	-0,229	-0,274
242,801	-77,357	-0,204	-0,049
243,815	-54,178	-0,130	-0,041
244,830	763,805	-0,069	-0,130
245,844	800,000	-0,071	-0,150
246,859	316,155	-0,175	-0,229
247,874	465,411	-0,175	-0,272
248,888	-200,000	-0,060	-0,244
249,903	-35,487	-0,197	-0,074
250,917	67,731	-0,172	-0,121
251,932	378,659	-0,088	-0,125
252,947	416,064	-0,147	-0,218
253,961	800,000	-0,095	-0,272
254,976	49,636	-0,307	-0,200
255,990	382,314	-0,041	0,059
257,005	-55,927	-0,083	-0,025
258,020	-62,402	-0,127	0,036
259,034	158,358	-0,168	-0,162
260,049	166,962	-0,236	-0,232
261,063	109,582	-0,105	-0,087
262,078	598,029	-0,122	-0,209
263,093	397,206	-0,092	-0,133
264,107	80,442	-0,214	-0,159
265,122	-117,782	-0,133	0,016
266,136	-21,962	-0,192	-0,080
267,151	-160,658	-0,120	0,004
268,166	53,798	-0,121	-0,081
269,180	293,271	-0,201	-0,254
270,195	50,003	-0,242	-0,158
271,209	110,944	-0,157	-0,131
272,224	92,471	-0,131	-0,103
273,239	-118,704	-0,145	0,018
274,253	70,754	-0,143	-0,102
275,268	54,888	-0,233	-0,156
276,282	-32,220	-0,110	-0,042
277,297	444,710	-0,145	-0,220
278,312	-44,495	-0,242	-0,083
279,326	401,829	-0,168	-0,245
280,341	88,675	-0,121	-0,093
281,355	77,371	-0,088	-0,065
282,370	-19,254	-0,296	-0,127
283,384	30,277	-0,219	-0,129
284,399	800,000	-0,070	-0,191
285,414	145,091	-0,151	-0,140
286,428	31,572	-0,089	-0,053
287,443	-122,886	-0,090	0,010
288,457	-99,631	-0,103	-0,018
289,472	-24,085	-0,139	-0,057
290,487	139,247	-0,263	-0,239
291,501	169,083	-0,145	-0,143
292,516	800,000	-0,092	-0,186
293,530	-137,859	-0,220	0,017
294,545	19,854	-0,088	-0,049
295,560	200,911	-0,131	-0,139
296,574	31,931	-0,118	-0,070
297,589	91,053	-0,166	-0,128
298,603	800,000	-0,071	-0,146
299,618	106,171	-0,097	-0,079
300,633	113,147	-0,056	-0,047
301,647	-104,064	-0,148	-0,024
302,662	302,776	-0,091	-0,116
303,676	175,560	-0,145	-0,145
304,691	249,224	-0,109	-0,128
305,706	201,305	-0,219	-0,232
306,720	-55,417	-0,226	-0,069
307,735	187,501	-0,080	-0,083
308,749	79,423	-0,099	-0,073
309,764	461,786	-0,118	-0,183
310,779	800,000	-0,069	-0,158
311,793	-133,549	-0,124	-0,011
312,808	21,288	-0,103	-0,057
313,822	93,342	-0,206	-0,160
314,837	24,311	-0,120	-0,068
315,852	427,331	-0,111	-0,165
316,866	-157,082	-0,083	0,003
317,881	206,278	-0,114	0,123
318,895	264,647	-0,134	-0,161
319,910	37,213	-0,187	-0,114
320,925	495,898	-0,125	-0,198
321,939	-66,960	-0,175	-0,047
322,954	74,492	-0,154	-0,112
323,968	-4,044	-0,104	0,050
324,983	3,711	-0,090	0,045
325,997	-75,698	-0,133	-0,032
327,012	167,123	-0,161	-0,157
328,027	326,948	-0,083	-0,110
329,041	258,944	-0,103	-0,123
330,056	39,948	-0,062	-0,039
331,070	800,000	-0,038	-0,092
332,085	28,168	-0,217	-0,126
333,100	-200,000	0,009	-0,097
334,114	233,655	-0,072	-0,082
335,129	328,576	-0,074	-0,099
336,143	45,514	-0,199	-0,126
337,158	-200,000	-0,007	-0,111
338,173	800,000	-0,054	-0,153
339,187	234,548	-0,066	-0,075
340,202	-200,000	0,021	-0,127
341,216	14,824	-0,125	0,067
342,231	115,702	-0,168	-0,141
343,246	48,748	-0,123	0,079
344,260	530,566	-0,093	-0,152
345,275	13,871	-0,165	-0,088
346,289	-108,172	-0,204	0,030
347,304	303,853	-0,114	-0,146
348,319	289,773	-0,120	-0,150
349,333	340,598	-0,144	-0,193
350,348	-85,022	-0,148	-0,032
351,362	281,611	-0,112	-0,138
352,377	481,856	-0,084	-0,131
353,392	800,000	-0,064	-0,133
354,406	-171,109	-0,082	0,002
355,421	208,626	1313,691	1413,178
356,435	160,537	1474,321	1413,710
