DTS Sentinel unit serial number:	SN410029Multiplexer serial number:	ORYXHardware model number:	OX2-SRSoftware version number:	ORYX F/W v4,00 Oryx Data Collector v3.7.2.0data status	okinstallation	B3 Nyhavnadifferential loss correction	single-endedforward channel	channel 1reverse channel	N/Adate	2023/12/03time	02:57:30forward acquisition time	300,00reverse acquisition time	0,00gamma	499,1914k internal	0,3201k external	0,3201temperature offset calibration	1,0000default loss term (dB/km)	0,3820temperature slope calibration	1,0000multiplexer offset coefficient	1,0000multiplexer slope coefficient	1,0000fibre end	0,00T internal ref (°C)	13,31T ext. ref 1 (°C)	-1,63T ext. ref 2 (°C)	-1,64length (m)	temperature (°C)	Stokes	anti-Stokes-744,400	91,828	-0,198	-0,162
-743,385	800,000	0,117	0,301
-742,371	138,050	-0,144	-0,138
-741,356	-200,000	-0,002	0,291
-740,342	-161,393	-0,241	0,009
-739,327	-200,000	-0,055	0,388
-738,312	129,050	-0,312	-0,290
-737,298	-200,000	0,036	0,311
-736,283	285,970	-0,268	-0,353
-735,269	-200,000	-0,091	0,306
-734,254	-20,950	-0,187	-0,083
-733,239	131,376	-0,205	0,192
-732,225	466,551	-0,174	-0,285
-731,210	-200,000	-0,037	0,208
-730,196	-200,000	0,001	-0,146
-729,181	-200,000	-0,046	-0,166
-728,167	-200,000	-0,006	-0,058
-727,152	659,166	-0,044	-0,083
-726,137	-27,932	-0,127	-0,053
-725,123	236,492	0,042	0,051
-724,108	-200,000	-0,016	-0,097
-723,094	254,382	-0,085	-0,106
-722,079	332,945	-0,149	-0,210
-721,064	-83,738	-0,201	-0,046
-720,050	-84,904	0,107	-0,024
-719,035	800,000	0,027	-0,070
-718,021	-200,000	0,000	-0,136
-717,006	-126,531	0,084	-0,009
-715,991	40,614	-0,214	-0,140
-714,977	31,276	-0,085	-0,053
-713,962	422,097	-0,036	-0,056
-712,948	-112,660	-0,050	-0,007
-711,933	800,000	-0,043	0,114
-710,918	217,400	0,032	0,037
-709,904	-40,665	-0,037	0,014
-708,889	53,841	0,099	0,069
-707,875	800,000	0,008	-0,024
-706,860	279,396	-0,046	0,059
-705,845	-200,000	-0,016	-0,115
-704,831	-200,000	0,042	0,190
-703,816	800,000	0,071	0,160
-702,802	-89,183	-0,157	-0,033
-701,787	-150,583	-0,064	0,003
-700,772	-9,090	-0,035	0,017
-699,758	-200,000	-0,023	0,105
-698,743	-51,861	-0,062	0,021
-697,729	95,762	0,124	0,102
-696,714	-123,704	-0,130	-0,015
-695,699	14,316	0,059	-0,033
-694,685	418,544	0,060	-0,093
-693,670	299,907	-0,050	-0,068
-692,656	-61,633	-0,138	-0,042
-691,641	-104,013	-0,064	0,011
-690,627	800,000	0,038	-0,106
-689,612	440,479	0,063	-0,100
-688,597	800,000	-0,025	0,050
-687,583	396,247	0,006	-0,010
-686,568	372,021	-0,065	-0,096
-685,554	-200,000	0,009	0,047
-684,539	23,262	-0,050	-0,029
-683,524	800,000	0,035	-0,077
-682,510	-104,777	0,114	-0,019
-681,495	31,202	-0,066	0,041
-680,481	-40,433	-0,154	-0,058
-679,466	-55,316	0,136	-0,044
-678,451	73,419	0,107	0,081
-677,437	-200,000	-0,038	-0,135
-676,422	-200,000	-0,011	0,086
-675,408	-2,175	-0,196	0,099
-674,393	147,613	0,087	0,085
-673,378	251,551	-0,071	-0,088
-672,364	-200,000	-0,054	-0,179
-671,349	768,882	0,023	-0,047
-670,335	-12,927	-0,086	0,040
-669,320	-120,831	0,185	0,022
-668,305	-200,000	0,005	0,151
-667,291	68,920	0,066	-0,049
-666,276	681,178	-0,097	-0,185
-665,262	100,911	-0,123	-0,104
-664,247	22,252	-0,087	-0,052
-663,232	100,088	0,037	-0,031
-662,218	-181,116	0,060	0,001
-661,203	800,000	0,030	-0,067
-660,189	58,542	-0,032	-0,023
-659,174	208,081	-0,110	0,125
-658,159	629,875	-0,024	0,045
-657,145	-92,844	-0,195	0,039
-656,130	60,710	-0,062	0,045
-655,116	800,000	0,038	-0,078
-654,101	-58,151	0,059	0,019
-653,086	237,307	-0,028	-0,034
-652,072	-29,392	-0,079	-0,033
-651,057	149,276	-0,041	0,040
-650,043	-200,000	0,002	0,039
-649,028	133,040	0,049	0,046
-648,014	800,000	-0,012	-0,036
-646,999	-17,391	0,139	0,063
-645,984	283,566	0,146	0,190
-644,970	-22,918	-0,162	-0,070
-643,955	-40,475	-0,018	-0,007
-642,941	202,099	0,095	-0,107
-641,926	598,215	-0,026	-0,047
-640,911	117,215	-0,081	-0,072
-639,897	800,000	-0,021	0,048
-638,882	-27,028	0,071	0,030
-637,868	-200,000	0,006	-0,067
-636,853	-88,511	0,069	0,015
-635,838	157,817	-0,120	0,121
-634,824	-200,000	-0,009	-0,048
-633,809	-35,697	-0,032	0,013
-632,795	800,000	0,072	-0,157
-631,780	36,306	0,057	0,036
-630,765	-6,261	0,079	0,039
-629,751	347,267	0,043	-0,061
-628,736	291,285	0,021	-0,028
-627,722	800,000	-0,058	-0,168
-626,707	800,000	0,061	-0,132
-625,692	465,540	0,047	-0,076
-624,678	800,000	-0,050	-0,104
-623,663	-200,000	-0,020	0,086
-622,649	38,012	-0,026	0,017
-621,634	725,523	-0,084	-0,162
-620,619	321,367	-0,050	-0,069
-619,605	-200,000	0,039	0,132
-618,590	-200,000	0,001	0,010
-617,576	-200,000	-0,032	-0,102
-616,561	-38,591	-0,037	0,014
-615,546	800,000	0,055	-0,112
-614,532	-53,666	-0,190	-0,062
-613,517	-129,407	-0,015	0,002
-612,503	-136,075	0,059	-0,005
-611,488	-116,955	0,129	-0,017
-610,474	800,000	0,062	0,129
-609,459	800,000	0,025	-0,064
-608,444	15,803	0,034	-0,019
-607,430	-200,000	0,027	-0,129
-606,415	167,037	0,027	0,027
-605,401	-62,629	-0,120	-0,036
-604,386	-200,000	0,006	-0,107
-603,371	-10,036	0,057	0,027
-602,357	-200,000	-0,005	0,068
-601,342	614,245	-0,067	-0,121
-600,328	-200,000	0,006	0,068
-599,313	800,000	0,031	-0,087
-598,298	-200,000	-0,009	-0,103
-597,284	-42,701	0,108	0,040
-596,269	-200,000	-0,042	0,148
-595,255	-200,000	0,035	0,115
-594,240	447,804	-0,037	-0,059
-593,225	-80,951	-0,180	0,043
-592,211	283,882	0,045	-0,058
-591,196	99,447	0,056	-0,047
-590,182	800,000	0,012	-0,025
-589,167	-108,850	-0,048	-0,007
-588,152	-0,208	-0,088	0,045
-587,138	-200,000	0,053	0,257
-586,123	-19,972	-0,025	-0,011
-585,109	-22,327	-0,195	-0,085
-584,094	-200,000	0,003	0,014
-583,079	196,045	-0,103	0,113
-582,065	487,024	-0,034	-0,057
-581,050	800,000	0,027	-0,054
-580,036	660,091	-0,018	0,033
-579,021	605,960	-0,024	-0,044
-578,006	8,267	0,073	-0,039
-576,992	1,877	-0,075	-0,039
-575,977	800,000	0,015	0,029
-574,963	800,000	0,059	0,175
-573,948	-19,237	-0,172	0,077
-572,934	-200,000	-0,026	-0,087
-571,919	-124,922	-0,031	-0,003
-570,904	123,698	0,040	-0,036
-569,890	-76,433	-0,040	0,010
-568,875	-128,125	-0,099	-0,010
-567,861	800,000	0,035	0,105
-566,846	-53,236	0,086	0,028
-565,831	-200,000	-0,042	0,186
-564,817	-200,000	-0,008	-0,052
-563,802	-200,000	0,004	0,148
-562,788	-200,000	0,009	-0,093
-561,773	800,000	-0,016	-0,036
-560,758	96,376	0,105	0,086
-559,744	-37,624	0,055	-0,021
-558,729	-51,014	-0,074	0,025
-557,715	-200,000	0,011	-0,050
-556,700	-200,000	-0,004	-0,076
-555,685	-200,000	-0,009	-0,058
-554,671	292,236	0,078	0,103
-553,656	-89,858	0,066	0,014
-552,642	-103,684	0,137	-0,023
-551,627	143,494	-0,076	0,073
-550,612	800,000	-0,056	0,140
-549,598	-33,527	0,105	-0,042
-548,583	800,000	0,042	-0,092
-547,569	27,203	-0,072	-0,044
-546,554	103,220	-0,099	0,084
-545,539	-200,000	0,027	0,170
-544,525	800,000	-0,018	0,040
-543,510	-200,000	-0,003	-0,069
-542,496	-136,462	0,047	-0,004
-541,481	-56,009	-0,084	-0,027
-540,466	76,445	-0,040	-0,030
-539,452	312,938	0,029	0,039
-538,437	-31,264	0,057	0,023
-537,423	62,070	0,105	-0,076
-536,408	87,494	-0,038	-0,030
-535,393	-131,459	-0,105	0,010
-534,379	-0,122	0,009	0,005
-533,364	-200,000	-0,001	-0,063
-532,350	-200,000	-0,007	-0,075
-531,335	186,334	0,061	-0,065
-530,321	185,755	0,027	0,029
-529,306	-128,561	-0,084	-0,008
-528,291	800,000	0,026	-0,079
-527,277	102,032	-0,029	0,024
-526,262	330,482	0,038	-0,053
-525,248	514,796	-0,056	0,095
-524,233	-200,000	0,001	-0,037
-523,218	103,675	0,084	0,071
-522,204	136,061	-0,027	-0,026
-521,189	274,991	0,050	0,064
-520,175	800,000	-0,028	-0,083
-519,160	-65,486	0,083	0,024
-518,145	-166,691	0,048	0,001
-517,131	-139,944	-0,107	0,008
-516,116	83,034	0,063	-0,050
-515,102	268,367	0,018	0,023
-514,087	-31,343	-0,179	-0,072
-513,072	422,462	-0,039	0,061
-512,058	-200,000	0,005	-0,099
-511,043	-22,425	-0,089	0,039
-510,029	-138,380	0,092	0,007
-509,014	442,620	0,023	0,037
-507,999	23,262	0,064	-0,038
-506,985	-200,000	-0,019	-0,092
-505,970	800,000	-0,026	0,065
-504,956	-38,834	-0,064	0,024
-503,941	-141,458	-0,114	-0,008
-502,926	-49,619	0,139	0,047
-501,912	-200,000	0,052	0,174
-500,897	-200,000	-0,012	0,068
-499,883	-200,000	-0,005	-0,134
-498,868	800,000	0,066	-0,136
-497,853	124,894	-0,077	-0,070
-496,839	251,619	0,097	0,119
-495,824	-22,745	0,038	-0,016
-494,810	-42,703	-0,099	0,036
-493,795	-197,741	-0,074	0,000
-492,781	-34,587	0,091	-0,036
-491,766	-200,000	0,014	-0,059
-490,751	-57,710	-0,012	-0,004
-489,737	384,787	-0,076	-0,112
-488,722	419,153	0,089	0,138
-487,708	302,589	0,090	0,120
-486,693	-71,229	-0,071	0,019
-485,678	-200,000	0,001	-0,004
-484,664	-57,421	-0,092	-0,029
-483,649	416,578	0,066	-0,102
-482,635	-85,752	0,061	0,013
-481,620	75,777	-0,074	0,056
-480,605	228,269	-0,045	-0,053
-479,591	-200,000	-0,002	0,105
-478,576	-200,000	-0,018	0,124
-477,562	-200,000	0,016	-0,098
-476,547	67,753	-0,026	0,019
-475,532	509,436	0,042	0,071
-474,518	800,000	0,096	-0,214
-473,503	84,316	0,102	-0,081
-472,489	490,572	0,029	-0,048
-471,474	-200,000	-0,031	-0,102
-470,459	-200,000	-0,004	0,015
-469,445	6,779	-0,049	0,026
-468,430	-172,454	-0,074	0,002
-467,416	159,004	-0,120	-0,120
-466,401	60,361	0,113	0,081
-465,386	-200,000	0,003	0,121
-464,372	434,502	-0,034	0,054
-463,357	800,000	0,030	0,062
-462,343	-103,580	-0,066	-0,011
-461,328	-52,331	-0,145	0,048
-460,313	150,676	0,065	0,064
-459,299	-200,000	0,002	0,087
-458,284	175,867	-0,128	0,134
-457,270	-4,551	0,017	-0,009
-456,255	800,000	0,015	-0,047
-455,241	-200,000	0,006	0,039
-454,226	62,066	-0,057	-0,041
-453,211	-200,000	-0,003	0,063
-452,197	317,608	0,071	-0,097
-451,182	-200,000	-0,016	0,053
-450,168	-134,471	-0,069	0,006
-449,153	-6,281	-0,105	0,052
-448,138	226,928	0,079	0,092
-447,124	800,000	-0,027	-0,076
-446,109	37,711	-0,085	-0,054
-445,095	-200,000	-0,003	-0,018
-444,080	154,983	0,119	-0,117
-443,065	-171,275	0,086	0,002
-442,051	44,213	0,113	0,074
-441,036	399,851	-0,019	0,029
-440,022	747,349	0,021	-0,041
-439,007	352,953	-0,014	0,021
-437,992	-12,175	0,067	0,031
-436,978	800,000	0,070	0,162
-435,963	-162,369	0,141	-0,005
-434,949	800,000	0,022	0,067
-433,934	800,000	-0,072	-0,144
-432,919	175,938	0,052	0,054
-431,905	225,492	-0,008	0,010
-430,890	652,693	0,050	-0,093
-429,876	-200,000	0,114	0,000
-428,861	232,118	0,056	0,066
-427,846	800,000	-0,054	-0,126
-426,832	695,037	0,025	0,048
-425,817	6,507	-0,065	-0,035
-424,803	-120,823	0,137	-0,016
-423,788	38,497	0,040	-0,025
-422,773	800,000	-0,010	-0,031
-421,759	246,686	0,092	0,112
-420,744	342,218	-0,036	-0,051
-419,730	-200,000	-0,006	-0,019
-418,715	756,735	-0,072	0,141
-417,701	800,000	0,016	0,039
-416,686	57,013	0,040	-0,028
-415,671	-89,411	-0,169	-0,035
-414,657	462,342	0,101	0,162
-413,642	-200,000	-0,038	0,120
-412,628	-200,000	0,015	-0,058
-411,613	-200,000	0,005	0,085
-410,598	-136,618	0,037	0,003
-409,584	456,034	0,026	0,041
-408,569	127,733	0,088	-0,081
-407,555	-200,000	-0,014	0,066
-406,540	40,956	-0,044	-0,028
-405,525	-200,000	0,000	0,023
-404,511	-94,317	-0,095	-0,018
-403,496	-200,000	-0,019	-0,077
-402,482	-100,313	-0,046	0,008
-401,467	29,247	0,081	-0,049
-400,452	-200,000	0,002	0,075
-399,438	-200,000	0,004	0,048
-398,423	315,274	-0,061	0,082
-397,409	55,820	-0,096	0,066
-396,394	661,922	-0,028	-0,053
-395,379	800,000	-0,015	-0,034
-394,365	-200,000	0,001	-0,010
-393,350	79,013	0,086	0,066
-392,336	-0,714	0,109	0,055
-391,321	13,236	0,022	0,012
-390,306	-148,803	0,094	0,005
-389,292	-105,683	0,097	-0,016
-388,277	2,030	-0,063	-0,033
-387,263	-8,941	-0,047	0,023
-386,248	31,152	-0,077	-0,047
-385,233	684,952	0,016	-0,030
-384,219	-200,000	0,019	0,140
-383,204	32,085	-0,173	-0,107
-382,190	123,229	-0,083	-0,075
-381,175	171,092	-0,052	0,053
-380,160	47,016	0,102	-0,068
-379,146	531,475	0,070	-0,120
-378,131	104,378	-0,066	0,056
-377,117	56,883	-0,026	-0,018
-376,102	-19,799	-0,083	0,037
-375,088	77,375	0,049	0,037
-374,073	-67,781	-0,136	-0,038
-373,058	-22,151	0,067	0,029
-372,044	567,356	-0,025	-0,043
-371,029	7,953	-0,019	0,010
-370,015	-59,750	0,131	-0,040
-369,000	111,065	-0,033	-0,028
-367,985	-0,401	-0,122	-0,062
-366,971	106,219	0,039	0,033
-365,956	1,915	-0,090	0,046
-364,942	800,000	0,025	0,064
-363,927	534,088	0,066	-0,113
-362,912	114,276	-0,082	0,072
-361,898	27,151	-0,098	-0,059
-360,883	-200,000	-0,006	-0,052
-359,869	-86,571	-0,068	-0,015
-358,854	-35,187	-0,141	-0,055
-357,839	-71,206	-0,031	0,008
-356,825	-161,123	0,175	0,006
-355,810	54,173	-0,034	0,023
-354,796	-200,000	0,011	-0,128
-353,781	-156,991	0,088	-0,004
-352,766	800,000	0,031	-0,088
-351,752	-125,537	0,205	-0,022
-350,737	-68,623	-0,034	-0,009
-349,723	800,000	0,053	0,116
-348,708	-13,016	-0,044	-0,020
-347,693	264,952	-0,016	-0,020
-346,679	-71,869	-0,048	0,013
-345,664	-69,160	-0,101	0,028
-344,650	43,522	-0,088	-0,058
-343,635	113,685	0,059	0,051
-342,620	-200,000	0,014	0,099
-341,606	800,000	0,037	-0,084
-340,591	-136,364	-0,122	-0,010
-339,577	-200,000	-0,006	-0,201
-338,562	-51,298	-0,034	0,011
-337,548	182,757	0,107	0,113
-336,533	800,000	0,027	0,070
-335,518	-200,000	-0,001	-0,052
-334,504	-200,000	0,012	0,204
-333,489	-200,000	0,020	-0,122
-332,475	-18,638	-0,109	-0,049
-331,460	41,157	-0,075	-0,049
-330,445	-112,599	0,049	0,007
-329,431	-174,526	0,151	0,003
-328,416	239,528	0,054	0,065
-327,402	-200,000	-0,016	0,102
-326,387	495,549	0,033	0,054
-325,372	800,000	-0,004	0,009
-324,358	-200,000	-0,046	-0,181
-323,343	800,000	-0,050	-0,154
-322,329	696,539	0,067	-0,127
-321,314	86,427	0,194	0,153
-320,299	-104,408	-0,033	0,005
-319,285	414,245	0,013	0,019
-318,270	144,235	-0,012	0,011
-317,256	-111,839	-0,087	0,013
-316,241	-200,000	-0,024	-0,099
-315,226	-200,000	-0,027	0,107
-314,212	223,930	0,078	-0,090
-313,197	-12,513	0,123	-0,057
-312,183	69,754	-0,111	0,081
-311,168	-200,000	0,000	-0,003
-310,153	194,326	0,077	-0,084
-309,139	-200,000	0,031	-0,112
-308,124	46,653	-0,118	0,078
-307,110	41,553	-0,070	0,045
-306,095	277,529	-0,079	0,101
-305,080	-103,961	0,085	-0,014
-304,066	-72,641	-0,096	-0,025
-303,051	10,809	-0,101	-0,055
-302,037	338,289	-0,026	0,036
-301,022	800,000	0,022	-0,063
-300,008	-140,557	0,027	0,002
-298,993	-200,000	-0,038	-0,184
-297,978	707,240	-0,041	-0,078
-296,964	800,000	0,059	-0,168
-295,949	800,000	-0,030	-0,091
-294,935	800,000	-0,007	0,016
-293,920	-35,815	0,053	0,020
-292,905	-124,202	0,082	-0,009
-291,891	-200,000	-0,002	0,024
-290,876	547,250	-0,039	0,067
-289,862	-200,000	-0,004	-0,099
-288,847	-200,000	0,002	-0,096
-287,832	78,524	-0,055	0,042
-286,818	-83,895	0,156	0,035
-285,803	264,058	-0,058	-0,072
-284,789	-200,000	0,039	0,167
-283,774	-169,861	-0,037	-0,001
-282,759	622,215	0,034	-0,061
-281,745	-147,248	0,111	-0,007
-280,730	-32,545	0,089	-0,035
-279,716	-16,198	0,043	-0,020
-278,701	158,419	0,062	-0,062
-277,686	800,000	0,023	0,063
-276,672	-200,000	0,018	-0,101
-275,657	66,737	-0,116	0,084
-274,643	-200,000	0,003	-0,029
-273,628	800,000	0,042	-0,090
-272,613	-174,005	-0,084	0,002
-271,599	508,727	-0,046	-0,077
-270,584	615,603	0,062	0,112
-269,570	-103,710	0,161	0,027
-268,555	-200,000	0,011	0,075
-267,540	-130,563	0,138	0,013
-266,526	381,083	0,049	0,072
-265,511	-168,659	0,099	0,003
-264,497	241,618	0,146	-0,175
-263,482	800,000	-0,027	-0,078
-262,467	109,761	-0,018	-0,015
-261,453	-47,157	0,139	-0,048
-260,438	-67,309	-0,060	0,017
-259,424	-200,000	-0,023	-0,102
-258,409	-166,107	0,026	-0,001
-257,395	-149,021	0,066	-0,004
-256,380	-168,117	-0,044	-0,001
-255,365	287,692	0,017	-0,022
-254,351	-200,000	-0,014	0,128
-253,336	-118,089	-0,118	-0,015
-252,322	800,000	-0,048	-0,117
-251,307	735,873	0,040	-0,077
-250,292	-200,000	-0,007	0,052
-249,278	800,000	-0,015	0,030
-248,263	95,549	0,067	-0,054
-247,249	800,000	-0,018	0,052
-246,234	-200,000	0,017	0,063
-245,219	-200,000	-0,009	0,104
-244,205	326,139	-0,026	0,036
-243,190	29,003	0,210	-0,127
-242,176	-70,018	0,119	0,032
-241,161	-89,351	0,105	0,022
-240,146	40,514	0,034	0,022
-239,132	-200,000	0,003	-0,026
-238,117	-36,414	0,051	-0,020
-237,103	102,434	-0,117	-0,097
-236,088	800,000	-0,018	-0,038
-235,073	155,840	0,039	-0,038
-234,059	44,488	0,087	0,057
-233,044	-129,843	0,092	-0,009
-232,030	254,679	-0,162	0,198
-231,015	-200,000	0,015	-0,133
-230,000	365,685	-0,040	-0,057
-228,986	-70,829	0,016	0,004
-227,971	-10,065	0,071	0,034
-226,957	-200,000	-0,006	0,066
-225,942	-200,000	-0,011	-0,042
-224,927	-36,678	-0,138	0,053
-223,913	495,849	0,020	-0,033
-222,898	43,021	-0,034	-0,022
-221,884	-0,539	0,065	0,033
-220,869	559,772	-0,043	-0,075
-219,855	-200,000	-0,039	0,139
-218,840	800,000	-0,013	0,036
-217,825	-200,000	-0,048	0,156
-216,811	-12,395	0,021	0,010
-215,796	-9,189	-0,080	0,038
-214,782	47,145	0,049	-0,033
-213,767	103,311	-0,089	-0,075
-212,752	-200,000	0,016	-0,057
-211,738	800,000	0,033	-0,066
-210,723	131,623	0,097	0,089
-209,709	-36,457	0,092	-0,035
-208,694	-200,000	-0,014	-0,143
-207,679	-100,988	-0,160	0,028
-206,665	-200,000	0,013	-0,093
-205,650	91,787	-0,077	0,061
-204,636	168,571	-0,055	0,056
-203,621	18,412	-0,080	0,046
-202,606	-170,328	0,051	-0,001
-201,592	397,967	-0,081	-0,121
-200,577	62,863	-0,134	-0,095
-199,563	-175,183	-0,079	-0,002
-198,548	-151,716	0,187	0,010
-197,533	67,686	-0,081	0,059
-196,519	265,459	-0,053	0,066
-195,504	-43,448	-0,106	-0,038
-194,490	-31,897	-0,155	-0,061
-193,475	-200,000	-0,012	-0,175
-192,460	-200,000	-0,007	-0,031
-191,446	415,101	-0,063	0,095
-190,431	-30,060	0,026	0,011
-189,417	-200,000	0,018	-0,058
-188,402	7,207	-0,045	-0,024
-187,387	-55,599	-0,121	-0,038
-186,373	-74,661	-0,112	-0,028
-185,358	-106,433	0,205	0,032
-184,344	187,587	-0,005	0,005
-183,329	-23,863	0,136	0,058
-182,315	-200,000	0,002	0,102
-181,300	-200,000	0,007	0,159
-180,285	30,090	-0,122	0,074
-179,271	263,607	-0,080	0,099
-178,256	-200,000	-0,048	0,169
-177,242	-200,000	-0,050	0,216
-176,227	800,000	0,044	0,119
-175,212	132,342	0,030	0,027
-174,198	-180,914	0,043	-0,001
-173,183	235,163	-0,053	-0,062
-172,169	-63,861	0,076	-0,022
-171,154	67,901	-0,128	-0,093
-170,139	449,613	0,050	0,078
-169,125	-200,000	0,002	0,126
-168,110	800,000	0,022	0,068
-167,096	-153,104	-0,031	0,002
-166,081	239,977	-0,051	0,061
-165,066	800,000	-0,040	-0,096
-164,052	-67,138	-0,091	-0,025
-163,037	-200,000	0,011	0,084
-162,023	134,393	0,143	0,132
-161,008	-200,000	0,023	0,088
-159,993	21,713	-0,092	0,053
-158,979	-200,000	-0,010	-0,112
-157,964	-200,000	0,005	-0,050
-156,950	287,045	0,074	0,095
-155,935	800,000	-0,025	0,054
-154,920	306,995	0,057	0,076
-153,906	620,168	0,022	0,039
-152,891	-113,436	-0,021	0,003
-151,877	-200,000	0,009	-0,191
-150,862	189,655	-0,018	-0,019
-149,847	214,111	-0,071	-0,080
-148,833	80,682	-0,107	0,082
-147,818	-92,151	0,076	-0,015
-146,804	495,460	0,064	-0,105
-145,789	558,293	0,017	0,030
-144,775	-44,656	-0,154	-0,054
-143,760	-57,378	-0,071	-0,022
-142,745	287,874	-0,089	-0,115
-141,731	-200,000	0,001	0,094
-140,716	-200,000	-0,017	0,062
-139,702	-84,091	0,099	0,022
-138,687	-16,041	0,123	-0,055
-137,672	309,803	-0,093	0,123
-136,658	-125,329	-0,159	-0,017
-135,643	177,303	0,094	0,097
-134,629	683,508	0,013	0,024
-133,614	-51,435	0,102	0,034
-132,599	264,472	0,062	0,077
-131,585	13,662	-0,047	-0,026
-130,570	-200,000	-0,005	0,108
-129,556	43,189	-0,088	-0,057
-128,541	409,972	-0,120	-0,181
-127,526	273,746	0,066	-0,083
-126,512	-72,093	0,073	0,019
-125,497	-200,000	0,011	0,077
-124,483	116,312	0,109	0,095
-123,468	-200,000	0,018	0,103
-122,453	267,054	-0,021	-0,026
-121,439	800,000	-0,029	-0,083
-120,424	800,000	-0,022	0,050
-119,410	-114,810	0,069	0,009
-118,395	453,873	0,062	-0,098
-117,380	15,999	-0,070	0,039
-116,366	587,681	-0,064	0,112
-115,351	556,468	0,035	0,061
-114,337	20,691	-0,130	-0,075
-113,322	186,394	0,011	-0,012
-112,307	-30,335	-0,111	0,045
-111,293	7,535	0,037	0,020
-110,278	-113,222	0,131	-0,018
-109,264	-84,829	-0,118	-0,026
-108,249	167,423	-0,033	0,033
-107,234	-140,728	-0,125	-0,009
-106,220	80,389	-0,061	-0,046
-105,205	-141,517	0,132	0,009
-104,191	55,658	0,088	-0,060
-103,176	229,465	0,127	0,148
-102,162	91,494	-0,086	0,068
-101,147	-200,000	-0,025	-0,111
-100,132	49,812	-0,075	-0,050
-99,118	-15,164	0,089	0,040
-98,103	-200,000	0,021	-0,081
-97,089	-27,128	0,046	-0,019
-96,074	452,502	0,052	0,081
-95,059	641,617	0,077	-0,140
-94,045	45,660	-0,112	-0,073
-93,030	51,789	0,060	-0,040
-92,016	49,461	0,022	-0,014
-91,001	-64,318	-0,021	-0,006
-89,986	800,000	-0,016	0,039
-88,972	-24,742	0,110	0,046
-87,957	-87,726	-0,024	0,005
-86,943	800,000	-0,017	0,036
-85,928	-162,149	0,062	0,002
-84,913	-125,962	0,092	-0,010
-83,899	640,489	0,024	0,043
-82,884	280,793	0,037	0,047
-81,870	-200,000	-0,001	0,049
-80,855	-70,331	-0,051	0,014
-79,840	-200,000	0,032	-0,104
-78,826	700,205	0,068	-0,127
-77,811	285,428	0,070	-0,090
-76,797	-76,564	0,061	0,015
-75,782	496,125	-0,015	0,025
-74,767	205,845	0,033	0,037
-73,753	-200,000	-0,008	-0,028
-72,738	21,182	0,082	0,047
-71,724	-48,369	-0,138	0,047
-70,709	-200,000	-0,010	0,060
-69,694	-121,371	0,057	-0,007
-68,680	164,504	0,072	0,072
-67,665	86,907	0,109	-0,085
-66,651	-131,690	0,116	-0,011
-65,636	101,526	0,047	0,039
-64,622	-24,534	-0,053	-0,022
-63,607	-59,909	-0,131	-0,039
-62,592	-200,000	0,046	-0,195
-61,578	-200,000	0,012	-0,106
-60,563	-200,000	0,026	0,100
-59,549	-99,261	-0,054	0,009
-58,534	-29,237	-1,663	-0,672
-57,519	278,443	-1,533	-1,939
-56,505	-200,000	-0,604	-4,570
-55,490	126,226	1,062	0,952
-54,476	800,000	4,998	11,457
-53,461	-200,000	19,072	319,499
-52,446	-200,000	740,510	2333,527
-51,432	573,449	1655,342	2869,090
-50,417	78,296	1670,925	1261,846
-49,403	21,348	1543,717	885,754
-48,388	15,230	1466,121	811,486
-47,373	17,892	1456,606	819,055
-46,359	16,644	1446,136	807,150
-45,344	13,437	1441,568	789,209
-44,330	13,316	1440,090	787,789
-43,315	13,343	1437,966	786,724
-42,300	13,390	1436,262	785,982
-41,286	13,393	1435,202	785,388
-40,271	13,330	1433,833	784,308
-39,257	13,361	1432,357	783,615
-38,242	13,402	1431,094	783,089
-37,227	13,410	1429,995	782,495
-36,213	13,422	1428,837	781,885
-35,198	13,419	1427,560	781,141
-34,184	13,455	1426,587	780,751
-33,169	13,374	1425,263	779,612
-32,154	13,435	1424,079	779,221
-31,140	13,456	1422,789	778,583
-30,125	13,444	1421,782	777,946
-29,111	13,409	1420,789	777,205
-28,096	13,416	1419,719	776,623
-27,082	13,336	1418,572	775,587
-26,067	13,336	1417,464	774,952
-25,052	13,359	1416,327	774,408
-24,038	13,318	1415,328	773,637
-23,023	13,331	1414,164	773,033
-22,009	13,350	1413,205	772,565
-20,994	13,273	1412,437	771,753
-19,979	13,326	1411,618	771,525
-18,965	13,295	1410,487	770,729
-17,950	13,284	1409,674	770,203
-16,936	13,280	1408,755	769,650
-15,921	13,218	1407,637	768,718
-14,906	13,246	1406,563	768,232
-13,892	13,225	1405,810	767,692
-12,877	13,226	1404,939	767,192
-11,863	13,314	1403,835	766,967
-10,848	13,205	1403,128	766,044
-9,833	13,180	1402,373	765,485
-8,819	13,127	1401,649	764,814
-7,804	13,146	1400,622	764,311
-6,790	13,174	1399,427	763,757
-5,775	13,205	1398,377	763,301
-4,760	13,155	1397,465	762,537
-3,746	13,149	1396,569	761,993
-2,731	13,152	1395,895	761,609
-1,717	13,140	1394,959	761,012
-0,702	13,117	1393,004	759,809
0,313	16,966	1309,947	732,335
1,327	33,260	703,639	431,028
2,342	51,156	123,426	82,711
3,356	0,179	16,728	8,412
4,371	5,476	3,276	1,706
5,386	-26,971	0,649	0,267
6,400	-200,000	-0,016	0,278
7,415	21,101	-0,294	-0,168
8,429	-66,695	-0,355	-0,099
9,444	51,645	-0,294	-0,197
10,459	-34,648	-0,338	-0,130
11,473	14,917	-0,343	-0,189
12,488	-162,206	-0,360	-0,012
13,502	31,671	-0,298	-0,181
14,517	-7,813	-0,379	-0,180
15,531	26,454	-0,360	-0,212
16,546	15,240	-0,202	-0,112
17,561	112,905	-0,371	-0,317
18,575	18,782	-0,220	-0,124
19,590	14,546	-0,257	-0,141
20,604	48,147	-0,169	-0,111
21,619	21,169	-0,360	-0,206
22,634	116,232	-0,482	-0,417
23,648	-73,637	-0,540	-0,138
24,663	112,433	-0,329	-0,281
25,677	86,143	-0,368	-0,286
26,692	36,009	-0,319	-0,198
27,707	106,231	-0,403	-0,337
28,721	39,002	-0,291	-0,183
29,736	80,182	-0,323	-0,245
30,750	133,582	-0,391	-0,357
31,765	141,859	-0,397	-0,371
32,780	72,331	-0,333	-0,244
33,794	170,706	-0,292	-0,296
34,809	60,012	-0,359	-0,250
35,823	4,824	-0,357	-0,184
36,838	79,991	-0,364	-0,276
37,853	245,454	-0,264	-0,314
38,867	90,650	-0,306	-0,242
39,882	-14,454	-0,306	-0,138
40,896	33,939	-0,403	-0,247
41,911	198,464	-0,235	-0,254
42,926	108,633	-0,300	-0,252
43,940	20,741	-0,460	-0,262
44,955	251,838	-0,287	-0,345
45,969	18,372	-0,383	-0,215
46,984	-54,563	-0,420	-0,133
47,999	8,221	-0,385	-0,203
49,013	89,515	-0,227	-0,178
50,028	42,154	-0,416	-0,265
51,042	-5,932	-0,455	-0,219
52,057	52,556	-0,461	-0,310
53,071	10,443	-0,445	-0,238
54,086	286,646	-0,217	-0,277
55,101	29,831	-0,310	-0,185
56,115	80,600	-0,277	-0,210
57,130	76,383	-0,386	-0,288
58,144	-34,820	-0,509	-0,195
59,159	88,711	-0,424	-0,332
60,174	-37,424	-0,324	-0,121
61,188	12,866	-0,345	-0,187
62,203	-24,119	-0,390	-0,163
63,217	-73,014	-0,374	-0,096
64,232	80,803	-0,257	-0,195
65,247	44,668	-0,304	-0,196
66,261	185,991	-0,405	-0,425
67,276	-31,615	-0,374	-0,147
68,290	13,765	-0,544	-0,296
69,305	203,183	-0,267	-0,290
70,320	-10,156	-0,273	-0,127
71,334	208,698	-0,222	-0,244
72,349	-47,033	-0,313	-0,107
73,363	1,251	-0,257	-0,129
74,378	-31,895	-0,216	-0,085
75,393	-7,363	-0,419	-0,199
76,407	38,492	-0,342	-0,214
77,422	377,079	-0,144	-0,208
78,436	-38,285	-0,305	-0,113
79,451	68,517	-0,310	-0,223
80,466	10,634	-0,305	-0,163
81,480	-34,692	-0,265	-0,101
82,495	7,610	-0,397	-0,208
83,509	134,392	-0,206	-0,187
84,524	-117,561	-0,237	-0,030
85,539	18,770	-0,231	-0,130
86,553	66,777	-0,175	-0,125
87,568	11,902	-0,374	-0,201
88,582	84,821	-0,285	-0,219
89,597	-112,928	-0,243	-0,033
90,611	-82,999	-0,336	-0,075
91,626	-135,365	-0,300	-0,025
92,641	4,352	-0,274	-0,141
93,655	-90,749	-0,500	-0,100
94,670	-23,434	-0,289	-0,121
95,684	82,569	-0,255	-0,194
96,699	174,490	-0,258	-0,262
97,714	-62,673	-0,171	0,050
98,728	151,535	-0,199	-0,190
99,743	-32,491	-0,223	-0,087
100,757	243,018	-0,197	-0,232
101,772	18,708	-0,296	-0,166
102,787	45,439	-0,332	-0,215
103,801	-38,497	-0,361	-0,133
104,816	365,352	-0,165	-0,234
105,830	69,380	-0,284	-0,205
106,845	443,062	-0,113	-0,174
107,860	53,976	-0,237	-0,159
108,874	-74,948	-0,276	-0,069
109,889	-68,506	-0,374	-0,101
110,903	53,723	-0,325	-0,218
111,918	89,333	-0,281	-0,219
112,933	171,118	-0,131	-0,132
113,947	-17,995	-0,179	-0,078
114,962	-21,180	-0,319	-0,136
115,976	-25,771	-0,325	-0,133
116,991	63,240	-0,377	-0,264
118,006	-29,643	-0,356	-0,142
119,020	-38,315	-0,270	-0,100
120,035	14,377	-0,218	-0,119
121,049	-70,169	-0,280	-0,074
122,064	161,380	-0,329	-0,322
123,079	168,485	-0,251	-0,250
124,093	-49,725	-0,395	-0,131
125,108	84,319	-0,204	-0,156
126,122	70,822	-0,242	-0,175
127,137	106,089	-0,172	-0,143
128,151	-63,652	-0,301	-0,086
129,166	-110,873	-0,266	-0,038
130,181	-51,993	-0,398	-0,129
131,195	158,497	-0,176	-0,171
132,210	706,630	-0,190	-0,352
133,224	90,947	-0,203	-0,159
134,239	-165,834	-0,339	0,010
135,254	18,685	-0,234	-0,130
136,268	124,832	-0,200	-0,176
137,283	348,432	-0,199	-0,275
138,297	477,212	-0,186	-0,296
139,312	243,424	-0,254	-0,299
140,327	110,814	-0,323	-0,272
141,341	147,262	-0,234	-0,221
142,356	39,968	-0,266	-0,166
143,370	-43,679	-0,172	-0,060
144,385	-42,697	-0,223	-0,079
145,400	189,454	-0,191	-0,200
146,414	-89,418	-0,275	-0,056
147,429	155,860	-0,216	-0,208
148,443	254,455	-0,149	-0,178
149,458	-113,307	-0,298	-0,040
150,473	-88,716	-0,322	-0,066
151,487	80,693	-0,266	-0,200
152,502	-64,719	-0,370	-0,104
153,516	361,635	-0,174	-0,245
154,531	21,065	-0,381	-0,215
155,546	-13,342	-0,270	-0,122
156,560	-39,662	-0,140	-0,051
157,575	-9,831	-0,291	-0,135
158,589	69,980	-0,201	-0,145
159,604	129,520	-0,308	-0,275
160,619	130,230	-0,236	-0,211
161,633	368,249	-0,173	-0,245
162,648	800,000	-0,079	-0,179
163,662	23,803	-0,263	-0,151
164,677	129,000	-0,202	-0,179
165,692	-131,672	-0,196	-0,018
166,706	38,212	-0,348	-0,216
167,721	6,003	-0,267	-0,138
168,735	625,111	-0,116	-0,205
169,750	330,382	-0,145	-0,195
170,764	258,375	-0,181	-0,218
171,779	58,610	-0,188	-0,129
172,794	800,000	-0,075	-0,218
173,808	18,775	-0,246	-0,137
174,823	-93,781	-0,289	-0,055
175,837	60,554	-0,155	-0,107
176,852	185,898	-0,172	-0,178
177,867	7,372	-0,200	-0,104
178,881	-89,259	-0,297	-0,060
179,896	-69,853	-0,199	-0,053
180,910	-35,360	-0,248	-0,093
181,925	82,860	-0,249	-0,188
182,940	59,539	-0,402	-0,275
183,954	-54,478	-0,237	-0,074
184,969	-48,700	-0,221	-0,073
185,983	-48,048	-0,223	-0,075
186,998	-64,059	-0,183	-0,052
188,013	16,965	-0,205	-0,113
189,027	86,149	-0,208	-0,159
190,042	-15,137	-0,285	-0,127
191,056	6,629	-0,184	-0,095
192,071	23,020	-0,287	-0,163
193,086	154,753	-0,085	-0,081
194,100	197,622	-0,139	-0,148
195,115	398,622	-0,162	-0,237
196,129	-55,286	-0,244	-0,076
197,144	384,095	-0,153	-0,220
198,159	133,914	-0,143	-0,129
199,173	-123,240	-0,175	-0,019
200,188	-30,685	-0,158	-0,062
201,202	70,744	-0,275	-0,198
202,217	115,255	-0,209	-0,178
203,232	201,725	-0,162	-0,174
204,246	192,418	-0,233	-0,245
205,261	131,793	-0,155	-0,139
206,275	13,824	-0,304	-0,164
207,290	-91,038	-0,271	-0,054
208,304	227,175	-0,099	-0,112
209,319	52,968	-0,111	-0,074
210,334	98,024	-0,241	-0,193
211,348	185,370	-0,204	-0,210
212,363	-200,000	-0,055	-0,241
213,377	800,000	-0,051	-0,154
214,392	-156,889	-0,230	-0,010
215,407	15,610	-0,097	-0,053
216,421	-200,000	-0,004	-0,180
217,436	154,640	-0,232	-0,222
218,450	266,106	-0,227	-0,276
219,465	15,997	-0,244	-0,133
220,480	33,377	-0,240	-0,144
221,494	737,066	-0,112	-0,210
222,509	800,000	-0,101	-0,270
223,523	28,584	-0,074	-0,044
224,538	160,455	-0,085	-0,082
225,553	782,226	-0,111	-0,212
226,567	266,279	-0,140	-0,171
227,582	263,476	-0,065	-0,078
228,596	438,153	-0,123	-0,186
229,611	-105,898	-0,207	0,032
230,626	-128,693	-0,211	-0,020
231,640	231,913	-0,241	-0,274
232,655	-18,815	-0,154	-0,066
233,669	629,753	-0,069	-0,121
234,684	-14,479	-0,207	-0,092
235,699	21,057	-0,230	-0,129
236,713	-83,890	-0,197	0,043
237,728	-83,599	-0,305	-0,067
238,742	800,000	-0,079	-0,205
239,757	197,249	-0,204	-0,216
240,772	-26,039	-0,215	-0,087
241,786	90,070	-0,217	-0,168
242,801	-90,275	-0,173	0,034
243,815	-75,695	-0,145	-0,035
244,830	25,581	-0,105	-0,060
245,844	-200,000	-0,028	-0,178
246,859	59,009	-0,066	-0,045
247,874	170,121	-0,244	-0,242
248,888	143,298	-0,202	-0,186
249,903	13,345	-0,187	-0,100
250,917	-40,504	-0,025	0,009
251,932	401,813	-0,126	-0,183
252,947	-104,279	-0,052	0,008
253,961	800,000	-0,028	-0,075
254,976	-122,502	-0,122	-0,014
255,990	123,422	-0,193	-0,167
257,005	87,962	-0,292	-0,224
258,020	66,540	-0,163	-0,115
259,034	-132,408	-0,107	0,009
260,049	356,968	-0,082	-0,114
261,063	96,788	-0,118	-0,094
262,078	-0,611	-0,271	-0,132
263,093	102,231	-0,147	-0,118
264,107	13,360	-0,134	-0,071
265,122	120,572	-0,190	-0,163
266,136	-95,249	-0,158	-0,029
267,151	-18,707	-0,255	-0,109
268,166	-129,270	-0,304	-0,029
269,180	-21,799	-0,260	-0,109
270,195	-71,391	-0,234	-0,060
271,209	-42,749	-0,211	-0,074
272,224	800,000	-0,089	-0,209
273,239	-200,000	-0,010	-0,133
274,253	40,329	-0,201	-0,124
275,268	-75,045	-0,191	-0,047
276,282	300,442	-0,111	-0,142
277,297	122,275	-0,136	-0,117
278,312	800,000	-0,042	-0,112
279,326	82,212	-0,069	-0,051
280,341	-83,386	-0,146	-0,032
281,355	298,001	-0,120	-0,152
282,370	366,045	-0,172	-0,240
283,384	171,929	-0,098	-0,097
284,399	-24,203	-0,150	-0,062
285,414	88,037	-0,182	-0,139
286,428	63,861	-0,107	-0,074
287,443	-152,339	-0,185	0,009
288,457	-41,842	-0,210	-0,074
289,472	-185,717	-0,117	0,001
290,487	61,597	-0,288	-0,197
291,501	-61,155	-0,219	-0,063
292,516	104,755	-0,196	-0,159
293,530	49,235	-0,111	-0,072
294,545	469,803	-0,052	-0,081
295,560	213,438	-0,165	-0,180
296,574	23,693	-0,136	-0,077
297,589	167,695	-0,101	-0,099
298,603	800,000	-0,085	-0,192
299,618	-200,000	-0,018	-0,123
300,633	153,611	-0,123	-0,116
301,647	478,001	-0,037	-0,059
302,662	-22,482	-0,156	0,065
303,676	-97,904	-0,229	-0,040
304,691	-39,933	-0,247	-0,088
305,706	484,680	-0,133	-0,209
306,720	176,666	-0,119	-0,119
307,735	588,797	-0,039	-0,066
308,749	751,503	-0,095	-0,177
309,764	-200,000	0,002	0,037
310,779	-53,791	-0,042	0,013
311,793	24,628	-0,245	-0,139
312,808	263,079	-0,211	-0,253
313,822	243,748	-0,168	-0,194
314,837	128,484	-0,066	-0,058
315,852	93,434	-0,272	-0,212
316,866	-127,540	-0,158	-0,016
317,881	-43,699	-0,119	0,041
318,895	-38,972	-0,122	-0,044
319,910	-26,491	-0,118	-0,047
320,925	230,186	-0,172	-0,193
321,939	-13,363	-0,081	-0,036
322,954	-40,441	-0,171	0,061
323,968	14,963	-0,097	0,052
324,983	-6,006	-0,183	-0,086
325,997	213,765	-0,118	-0,129
327,012	254,226	-0,198	-0,233
328,027	43,171	-0,054	-0,034
329,041	-79,666	-0,171	-0,039
330,056	-95,701	-0,048	-0,009
331,070	-88,931	-0,061	-0,012
332,085	269,768	-0,157	-0,190
333,100	-44,723	-0,062	0,021
334,114	231,709	-0,123	-0,139
335,129	-15,112	-0,282	-0,124
336,143	26,476	-0,198	-0,114
337,158	116,411	-0,066	-0,056
338,173	143,463	-0,076	-0,070
339,187	145,984	-0,095	-0,088
340,202	-3,827	-0,090	-0,043
341,216	-16,411	-0,259	-0,112
342,231	185,655	-0,111	-0,113
343,246	800,000	-0,086	-0,188
344,260	-82,925	-0,087	-0,019
345,275	229,448	-0,084	-0,094
346,289	112,653	-0,020	-0,017
347,304	-200,000	-0,002	0,035
348,319	5,381	-0,251	-0,127
349,333	113,978	-0,213	-0,178
350,348	165,941	-0,114	-0,111
351,362	-30,459	-0,129	-0,050
352,377	293,284	-0,064	0,081
353,392	16,573	-0,184	-0,100
354,406	-136,019	-0,178	-0,014
355,421	209,355	1312,750	1412,641
356,435	161,123	1473,249	1413,139
