DTS Sentinel unit serial number:	SN410029Multiplexer serial number:	ORYXHardware model number:	OX2-SRSoftware version number:	ORYX F/W v4,00 Oryx Data Collector v3.7.2.0data status	okinstallation	B3 Nyhavnadifferential loss correction	single-endedforward channel	channel 1reverse channel	N/Adate	2023/12/04time	03:42:30forward acquisition time	300,00reverse acquisition time	0,00gamma	499,1914k internal	0,3205k external	0,3205temperature offset calibration	1,0000default loss term (dB/km)	0,3820temperature slope calibration	1,0000multiplexer offset coefficient	1,0000multiplexer slope coefficient	1,0000fibre end	0,00T internal ref (°C)	12,06T ext. ref 1 (°C)	-3,08T ext. ref 2 (°C)	-3,09length (m)	temperature (°C)	Stokes	anti-Stokes-744,400	163,943	-0,147	-0,150
-743,385	-200,000	-0,064	0,294
-742,371	207,377	-0,139	-0,158
-741,356	-200,000	-0,066	0,385
-740,342	321,099	-0,231	-0,319
-739,327	-200,000	0,017	0,260
-738,312	110,503	-0,226	-0,197
-737,298	-200,000	-0,057	0,284
-736,283	-200,000	-0,085	-0,317
-735,269	-200,000	-0,021	0,170
-734,254	800,000	-0,047	-0,130
-733,239	55,971	-0,236	0,166
-732,225	-200,000	-0,042	-0,145
-731,210	179,519	0,148	0,158
-730,196	-175,605	-0,098	0,002
-729,181	779,361	-0,094	-0,187
-728,167	555,451	0,041	-0,073
-727,152	26,144	-0,063	0,038
-726,137	-138,326	-0,174	-0,014
-725,123	737,817	-0,043	0,085
-724,108	800,000	0,022	-0,057
-723,094	196,380	-0,113	-0,125
-722,079	-40,784	0,160	-0,060
-721,064	-200,000	0,008	-0,171
-720,050	24,644	-0,133	0,080
-719,035	-200,000	0,010	-0,118
-718,021	-179,796	-0,230	0,004
-717,006	800,000	0,031	-0,098
-715,991	800,000	-0,065	-0,140
-714,977	-83,668	-0,059	0,013
-713,962	553,772	0,038	-0,066
-712,948	-48,884	-0,026	-0,009
-711,933	-84,550	0,057	0,013
-710,918	92,144	0,060	0,049
-709,904	415,951	-0,066	0,103
-708,889	142,787	-0,049	-0,048
-707,875	-76,440	0,079	0,020
-706,860	-120,943	0,111	0,013
-705,845	-110,278	-0,062	-0,009
-704,831	-200,000	-0,009	-0,037
-703,816	100,241	-0,103	0,086
-702,802	64,698	-0,114	-0,083
-701,787	491,260	-0,057	0,095
-700,772	173,063	-0,025	0,026
-699,758	-200,000	-0,032	-0,134
-698,743	800,000	-0,052	-0,110
-697,729	-3,530	0,068	-0,034
-696,714	-112,188	-0,078	0,011
-695,699	-200,000	-0,026	-0,147
-694,685	-200,000	0,006	-0,136
-693,670	43,563	-0,068	-0,045
-692,656	222,708	0,058	-0,068
-691,641	-115,992	0,068	-0,009
-690,627	-64,460	0,127	-0,037
-689,612	800,000	0,067	-0,177
-688,597	-200,000	0,003	0,033
-687,583	-200,000	-0,040	-0,195
-686,568	800,000	-0,054	-0,117
-685,554	-200,000	-0,007	-0,093
-684,539	28,117	-0,136	0,083
-683,524	-200,000	-0,004	0,016
-682,510	13,294	-0,044	-0,025
-681,495	-56,284	0,082	-0,026
-680,481	-200,000	-0,007	0,072
-679,466	4,174	-0,140	-0,074
-678,451	-200,000	-0,055	-0,000
-677,437	-200,000	0,001	-0,135
-676,422	-200,000	-0,009	0,107
-675,408	-200,000	-0,030	0,133
-674,393	-62,312	-0,147	0,044
-673,378	-113,947	-0,122	0,017
-672,364	417,536	-0,020	-0,031
-671,349	546,455	0,078	0,136
-670,335	800,000	-0,028	0,089
-669,320	-200,000	0,020	0,073
-668,305	191,906	0,084	0,091
-667,291	205,616	-0,071	0,081
-666,276	245,607	-0,091	-0,111
-665,262	338,113	-0,025	-0,036
-664,247	-31,461	-0,126	-0,051
-663,232	800,000	-0,048	0,098
-662,218	-200,000	-0,003	0,106
-661,203	362,471	-0,041	0,060
-660,189	-1,450	0,104	-0,053
-659,174	19,413	-0,144	-0,084
-658,159	-200,000	0,001	-0,081
-657,145	-200,000	0,008	-0,070
-656,130	-200,000	-0,004	0,119
-655,116	-200,000	-0,006	-0,052
-654,101	-10,894	0,041	0,020
-653,086	-11,687	-0,077	0,036
-652,072	800,000	0,024	-0,063
-651,057	-88,563	-0,097	-0,021
-650,043	-200,000	0,002	0,055
-649,028	-141,590	-0,074	0,005
-648,014	-30,317	0,053	0,022
-646,999	63,410	0,107	-0,077
-645,984	-93,923	0,070	-0,014
-644,970	81,663	0,057	-0,044
-643,955	-73,668	0,090	0,024
-642,941	337,011	0,031	-0,044
-641,926	-200,000	-0,019	0,074
-640,911	39,307	0,082	-0,053
-639,897	-29,185	0,091	-0,038
-638,882	18,411	-0,156	0,090
-637,868	-200,000	0,003	0,109
-636,853	800,000	0,024	0,050
-635,838	800,000	0,043	0,087
-634,824	-200,000	0,032	-0,146
-633,809	249,439	0,023	0,028
-632,795	-200,000	-0,012	-0,055
-631,780	-45,057	0,030	-0,011
-630,765	-1,330	-0,077	0,039
-629,751	800,000	0,036	0,077
-628,736	739,889	-0,031	0,061
-627,722	-145,812	0,182	0,012
-626,707	18,985	0,025	-0,015
-625,692	-49,718	-0,065	0,022
-624,678	482,660	-0,052	-0,085
-623,663	-19,765	0,088	-0,039
-622,649	-2,574	-0,141	-0,071
-621,634	800,000	-0,046	-0,146
-620,619	-200,000	-0,003	-0,028
-619,605	152,978	0,146	-0,144
-618,590	-33,235	0,097	0,039
-617,576	227,098	0,053	0,063
-616,561	-200,000	0,003	-0,056
-615,546	212,216	0,025	-0,028
-614,532	-41,445	-0,139	-0,052
-613,517	-56,336	0,082	-0,026
-612,503	340,737	0,057	0,081
-611,488	-6,224	0,117	0,057
-610,474	160,535	-0,060	0,061
-609,459	205,376	-0,037	0,042
-608,444	208,246	0,020	0,022
-607,430	-91,019	0,040	0,008
-606,415	800,000	0,019	0,048
-605,401	243,568	0,074	-0,090
-604,386	-72,073	0,060	-0,016
-603,371	-200,000	0,007	-0,046
-602,357	-138,669	0,051	-0,004
-601,342	-200,000	-0,022	-0,081
-600,328	-200,000	0,001	-0,056
-599,313	-200,000	-0,004	0,084
-598,298	153,351	-0,150	-0,149
-597,284	549,889	0,013	-0,023
-596,269	800,000	-0,048	0,107
-595,255	313,297	-0,042	-0,056
-594,240	-98,241	-0,045	0,008
-593,225	-45,253	-0,066	-0,024
-592,211	181,337	0,024	-0,025
-591,196	800,000	-0,030	0,063
-590,182	33,774	0,143	-0,089
-589,167	-162,544	-0,031	-0,001
-588,152	284,773	-0,003	-0,004
-587,138	800,000	-0,038	0,097
-586,123	64,027	-0,077	-0,056
-585,109	316,807	-0,066	-0,091
-584,094	92,414	0,068	-0,056
-583,079	-200,000	-0,022	-0,104
-582,065	-112,590	0,115	0,016
-581,050	-168,042	-0,134	-0,004
-580,036	800,000	-0,080	0,205
-579,021	704,631	-0,060	-0,114
-578,006	285,513	-0,045	0,059
-576,992	-147,176	-0,169	0,010
-575,977	26,661	0,074	-0,044
-574,963	800,000	0,017	-0,040
-573,948	800,000	0,021	0,057
-572,934	-136,586	-0,046	-0,004
-571,919	684,729	0,004	0,007
-570,904	800,000	-0,016	0,045
-569,890	-149,015	0,118	-0,007
-568,875	800,000	0,043	0,115
-567,861	-65,680	0,065	-0,019
-566,846	-200,000	0,023	0,113
-565,831	283,928	0,074	0,096
-564,817	61,044	-0,079	-0,057
-563,802	-154,509	0,111	-0,005
-562,788	-200,000	-0,023	0,083
-561,773	-67,358	-0,082	-0,023
-560,758	-62,216	0,069	0,021
-559,744	316,513	0,051	-0,070
-558,729	80,479	0,036	-0,028
-557,715	132,041	-0,092	-0,086
-556,700	293,276	-0,142	-0,187
-555,685	449,538	-0,046	-0,073
-554,671	800,000	0,032	-0,077
-553,656	366,539	0,011	0,015
-552,642	-139,612	-0,127	-0,010
-551,627	99,595	-0,027	0,022
-550,612	29,398	-0,072	-0,044
-549,598	-113,676	-0,087	0,012
-548,583	144,299	-0,050	0,048
-547,569	800,000	0,017	0,034
-546,554	-138,238	-0,091	-0,007
-545,539	462,814	0,009	-0,014
-544,525	-200,000	0,026	0,164
-543,510	140,275	0,058	-0,055
-542,496	800,000	-0,031	-0,072
-541,481	-163,943	-0,077	-0,003
-540,466	430,262	0,044	0,069
-539,452	-81,863	0,074	0,017
-538,437	-79,038	0,051	0,013
-537,423	33,733	-0,076	-0,048
-536,408	-186,134	0,138	-0,001
-535,393	-200,000	-0,032	-0,128
-534,379	-13,881	-0,064	0,029
-533,364	308,816	-0,025	0,034
-532,350	800,000	0,020	-0,056
-531,335	22,550	0,064	0,038
-530,321	-77,621	-0,087	0,021
-529,306	18,640	-0,120	0,069
-528,291	-27,839	0,043	0,018
-527,277	-121,214	-0,118	-0,014
-526,262	-200,000	-0,013	0,063
-525,248	22,822	0,026	-0,015
-524,233	-113,401	-0,045	0,006
-523,218	207,200	-0,048	-0,054
-522,204	97,795	-0,022	-0,018
-521,189	-62,656	-0,207	-0,061
-520,175	-95,407	-0,127	-0,024
-519,160	-59,931	0,087	-0,027
-518,145	204,613	0,025	-0,028
-517,131	-103,593	0,113	-0,019
-516,116	-153,678	0,036	-0,002
-515,102	800,000	-0,030	-0,071
-514,087	800,000	0,081	-0,192
-513,072	553,284	-0,097	-0,168
-512,058	5,401	-0,110	-0,058
-511,043	-41,830	0,061	0,023
-510,029	-127,024	0,078	-0,008
-509,014	196,976	-0,082	-0,090
-507,999	-200,000	0,016	0,180
-506,985	735,820	-0,014	-0,027
-505,970	-200,000	0,004	0,020
-504,956	-102,183	-0,143	0,024
-503,941	276,881	-0,069	0,089
-502,926	409,822	0,067	-0,103
-501,912	423,757	0,032	-0,050
-500,897	363,979	-0,055	-0,080
-499,883	429,235	-0,060	-0,093
-498,868	-35,995	0,035	-0,013
-497,853	298,117	0,093	-0,123
-496,839	800,000	0,095	0,193
-495,824	180,349	-0,047	-0,050
-494,810	800,000	-0,028	-0,060
-493,795	150,106	-0,075	0,074
-492,781	-200,000	-0,008	0,059
-491,766	271,654	0,013	0,017
-490,751	292,786	0,056	0,073
-489,737	96,769	-0,164	-0,135
-488,722	35,633	0,109	-0,069
-487,708	800,000	0,027	0,079
-486,693	-79,181	0,098	-0,024
-485,678	-200,000	0,018	0,084
-484,664	-200,000	-0,004	-0,052
-483,649	-77,365	0,055	0,014
-482,635	800,000	-0,038	0,079
-481,620	-63,768	-0,124	-0,036
-480,605	533,536	0,113	0,193
-479,591	-200,000	0,000	0,057
-478,576	89,419	-0,064	-0,051
-477,562	800,000	-0,041	-0,087
-476,547	-13,860	0,023	-0,011
-475,532	143,441	0,052	-0,050
-474,518	800,000	-0,034	0,071
-473,503	-200,000	-0,000	-0,006
-472,489	505,021	-0,016	-0,027
-471,474	-200,000	-0,025	0,108
-470,459	-200,000	-0,012	-0,052
-469,445	648,894	0,057	0,105
-468,430	800,000	-0,029	-0,063
-467,416	363,825	-0,055	0,080
-466,401	286,373	-0,115	0,149
-465,386	800,000	0,017	0,035
-464,372	292,517	0,042	0,055
-463,357	-200,000	-0,019	-0,117
-462,343	-98,206	-0,091	0,017
-461,328	-200,000	0,015	0,052
-460,313	-200,000	-0,019	-0,069
-459,299	342,895	-0,056	0,079
-458,284	-200,000	-0,029	0,118
-457,270	-200,000	-0,017	-0,077
-456,255	800,000	0,057	0,126
-455,241	-66,466	-0,100	0,028
-454,226	-200,000	0,011	-0,146
-453,211	-68,901	-0,131	0,036
-452,197	-48,333	0,131	0,045
-451,182	-200,000	0,021	0,089
-450,168	-200,000	-0,047	-0,198
-449,153	-66,129	-0,126	-0,036
-448,138	-131,334	-0,058	-0,005
-447,124	-156,775	0,107	-0,005
-446,109	103,086	-0,081	0,069
-445,095	357,174	-0,060	0,086
-444,080	391,061	-0,065	0,098
-443,065	-27,411	0,104	0,043
-442,051	247,648	-0,061	0,074
-441,036	800,000	0,012	0,032
-440,022	497,866	0,077	-0,128
-439,007	369,673	0,058	0,085
-437,992	800,000	-0,023	-0,054
-436,978	-200,000	-0,007	0,072
-435,963	-200,000	-0,054	0,188
-434,949	66,867	-0,087	0,063
-433,934	800,000	-0,005	-0,011
-432,919	28,057	0,039	-0,024
-431,905	404,824	-0,038	-0,057
-430,890	-200,000	0,015	0,132
-429,876	92,030	0,071	0,058
-428,861	-200,000	-0,042	0,171
-427,846	-200,000	-0,003	0,036
-426,832	-148,464	-0,076	0,004
-425,817	49,135	0,040	0,027
-424,803	320,425	-0,028	-0,038
-423,788	-200,000	0,008	-0,033
-422,773	800,000	0,053	-0,116
-421,759	800,000	-0,030	0,074
-420,744	-78,210	0,122	-0,030
-419,730	-129,581	-0,093	0,009
-418,715	800,000	0,080	0,239
-417,701	210,517	0,029	0,033
-416,686	-200,000	-0,012	-0,147
-415,671	105,940	0,067	-0,057
-414,657	-96,522	-0,047	0,009
-413,642	-200,000	-0,013	0,086
-412,628	-140,599	-0,093	0,007
-411,613	-119,428	-0,057	-0,007
-410,598	340,898	0,070	-0,099
-409,584	601,956	-0,046	0,083
-408,569	528,726	-0,075	0,127
-407,555	187,211	0,117	0,125
-406,540	138,954	0,152	-0,143
-405,525	68,880	-0,050	0,037
-404,511	-94,961	0,089	-0,017
-403,496	-200,000	0,018	-0,104
-402,482	50,888	-0,029	0,019
-401,467	-181,321	0,020	-0,000
-400,452	-137,291	0,069	-0,006
-399,438	800,000	0,040	0,096
-398,423	-94,544	-0,049	0,009
-397,409	-200,000	0,022	-0,151
-396,394	776,465	0,008	0,016
-395,379	-77,169	-0,089	0,022
-394,365	-68,349	0,053	-0,015
-393,350	-180,532	0,079	-0,001
-392,336	576,569	0,001	-0,003
-391,321	-130,503	-0,096	-0,009
-390,306	46,914	0,148	-0,098
-389,292	258,988	-0,028	-0,035
-388,277	800,000	0,040	-0,101
-387,263	251,129	0,078	-0,096
-386,248	-200,000	-0,007	-0,093
-385,233	319,206	-0,050	-0,068
-384,219	148,768	-0,032	0,031
-383,204	-123,863	-0,099	-0,011
-382,190	-7,595	0,048	-0,023
-381,175	-200,000	-0,005	0,100
-380,160	-141,250	0,167	0,012
-379,146	739,291	0,020	0,039
-378,131	-27,458	-0,137	0,057
-377,117	-22,315	0,129	-0,056
-376,102	-200,000	0,002	0,028
-375,088	-200,000	-0,003	0,022
-374,073	451,334	0,025	-0,040
-373,058	-42,429	0,133	0,048
-372,044	96,876	0,113	0,093
-371,029	-200,000	-0,017	-0,095
-370,015	-91,734	0,072	0,014
-369,000	-200,000	0,049	-0,224
-367,985	140,386	-0,077	-0,073
-366,971	800,000	-0,010	0,031
-365,956	67,536	0,100	-0,073
-364,942	-200,000	-0,021	-0,099
-363,927	-200,000	0,005	-0,030
-362,912	178,768	0,103	0,108
-361,898	42,551	0,080	0,052
-360,883	800,000	0,034	0,070
-359,869	-90,093	-0,078	-0,016
-358,854	28,446	0,068	0,041
-357,839	-200,000	-0,012	0,109
-356,825	201,794	0,096	0,106
-355,810	-93,704	0,100	0,020
-354,796	62,407	0,111	0,079
-353,781	-200,000	-0,013	-0,174
-352,766	-79,491	0,084	-0,020
-351,752	-62,879	-0,069	-0,020
-350,737	-200,000	-0,001	-0,026
-349,723	129,114	-0,099	0,090
-348,708	-130,837	-0,047	0,004
-347,693	800,000	-0,054	-0,128
-346,679	18,211	0,121	-0,069
-345,664	-64,905	-0,046	0,013
-344,650	-42,762	-0,127	0,046
-343,635	21,493	-0,154	0,089
-342,620	71,153	0,076	0,056
-341,606	-31,332	0,098	0,039
-340,591	337,955	-0,021	0,029
-339,577	571,673	-0,079	-0,138
-338,562	-200,000	0,022	0,085
-337,548	124,862	0,026	0,023
-336,533	167,703	0,067	0,069
-335,518	-5,837	0,101	0,049
-334,504	-200,000	-0,015	-0,051
-333,489	584,932	-0,066	-0,117
-332,475	-132,901	-0,099	0,009
-331,460	750,252	-0,027	-0,052
-330,445	800,000	0,045	-0,122
-329,431	-37,645	-0,093	-0,035
-328,416	-108,644	0,071	-0,011
-327,402	217,926	0,066	0,075
-326,387	-200,000	-0,014	0,054
-325,372	-30,854	-0,127	-0,051
-324,358	-200,000	-0,019	-0,106
-323,343	-200,000	0,009	-0,087
-322,329	-200,000	-0,011	0,040
-321,314	-86,031	0,057	0,012
-320,299	800,000	-0,028	-0,068
-319,285	169,870	0,162	-0,166
-318,270	91,851	-0,026	0,021
-317,256	-200,000	-0,027	-0,197
-316,241	137,535	-0,078	-0,073
-315,226	-200,000	0,018	0,093
-314,212	113,648	0,033	0,028
-313,197	786,089	0,064	0,125
-312,183	228,906	-0,131	-0,153
-311,168	515,644	0,108	0,180
-310,153	139,145	-0,094	-0,089
-309,139	107,292	0,055	0,047
-308,124	296,340	0,035	-0,045
-307,110	232,869	-0,077	-0,091
-306,095	-83,134	0,133	0,030
-305,080	800,000	0,022	0,049
-304,066	360,254	-0,054	-0,078
-303,051	800,000	0,074	-0,164
-302,037	-9,123	-0,187	-0,089
-301,022	35,544	0,077	0,048
-300,008	-200,000	-0,002	0,117
-298,993	-31,865	0,130	0,052
-297,978	20,466	-0,137	0,079
-296,964	167,125	0,138	0,140
-295,949	306,686	0,048	0,064
-294,935	-200,000	-0,015	-0,153
-293,920	-144,240	-0,106	0,007
-292,905	800,000	0,070	0,145
-291,891	-100,882	-0,108	0,019
-290,876	-200,000	-0,031	0,121
-289,862	20,213	0,084	0,048
-288,847	214,118	-0,099	-0,112
-287,832	800,000	0,035	-0,079
-286,818	471,271	0,023	-0,037
-285,803	-108,512	0,066	-0,010
-284,789	-49,816	-0,152	0,051
-283,774	21,632	-0,045	0,026
-282,759	-79,177	0,081	-0,019
-281,745	-43,368	-0,108	-0,039
-280,730	-97,237	-0,132	0,024
-279,716	-200,000	-0,027	-0,130
-278,701	113,864	-0,051	-0,045
-277,686	-200,000	-0,004	0,046
-276,672	425,140	0,099	0,152
-275,657	61,144	-0,054	-0,038
-274,643	516,882	-0,068	-0,114
-273,628	16,963	-0,089	0,050
-272,613	-200,000	0,012	-0,101
-271,599	665,260	0,048	0,089
-270,584	494,861	-0,056	0,092
-269,570	18,072	-0,034	-0,019
-268,555	-158,012	0,163	-0,007
-267,540	-38,005	-0,222	-0,084
-266,526	-200,000	0,001	-0,136
-265,511	-144,128	-0,088	-0,006
-264,497	800,000	0,073	0,160
-263,482	24,235	0,200	-0,118
-262,467	515,588	0,046	0,077
-261,453	-200,000	0,014	0,138
-260,438	-200,000	0,008	-0,034
-259,424	800,000	-0,069	-0,182
-258,409	-200,000	0,012	-0,062
-257,395	-85,864	0,182	0,040
-256,380	-200,000	-0,009	0,064
-255,365	800,000	0,017	0,047
-254,351	47,289	0,051	0,034
-253,336	-83,273	0,109	-0,025
-252,322	-146,789	-0,109	-0,007
-251,307	800,000	-0,071	-0,191
-250,292	-88,444	0,067	0,014
-249,278	-33,102	-0,045	0,018
-248,263	161,080	0,049	-0,049
-247,249	141,786	-0,134	0,127
-246,234	-200,000	0,003	-0,017
-245,219	-200,000	0,024	0,089
-244,205	-200,000	0,022	-0,073
-243,190	529,555	0,018	-0,031
-242,176	800,000	-0,053	0,117
-241,161	800,000	0,029	0,079
-240,146	167,792	0,027	-0,027
-239,132	70,366	0,077	0,057
-238,117	77,098	-0,048	0,036
-237,103	-200,000	0,064	0,245
-236,088	261,698	0,074	0,091
-235,073	295,966	-0,034	0,044
-234,059	787,595	0,088	0,173
-233,044	-7,334	0,050	0,024
-232,030	800,000	0,033	0,067
-231,015	-28,620	0,061	0,025
-230,000	-159,525	-0,094	0,004
-228,986	767,119	-0,097	-0,189
-227,971	-200,000	0,024	-0,115
-226,957	13,967	0,081	0,045
-225,942	375,186	-0,074	-0,108
-224,927	-200,000	-0,016	0,096
-223,913	94,394	0,012	0,010
-222,898	-141,656	-0,050	0,004
-221,884	402,591	-0,106	-0,158
-220,869	-20,463	0,033	-0,015
-219,855	800,000	-0,033	-0,093
-218,840	55,397	0,071	0,049
-217,825	568,726	-0,047	0,082
-216,811	-44,733	-0,092	0,033
-215,796	215,964	-0,099	0,112
-214,782	-200,000	-0,005	-0,049
-213,767	378,936	-0,049	0,071
-212,752	-200,000	-0,011	0,142
-211,738	-48,012	0,027	-0,009
-210,723	144,502	-0,028	-0,027
-209,709	-200,000	-0,000	-0,112
-208,694	69,987	-0,027	0,020
-207,679	800,000	0,053	-0,127
-206,665	-3,693	0,070	0,035
-205,650	421,882	0,098	0,149
-204,636	-74,656	0,016	-0,004
-203,621	407,888	-0,030	0,046
-202,606	800,000	-0,004	0,009
-201,592	-200,000	-0,029	-0,095
-200,577	-200,000	-0,036	-0,246
-199,563	-71,606	0,078	0,021
-198,548	49,822	0,056	0,038
-197,533	-200,000	0,021	0,136
-196,519	25,981	0,069	-0,041
-195,504	-104,086	-0,133	-0,022
-194,490	22,091	0,069	0,040
-193,475	-19,108	-0,187	-0,082
-192,460	23,577	0,062	0,036
-191,446	719,366	0,060	-0,113
-190,431	-200,000	-0,008	0,142
-189,417	-200,000	0,010	-0,042
-188,402	800,000	-0,002	-0,005
-187,387	800,000	0,017	0,035
-186,373	-98,876	0,078	0,014
-185,358	-100,570	0,071	-0,012
-184,344	106,930	0,028	0,024
-183,329	-50,396	0,093	0,031
-182,315	-200,000	0,029	0,091
-181,300	-65,595	0,119	-0,034
-180,285	-200,000	-0,003	-0,022
-179,271	800,000	-0,049	0,100
-178,256	-200,000	0,008	-0,028
-177,242	237,957	-0,060	-0,071
-176,227	79,241	-0,057	0,044
-175,212	-37,172	-0,022	0,008
-174,198	-51,688	0,187	0,062
-173,183	-200,000	0,019	-0,156
-172,169	800,000	0,034	-0,074
-171,154	-139,254	-0,166	-0,013
-170,139	253,508	0,126	0,153
-169,125	-200,000	0,001	-0,015
-168,110	800,000	-0,036	0,080
-167,096	-200,000	-0,008	-0,086
-166,081	-67,502	-0,138	-0,038
-165,066	-25,333	-0,151	0,063
-164,052	291,009	0,033	0,043
-163,037	-92,354	-0,022	0,004
-162,023	-96,662	0,134	-0,025
-161,008	800,000	0,024	-0,065
-159,993	-65,907	0,114	0,032
-158,979	-28,464	-0,137	0,056
-157,964	507,635	0,033	-0,055
-156,950	152,733	-0,060	-0,058
-155,935	34,775	-0,153	-0,095
-154,920	597,368	0,020	-0,036
-153,906	-24,088	-0,068	0,029
-152,891	-200,000	0,026	0,168
-151,877	22,803	-0,064	0,037
-150,862	-128,299	0,136	0,014
-149,847	0,422	0,074	0,037
-148,833	-200,000	0,019	-0,116
-147,818	29,730	0,041	0,024
-146,804	-114,636	0,105	-0,014
-145,789	325,062	-0,085	0,116
-144,775	800,000	-0,035	0,081
-143,760	-27,087	-0,101	-0,042
-142,745	-18,885	-0,162	-0,071
-141,731	345,289	0,053	-0,074
-140,716	-7,864	-0,076	-0,036
-139,702	-200,000	0,048	0,253
-138,687	-29,641	0,121	0,049
-137,672	605,336	-0,031	-0,054
-136,658	49,439	-0,041	-0,027
-135,643	-138,914	-0,095	-0,007
-134,629	82,962	0,042	0,032
-133,614	-64,811	-0,032	-0,009
-132,599	71,841	0,105	0,078
-131,585	-200,000	0,005	-0,022
-130,570	-91,128	-0,055	-0,011
-129,556	800,000	0,018	0,039
-128,541	-200,000	0,024	-0,086
-127,526	628,004	-0,073	0,131
-126,512	-200,000	-0,004	-0,065
-125,497	380,351	0,055	0,080
-124,483	-200,000	-0,011	0,122
-123,468	165,187	0,086	-0,086
-122,453	-200,000	0,004	-0,087
-121,439	-200,000	-0,009	-0,044
-120,424	-10,947	-0,062	0,029
-119,410	250,339	0,026	0,031
-118,395	-187,746	0,168	-0,002
-117,380	431,626	-0,021	-0,032
-116,366	-200,000	0,002	-0,059
-115,351	-89,016	-0,030	-0,006
-114,337	800,000	0,007	-0,020
-113,322	-200,000	-0,040	-0,132
-112,307	800,000	-0,053	-0,125
-111,293	330,489	-0,049	0,067
-110,278	206,271	-0,091	0,100
-109,264	416,668	0,087	-0,133
-108,249	-1,166	-0,134	-0,067
-107,234	-200,000	0,024	-0,117
-106,220	-91,840	0,041	0,008
-105,205	-45,708	-0,075	-0,026
-104,191	139,479	0,130	0,121
-103,176	584,346	0,052	0,091
-102,162	-176,170	0,143	-0,003
-101,147	-122,451	-0,087	-0,010
-100,132	42,653	0,124	-0,080
-99,118	-89,429	-0,039	0,008
-98,103	-103,196	0,124	-0,021
-97,089	-200,000	-0,004	0,148
-96,074	47,901	-0,036	-0,024
-95,059	-112,744	0,073	0,010
-94,045	-200,000	-0,004	0,041
-93,030	-133,343	0,080	-0,007
-92,016	764,562	-0,036	-0,070
-91,001	257,526	-0,049	0,060
-89,986	688,434	0,055	0,101
-88,972	-126,927	0,154	0,016
-87,957	89,312	0,113	0,089
-86,943	-20,223	0,071	-0,031
-85,928	-68,609	-0,015	-0,004
-84,913	-63,592	-0,109	-0,032
-83,899	-200,000	-0,048	0,226
-82,884	-106,680	0,038	0,006
-81,870	800,000	0,024	-0,056
-80,855	-95,463	-0,068	0,013
-79,840	785,797	0,057	-0,112
-78,826	94,718	-0,039	0,031
-77,811	800,000	-0,050	-0,110
-76,797	203,285	0,070	0,076
-75,782	111,994	0,054	0,046
-74,767	-137,275	-0,089	-0,007
-73,753	114,235	-0,093	0,080
-72,738	276,965	0,027	-0,034
-71,724	-200,000	-0,029	0,145
-70,709	-166,040	0,126	0,004
-69,694	-200,000	0,013	0,138
-68,680	-133,328	0,028	0,002
-67,665	-121,190	0,114	-0,013
-66,651	-53,638	-0,093	0,030
-65,636	30,605	0,024	0,015
-64,622	7,351	-0,118	-0,062
-63,607	-48,303	0,037	0,013
-62,592	123,004	-0,062	0,055
-61,578	236,519	0,056	-0,066
-60,563	800,000	0,014	0,037
-59,549	-156,278	-0,084	-0,004
-58,534	15,596	-1,682	-0,932
-57,519	562,317	-1,255	-2,156
-56,505	-200,000	-0,527	-4,544
-55,490	327,905	0,967	1,316
-54,476	800,000	4,845	11,081
-53,461	-200,000	20,187	323,875
-52,446	800,000	752,715	2311,255
-51,432	548,325	1663,385	2827,827
-50,417	74,819	1671,602	1242,949
-49,403	19,874	1544,871	877,748
-48,388	13,925	1467,001	804,562
-47,373	18,333	1457,439	820,585
-46,359	16,281	1446,953	804,818
-45,344	12,187	1442,477	782,684
-44,330	12,085	1440,643	781,167
-43,315	12,111	1438,860	780,298
-42,300	12,098	1437,075	779,236
-41,286	12,114	1436,026	778,710
-40,271	12,087	1434,651	777,807
-39,257	12,081	1433,310	777,019
-38,242	12,121	1432,216	776,585
-37,227	12,129	1430,904	775,882
-36,213	12,137	1429,518	775,140
-35,198	12,173	1428,313	774,627
-34,184	12,189	1427,419	774,186
-33,169	12,069	1426,427	773,047
-32,154	12,135	1424,754	772,423
-31,140	12,196	1423,591	772,051
-30,125	12,180	1422,861	771,550
-29,111	12,168	1421,402	770,670
-28,096	12,207	1420,353	770,252
-27,082	12,084	1419,365	769,107
-26,067	12,116	1418,369	768,689
-25,052	12,117	1417,092	767,970
-24,038	12,134	1415,983	767,421
-23,023	12,061	1415,128	766,582
-22,009	12,066	1414,060	765,995
-20,994	12,077	1413,014	765,449
-19,979	12,071	1412,278	764,993
-18,965	12,044	1411,441	764,383
-17,950	12,081	1410,279	763,898
-16,936	12,008	1409,572	763,141
-15,921	12,013	1408,220	762,403
-14,906	11,985	1407,681	761,951
-13,892	12,043	1406,444	761,520
-12,877	12,014	1405,792	761,001
-11,863	12,015	1404,996	760,545
-10,848	11,984	1403,868	759,759
-9,833	11,939	1403,177	759,146
-8,819	11,887	1402,222	758,356
-7,804	11,854	1401,517	757,790
-6,790	11,892	1400,424	757,350
-5,775	11,884	1399,437	756,747
-4,760	11,943	1398,159	756,302
-3,746	11,908	1397,278	755,631
-2,731	11,834	1396,738	754,966
-1,717	11,860	1395,838	754,569
-0,702	11,860	1394,192	753,650
0,313	15,893	1308,732	726,050
1,327	32,373	699,445	425,883
2,342	50,473	121,737	81,209
3,356	2,688	16,421	8,385
4,371	13,738	3,233	1,770
5,386	24,894	0,659	0,385
6,400	800,000	0,136	0,348
7,415	87,540	-0,185	-0,145
8,429	97,448	-0,208	-0,169
9,444	6,602	-0,339	-0,178
10,459	-27,026	-0,286	-0,117
11,473	18,054	-0,442	-0,248
12,488	9,467	-0,299	-0,159
13,502	3,845	-0,274	-0,141
14,517	143,187	-0,384	-0,361
15,531	204,471	-0,331	-0,363
16,546	87,501	-0,371	-0,290
17,561	537,941	-0,307	-0,516
18,575	-55,545	-0,196	-0,062
19,590	92,616	-0,306	-0,244
20,604	344,844	-0,181	-0,252
21,619	76,815	-0,419	-0,314
22,634	112,026	-0,324	-0,276
23,648	134,963	-0,366	-0,336
24,663	52,641	-0,444	-0,299
25,677	362,579	-0,264	-0,375
26,692	72,710	-0,319	-0,235
27,707	-83,462	-0,327	-0,073
28,721	63,122	-0,288	-0,203
29,736	155,819	-0,342	-0,332
30,750	51,258	-0,431	-0,288
31,765	14,367	-0,450	-0,247
32,780	460,723	-0,218	-0,343
33,794	31,466	-0,144	-0,087
34,809	54,118	-0,425	-0,288
35,823	-13,060	-0,449	-0,205
36,838	-2,235	-0,383	-0,189
37,853	97,706	-0,459	-0,372
38,867	111,865	-0,351	-0,298
39,882	256,372	-0,264	-0,320
40,896	41,821	-0,396	-0,252
41,911	8,965	-0,244	-0,130
42,926	39,642	-0,348	-0,219
43,940	299,723	-0,346	-0,450
44,955	494,545	-0,215	-0,348
45,969	21,015	-0,397	-0,226
46,984	151,375	-0,306	-0,294
47,999	47,180	-0,297	-0,194
49,013	17,337	-0,427	-0,238
50,028	168,046	-0,242	-0,242
51,042	158,899	-0,286	-0,280
52,057	87,334	-0,402	-0,313
53,071	-63,933	-0,407	-0,116
54,086	74,711	-0,289	-0,214
55,101	94,420	-0,333	-0,266
56,115	30,904	-0,340	-0,204
57,130	72,388	-0,384	-0,281
58,144	178,349	-0,356	-0,366
59,159	35,137	-0,395	-0,243
60,174	157,989	-0,334	-0,325
61,188	117,515	-0,231	-0,200
62,203	172,205	-0,243	-0,246
63,217	64,738	-0,375	-0,266
64,232	15,649	-0,262	-0,145
65,247	33,598	-0,326	-0,199
66,261	43,979	-0,346	-0,223
67,276	134,060	-0,333	-0,303
68,290	116,657	-0,328	-0,283
69,305	87,835	-0,334	-0,260
70,320	211,486	-0,199	-0,221
71,334	20,994	-0,344	-0,196
72,349	57,691	-0,356	-0,244
73,363	94,190	-0,318	-0,253
74,378	108,564	-0,339	-0,284
75,393	109,422	-0,182	-0,153
76,407	121,047	-0,161	-0,141
77,422	63,148	-0,235	-0,165
78,436	-42,204	-0,389	-0,139
79,451	43,991	-0,374	-0,240
80,466	30,980	-0,330	-0,198
81,480	139,155	-0,263	-0,243
82,495	-39,737	-0,295	-0,108
83,509	72,157	-0,324	-0,236
84,524	-79,385	-0,307	-0,072
85,539	88,381	-0,135	-0,105
86,553	148,158	-0,284	-0,269
87,568	-34,019	-0,221	-0,085
88,582	-0,323	-0,337	-0,167
89,597	-51,306	-0,209	-0,068
90,611	330,468	-0,167	-0,227
91,626	104,144	-0,200	-0,165
92,641	91,749	-0,163	-0,128
93,655	459,277	-0,221	-0,347
94,670	800,000	-0,144	-0,309
95,684	-101,339	-0,265	-0,045
96,699	68,492	-0,233	-0,168
97,714	-192,763	-0,373	0,002
98,728	33,593	-0,378	-0,230
99,743	-73,532	-0,315	-0,080
100,757	-70,510	-0,283	-0,074
101,772	3,985	-0,371	-0,189
102,787	123,933	-0,253	-0,222
103,801	-122,854	-0,312	-0,035
104,816	-110,756	-0,326	-0,047
105,830	-94,337	-0,181	-0,034
106,845	329,645	-0,181	-0,244
107,860	58,989	-0,288	-0,198
108,874	-14,593	-0,324	-0,145
109,889	-15,567	-0,246	-0,110
110,903	786,612	-0,152	-0,294
111,918	-61,044	-0,216	-0,064
112,933	73,994	-0,295	-0,217
113,947	-56,042	-0,144	-0,045
114,962	-61,705	-0,267	-0,078
115,976	54,089	-0,313	-0,211
116,991	-85,676	-0,279	-0,060
118,006	-27,502	-0,374	-0,151
119,020	25,830	-0,330	-0,192
120,035	-30,954	-0,301	-0,118
121,049	-19,816	-0,133	-0,057
122,064	-65,120	-0,391	-0,109
123,079	192,433	-0,106	-0,112
124,093	-8,136	-0,362	-0,170
125,108	151,854	-0,250	-0,239
126,122	54,783	-0,362	-0,244
127,137	48,334	-0,230	-0,150
128,151	59,426	-0,154	-0,106
129,166	58,768	-0,258	-0,177
130,181	76,394	-0,185	-0,137
131,195	61,819	-0,302	-0,210
132,210	158,537	-0,227	-0,221
133,224	129,974	-0,259	-0,231
134,239	85,813	-0,131	-0,100
135,254	93,480	-0,210	-0,166
136,268	-14,097	-0,187	-0,084
137,283	208,409	-0,252	-0,276
138,297	286,369	-0,118	-0,149
139,312	105,409	-0,304	-0,250
140,327	73,417	-0,240	-0,175
141,341	24,184	-0,395	-0,227
142,356	11,760	-0,225	-0,120
143,370	195,424	-0,192	-0,204
144,385	-58,947	-0,272	-0,082
145,400	-36,391	-0,233	-0,087
146,414	-11,694	-0,316	-0,144
147,429	7,067	-0,150	-0,078
148,443	320,479	-0,140	-0,186
149,458	10,685	-0,244	-0,129
150,473	209,668	-0,225	-0,247
151,487	197,889	-0,201	-0,214
152,502	123,217	-0,277	-0,242
153,516	48,337	-0,148	-0,097
154,531	91,218	-0,252	-0,197
155,546	24,194	-0,194	-0,111
156,560	227,930	-0,229	-0,261
157,575	85,094	-0,201	-0,153
158,589	-103,481	-0,278	-0,045
159,604	116,216	-0,195	-0,166
160,619	16,889	-0,314	-0,173
161,633	33,733	-0,241	-0,146
162,648	-126,158	-0,223	0,023
163,662	-25,495	-0,188	-0,077
164,677	139,030	-0,234	-0,214
165,692	174,593	-0,188	-0,189
166,706	95,512	-0,271	-0,215
167,721	-64,316	-0,229	-0,064
168,735	159,438	-0,304	-0,295
169,750	354,781	-0,208	-0,288
170,764	47,162	-0,167	-0,108
171,779	148,472	-0,235	-0,221
172,794	-143,026	-0,146	0,010
173,808	118,599	-0,167	-0,143
174,823	258,877	-0,175	-0,210
175,837	291,482	-0,219	-0,278
176,852	37,108	-0,270	-0,166
177,867	-78,684	-0,103	-0,024
178,881	77,449	-0,159	-0,118
179,896	272,592	-0,181	-0,222
180,910	35,144	-0,140	-0,085
181,925	0,683	-0,272	-0,135
182,940	318,580	-0,182	-0,240
183,954	129,095	-0,169	-0,150
184,969	-30,084	-0,170	-0,067
185,983	218,470	-0,127	-0,141
186,998	-139,162	-0,170	-0,013
188,013	33,413	-0,231	-0,139
189,027	-46,348	-0,294	-0,100
190,042	325,400	-0,236	-0,314
191,056	158,753	-0,234	-0,226
192,071	119,508	-0,205	-0,176
193,086	-50,965	-0,280	-0,091
194,100	399,108	-0,146	-0,214
195,115	-31,532	-0,266	-0,103
196,129	380,863	-0,208	-0,298
197,144	194,633	-0,237	-0,250
198,159	16,941	-0,170	-0,093
199,173	268,158	-0,110	-0,134
200,188	96,487	-0,147	-0,117
201,202	4,198	-0,143	-0,072
202,217	-51,392	-0,106	-0,034
203,232	73,569	-0,271	-0,197
204,246	129,699	-0,196	-0,174
205,261	103,474	-0,230	-0,187
206,275	51,016	-0,247	-0,162
207,290	283,541	-0,179	-0,223
208,304	113,170	-0,172	-0,145
209,319	10,423	-0,281	-0,148
210,334	294,434	-0,121	-0,154
211,348	-10,723	-0,185	-0,084
212,363	169,884	-0,189	-0,188
213,377	-200,000	0,021	-0,129
214,392	431,435	-0,109	-0,165
215,407	234,671	-0,177	-0,203
216,421	240,529	-0,136	-0,157
217,436	304,938	-0,251	-0,324
218,450	271,556	-0,187	-0,229
219,465	-21,174	-0,283	-0,119
220,480	187,278	-0,140	-0,145
221,494	-146,357	-0,129	-0,008
222,509	788,084	-0,084	-0,161
223,523	518,574	-0,139	-0,226
224,538	161,148	-0,243	-0,235
225,553	82,396	-0,192	-0,144
226,567	-59,226	-0,233	-0,069
227,582	248,449	-0,077	-0,090
228,596	800,000	-0,107	-0,219
229,611	-122,020	-0,197	-0,022
230,626	-84,174	-0,123	-0,027
231,640	-32,934	-0,177	-0,068
232,655	-156,725	-0,324	0,014
233,669	77,378	-0,311	-0,229
234,684	49,371	-0,229	-0,149
235,699	280,071	-0,228	-0,283
236,713	299,550	-0,079	-0,101
237,728	109,634	-0,204	-0,169
238,742	104,964	-0,227	-0,185
239,757	9,488	-0,255	-0,133
240,772	749,677	-0,107	-0,200
241,786	-105,742	-0,173	-0,027
242,801	200,324	-0,183	-0,195
243,815	393,329	-0,123	-0,178
244,830	-121,654	-0,180	0,020
245,844	551,310	-0,062	-0,103
246,859	110,455	-0,209	-0,174
247,874	169,220	-0,205	-0,202
248,888	407,323	-0,181	-0,265
249,903	221,784	-0,092	-0,102
250,917	338,715	-0,115	-0,155
251,932	280,370	-0,104	-0,129
252,947	-82,738	-0,163	-0,036
253,961	-34,197	-0,253	-0,096
254,976	90,377	-0,275	-0,213
255,990	179,764	-0,239	-0,242
257,005	236,878	-0,133	-0,152
258,020	277,465	-0,091	-0,113
259,034	-200,000	0,017	-0,136
260,049	-200,000	-0,049	-0,172
261,063	15,559	-0,229	-0,124
262,078	-136,753	-0,159	-0,012
263,093	-200,000	-0,055	-0,178
264,107	218,739	-0,170	-0,187
265,122	800,000	0,062	-0,125
266,136	275,989	-0,172	-0,211
267,151	-95,805	-0,145	-0,026
268,166	37,978	-0,153	-0,094
269,180	-132,911	-0,190	-0,016
270,195	120,988	-0,198	-0,170
271,209	800,000	-0,154	-0,313
272,224	136,888	-0,138	-0,125
273,239	800,000	0,039	-0,087
274,253	83,591	-0,164	-0,123
275,268	85,529	-0,109	0,082
276,282	-15,656	-0,314	0,138
277,297	210,196	-0,168	-0,182
278,312	26,184	-0,221	-0,127
279,326	1,827	-0,100	-0,050
280,341	124,896	-0,164	-0,142
281,355	-135,193	-0,139	-0,011
282,370	800,000	-0,032	-0,075
283,384	198,564	-0,207	-0,218
284,399	30,490	-0,119	-0,070
285,414	263,756	-0,154	-0,185
286,428	81,547	-0,123	-0,092
287,443	214,178	-0,101	-0,111
288,457	458,824	-0,115	-0,177
289,472	120,255	-0,139	-0,118
290,487	-200,000	0,030	-0,168
291,501	232,018	-0,174	-0,197
292,516	-1,414	-0,109	-0,053
293,530	369,807	-0,103	-0,144
294,545	310,356	-0,062	-0,080
295,560	-86,356	-0,157	-0,033
296,574	-16,272	-0,110	-0,048
297,589	367,625	-0,112	-0,156
298,603	115,556	-0,128	-0,107
299,618	800,000	-0,067	-0,162
300,633	163,356	-0,095	-0,092
301,647	-43,488	-0,204	-0,071
302,662	-178,708	0,088	0,001
303,676	-105,065	-0,133	0,021
304,691	31,479	-0,158	-0,093
305,706	116,774	-0,089	-0,075
306,720	216,468	-0,137	-0,150
307,735	-200,000	-0,025	-0,198
308,749	-18,317	-0,159	-0,068
309,764	15,618	-0,122	-0,066
310,779	-200,000	0,030	-0,159
311,793	195,806	-0,197	-0,206
312,808	800,000	-0,084	-0,234
313,822	492,241	-0,153	-0,241
314,837	-200,000	-0,009	-0,171
315,852	-200,000	-0,054	-0,195
316,866	28,360	-0,104	-0,061
317,881	21,991	-0,203	-0,114
318,895	398,218	-0,112	-0,161
319,910	45,552	-0,186	-0,118
320,925	-57,444	-0,195	-0,058
321,939	-79,673	-0,130	0,030
322,954	2,759	-0,149	-0,074
323,968	-200,000	-0,006	-0,053
324,983	-87,049	-0,137	0,028
325,997	-200,000	0,013	-0,137
327,012	-98,129	-0,213	-0,037
328,027	-88,917	-0,161	-0,032
329,041	-46,160	-0,142	-0,048
330,056	-27,627	-0,096	0,038
331,070	800,000	-0,049	-0,147
332,085	800,000	-0,029	0,069
333,100	-5,668	-0,110	-0,052
334,114	141,892	-0,175	-0,159
335,129	13,150	-0,258	-0,137
336,143	-50,483	-0,112	0,036
337,158	28,756	-0,082	-0,048
338,173	100,128	-0,087	-0,069
339,187	34,300	-0,159	-0,095
340,202	108,010	-0,193	-0,158
341,216	132,620	-0,099	-0,087
342,231	800,000	-0,071	-0,179
343,246	116,658	-0,202	-0,170
344,260	221,157	-0,118	-0,130
345,275	122,726	-0,064	-0,055
346,289	452,769	-0,125	-0,190
347,304	15,870	-0,135	-0,073
348,319	101,734	-0,188	-0,150
349,333	62,538	-0,188	-0,129
350,348	72,829	-0,070	0,050
351,362	-63,930	-0,081	0,023
352,377	-169,103	-0,195	-0,005
353,392	130,823	-0,058	-0,051
354,406	-199,182	-0,118	0,000
355,421	207,808	1314,860	1408,380
356,435	159,867	1475,594	1408,846
