DTS Sentinel unit serial number:	SN410029Multiplexer serial number:	ORYXHardware model number:	OX2-SRSoftware version number:	ORYX F/W v4,00 Oryx Data Collector v3.7.2.0data status	okinstallation	B3 Nyhavnadifferential loss correction	single-endedforward channel	channel 1reverse channel	N/Adate	2023/12/04time	11:42:30forward acquisition time	300,00reverse acquisition time	0,00gamma	499,1914k internal	0,3202k external	0,3202temperature offset calibration	1,0000default loss term (dB/km)	0,3820temperature slope calibration	1,0000multiplexer offset coefficient	1,0000multiplexer slope coefficient	1,0000fibre end	0,00T internal ref (°C)	14,13T ext. ref 1 (°C)	-0,21T ext. ref 2 (°C)	-0,24length (m)	temperature (°C)	Stokes	anti-Stokes-744,400	-200,000	-0,063	-0,285
-743,385	-200,000	0,074	0,397
-742,371	-5,749	-0,135	-0,067
-741,356	-200,000	0,067	0,278
-740,342	109,722	-0,125	-0,109
-739,327	-200,000	0,000	0,212
-738,312	800,000	-0,159	-0,335
-737,298	-200,000	-0,095	0,328
-736,283	139,923	-0,157	-0,150
-735,269	-200,000	0,042	0,348
-734,254	534,582	-0,179	-0,309
-733,239	16,816	-0,166	0,095
-732,225	-200,000	0,014	-0,175
-731,210	-7,849	0,084	0,041
-730,196	535,760	-0,040	0,069
-729,181	-115,020	0,099	0,013
-728,167	800,000	-0,022	-0,067
-727,152	273,232	0,024	-0,031
-726,137	619,473	-0,056	0,102
-725,123	-97,427	-0,095	0,018
-724,108	-39,359	-0,098	-0,037
-723,094	-200,000	-0,005	-0,019
-722,079	-72,890	-0,169	-0,045
-721,064	64,237	-0,024	0,018
-720,050	-200,000	0,009	0,107
-719,035	800,000	0,044	0,096
-718,021	800,000	-0,030	-0,088
-717,006	-200,000	-0,038	-0,144
-715,991	130,714	-0,204	-0,190
-714,977	302,757	0,101	-0,136
-713,962	440,481	0,032	0,051
-712,948	-200,000	-0,001	0,066
-711,933	41,775	0,122	0,080
-710,918	-200,000	0,034	-0,170
-709,904	-166,585	-0,171	0,005
-708,889	-143,370	0,106	-0,007
-707,875	-152,540	-0,047	-0,002
-706,860	-200,000	-0,024	-0,125
-705,845	-30,653	-0,103	0,042
-704,831	-37,456	0,049	-0,019
-703,816	-200,000	0,010	-0,083
-702,802	-75,134	-0,196	0,050
-701,787	-200,000	-0,008	-0,120
-700,772	800,000	-0,057	0,136
-699,758	-18,671	-0,062	-0,028
-698,743	-200,000	0,017	0,175
-697,729	-200,000	0,029	0,117
-696,714	-43,041	-0,024	-0,009
-695,699	70,942	-0,127	-0,096
-694,685	313,278	-0,057	0,078
-693,670	-75,352	0,020	0,005
-692,656	170,404	0,010	-0,011
-691,641	-111,595	0,023	0,003
-690,627	-200,000	0,011	0,068
-689,612	-49,275	0,018	-0,006
-688,597	331,408	0,047	0,066
-687,583	-113,975	-0,089	0,012
-686,568	-137,723	0,026	-0,002
-685,554	800,000	0,043	-0,131
-684,539	-200,000	0,004	0,109
-683,524	-200,000	-0,001	0,121
-682,510	24,317	-0,022	0,013
-681,495	-200,000	0,018	-0,067
-680,481	263,317	0,050	0,063
-679,466	800,000	-0,015	-0,045
-678,451	255,823	0,152	-0,190
-677,437	800,000	0,020	-0,052
-676,422	37,750	0,102	-0,066
-675,408	444,556	-0,058	0,092
-674,393	800,000	0,006	0,017
-673,378	-200,000	0,000	0,010
-672,364	436,047	-0,009	0,014
-671,349	7,846	-0,081	-0,044
-670,335	674,691	-0,046	0,088
-669,320	0,436	-0,076	-0,039
-668,305	-200,000	-0,021	-0,093
-667,291	131,414	0,043	-0,040
-666,276	-125,851	0,038	-0,004
-665,262	800,000	-0,022	-0,059
-664,247	223,298	-0,062	-0,073
-663,232	-30,964	-0,139	0,057
-662,218	269,663	0,042	0,053
-661,203	495,841	-0,038	0,064
-660,189	-14,180	-0,028	0,013
-659,174	800,000	-0,077	-0,218
-658,159	-200,000	-0,004	-0,212
-657,145	-76,091	-0,063	0,016
-656,130	-46,284	-0,096	-0,034
-655,116	-76,898	0,053	-0,013
-654,101	-200,000	-0,017	0,058
-653,086	-200,000	0,005	-0,020
-652,072	800,000	-0,050	-0,160
-651,057	132,667	0,102	-0,096
-650,043	-5,617	-0,091	-0,045
-649,028	-68,113	0,062	0,017
-648,014	1,326	0,133	-0,069
-646,999	-200,000	-0,005	-0,111
-645,984	189,020	-0,049	0,054
-644,970	-111,720	-0,119	0,017
-643,955	-200,000	-0,007	-0,057
-642,941	-89,249	-0,075	0,016
-641,926	394,558	-0,042	-0,063
-640,911	-200,000	-0,004	0,059
-639,897	-115,716	0,024	0,003
-638,882	800,000	0,024	0,073
-637,868	-200,000	-0,008	-0,080
-636,853	-200,000	-0,026	-0,086
-635,838	800,000	0,039	-0,103
-634,824	-111,311	-0,145	-0,021
-633,809	800,000	0,013	-0,027
-632,795	81,247	0,119	-0,093
-631,780	800,000	-0,038	0,092
-630,765	-98,695	-0,095	0,017
-629,751	90,730	-0,096	-0,078
-628,736	197,172	-0,067	-0,074
-627,722	-200,000	0,006	-0,030
-626,707	-200,000	0,011	-0,087
-625,692	-200,000	0,001	0,083
-624,678	796,139	-0,040	0,081
-623,663	16,467	0,093	-0,053
-622,649	512,283	-0,052	-0,088
-621,634	-200,000	-0,019	-0,156
-620,619	-46,544	-0,137	0,048
-619,605	-200,000	-0,012	0,078
-618,590	11,302	0,029	0,016
-617,576	-200,000	0,015	0,052
-616,561	-200,000	-0,009	-0,101
-615,546	31,220	-0,092	-0,057
-614,532	-200,000	-0,023	-0,133
-613,517	-176,185	0,055	-0,001
-612,503	-200,000	0,004	0,059
-611,488	133,657	0,046	0,043
-610,474	139,282	0,095	0,090
-609,459	745,533	-0,040	0,078
-608,444	51,868	0,123	-0,084
-607,430	-200,000	0,000	0,083
-606,415	36,497	0,098	0,062
-605,401	38,916	-0,165	-0,107
-604,386	-200,000	0,008	0,080
-603,371	-200,000	0,030	0,186
-602,357	-59,109	-0,045	0,014
-601,342	-200,000	-0,021	-0,132
-600,328	-45,291	-0,224	-0,080
-599,313	-200,000	-0,025	-0,079
-598,298	14,558	-0,061	-0,035
-597,284	-114,310	-0,083	-0,011
-596,269	92,664	0,206	0,168
-595,255	800,000	0,018	0,047
-594,240	533,274	0,047	-0,081
-593,225	-168,483	-0,137	-0,004
-592,211	-70,347	-0,077	-0,021
-591,196	627,953	-0,036	0,066
-590,182	-92,040	-0,017	0,003
-589,167	451,279	0,051	0,082
-588,152	-200,000	-0,005	-0,074
-587,138	134,353	-0,020	0,019
-586,123	62,961	0,079	-0,057
-585,109	-105,061	-0,145	-0,024
-584,094	-200,000	0,019	0,139
-583,079	264,236	-0,068	-0,085
-582,065	44,773	-0,089	-0,059
-581,050	-165,479	0,075	0,002
-580,036	163,852	0,077	0,078
-579,021	66,246	-0,045	0,033
-578,006	-200,000	0,016	-0,085
-576,992	21,843	-0,111	0,065
-575,977	-200,000	-0,024	-0,135
-574,963	-109,836	0,066	0,010
-573,948	137,199	-0,100	0,094
-572,934	291,478	-0,049	-0,065
-571,919	-53,800	0,096	-0,031
-570,904	-141,771	-0,073	-0,005
-569,890	-200,000	0,000	0,119
-568,875	296,121	0,058	-0,078
-567,861	-200,000	0,014	0,096
-566,846	-66,565	-0,111	-0,032
-565,831	742,641	-0,042	-0,082
-564,817	-200,000	0,001	-0,250
-563,802	800,000	0,011	-0,032
-562,788	-200,000	0,013	-0,144
-561,773	254,460	-0,037	-0,045
-560,758	241,995	0,085	0,102
-559,744	83,749	-0,020	0,016
-558,729	-25,603	-0,084	0,036
-557,715	-200,000	0,005	-0,088
-556,700	-101,433	-0,124	-0,022
-555,685	800,000	-0,046	-0,111
-554,671	571,000	0,030	0,052
-553,656	-39,380	0,053	-0,020
-552,642	56,439	-0,045	0,031
-551,627	-200,000	-0,003	0,012
-550,612	-115,514	-0,081	0,011
-549,598	800,000	-0,081	-0,211
-548,583	-32,370	-0,041	-0,016
-547,569	235,821	0,095	0,114
-546,554	25,561	0,056	0,034
-545,539	253,636	0,028	0,034
-544,525	800,000	0,045	0,139
-543,510	-195,578	-0,131	-0,001
-542,496	-162,231	0,081	-0,003
-541,481	-200,000	-0,035	-0,176
-540,466	68,530	0,073	-0,054
-539,452	726,716	0,046	0,089
-538,437	2,524	-0,059	-0,030
-537,423	41,729	-0,025	-0,016
-536,408	-200,000	0,025	-0,185
-535,393	-200,000	-0,047	-0,210
-534,379	239,876	-0,039	-0,047
-533,364	16,931	0,052	0,029
-532,350	-7,316	0,052	-0,026
-531,335	3,101	0,116	-0,060
-530,321	84,395	-0,101	-0,080
-529,306	156,582	-0,086	0,085
-528,291	540,580	-0,012	-0,021
-527,277	-154,146	-0,153	0,007
-526,262	418,463	0,043	0,067
-525,248	134,034	0,041	-0,038
-524,233	-80,938	0,171	-0,041
-523,218	76,063	0,105	0,080
-522,204	321,769	0,016	0,022
-521,189	-101,709	-0,082	0,014
-520,175	-15,972	-0,148	-0,068
-519,160	-81,456	0,109	-0,026
-518,145	-145,432	-0,106	0,007
-517,131	-2,143	-0,059	-0,029
-516,116	7,408	-0,091	-0,049
-515,102	800,000	0,033	-0,090
-514,087	-130,525	-0,037	0,004
-513,072	71,322	-0,028	0,021
-512,058	127,060	0,034	-0,031
-511,043	20,483	0,054	0,032
-510,029	-200,000	0,028	0,147
-509,014	-200,000	0,012	0,071
-507,999	800,000	0,059	0,136
-506,985	270,393	0,032	0,041
-505,970	403,150	0,064	-0,098
-504,956	-68,371	-0,012	0,003
-503,941	-32,129	-0,062	-0,025
-502,926	-130,310	0,100	0,010
-501,912	-200,000	0,022	-0,103
-500,897	800,000	-0,028	0,085
-499,883	-200,000	-0,034	0,120
-498,868	569,812	0,027	-0,048
-497,853	-200,000	-0,000	-0,097
-496,839	-101,915	0,082	0,014
-495,824	800,000	0,027	0,057
-494,810	-118,960	-0,073	-0,009
-493,795	129,642	0,087	0,080
-492,781	313,398	0,048	0,065
-491,766	481,783	-0,036	-0,058
-490,751	423,460	0,035	-0,054
-489,737	-200,000	0,000	0,146
-488,722	-200,000	-0,006	-0,063
-487,708	800,000	0,057	0,141
-486,693	19,743	-0,071	0,041
-485,678	21,377	-0,085	-0,050
-484,664	-200,000	0,015	-0,076
-483,649	-54,947	0,028	-0,009
-482,635	-69,501	-0,035	-0,010
-481,620	24,477	0,041	-0,024
-480,605	-200,000	0,022	-0,077
-479,591	-107,675	0,047	0,007
-478,576	-200,000	-0,001	0,087
-477,562	-167,744	0,157	0,004
-476,547	216,687	-0,056	-0,065
-475,532	-200,000	0,024	-0,109
-474,518	-117,407	0,050	0,006
-473,503	326,211	-0,065	0,090
-472,489	-200,000	0,004	0,068
-471,474	-170,412	-0,063	-0,002
-470,459	-37,344	-0,037	-0,014
-469,445	-200,000	-0,021	-0,125
-468,430	-90,376	0,031	0,006
-467,416	177,811	-0,101	0,106
-466,401	-50,057	0,134	-0,045
-465,386	800,000	0,060	0,183
-464,372	-200,000	-0,000	0,084
-463,357	255,412	0,068	0,084
-462,343	-200,000	0,023	-0,083
-461,328	-200,000	0,040	-0,190
-460,313	-200,000	0,010	0,095
-459,299	203,112	-0,032	0,035
-458,284	-200,000	-0,023	-0,080
-457,270	319,821	-0,060	0,082
-456,255	-50,762	0,063	0,021
-455,241	8,035	-0,028	-0,015
-454,226	116,649	-0,113	-0,100
-453,211	5,941	0,091	0,048
-452,197	345,396	0,009	0,013
-451,182	-190,587	0,081	0,001
-450,168	-184,374	-0,134	-0,002
-449,153	400,017	0,070	-0,106
-448,138	720,192	-0,015	-0,029
-447,124	-156,577	-0,088	0,004
-446,109	-200,000	-0,003	0,164
-445,095	-122,909	0,098	0,011
-444,080	-200,000	0,009	-0,074
-443,065	-200,000	-0,013	-0,079
-442,051	-60,023	-0,125	-0,038
-441,036	261,517	-0,075	0,094
-440,022	-72,006	0,055	-0,014
-439,007	-59,618	0,035	-0,011
-437,992	-200,000	0,004	0,165
-436,978	613,101	0,028	-0,051
-435,963	-200,000	0,033	0,111
-434,949	-200,000	0,010	0,089
-433,934	-200,000	0,000	-0,015
-432,919	-55,115	-0,064	0,021
-431,905	204,310	-0,113	-0,126
-430,890	-80,787	0,122	-0,029
-429,876	-160,119	0,088	-0,003
-428,861	-9,691	0,045	0,021
-427,846	-200,000	0,019	0,068
-426,832	800,000	0,015	-0,035
-425,817	-89,751	0,100	-0,021
-424,803	379,529	0,101	-0,149
-423,788	-200,000	-0,005	-0,065
-422,773	775,993	-0,015	-0,030
-421,759	-200,000	-0,002	-0,009
-420,744	166,621	-0,053	0,054
-419,730	-200,000	-0,009	-0,135
-418,715	35,532	-0,141	-0,089
-417,701	47,240	0,063	0,042
-416,686	800,000	0,023	0,048
-415,671	-25,518	0,088	0,037
-414,657	59,892	0,045	0,032
-413,642	301,027	-0,033	-0,043
-412,628	-200,000	-0,001	0,030
-411,613	-200,000	-0,040	-0,138
-410,598	800,000	0,045	0,141
-409,584	589,705	-0,052	0,092
-408,569	-61,982	-0,053	-0,016
-407,555	800,000	0,016	0,044
-406,540	-116,676	-0,092	-0,012
-405,525	-200,000	0,005	-0,095
-404,511	-53,185	-0,144	0,047
-403,496	-200,000	0,016	0,131
-402,482	-200,000	-0,038	0,146
-401,467	9,356	0,117	0,064
-400,452	-100,755	0,090	0,016
-399,438	-125,270	0,052	0,006
-398,423	-200,000	0,004	-0,045
-397,409	800,000	0,037	-0,084
-396,394	47,924	-0,137	-0,092
-395,379	187,226	0,096	0,102
-394,365	167,132	0,102	-0,103
-393,350	-200,000	0,000	0,009
-392,336	117,838	0,032	0,029
-391,321	-200,000	0,004	0,039
-390,306	-200,000	-0,029	0,168
-389,292	-200,000	-0,028	0,098
-388,277	46,858	0,110	0,073
-387,263	-200,000	0,006	0,063
-386,248	-200,000	0,012	0,049
-385,233	800,000	0,002	0,004
-384,219	-200,000	-0,018	0,135
-383,204	-133,549	-0,056	0,005
-382,190	-200,000	0,017	0,081
-381,175	800,000	-0,055	-0,122
-380,160	541,571	0,061	0,105
-379,146	800,000	0,010	0,022
-378,131	32,490	0,040	-0,025
-377,117	334,766	0,081	0,113
-376,102	-20,884	-0,048	0,021
-375,088	-83,082	-0,115	0,026
-374,073	-200,000	0,002	-0,041
-373,058	-200,000	-0,008	0,041
-372,044	-200,000	-0,001	-0,025
-371,029	-164,751	0,122	0,004
-370,015	-200,000	-0,002	0,094
-369,000	-200,000	-0,011	-0,087
-367,985	8,754	-0,151	-0,081
-366,971	-200,000	0,002	0,032
-365,956	483,731	0,026	0,042
-364,942	-200,000	-0,011	0,063
-363,927	780,171	-0,035	0,069
-362,912	-200,000	0,006	0,100
-361,898	-95,240	0,038	0,007
-360,883	-200,000	0,011	-0,061
-359,869	-200,000	0,022	-0,109
-358,854	120,211	0,050	0,044
-357,839	-10,916	0,078	0,037
-356,825	-171,343	0,098	-0,002
-355,810	19,234	-0,071	0,040
-354,796	-200,000	-0,032	-0,153
-353,781	-200,000	-0,015	0,048
-352,766	383,341	0,056	0,082
-351,752	-200,000	-0,012	0,099
-350,737	-200,000	0,002	-0,026
-349,723	-87,987	0,093	-0,020
-348,708	-200,000	-0,018	0,112
-347,693	70,808	-0,078	0,058
-346,679	-120,852	-0,149	-0,018
-345,664	305,018	-0,019	-0,025
-344,650	33,127	0,088	0,055
-343,635	800,000	0,040	0,087
-342,620	585,248	0,083	0,147
-341,606	-125,014	0,094	-0,010
-340,591	800,000	-0,023	0,051
-339,577	305,246	-0,024	-0,032
-338,562	800,000	0,017	0,037
-337,548	-200,000	-0,028	0,102
-336,533	-112,381	0,082	0,012
-335,518	-200,000	-0,005	0,087
-334,504	800,000	-0,088	0,193
-333,489	101,523	-0,086	-0,072
-332,475	-200,000	0,040	-0,152
-331,460	-200,000	-0,002	0,083
-330,445	-118,053	-0,123	0,016
-329,431	-200,000	0,026	-0,095
-328,416	800,000	-0,007	-0,016
-327,402	-82,733	0,095	0,022
-326,387	174,262	-0,060	-0,062
-325,372	-200,000	-0,029	0,134
-324,358	31,923	-0,049	-0,030
-323,343	-200,000	0,005	0,018
-322,329	-3,377	-0,106	-0,052
-321,314	32,808	0,117	-0,072
-320,299	232,729	0,059	0,069
-319,285	236,077	0,054	0,064
-318,270	-129,104	-0,070	-0,007
-317,256	-140,666	0,046	-0,003
-316,241	-77,756	0,069	0,017
-315,226	-114,763	0,050	0,007
-314,212	27,504	-0,092	-0,055
-313,197	449,733	-0,057	-0,090
-312,183	175,402	0,050	-0,051
-311,168	60,586	-0,061	-0,043
-310,153	-142,410	0,103	-0,007
-309,139	-112,932	0,166	0,023
-308,124	-200,000	-0,001	0,006
-307,110	208,918	0,054	0,060
-306,095	555,524	-0,042	-0,072
-305,080	223,208	0,062	-0,071
-304,066	-200,000	0,007	-0,061
-303,051	0,685	-0,109	-0,055
-302,037	-200,000	0,010	-0,078
-301,022	-72,513	-0,128	0,033
-300,008	271,227	-0,050	0,063
-298,993	173,860	0,082	-0,085
-297,978	800,000	-0,011	-0,030
-296,964	713,118	-0,062	-0,117
-295,949	800,000	0,015	0,036
-294,935	-172,912	-0,077	-0,002
-293,920	-200,000	0,002	-0,015
-292,905	-200,000	0,013	-0,043
-291,891	-200,000	0,013	0,160
-290,876	-200,000	-0,012	0,145
-289,862	287,474	0,032	0,041
-288,847	136,363	-0,108	-0,100
-287,832	128,044	-0,103	-0,094
-286,818	800,000	0,038	-0,109
-285,803	125,395	0,023	0,021
-284,789	800,000	0,013	0,032
-283,774	-200,000	-0,011	0,078
-282,759	16,659	0,093	0,052
-281,745	7,359	-0,074	0,039
-280,730	69,694	0,139	0,102
-279,716	800,000	-0,035	-0,094
-278,701	306,817	0,085	-0,113
-277,686	-31,573	0,083	-0,033
-276,672	18,362	-0,059	-0,034
-275,657	284,063	0,031	0,040
-274,643	-111,224	0,061	-0,009
-273,628	-110,954	-0,105	-0,015
-272,613	129,706	-0,002	0,002
-271,599	-200,000	0,000	0,083
-270,584	-200,000	-0,008	-0,095
-269,570	-200,000	0,004	0,088
-268,555	71,727	0,114	-0,084
-267,540	10,545	0,011	0,006
-266,526	243,472	-0,090	-0,107
-265,511	130,299	-0,009	0,008
-264,497	800,000	-0,052	-0,154
-263,482	-9,321	0,049	0,023
-262,467	289,856	-0,035	-0,045
-261,453	-28,377	0,180	-0,074
-260,438	371,113	-0,062	-0,091
-259,424	709,721	-0,076	-0,143
-258,409	-109,807	0,055	-0,008
-257,395	-87,459	0,137	0,029
-256,380	-200,000	0,022	-0,114
-255,365	800,000	0,025	-0,052
-254,351	246,843	0,062	-0,075
-253,336	368,933	-0,039	0,056
-252,322	60,190	-0,039	-0,027
-251,307	-121,182	-0,127	-0,015
-250,292	-5,515	0,032	0,016
-249,278	430,152	0,071	0,109
-248,263	105,214	0,102	-0,086
-247,249	-99,623	-0,100	0,018
-246,234	520,755	0,021	-0,036
-245,219	121,554	0,083	-0,074
-244,205	800,000	-0,030	0,077
-243,190	118,552	0,094	0,083
-242,176	21,343	0,076	-0,044
-241,161	-12,685	0,128	-0,059
-240,146	78,112	-0,113	0,086
-239,132	9,448	-0,112	-0,060
-238,117	-151,182	0,221	-0,012
-237,103	-5,446	-0,015	-0,007
-236,088	30,499	0,025	0,015
-235,073	-80,264	-0,054	-0,013
-234,059	514,490	0,049	0,081
-233,044	155,445	0,026	0,025
-232,030	-80,291	0,044	0,010
-231,015	11,989	-0,029	-0,016
-230,000	800,000	-0,076	0,182
-228,986	-97,719	-0,071	0,013
-227,971	-200,000	0,001	0,032
-226,957	800,000	0,049	0,132
-225,942	800,000	0,036	0,087
-224,927	286,871	-0,027	-0,035
-223,913	102,434	0,086	-0,072
-222,898	-176,484	-0,047	0,001
-221,884	344,136	-0,034	0,047
-220,869	-200,000	0,014	-0,077
-219,855	123,318	-0,041	0,037
-218,840	264,966	0,030	-0,037
-217,825	147,309	-0,050	-0,048
-216,811	-57,131	-0,076	0,024
-215,796	-122,645	0,155	0,018
-214,782	800,000	-0,030	-0,064
-213,767	351,708	0,047	-0,066
-212,752	800,000	-0,058	0,146
-211,738	477,751	0,065	0,105
-210,723	-200,000	0,045	-0,145
-209,709	-160,169	-0,138	-0,005
-208,694	-94,131	-0,065	0,013
-207,679	800,000	-0,009	0,019
-206,665	-200,000	0,005	0,061
-205,650	800,000	0,085	0,173
-204,636	800,000	0,028	0,058
-203,621	-15,953	-0,204	-0,092
-202,606	174,573	0,098	0,101
-201,592	94,386	-0,039	0,032
-200,577	72,612	0,076	0,057
-199,563	-44,262	-0,079	0,028
-198,548	-200,000	-0,007	0,035
-197,533	-14,849	0,142	0,064
-196,519	49,570	-0,106	0,071
-195,504	-110,332	-0,068	0,010
-194,490	103,740	-0,105	-0,087
-193,475	93,851	-0,125	-0,101
-192,460	-116,951	0,072	0,009
-191,446	800,000	-0,042	0,088
-190,431	-200,000	0,007	0,052
-189,417	323,430	0,047	0,064
-188,402	-200,000	0,014	0,068
-187,387	-88,134	-0,073	-0,015
-186,373	44,680	-0,035	0,023
-185,358	631,252	0,017	0,030
-184,344	-117,026	0,118	0,015
-183,329	-55,325	0,030	-0,010
-182,315	-120,308	-0,115	-0,014
-181,300	800,000	0,099	-0,214
-180,285	-11,879	0,091	0,042
-179,271	-200,000	-0,021	-0,079
-178,256	80,008	-0,058	0,044
-177,242	-136,081	0,045	0,004
-176,227	-140,252	0,178	0,013
-175,212	-99,621	0,154	-0,027
-174,198	-138,109	-0,061	-0,005
-173,183	-200,000	0,008	-0,033
-172,169	-200,000	0,015	-0,173
-171,154	-5,172	0,046	-0,022
-170,139	94,295	0,014	-0,011
-169,125	-49,194	0,066	0,022
-168,110	-132,175	0,036	-0,003
-167,096	-107,680	-0,022	-0,003
-166,081	-200,000	-0,012	-0,110
-165,066	-200,000	-0,008	-0,090
-164,052	35,965	-0,083	-0,052
-163,037	-112,180	0,081	-0,011
-162,023	54,972	0,114	0,078
-161,008	-57,381	-0,149	0,046
-159,993	727,545	-0,055	-0,105
-158,979	2,332	-0,111	-0,057
-157,964	744,057	-0,039	-0,074
-156,950	767,870	-0,052	0,102
-155,935	-65,757	-0,050	-0,014
-154,920	-200,000	-0,024	0,127
-153,906	800,000	0,053	0,162
-152,891	-133,866	-0,076	0,007
-151,877	-200,000	-0,032	-0,135
-150,862	365,837	-0,068	-0,097
-149,847	145,358	-0,035	-0,033
-148,833	-160,148	0,107	-0,004
-147,818	15,219	0,198	0,110
-146,804	-200,000	0,013	0,068
-145,789	-200,000	0,001	-0,063
-144,775	-83,429	-0,054	-0,012
-143,760	36,393	-0,092	0,057
-142,745	800,000	0,034	-0,089
-141,731	44,805	0,020	0,013
-140,716	-200,000	-0,008	-0,050
-139,702	49,880	0,086	-0,057
-138,687	-73,049	0,100	-0,026
-137,672	-200,000	-0,041	-0,215
-136,658	-16,116	-0,045	0,020
-135,643	-200,000	0,021	-0,121
-134,629	-134,211	-0,086	0,007
-133,614	226,562	0,083	-0,096
-132,599	365,017	-0,086	-0,124
-131,585	15,409	0,031	0,017
-130,570	-18,030	-0,046	0,021
-129,556	-124,706	-0,134	0,015
-128,541	-200,000	0,021	-0,082
-127,526	7,853	0,052	-0,028
-126,512	-200,000	-0,021	0,078
-125,497	-46,814	0,168	-0,058
-124,483	-200,000	0,022	0,109
-123,468	113,509	-0,081	-0,070
-122,453	87,620	0,096	-0,075
-121,439	381,392	0,014	-0,021
-120,424	62,761	-0,135	0,096
-119,410	800,000	-0,037	0,098
-118,395	-137,327	0,126	0,010
-117,380	-118,333	-0,069	-0,009
-116,366	155,692	-0,078	-0,076
-115,351	172,524	0,020	-0,020
-114,337	-200,000	0,008	-0,109
-113,322	-200,000	-0,004	0,035
-112,307	587,212	0,049	-0,086
-111,293	-200,000	0,003	-0,045
-110,278	800,000	0,027	0,075
-109,264	222,549	0,017	-0,020
-108,249	800,000	0,029	-0,067
-107,234	-200,000	-0,050	-0,188
-106,220	-200,000	0,004	-0,034
-105,205	-117,608	0,157	-0,020
-104,191	-70,527	0,131	0,035
-103,176	-200,000	-0,007	0,054
-102,162	70,625	0,044	0,033
-101,147	-200,000	-0,005	-0,056
-100,132	800,000	0,025	-0,067
-99,118	800,000	0,037	-0,104
-98,103	-110,284	0,104	-0,015
-97,089	35,808	-0,122	-0,076
-96,074	-50,032	0,030	-0,010
-95,059	442,112	0,032	0,050
-94,045	800,000	-0,068	-0,188
-93,030	217,587	0,042	-0,047
-92,016	800,000	0,012	0,036
-91,001	-200,000	-0,039	-0,140
-89,986	623,303	0,064	0,115
-88,972	21,331	-0,103	0,059
-87,957	13,115	-0,064	-0,035
-86,943	136,896	-0,076	0,070
-85,928	-200,000	-0,021	-0,095
-84,913	37,281	-0,052	-0,033
-83,899	800,000	0,027	-0,053
-82,884	55,574	0,176	0,121
-81,870	-200,000	-0,008	0,115
-80,855	-47,782	0,024	-0,008
-79,840	-29,586	0,152	0,061
-78,826	800,000	0,023	-0,049
-77,811	36,570	0,044	0,028
-76,797	-95,696	0,069	-0,013
-75,782	-61,207	0,141	-0,042
-74,767	91,939	-0,040	-0,032
-73,753	21,425	0,031	0,018
-72,738	-150,153	-0,038	-0,002
-71,724	-93,026	-0,155	0,030
-70,709	134,851	0,121	-0,111
-69,694	155,438	-0,057	-0,056
-68,680	526,460	-0,072	-0,121
-67,665	-62,640	-0,021	0,006
-66,651	800,000	-0,042	0,085
-65,636	-200,000	-0,016	0,084
-64,622	800,000	-0,046	0,112
-63,607	-128,819	-0,075	-0,007
-62,592	-84,199	0,116	0,026
-61,578	255,699	-0,076	-0,093
-60,563	461,932	-0,013	0,021
-59,549	800,000	0,066	0,146
-58,534	-16,875	-1,655	-0,737
-57,519	377,767	-1,459	-2,118
-56,505	-200,000	-0,455	-4,465
-55,490	157,570	1,090	1,069
-54,476	800,000	4,935	11,096
-53,461	-200,000	18,669	302,600
-52,446	800,000	735,023	2279,939
-51,432	563,792	1650,812	2840,335
-50,417	78,814	1668,992	1262,358
-49,403	22,085	1542,031	888,071
-48,388	16,054	1465,052	814,471
-47,373	17,742	1455,009	816,998
-46,359	16,885	1445,220	807,369
-45,344	14,264	1440,588	792,216
-44,330	14,178	1438,745	790,760
-43,315	14,195	1436,992	789,847
-42,300	14,213	1435,286	788,964
-41,286	14,257	1434,084	788,478
-40,271	14,203	1432,876	787,525
-39,257	14,193	1431,630	786,762
-38,242	14,258	1430,174	786,242
-37,227	14,226	1429,144	785,492
-36,213	14,273	1427,754	784,918
-35,198	14,232	1426,668	784,097
-34,184	14,265	1425,597	783,631
-33,169	14,185	1424,304	782,514
-32,154	14,228	1423,181	782,067
-31,140	14,235	1421,955	781,398
-30,125	14,250	1420,828	780,815
-29,111	14,257	1419,777	780,242
-28,096	14,212	1418,826	779,477
-27,082	14,189	1417,597	778,663
-26,067	14,130	1416,674	777,844
-25,052	14,160	1415,516	777,322
-24,038	14,143	1414,413	776,605
-23,023	14,158	1413,559	776,176
-22,009	14,145	1412,601	775,559
-20,994	14,142	1411,695	775,013
-19,979	14,119	1410,805	774,388
-18,965	14,082	1409,711	773,584
-17,950	14,121	1408,807	773,239
-16,936	14,173	1407,764	772,879
-15,921	14,065	1406,865	771,850
-14,906	14,059	1405,825	771,222
-13,892	14,045	1405,076	770,713
-12,877	14,112	1404,083	770,453
-11,863	14,062	1403,168	769,687
-10,848	14,033	1402,462	769,131
-9,833	14,023	1401,334	768,438
-8,819	13,976	1400,641	767,810
-7,804	13,949	1399,718	767,144
-6,790	13,957	1398,686	766,589
-5,775	13,952	1397,562	765,917
-4,760	13,969	1396,502	765,386
-3,746	13,969	1395,779	764,957
-2,731	13,952	1395,092	764,473
-1,717	13,939	1394,354	763,977
-0,702	13,960	1392,208	762,870
0,313	17,841	1310,480	736,042
1,327	34,085	706,176	434,249
2,342	52,423	124,126	83,636
3,356	2,494	16,619	8,481
4,371	11,433	3,133	1,693
5,386	-19,131	0,619	0,271
6,400	-200,000	0,084	0,324
7,415	-2,360	-0,175	-0,086
8,429	14,677	-0,353	-0,195
9,444	34,766	-0,302	-0,186
10,459	-55,639	-0,304	-0,096
11,473	26,847	-0,319	-0,188
12,488	47,652	-0,200	-0,131
13,502	73,496	-0,257	-0,190
14,517	31,511	-0,302	-0,183
15,531	5,451	-0,452	-0,235
16,546	43,682	-0,366	-0,236
17,561	62,406	-0,483	-0,340
18,575	-127,963	-0,251	0,025
19,590	66,360	-0,215	-0,154
20,604	59,804	-0,336	-0,234
21,619	48,595	-0,376	-0,248
22,634	12,273	-0,447	-0,243
23,648	39,450	-0,421	-0,266
24,663	3,219	-0,360	-0,184
25,677	-21,467	-0,427	-0,183
26,692	-8,068	-0,314	-0,149
27,707	-43,495	-0,395	-0,140
28,721	133,196	-0,359	-0,327
29,736	139,137	-0,407	-0,378
30,750	10,669	-0,549	-0,295
31,765	183,659	-0,336	-0,351
32,780	102,001	-0,273	-0,224
33,794	180,979	-0,325	-0,337
34,809	61,847	-0,359	-0,252
35,823	159,768	-0,292	-0,287
36,838	97,849	-0,241	-0,195
37,853	221,573	-0,379	-0,430
38,867	86,162	-0,421	-0,327
39,882	115,342	-0,396	-0,341
40,896	40,788	-0,346	-0,220
41,911	273,717	-0,286	-0,358
42,926	44,448	-0,343	-0,222
43,940	32,637	-0,555	-0,337
44,955	174,524	-0,299	-0,305
45,969	40,362	-0,400	-0,253
46,984	38,398	-0,326	-0,204
47,999	-6,399	-0,327	-0,156
49,013	163,880	-0,193	-0,192
50,028	-46,092	-0,387	-0,133
51,042	-5,546	-0,360	-0,173
52,057	129,161	-0,312	-0,280
53,071	58,113	-0,321	-0,221
54,086	111,338	-0,278	-0,236
55,101	-2,207	-0,263	-0,129
56,115	35,247	-0,412	-0,254
57,130	-28,006	-0,339	-0,137
58,144	226,957	-0,256	-0,293
59,159	149,762	-0,362	-0,345
60,174	165,847	-0,357	-0,356
61,188	73,438	-0,358	-0,263
62,203	295,454	-0,134	-0,173
63,217	28,553	-0,310	-0,184
64,232	102,813	-0,326	-0,269
65,247	192,134	-0,214	-0,227
66,261	7,642	-0,362	-0,190
67,276	141,238	-0,317	-0,295
68,290	-80,403	-0,369	-0,086
69,305	160,019	-0,160	-0,157
70,320	16,648	-0,384	-0,213
71,334	800,000	-0,121	-0,266
72,349	95,682	-0,281	-0,225
73,363	41,203	-0,382	-0,242
74,378	-54,525	-0,291	-0,092
75,393	16,708	-0,268	-0,149
76,407	36,308	-0,350	-0,216
77,422	-142,000	-0,188	-0,013
78,436	27,390	-0,295	-0,174
79,451	800,000	-0,104	-0,240
80,466	67,513	-0,325	-0,233
81,480	13,853	-0,253	-0,138
82,495	209,969	-0,212	-0,234
83,509	185,470	-0,296	-0,309
84,524	84,235	-0,183	-0,141
85,539	-8,978	-0,285	-0,133
86,553	800,000	-0,121	-0,242
87,568	-15,071	-0,349	-0,156
88,582	-1,282	-0,382	-0,189
89,597	47,942	-0,159	-0,104
90,611	-44,821	-0,371	-0,129
91,626	144,125	-0,171	-0,160
92,641	800,000	-0,124	-0,257
93,655	42,599	-0,207	-0,132
94,670	82,673	-0,269	-0,205
95,684	529,815	-0,303	-0,504
96,699	61,776	-0,170	-0,119
97,714	-17,232	-0,322	-0,142
98,728	241,024	-0,159	-0,187
99,743	-82,180	-0,251	-0,057
100,757	183,145	-0,149	-0,155
101,772	731,615	-0,165	-0,310
102,787	47,692	-0,345	-0,225
103,801	22,032	-0,292	-0,167
104,816	88,879	-0,224	-0,174
105,830	280,854	-0,268	-0,337
106,845	135,366	-0,226	-0,206
107,860	162,960	-0,236	-0,232
108,874	175,163	-0,197	-0,201
109,889	69,841	-0,286	-0,206
110,903	226,939	-0,318	-0,362
111,918	46,999	-0,182	-0,118
112,933	70,861	-0,178	-0,129
113,947	153,649	-0,150	-0,144
114,962	-0,296	-0,213	-0,106
115,976	43,440	-0,280	-0,179
116,991	315,154	-0,189	-0,250
118,006	135,867	-0,266	-0,242
119,020	523,938	-0,188	-0,310
120,035	231,326	-0,200	-0,230
121,049	51,516	-0,297	-0,197
122,064	78,482	-0,256	-0,191
123,079	94,802	-0,240	-0,191
124,093	156,491	-0,181	-0,175
125,108	23,792	-0,298	-0,171
126,122	-63,166	-0,257	-0,074
127,137	-11,221	-0,230	-0,106
128,151	221,102	-0,101	-0,114
129,166	520,663	-0,129	-0,213
130,181	113,021	-0,219	-0,186
131,195	78,202	-0,183	-0,137
132,210	800,000	-0,102	-0,250
133,224	-15,172	-0,381	-0,170
134,239	42,537	-0,209	-0,132
135,254	58,764	-0,185	-0,127
136,268	78,110	-0,219	-0,163
137,283	-13,496	-0,243	-0,110
138,297	288,240	-0,192	-0,243
139,312	176,533	-0,243	-0,247
140,327	18,491	-0,321	-0,179
141,341	170,451	-0,208	-0,208
142,356	102,461	-0,150	-0,123
143,370	-131,577	-0,187	-0,017
144,385	-77,676	-0,269	-0,064
145,400	245,898	-0,190	-0,224
146,414	238,399	-0,187	-0,217
147,429	271,221	-0,137	-0,168
148,443	79,831	-0,234	-0,175
149,458	200,925	-0,122	-0,131
150,473	303,092	-0,148	-0,192
151,487	83,658	-0,231	-0,176
152,502	427,241	-0,157	-0,238
153,516	-90,841	-0,353	-0,070
154,531	58,649	-0,361	-0,247
155,546	75,475	-0,297	-0,218
156,560	308,914	-0,238	-0,311
157,575	84,017	-0,104	-0,079
158,589	-31,905	-0,321	-0,125
159,604	371,488	-0,149	-0,211
160,619	-100,686	-0,103	-0,018
161,633	240,074	-0,280	-0,325
162,648	171,207	-0,303	-0,304
163,662	195,417	-0,265	-0,281
164,677	-13,102	-0,261	-0,118
165,692	-157,252	-0,280	0,012
166,706	196,049	-0,257	-0,273
167,721	431,979	-0,206	-0,313
168,735	-20,238	-0,243	-0,104
169,750	318,627	-0,195	-0,258
170,764	226,189	-0,157	-0,178
171,779	150,138	-0,166	-0,157
172,794	47,466	-0,240	-0,156
173,808	31,132	-0,333	-0,199
174,823	-77,780	-0,181	-0,043
175,837	39,869	-0,298	-0,186
176,852	62,296	-0,257	-0,179
177,867	148,025	-0,177	-0,166
178,881	322,355	-0,150	-0,200
179,896	108,125	-0,166	-0,137
180,910	141,289	-0,174	-0,160
181,925	-104,136	-0,248	-0,040
182,940	214,027	-0,185	-0,204
183,954	269,473	-0,143	-0,176
184,969	-134,942	-0,128	-0,011
185,983	167,911	-0,234	-0,232
186,998	-20,741	-0,114	-0,049
188,013	-28,828	-0,244	-0,097
189,027	-67,482	-0,276	-0,075
190,042	31,116	-0,253	-0,151
191,056	800,000	-0,184	-0,359
192,071	59,894	-0,183	-0,126
193,086	800,000	-0,080	-0,205
194,100	507,637	-0,106	-0,172
195,115	113,901	-0,131	-0,111
196,129	4,319	-0,199	-0,101
197,144	340,250	-0,101	-0,138
198,159	179,694	-0,210	-0,214
199,173	581,537	-0,085	-0,145
200,188	156,321	-0,069	-0,067
201,202	800,000	-0,085	-0,163
202,217	69,123	-0,168	-0,120
203,232	111,529	-0,220	-0,184
204,246	644,782	-0,172	-0,306
205,261	-200,000	-0,069	-0,332
206,275	-76,713	-0,252	-0,061
207,290	717,693	-0,152	-0,282
208,304	468,811	-0,072	-0,113
209,319	139,622	-0,193	-0,176
210,334	261,598	-0,125	-0,150
211,348	417,191	-0,161	-0,239
212,363	11,952	-0,228	-0,121
213,377	256,650	-0,173	-0,207
214,392	-88,133	-0,051	-0,011
215,407	-200,000	0,025	-0,113
216,421	141,230	-0,179	-0,164
217,436	-66,443	-0,215	-0,059
218,450	274,405	-0,189	-0,233
219,465	342,505	-0,181	-0,246
220,480	304,924	-0,164	-0,212
221,494	800,000	-0,094	-0,209
222,509	-116,171	-0,215	-0,027
223,523	-73,041	-0,202	-0,051
224,538	356,774	-0,159	-0,221
225,553	396,283	-0,172	-0,250
226,567	12,045	-0,278	-0,148
227,582	-16,889	-0,180	-0,078
228,596	282,882	-0,135	-0,168
229,611	-84,069	-0,163	-0,036
230,626	56,419	-0,211	-0,142
231,640	-14,152	-0,359	-0,160
232,655	-21,253	-0,155	-0,065
233,669	203,692	-0,218	-0,235
234,684	800,000	-0,114	-0,232
235,699	23,473	-0,272	-0,154
236,713	-48,630	-0,223	-0,074
237,728	507,465	-0,109	-0,175
238,742	254,002	-0,148	-0,175
239,757	-200,000	-0,055	-0,188
240,772	299,101	-0,142	-0,181
241,786	705,437	-0,082	-0,151
242,801	21,817	-0,141	-0,079
243,815	653,945	-0,066	-0,118
244,830	320,246	-0,122	-0,160
245,844	-69,777	-0,209	-0,055
246,859	14,924	-0,171	-0,093
247,874	33,582	-0,160	-0,096
248,888	800,000	-0,092	-0,278
249,903	169,827	-0,240	-0,237
250,917	359,595	-0,162	-0,225
251,932	800,000	-0,026	-0,051
252,947	12,418	-0,149	-0,079
253,961	585,296	-0,055	-0,094
254,976	77,374	-0,270	-0,199
255,990	-47,277	-0,277	-0,093
257,005	-54,945	-0,248	-0,077
258,020	800,000	-0,096	-0,208
259,034	324,272	-0,132	-0,174
260,049	-58,123	-0,131	-0,039
261,063	193,492	-0,227	-0,237
262,078	-27,212	-0,301	-0,121
263,093	33,233	-0,261	-0,156
264,107	395,460	-0,137	-0,197
265,122	800,000	-0,072	-0,154
266,136	72,862	-0,151	-0,109
267,151	-200,000	0,002	-0,021
268,166	53,356	-0,180	-0,119
269,180	2,761	-0,137	-0,068
270,195	503,809	-0,101	-0,162
271,209	-100,039	-0,187	0,032
272,224	156,808	-0,081	-0,078
273,239	121,975	0,031	-0,026
274,253	271,673	-0,072	-0,088
275,268	-78,025	-0,150	-0,035
276,282	-17,412	-0,165	-0,071
277,297	800,000	-0,138	-0,365
278,312	56,221	-0,078	-0,052
279,326	800,000	-0,069	-0,152
280,341	51,800	-0,109	-0,072
281,355	-107,640	-0,189	-0,028
282,370	413,161	-0,109	-0,160
283,384	327,974	-0,122	-0,162
284,399	250,466	-0,195	-0,229
285,414	21,303	-0,174	-0,097
286,428	41,396	-0,203	-0,126
287,443	-123,798	-0,197	-0,021
288,457	800,000	-0,013	-0,029
289,472	800,000	-0,073	-0,153
290,487	-153,391	-0,296	-0,014
291,501	-152,046	-0,209	-0,010
292,516	281,358	-0,082	-0,101
293,530	740,599	-0,158	-0,294
294,545	51,846	-0,138	0,090
295,560	394,801	-0,139	-0,201
296,574	65,849	-0,167	-0,116
297,589	647,336	-0,069	-0,122
298,603	118,447	-0,233	-0,198
299,618	88,576	-0,211	-0,162
300,633	-200,000	-0,017	-0,119
301,647	140,856	-0,169	-0,154
302,662	286,316	0,039	-0,049
303,676	-25,430	-0,086	-0,035
304,691	109,456	-0,109	-0,090
305,706	143,199	-0,089	-0,081
306,720	33,310	-0,207	-0,124
307,735	-167,893	-0,148	-0,004
308,749	-200,000	-0,023	-0,082
309,764	-1,963	-0,181	-0,087
310,779	81,723	-0,199	-0,148
311,793	57,410	-0,134	-0,090
312,808	330,700	-0,093	-0,124
313,822	111,111	-0,188	-0,156
314,837	69,663	-0,063	-0,045
315,852	-35,891	-0,196	-0,072
316,866	602,303	-0,018	-0,031
317,881	208,556	-0,183	-0,197
318,895	797,942	-0,051	-0,096
319,910	172,779	-0,131	-0,130
320,925	233,207	-0,178	-0,202
321,939	230,227	-0,151	-0,170
322,954	26,328	-0,083	-0,048
323,968	-200,000	0,018	-0,091
324,983	51,966	-0,278	-0,181
325,997	87,956	-0,156	-0,119
327,012	792,236	-0,146	-0,278
328,027	57,690	-0,138	-0,093
329,041	311,343	-0,084	-0,109
330,056	-200,000	-0,064	-0,235
331,070	-200,000	0,035	-0,185
332,085	-110,684	-0,039	-0,005
333,100	462,587	-0,139	-0,214
334,114	262,193	-0,191	-0,228
335,129	-33,565	-0,238	-0,090
336,143	-72,149	-0,231	-0,058
337,158	339,291	-0,056	-0,075
338,173	-6,034	-0,095	-0,045
339,187	-27,275	-0,094	0,037
340,202	271,601	-0,105	-0,127
341,216	-44,175	-0,177	-0,061
342,231	800,000	-0,089	-0,246
343,246	-57,775	-0,135	-0,040
344,260	-76,845	-0,160	-0,038
345,275	477,777	-0,074	-0,116
346,289	-200,000	0,007	0,087
347,304	-32,700	-0,156	-0,059
348,319	42,428	-0,101	-0,063
349,333	45,650	-0,217	-0,137
350,348	211,454	-0,087	-0,094
351,362	709,710	-0,053	-0,097
352,377	44,736	-0,058	-0,036
353,392	-97,071	-0,104	-0,018
354,406	-171,740	-0,135	0,003
355,421	208,736	1315,476	1412,948
356,435	160,621	1476,305	1413,440
