DTS Sentinel unit serial number:	SN410029Multiplexer serial number:	ORYXHardware model number:	OX2-SRSoftware version number:	ORYX F/W v4,00 Oryx Data Collector v3.7.2.0data status	okinstallation	B3 Nyhavnadifferential loss correction	single-endedforward channel	channel 1reverse channel	N/Adate	2023/11/30time	20:37:30forward acquisition time	300,00reverse acquisition time	0,00gamma	499,1914k internal	0,3208k external	0,3208temperature offset calibration	1,0000default loss term (dB/km)	0,3820temperature slope calibration	1,0000multiplexer offset coefficient	1,0000multiplexer slope coefficient	1,0000fibre end	0,00T internal ref (°C)	11,15T ext. ref 1 (°C)	-4,20T ext. ref 2 (°C)	-4,32length (m)	temperature (°C)	Stokes	anti-Stokes-744,400	263,826	-0,163	-0,206
-743,385	-200,000	-0,060	0,225
-742,371	191,273	-0,146	-0,160
-741,356	-200,000	0,118	0,403
-740,342	-56,606	-0,091	-0,029
-739,327	-200,000	-0,013	0,401
-738,312	800,000	-0,091	-0,281
-737,298	412,000	-0,129	0,199
-736,283	-1,816	-0,232	-0,118
-735,269	800,000	0,098	0,272
-734,254	119,896	-0,245	-0,220
-733,239	-29,014	-0,314	0,130
-732,225	161,166	-0,190	-0,193
-731,210	276,541	0,108	0,139
-730,196	30,455	-0,046	-0,028
-729,181	286,668	-0,119	-0,157
-728,167	-87,484	0,102	0,022
-727,152	800,000	0,017	-0,046
-726,137	-200,000	0,003	0,024
-725,123	-72,874	-0,144	-0,038
-724,108	20,783	-0,060	-0,035
-723,094	-200,000	-0,017	0,101
-722,079	-200,000	-0,062	-0,227
-721,064	205,005	-0,050	-0,056
-720,050	-200,000	0,002	0,010
-719,035	-44,027	0,023	-0,008
-718,021	7,909	-0,090	-0,049
-717,006	800,000	-0,017	-0,045
-715,991	-54,049	-0,080	-0,026
-714,977	-200,000	-0,022	-0,265
-713,962	-57,647	0,073	0,023
-712,948	800,000	-0,022	0,063
-711,933	-200,000	-0,001	-0,066
-710,918	67,529	-0,142	-0,105
-709,904	-11,937	-0,095	-0,045
-708,889	56,291	-0,077	-0,054
-707,875	0,215	-0,031	0,016
-706,860	800,000	-0,026	-0,061
-705,845	259,922	-0,069	0,086
-704,831	-136,503	0,109	0,009
-703,816	800,000	0,065	0,176
-702,802	118,302	-0,110	0,098
-701,787	800,000	-0,042	-0,100
-700,772	95,006	-0,159	-0,131
-699,758	-200,000	0,005	-0,069
-698,743	667,533	-0,018	-0,033
-697,729	542,246	0,024	0,041
-696,714	577,197	0,045	-0,080
-695,699	50,688	-0,060	-0,041
-694,685	-56,113	-0,064	-0,020
-693,670	-174,494	-0,032	0,001
-692,656	-200,000	-0,003	0,078
-691,641	10,145	0,100	0,055
-690,627	51,930	-0,081	0,055
-689,612	-200,000	0,005	0,080
-688,597	-81,859	-0,031	0,007
-687,583	-61,360	-0,081	-0,025
-686,568	-200,000	-0,021	-0,069
-685,554	-200,000	-0,049	-0,186
-684,539	-111,503	0,136	-0,020
-683,524	225,784	-0,045	-0,053
-682,510	287,576	0,049	-0,064
-681,495	39,022	0,062	0,040
-680,481	800,000	0,011	0,026
-679,466	458,339	-0,015	0,024
-678,451	800,000	0,050	0,107
-677,437	-139,721	0,219	0,017
-676,422	-70,598	-0,091	0,025
-675,408	-200,000	0,003	0,040
-674,393	507,078	0,010	-0,017
-673,378	-8,946	0,084	-0,041
-672,364	-64,509	-0,103	0,030
-671,349	56,137	0,087	-0,061
-670,335	-200,000	-0,005	-0,018
-669,320	52,243	-0,072	-0,050
-668,305	591,327	0,069	-0,123
-667,291	-200,000	0,002	0,108
-666,276	23,945	0,055	0,033
-665,262	-148,051	-0,128	0,008
-664,247	800,000	0,022	0,054
-663,232	84,824	0,084	-0,067
-662,218	25,105	-0,107	0,064
-661,203	800,000	-0,018	-0,039
-660,189	-20,692	-0,081	0,036
-659,174	-1,618	0,035	0,018
-658,159	-66,506	0,171	0,049
-657,145	-200,000	-0,011	-0,163
-656,130	-79,316	-0,078	-0,019
-655,116	369,054	-0,053	0,078
-654,101	168,109	0,070	0,072
-653,086	-68,810	0,149	0,041
-652,072	408,251	-0,077	-0,118
-651,057	-118,811	-0,189	-0,024
-650,043	177,581	0,096	-0,101
-649,028	-65,072	0,072	0,021
-648,014	-200,000	0,016	-0,069
-646,999	298,424	-0,015	0,020
-645,984	-87,495	0,189	-0,041
-644,970	185,351	-0,130	-0,140
-643,955	6,791	-0,098	0,053
-642,941	-200,000	-0,002	-0,133
-641,926	800,000	0,020	0,057
-640,911	-200,000	0,030	0,111
-639,897	-200,000	-0,001	0,137
-638,882	121,586	0,013	-0,011
-637,868	-200,000	0,021	-0,130
-636,853	271,390	0,015	0,019
-635,838	-87,596	-0,113	-0,024
-634,824	203,156	-0,046	-0,052
-633,809	-200,000	0,003	0,016
-632,795	45,830	0,045	0,030
-631,780	800,000	-0,028	-0,058
-630,765	566,613	-0,045	-0,080
-629,751	9,884	-0,119	0,065
-628,736	130,974	0,023	-0,022
-627,722	800,000	-0,026	0,069
-626,707	77,264	-0,059	0,045
-625,692	800,000	0,021	-0,050
-624,678	-50,063	-0,082	-0,028
-623,663	-200,000	0,014	0,125
-622,649	-128,149	-0,061	-0,006
-621,634	502,894	0,045	0,076
-620,619	-135,623	-0,213	0,018
-619,605	192,854	-0,046	0,051
-618,590	-200,000	-0,018	0,159
-617,576	-200,000	0,030	0,104
-616,561	165,843	-0,008	0,008
-615,546	-146,381	0,051	-0,003
-614,532	-115,091	-0,203	-0,027
-613,517	800,000	0,028	-0,059
-612,503	-61,330	0,096	-0,029
-611,488	-200,000	-0,027	-0,115
-610,474	-200,000	0,014	0,137
-609,459	403,194	-0,056	0,085
-608,444	-3,582	-0,244	-0,122
-607,430	-3,220	-0,005	0,002
-606,415	-120,607	-0,154	0,019
-605,401	-114,372	-0,059	-0,008
-604,386	-6,019	-0,146	0,072
-603,371	-148,560	-0,124	0,007
-602,357	573,794	-0,044	-0,078
-601,342	150,596	0,111	-0,109
-600,328	151,946	0,123	-0,122
-599,313	3,530	-0,062	-0,032
-598,298	-14,646	-0,040	0,019
-597,284	3,046	-0,065	0,034
-596,269	-200,000	-0,004	-0,013
-595,255	10,324	0,111	-0,061
-594,240	789,336	-0,043	0,087
-593,225	-200,000	-0,009	0,081
-592,211	130,854	0,063	-0,059
-591,196	501,914	0,022	0,036
-590,182	4,294	-0,154	0,081
-589,167	-132,456	0,093	0,008
-588,152	20,595	-0,125	0,073
-587,138	402,967	-0,080	0,121
-586,123	47,850	-0,124	-0,083
-585,109	-200,000	-0,002	-0,166
-584,094	-39,541	0,092	-0,035
-583,079	-133,816	-0,041	-0,004
-582,065	234,123	-0,021	0,025
-581,050	-200,000	-0,013	0,057
-580,036	4,322	-0,139	-0,073
-579,021	800,000	0,014	-0,038
-578,006	-200,000	0,015	-0,126
-576,992	-80,405	0,190	0,045
-575,977	-200,000	0,065	-0,217
-574,963	-85,130	0,048	-0,011
-573,948	666,383	-0,018	0,034
-572,934	-150,292	0,044	0,002
-571,919	45,448	0,023	0,015
-570,904	248,193	-0,073	-0,089
-569,890	-77,679	-0,034	-0,008
-568,875	-200,000	0,004	0,127
-567,861	95,695	-0,068	0,056
-566,846	-127,112	0,095	0,010
-565,831	-200,000	-0,005	0,045
-564,817	-69,540	-0,118	-0,032
-563,802	-68,507	-0,045	0,012
-562,788	-200,000	-0,007	-0,134
-561,773	198,984	-0,052	0,058
-560,758	506,338	0,074	0,125
-559,744	20,338	0,060	0,035
-558,729	-103,138	-0,142	-0,024
-557,715	517,941	0,037	0,063
-556,700	-200,000	0,007	0,070
-555,685	536,925	0,096	-0,166
-554,671	-152,113	-0,060	0,003
-553,656	-63,883	0,097	0,029
-552,642	-200,000	0,008	0,045
-551,627	65,800	0,026	-0,019
-550,612	268,767	-0,100	-0,126
-549,598	37,962	-0,135	-0,086
-548,583	23,714	0,064	-0,038
-547,569	30,117	0,105	-0,064
-546,554	-75,113	0,061	-0,016
-545,539	800,000	0,022	0,069
-544,525	-200,000	0,016	0,142
-543,510	258,977	-0,010	-0,013
-542,496	-12,199	-0,086	0,040
-541,481	71,279	0,041	-0,031
-540,466	-48,020	0,060	-0,021
-539,452	195,280	-0,084	-0,092
-538,437	115,539	0,071	-0,062
-537,423	27,713	-0,020	-0,012
-536,408	411,136	-0,029	-0,044
-535,393	31,433	-0,138	0,085
-534,379	66,553	-0,083	-0,060
-533,364	19,300	-0,060	0,034
-532,350	800,000	0,026	0,059
-531,335	-106,858	0,051	0,008
-530,321	800,000	0,022	-0,050
-529,306	519,072	-0,101	-0,171
-528,291	800,000	0,031	-0,088
-527,277	94,341	-0,039	-0,032
-526,262	175,819	0,083	0,087
-525,248	86,334	-0,058	-0,046
-524,233	352,385	0,081	-0,116
-523,218	360,392	0,047	0,068
-522,204	-200,000	-0,037	-0,177
-521,189	331,018	-0,019	-0,026
-520,175	-117,757	-0,065	-0,008
-519,160	-1,905	0,082	-0,042
-518,145	-200,000	0,012	0,060
-517,131	-154,983	0,200	0,009
-516,116	-144,471	-0,118	-0,008
-515,102	-200,000	-0,005	0,022
-514,087	11,064	0,105	-0,058
-513,072	98,234	-0,074	-0,061
-512,058	-200,000	-0,019	-0,073
-511,043	-70,768	0,050	0,013
-510,029	-124,587	0,086	0,009
-509,014	-81,879	0,122	-0,028
-507,999	-37,783	-0,061	0,023
-506,985	-200,000	-0,031	-0,140
-505,970	739,631	-0,049	-0,094
-504,956	341,416	0,111	-0,157
-503,941	800,000	-0,043	0,086
-502,926	-24,345	0,213	0,091
-501,912	244,919	0,016	-0,019
-500,897	295,272	-0,109	0,143
-499,883	-124,714	0,110	0,012
-498,868	-145,413	-0,132	0,008
-497,853	45,677	-0,110	0,073
-496,839	-200,000	0,008	0,029
-495,824	800,000	0,055	0,136
-494,810	3,801	-0,025	0,013
-493,795	800,000	0,045	0,093
-492,781	669,406	0,037	0,070
-491,766	800,000	0,010	0,026
-490,751	293,860	-0,011	0,014
-489,737	645,927	0,041	-0,075
-488,722	-51,703	0,134	-0,045
-487,708	800,000	0,069	0,156
-486,693	191,309	0,057	-0,061
-485,678	3,822	-0,068	0,036
-484,664	250,773	0,117	0,143
-483,649	212,776	-0,054	-0,061
-482,635	-200,000	0,012	0,087
-481,620	-149,633	-0,177	0,010
-480,605	30,447	0,136	0,083
-479,591	-78,073	0,163	0,040
-478,576	-65,408	-0,058	0,017
-477,562	-200,000	-0,001	0,131
-476,547	28,372	-0,100	-0,060
-475,532	-200,000	0,010	-0,054
-474,518	518,320	-0,043	-0,073
-473,503	800,000	0,035	0,073
-472,489	191,249	0,066	0,072
-471,474	-74,927	0,035	0,009
-470,459	-200,000	0,053	-0,212
-469,445	-200,000	-0,010	-0,173
-468,430	0,746	0,099	-0,051
-467,416	130,680	0,047	-0,043
-466,401	638,808	0,044	0,081
-465,386	-5,408	-0,164	0,081
-464,372	256,224	-0,022	0,027
-463,357	28,919	-0,144	0,088
-462,343	-118,852	-0,159	0,020
-461,328	-138,627	-0,042	-0,003
-460,313	800,000	0,052	0,149
-459,299	800,000	-0,017	0,053
-458,284	199,237	-0,039	0,043
-457,270	-195,724	-0,096	-0,000
-456,255	-200,000	0,041	0,159
-455,241	800,000	-0,009	-0,021
-454,226	-103,068	0,083	-0,014
-453,211	-200,000	-0,011	-0,070
-452,197	198,821	0,060	0,066
-451,182	270,993	0,012	-0,015
-450,168	-200,000	0,005	-0,060
-449,153	151,210	-0,044	-0,043
-448,138	456,361	-0,062	-0,099
-447,124	-48,263	-0,213	-0,073
-446,109	800,000	0,059	-0,184
-445,095	495,028	0,077	0,127
-444,080	201,726	-0,083	0,091
-443,065	2,615	-0,128	-0,066
-442,051	-73,434	-0,075	-0,020
-441,036	-169,301	-0,102	-0,003
-440,022	800,000	-0,027	-0,071
-439,007	-72,484	0,062	0,016
-437,992	-94,622	0,113	-0,022
-436,978	800,000	-0,017	-0,036
-435,963	-37,061	0,207	0,079
-434,949	800,000	-0,034	0,073
-433,934	569,394	-0,032	-0,056
-432,919	-200,000	0,025	-0,128
-431,905	125,456	-0,016	0,015
-430,890	-15,654	0,122	-0,056
-429,876	-77,327	0,109	0,027
-428,861	-50,473	0,117	0,039
-427,846	-200,000	-0,011	-0,052
-426,832	-200,000	0,009	0,048
-425,817	233,786	-0,065	-0,077
-424,803	-200,000	0,015	-0,080
-423,788	-200,000	0,032	0,140
-422,773	-200,000	0,026	0,112
-421,759	635,586	-0,026	-0,047
-420,744	50,838	-0,022	0,015
-419,730	395,056	-0,039	0,058
-418,715	80,734	-0,013	-0,010
-417,701	123,358	0,082	-0,074
-416,686	88,222	-0,055	-0,044
-415,671	164,941	0,074	0,074
-414,657	678,516	0,050	-0,094
-413,642	49,711	0,062	0,042
-412,628	13,715	0,067	-0,037
-411,613	307,685	-0,115	-0,154
-410,598	-59,664	-0,100	0,031
-409,584	-151,925	0,052	0,003
-408,569	-89,655	0,170	0,035
-407,555	-200,000	0,005	0,135
-406,540	402,420	-0,038	0,058
-405,525	765,426	-0,016	0,031
-404,511	4,687	-0,129	0,068
-403,496	-200,000	-0,013	0,077
-402,482	800,000	0,047	-0,148
-401,467	-134,441	0,023	-0,002
-400,452	482,724	0,095	0,155
-399,438	10,478	0,016	-0,009
-398,423	107,147	-0,051	-0,043
-397,409	467,497	-0,034	-0,054
-396,394	-200,000	0,001	-0,038
-395,379	418,371	0,065	-0,100
-394,365	800,000	0,039	0,105
-393,350	128,190	0,042	0,038
-392,336	-37,121	0,100	0,038
-391,321	-31,019	-0,070	-0,028
-390,306	-76,887	-0,045	0,011
-389,292	-74,238	-0,073	0,019
-388,277	-200,000	0,026	-0,138
-387,263	-92,276	-0,058	-0,012
-386,248	-145,153	-0,055	0,004
-385,233	66,295	-0,049	0,036
-384,219	800,000	-0,026	-0,058
-383,204	-103,145	-0,084	0,014
-382,190	286,208	-0,090	-0,117
-381,175	-200,000	-0,010	-0,034
-380,160	-113,549	0,121	-0,017
-379,146	-200,000	0,008	-0,111
-378,131	-200,000	0,010	-0,054
-377,117	104,175	-0,092	-0,077
-376,102	173,501	-0,025	-0,025
-375,088	-86,129	-0,129	-0,028
-374,073	295,293	0,030	-0,040
-373,058	35,736	0,062	-0,039
-372,044	800,000	0,027	0,060
-371,029	-68,497	-0,057	-0,016
-370,015	-200,000	-0,005	0,021
-369,000	800,000	0,045	-0,119
-367,985	383,408	0,101	0,149
-366,971	-133,338	-0,018	0,002
-365,956	-72,681	0,115	-0,030
-364,942	-63,681	0,065	0,019
-363,927	-143,489	-0,060	0,004
-362,912	129,057	-0,092	0,084
-361,898	-16,609	0,022	-0,010
-360,883	77,517	0,100	0,076
-359,869	598,246	0,016	-0,028
-358,854	640,362	0,039	0,071
-357,839	-200,000	0,026	0,180
-356,825	800,000	-0,040	0,121
-355,810	-106,741	-0,094	0,015
-354,796	800,000	0,024	0,073
-353,781	-44,542	-0,130	-0,046
-352,766	185,081	0,087	-0,092
-351,752	-102,374	0,144	-0,024
-350,737	24,422	-0,066	0,039
-349,723	-200,000	0,015	-0,069
-348,708	-200,000	0,002	-0,031
-347,693	800,000	0,076	0,161
-346,679	101,534	0,024	-0,020
-345,664	630,267	0,081	-0,147
-344,650	-200,000	0,023	-0,113
-343,635	794,453	-0,020	-0,040
-342,620	39,366	0,054	-0,034
-341,606	-200,000	0,002	-0,018
-340,591	800,000	-0,015	-0,045
-339,577	800,000	0,034	-0,098
-338,562	77,984	-0,095	-0,072
-337,548	800,000	0,048	-0,097
-336,533	800,000	0,021	-0,042
-335,518	-200,000	0,011	-0,090
-334,504	34,665	-0,107	0,066
-333,489	386,670	-0,010	0,015
-332,475	16,949	-0,062	0,035
-331,460	-93,799	-0,086	0,017
-330,445	-200,000	-0,017	0,056
-329,431	173,073	-0,042	0,043
-328,416	-200,000	-0,005	0,160
-327,402	475,893	-0,058	0,094
-326,387	463,779	0,045	0,073
-325,372	10,513	-0,050	0,027
-324,358	221,338	0,033	0,038
-323,343	800,000	0,032	0,066
-322,329	463,453	-0,049	0,078
-321,314	-200,000	-0,002	0,116
-320,299	-87,617	0,007	-0,002
-319,285	-176,578	-0,093	-0,002
-318,270	-200,000	-0,048	0,176
-317,256	800,000	-0,073	-0,151
-316,241	462,344	0,012	0,019
-315,226	-151,861	0,062	-0,003
-314,212	800,000	-0,028	-0,073
-313,197	276,706	-0,043	-0,054
-312,183	183,654	0,022	-0,023
-311,168	202,802	0,130	-0,143
-310,153	342,491	-0,106	-0,148
-309,139	64,583	-0,091	-0,066
-308,124	-47,774	0,128	0,044
-307,110	103,489	0,063	0,052
-306,095	27,482	0,094	0,056
-305,080	517,863	0,076	0,127
-304,066	40,449	-0,117	-0,075
-303,051	-21,745	-0,114	0,049
-302,037	46,179	0,119	0,079
-301,022	800,000	-0,034	-0,095
-300,008	-0,146	-0,034	0,017
-298,993	146,108	0,047	0,045
-297,978	-105,695	0,079	-0,013
-296,964	-19,353	-0,092	-0,040
-295,949	216,598	0,096	-0,109
-294,935	-66,091	-0,056	-0,016
-293,920	-200,000	0,009	-0,077
-292,905	30,309	0,102	0,062
-291,891	-200,000	-0,028	0,114
-290,876	800,000	-0,050	0,121
-289,862	123,765	-0,071	0,064
-288,847	-198,627	0,096	-0,000
-287,832	-22,126	0,059	0,025
-286,818	-79,433	0,123	-0,029
-285,803	-165,620	0,171	-0,005
-284,789	-200,000	0,013	0,085
-283,774	122,801	-0,141	0,126
-282,759	-63,638	-0,124	0,036
-281,745	-28,825	0,107	-0,044
-280,730	800,000	-0,086	-0,217
-279,716	-124,425	-0,157	-0,017
-278,701	-163,460	0,073	-0,002
-277,686	-41,816	0,059	0,021
-276,672	223,417	-0,097	0,112
-275,657	-130,200	-0,055	-0,005
-274,643	-100,812	-0,140	0,024
-273,628	-162,043	-0,132	-0,005
-272,613	-147,458	0,047	0,003
-271,599	-200,000	-0,008	0,129
-270,584	-200,000	-0,003	0,018
-269,570	-92,006	-0,007	-0,001
-268,555	497,905	-0,073	0,121
-267,540	-200,000	-0,021	-0,110
-266,526	-10,624	0,121	-0,057
-265,511	-200,000	-0,003	0,075
-264,497	374,706	-0,048	-0,070
-263,482	65,571	0,209	0,150
-262,467	-80,125	-0,102	-0,024
-261,453	-35,479	-0,147	-0,057
-260,438	-200,000	0,009	0,164
-259,424	-200,000	0,026	-0,098
-258,409	-164,694	-0,084	0,003
-257,395	800,000	-0,020	0,043
-256,380	800,000	0,083	0,181
-255,365	100,871	0,040	-0,033
-254,351	-39,832	-0,014	-0,005
-253,336	68,743	0,099	-0,072
-252,322	318,390	-0,118	0,160
-251,307	-200,000	0,022	0,100
-250,292	68,575	0,090	0,065
-249,278	800,000	-0,063	-0,181
-248,263	134,812	0,058	0,053
-247,249	800,000	-0,055	0,121
-246,234	-200,000	0,001	0,066
-245,219	-175,619	-0,023	-0,000
-244,205	-200,000	-0,015	-0,063
-243,190	-200,000	0,014	-0,084
-242,176	163,297	0,048	-0,048
-241,161	-41,580	0,167	0,061
-240,146	101,393	0,090	-0,075
-239,132	43,596	0,121	0,079
-238,117	-200,000	0,003	-0,026
-237,103	105,979	-0,053	-0,044
-236,088	-200,000	-0,005	-0,242
-235,073	358,973	0,053	0,075
-234,059	800,000	0,054	0,122
-233,044	-83,648	0,064	-0,014
-232,030	-109,781	-0,056	-0,008
-231,015	-21,202	-0,124	-0,054
-230,000	498,009	-0,113	-0,186
-228,986	-161,061	0,237	-0,009
-227,971	-57,487	0,113	0,035
-226,957	99,211	0,072	0,059
-225,942	-200,000	0,015	0,168
-224,927	83,171	-0,051	0,039
-223,913	5,650	0,013	-0,007
-222,898	-41,113	-0,009	0,003
-221,884	-181,321	0,131	0,002
-220,869	-140,520	-0,101	0,007
-219,855	32,112	0,046	-0,028
-218,840	-128,832	0,062	-0,006
-217,825	-200,000	0,028	-0,116
-216,811	262,937	-0,105	-0,130
-215,796	-0,272	-0,028	-0,014
-214,782	-200,000	0,006	-0,060
-213,767	411,523	0,063	-0,095
-212,752	171,274	0,091	0,093
-211,738	-16,993	-0,048	0,021
-210,723	800,000	-0,029	0,071
-209,709	800,000	-0,022	-0,049
-208,694	-96,991	0,045	-0,008
-207,679	-121,666	0,063	0,007
-206,665	286,352	0,046	0,059
-205,650	-162,364	-0,073	-0,003
-204,636	244,540	-0,035	-0,041
-203,621	800,000	-0,043	-0,126
-202,606	98,462	0,072	-0,059
-201,592	-200,000	0,018	-0,190
-200,577	800,000	0,025	-0,064
-199,563	104,703	-0,104	0,087
-198,548	477,159	0,051	0,082
-197,533	-30,589	0,073	0,029
-196,519	-200,000	-0,012	0,060
-195,504	166,282	-0,055	-0,055
-194,490	-200,000	0,024	-0,076
-193,475	69,652	-0,044	0,032
-192,460	-96,140	-0,187	0,035
-191,446	13,938	0,183	0,101
-190,431	171,020	0,104	0,106
-189,417	-155,150	0,164	-0,008
-188,402	-200,000	0,153	0,000
-187,387	-200,000	0,019	-0,083
-186,373	24,848	-0,086	-0,051
-185,358	-84,095	-0,028	-0,006
-184,344	292,219	-0,024	0,031
-183,329	97,870	0,057	0,046
-182,315	-158,022	0,053	-0,002
-181,300	-110,512	-0,080	-0,012
-180,285	800,000	-0,023	-0,066
-179,271	-200,000	0,031	0,109
-178,256	-200,000	-0,011	-0,118
-177,242	-51,967	0,153	-0,050
-176,227	-9,936	0,012	0,006
-175,212	324,773	0,140	0,191
-174,198	530,092	-0,074	0,124
-173,183	-200,000	0,018	0,057
-172,169	800,000	0,012	-0,032
-171,154	189,642	-0,036	-0,038
-170,139	-89,653	0,232	-0,048
-169,125	407,355	-0,026	-0,038
-168,110	323,440	0,070	-0,095
-167,096	-200,000	0,008	0,083
-166,081	-84,316	-0,144	0,032
-165,066	-200,000	0,018	-0,129
-164,052	452,245	0,025	0,039
-163,037	-65,781	-0,033	-0,009
-162,023	800,000	0,032	0,072
-161,008	-17,240	-0,151	0,067
-159,993	-200,000	0,008	0,057
-158,979	-200,000	-0,040	-0,150
-157,964	-190,671	0,059	-0,000
-156,950	-7,022	-0,070	-0,033
-155,935	-200,000	-0,005	0,027
-154,920	472,347	0,044	0,071
-153,906	-68,170	0,050	0,014
-152,891	270,822	-0,055	-0,069
-151,877	-153,097	-0,038	-0,002
-150,862	-46,611	-0,069	-0,024
-149,847	248,825	0,011	0,013
-148,833	800,000	0,015	-0,037
-147,818	-133,988	-0,039	0,003
-146,804	800,000	0,021	0,061
-145,789	-102,762	-0,088	0,015
-144,775	800,000	-0,085	0,230
-143,760	-60,123	-0,112	0,034
-142,745	800,000	-0,028	0,068
-141,731	-70,929	0,064	-0,017
-140,716	800,000	0,075	0,176
-139,702	74,374	0,051	0,038
-138,687	800,000	-0,061	0,163
-137,672	65,262	-0,101	0,072
-136,658	-200,000	0,023	-0,104
-135,643	-127,990	-0,159	-0,016
-134,629	125,829	-0,095	-0,085
-133,614	192,008	-0,046	0,049
-132,599	43,505	0,118	-0,076
-131,585	286,537	0,009	-0,011
-130,570	800,000	-0,031	0,087
-129,556	800,000	0,060	-0,130
-128,541	240,628	-0,107	-0,126
-127,526	-83,955	-0,092	-0,021
-126,512	51,971	0,086	-0,058
-125,497	800,000	-0,043	-0,090
-124,483	-33,806	0,043	-0,017
-123,468	-1,844	0,029	0,014
-122,453	-200,000	-0,007	-0,070
-121,439	43,714	-0,074	0,048
-120,424	53,830	0,070	0,048
-119,410	-200,000	-0,000	0,095
-118,395	-13,997	-0,044	0,020
-117,380	88,185	-0,050	0,040
-116,366	-200,000	-0,012	-0,049
-115,351	25,584	-0,049	-0,029
-114,337	-200,000	0,010	-0,115
-113,322	-41,540	-0,037	-0,014
-112,307	800,000	0,018	-0,043
-111,293	-200,000	0,017	0,129
-110,278	-200,000	0,012	-0,082
-109,264	800,000	0,050	-0,139
-108,249	-142,518	-0,117	-0,008
-107,234	137,731	-0,038	0,035
-106,220	-200,000	-0,013	-0,090
-105,205	399,186	-0,049	-0,073
-104,191	-105,413	0,068	0,011
-103,176	86,827	-0,018	0,014
-102,162	209,825	0,023	0,025
-101,147	251,832	-0,056	-0,067
-100,132	-200,000	-0,003	-0,108
-99,118	-200,000	0,009	0,046
-98,103	-170,087	0,125	-0,003
-97,089	269,014	0,101	0,126
-96,074	-115,052	-0,071	0,009
-95,059	-200,000	-0,004	0,061
-94,045	-200,000	-0,029	0,177
-93,030	293,045	-0,034	-0,044
-92,016	-200,000	0,015	-0,098
-91,001	104,232	-0,035	0,029
-89,986	103,213	0,061	0,050
-88,972	-200,000	0,007	0,026
-87,957	-200,000	0,008	0,196
-86,943	800,000	0,009	-0,020
-85,928	-121,962	-0,171	0,020
-84,913	800,000	0,054	0,107
-83,899	262,571	-0,052	0,065
-82,884	-200,000	-0,001	0,169
-81,870	800,000	-0,049	0,137
-80,855	96,773	0,071	0,057
-79,840	16,870	0,065	0,036
-78,826	213,666	-0,010	0,011
-77,811	89,580	0,125	-0,098
-76,797	245,288	-0,052	0,062
-75,782	-200,000	-0,021	-0,139
-74,767	520,450	0,060	0,100
-73,753	445,014	0,029	0,045
-72,738	-23,075	0,032	0,013
-71,724	-200,000	-0,006	-0,056
-70,709	-63,335	0,097	-0,028
-69,694	-40,088	-0,113	0,041
-68,680	800,000	-0,023	0,050
-67,665	-108,599	0,077	0,012
-66,651	-27,221	0,030	-0,012
-65,636	-156,880	0,062	0,003
-64,622	-200,000	0,008	-0,058
-63,607	-200,000	-0,023	-0,094
-62,592	134,279	0,060	-0,055
-61,578	-200,000	0,004	-0,038
-60,563	-82,783	0,074	-0,017
-59,549	26,877	-0,073	0,043
-58,534	21,759	-1,990	-1,142
-57,519	608,061	-1,183	-2,094
-56,505	-200,000	-0,509	-4,443
-55,490	342,652	0,875	1,213
-54,476	800,000	5,091	11,581
-53,461	-200,000	20,897	329,969
-52,446	800,000	756,329	2323,916
-51,432	551,423	1663,215	2830,893
-50,417	73,915	1666,719	1233,342
-49,403	18,994	1539,961	869,524
-48,388	12,987	1462,837	796,841
-47,373	19,138	1453,436	821,295
-46,359	16,064	1442,959	800,676
-45,344	11,283	1438,664	775,436
-44,330	11,186	1436,966	774,025
-43,315	11,213	1434,678	772,892
-42,300	11,158	1433,143	771,771
-41,286	11,196	1431,732	771,164
-40,271	11,195	1430,480	770,454
-39,257	11,182	1429,292	769,720
-38,242	11,227	1428,205	769,317
-37,227	11,230	1426,956	768,629
-36,213	11,250	1425,725	768,033
-35,198	11,239	1424,627	767,356
-34,184	11,247	1423,992	767,022
-33,169	11,207	1422,442	765,969
-32,154	11,302	1421,081	765,651
-31,140	11,258	1420,100	764,887
-30,125	11,280	1419,091	764,414
-29,111	11,257	1417,926	763,650
-28,096	11,294	1416,656	763,109
-27,082	11,219	1415,572	762,142
-26,067	11,165	1414,702	761,389
-25,052	11,184	1413,211	760,645
-24,038	11,172	1412,416	760,131
-23,023	11,212	1411,470	759,779
-22,009	11,135	1410,640	758,943
-20,994	11,202	1409,353	758,533
-19,979	11,121	1408,692	757,767
-18,965	11,158	1407,650	757,352
-17,950	11,143	1406,827	756,810
-16,936	11,151	1405,982	756,361
-15,921	11,081	1404,808	755,371
-14,906	11,074	1403,989	754,872
-13,892	11,127	1402,859	754,479
-12,877	11,096	1402,251	753,978
-11,863	11,062	1401,498	753,384
-10,848	11,083	1400,201	752,755
-9,833	11,045	1399,485	752,162
-8,819	10,947	1398,815	751,318
-7,804	10,985	1397,865	750,954
-6,790	11,021	1396,695	750,463
-5,775	10,993	1395,550	749,689
-4,760	11,027	1394,899	749,468
-3,746	11,006	1393,978	748,844
-2,731	11,007	1393,021	748,305
-1,717	10,977	1392,215	747,702
-0,702	10,965	1390,404	746,648
0,313	14,897	1303,974	718,315
1,327	31,028	695,127	419,744
2,342	47,778	120,885	79,516
3,356	-1,298	16,579	8,235
4,371	12,182	3,413	1,849
5,386	29,569	0,768	0,460
6,400	800,000	0,197	0,436
7,415	156,682	-0,139	-0,136
8,429	133,925	-0,181	-0,165
9,444	-35,092	-0,342	-0,131
10,459	387,300	-0,235	-0,343
11,473	241,263	-0,132	-0,156
12,488	-49,306	-0,358	-0,120
13,502	21,873	-0,343	-0,196
14,517	77,871	-0,262	-0,197
15,531	27,054	-0,360	-0,212
16,546	157,166	-0,220	-0,215
17,561	29,048	-0,353	-0,211
18,575	28,444	-0,110	-0,065
19,590	-22,681	-0,250	-0,106
20,604	86,003	-0,217	-0,168
21,619	78,693	-0,405	-0,305
22,634	54,366	-0,346	-0,234
23,648	61,114	-0,360	-0,252
24,663	57,759	-0,427	-0,294
25,677	118,867	-0,406	-0,353
26,692	-51,546	-0,343	-0,112
27,707	9,225	-0,318	-0,169
28,721	136,757	-0,303	-0,279
29,736	-50,321	-0,476	-0,157
30,750	-4,406	-0,584	-0,283
31,765	122,617	-0,337	-0,297
32,780	174,541	-0,325	-0,331
33,794	42,972	-0,311	-0,199
34,809	119,521	-0,381	-0,332
35,823	215,656	-0,235	-0,262
36,838	85,961	-0,387	-0,299
37,853	114,554	-0,382	-0,328
38,867	33,865	-0,382	-0,233
39,882	219,554	-0,251	-0,283
40,896	67,639	-0,374	-0,269
41,911	-9,237	-0,418	-0,196
42,926	7,432	-0,429	-0,225
43,940	90,813	-0,294	-0,232
44,955	-22,644	-0,421	-0,178
45,969	125,749	-0,341	-0,303
46,984	105,222	-0,325	-0,270
47,999	113,389	-0,330	-0,281
49,013	128,549	-0,262	-0,235
50,028	44,183	-0,289	-0,186
51,042	42,627	-0,336	-0,215
52,057	-26,096	-0,451	-0,186
53,071	-27,822	-0,397	-0,161
54,086	134,444	-0,270	-0,246
55,101	54,522	-0,356	-0,241
56,115	-144,622	-0,366	-0,023
57,130	21,558	-0,313	-0,178
58,144	59,168	-0,406	-0,280
59,159	156,937	-0,297	-0,289
60,174	105,356	-0,327	-0,271
61,188	50,537	-0,354	-0,234
62,203	22,377	-0,307	-0,176
63,217	87,329	-0,314	-0,244
64,232	85,644	-0,270	-0,208
65,247	274,368	-0,250	-0,311
66,261	80,423	-0,276	-0,208
67,276	46,736	-0,313	-0,203
68,290	39,169	-0,264	-0,165
69,305	65,072	-0,348	-0,246
70,320	-58,727	-0,335	-0,101
71,334	-47,293	-0,350	-0,119
72,349	-72,863	-0,340	-0,087
73,363	73,045	-0,342	-0,250
74,378	178,698	-0,286	-0,293
75,393	-20,084	-0,359	-0,155
76,407	3,192	-0,419	-0,213
77,422	-104,241	-0,235	-0,038
78,436	11,322	-0,256	-0,137
79,451	40,044	-0,146	-0,092
80,466	-15,246	-0,427	-0,191
81,480	35,743	-0,333	-0,205
82,495	118,881	-0,279	-0,242
83,509	-28,165	-0,301	-0,121
84,524	-183,324	-0,221	-0,003
85,539	34,493	-0,334	-0,204
86,553	-13,276	-0,321	-0,146
87,568	225,079	-0,226	-0,257
88,582	164,732	-0,322	-0,318
89,597	-47,139	-0,333	-0,113
90,611	316,545	-0,198	-0,262
91,626	77,339	-0,266	-0,198
92,641	-65,412	-0,287	-0,080
93,655	179,283	-0,289	-0,296
94,670	381,984	-0,183	-0,264
95,684	165,937	-0,296	-0,294
96,699	-52,177	-0,300	-0,097
97,714	182,553	-0,234	-0,242
98,728	191,231	-0,125	-0,132
99,743	407,580	-0,180	-0,267
100,757	-56,908	-0,225	-0,069
101,772	-19,737	-0,284	-0,122
102,787	-63,037	-0,261	-0,075
103,801	-11,179	-0,351	-0,161
104,816	800,000	-0,133	-0,259
105,830	224,918	-0,231	-0,262
106,845	44,817	-0,236	-0,152
107,860	-115,827	-0,225	-0,029
108,874	5,305	-0,302	-0,155
109,889	113,569	-0,158	-0,134
110,903	101,310	-0,279	-0,227
111,918	-40,679	-0,343	-0,124
112,933	190,690	-0,219	-0,230
113,947	-71,873	-0,175	0,045
114,962	0,457	-0,130	0,065
115,976	166,257	-0,222	-0,220
116,991	100,941	-0,356	-0,289
118,006	53,925	-0,269	-0,180
119,020	97,990	-0,221	-0,178
120,035	50,332	-0,218	-0,144
121,049	-15,014	-0,209	-0,093
122,064	303,985	-0,229	-0,297
123,079	297,223	-0,197	-0,253
124,093	29,182	-0,289	-0,171
125,108	53,869	-0,264	-0,177
126,122	71,492	-0,458	-0,331
127,137	-200,000	-0,031	-0,143
128,151	-88,517	-0,254	-0,052
129,166	-44,525	-0,149	-0,052
130,181	48,284	-0,307	-0,200
131,195	-3,945	-0,335	-0,162
132,210	90,949	-0,211	-0,165
133,224	53,784	-0,314	-0,210
134,239	106,208	-0,119	-0,098
135,254	-119,237	-0,230	-0,028
136,268	-31,482	-0,338	-0,132
137,283	64,082	-0,282	-0,198
138,297	117,118	-0,290	-0,249
139,312	50,814	-0,301	-0,199
140,327	123,807	-0,174	-0,152
141,341	-200,000	-0,232	0,000
142,356	-67,126	-0,272	-0,074
143,370	31,828	-0,230	-0,138
144,385	110,166	-0,288	-0,241
145,400	-53,619	-0,279	-0,088
146,414	354,473	-0,207	-0,288
147,429	37,057	-0,306	-0,188
148,443	-68,315	-0,245	-0,066
149,458	113,393	-0,220	-0,186
150,473	112,709	-0,248	-0,209
151,487	81,518	-0,246	-0,185
152,502	120,095	-0,277	-0,240
153,516	405,793	-0,163	-0,240
154,531	129,026	-0,233	-0,207
155,546	-6,987	-0,218	-0,103
156,560	-14,108	-0,145	-0,065
157,575	12,554	-0,197	-0,105
158,589	185,934	-0,114	-0,118
159,604	-34,528	-0,213	-0,081
160,619	-16,681	-0,228	-0,100
161,633	11,066	-0,294	-0,156
162,648	158,296	-0,160	-0,154
163,662	61,522	-0,229	-0,158
164,677	462,398	-0,086	-0,134
165,692	65,022	-0,246	-0,173
166,706	459,864	-0,180	-0,280
167,721	378,052	-0,257	-0,367
168,735	30,438	-0,172	-0,102
169,750	97,804	-0,271	-0,217
170,764	79,762	-0,245	-0,183
171,779	37,565	-0,235	-0,144
172,794	15,757	-0,263	-0,143
173,808	-7,730	-0,184	-0,086
174,823	210,462	-0,180	-0,197
175,837	47,077	-0,307	-0,198
176,852	20,234	-0,304	-0,170
177,867	309,188	-0,162	-0,212
178,881	155,592	-0,175	-0,168
179,896	149,549	-0,273	-0,257
180,910	58,939	-0,269	-0,184
181,925	53,721	-0,142	-0,094
182,940	800,000	-0,091	-0,220
183,954	487,344	-0,172	-0,274
184,969	169,385	-0,242	-0,241
185,983	-77,770	-0,221	-0,053
186,998	-47,273	-0,134	-0,045
188,013	59,377	-0,243	-0,166
189,027	255,408	-0,185	-0,220
190,042	89,094	-0,373	-0,288
191,056	186,803	-0,196	-0,203
192,071	94,325	-0,202	-0,159
193,086	684,842	-0,148	-0,269
194,100	-200,000	-0,060	-0,193
195,115	88,891	-0,166	-0,128
196,129	35,399	-0,163	-0,099
197,144	127,028	-0,233	-0,205
198,159	-107,029	-0,233	-0,035
199,173	353,744	-0,093	-0,129
200,188	-70,197	-0,216	-0,057
201,202	-109,056	-0,287	-0,042
202,217	102,104	-0,170	-0,138
203,232	493,462	-0,102	-0,163
204,246	101,353	-0,100	-0,081
205,261	75,782	-0,173	-0,127
206,275	43,195	-0,212	-0,134
207,290	299,171	-0,117	-0,150
208,304	-23,240	-0,192	-0,080
209,319	171,784	-0,183	-0,182
210,334	114,679	-0,244	-0,206
211,348	591,177	-0,107	-0,184
212,363	41,479	-0,257	-0,161
213,377	-58,561	-0,188	-0,056
214,392	-34,084	-0,118	-0,045
215,407	31,852	-0,213	-0,127
216,421	91,707	-0,236	-0,184
217,436	-127,789	-0,149	-0,015
218,450	53,821	-0,306	-0,203
219,465	-57,847	-0,286	-0,086
220,480	172,761	-0,171	-0,171
221,494	-58,039	-0,213	-0,064
222,509	-122,579	-0,214	-0,024
223,523	30,631	-0,230	-0,136
224,538	-149,611	-0,190	-0,010
225,553	176,839	-0,230	-0,232
226,567	32,579	-0,279	-0,166
227,582	254,961	-0,136	-0,161
228,596	529,710	-0,043	-0,071
229,611	28,442	-0,107	-0,063
230,626	196,459	-0,154	-0,162
231,640	-80,425	-0,191	-0,044
232,655	106,325	-0,112	-0,092
233,669	188,100	-0,124	-0,128
234,684	152,238	-0,167	-0,157
235,699	-111,186	-0,106	0,015
236,713	-141,679	-0,233	0,016
237,728	-12,347	-0,245	-0,110
238,742	-102,770	-0,210	-0,034
239,757	-2,949	-0,222	-0,107
240,772	335,854	-0,142	-0,191
241,786	161,663	-0,171	-0,166
242,801	-54,383	-0,213	-0,066
243,815	450,924	-0,119	-0,181
244,830	800,000	-0,051	-0,142
245,844	33,606	-0,108	-0,065
246,859	382,245	-0,144	-0,205
247,874	173,408	-0,155	-0,154
248,888	-2,822	-0,245	-0,118
249,903	800,000	-0,122	-0,276
250,917	5,575	-0,238	-0,121
251,932	-17,637	-0,240	-0,104
252,947	217,585	-0,199	-0,220
253,961	-44,192	-0,278	-0,096
254,976	-114,730	-0,117	-0,015
255,990	352,227	-0,223	-0,305
257,005	-92,095	-0,214	-0,041
258,020	-26,082	-0,226	-0,091
259,034	-106,526	-0,091	-0,014
260,049	-107,732	-0,093	-0,014
261,063	672,581	-0,111	-0,200
262,078	-24,512	-0,235	-0,096
263,093	-176,122	-0,161	0,003
264,107	300,064	-0,115	-0,146
265,122	800,000	-0,115	-0,232
266,136	-43,287	-0,109	0,038
267,151	86,229	-0,084	-0,064
268,166	316,649	-0,116	-0,151
269,180	59,265	-0,189	-0,128
270,195	104,664	-0,175	-0,142
271,209	153,002	-0,226	-0,213
272,224	121,515	-0,130	-0,111
273,239	800,000	-0,064	-0,145
274,253	105,327	-0,154	-0,125
275,268	125,065	-0,219	-0,190
276,282	478,114	-0,135	-0,211
277,297	800,000	-0,091	-0,216
278,312	-200,000	-0,004	-0,034
279,326	-185,758	-0,049	0,000
280,341	-100,740	-0,185	0,031
281,355	399,548	-0,107	-0,155
282,370	-23,639	-0,233	-0,096
283,384	-200,000	-0,058	-0,236
284,399	-66,760	-0,078	-0,021
285,414	-71,435	-0,157	-0,040
286,428	281,674	-0,181	-0,224
287,443	-57,423	-0,199	-0,060
288,457	34,094	-0,026	-0,015
289,472	43,925	-0,180	0,114
290,487	-21,088	-0,084	0,035
291,501	-163,071	-0,181	0,006
292,516	421,532	-0,120	-0,177
293,530	111,121	-0,141	-0,117
294,545	800,000	-0,057	-0,110
295,560	-200,000	-0,009	-0,138
296,574	163,874	-0,125	-0,121
297,589	33,957	-0,217	-0,130
298,603	-26,455	-0,160	-0,064
299,618	153,476	-0,103	-0,097
300,633	800,000	-0,079	-0,226
301,647	-17,818	-0,173	-0,074
302,662	-106,436	-0,204	-0,031
303,676	-56,401	-0,236	-0,072
304,691	-145,969	-0,173	-0,010
305,706	-100,809	-0,181	-0,030
306,720	-82,144	-0,249	0,055
307,735	-200,000	-0,033	-0,168
308,749	91,857	-0,178	-0,138
309,764	-169,498	-0,117	0,003
310,779	-30,631	-0,090	-0,035
311,793	252,177	-0,194	-0,227
312,808	538,608	-0,081	-0,133
313,822	-125,751	-0,089	-0,009
314,837	-23,198	-0,211	-0,087
315,852	249,057	-0,094	-0,109
316,866	-86,793	-0,087	-0,018
317,881	26,358	-0,078	-0,045
318,895	187,213	-0,115	-0,118
319,910	4,901	-0,112	-0,057
320,925	119,755	-0,144	-0,123
321,939	-15,120	-0,135	-0,059
322,954	460,527	-0,118	-0,180
323,968	-38,622	-0,109	-0,039
324,983	216,425	-0,136	-0,148
325,997	-200,000	0,014	-0,072
327,012	47,919	-0,155	-0,099
328,027	234,977	-0,140	-0,159
329,041	261,300	-0,085	-0,101
330,056	-184,085	-0,121	-0,001
331,070	-129,821	-0,156	-0,014
332,085	-200,000	-0,097	0,000
333,100	104,517	-0,158	0,128
334,114	-145,916	-0,145	0,009
335,129	-200,000	0,021	-0,102
336,143	-104,846	-0,239	-0,037
337,158	95,509	-0,064	0,050
338,173	-194,971	-0,160	0,001
339,187	71,892	-0,146	-0,104
340,202	-5,347	-0,117	-0,055
341,216	94,148	-0,106	-0,083
342,231	268,925	-0,088	-0,106
343,246	-130,290	-0,115	-0,011
344,260	21,467	-0,120	-0,067
345,275	102,070	-0,069	-0,055
346,289	800,000	-0,051	0,138
347,304	16,956	-0,266	-0,144
348,319	727,704	-0,080	-0,146
349,333	353,919	-0,177	-0,242
350,348	-64,868	-0,190	-0,052
351,362	-83,139	-0,141	0,031
352,377	-200,000	-0,015	-0,151
353,392	697,862	-0,055	-0,099
354,406	-200,000	-0,149	0,000
355,421	207,805	1312,400	1404,193
356,435	159,872	1472,816	1404,670
