DTS Sentinel unit serial number:	SN410029Multiplexer serial number:	ORYXHardware model number:	OX2-SRSoftware version number:	ORYX F/W v4,00 Oryx Data Collector v3.7.2.0data status	okinstallation	B3 Nyhavnadifferential loss correction	single-endedforward channel	channel 1reverse channel	N/Adate	2023/12/01time	04:37:30forward acquisition time	300,00reverse acquisition time	0,00gamma	499,1914k internal	0,3212k external	0,3212temperature offset calibration	1,0000default loss term (dB/km)	0,3820temperature slope calibration	1,0000multiplexer offset coefficient	1,0000multiplexer slope coefficient	1,0000fibre end	0,00T internal ref (°C)	8,03T ext. ref 1 (°C)	-7,20T ext. ref 2 (°C)	-7,33length (m)	temperature (°C)	Stokes	anti-Stokes-744,400	19,817	-0,168	-0,098
-743,385	602,146	-0,147	0,265
-742,371	94,244	-0,119	-0,098
-741,356	-200,000	0,014	0,201
-740,342	372,087	-0,143	-0,211
-739,327	371,979	-0,141	0,208
-738,312	199,387	-0,178	-0,198
-737,298	-200,000	-0,061	0,228
-736,283	132,050	-0,165	-0,154
-735,269	-200,000	0,013	0,155
-734,254	409,869	-0,186	-0,287
-733,239	12,428	-0,299	0,166
-732,225	-200,000	0,010	-0,174
-731,210	226,551	0,052	0,062
-730,196	153,849	-0,018	-0,018
-729,181	78,720	-0,040	-0,031
-728,167	-123,649	-0,043	0,005
-727,152	-200,000	0,026	-0,108
-726,137	-200,000	-0,025	0,090
-725,123	-165,500	0,091	0,003
-724,108	28,412	-0,107	0,066
-723,094	-97,864	-0,086	-0,016
-722,079	462,269	-0,050	-0,082
-721,064	-200,000	-0,033	-0,158
-720,050	496,090	-0,019	-0,032
-719,035	19,811	0,021	-0,012
-718,021	-200,000	0,040	0,171
-717,006	550,991	0,003	0,005
-715,991	446,227	-0,065	0,104
-714,977	24,775	-0,067	0,040
-713,962	320,628	0,033	0,045
-712,948	800,000	0,029	-0,061
-711,933	70,003	-0,148	0,110
-710,918	-200,000	-0,032	0,196
-709,904	-80,848	-0,021	-0,005
-708,889	-21,861	-0,091	-0,040
-707,875	76,765	-0,059	-0,046
-706,860	-105,242	0,089	0,014
-705,845	-200,000	-0,025	-0,094
-704,831	40,445	0,086	0,056
-703,816	-117,455	-0,206	0,027
-702,802	47,507	0,095	0,064
-701,787	86,147	-0,021	0,017
-700,772	295,987	-0,034	-0,046
-699,758	58,057	0,055	-0,039
-698,743	-200,000	0,002	0,068
-697,729	-200,000	-0,017	0,094
-696,714	-200,000	0,030	0,165
-695,699	-74,353	-0,051	0,013
-694,685	-118,514	-0,069	0,009
-693,670	258,065	0,044	0,055
-692,656	88,271	0,019	-0,015
-691,641	544,211	-0,084	-0,146
-690,627	-1,271	0,024	-0,012
-689,612	-200,000	-0,026	0,103
-688,597	214,790	0,044	-0,050
-687,583	-63,971	-0,102	-0,030
-686,568	400,475	-0,077	-0,117
-685,554	-200,000	0,003	-0,024
-684,539	800,000	-0,022	0,050
-683,524	84,067	-0,054	0,042
-682,510	292,183	-0,050	0,065
-681,495	800,000	0,013	0,033
-680,481	-66,903	-0,033	-0,009
-679,466	-33,292	-0,105	-0,042
-678,451	-200,000	0,005	0,103
-677,437	-200,000	-0,044	0,217
-676,422	-200,000	-0,014	0,135
-675,408	645,306	-0,033	-0,062
-674,393	222,514	-0,137	-0,159
-673,378	581,733	-0,076	0,135
-672,364	131,403	0,076	0,071
-671,349	-113,761	-0,070	-0,010
-670,335	800,000	-0,029	-0,061
-669,320	11,891	-0,080	0,044
-668,305	-77,841	-0,058	0,014
-667,291	-200,000	0,012	0,052
-666,276	-200,000	0,027	-0,126
-665,262	370,766	-0,029	-0,043
-664,247	224,601	0,037	-0,044
-663,232	-78,143	-0,067	0,017
-662,218	-84,696	0,078	0,018
-661,203	-200,000	0,006	0,041
-660,189	-91,648	-0,123	-0,025
-659,174	-200,000	-0,006	-0,142
-658,159	24,916	-0,071	-0,043
-657,145	-200,000	-0,018	-0,134
-656,130	707,326	0,025	-0,047
-655,116	85,162	0,082	-0,065
-654,101	68,184	0,193	0,143
-653,086	-200,000	0,012	-0,108
-652,072	384,467	-0,059	-0,088
-651,057	800,000	-0,044	-0,091
-650,043	337,069	-0,040	0,056
-649,028	-200,000	-0,008	-0,076
-648,014	-83,900	-0,116	-0,026
-646,999	-101,701	-0,143	-0,025
-645,984	-200,000	-0,019	0,136
-644,970	800,000	-0,032	0,090
-643,955	174,239	-0,051	0,053
-642,941	800,000	-0,032	-0,073
-641,926	-116,650	0,056	-0,007
-640,911	-200,000	-0,014	-0,080
-639,897	-133,475	0,101	0,009
-638,882	-78,155	0,080	0,020
-637,868	-60,084	-0,079	-0,024
-636,853	-200,000	-0,001	-0,083
-635,838	279,484	0,032	-0,041
-634,824	8,122	-0,113	-0,061
-633,809	800,000	-0,034	0,093
-632,795	-57,473	0,017	-0,005
-631,780	-80,906	-0,054	0,013
-630,765	-107,072	0,056	-0,009
-629,751	-42,275	-0,098	-0,036
-628,736	176,465	-0,053	0,056
-627,722	800,000	-0,002	0,005
-626,707	800,000	-0,041	-0,089
-625,692	-200,000	-0,008	0,058
-624,678	282,739	0,020	0,025
-623,663	-97,798	-0,029	-0,005
-622,649	-69,373	-0,152	-0,042
-621,634	-200,000	0,044	-0,144
-620,619	49,399	-0,054	-0,036
-619,605	-200,000	-0,006	-0,161
-618,590	-100,557	0,104	-0,018
-617,576	259,576	0,128	-0,160
-616,561	215,278	0,070	-0,080
-615,546	263,919	0,083	0,105
-614,532	-148,314	0,045	-0,003
-613,517	97,397	-0,086	0,072
-612,503	28,626	-0,047	-0,029
-611,488	-200,000	-0,052	0,166
-610,474	-67,071	0,063	-0,018
-609,459	-200,000	0,107	-0,000
-608,444	189,596	-0,148	-0,160
-607,430	-200,000	0,001	-0,117
-606,415	166,214	-0,099	-0,101
-605,401	-102,681	-0,004	-0,001
-604,386	-100,881	0,122	-0,021
-603,371	593,648	-0,053	-0,094
-602,357	653,606	-0,041	-0,076
-601,342	99,308	0,156	0,130
-600,328	-200,000	-0,008	0,053
-599,313	-200,000	0,032	-0,112
-598,298	-175,382	0,013	-0,000
-597,284	-54,157	0,140	-0,045
-596,269	63,920	0,025	0,018
-595,255	323,124	-0,089	-0,123
-594,240	-97,467	-0,102	-0,019
-593,225	93,084	-0,081	-0,066
-592,211	-200,000	0,007	-0,051
-591,196	784,022	0,046	-0,091
-590,182	800,000	-0,009	0,026
-589,167	69,918	0,098	0,072
-588,152	36,069	-0,074	-0,047
-587,138	629,293	0,071	-0,131
-586,123	157,945	-0,065	0,065
-585,109	237,097	-0,094	-0,112
-584,094	-147,837	-0,070	-0,004
-583,079	161,233	0,057	-0,057
-582,065	-18,806	-0,129	0,057
-581,050	-200,000	-0,011	0,059
-580,036	-159,451	-0,056	-0,002
-579,021	800,000	-0,024	-0,069
-578,006	4,282	0,064	0,034
-576,992	-101,416	-0,099	-0,017
-575,977	-200,000	-0,030	0,136
-574,963	-200,000	0,007	0,190
-573,948	-200,000	-0,035	0,128
-572,934	-200,000	0,003	0,024
-571,919	9,849	-0,117	-0,064
-570,904	-33,809	-0,088	0,035
-569,890	800,000	-0,064	-0,189
-568,875	374,305	0,047	-0,069
-567,861	-95,624	0,137	-0,026
-566,846	378,223	0,011	-0,017
-565,831	-200,000	0,001	-0,078
-564,817	22,633	-0,055	-0,032
-563,802	-68,354	-0,022	0,006
-562,788	264,393	0,132	-0,166
-561,773	-200,000	0,032	0,119
-560,758	800,000	0,042	0,091
-559,744	-110,161	0,069	0,010
-558,729	304,463	0,062	-0,083
-557,715	800,000	-0,023	-0,046
-556,700	-40,206	-0,086	0,032
-555,685	-183,733	0,214	0,003
-554,671	-200,000	0,005	-0,029
-553,656	273,321	-0,046	-0,059
-552,642	575,290	0,057	-0,100
-551,627	800,000	-0,079	0,217
-550,612	-200,000	0,019	0,099
-549,598	-92,576	-0,069	0,014
-548,583	91,603	0,038	-0,030
-547,569	8,576	-0,197	-0,106
-546,554	389,963	-0,040	0,059
-545,539	97,071	0,130	0,108
-544,525	40,130	-0,079	0,051
-543,510	-107,778	-0,050	-0,008
-542,496	800,000	-0,026	0,076
-541,481	145,368	0,064	0,062
-540,466	-179,353	-0,153	0,002
-539,452	-200,000	0,029	0,112
-538,437	100,245	0,175	0,146
-537,423	18,525	0,110	-0,063
-536,408	800,000	0,039	0,087
-535,393	33,170	0,040	0,025
-534,379	532,972	-0,092	0,156
-533,364	-30,589	0,066	0,027
-532,350	116,434	0,077	0,068
-531,335	-148,047	0,104	-0,006
-530,321	-200,000	-0,022	0,072
-529,306	-200,000	-0,043	-0,148
-528,291	-200,000	0,000	0,068
-527,277	-89,042	-0,054	-0,011
-526,262	-0,749	-0,127	0,064
-525,248	-198,431	0,155	0,001
-524,233	230,730	0,037	0,044
-523,218	-200,000	-0,007	0,185
-522,204	92,167	-0,057	-0,046
-521,189	-99,382	0,146	0,026
-520,175	-54,646	0,090	-0,029
-519,160	-200,000	-0,022	-0,124
-518,145	-200,000	-0,009	-0,068
-517,131	800,000	0,043	-0,104
-516,116	113,513	0,140	0,122
-515,102	-200,000	-0,011	-0,072
-514,087	677,958	0,009	0,016
-513,072	175,110	-0,087	0,091
-512,058	13,862	0,084	-0,047
-511,043	-200,000	0,004	0,017
-510,029	-120,657	-0,107	0,013
-509,014	800,000	-0,058	-0,124
-507,999	-200,000	0,006	0,068
-506,985	-106,650	0,118	-0,019
-505,970	-69,490	-0,138	-0,038
-504,956	123,738	-0,067	-0,060
-503,941	800,000	-0,024	-0,071
-502,926	-200,000	-0,002	-0,024
-501,912	-42,788	0,090	0,033
-500,897	354,466	-0,026	0,037
-499,883	312,155	-0,022	-0,030
-498,868	-200,000	0,006	0,126
-497,853	46,461	0,074	-0,049
-496,839	-5,726	0,083	0,041
-495,824	-200,000	0,005	-0,031
-494,810	34,421	0,026	0,016
-493,795	-27,495	0,106	-0,044
-492,781	-200,000	0,003	-0,086
-491,766	-200,000	-0,016	0,052
-490,751	0,058	-0,112	-0,057
-489,737	183,318	-0,112	-0,119
-488,722	-166,673	-0,027	-0,001
-487,708	-200,000	0,007	0,202
-486,693	561,339	-0,070	0,122
-485,678	-10,713	0,117	0,055
-484,664	82,725	0,026	-0,020
-483,649	726,611	0,031	-0,059
-482,635	620,161	0,052	-0,093
-481,620	800,000	-0,040	-0,098
-480,605	-200,000	0,007	0,034
-479,591	-200,000	0,017	0,057
-478,576	-148,637	0,019	-0,001
-477,562	-200,000	0,010	-0,097
-476,547	-129,834	0,049	0,005
-475,532	-200,000	0,025	-0,092
-474,518	363,951	0,079	0,114
-473,503	639,982	-0,063	-0,116
-472,489	-200,000	0,011	-0,067
-471,474	55,992	-0,073	0,051
-470,459	243,028	0,114	-0,138
-469,445	2,334	-0,038	-0,020
-468,430	-200,000	0,013	-0,071
-467,416	-190,646	0,101	0,001
-466,401	-17,141	0,034	0,015
-465,386	-142,001	-0,140	-0,010
-464,372	-109,398	0,015	-0,002
-463,357	-200,000	0,025	0,143
-462,343	-200,000	0,012	-0,179
-461,328	-7,368	-0,130	-0,063
-460,313	-200,000	0,032	0,104
-459,299	733,773	0,034	0,066
-458,284	-200,000	0,002	0,010
-457,270	225,516	0,036	-0,042
-456,255	3,033	0,101	-0,053
-455,241	501,996	0,086	-0,143
-454,226	733,984	-0,064	-0,124
-453,211	-37,738	0,057	0,022
-452,197	330,148	-0,034	0,047
-451,182	317,281	0,048	0,065
-450,168	-200,000	-0,013	0,048
-449,153	-142,303	-0,149	-0,010
-448,138	800,000	0,068	-0,159
-447,124	800,000	0,017	-0,050
-446,109	650,614	0,071	-0,131
-445,095	-200,000	-0,019	0,143
-444,080	-200,000	0,011	0,074
-443,065	-73,946	-0,020	0,005
-442,051	300,202	-0,089	0,118
-441,036	-38,828	-0,199	-0,075
-440,022	258,832	0,056	0,069
-439,007	293,992	-0,067	0,088
-437,992	-200,000	-0,001	-0,087
-436,978	-200,000	-0,005	0,152
-435,963	62,025	-0,104	0,074
-434,949	-200,000	-0,021	-0,070
-433,934	-56,628	-0,128	-0,040
-432,919	800,000	-0,009	0,018
-431,905	55,515	-0,093	-0,065
-430,890	-85,058	0,066	0,015
-429,876	-15,171	-0,087	-0,040
-428,861	-200,000	-0,043	0,174
-427,846	-136,639	-0,143	0,012
-426,832	800,000	0,037	-0,084
-425,817	-200,000	-0,020	-0,145
-424,803	-200,000	-0,029	0,113
-423,788	-91,200	0,121	-0,025
-422,773	-83,930	0,053	0,012
-421,759	-59,162	0,137	0,042
-420,744	800,000	0,033	0,067
-419,730	53,997	-0,105	0,072
-418,715	-92,867	-0,085	-0,017
-417,701	-200,000	0,003	0,018
-416,686	-69,515	0,075	0,021
-415,671	800,000	-0,041	0,123
-414,657	137,250	-0,032	-0,030
-413,642	193,052	0,036	-0,039
-412,628	800,000	0,062	0,141
-411,613	778,569	-0,051	-0,099
-410,598	296,373	0,044	0,058
-409,584	296,377	0,118	0,156
-408,569	67,094	0,026	0,019
-407,555	800,000	-0,045	0,128
-406,540	49,674	0,101	-0,068
-405,525	107,263	-0,103	0,088
-404,511	151,576	-0,047	0,046
-403,496	-200,000	-0,010	-0,033
-402,482	316,363	0,013	-0,017
-401,467	196,420	0,079	0,086
-400,452	800,000	-0,008	0,025
-399,438	135,430	0,070	-0,066
-398,423	-145,914	-0,211	-0,013
-397,409	-181,234	-0,201	0,003
-396,394	-200,000	0,008	0,039
-395,379	263,218	0,017	0,021
-394,365	-200,000	0,005	-0,030
-393,350	-7,708	-0,115	-0,055
-392,336	-17,072	-0,059	0,026
-391,321	-130,403	-0,234	-0,022
-390,306	-166,473	0,096	-0,003
-389,292	-149,254	-0,087	-0,005
-388,277	-153,702	0,156	0,008
-387,263	13,845	0,088	0,049
-386,248	-200,000	-0,016	0,055
-385,233	298,848	0,066	0,087
-384,219	-140,882	-0,067	-0,005
-383,204	284,294	0,037	-0,048
-382,190	-200,000	0,033	-0,113
-381,175	3,432	0,122	-0,063
-380,160	66,593	0,130	-0,094
-379,146	93,562	-0,048	0,039
-378,131	-200,000	0,029	0,132
-377,117	412,933	-0,022	0,033
-376,102	247,604	0,019	0,023
-375,088	41,502	0,043	-0,028
-374,073	-15,144	-0,027	0,012
-373,058	329,121	-0,041	-0,056
-372,044	-71,720	-0,072	0,019
-371,029	158,317	0,108	-0,107
-370,015	80,017	0,061	-0,047
-369,000	297,282	0,047	-0,062
-367,985	800,000	0,080	-0,162
-366,971	-200,000	0,000	-0,099
-365,956	-105,723	0,093	-0,015
-364,942	15,880	0,151	0,085
-363,927	148,919	-0,074	-0,071
-362,912	800,000	-0,025	-0,075
-361,898	-119,366	0,171	0,021
-360,883	108,037	-0,045	-0,038
-359,869	506,057	-0,034	-0,057
-358,854	17,739	-0,118	-0,067
-357,839	-123,975	0,105	-0,012
-356,825	135,722	0,058	0,054
-355,810	686,498	-0,040	0,075
-354,796	-60,410	-0,035	0,011
-353,781	50,628	-0,028	0,019
-352,766	-200,000	0,011	-0,088
-351,752	25,782	-0,087	0,052
-350,737	24,686	0,040	0,024
-349,723	84,387	-0,064	0,050
-348,708	23,959	0,054	0,032
-347,693	631,327	0,008	-0,015
-346,679	44,597	-0,129	0,084
-345,664	54,619	-0,049	-0,034
-344,650	800,000	-0,041	-0,098
-343,635	-72,540	-0,097	-0,025
-342,620	271,691	0,031	0,039
-341,606	800,000	0,043	0,123
-340,591	714,960	0,016	-0,031
-339,577	725,910	0,019	-0,037
-338,562	287,717	-0,107	-0,138
-337,548	174,150	0,051	-0,053
-336,533	21,527	-0,025	0,014
-335,518	-141,194	0,063	-0,005
-334,504	-75,646	0,153	-0,038
-333,489	273,033	0,110	-0,139
-332,475	-52,820	-0,017	0,006
-331,460	-109,635	0,021	-0,003
-330,445	694,155	0,015	0,028
-329,431	-200,000	0,008	-0,050
-328,416	-200,000	-0,007	0,038
-327,402	114,208	0,146	0,127
-326,387	162,415	-0,060	0,060
-325,372	726,535	-0,051	-0,097
-324,358	-95,232	0,106	-0,020
-323,343	-143,125	0,054	-0,004
-322,329	800,000	-0,010	0,023
-321,314	-41,824	0,142	0,052
-320,299	12,708	-0,090	-0,049
-319,285	31,245	0,080	-0,049
-318,270	-200,000	0,004	0,030
-317,256	800,000	-0,031	0,068
-316,241	30,805	-0,047	0,029
-315,226	800,000	0,055	-0,166
-314,212	800,000	0,088	0,226
-313,197	-61,503	-0,095	0,028
-312,183	800,000	-0,009	-0,026
-311,168	95,066	0,047	-0,038
-310,153	-200,000	-0,011	-0,057
-309,139	76,684	-0,077	-0,058
-308,124	800,000	0,034	0,084
-307,110	-61,118	0,134	-0,040
-306,095	582,609	-0,038	0,067
-305,080	-200,000	0,003	0,129
-304,066	800,000	0,049	-0,100
-303,051	-200,000	0,002	-0,132
-302,037	-48,242	0,088	0,030
-301,022	-55,934	0,126	0,040
-300,008	-87,450	0,089	0,019
-298,993	-200,000	0,003	0,102
-297,978	800,000	-0,029	0,083
-296,964	-14,347	-0,019	-0,009
-295,949	116,016	0,086	0,075
-294,935	39,534	0,035	0,022
-293,920	19,527	-0,011	0,007
-292,905	207,626	-0,080	0,089
-291,891	800,000	0,066	0,169
-290,876	614,675	-0,058	0,104
-289,862	-200,000	-0,009	-0,049
-288,847	800,000	-0,031	-0,081
-287,832	-154,396	-0,158	0,007
-286,818	-200,000	-0,006	0,048
-285,803	38,686	-0,087	0,055
-284,789	420,750	0,065	-0,100
-283,774	253,020	0,053	0,064
-282,759	-1,815	-0,077	-0,038
-281,745	-124,142	-0,137	-0,015
-280,730	220,992	-0,090	-0,104
-279,716	397,873	0,061	-0,091
-278,701	800,000	0,016	0,032
-277,686	800,000	-0,033	-0,085
-276,672	800,000	-0,036	-0,077
-275,657	394,126	-0,039	0,058
-274,643	551,604	0,094	-0,162
-273,628	-68,543	-0,092	-0,025
-272,613	-21,587	0,029	0,013
-271,599	-97,086	0,052	-0,010
-270,584	-200,000	0,009	0,064
-269,570	88,997	-0,068	0,054
-268,555	-104,104	0,085	-0,014
-267,540	780,724	-0,089	-0,174
-266,526	117,079	0,047	-0,041
-265,511	-97,804	-0,055	-0,010
-264,497	-200,000	0,019	-0,156
-263,482	800,000	-0,025	0,075
-262,467	116,249	-0,072	0,063
-261,453	206,371	-0,132	-0,146
-260,438	800,000	-0,022	-0,058
-259,424	800,000	0,014	0,038
-258,409	91,747	-0,114	0,091
-257,395	108,416	0,034	0,029
-256,380	-200,000	-0,018	-0,102
-255,365	361,636	0,117	0,167
-254,351	-200,000	-0,004	0,105
-253,336	-156,140	0,045	-0,002
-252,322	800,000	-0,041	-0,125
-251,307	800,000	0,036	0,101
-250,292	-5,868	-0,047	0,023
-249,278	153,008	0,083	0,081
-248,263	-200,000	0,022	0,143
-247,249	80,128	-0,078	0,059
-246,234	710,075	0,013	0,025
-245,219	-74,832	0,020	-0,005
-244,205	388,674	-0,081	0,120
-243,190	-200,000	0,001	0,037
-242,176	139,429	0,092	0,086
-241,161	-200,000	0,001	0,105
-240,146	-98,557	-0,113	0,020
-239,132	167,108	0,102	0,103
-238,117	-129,871	-0,066	0,006
-237,103	203,449	0,021	-0,023
-236,088	169,342	-0,063	-0,064
-235,073	-200,000	-0,002	0,138
-234,059	-200,000	-0,056	0,195
-233,044	-112,335	-0,075	-0,011
-232,030	187,783	-0,169	0,179
-231,015	800,000	0,012	-0,028
-230,000	133,831	-0,043	-0,040
-228,986	130,145	-0,076	-0,070
-227,971	194,061	-0,042	-0,045
-226,957	14,226	0,184	-0,101
-225,942	-200,000	-0,014	-0,124
-224,927	613,873	0,077	0,138
-223,913	800,000	0,084	0,247
-222,898	114,149	0,114	-0,098
-221,884	-200,000	0,043	0,193
-220,869	-200,000	0,003	0,009
-219,855	-62,407	-0,066	0,019
-218,840	85,965	0,175	0,137
-217,825	-65,761	-0,139	0,039
-216,811	440,369	0,016	0,024
-215,796	0,886	-0,030	0,015
-214,782	277,945	-0,069	-0,088
-213,767	-75,216	0,032	-0,008
-212,752	-39,570	0,096	-0,035
-211,738	95,723	-0,101	0,082
-210,723	800,000	0,047	-0,127
-209,709	516,321	-0,103	-0,172
-208,694	-200,000	0,006	0,051
-207,679	9,456	-0,039	0,021
-206,665	-170,760	0,098	0,002
-205,650	76,230	0,041	-0,031
-204,636	-106,495	0,038	-0,006
-203,621	-51,771	0,015	-0,005
-202,606	287,179	-0,003	-0,003
-201,592	-200,000	-0,023	-0,309
-200,577	389,354	0,031	0,046
-199,563	8,502	-0,072	0,038
-198,548	56,977	-0,081	0,056
-197,533	-200,000	0,012	0,104
-196,519	-200,000	0,000	0,036
-195,504	800,000	-0,048	0,120
-194,490	-200,000	0,001	-0,127
-193,475	-200,000	0,010	-0,060
-192,460	-200,000	-0,015	0,067
-191,446	429,841	0,026	0,040
-190,431	144,225	0,076	-0,072
-189,417	-200,000	0,001	-0,052
-188,402	39,772	-0,134	0,085
-187,387	-111,839	-0,148	0,021
-186,373	94,060	0,026	0,021
-185,358	-200,000	0,001	-0,065
-184,344	153,659	-0,031	-0,030
-183,329	306,161	0,082	-0,109
-182,315	800,000	0,009	0,021
-181,300	-200,000	-0,021	-0,099
-180,285	-200,000	-0,030	-0,145
-179,271	-105,877	-0,099	0,016
-178,256	-113,876	-0,102	-0,014
-177,242	105,122	0,073	0,061
-176,227	800,000	0,054	0,165
-175,212	-149,489	0,160	-0,009
-174,198	-38,219	0,048	0,018
-173,183	-57,877	0,109	0,033
-172,169	25,784	-0,066	0,039
-171,154	165,379	-0,087	-0,087
-170,139	163,999	0,035	-0,035
-169,125	800,000	-0,036	0,112
-168,110	73,327	-0,093	0,069
-167,096	251,807	-0,075	-0,091
-166,081	-96,935	0,059	-0,011
-165,066	-200,000	0,018	-0,227
-164,052	-200,000	0,001	-0,121
-163,037	-200,000	-0,003	-0,125
-162,023	79,700	0,037	0,028
-161,008	0,346	0,092	0,046
-159,993	-113,521	0,085	0,012
-158,979	-200,000	0,004	-0,074
-157,964	-200,000	-0,037	0,183
-156,950	800,000	-0,042	-0,112
-155,935	318,450	0,036	0,048
-154,920	-200,000	0,043	0,195
-153,906	-140,139	0,088	0,006
-152,891	-166,337	0,129	0,004
-151,877	52,186	0,067	0,045
-150,862	800,000	-0,041	-0,093
-149,847	-200,000	-0,011	0,054
-148,833	-112,133	0,134	0,019
-147,818	6,666	-0,084	-0,044
-146,804	-200,000	0,050	0,000
-145,789	-96,849	0,126	-0,023
-144,775	15,191	-0,077	-0,042
-143,760	709,053	-0,036	-0,068
-142,745	-130,652	0,106	0,010
-141,731	171,363	-0,051	-0,052
-140,716	698,275	0,011	-0,020
-139,702	543,090	0,087	0,148
-138,687	-47,606	0,091	0,031
-137,672	-17,735	0,060	0,027
-136,658	248,254	-0,072	-0,086
-135,643	-76,370	0,007	0,002
-134,629	470,528	-0,030	0,048
-133,614	-200,000	-0,032	-0,140
-132,599	800,000	0,015	0,038
-131,585	-23,425	0,084	0,035
-130,570	-158,497	0,062	0,002
-129,556	175,769	0,079	0,081
-128,541	209,340	-0,114	-0,126
-127,526	-95,561	0,116	0,022
-126,512	-200,000	-0,002	0,076
-125,497	177,906	0,043	0,044
-124,483	-200,000	0,014	0,186
-123,468	-64,796	-0,124	-0,035
-122,453	-21,103	0,085	0,037
-121,439	-147,363	-0,128	0,008
-120,424	800,000	-0,032	-0,067
-119,410	-95,660	0,133	0,025
-118,395	-16,073	0,053	0,024
-117,380	252,059	0,045	0,054
-116,366	800,000	0,057	-0,151
-115,351	-22,808	0,084	-0,036
-114,337	626,203	-0,051	0,091
-113,322	289,117	0,053	0,068
-112,307	137,659	-0,060	-0,056
-111,293	183,348	0,064	0,067
-110,278	-200,000	0,003	0,257
-109,264	256,616	-0,123	-0,150
-108,249	-0,097	-0,099	0,050
-107,234	-200,000	0,003	0,066
-106,220	8,583	-0,090	-0,048
-105,205	-66,921	-0,055	-0,015
-104,191	800,000	0,038	0,099
-103,176	435,641	0,043	0,067
-102,162	37,622	-0,070	-0,044
-101,147	-82,724	-0,067	-0,015
-100,132	175,608	-0,071	0,073
-99,118	291,009	0,069	0,088
-98,103	24,369	0,071	0,041
-97,089	-55,797	0,035	-0,011
-96,074	-105,390	0,100	0,016
-95,059	-200,000	-0,001	0,097
-94,045	-76,077	0,095	0,024
-93,030	527,487	-0,016	0,028
-92,016	-96,497	-0,151	-0,028
-91,001	348,533	-0,047	0,066
-89,986	-173,625	0,037	0,001
-88,972	800,000	0,032	0,064
-87,957	-39,220	0,220	0,081
-86,943	-3,083	0,050	-0,024
-85,928	205,672	-0,057	-0,063
-84,913	-200,000	-0,001	-0,062
-83,899	89,310	-0,010	-0,008
-82,884	-88,670	-0,073	-0,015
-81,870	-200,000	0,043	-0,173
-80,855	149,477	-0,067	0,064
-79,840	-200,000	0,017	0,067
-78,826	85,618	-0,067	-0,052
-77,811	-82,561	-0,021	-0,005
-76,797	-200,000	0,027	0,099
-75,782	-200,000	-0,151	0,000
-74,767	800,000	-0,040	0,092
-73,753	-200,000	-0,033	0,167
-72,738	-42,807	-0,142	0,051
-71,724	-200,000	-0,016	-0,058
-70,709	519,844	0,034	-0,057
-69,694	174,608	0,005	0,005
-68,680	-33,713	0,158	0,061
-67,665	-41,385	-0,084	-0,030
-66,651	-92,762	0,038	-0,007
-65,636	262,246	-0,067	-0,082
-64,622	-8,412	0,072	-0,034
-63,607	280,160	-0,067	-0,084
-62,592	176,032	0,070	-0,072
-61,578	493,571	-0,044	-0,072
-60,563	391,272	0,017	-0,025
-59,549	131,783	0,141	0,128
-58,534	39,687	-2,185	-1,380
-57,519	800,000	-0,954	-1,911
-56,505	-200,000	-0,482	-4,495
-55,490	370,390	1,095	1,571
-54,476	800,000	5,278	11,603
-53,461	-200,000	22,366	346,952
-52,446	800,000	757,148	2293,101
-51,432	533,481	1643,130	2756,020
-50,417	68,008	1641,766	1183,590
-49,403	15,682	1519,285	840,210
-48,388	9,929	1445,441	771,751
-47,373	19,303	1438,272	812,546
-46,359	13,415	1426,798	778,251
-45,344	8,196	1422,865	751,400
-44,330	8,147	1420,710	749,999
-43,315	8,108	1418,893	748,824
-42,300	8,150	1417,157	748,078
-41,286	8,127	1415,837	747,243
-40,271	8,106	1414,870	746,605
-39,257	8,133	1413,518	745,990
-38,242	8,128	1412,388	745,338
-37,227	8,146	1411,422	744,883
-36,213	8,163	1409,847	744,103
-35,198	8,137	1408,728	743,363
-34,184	8,179	1407,750	743,012
-33,169	8,107	1406,574	742,023
-32,154	8,108	1405,858	741,623
-31,140	8,111	1404,508	740,893
-30,125	8,165	1403,048	740,348
-29,111	8,104	1402,008	739,486
-28,096	8,149	1400,967	739,116
-27,082	8,099	1399,531	738,098
-26,067	8,044	1398,646	737,343
-25,052	8,081	1397,702	736,988
-24,038	8,067	1396,541	736,283
-23,023	8,039	1395,704	735,681
-22,009	8,018	1394,765	735,062
-20,994	8,053	1393,584	734,573
-19,979	8,042	1392,565	733,954
-18,965	7,988	1391,885	733,317
-17,950	8,011	1390,795	732,822
-16,936	7,996	1389,767	732,181
-15,921	7,951	1388,837	731,454
-14,906	7,980	1388,020	731,127
-13,892	7,980	1386,974	730,547
-12,877	7,982	1386,275	730,160
-11,863	7,991	1385,476	729,752
-10,848	7,918	1384,947	729,106
-9,833	7,888	1383,681	728,275
-8,819	7,897	1382,677	727,759
-7,804	7,882	1381,735	727,166
-6,790	7,890	1380,676	726,617
-5,775	7,876	1379,929	726,131
-4,760	7,876	1378,969	725,595
-3,746	7,926	1377,901	725,232
-2,731	7,913	1377,045	724,696
-1,717	7,875	1376,412	724,160
-0,702	7,818	1374,729	722,983
0,313	11,791	1284,533	693,539
1,327	27,457	676,564	400,174
2,342	42,989	116,390	74,688
3,356	-0,725	16,506	8,220
4,371	-1,570	3,782	1,872
5,386	2,681	1,424	0,725
6,400	800,000	0,290	0,644
7,415	-51,236	-0,270	-0,089
8,429	96,254	-0,235	-0,189
9,444	36,647	-0,250	-0,155
10,459	43,307	-0,230	-0,148
11,473	94,486	-0,365	-0,292
12,488	-78,665	-0,206	-0,049
13,502	-46,504	-0,332	-0,114
14,517	25,550	-0,327	-0,191
15,531	2,790	-0,327	-0,166
16,546	86,274	-0,468	-0,363
17,561	4,926	-0,319	-0,165
18,575	256,854	-0,085	-0,104
19,590	-12,597	-0,343	-0,157
20,604	13,612	-0,262	-0,143
21,619	81,229	-0,422	-0,320
22,634	48,062	-0,440	-0,289
23,648	-17,110	-0,526	-0,232
24,663	53,597	-0,468	-0,316
25,677	174,422	-0,456	-0,464
26,692	354,099	-0,202	-0,282
27,707	-56,529	-0,385	-0,119
28,721	38,167	-0,441	-0,275
29,736	128,512	-0,316	-0,283
30,750	-28,432	-0,364	-0,147
31,765	160,853	-0,295	-0,290
32,780	150,303	-0,326	-0,311
33,794	-3,262	-0,445	-0,217
34,809	-13,869	-0,312	-0,141
35,823	152,274	-0,371	-0,357
36,838	40,744	-0,316	-0,200
37,853	200,969	-0,300	-0,325
38,867	-11,517	-0,366	-0,168
39,882	69,248	-0,378	-0,273
40,896	-32,824	-0,410	-0,159
41,911	101,376	-0,371	-0,303
42,926	41,673	-0,239	-0,152
43,940	8,122	-0,291	-0,153
44,955	92,685	-0,373	-0,296
45,969	146,056	-0,315	-0,297
46,984	57,846	-0,409	-0,281
47,999	21,752	-0,319	-0,182
49,013	95,792	-0,389	-0,312
50,028	-57,884	-0,456	-0,139
51,042	50,322	-0,490	-0,324
52,057	-10,511	-0,334	-0,155
53,071	89,193	-0,301	-0,235
54,086	2,975	-0,310	-0,158
55,101	-81,130	-0,354	-0,082
56,115	508,732	-0,178	-0,292
57,130	-41,969	-0,264	-0,094
58,144	86,180	-0,391	-0,302
59,159	494,390	-0,288	-0,465
60,174	54,235	-0,442	-0,298
61,188	-81,038	-0,226	-0,052
62,203	46,550	-0,383	-0,249
63,217	21,738	-0,297	-0,169
64,232	363,936	-0,148	-0,209
65,247	76,470	-0,268	-0,199
66,261	121,921	-0,344	-0,301
67,276	-27,894	-0,441	-0,178
68,290	44,126	-0,294	-0,189
69,305	131,496	-0,232	-0,209
70,320	-24,706	-0,340	-0,141
71,334	76,761	-0,239	-0,178
72,349	13,260	-0,214	-0,116
73,363	4,421	-0,331	-0,170
74,378	695,802	-0,173	-0,320
75,393	17,294	-0,287	-0,159
76,407	-87,658	-0,349	-0,073
77,422	21,868	-0,275	-0,156
78,436	105,748	-0,171	-0,141
79,451	62,164	-0,274	-0,191
80,466	72,967	-0,286	-0,209
81,480	92,865	-0,338	-0,267
82,495	117,141	-0,365	-0,314
83,509	-98,911	-0,296	-0,052
84,524	-8,507	-0,291	-0,136
85,539	26,948	-0,256	-0,150
86,553	218,578	-0,117	-0,131
87,568	152,836	-0,253	-0,242
88,582	-66,760	-0,318	-0,087
89,597	131,795	-0,252	-0,227
90,611	-26,664	-0,198	-0,081
91,626	-0,675	-0,359	-0,177
92,641	-116,817	-0,308	-0,039
93,655	-73,701	-0,324	-0,082
94,670	42,434	-0,261	-0,166
95,684	-69,243	-0,402	-0,107
96,699	63,746	-0,245	-0,172
97,714	45,366	-0,242	-0,156
98,728	-150,086	-0,273	0,015
99,743	208,527	-0,152	-0,166
100,757	61,542	-0,235	-0,163
101,772	322,076	-0,159	-0,213
102,787	9,422	-0,291	-0,153
103,801	85,411	-0,240	-0,184
104,816	-29,332	-0,281	-0,112
105,830	6,348	-0,290	-0,150
106,845	-22,549	-0,249	-0,105
107,860	477,472	-0,136	-0,215
108,874	430,206	-0,105	-0,159
109,889	135,988	-0,298	-0,271
110,903	67,387	-0,290	-0,206
111,918	212,906	-0,224	-0,248
112,933	656,007	-0,164	-0,296
113,947	185,767	-0,159	-0,165
114,962	-75,208	-0,304	-0,075
115,976	23,823	-0,098	-0,056
116,991	51,993	-0,289	-0,192
118,006	17,615	-0,190	-0,105
119,020	95,189	-0,326	-0,259
120,035	-18,677	-0,279	-0,121
121,049	110,238	-0,185	-0,155
122,064	-93,544	-0,192	-0,037
123,079	125,213	-0,288	-0,253
124,093	454,429	-0,216	-0,335
125,108	-200,000	-0,070	-0,248
126,122	-48,286	-0,308	-0,103
127,137	202,589	-0,155	-0,167
128,151	465,039	-0,152	-0,237
129,166	206,446	-0,121	-0,131
130,181	23,840	-0,271	-0,156
131,195	34,053	-0,371	-0,225
132,210	55,325	-0,243	-0,163
133,224	182,227	-0,264	-0,272
134,239	211,667	-0,158	-0,174
135,254	492,328	-0,168	-0,270
136,268	-4,420	-0,272	-0,131
137,283	97,588	-0,290	-0,232
138,297	-11,491	-0,442	-0,202
139,312	-19,937	-0,284	-0,122
140,327	-34,882	-0,203	-0,077
141,341	23,380	-0,314	-0,179
142,356	411,908	-0,196	-0,290
143,370	27,938	-0,297	-0,174
144,385	56,653	-0,226	-0,153
145,400	183,412	-0,311	-0,320
146,414	255,701	-0,176	-0,211
147,429	220,441	-0,211	-0,236
148,443	7,714	-0,344	-0,179
149,458	-35,215	-0,191	-0,072
150,473	-5,414	-0,189	-0,090
151,487	1,269	-0,155	0,077
152,502	774,717	-0,176	-0,336
153,516	-200,000	-0,106	-0,335
154,531	182,051	-0,189	-0,194
155,546	-27,068	-0,348	-0,140
156,560	800,000	-0,069	-0,177
157,575	24,390	-0,205	-0,117
158,589	92,028	-0,231	-0,180
159,604	153,789	-0,274	-0,262
160,619	146,100	-0,339	-0,317
161,633	-16,709	-0,320	-0,140
162,648	-143,982	-0,309	-0,020
163,662	-80,734	-0,171	-0,039
164,677	69,929	-0,117	-0,084
165,692	17,733	-0,100	-0,055
166,706	-46,043	-0,184	-0,063
167,721	152,425	-0,133	-0,126
168,735	131,565	-0,326	-0,291
169,750	92,964	-0,214	-0,168
170,764	210,917	-0,270	-0,295
171,779	-66,154	-0,172	-0,047
172,794	113,854	-0,129	-0,109
173,808	277,951	-0,165	-0,204
174,823	93,215	-0,284	-0,223
175,837	-10,220	-0,289	-0,133
176,852	34,243	-0,266	-0,161
177,867	-3,882	-0,174	-0,083
178,881	-88,184	-0,211	-0,044
179,896	-21,069	-0,305	-0,129
180,910	-93,947	-0,221	-0,042
181,925	-9,992	-0,249	-0,114
182,940	3,126	-0,248	-0,125
183,954	229,728	-0,111	-0,125
184,969	148,196	-0,216	-0,202
185,983	543,456	-0,095	-0,158
186,998	253,919	-0,156	-0,185
188,013	-130,088	-0,176	0,016
189,027	160,676	-0,169	-0,164
190,042	15,573	-0,328	-0,178
191,056	-65,995	-0,293	-0,080
192,071	-172,464	-0,231	-0,005
193,086	-136,774	-0,268	0,021
194,100	162,516	-0,166	-0,162
195,115	30,097	-0,179	-0,106
196,129	56,158	-0,199	-0,134
197,144	3,746	-0,191	-0,097
198,159	110,361	-0,318	-0,264
199,173	40,476	-0,148	-0,092
200,188	-7,731	-0,269	-0,125
201,202	-72,773	-0,111	-0,028
202,217	14,582	-0,281	-0,152
203,232	-28,709	-0,190	-0,075
204,246	14,769	-0,281	-0,152
205,261	253,922	-0,220	-0,260
206,275	155,012	-0,154	-0,147
207,290	-32,352	-0,231	-0,089
208,304	-148,185	-0,207	-0,012
209,319	-22,974	-0,155	-0,065
210,334	-28,229	-0,164	-0,065
211,348	377,639	-0,226	-0,321
212,363	-129,917	-0,195	-0,018
213,377	-89,301	-0,230	-0,046
214,392	10,416	-0,234	-0,123
215,407	115,234	-0,190	-0,161
216,421	60,608	-0,207	-0,141
217,436	93,662	-0,188	-0,148
218,450	154,343	-0,129	-0,123
219,465	211,000	-0,219	-0,238
220,480	11,377	-0,330	-0,174
221,494	-200,000	0,001	-0,240
222,509	62,520	-0,170	-0,117
223,523	151,527	-0,134	-0,127
224,538	498,120	-0,131	-0,209
225,553	82,728	-0,255	-0,191
226,567	444,586	-0,121	-0,185
227,582	126,709	-0,220	-0,193
228,596	114,322	-0,102	-0,086
229,611	68,628	-0,182	-0,129
230,626	74,965	-0,132	-0,096
231,640	400,175	-0,183	-0,266
232,655	150,275	-0,197	-0,185
233,669	301,736	-0,130	-0,166
234,684	53,414	-0,198	-0,131
235,699	-107,876	-0,161	0,024
236,713	-116,109	-0,281	0,036
237,728	-54,808	-0,162	-0,050
238,742	-87,517	-0,202	0,042
239,757	104,990	-0,188	-0,153
240,772	400,561	-0,176	-0,256
241,786	800,000	-0,070	-0,186
242,801	248,354	-0,100	-0,117
243,815	90,821	-0,171	-0,132
244,830	-66,925	-0,140	-0,038
245,844	188,990	-0,088	-0,091
246,859	11,488	-0,214	-0,113
247,874	-118,998	-0,231	-0,028
248,888	200,194	-0,163	-0,173
249,903	116,345	-0,157	-0,133
250,917	92,489	-0,199	-0,155
251,932	-88,355	-0,281	-0,057
252,947	33,634	-0,126	-0,075
253,961	-9,411	-0,113	-0,052
254,976	426,087	-0,202	-0,302
255,990	139,438	-0,232	-0,211
257,005	123,807	-0,124	-0,108
258,020	-181,223	-0,213	-0,003
259,034	-142,343	-0,177	-0,012
260,049	14,051	-0,118	-0,063
261,063	777,034	-0,125	-0,237
262,078	115,017	-0,236	-0,198
263,093	36,825	-0,129	-0,078
264,107	-187,173	-0,157	-0,001
265,122	291,154	-0,048	0,060
266,136	-117,392	-0,149	0,018
267,151	98,810	-0,133	-0,105
268,166	60,817	-0,185	-0,126
269,180	800,000	-0,081	-0,220
270,195	342,696	-0,132	-0,178
271,209	477,294	-0,110	-0,172
272,224	-125,951	-0,099	0,010
273,239	-81,297	-0,081	-0,018
274,253	136,740	-0,079	-0,071
275,268	6,634	-0,104	-0,053
276,282	-12,097	-0,185	-0,083
277,297	0,716	-0,210	-0,103
278,312	53,291	-0,137	-0,090
279,326	-68,944	-0,090	-0,024
280,341	-200,000	0,017	-0,092
281,355	800,000	-0,107	-0,263
282,370	93,606	-0,172	-0,134
283,384	385,048	-0,136	-0,193
284,399	-2,247	-0,263	-0,127
285,414	88,818	-0,200	-0,153
286,428	97,949	-0,181	-0,143
287,443	-95,871	-0,153	0,028
288,457	24,268	-0,074	-0,042
289,472	52,030	-0,204	-0,133
290,487	75,909	-0,199	-0,144
291,501	126,702	-0,214	-0,187
292,516	-179,400	-0,122	0,002
293,530	-127,238	-0,156	-0,015
294,545	-14,193	-0,176	-0,078
295,560	-17,655	-0,286	-0,123
296,574	104,710	-0,108	-0,087
297,589	186,025	-0,160	-0,164
298,603	55,678	-0,165	-0,109
299,618	-38,411	-0,136	-0,049
300,633	-37,915	-0,187	0,068
301,647	-127,458	-0,205	0,020
302,662	33,478	-0,172	-0,102
303,676	-93,022	-0,176	-0,033
304,691	17,186	-0,133	-0,072
305,706	24,608	-0,194	-0,110
306,720	-200,000	-0,043	-0,214
307,735	66,019	-0,166	-0,116
308,749	114,821	-0,155	-0,130
309,764	-113,144	-0,151	-0,020
310,779	582,820	-0,084	-0,142
311,793	800,000	-0,073	-0,212
312,808	-100,971	-0,083	-0,014
313,822	800,000	-0,090	-0,193
314,837	-4,888	-0,131	-0,062
315,852	76,775	-0,089	-0,065
316,866	-143,525	-0,083	-0,005
317,881	75,617	-0,101	-0,073
318,895	-152,970	-0,191	-0,009
319,910	45,576	-0,174	-0,110
320,925	200,878	-0,094	-0,099
321,939	-116,622	-0,251	0,031
322,954	-114,574	-0,177	-0,023
323,968	-111,744	-0,136	-0,019
324,983	195,275	-0,080	-0,083
325,997	-86,335	-0,056	-0,012
327,012	158,164	-0,125	-0,118
328,027	21,852	-0,194	-0,108
329,041	-94,802	-0,199	-0,037
330,056	-30,156	-0,153	-0,059
331,070	-63,166	-0,106	0,030
332,085	-200,000	-0,021	0,063
333,100	25,801	-0,168	-0,096
334,114	-8,097	-0,137	-0,063
335,129	-7,426	-0,194	-0,090
336,143	-200,000	-0,087	-0,275
337,158	-142,340	-0,144	0,010
338,173	-133,978	-0,063	0,005
339,187	-15,768	-0,126	-0,055
340,202	-172,751	-0,237	0,005
341,216	-30,938	-0,231	-0,089
342,231	-123,415	-0,216	-0,023
343,246	449,045	-0,070	0,106
344,260	-200,000	0,001	0,050
345,275	-137,914	-0,229	0,017
346,289	-117,781	-0,171	0,021
347,304	-43,439	-0,066	-0,023
348,319	800,000	-0,117	-0,236
349,333	-26,646	-0,186	-0,074
350,348	304,873	-0,104	-0,132
351,362	118,712	-0,167	0,141
352,377	-20,935	0,052	-0,022
353,392	78,766	-0,122	-0,089
354,406	-138,450	-0,127	-0,009
355,421	205,748	1312,060	1395,925
356,435	158,202	1472,394	1396,353
