DTS Sentinel unit serial number:	SN410029Multiplexer serial number:	ORYXHardware model number:	OX2-SRSoftware version number:	ORYX F/W v4,00 Oryx Data Collector v3.7.2.0data status	okinstallation	B3 Nyhavnadifferential loss correction	single-endedforward channel	channel 1reverse channel	N/Adate	2023/12/05time	04:02:30forward acquisition time	300,00reverse acquisition time	0,00gamma	499,1914k internal	0,3201k external	0,3201temperature offset calibration	1,0000default loss term (dB/km)	0,3820temperature slope calibration	1,0000multiplexer offset coefficient	1,0000multiplexer slope coefficient	1,0000fibre end	0,00T internal ref (°C)	14,14T ext. ref 1 (°C)	-0,74T ext. ref 2 (°C)	-0,77length (m)	temperature (°C)	Stokes	anti-Stokes-744,400	748,117	-0,116	-0,229
-743,385	-200,000	-0,049	0,191
-742,371	176,059	-0,162	-0,171
-741,356	-200,000	-0,051	0,333
-740,342	394,071	-0,166	-0,252
-739,327	800,000	0,183	0,394
-738,312	104,996	-0,214	-0,183
-737,298	-200,000	0,023	0,260
-736,283	242,382	-0,137	-0,167
-735,269	800,000	0,081	0,199
-734,254	84,269	-0,259	-0,205
-733,239	99,584	-0,230	0,194
-732,225	800,000	-0,050	-0,155
-731,210	479,113	0,017	0,028
-730,196	-92,095	-0,077	0,016
-729,181	-153,480	-0,101	0,005
-728,167	12,428	-0,032	0,018
-727,152	137,598	-0,061	-0,058
-726,137	-66,971	-0,144	0,041
-725,123	-200,000	-0,019	-0,098
-724,108	800,000	-0,042	-0,123
-723,094	345,656	0,060	-0,086
-722,079	800,000	-0,054	-0,168
-721,064	45,535	0,063	0,042
-720,050	-28,571	0,051	-0,021
-719,035	-0,690	0,098	0,050
-718,021	-73,527	-0,089	-0,023
-717,006	-200,000	0,015	-0,197
-715,991	-200,000	-0,022	-0,156
-714,977	268,282	0,025	-0,032
-713,962	23,695	-0,143	-0,085
-712,948	-37,745	0,098	0,038
-711,933	107,361	-0,128	0,110
-710,918	-200,000	0,019	0,073
-709,904	420,434	-0,027	-0,042
-708,889	-200,000	-0,009	-0,085
-707,875	47,131	0,040	-0,027
-706,860	-200,000	-0,000	0,046
-705,845	800,000	-0,088	-0,183
-704,831	-23,345	0,080	0,035
-703,816	-2,780	0,052	-0,026
-702,802	-200,000	0,001	-0,004
-701,787	-42,858	-0,087	-0,032
-700,772	-164,593	-0,071	0,002
-699,758	298,287	-0,082	-0,109
-698,743	-122,481	0,155	0,018
-697,729	800,000	0,018	0,039
-696,714	-70,476	0,026	-0,007
-695,699	744,713	0,033	0,064
-694,685	-21,971	-0,040	0,017
-693,670	-59,197	0,073	-0,023
-692,656	103,439	0,036	-0,030
-691,641	-120,851	0,156	0,019
-690,627	126,456	0,044	0,040
-689,612	-200,000	0,010	-0,084
-688,597	37,947	0,029	-0,019
-687,583	-200,000	-0,011	-0,079
-686,568	333,856	0,050	-0,070
-685,554	144,899	-0,061	-0,060
-684,539	316,932	-0,117	0,161
-683,524	-200,000	0,033	0,148
-682,510	125,021	-0,082	0,075
-681,495	580,453	0,008	0,015
-680,481	-83,492	0,099	0,023
-679,466	-177,579	-0,098	0,002
-678,451	-81,241	-0,125	0,030
-677,437	-154,128	0,167	0,008
-676,422	800,000	-0,011	-0,027
-675,408	-200,000	0,024	-0,116
-674,393	-200,000	-0,010	0,082
-673,378	-18,365	-0,066	-0,030
-672,364	-75,918	-0,077	0,020
-671,349	-200,000	0,014	-0,060
-670,335	251,056	0,079	0,097
-669,320	263,072	0,046	0,058
-668,305	704,606	0,040	0,076
-667,291	800,000	0,038	0,085
-666,276	161,352	0,071	-0,072
-665,262	-200,000	-0,010	-0,116
-664,247	585,515	0,056	-0,100
-663,232	123,742	-0,114	-0,103
-662,218	98,994	-0,046	0,038
-661,203	-131,187	0,049	-0,005
-660,189	800,000	0,035	0,109
-659,174	388,642	-0,098	-0,148
-658,159	26,811	0,051	0,031
-657,145	-197,715	-0,110	-0,000
-656,130	-6,771	-0,095	-0,047
-655,116	-18,451	0,091	-0,041
-654,101	518,129	-0,074	-0,126
-653,086	800,000	-0,005	0,014
-652,072	321,517	-0,024	0,033
-651,057	4,120	-0,103	-0,054
-650,043	-57,539	-0,051	-0,016
-649,028	368,676	0,006	-0,009
-648,014	800,000	0,035	0,109
-646,999	142,401	-0,041	0,040
-645,984	155,238	-0,078	0,078
-644,970	-200,000	-0,005	-0,058
-643,955	-34,565	-0,041	0,016
-642,941	-200,000	-0,024	-0,146
-641,926	663,454	-0,057	-0,107
-640,911	800,000	0,007	-0,015
-639,897	-200,000	0,011	-0,041
-638,882	241,026	-0,074	-0,090
-637,868	-6,107	0,098	-0,049
-636,853	-128,184	-0,107	-0,011
-635,838	-162,505	0,030	-0,001
-634,824	-12,266	-0,106	-0,050
-633,809	-105,137	0,133	0,022
-632,795	-119,895	0,097	0,012
-631,780	800,000	0,020	-0,047
-630,765	20,165	0,058	-0,034
-629,751	-33,309	-0,113	-0,045
-628,736	770,192	-0,107	-0,212
-627,722	322,524	0,069	-0,095
-626,707	-200,000	-0,002	0,010
-625,692	91,092	0,037	0,030
-624,678	800,000	-0,034	-0,069
-623,663	800,000	0,024	-0,060
-622,649	-114,885	0,025	0,003
-621,634	-30,952	0,057	0,023
-620,619	283,017	0,095	-0,124
-619,605	-98,286	-0,015	0,003
-618,590	450,484	0,031	0,049
-617,576	800,000	0,046	0,101
-616,561	-61,663	-0,099	0,030
-615,546	126,335	-0,045	-0,041
-614,532	-23,063	-0,077	0,033
-613,517	-200,000	0,005	-0,096
-612,503	670,672	-0,034	0,065
-611,488	-11,891	0,112	0,053
-610,474	-52,810	-0,060	0,020
-609,459	123,925	0,126	0,115
-608,444	-43,200	0,013	-0,005
-607,430	-146,385	-0,114	-0,007
-606,415	718,217	0,057	-0,110
-605,401	-200,000	0,005	-0,044
-604,386	-200,000	0,017	-0,110
-603,371	114,794	-0,069	-0,061
-602,357	73,917	-0,070	-0,053
-601,342	-8,304	0,088	0,043
-600,328	-73,549	0,049	-0,013
-599,313	800,000	-0,036	0,082
-598,298	301,452	-0,060	-0,081
-597,284	-135,304	0,059	-0,005
-596,269	239,708	0,101	0,122
-595,255	446,630	-0,010	0,016
-594,240	-200,000	-0,006	0,051
-593,225	-200,000	-0,017	-0,082
-592,211	262,146	0,049	-0,062
-591,196	-80,440	0,139	-0,033
-590,182	-123,968	0,072	0,008
-589,167	-151,401	0,091	-0,005
-588,152	800,000	-0,051	0,105
-587,138	107,938	-0,070	0,060
-586,123	800,000	0,022	-0,048
-585,109	23,310	0,058	-0,034
-584,094	6,101	-0,042	-0,023
-583,079	-41,975	-0,027	-0,010
-582,065	-150,283	0,147	0,008
-581,050	684,616	0,014	0,027
-580,036	41,692	-0,066	0,043
-579,021	-87,537	-0,179	0,039
-578,006	-200,000	0,021	-0,084
-576,992	-124,611	0,124	-0,014
-575,977	-200,000	-0,002	0,024
-574,963	85,172	0,022	0,017
-573,948	-70,414	0,071	0,019
-572,934	800,000	-0,007	0,015
-571,919	15,000	0,054	-0,030
-570,904	-178,674	-0,079	-0,001
-569,890	26,936	-0,041	0,025
-568,875	-134,720	0,059	0,005
-567,861	-200,000	0,013	0,124
-566,846	136,139	-0,035	0,033
-565,831	246,699	-0,134	0,163
-564,817	-143,949	-0,110	0,007
-563,802	-200,000	0,015	-0,075
-562,788	-36,996	0,059	-0,023
-561,773	-200,000	0,016	0,079
-560,758	-200,000	0,011	-0,045
-559,744	-200,000	0,004	0,064
-558,729	-61,853	0,083	-0,025
-557,715	265,562	0,033	0,041
-556,700	92,691	-0,091	-0,074
-555,685	86,615	-0,075	-0,060
-554,671	800,000	-0,031	0,073
-553,656	632,389	0,033	0,060
-552,642	272,116	-0,116	0,147
-551,627	428,444	-0,028	-0,044
-550,612	-162,461	0,098	-0,003
-549,598	98,766	-0,122	-0,101
-548,583	-200,000	-0,001	0,024
-547,569	482,361	-0,036	0,060
-546,554	344,770	0,070	0,100
-545,539	-200,000	0,065	0,260
-544,525	519,644	-0,100	0,170
-543,510	-82,039	0,128	-0,030
-542,496	-200,000	0,028	-0,126
-541,481	-192,475	0,072	-0,000
-540,466	306,597	0,023	-0,031
-539,452	-100,624	-0,024	0,004
-538,437	19,502	0,062	-0,036
-537,423	-124,294	0,060	-0,007
-536,408	-200,000	-0,017	0,083
-535,393	147,359	-0,047	0,046
-534,379	632,193	-0,019	-0,035
-533,364	800,000	-0,038	-0,097
-532,350	-162,207	0,021	-0,001
-531,335	-20,939	0,024	-0,010
-530,321	-97,627	0,118	-0,022
-529,306	-200,000	-0,004	-0,131
-528,291	-5,874	-0,202	-0,100
-527,277	-200,000	0,037	-0,159
-526,262	-200,000	-0,019	-0,183
-525,248	-183,064	0,116	-0,001
-524,233	800,000	-0,049	0,105
-523,218	259,408	0,055	0,069
-522,204	-18,616	-0,092	-0,041
-521,189	103,719	0,044	-0,037
-520,175	122,024	0,032	0,029
-519,160	-200,000	0,002	0,054
-518,145	800,000	-0,038	0,084
-517,131	164,010	0,063	-0,064
-516,116	278,498	-0,044	0,056
-515,102	243,280	0,033	-0,039
-514,087	-26,782	-0,083	-0,035
-513,072	-200,000	-0,002	-0,145
-512,058	-200,000	0,001	0,025
-511,043	800,000	0,025	0,060
-510,029	-200,000	-0,051	-0,166
-509,014	732,858	-0,072	-0,139
-507,999	67,481	0,057	0,042
-506,985	76,491	-0,122	-0,093
-505,970	-109,148	0,027	0,004
-504,956	359,142	-0,018	-0,026
-503,941	800,000	-0,039	-0,097
-502,926	-120,966	0,132	-0,016
-501,912	-35,861	0,098	0,038
-500,897	-85,329	0,067	-0,015
-499,883	-27,001	0,073	0,031
-498,868	326,809	-0,082	0,114
-497,853	256,845	0,036	0,044
-496,839	221,792	0,066	-0,077
-495,824	-136,322	0,093	0,008
-494,810	800,000	0,055	-0,131
-493,795	302,271	0,076	0,102
-492,781	61,586	-0,158	0,113
-491,766	150,116	-0,054	-0,053
-490,751	-200,000	-0,030	0,122
-489,737	103,300	0,087	0,073
-488,722	75,736	0,067	-0,051
-487,708	4,195	0,172	-0,091
-486,693	-148,773	-0,056	0,003
-485,678	162,377	-0,102	-0,103
-484,664	800,000	-0,009	-0,020
-483,649	-160,215	-0,071	0,003
-482,635	-40,016	0,044	0,016
-481,620	-200,000	0,004	-0,054
-480,605	-1,718	-0,028	-0,014
-479,591	-200,000	-0,012	-0,129
-478,576	34,223	-0,070	0,044
-477,562	523,576	-0,046	-0,078
-476,547	-29,853	0,134	-0,055
-475,532	-200,000	-0,004	0,026
-474,518	-121,366	0,043	0,005
-473,503	800,000	-0,020	0,064
-472,489	-94,318	0,126	0,024
-471,474	-26,904	-0,033	0,014
-470,459	662,301	-0,047	0,087
-469,445	-142,458	-0,155	-0,011
-468,430	9,683	0,018	-0,010
-467,416	-104,260	0,123	-0,020
-466,401	351,868	-0,038	-0,054
-465,386	262,208	0,028	-0,035
-464,372	227,385	-0,054	0,063
-463,357	-181,214	-0,071	0,001
-462,343	89,492	0,047	-0,037
-461,328	800,000	-0,017	-0,046
-460,313	717,872	0,078	-0,150
-459,299	800,000	0,068	0,141
-458,284	-200,000	0,013	0,164
-457,270	188,864	0,089	0,096
-456,255	800,000	-0,012	-0,031
-455,241	163,578	-0,085	-0,086
-454,226	-200,000	-0,013	-0,150
-453,211	-62,001	0,182	0,054
-452,197	-200,000	-0,003	0,018
-451,182	-200,000	0,018	0,116
-450,168	-58,208	-0,054	-0,017
-449,153	-75,549	-0,129	-0,033
-448,138	66,223	-0,010	-0,007
-447,124	-167,028	-0,170	0,005
-446,109	584,648	0,034	-0,060
-445,095	-26,460	0,033	-0,014
-444,080	104,768	-0,005	-0,005
-443,065	-91,426	-0,105	-0,021
-442,051	-200,000	0,028	0,112
-441,036	584,459	-0,038	-0,067
-440,022	800,000	0,030	-0,066
-439,007	296,568	0,087	-0,115
-437,992	-200,000	-0,001	-0,051
-436,978	-74,397	0,073	-0,019
-435,963	129,800	-0,065	-0,060
-434,949	578,082	-0,046	-0,080
-433,934	37,882	-0,090	-0,057
-432,919	-200,000	-0,053	-0,208
-431,905	-162,923	0,052	0,002
-430,890	-72,248	0,088	0,023
-429,876	-135,103	0,105	0,009
-428,861	800,000	0,026	0,064
-427,846	225,791	-0,048	0,056
-426,832	35,325	-0,106	-0,067
-425,817	-14,278	-0,120	-0,055
-424,803	291,259	-0,099	-0,130
-423,788	-200,000	-0,008	0,045
-422,773	-28,021	0,121	-0,050
-421,759	250,965	0,074	0,091
-420,744	-200,000	0,002	0,017
-419,730	-25,175	-0,103	-0,043
-418,715	48,470	0,062	-0,042
-417,701	-113,298	-0,054	-0,008
-416,686	-26,399	-0,029	0,012
-415,671	-200,000	-0,009	-0,108
-414,657	45,798	0,088	-0,058
-413,642	-200,000	0,001	0,052
-412,628	96,772	-0,130	0,107
-411,613	-58,563	-0,132	0,041
-410,598	-200,000	0,020	-0,169
-409,584	-200,000	-0,036	-0,118
-408,569	305,589	-0,054	0,073
-407,555	-37,507	0,165	0,063
-406,540	-200,000	0,007	-0,102
-405,525	-29,487	-0,066	-0,027
-404,511	-16,846	-0,008	-0,004
-403,496	-14,073	0,036	0,017
-402,482	238,275	-0,105	0,126
-401,467	-200,000	-0,007	0,058
-400,452	-200,000	0,001	-0,006
-399,438	-100,540	0,051	0,009
-398,423	25,458	-0,084	-0,050
-397,409	156,282	0,100	-0,099
-396,394	800,000	0,012	-0,033
-395,379	-116,648	0,057	-0,007
-394,365	-200,000	0,079	0,334
-393,350	211,194	-0,054	0,061
-392,336	-38,112	0,104	0,040
-391,321	-18,248	-0,096	-0,043
-390,306	240,396	-0,126	-0,151
-389,292	-200,000	-0,021	-0,113
-388,277	45,249	0,110	-0,073
-387,263	-200,000	-0,012	-0,039
-386,248	187,915	0,075	0,080
-385,233	-145,237	-0,048	0,003
-384,219	58,375	0,084	0,059
-383,204	473,090	-0,022	-0,036
-382,190	578,152	-0,045	0,079
-381,175	800,000	0,014	0,034
-380,160	-71,564	0,186	0,049
-379,146	800,000	0,057	0,167
-378,131	623,927	-0,041	-0,075
-377,117	-76,581	-0,065	-0,016
-376,102	-200,000	-0,004	-0,049
-375,088	77,728	-0,101	-0,077
-374,073	379,002	-0,040	-0,058
-373,058	79,062	-0,064	0,049
-372,044	6,773	0,082	0,044
-371,029	29,873	-0,053	0,033
-370,015	-101,123	-0,056	0,010
-369,000	80,987	0,076	0,059
-367,985	-92,609	-0,059	0,012
-366,971	67,135	0,013	0,009
-365,956	-200,000	0,004	0,014
-364,942	22,810	-0,036	0,021
-363,927	609,094	0,084	0,152
-362,912	445,547	-0,065	0,103
-361,898	-142,572	0,095	-0,007
-360,883	-200,000	0,003	-0,049
-359,869	283,948	-0,053	-0,068
-358,854	-46,307	-0,121	-0,042
-357,839	415,158	0,052	0,080
-356,825	72,897	0,079	0,059
-355,810	-76,774	-0,055	0,014
-354,796	221,595	-0,110	-0,126
-353,781	-13,444	-0,032	-0,015
-352,766	-26,241	-0,037	0,016
-351,752	-200,000	-0,017	-0,097
-350,737	-17,436	0,056	0,025
-349,723	615,430	0,044	0,080
-348,708	291,291	-0,029	0,038
-347,693	476,997	-0,033	0,054
-346,679	155,259	0,036	-0,035
-345,664	-11,827	-0,078	-0,037
-344,650	-56,302	-0,074	-0,023
-343,635	66,596	-0,030	0,022
-342,620	800,000	-0,054	-0,108
-341,606	-97,197	0,048	-0,009
-340,591	58,206	-0,036	0,025
-339,577	271,358	-0,031	0,039
-338,562	8,891	-0,050	-0,027
-337,548	-200,000	0,022	0,110
-336,533	800,000	-0,057	0,168
-335,518	800,000	0,013	0,032
-334,504	-28,102	0,038	0,016
-333,489	509,893	0,023	-0,038
-332,475	248,106	-0,055	0,066
-331,460	231,210	0,074	-0,087
-330,445	-115,181	-0,146	-0,020
-329,431	6,183	-0,027	0,014
-328,416	637,469	0,050	0,091
-327,402	800,000	0,031	0,091
-326,387	-200,000	0,017	0,118
-325,372	-104,633	-0,037	0,006
-324,358	-94,949	-0,111	0,021
-323,343	-200,000	0,010	0,038
-322,329	800,000	0,009	0,019
-321,314	800,000	0,062	0,188
-320,299	111,192	0,052	0,045
-319,285	422,922	-0,041	0,063
-318,270	-200,000	-0,003	-0,159
-317,256	-51,016	0,051	0,017
-316,241	-62,343	0,073	-0,022
-315,226	800,000	-0,026	-0,052
-314,212	-200,000	0,005	0,020
-313,197	-120,606	0,118	0,014
-312,183	629,910	0,012	-0,021
-311,168	423,449	-0,109	-0,168
-310,153	625,964	-0,058	0,105
-309,139	-117,853	-0,122	0,015
-308,124	-179,413	0,192	-0,003
-307,110	-200,000	-0,019	0,111
-306,095	60,551	0,086	0,061
-305,080	-42,793	-0,053	0,019
-304,066	-28,359	0,019	0,008
-303,051	-200,000	0,007	-0,051
-302,037	-47,629	-0,127	-0,044
-301,022	106,255	0,057	0,048
-300,008	-94,554	0,079	-0,015
-298,993	39,127	-0,013	0,008
-297,978	-200,000	-0,008	0,227
-296,964	800,000	-0,046	0,138
-295,949	460,539	-0,030	0,048
-294,935	-18,708	-0,054	-0,024
-293,920	800,000	-0,014	0,041
-292,905	192,786	-0,012	-0,013
-291,891	195,938	0,064	-0,070
-290,876	396,330	0,023	-0,034
-289,862	-15,072	0,085	0,039
-288,847	323,485	-0,035	-0,048
-287,832	639,514	-0,019	0,034
-286,818	471,633	0,049	0,079
-285,803	-200,000	0,009	0,054
-284,789	800,000	-0,037	0,093
-283,774	-200,000	-0,009	0,035
-282,759	502,979	-0,037	0,062
-281,745	177,128	-0,023	0,024
-280,730	-106,295	-0,040	0,006
-279,716	553,384	0,089	-0,153
-278,701	-200,000	0,013	-0,167
-277,686	-69,593	0,077	-0,021
-276,672	242,281	0,037	-0,044
-275,657	-121,619	-0,092	0,011
-274,643	800,000	-0,013	-0,028
-273,628	-50,346	0,050	0,017
-272,613	-200,000	-0,001	-0,127
-271,599	-200,000	-0,008	0,055
-270,584	43,000	-0,107	-0,069
-269,570	800,000	-0,038	-0,086
-268,555	176,670	0,096	-0,100
-267,540	398,409	-0,102	-0,153
-266,526	533,569	-0,039	-0,066
-265,511	237,138	0,020	0,023
-264,497	-128,755	0,081	0,008
-263,482	-200,000	0,021	0,095
-262,467	800,000	0,020	0,050
-261,453	281,659	0,030	-0,039
-260,438	306,861	-0,069	-0,092
-259,424	800,000	0,025	0,059
-258,409	800,000	0,032	0,074
-257,395	-200,000	0,029	0,139
-256,380	-105,537	0,087	0,014
-255,365	-88,921	0,042	-0,009
-254,351	-200,000	0,010	-0,040
-253,336	-200,000	-0,016	0,089
-252,322	99,588	-0,065	0,054
-251,307	-118,662	-0,124	-0,015
-250,292	-56,203	0,124	-0,039
-249,278	-57,455	0,090	-0,028
-248,263	100,843	0,086	0,072
-247,249	-200,000	-0,032	-0,101
-246,234	-130,503	-0,153	0,015
-245,219	160,034	-0,034	-0,034
-244,205	110,660	0,077	-0,066
-243,190	435,382	-0,048	-0,075
-242,176	-200,000	0,001	0,035
-241,161	-51,320	0,092	0,031
-240,146	501,360	0,022	-0,037
-239,132	-30,826	-0,106	0,043
-238,117	-0,864	-0,055	0,028
-237,103	240,467	0,038	0,046
-236,088	-200,000	-0,017	-0,068
-235,073	-200,000	0,016	-0,166
-234,059	-109,042	-0,057	0,009
-233,044	-200,000	0,025	-0,098
-232,030	147,450	-0,057	0,055
-231,015	-200,000	0,026	0,136
-230,000	51,536	-0,065	0,044
-228,986	800,000	-0,023	0,060
-227,971	-170,472	-0,103	0,003
-226,957	-72,089	-0,107	0,028
-225,942	473,158	-0,018	0,029
-224,927	800,000	0,062	0,134
-223,913	118,668	-0,062	-0,055
-222,898	-38,962	0,049	-0,018
-221,884	120,044	-0,034	0,030
-220,869	-119,822	-0,153	-0,019
-219,855	399,492	0,034	-0,051
-218,840	800,000	0,047	0,125
-217,825	800,000	0,021	-0,050
-216,811	220,711	-0,100	-0,115
-215,796	-154,745	0,089	0,004
-214,782	571,042	0,057	-0,099
-213,767	71,663	0,105	-0,077
-212,752	-200,000	-0,014	0,146
-211,738	74,820	0,105	0,078
-210,723	-200,000	0,003	0,086
-209,709	-180,427	-0,171	-0,002
-208,694	50,869	-0,082	-0,055
-207,679	-35,010	-0,125	0,048
-206,665	-70,549	0,114	0,031
-205,650	21,047	0,059	0,034
-204,636	-200,000	0,005	0,162
-203,621	-200,000	0,001	0,056
-202,606	393,180	0,113	0,168
-201,592	163,351	-0,073	0,073
-200,577	-128,331	-0,046	0,005
-199,563	-83,396	-0,077	0,017
-198,548	-87,869	0,178	-0,038
-197,533	433,132	0,053	0,082
-196,519	-45,860	0,071	-0,025
-195,504	10,223	0,097	-0,052
-194,490	-200,000	-0,006	-0,122
-193,475	17,432	-0,133	0,075
-192,460	213,662	0,125	0,141
-191,446	99,099	0,069	-0,056
-190,431	648,267	-0,041	0,075
-189,417	-200,000	-0,007	0,146
-188,402	19,860	-0,016	-0,009
-187,387	682,848	-0,026	0,049
-186,373	41,784	0,069	-0,045
-185,358	-43,064	-0,076	0,027
-184,344	800,000	0,042	0,084
-183,329	-94,562	-0,062	-0,012
-182,315	82,956	0,059	0,045
-181,300	249,173	0,076	0,092
-180,285	800,000	0,015	-0,047
-179,271	-86,987	-0,063	-0,014
-178,256	-134,024	0,165	-0,014
-177,242	-35,474	-0,042	-0,016
-176,227	-200,000	0,014	0,044
-175,212	-130,620	0,174	-0,017
-174,198	-36,485	0,050	0,019
-173,183	6,064	-0,088	-0,046
-172,169	800,000	0,013	-0,040
-171,154	-200,000	-0,063	-0,224
-170,139	800,000	0,018	-0,043
-169,125	101,296	0,058	0,048
-168,110	687,201	0,051	0,096
-167,096	150,276	0,072	0,069
-166,081	-41,135	-0,198	-0,072
-165,066	103,310	-0,059	-0,049
-164,052	-109,690	-0,084	-0,012
-163,037	61,174	0,072	0,051
-162,023	138,444	-0,089	-0,083
-161,008	258,706	-0,032	0,039
-159,993	-200,000	0,001	0,044
-158,979	179,163	-0,094	-0,098
-157,964	-38,955	-0,063	-0,023
-156,950	-200,000	-0,015	-0,082
-155,935	800,000	0,023	-0,066
-154,920	-103,880	0,212	0,035
-153,906	75,588	0,073	0,055
-152,891	107,907	-0,043	-0,036
-151,877	-78,014	-0,068	-0,016
-150,862	17,695	-0,144	0,081
-149,847	-200,000	0,005	0,046
-148,833	-184,919	0,047	-0,001
-147,818	-163,888	0,078	-0,003
-146,804	-27,084	0,086	0,036
-145,789	800,000	0,060	0,128
-144,775	800,000	0,027	0,071
-143,760	-77,048	-0,091	0,022
-142,745	204,179	0,029	-0,032
-141,731	33,602	0,096	-0,059
-140,716	663,188	0,036	-0,066
-139,702	117,025	-0,044	-0,038
-138,687	-200,000	0,019	0,089
-137,672	-200,000	0,046	0,166
-136,658	550,799	0,002	-0,003
-135,643	381,357	-0,049	-0,072
-134,629	-200,000	-0,016	-0,057
-133,614	-200,000	0,004	-0,037
-132,599	-136,209	0,176	0,014
-131,585	292,370	0,060	0,078
-130,570	-50,733	-0,116	0,039
-129,556	-3,001	-0,083	-0,041
-128,541	800,000	-0,061	-0,133
-127,526	-200,000	0,020	-0,154
-126,512	-200,000	-0,017	0,108
-125,497	173,823	0,022	-0,023
-124,483	800,000	0,033	0,073
-123,468	-200,000	0,012	0,096
-122,453	-200,000	-0,005	0,038
-121,439	-200,000	-0,011	0,082
-120,424	797,169	-0,076	-0,150
-119,410	-4,932	0,105	0,051
-118,395	32,341	0,064	0,039
-117,380	102,855	-0,069	0,057
-116,366	-200,000	-0,011	-0,089
-115,351	31,354	0,066	-0,040
-114,337	-200,000	-0,030	-0,142
-113,322	-7,256	0,114	0,055
-112,307	-77,453	-0,049	0,012
-111,293	-200,000	-0,027	0,155
-110,278	375,821	0,081	0,117
-109,264	-68,494	-0,037	-0,010
-108,249	-200,000	-0,002	-0,088
-107,234	-200,000	-0,007	-0,059
-106,220	168,799	0,060	-0,061
-105,205	-200,000	0,083	-0,266
-104,191	107,535	-0,010	-0,008
-103,176	800,000	0,035	0,084
-102,162	-200,000	-0,013	0,093
-101,147	501,085	0,054	-0,088
-100,132	213,372	0,048	-0,054
-99,118	10,708	0,121	0,065
-98,103	-21,509	-0,106	0,045
-97,089	-200,000	0,056	-0,178
-96,074	-200,000	0,038	0,225
-95,059	-115,997	0,039	0,005
-94,045	-6,782	0,124	0,059
-93,030	179,974	-0,089	-0,093
-92,016	-9,119	-0,119	0,056
-91,001	-200,000	0,012	-0,083
-89,986	-25,006	-0,065	0,027
-88,972	10,100	0,174	-0,093
-87,957	68,348	-0,019	-0,013
-86,943	-61,341	-0,096	-0,028
-85,928	-138,529	0,064	0,005
-84,913	-200,000	0,016	-0,252
-83,899	156,795	-0,044	-0,043
-82,884	-18,150	0,079	0,035
-81,870	800,000	0,007	0,014
-80,855	800,000	-0,029	0,059
-79,840	564,831	-0,033	-0,056
-78,826	-78,699	-0,032	-0,008
-77,811	59,065	-0,098	-0,068
-76,797	55,682	-0,013	0,009
-75,782	-33,060	0,046	-0,018
-74,767	15,084	0,072	0,040
-73,753	160,636	0,054	-0,054
-72,738	154,239	-0,069	0,067
-71,724	800,000	0,053	-0,125
-70,709	-200,000	-0,005	-0,050
-69,694	800,000	0,055	-0,169
-68,680	800,000	-0,022	-0,053
-67,665	-72,310	0,059	0,015
-66,651	54,573	-0,152	0,104
-65,636	205,151	0,071	-0,078
-64,622	5,719	-0,144	-0,075
-63,607	-200,000	-0,038	-0,132
-62,592	-64,970	0,152	-0,043
-61,578	-200,000	-0,007	0,098
-60,563	800,000	-0,027	0,068
-59,549	800,000	-0,081	0,191
-58,534	-24,548	-1,497	-0,628
-57,519	369,218	-1,455	-2,090
-56,505	-200,000	-0,499	-4,584
-55,490	144,624	0,993	0,940
-54,476	800,000	5,037	11,463
-53,461	-200,000	18,659	304,529
-52,446	800,000	735,949	2288,556
-51,432	566,084	1652,268	2848,686
-50,417	78,927	1669,962	1264,202
-49,403	22,110	1543,073	889,173
-48,388	16,000	1465,847	814,999
-47,373	17,772	1455,742	817,903
-46,359	16,822	1446,151	807,927
-45,344	14,291	1441,416	793,134
-44,330	14,188	1439,578	791,602
-43,315	14,199	1437,803	790,646
-42,300	14,251	1436,094	789,921
-41,286	14,248	1434,948	789,249
-40,271	14,210	1433,816	788,411
-39,257	14,197	1432,308	787,490
-38,242	14,265	1431,207	787,178
-37,227	14,226	1430,004	786,300
-36,213	14,244	1428,670	785,621
-35,198	14,231	1427,609	784,942
-34,184	14,266	1426,675	784,564
-33,169	14,179	1425,440	783,439
-32,154	14,259	1424,114	783,059
-31,140	14,300	1422,551	782,362
-30,125	14,292	1421,794	781,879
-29,111	14,288	1420,542	781,138
-28,096	14,285	1419,557	780,550
-27,082	14,204	1418,454	779,535
-26,067	14,193	1417,208	778,768
-25,052	14,179	1416,288	778,164
-24,038	14,142	1415,368	777,451
-23,023	14,155	1414,242	776,866
-22,009	14,101	1413,508	776,179
-20,994	14,176	1412,453	775,922
-19,979	14,094	1411,592	775,032
-18,965	14,114	1410,561	774,528
-17,950	14,109	1409,801	774,054
-16,936	14,102	1408,626	773,348
-15,921	14,067	1407,729	772,662
-14,906	14,083	1406,803	772,196
-13,892	14,082	1405,856	771,644
-12,877	14,070	1404,933	771,047
-11,863	14,047	1404,011	770,406
-10,848	14,055	1403,083	769,904
-9,833	14,029	1402,409	769,381
-8,819	14,002	1401,341	768,641
-7,804	13,981	1400,461	768,028
-6,790	13,998	1399,493	767,544
-5,775	14,017	1398,448	767,031
-4,760	13,977	1397,413	766,249
-3,746	13,993	1396,452	765,762
-2,731	13,995	1395,884	765,429
-1,717	13,947	1394,915	764,647
-0,702	13,945	1393,263	763,701
0,313	17,741	1311,109	736,273
1,327	33,990	706,017	434,115
2,342	52,139	124,195	83,606
3,356	4,188	16,648	8,595
4,371	6,233	3,174	1,660
5,386	44,001	0,426	0,276
6,400	793,053	0,013	-0,026
7,415	51,586	-0,274	-0,184
8,429	102,920	-0,296	-0,245
9,444	-44,611	-0,410	-0,144
10,459	101,187	-0,254	-0,209
11,473	-27,009	-0,379	-0,156
12,488	-93,225	-0,386	-0,075
13,502	-105,455	-0,438	-0,070
14,517	81,924	-0,395	-0,302
15,531	134,082	-0,299	-0,274
16,546	28,163	-0,515	-0,306
17,561	48,219	-0,292	-0,193
18,575	-8,432	-0,330	-0,156
19,590	99,049	-0,230	-0,187
20,604	96,346	-0,189	-0,153
21,619	-12,060	-0,375	-0,173
22,634	133,782	-0,401	-0,367
23,648	77,023	-0,382	-0,286
24,663	153,866	-0,340	-0,330
25,677	118,379	-0,345	-0,300
26,692	33,199	-0,259	-0,158
27,707	-51,816	-0,415	-0,136
28,721	123,996	-0,360	-0,319
29,736	107,713	-0,337	-0,283
30,750	26,013	-0,360	-0,211
31,765	-24,091	-0,422	-0,177
32,780	-69,324	-0,323	-0,087
33,794	-6,843	-0,286	-0,137
34,809	75,768	-0,265	-0,197
35,823	119,000	-0,332	-0,289
36,838	148,353	-0,352	-0,336
37,853	81,871	-0,439	-0,335
38,867	153,536	-0,298	-0,288
39,882	109,364	-0,214	-0,181
40,896	36,799	-0,429	-0,267
41,911	-26,522	-0,351	-0,144
42,926	8,525	-0,257	-0,136
43,940	17,253	-0,419	-0,234
44,955	-87,249	-0,487	-0,103
45,969	45,278	-0,398	-0,258
46,984	123,695	-0,281	-0,249
47,999	-61,815	-0,302	-0,089
49,013	154,643	-0,214	-0,207
50,028	-12,404	-0,424	-0,194
51,042	95,999	-0,358	-0,288
52,057	174,005	-0,318	-0,324
53,071	128,805	-0,315	-0,283
54,086	176,489	-0,323	-0,331
55,101	41,661	-0,313	-0,199
56,115	94,269	-0,359	-0,287
57,130	-12,105	-0,321	-0,147
58,144	420,074	-0,176	-0,266
59,159	226,640	-0,294	-0,337
60,174	43,171	-0,444	-0,285
61,188	55,183	-0,329	-0,223
62,203	25,059	-0,285	-0,166
63,217	172,928	-0,202	-0,205
64,232	-24,519	-0,378	-0,158
65,247	6,602	-0,342	-0,178
66,261	67,024	-0,299	-0,214
67,276	-35,340	-0,420	-0,160
68,290	-3,822	-0,241	-0,117
69,305	182,223	-0,264	-0,274
70,320	131,513	-0,276	-0,250
71,334	-1,358	-0,291	-0,144
72,349	-58,382	-0,407	-0,124
73,363	123,735	-0,311	-0,274
74,378	100,008	-0,329	-0,268
75,393	-2,867	-0,345	-0,169
76,407	-10,472	-0,332	-0,154
77,422	-48,014	-0,248	-0,084
78,436	121,017	-0,297	-0,260
79,451	-35,136	-0,334	-0,127
80,466	70,512	-0,328	-0,238
81,480	-8,637	-0,359	-0,169
82,495	610,550	-0,206	-0,363
83,509	20,023	-0,408	-0,231
84,524	71,775	-0,205	-0,150
85,539	-128,283	-0,358	-0,035
86,553	-21,450	-0,289	-0,123
87,568	180,293	-0,214	-0,221
88,582	5,702	-0,303	-0,157
89,597	92,824	-0,231	-0,183
90,611	178,949	-0,297	-0,305
91,626	-54,898	-0,162	-0,051
92,641	-88,473	-0,399	-0,083
93,655	-92,047	-0,321	-0,063
94,670	800,000	-0,149	-0,299
95,684	190,004	-0,247	-0,261
96,699	114,208	-0,241	-0,206
97,714	-8,145	-0,368	-0,173
98,728	62,163	-0,210	-0,147
99,743	160,016	-0,275	-0,269
100,757	-27,894	-0,356	-0,144
101,772	6,185	-0,268	-0,139
102,787	-16,272	-0,376	-0,167
103,801	151,193	-0,277	-0,264
104,816	23,232	-0,316	-0,181
105,830	568,773	-0,140	-0,239
106,845	6,738	-0,489	-0,255
107,860	188,673	-0,214	-0,224
108,874	116,096	-0,256	-0,220
109,889	-63,085	-0,362	-0,104
110,903	134,901	-0,189	-0,172
111,918	121,746	-0,222	-0,194
112,933	-67,056	-0,323	-0,089
113,947	249,899	-0,207	-0,246
114,962	35,937	-0,247	-0,152
115,976	-44,829	-0,333	-0,115
116,991	337,391	-0,226	-0,309
118,006	107,826	-0,239	-0,199
119,020	67,790	-0,147	-0,105
120,035	98,923	-0,184	-0,148
121,049	-3,674	-0,201	-0,097
122,064	-40,754	-0,282	-0,102
123,079	-32,344	-0,220	-0,085
124,093	146,202	-0,206	-0,194
125,108	-30,830	-0,531	-0,209
126,122	266,383	-0,193	-0,236
127,137	67,555	-0,265	-0,189
128,151	-18,548	-0,295	-0,128
129,166	-66,971	-0,236	-0,065
130,181	75,885	-0,204	-0,151
131,195	-11,878	-0,354	-0,162
132,210	-22,330	-0,282	-0,119
133,224	78,619	-0,261	-0,195
134,239	66,587	-0,192	-0,136
135,254	1,760	-0,238	-0,120
136,268	5,864	-0,285	-0,147
137,283	66,407	-0,278	-0,197
138,297	55,128	-0,221	-0,149
139,312	99,460	-0,283	-0,229
140,327	11,405	-0,247	-0,132
141,341	182,903	-0,264	-0,273
142,356	-44,177	-0,206	-0,072
143,370	175,784	-0,173	-0,176
144,385	-22,430	-0,181	-0,076
145,400	205,022	-0,267	-0,290
146,414	-1,629	-0,270	-0,132
147,429	309,938	-0,198	-0,259
148,443	77,011	-0,253	-0,188
149,458	385,858	-0,129	-0,186
150,473	-59,988	-0,299	-0,088
151,487	-15,212	-0,315	-0,140
152,502	163,334	-0,166	-0,163
153,516	800,000	-0,101	-0,217
154,531	55,880	-0,353	-0,239
155,546	800,000	-0,091	-0,179
156,560	25,790	-0,230	-0,133
157,575	118,781	-0,266	-0,229
158,589	124,472	-0,235	-0,206
159,604	-59,053	-0,247	-0,074
160,619	108,193	-0,334	-0,278
161,633	151,272	-0,240	-0,228
162,648	91,232	-0,183	-0,143
163,662	800,000	-0,070	-0,166
164,677	48,172	-0,235	-0,153
165,692	103,346	-0,256	-0,210
166,706	592,596	-0,138	-0,239
167,721	178,905	-0,202	-0,206
168,735	152,800	-0,234	-0,223
169,750	378,745	-0,187	-0,268
170,764	-107,096	-0,195	-0,030
171,779	229,100	-0,169	-0,192
172,794	17,416	-0,222	-0,123
173,808	-44,878	-0,254	-0,088
174,823	303,627	-0,210	-0,272
175,837	71,599	-0,203	-0,147
176,852	130,475	-0,155	-0,138
177,867	7,336	-0,203	-0,105
178,881	-52,025	-0,229	-0,074
179,896	252,590	-0,191	-0,227
180,910	65,949	-0,260	-0,184
181,925	166,517	-0,145	-0,143
182,940	107,666	-0,114	-0,095
183,954	272,512	-0,172	-0,212
184,969	-189,413	-0,172	0,001
185,983	96,464	-0,193	-0,154
186,998	79,477	-0,113	-0,084
188,013	-55,955	-0,279	-0,086
189,027	295,003	-0,163	-0,208
190,042	-12,196	-0,249	-0,113
191,056	164,910	-0,219	-0,215
192,071	21,812	-0,189	-0,107
193,086	82,173	-0,092	-0,069
194,100	-28,562	-0,133	-0,053
195,115	189,101	-0,218	-0,227
196,129	37,544	-0,169	-0,104
197,144	-200,000	-0,100	-0,330
198,159	289,795	-0,170	-0,215
199,173	217,983	-0,142	-0,158
200,188	-200,000	0,039	-0,216
201,202	262,445	-0,138	-0,167
202,217	148,998	-0,190	-0,179
203,232	617,680	-0,129	-0,226
204,246	800,000	-0,072	-0,218
205,261	119,089	-0,165	-0,142
206,275	159,863	-0,192	-0,186
207,290	1,776	-0,171	-0,085
208,304	6,696	-0,221	-0,114
209,319	-11,159	-0,219	-0,100
210,334	140,403	-0,220	-0,202
211,348	-48,877	-0,281	-0,093
212,363	49,515	-0,303	-0,198
213,377	51,201	-0,220	-0,145
214,392	596,409	-0,105	-0,181
215,407	174,757	-0,163	-0,164
216,421	-6,252	-0,204	-0,096
217,436	209,190	-0,165	-0,179
218,450	158,036	-0,261	-0,251
219,465	-98,002	-0,212	-0,038
220,480	-32,605	-0,178	-0,069
221,494	0,815	-0,081	-0,040
222,509	-152,793	-0,107	-0,005
223,523	-25,185	-0,295	-0,121
224,538	15,002	-0,034	0,019
225,553	148,052	-0,175	-0,164
226,567	35,928	-0,359	-0,219
227,582	88,425	-0,227	-0,175
228,596	-73,951	-0,301	-0,075
229,611	132,291	-0,040	0,036
230,626	19,758	-0,178	-0,099
231,640	-56,310	-0,222	-0,068
232,655	414,643	-0,171	-0,253
233,669	144,844	-0,155	-0,144
234,684	214,167	-0,245	-0,269
235,699	256,296	-0,187	-0,222
236,713	21,814	-0,231	-0,130
237,728	102,287	-0,156	-0,126
238,742	6,910	-0,170	-0,088
239,757	324,134	-0,132	-0,175
240,772	800,000	-0,089	-0,231
241,786	16,854	-0,242	-0,132
242,801	465,726	-0,156	-0,243
243,815	99,877	-0,215	-0,173
244,830	360,724	-0,138	-0,192
245,844	197,111	-0,200	-0,212
246,859	57,122	-0,149	-0,100
247,874	23,388	-0,260	-0,148
248,888	180,337	-0,191	-0,194
249,903	79,907	-0,202	-0,150
250,917	800,000	-0,037	-0,097
251,932	62,246	-0,247	-0,170
252,947	29,110	-0,216	-0,126
253,961	291,255	-0,178	-0,224
254,976	473,469	-0,191	-0,299
255,990	186,935	-0,213	-0,220
257,005	153,861	-0,177	-0,168
258,020	-108,289	-0,126	0,019
259,034	-177,482	-0,178	0,003
260,049	-47,305	-0,059	0,020
261,063	800,000	-0,128	-0,259
262,078	212,344	-0,179	-0,195
263,093	327,863	-0,182	-0,242
264,107	82,659	-0,189	-0,142
265,122	-12,208	-0,163	0,073
266,136	67,162	-0,083	-0,059
267,151	65,879	-0,206	-0,144
268,166	227,987	-0,156	-0,176
269,180	455,564	-0,144	-0,221
270,195	489,129	-0,137	-0,217
271,209	305,453	-0,148	-0,191
272,224	7,353	-0,171	-0,088
273,239	7,543	-0,220	-0,113
274,253	-105,233	-0,211	-0,033
275,268	46,176	-0,229	-0,146
276,282	-23,090	-0,190	-0,079
277,297	117,730	-0,107	-0,091
278,312	569,483	-0,169	-0,286
279,326	526,717	-0,084	-0,136
280,341	1,571	-0,111	-0,055
281,355	211,592	-0,130	-0,142
282,370	-63,371	-0,194	-0,055
283,384	-0,690	-0,272	-0,133
284,399	23,542	-0,180	-0,102
285,414	118,255	-0,181	-0,154
286,428	-19,881	-0,168	-0,071
287,443	-27,997	-0,137	-0,054
288,457	314,347	-0,075	-0,097
289,472	268,489	-0,173	-0,209
290,487	369,417	-0,174	-0,244
291,501	452,088	-0,189	-0,288
292,516	160,367	-0,169	-0,163
293,530	458,483	-0,108	-0,166
294,545	-200,000	-0,003	-0,130
295,560	-130,103	-0,072	-0,007
296,574	52,270	-0,187	-0,123
297,589	800,000	-0,050	-0,114
298,603	136,485	-0,171	-0,154
299,618	105,481	-0,187	-0,152
300,633	519,547	-0,118	-0,192
301,647	-51,848	-0,040	-0,013
302,662	-68,175	-0,079	0,021
303,676	-59,629	-0,238	-0,070
304,691	86,587	-0,239	-0,181
305,706	800,000	-0,082	-0,237
306,720	-33,098	-0,333	-0,127
307,735	380,330	-0,164	-0,233
308,749	45,338	-0,146	-0,093
309,764	-81,042	-0,168	-0,038
310,779	425,474	-0,046	-0,068
311,793	141,096	-0,075	-0,069
312,808	152,199	-0,187	-0,176
313,822	511,540	-0,100	-0,161
314,837	800,000	-0,080	-0,206
315,852	-6,248	-0,087	-0,041
316,866	-118,420	-0,086	-0,010
317,881	-76,783	-0,240	-0,057
318,895	-65,253	-0,376	-0,104
319,910	121,682	-0,191	-0,164
320,925	-110,597	-0,208	-0,029
321,939	21,784	-0,181	-0,101
322,954	-14,118	-0,254	-0,112
323,968	-80,805	-0,117	-0,026
324,983	-158,118	-0,132	-0,005
325,997	-200,000	-0,064	-0,239
327,012	545,058	-0,136	-0,224
328,027	85,839	-0,124	-0,094
329,041	-200,000	-0,003	-0,177
330,056	531,512	-0,119	-0,194
331,070	138,117	-0,132	-0,119
332,085	146,362	-0,157	-0,145
333,100	800,000	-0,064	-0,164
334,114	-200,000	-0,016	-0,193
335,129	7,222	-0,154	-0,079
336,143	-128,403	-0,184	0,018
337,158	649,134	-0,143	-0,253
338,173	800,000	-0,054	-0,134
339,187	-200,000	0,046	-0,206
340,202	25,750	-0,119	0,068
341,216	41,977	-0,214	-0,133
342,231	800,000	-0,094	-0,183
343,246	223,070	-0,149	-0,165
344,260	12,156	-0,222	-0,117
345,275	91,276	-0,060	-0,046
346,289	-200,000	-0,023	-0,110
347,304	581,562	-0,106	-0,179
348,319	-25,890	-0,129	-0,052
349,333	408,083	-0,110	-0,160
350,348	-17,088	-0,116	-0,050
351,362	53,753	-0,107	-0,070
352,377	-100,798	-0,122	0,020
353,392	197,078	-0,071	-0,074
354,406	-78,266	-0,174	-0,041
355,421	209,125	1315,822	1415,102
356,435	160,935	1476,694	1415,593
