DTS Sentinel unit serial number:	SN410029Multiplexer serial number:	ORYXHardware model number:	OX2-SRSoftware version number:	ORYX F/W v4,00 Oryx Data Collector v3.7.2.0data status	okinstallation	B3 Nyhavnadifferential loss correction	single-endedforward channel	channel 1reverse channel	N/Adate	2023/12/01time	15:02:30forward acquisition time	300,00reverse acquisition time	0,00gamma	499,1914k internal	0,3211k external	0,3211temperature offset calibration	1,0000default loss term (dB/km)	0,3820temperature slope calibration	1,0000multiplexer offset coefficient	1,0000multiplexer slope coefficient	1,0000fibre end	0,00T internal ref (°C)	11,46T ext. ref 1 (°C)	-1,93T ext. ref 2 (°C)	-2,01length (m)	temperature (°C)	Stokes	anti-Stokes-744,400	54,946	-0,284	-0,199
-743,385	-200,000	-0,050	0,296
-742,371	146,516	-0,224	-0,219
-741,356	-200,000	0,080	0,282
-740,342	272,181	-0,163	-0,208
-739,327	-200,000	0,072	0,302
-738,312	198,686	-0,203	-0,225
-737,298	800,000	0,072	0,195
-736,283	349,409	-0,264	-0,379
-735,269	-200,000	0,022	0,375
-734,254	800,000	-0,108	-0,221
-733,239	-11,825	-0,227	0,108
-732,225	88,557	-0,064	-0,052
-731,210	-200,000	0,052	0,180
-730,196	-200,000	0,003	0,019
-729,181	-200,000	-0,031	-0,112
-728,167	800,000	0,060	-0,130
-727,152	-200,000	0,028	-0,112
-726,137	-22,504	-0,037	0,016
-725,123	-18,390	-0,064	0,029
-724,108	-115,355	-0,120	0,016
-723,094	800,000	-0,076	-0,189
-722,079	-25,786	-0,124	0,053
-721,064	389,973	0,039	-0,059
-720,050	-200,000	-0,072	0,000
-719,035	-70,502	-0,099	-0,027
-718,021	-4,290	-0,098	0,049
-717,006	-200,000	-0,003	-0,022
-715,991	800,000	0,011	-0,035
-714,977	42,274	-0,055	-0,036
-713,962	10,073	-0,134	-0,073
-712,948	514,178	0,059	-0,099
-711,933	-200,000	-0,007	0,048
-710,918	-14,006	-0,163	-0,076
-709,904	-110,715	0,037	-0,005
-708,889	-24,807	-0,249	-0,107
-707,875	63,406	-0,112	-0,081
-706,860	800,000	-0,065	-0,198
-705,845	440,641	0,054	0,086
-704,831	-114,862	0,057	0,008
-703,816	-47,753	-0,088	0,031
-702,802	53,538	-0,120	-0,083
-701,787	-200,000	-0,064	-0,269
-700,772	327,846	0,064	-0,089
-699,758	320,311	-0,036	-0,050
-698,743	-46,970	0,116	0,041
-697,729	-200,000	0,017	-0,065
-696,714	524,880	0,029	-0,050
-695,699	374,722	0,024	0,035
-694,685	-105,158	-0,033	0,005
-693,670	-200,000	-0,001	-0,221
-692,656	13,350	-0,143	-0,080
-691,641	-200,000	0,009	0,068
-690,627	-200,000	-0,037	0,129
-689,612	-200,000	0,003	0,041
-688,597	-93,403	-0,130	-0,026
-687,583	106,096	-0,024	0,021
-686,568	457,205	-0,081	0,131
-685,554	13,950	-0,083	-0,047
-684,539	800,000	0,017	-0,038
-683,524	108,987	0,054	-0,046
-682,510	-187,297	-0,073	0,001
-681,495	-200,000	-0,016	0,067
-680,481	800,000	-0,052	-0,108
-679,466	800,000	-0,076	-0,193
-678,451	104,612	0,034	-0,029
-677,437	37,429	-0,126	-0,081
-676,422	-199,138	-0,100	0,000
-675,408	134,745	-0,043	-0,040
-674,393	-200,000	-0,008	0,053
-673,378	137,033	-0,026	-0,025
-672,364	800,000	-0,023	-0,068
-671,349	-45,474	-0,088	0,031
-670,335	800,000	0,011	-0,035
-669,320	240,939	0,112	0,135
-668,305	-200,000	-0,016	0,104
-667,291	-3,869	0,148	-0,074
-666,276	800,000	0,029	0,073
-665,262	125,317	0,136	-0,124
-664,247	44,360	-0,094	-0,062
-663,232	256,918	-0,108	-0,134
-662,218	92,255	-0,079	-0,065
-661,203	15,066	0,089	-0,050
-660,189	114,356	-0,037	-0,032
-659,174	53,276	-0,038	-0,026
-658,159	-150,967	-0,072	-0,004
-657,145	161,861	0,026	-0,026
-656,130	-91,248	0,159	0,033
-655,116	-200,000	0,011	-0,063
-654,101	139,875	-0,043	-0,041
-653,086	464,909	0,027	-0,044
-652,072	50,269	-0,020	-0,013
-651,057	800,000	-0,026	0,053
-650,043	-200,000	-0,008	0,085
-649,028	423,691	-0,091	-0,142
-648,014	-60,833	0,088	-0,027
-646,999	800,000	-0,023	-0,057
-645,984	-134,441	-0,072	0,006
-644,970	-87,629	-0,094	-0,020
-643,955	273,591	-0,048	-0,061
-642,941	-121,359	-0,034	0,004
-641,926	47,816	-0,033	-0,022
-640,911	-40,002	-0,170	0,064
-639,897	-200,000	-0,025	0,133
-638,882	-200,000	-0,010	0,061
-637,868	126,146	-0,062	-0,057
-636,853	137,137	-0,041	-0,039
-635,838	-200,000	-0,001	-0,021
-634,824	-60,302	-0,141	-0,043
-633,809	-200,000	-0,035	0,142
-632,795	-114,669	0,067	0,009
-631,780	757,000	-0,038	0,075
-630,765	-139,892	0,077	-0,006
-629,751	800,000	0,053	-0,119
-628,736	-55,384	-0,125	-0,040
-627,722	-93,664	-0,107	-0,021
-626,707	279,464	0,004	-0,005
-625,692	-14,849	0,022	-0,010
-624,678	1,874	0,034	-0,018
-623,663	-7,073	0,108	0,053
-622,649	23,781	-0,142	-0,084
-621,634	800,000	0,031	-0,093
-620,619	-200,000	0,007	-0,040
-619,605	13,783	0,045	-0,025
-618,590	800,000	0,040	-0,094
-617,576	-75,638	0,082	-0,021
-616,561	-200,000	0,007	-0,028
-615,546	22,743	-0,099	-0,058
-614,532	-200,000	-0,035	-0,159
-613,517	67,958	-0,062	-0,046
-612,503	-200,000	0,018	0,065
-611,488	-59,572	0,126	-0,039
-610,474	-200,000	0,043	0,178
-609,459	135,540	0,053	-0,050
-608,444	290,714	0,052	0,068
-607,430	-56,781	-0,116	-0,037
-606,415	39,849	-0,061	0,040
-605,401	600,184	0,022	0,039
-604,386	48,152	-0,082	0,055
-603,371	800,000	-0,045	-0,127
-602,357	-75,423	0,145	-0,037
-601,342	-200,000	0,001	-0,024
-600,328	-200,000	-0,070	-0,234
-599,313	800,000	-0,040	-0,090
-598,298	-200,000	0,016	-0,083
-597,284	-83,316	-0,044	0,010
-596,269	-0,969	0,037	-0,019
-595,255	-1,592	0,078	0,040
-594,240	800,000	-0,033	-0,066
-593,225	800,000	0,015	-0,041
-592,211	-200,000	-0,004	0,144
-591,196	-13,234	-0,068	0,032
-590,182	386,854	-0,049	-0,072
-589,167	-80,797	0,131	-0,031
-588,152	326,563	-0,020	0,027
-587,138	101,144	-0,063	-0,053
-586,123	-200,000	0,001	-0,129
-585,109	157,816	-0,090	0,090
-584,094	-200,000	0,001	0,147
-583,079	282,417	0,101	0,131
-582,065	346,552	-0,084	-0,119
-581,050	-200,000	0,002	-0,140
-580,036	-200,000	-0,006	0,031
-579,021	298,023	-0,062	-0,083
-578,006	-200,000	-0,042	-0,172
-576,992	-200,000	0,000	0,019
-575,977	-28,307	-0,079	0,033
-574,963	-200,000	0,009	-0,099
-573,948	50,715	0,103	0,070
-572,934	-200,000	-0,020	-0,068
-571,919	-66,452	0,065	-0,019
-570,904	332,879	-0,074	-0,103
-569,890	-69,030	-0,034	0,009
-568,875	-200,000	0,020	0,115
-567,861	52,483	0,038	0,026
-566,846	-42,709	0,093	-0,034
-565,831	-200,000	-0,006	0,044
-564,817	-185,913	-0,067	0,001
-563,802	-133,995	-0,082	-0,007
-562,788	-56,243	-0,054	-0,017
-561,773	74,847	-0,078	-0,059
-560,758	-82,543	-0,038	-0,009
-559,744	-11,994	0,046	0,022
-558,729	800,000	0,058	-0,133
-557,715	-200,000	-0,023	-0,083
-556,700	244,180	-0,036	-0,044
-555,685	800,000	-0,034	-0,105
-554,671	607,686	0,064	0,115
-553,656	617,980	0,052	-0,095
-552,642	105,694	0,014	-0,012
-551,627	-200,000	0,035	-0,116
-550,612	-0,278	-0,123	-0,063
-549,598	350,176	-0,087	0,125
-548,583	-200,000	-0,007	-0,038
-547,569	206,364	-0,051	0,057
-546,554	-189,620	0,060	0,000
-545,539	34,833	0,121	0,076
-544,525	-192,270	-0,025	-0,000
-543,510	-200,000	-0,005	0,021
-542,496	627,213	-0,078	-0,142
-541,481	17,316	0,051	-0,029
-540,466	-200,000	-0,003	-0,034
-539,452	280,058	0,053	0,068
-538,437	157,149	0,076	-0,076
-537,423	144,857	-0,119	0,115
-536,408	544,852	0,033	0,056
-535,393	800,000	-0,019	-0,041
-534,379	-116,974	-0,034	0,004
-533,364	44,147	0,049	0,032
-532,350	-200,000	0,022	0,078
-531,335	176,035	0,091	-0,096
-530,321	-200,000	-0,005	-0,154
-529,306	-82,628	-0,099	-0,023
-528,291	70,928	-0,107	-0,080
-527,277	-200,000	-0,020	0,075
-526,262	-3,330	0,096	-0,048
-525,248	36,667	0,107	0,068
-524,233	800,000	-0,021	0,046
-523,218	-33,951	0,069	0,027
-522,204	247,865	-0,038	-0,047
-521,189	186,480	-0,039	-0,042
-520,175	800,000	0,051	-0,106
-519,160	-200,000	0,016	-0,153
-518,145	-117,340	-0,052	-0,007
-517,131	436,839	0,060	0,094
-516,116	-200,000	-0,012	-0,125
-515,102	800,000	-0,034	0,074
-514,087	-83,575	0,101	-0,023
-513,072	599,347	-0,096	-0,172
-512,058	-200,000	0,017	-0,097
-511,043	800,000	0,018	0,056
-510,029	-77,319	0,076	0,019
-509,014	773,498	0,031	-0,060
-507,999	-200,000	-0,003	0,017
-506,985	800,000	0,033	0,069
-505,970	412,948	0,042	0,064
-504,956	-200,000	-0,010	-0,047
-503,941	-200,000	-0,011	0,106
-502,926	-200,000	-0,003	0,020
-501,912	-200,000	-0,003	0,161
-500,897	-200,000	-0,006	-0,098
-499,883	-200,000	-0,003	-0,057
-498,868	98,995	0,017	-0,014
-497,853	-48,793	-0,071	-0,024
-496,839	113,114	0,100	0,087
-495,824	800,000	0,047	0,136
-494,810	-200,000	0,022	0,107
-493,795	109,314	0,059	0,050
-492,781	-34,094	0,048	0,019
-491,766	496,192	-0,036	0,059
-490,751	98,513	0,021	-0,018
-489,737	-200,000	0,029	-0,142
-488,722	-151,307	0,071	-0,004
-487,708	422,463	0,018	0,028
-486,693	251,606	0,048	-0,058
-485,678	440,941	-0,109	-0,171
-484,664	429,471	-0,083	0,129
-483,649	-100,180	0,068	-0,012
-482,635	226,386	-0,040	0,046
-481,620	800,000	-0,013	-0,037
-480,605	103,417	-0,102	-0,086
-479,591	-200,000	0,016	0,090
-478,576	420,120	0,028	-0,044
-477,562	-200,000	0,003	-0,074
-476,547	44,398	-0,039	-0,026
-475,532	202,951	-0,033	0,036
-474,518	-147,184	-0,041	0,002
-473,503	542,998	-0,036	-0,063
-472,489	213,990	0,035	-0,040
-471,474	-200,000	0,013	0,060
-470,459	-78,569	-0,053	-0,013
-469,445	88,970	-0,089	-0,071
-468,430	58,073	0,075	0,052
-467,416	51,166	0,163	0,111
-466,401	-200,000	0,045	0,159
-465,386	-16,960	0,189	0,085
-464,372	37,486	-0,069	0,044
-463,357	-109,020	-0,072	-0,011
-462,343	680,873	0,086	-0,162
-461,328	148,441	-0,048	-0,046
-460,313	-200,000	-0,006	0,133
-459,299	800,000	0,051	0,129
-458,284	-200,000	0,004	-0,036
-457,270	-55,881	0,124	0,039
-456,255	157,264	-0,091	-0,090
-455,241	287,146	-0,058	-0,075
-454,226	303,605	-0,112	-0,149
-453,211	-200,000	0,004	0,038
-452,197	273,731	0,151	0,192
-451,182	-200,000	-0,011	0,088
-450,168	207,459	-0,045	0,050
-449,153	800,000	-0,021	0,048
-448,138	-128,385	-0,088	0,009
-447,124	-200,000	0,008	-0,115
-446,109	-11,246	-0,061	-0,029
-445,095	-200,000	-0,012	-0,061
-444,080	292,608	0,069	0,090
-443,065	-200,000	-0,030	0,207
-442,051	37,718	-0,065	0,041
-441,036	-42,568	-0,183	0,066
-440,022	72,682	-0,044	0,033
-439,007	515,201	0,068	-0,114
-437,992	49,800	0,065	0,044
-436,978	-200,000	0,035	0,115
-435,963	135,896	-0,052	-0,049
-434,949	285,005	-0,034	-0,043
-433,934	-200,000	0,005	-0,089
-432,919	-200,000	0,010	-0,059
-431,905	-200,000	-0,005	-0,105
-430,890	800,000	0,012	-0,033
-429,876	-200,000	-0,019	0,073
-428,861	-200,000	0,011	0,084
-427,846	-116,204	-0,012	-0,002
-426,832	109,107	-0,118	-0,101
-425,817	-200,000	-0,034	0,144
-424,803	800,000	0,022	0,050
-423,788	123,885	-0,028	0,025
-422,773	419,327	-0,042	0,065
-421,759	-200,000	-0,002	0,081
-420,744	-119,044	-0,086	-0,011
-419,730	75,702	0,075	-0,057
-418,715	800,000	0,059	0,126
-417,701	800,000	0,038	0,081
-416,686	-200,000	-0,004	-0,044
-415,671	663,427	-0,012	-0,023
-414,657	-7,526	0,030	0,015
-413,642	207,148	0,083	0,093
-412,628	-180,874	-0,103	0,001
-411,613	68,851	-0,048	-0,035
-410,598	800,000	0,040	0,112
-409,584	800,000	-0,017	-0,038
-408,569	-53,300	0,036	-0,012
-407,555	9,185	0,054	0,029
-406,540	-188,918	0,032	-0,000
-405,525	215,663	-0,025	-0,028
-404,511	242,121	0,060	-0,072
-403,496	262,367	0,033	0,041
-402,482	106,343	-0,033	0,028
-401,467	-46,760	0,103	0,036
-400,452	-200,000	0,008	0,132
-399,438	800,000	0,062	-0,137
-398,423	550,663	0,027	0,047
-397,409	6,100	0,036	-0,019
-396,394	24,346	-0,109	0,064
-395,379	-22,352	0,018	0,008
-394,365	36,846	0,069	-0,043
-393,350	-200,000	0,046	0,173
-392,336	-200,000	0,008	0,080
-391,321	428,289	-0,027	0,042
-390,306	-200,000	-0,029	-0,111
-389,292	-90,297	-0,042	0,009
-388,277	-155,321	-0,034	-0,002
-387,263	79,276	0,077	0,059
-386,248	182,768	0,082	-0,087
-385,233	-200,000	-0,020	-0,102
-384,219	-200,000	-0,004	-0,027
-383,204	-200,000	0,029	-0,152
-382,190	-200,000	-0,025	-0,154
-381,175	30,866	0,111	-0,068
-380,160	-200,000	0,008	-0,093
-379,146	-118,156	0,043	0,005
-378,131	391,586	-0,049	-0,073
-377,117	490,259	0,043	-0,071
-376,102	-56,125	0,070	-0,022
-375,088	48,852	-0,079	-0,053
-374,073	-200,000	-0,024	-0,142
-373,058	567,360	0,019	-0,033
-372,044	-200,000	0,009	0,054
-371,029	-81,313	-0,079	0,019
-370,015	126,846	-0,088	0,080
-369,000	632,666	0,064	0,117
-367,985	-5,845	-0,065	-0,032
-366,971	-200,000	-0,010	-0,037
-365,956	264,338	0,011	-0,014
-364,942	-103,965	0,098	0,016
-363,927	-156,471	0,058	0,003
-362,912	0,650	-0,104	0,053
-361,898	-138,494	0,086	-0,007
-360,883	286,302	-0,079	-0,102
-359,869	-200,000	-0,013	0,097
-358,854	-200,000	0,025	0,081
-357,839	424,932	0,105	0,162
-356,825	-128,346	0,043	0,004
-355,810	-200,000	0,014	0,051
-354,796	108,117	-0,092	-0,079
-353,781	-0,470	-0,057	0,029
-352,766	370,373	-0,019	-0,027
-351,752	-131,425	-0,040	0,004
-350,737	-132,164	0,153	0,014
-349,723	-71,828	0,086	0,023
-348,708	-157,899	0,062	-0,003
-347,693	-200,000	0,004	-0,054
-346,679	-200,000	0,034	-0,123
-345,664	-93,146	0,152	-0,030
-344,650	-60,000	-0,185	-0,056
-343,635	-122,399	0,090	0,010
-342,620	-82,826	-0,047	-0,011
-341,606	-200,000	0,008	0,034
-340,591	6,195	-0,049	0,026
-339,577	-2,312	-0,106	-0,053
-338,562	143,612	-0,054	-0,051
-337,548	800,000	0,016	0,044
-336,533	171,873	-0,041	0,042
-335,518	-104,079	-0,053	0,009
-334,504	159,429	-0,022	-0,021
-333,489	-159,449	-0,057	0,002
-332,475	110,362	-0,020	0,017
-331,460	-142,282	-0,085	0,006
-330,445	800,000	-0,018	0,037
-329,431	-118,415	0,165	0,021
-328,416	582,570	-0,048	0,084
-327,402	-64,546	-0,101	-0,029
-326,387	-200,000	0,008	0,037
-325,372	-61,983	-0,103	-0,031
-324,358	-123,804	0,057	-0,006
-323,343	800,000	-0,042	0,101
-322,329	-105,911	0,081	-0,013
-321,314	800,000	-0,029	-0,082
-320,299	-169,794	-0,047	-0,001
-319,285	-140,375	-0,091	0,007
-318,270	-40,302	-0,024	-0,009
-317,256	468,200	0,080	-0,128
-316,241	125,943	-0,055	-0,050
-315,226	-81,224	0,056	0,013
-314,212	426,493	0,064	-0,099
-313,197	-159,613	-0,107	0,004
-312,183	-11,665	-0,064	-0,030
-311,168	-200,000	0,022	-0,086
-310,153	-114,550	-0,152	0,021
-309,139	-200,000	-0,002	-0,007
-308,124	-42,134	0,077	-0,028
-307,110	706,016	0,045	0,085
-306,095	146,520	0,051	0,048
-305,080	-200,000	-0,009	-0,037
-304,066	287,867	-0,035	0,046
-303,051	662,319	0,030	-0,055
-302,037	365,893	-0,026	-0,038
-301,022	-200,000	0,005	0,080
-300,008	-200,000	0,014	0,075
-298,993	-200,000	-0,031	0,107
-297,978	-100,728	0,119	0,021
-296,964	5,620	-0,030	-0,016
-295,949	-27,605	-0,229	0,094
-294,935	163,308	0,038	-0,038
-293,920	346,668	-0,069	-0,096
-292,905	-171,344	0,247	0,006
-291,891	740,582	0,016	-0,032
-290,876	-200,000	-0,011	-0,123
-289,862	475,747	0,030	0,049
-288,847	800,000	-0,021	-0,045
-287,832	56,604	-0,084	0,058
-286,818	140,456	-0,089	0,083
-285,803	77,124	0,158	-0,119
-284,789	800,000	0,054	0,148
-283,774	-128,950	0,156	0,015
-282,759	256,781	0,086	0,106
-281,745	800,000	-0,016	0,049
-280,730	-113,913	-0,118	-0,016
-279,716	-9,953	-0,027	0,013
-278,701	102,000	-0,067	-0,056
-277,686	82,188	0,213	0,164
-276,672	-114,712	-0,043	0,006
-275,657	164,107	-0,021	-0,021
-274,643	486,005	-0,050	-0,081
-273,628	-200,000	-0,024	-0,114
-272,613	-81,550	0,110	-0,026
-271,599	800,000	0,016	0,046
-270,584	-98,110	0,018	-0,003
-269,570	-200,000	0,020	0,134
-268,555	-200,000	-0,008	0,048
-267,540	518,807	0,042	-0,071
-266,526	-200,000	-0,031	-0,130
-265,511	38,976	-0,047	0,030
-264,497	-137,942	0,097	-0,008
-263,482	29,373	0,131	0,079
-262,467	-4,213	-0,133	0,065
-261,453	-51,538	0,123	0,041
-260,438	-174,145	-0,040	0,001
-259,424	472,864	0,058	-0,094
-258,409	-200,000	0,016	0,096
-257,395	203,561	0,076	0,084
-256,380	481,369	0,085	0,138
-255,365	-200,000	-0,003	-0,023
-254,351	438,659	0,066	0,103
-253,336	659,154	-0,054	-0,100
-252,322	-97,926	0,085	-0,015
-251,307	-200,000	0,016	0,086
-250,292	60,103	-0,035	0,025
-249,278	104,996	0,017	-0,014
-248,263	268,022	0,101	-0,126
-247,249	800,000	-0,048	0,099
-246,234	-141,682	0,071	0,005
-245,219	114,548	-0,096	-0,083
-244,205	29,351	0,009	0,005
-243,190	-37,748	0,047	0,018
-242,176	226,085	0,095	0,110
-241,161	-87,964	-0,214	0,045
-240,146	67,643	-0,141	0,102
-239,132	26,458	-0,192	-0,114
-238,117	-200,000	0,042	-0,190
-237,103	-135,112	-0,098	-0,008
-236,088	-157,626	-0,064	-0,003
-235,073	41,066	0,238	-0,153
-234,059	-200,000	-0,051	0,163
-233,044	-200,000	0,003	0,025
-232,030	-200,000	0,010	0,037
-231,015	149,420	0,023	-0,022
-230,000	696,983	-0,056	-0,106
-228,986	87,983	-0,086	0,068
-227,971	42,604	-0,048	-0,031
-226,957	398,389	-0,018	-0,027
-225,942	57,236	0,032	-0,022
-224,927	800,000	0,008	-0,026
-223,913	800,000	0,055	0,112
-222,898	82,934	-0,113	0,087
-221,884	-200,000	0,007	0,025
-220,869	-116,113	0,107	0,014
-219,855	95,897	0,042	0,034
-218,840	148,695	0,111	0,107
-217,825	-77,974	-0,159	-0,039
-216,811	-159,137	-0,006	0,000
-215,796	-176,397	0,009	-0,000
-214,782	15,079	0,085	0,047
-213,767	800,000	-0,042	-0,103
-212,752	499,103	-0,027	-0,045
-211,738	-200,000	-0,009	0,107
-210,723	64,252	0,082	0,058
-209,709	-104,279	-0,031	-0,005
-208,694	-200,000	-0,025	-0,102
-207,679	113,620	0,155	-0,133
-206,665	-29,655	-0,045	0,018
-205,650	196,876	0,043	0,047
-204,636	337,436	-0,017	-0,024
-203,621	205,028	0,117	0,129
-202,606	-38,696	-0,063	0,024
-201,592	-148,429	-0,208	0,012
-200,577	800,000	-0,022	0,061
-199,563	800,000	0,064	0,141
-198,548	23,936	0,044	0,026
-197,533	-45,635	0,078	0,027
-196,519	-200,000	-0,009	-0,106
-195,504	-29,198	-0,030	0,012
-194,490	198,225	-0,103	-0,112
-193,475	51,842	-0,047	-0,032
-192,460	693,348	-0,008	-0,015
-191,446	-18,452	0,131	-0,058
-190,431	455,256	0,080	0,126
-189,417	617,461	0,074	0,131
-188,402	-200,000	-0,019	0,169
-187,387	-200,000	0,020	0,078
-186,373	201,527	0,079	0,087
-185,358	37,449	-0,059	0,037
-184,344	800,000	0,050	0,109
-183,329	176,005	-0,099	0,102
-182,315	-200,000	-0,004	0,029
-181,300	800,000	-0,030	0,093
-180,285	462,192	0,059	0,094
-179,271	-34,721	-0,097	0,037
-178,256	24,224	0,128	0,075
-177,242	-200,000	-0,036	0,117
-176,227	-9,543	0,052	0,024
-175,212	481,063	-0,028	-0,045
-174,198	780,548	0,032	-0,062
-173,183	305,547	-0,047	0,062
-172,169	589,423	-0,056	-0,099
-171,154	404,518	0,082	-0,123
-170,139	97,929	-0,097	0,079
-169,125	13,836	0,087	0,048
-168,110	-37,728	0,085	-0,032
-167,096	534,873	0,033	-0,055
-166,081	-92,833	-0,053	-0,010
-165,066	-200,000	0,014	-0,083
-164,052	75,403	0,100	-0,075
-163,037	-88,735	-0,062	-0,013
-162,023	21,394	0,142	-0,082
-161,008	184,597	0,043	0,046
-159,993	-200,000	0,018	0,112
-158,979	-200,000	-0,009	-0,048
-157,964	394,031	0,049	-0,073
-156,950	-60,049	-0,034	0,010
-155,935	304,272	0,006	-0,009
-154,920	-72,270	0,059	0,015
-153,906	-114,226	-0,100	0,014
-152,891	-61,234	-0,107	0,032
-151,877	233,608	0,064	0,075
-150,862	293,609	0,025	-0,032
-149,847	800,000	-0,051	-0,102
-148,833	-200,000	-0,000	-0,122
-147,818	82,162	0,119	0,091
-146,804	402,344	-0,041	0,061
-145,789	13,787	0,051	-0,028
-144,775	-93,278	-0,076	0,015
-143,760	102,317	0,046	-0,038
-142,745	723,152	0,085	-0,161
-141,731	-200,000	-0,020	-0,106
-140,716	195,353	0,064	0,069
-139,702	800,000	0,010	0,027
-138,687	-15,774	0,158	0,071
-137,672	800,000	-0,019	0,044
-136,658	-200,000	-0,006	-0,024
-135,643	-110,921	-0,175	-0,025
-134,629	800,000	-0,024	-0,048
-133,614	800,000	-0,032	0,076
-132,599	-133,058	-0,055	0,005
-131,585	23,061	-0,064	0,037
-130,570	-200,000	0,010	0,097
-129,556	800,000	0,022	-0,055
-128,541	800,000	-0,038	0,118
-127,526	-37,438	-0,152	-0,057
-126,512	-134,762	0,018	0,002
-125,497	-200,000	0,008	0,076
-124,483	-200,000	0,017	0,124
-123,468	-133,198	-0,021	-0,002
-122,453	46,280	-0,024	-0,016
-121,439	267,681	-0,041	-0,051
-120,424	-162,401	-0,111	-0,004
-119,410	-200,000	0,003	0,143
-118,395	-143,033	0,052	-0,004
-117,380	800,000	0,048	0,100
-116,366	-21,324	-0,076	0,033
-115,351	472,361	0,051	-0,082
-114,337	198,995	-0,131	0,142
-113,322	-96,734	0,118	-0,022
-112,307	7,057	0,192	0,101
-111,293	800,000	-0,030	0,074
-110,278	-200,000	-0,005	0,078
-109,264	-28,563	0,103	0,042
-108,249	55,638	-0,121	0,083
-107,234	-80,282	-0,094	0,022
-106,220	-59,002	-0,101	-0,031
-105,205	97,550	0,119	0,097
-104,191	533,593	0,043	0,072
-103,176	-48,355	0,116	-0,039
-102,162	-200,000	0,008	0,044
-101,147	546,178	0,028	-0,048
-100,132	459,210	0,016	-0,025
-99,118	-70,417	-0,068	-0,018
-98,103	-200,000	0,046	0,234
-97,089	-64,228	-0,091	-0,026
-96,074	-200,000	-0,015	0,131
-95,059	-200,000	0,023	-0,097
-94,045	800,000	-0,052	-0,143
-93,030	800,000	-0,033	-0,083
-92,016	54,977	0,060	-0,041
-91,001	800,000	0,049	0,102
-89,986	651,989	-0,038	0,070
-88,972	62,315	0,118	0,083
-87,957	-200,000	-0,024	0,135
-86,943	194,677	0,040	0,043
-85,928	587,351	-0,080	0,140
-84,913	-56,184	-0,020	-0,006
-83,899	-99,682	0,102	-0,018
-82,884	-169,764	0,096	0,002
-81,870	800,000	0,050	0,149
-80,855	-200,000	-0,026	-0,137
-79,840	258,981	-0,034	-0,042
-78,826	-27,788	-0,150	0,061
-77,811	-200,000	-0,001	0,143
-76,797	-200,000	0,013	0,099
-75,782	-200,000	0,004	0,031
-74,767	800,000	-0,019	-0,038
-73,753	125,028	-0,058	0,051
-72,738	-80,073	0,047	0,011
-71,724	-65,217	-0,128	0,036
-70,709	-11,877	0,033	0,015
-69,694	-31,750	-0,121	0,048
-68,680	-200,000	0,033	-0,141
-67,665	178,927	0,093	0,096
-66,651	354,655	0,073	0,102
-65,636	800,000	0,020	0,043
-64,622	-200,000	0,009	-0,080
-63,607	443,360	0,029	0,045
-62,592	-106,032	-0,116	-0,018
-61,578	-200,000	-0,020	-0,148
-60,563	-48,042	0,075	0,025
-59,549	111,287	0,103	0,088
-58,534	10,796	-1,807	-0,971
-57,519	371,725	-1,495	-2,148
-56,505	-200,000	-0,251	-4,407
-55,490	541,811	0,836	1,412
-54,476	800,000	4,871	11,087
-53,461	-200,000	20,332	327,526
-52,446	800,000	752,654	2311,712
-51,432	550,485	1658,767	2819,205
-50,417	74,160	1665,500	1232,740
-49,403	19,311	1538,755	869,789
-48,388	13,280	1461,137	796,728
-47,373	18,803	1451,702	818,079
-46,359	16,233	1441,133	799,855
-45,344	11,580	1436,804	775,254
-44,330	11,513	1434,727	773,785
-43,315	11,495	1433,073	772,774
-42,300	11,522	1431,301	771,916
-41,286	11,533	1429,965	771,219
-40,271	11,498	1428,654	770,316
-39,257	11,516	1427,494	769,746
-38,242	11,537	1426,056	769,040
-37,227	11,508	1425,113	768,363
-36,213	11,463	1423,971	767,503
-35,198	11,522	1422,866	767,156
-34,184	11,590	1421,834	766,891
-33,169	11,512	1420,344	765,690
-32,154	11,576	1419,384	765,443
-31,140	11,589	1418,183	764,825
-30,125	11,640	1416,820	764,297
-29,111	11,597	1415,887	763,562
-28,096	11,557	1414,867	762,796
-27,082	11,543	1413,470	761,948
-26,067	11,497	1412,639	761,253
-25,052	11,477	1411,623	760,582
-24,038	11,490	1410,516	760,014
-23,023	11,489	1409,581	759,478
-22,009	11,504	1408,354	758,855
-20,994	11,485	1407,484	758,266
-19,979	11,444	1406,740	757,645
-18,965	11,453	1405,672	757,082
-17,950	11,432	1404,928	756,554
-16,936	11,475	1403,895	756,166
-15,921	11,388	1403,034	755,270
-14,906	11,399	1402,054	754,762
-13,892	11,414	1400,906	754,184
-12,877	11,398	1400,359	753,783
-11,863	11,367	1399,320	753,052
-10,848	11,372	1398,391	752,546
-9,833	11,319	1397,699	751,895
-8,819	11,336	1396,831	751,480
-7,804	11,316	1395,826	750,817
-6,790	11,350	1394,624	750,296
-5,775	11,310	1393,691	749,578
-4,760	11,288	1392,853	749,000
-3,746	11,362	1391,731	748,709
-2,731	11,314	1391,028	748,080
-1,717	11,279	1390,288	747,487
-0,702	11,326	1388,397	746,660
0,313	15,452	1303,472	719,881
1,327	31,992	696,146	422,221
2,342	49,174	121,509	80,405
3,356	1,118	16,544	8,345
4,371	1,074	3,380	1,704
5,386	-1,664	0,792	0,392
6,400	-200,000	0,067	0,536
7,415	23,865	-0,187	-0,108
8,429	110,950	-0,266	-0,225
9,444	43,553	-0,277	-0,178
10,459	45,944	-0,419	-0,273
11,473	82,371	-0,289	-0,221
12,488	-33,458	-0,330	-0,128
13,502	60,576	-0,269	-0,188
14,517	-68,670	-0,352	-0,095
15,531	-49,274	-0,426	-0,143
16,546	-116,226	-0,342	-0,044
17,561	232,644	-0,298	-0,346
18,575	388,319	-0,127	-0,185
19,590	292,686	-0,261	-0,336
20,604	84,792	-0,099	-0,076
21,619	69,373	-0,432	-0,313
22,634	107,640	-0,413	-0,346
23,648	249,017	-0,346	-0,414
24,663	37,645	-0,394	-0,246
25,677	76,316	-0,366	-0,272
26,692	122,676	-0,400	-0,352
27,707	105,992	-0,328	-0,273
28,721	102,500	-0,298	-0,245
29,736	95,707	-0,301	-0,242
30,750	220,147	-0,359	-0,405
31,765	59,558	-0,319	-0,221
32,780	95,175	-0,327	-0,262
33,794	39,670	-0,344	-0,217
34,809	1,825	-0,317	-0,160
35,823	69,440	-0,273	-0,197
36,838	114,184	-0,463	-0,397
37,853	229,233	-0,361	-0,415
38,867	-26,684	-0,393	-0,161
39,882	56,885	-0,308	-0,211
40,896	240,541	-0,302	-0,355
41,911	53,398	-0,351	-0,236
42,926	6,472	-0,337	-0,175
43,940	93,866	-0,383	-0,305
44,955	79,414	-0,400	-0,301
45,969	128,727	-0,317	-0,284
46,984	12,177	-0,450	-0,243
47,999	-38,841	-0,395	-0,146
49,013	-9,805	-0,368	-0,172
50,028	175,252	-0,264	-0,269
51,042	-10,603	-0,417	-0,193
52,057	-39,440	-0,412	-0,151
53,071	45,048	-0,386	-0,249
54,086	99,553	-0,345	-0,280
55,101	33,349	-0,407	-0,247
56,115	187,942	-0,242	-0,254
57,130	205,734	-0,255	-0,279
58,144	117,720	-0,310	-0,268
59,159	216,782	-0,291	-0,325
60,174	-55,423	-0,491	-0,154
61,188	15,291	-0,353	-0,194
62,203	173,108	-0,329	-0,333
63,217	29,669	-0,388	-0,231
64,232	-25,317	-0,274	-0,113
65,247	339,402	-0,275	-0,377
66,261	160,033	-0,257	-0,252
67,276	-67,251	-0,447	-0,122
68,290	-33,128	-0,445	-0,172
69,305	146,864	-0,277	-0,261
70,320	-26,458	-0,410	-0,168
71,334	-53,869	-0,440	-0,140
72,349	87,770	-0,315	-0,244
73,363	22,980	-0,412	-0,236
74,378	-51,119	-0,441	-0,144
75,393	-34,147	-0,316	-0,121
76,407	-42,431	-0,272	-0,097
77,422	91,119	-0,258	-0,203
78,436	194,006	-0,214	-0,228
79,451	57,605	-0,190	-0,130
80,466	-48,403	-0,335	-0,112
81,480	-70,188	-0,362	-0,096
82,495	119,239	-0,231	-0,200
83,509	102,723	-0,313	-0,256
84,524	-46,876	-0,433	-0,147
85,539	-83,360	-0,261	-0,058
86,553	-129,617	-0,237	0,023
87,568	-35,319	-0,296	-0,112
88,582	128,578	-0,295	-0,263
89,597	117,136	-0,341	-0,293
90,611	-5,533	-0,381	-0,182
91,626	-100,088	-0,329	-0,057
92,641	-130,615	-0,229	0,021
93,655	128,498	-0,284	-0,253
94,670	70,835	-0,261	-0,189
95,684	154,927	-0,325	-0,312
96,699	37,993	-0,422	-0,262
97,714	202,585	-0,225	-0,243
98,728	6,747	-0,183	-0,095
99,743	3,837	-0,264	-0,135
100,757	7,584	-0,292	-0,152
101,772	-6,271	-0,260	-0,123
102,787	-34,368	-0,175	-0,067
103,801	63,291	-0,294	-0,206
104,816	-24,077	-0,390	-0,162
105,830	85,579	-0,176	-0,135
106,845	-28,735	-0,340	-0,136
107,860	56,145	-0,230	-0,156
108,874	-50,632	-0,264	-0,086
109,889	79,103	-0,279	-0,208
110,903	347,067	-0,138	-0,190
111,918	173,859	-0,208	-0,210
112,933	-76,795	-0,235	-0,057
113,947	294,505	-0,123	-0,158
114,962	-102,705	-0,317	0,052
115,976	-13,462	-0,243	-0,109
116,991	-147,768	-0,256	-0,015
118,006	-104,081	-0,363	-0,058
119,020	12,275	-0,135	-0,072
120,035	15,324	-0,328	-0,179
121,049	-4,971	-0,217	-0,104
122,064	-59,178	-0,378	-0,113
123,079	-85,916	-0,162	-0,035
124,093	23,617	-0,214	-0,122
125,108	105,887	-0,322	-0,265
126,122	75,646	-0,373	-0,274
127,137	220,957	-0,296	-0,332
128,151	163,974	-0,188	-0,185
129,166	290,792	-0,180	-0,229
130,181	-54,961	-0,378	-0,118
131,195	54,285	-0,230	-0,154
132,210	-75,287	-0,328	-0,081
133,224	502,935	-0,137	-0,222
134,239	-40,713	-0,278	-0,100
135,254	112,704	-0,190	-0,160
136,268	412,230	-0,245	-0,364
137,283	39,132	-0,300	-0,187
138,297	14,532	-0,339	-0,184
139,312	3,874	-0,316	-0,160
140,327	471,541	-0,149	-0,235
141,341	253,871	-0,217	-0,258
142,356	-43,150	-0,222	-0,078
143,370	-76,226	-0,311	-0,076
144,385	-71,266	-0,230	-0,060
145,400	193,339	-0,190	-0,200
146,414	143,013	-0,266	-0,246
147,429	-79,337	-0,333	-0,078
148,443	20,071	-0,248	-0,139
149,458	6,990	-0,190	-0,099
150,473	65,317	-0,325	-0,229
151,487	96,342	-0,190	-0,151
152,502	370,877	-0,234	-0,331
153,516	360,593	-0,220	-0,307
154,531	118,084	-0,202	-0,173
155,546	-0,923	-0,342	-0,168
156,560	146,037	-0,232	-0,216
157,575	14,138	-0,203	-0,110
158,589	22,900	-0,284	-0,162
159,604	123,801	-0,182	-0,159
160,619	147,383	-0,153	-0,143
161,633	-8,716	-0,249	-0,116
162,648	-109,252	-0,031	0,005
163,662	3,020	-0,283	-0,142
164,677	211,478	-0,200	-0,219
165,692	179,349	-0,259	-0,263
166,706	-71,421	-0,283	-0,073
167,721	231,257	-0,185	-0,211
168,735	235,673	-0,211	-0,242
169,750	-9,633	-0,238	-0,110
170,764	130,527	-0,166	-0,148
171,779	-75,511	-0,250	-0,061
172,794	40,077	-0,273	-0,170
173,808	41,775	-0,278	-0,175
174,823	61,926	-0,332	-0,230
175,837	79,002	-0,269	-0,200
176,852	-149,125	-0,364	-0,020
177,867	2,141	-0,134	-0,067
178,881	-23,061	-0,224	-0,094
179,896	47,679	-0,163	-0,106
180,910	266,045	-0,125	-0,151
181,925	-4,008	-0,362	-0,173
182,940	345,596	-0,147	-0,201
183,954	-86,227	-0,294	-0,062
184,969	356,637	-0,135	-0,187
185,983	800,000	-0,069	-0,205
186,998	-123,600	-0,328	-0,036
188,013	-65,382	-0,248	-0,069
189,027	191,675	-0,197	-0,207
190,042	142,008	-0,303	-0,279
191,056	-40,906	-0,287	-0,102
192,071	800,000	-0,040	-0,097
193,086	10,386	-0,260	-0,137
194,100	300,072	-0,157	-0,202
195,115	134,003	-0,203	-0,183
196,129	40,557	-0,199	-0,124
197,144	36,685	-0,237	-0,145
198,159	-62,908	-0,195	-0,056
199,173	209,039	-0,196	-0,213
200,188	800,000	-0,113	-0,234
201,202	800,000	-0,074	-0,170
202,217	-13,530	-0,236	-0,106
203,232	346,144	-0,133	-0,182
204,246	130,262	-0,230	-0,204
205,261	86,027	-0,215	-0,164
206,275	178,642	-0,180	-0,183
207,290	-85,306	-0,213	-0,046
208,304	73,883	-0,216	-0,157
209,319	-67,551	-0,285	-0,077
210,334	69,254	-0,226	-0,161
211,348	770,404	-0,123	-0,233
212,363	563,161	-0,055	-0,092
213,377	46,114	-0,287	-0,184
214,392	-5,447	-0,287	-0,136
215,407	-60,374	-0,182	-0,053
216,421	-133,383	-0,299	-0,026
217,436	-52,993	-0,206	-0,065
218,450	228,772	-0,226	-0,255
219,465	-79,566	-0,359	-0,083
220,480	534,073	-0,161	-0,265
221,494	258,904	-0,152	-0,182
222,509	-109,705	-0,153	-0,022
223,523	-200,000	-0,020	-0,075
224,538	147,192	-0,120	-0,112
225,553	-31,789	-0,204	-0,079
226,567	63,519	-0,145	-0,100
227,582	800,000	-0,086	-0,241
228,596	122,367	-0,139	-0,120
229,611	-41,394	-0,124	0,044
230,626	222,631	-0,068	-0,076
231,640	-18,607	-0,167	-0,072
232,655	139,192	-0,213	-0,193
233,669	440,477	-0,161	-0,244
234,684	308,299	-0,131	-0,170
235,699	263,007	-0,158	-0,190
236,713	-64,280	-0,156	-0,044
237,728	71,641	-0,224	-0,161
238,742	228,033	-0,122	-0,138
239,757	-46,985	-0,337	-0,113
240,772	-107,470	-0,308	-0,046
241,786	800,000	-0,128	-0,382
242,801	38,350	-0,240	-0,147
243,815	-56,966	-0,143	0,043
244,830	268,243	-0,151	-0,183
245,844	231,582	-0,157	-0,178
246,859	25,899	-0,256	-0,147
247,874	74,703	-0,133	-0,097
248,888	-53,478	-0,273	-0,086
249,903	222,897	-0,151	-0,168
250,917	-46,099	-0,112	-0,038
251,932	82,415	-0,185	-0,139
252,947	160,242	-0,196	-0,188
253,961	635,652	-0,081	-0,143
254,976	110,103	-0,115	-0,095
255,990	42,175	-0,206	-0,129
257,005	800,000	-0,035	-0,079
258,020	-7,558	-0,144	-0,067
259,034	-97,664	-0,133	0,024
260,049	-52,292	-0,205	-0,065
261,063	36,973	-0,145	-0,088
262,078	135,231	-0,182	-0,163
263,093	25,663	-0,293	-0,168
264,107	72,963	-0,164	-0,118
265,122	296,060	-0,170	-0,215
266,136	-200,000	-0,003	-0,050
267,151	800,000	-0,071	-0,146
268,166	30,076	-0,260	-0,152
269,180	-20,765	-0,294	-0,124
270,195	77,377	-0,188	-0,138
271,209	49,854	-0,158	-0,102
272,224	800,000	-0,071	-0,149
273,239	-79,709	-0,125	0,029
274,253	486,471	-0,067	-0,106
275,268	-158,466	-0,294	-0,012
276,282	-200,000	-0,059	-0,247
277,297	77,095	-0,068	-0,050
278,312	67,900	-0,182	-0,128
279,326	-153,275	-0,177	0,008
280,341	296,214	-0,076	-0,096
281,355	97,219	-0,160	-0,126
282,370	800,000	-0,106	-0,256
283,384	77,851	-0,237	-0,173
284,399	265,537	-0,135	-0,163
285,414	117,347	-0,165	-0,140
286,428	-135,739	-0,136	-0,011
287,443	252,384	-0,077	-0,090
288,457	205,549	-0,033	-0,035
289,472	800,000	-0,053	-0,139
290,487	27,809	-0,242	-0,140
291,501	84,826	-0,108	-0,082
292,516	10,193	-0,073	-0,038
293,530	-143,293	-0,125	0,008
294,545	800,000	-0,111	-0,213
295,560	-4,477	-0,070	-0,033
296,574	348,463	-0,105	-0,143
297,589	344,491	-0,108	-0,146
298,603	-23,141	-0,246	-0,101
299,618	-193,299	-0,157	0,001
300,633	60,050	-0,238	-0,161
301,647	405,197	-0,105	-0,153
302,662	20,137	-0,192	-0,106
303,676	-22,843	-0,094	0,039
304,691	309,083	-0,115	-0,147
305,706	-58,054	-0,162	-0,048
306,720	800,000	-0,100	-0,224
307,735	800,000	-0,094	-0,248
308,749	800,000	-0,031	0,069
309,764	36,512	-0,107	-0,065
310,779	503,153	-0,129	-0,206
311,793	-6,203	-0,204	-0,095
312,808	-73,805	-0,181	0,045
313,822	800,000	-0,055	-0,120
314,837	295,914	-0,173	-0,218
315,852	-101,036	-0,043	0,007
316,866	-64,684	-0,133	0,037
317,881	-61,701	-0,119	-0,034
318,895	218,680	-0,102	-0,112
319,910	111,949	-0,218	-0,180
320,925	39,831	-0,170	-0,105
321,939	-155,022	-0,243	-0,011
322,954	615,878	-0,106	-0,183
323,968	-182,942	-0,212	0,003
324,983	-15,155	-0,076	-0,033
325,997	-25,420	-0,218	-0,088
327,012	166,144	-0,109	-0,106
328,027	282,676	-0,120	-0,148
329,041	96,857	-0,085	-0,066
330,056	266,265	-0,081	-0,097
331,070	-41,243	-0,201	-0,071
332,085	215,502	-0,152	-0,165
333,100	-23,050	-0,078	-0,032
334,114	-120,509	-0,174	0,020
335,129	203,270	-0,178	-0,189
336,143	465,059	-0,088	-0,135
337,158	110,136	-0,159	0,131
338,173	418,660	-0,047	-0,069
339,187	-19,346	-0,196	-0,083
340,202	22,385	-0,125	-0,070
341,216	-200,000	-0,029	-0,201
342,231	253,567	-0,133	-0,156
343,246	538,046	-0,114	-0,187
344,260	186,659	-0,100	-0,102
345,275	132,552	-0,112	-0,099
346,289	-107,196	-0,239	0,036
347,304	-4,657	-0,237	-0,111
348,319	414,247	-0,096	-0,141
349,333	-103,718	-0,134	-0,021
350,348	111,439	-0,082	-0,068
351,362	115,402	-0,084	-0,070
352,377	-24,187	-0,314	-0,128
353,392	183,931	-0,111	-0,113
354,406	800,000	-0,082	-0,156
355,421	208,814	1313,503	1407,347
356,435	160,694	1474,049	1407,837
