DTS Sentinel unit serial number:	SN410029Multiplexer serial number:	ORYXHardware model number:	OX2-SRSoftware version number:	ORYX F/W v4,00 Oryx Data Collector v3.7.2.0data status	okinstallation	B3 Nyhavnadifferential loss correction	single-endedforward channel	channel 1reverse channel	N/Adate	2023/12/01time	12:12:30forward acquisition time	300,00reverse acquisition time	0,00gamma	499,1914k internal	0,3213k external	0,3213temperature offset calibration	1,0000default loss term (dB/km)	0,3820temperature slope calibration	1,0000multiplexer offset coefficient	1,0000multiplexer slope coefficient	1,0000fibre end	0,00T internal ref (°C)	8,78T ext. ref 1 (°C)	-5,17T ext. ref 2 (°C)	-5,28length (m)	temperature (°C)	Stokes	anti-Stokes-744,400	800,000	-0,129	-0,271
-743,385	25,533	0,092	0,055
-742,371	488,218	-0,150	-0,250
-741,356	-200,000	0,004	0,178
-740,342	528,358	-0,091	-0,156
-739,327	-200,000	0,007	0,213
-738,312	370,446	-0,183	-0,269
-737,298	-200,000	-0,012	0,280
-736,283	605,998	-0,122	-0,221
-735,269	800,000	-0,128	0,368
-734,254	709,435	-0,145	-0,278
-733,239	-174,050	-0,263	0,005
-732,225	-200,000	0,076	-0,399
-731,210	473,022	0,092	0,150
-730,196	88,263	-0,078	0,063
-729,181	-200,000	-0,016	-0,082
-728,167	286,956	-0,093	-0,122
-727,152	315,874	-0,086	-0,118
-726,137	49,865	-0,061	0,042
-725,123	-121,647	-0,059	-0,007
-724,108	-167,520	-0,067	-0,002
-723,094	615,688	-0,056	-0,102
-722,079	800,000	-0,045	-0,129
-721,064	-200,000	-0,023	-0,110
-720,050	-135,802	-0,035	-0,003
-719,035	-77,947	-0,089	0,022
-718,021	598,651	0,038	-0,068
-717,006	256,153	-0,010	-0,012
-715,991	-7,680	-0,119	-0,058
-714,977	777,543	0,059	-0,117
-713,962	-200,000	-0,004	-0,043
-712,948	-200,000	-0,023	-0,126
-711,933	-52,462	0,050	0,017
-710,918	404,120	-0,076	-0,116
-709,904	252,078	0,067	-0,083
-708,889	-200,000	-0,010	-0,073
-707,875	245,392	-0,141	-0,172
-706,860	684,007	-0,019	0,035
-705,845	107,208	-0,129	0,111
-704,831	-122,640	0,146	0,017
-703,816	-50,334	-0,059	-0,020
-702,802	84,252	-0,134	-0,106
-701,787	51,045	-0,058	0,040
-700,772	61,402	0,026	0,019
-699,758	800,000	-0,029	0,063
-698,743	800,000	0,035	0,085
-697,729	50,456	0,086	0,059
-696,714	800,000	-0,015	-0,040
-695,699	-77,455	-0,134	0,033
-694,685	-117,735	-0,198	0,025
-693,670	271,099	0,006	0,008
-692,656	117,635	-0,098	-0,088
-691,641	800,000	-0,044	-0,102
-690,627	-200,000	-0,019	0,072
-689,612	800,000	-0,058	-0,176
-688,597	-148,362	-0,105	0,006
-687,583	800,000	-0,092	-0,209
-686,568	-200,000	0,088	-0,288
-685,554	87,435	-0,040	-0,032
-684,539	-4,035	-0,053	0,027
-683,524	-115,503	-0,035	0,005
-682,510	800,000	0,014	0,033
-681,495	370,184	-0,050	-0,073
-680,481	-71,126	-0,021	-0,006
-679,466	-200,000	0,009	-0,096
-678,451	-200,000	-0,017	-0,088
-677,437	-200,000	-0,013	-0,067
-676,422	-200,000	0,010	0,121
-675,408	800,000	-0,034	-0,083
-674,393	-200,000	-0,011	-0,060
-673,378	-69,822	0,117	-0,032
-672,364	-6,915	-0,140	-0,068
-671,349	80,774	-0,071	-0,055
-670,335	-83,339	-0,099	0,023
-669,320	88,735	0,103	0,083
-668,305	-200,000	0,005	-0,083
-667,291	-105,334	-0,021	0,003
-666,276	-88,500	-0,118	0,025
-665,262	800,000	-0,021	-0,063
-664,247	-200,000	-0,014	-0,046
-663,232	-29,720	-0,102	0,042
-662,218	-72,628	0,113	0,030
-661,203	-188,552	-0,068	-0,001
-660,189	23,119	0,069	-0,041
-659,174	59,359	0,014	0,010
-658,159	-200,000	0,026	-0,127
-657,145	-200,000	0,015	-0,065
-656,130	118,613	-0,109	0,097
-655,116	800,000	-0,039	0,081
-654,101	800,000	0,054	0,137
-653,086	-200,000	-0,004	0,062
-652,072	-115,750	0,081	-0,011
-651,057	-200,000	0,020	0,104
-650,043	-200,000	0,004	0,028
-649,028	-55,642	-0,107	-0,034
-648,014	-36,724	-0,105	0,040
-646,999	-200,000	-0,003	0,125
-645,984	-200,000	0,009	-0,042
-644,970	-147,107	-0,125	-0,008
-643,955	7,373	-0,019	0,010
-642,941	-200,000	0,025	0,118
-641,926	174,083	-0,108	-0,113
-640,911	-200,000	0,010	-0,219
-639,897	263,791	0,090	0,114
-638,882	-24,798	0,032	0,014
-637,868	-29,795	-0,096	-0,039
-636,853	-200,000	-0,010	-0,112
-635,838	-46,815	-0,146	-0,051
-634,824	406,606	0,074	0,113
-633,809	-71,009	-0,116	-0,031
-632,795	156,517	0,064	-0,064
-631,780	34,398	0,033	-0,021
-630,765	283,285	-0,058	0,075
-629,751	-200,000	0,023	-0,100
-628,736	22,556	0,113	-0,066
-627,722	-124,913	0,021	-0,002
-626,707	332,000	-0,052	0,073
-625,692	88,402	0,148	0,119
-624,678	-83,723	-0,013	0,003
-623,663	-66,761	-0,150	0,043
-622,649	-28,926	0,066	-0,027
-621,634	-200,000	-0,010	-0,092
-620,619	-200,000	-0,001	0,081
-619,605	800,000	-0,012	0,034
-618,590	800,000	0,075	0,216
-617,576	44,784	0,047	0,031
-616,561	50,721	-0,039	-0,027
-615,546	416,698	-0,106	0,164
-614,532	36,932	-0,052	0,033
-613,517	-116,069	0,092	-0,012
-612,503	123,728	0,020	-0,018
-611,488	-26,345	0,131	0,055
-610,474	21,823	-0,090	0,053
-609,459	161,407	0,076	0,077
-608,444	-9,108	-0,115	0,055
-607,430	-95,041	-0,054	-0,010
-606,415	37,194	0,096	0,061
-605,401	-106,620	-0,143	0,023
-604,386	-200,000	-0,013	0,114
-603,371	204,535	-0,104	0,117
-602,357	162,142	0,041	-0,042
-601,342	578,720	-0,080	-0,141
-600,328	200,025	-0,063	0,070
-599,313	-200,000	-0,036	-0,125
-598,298	263,329	0,019	0,023
-597,284	-62,100	0,081	-0,024
-596,269	-200,000	0,004	-0,033
-595,255	-25,038	0,060	-0,026
-594,240	245,983	-0,008	-0,010
-593,225	-6,492	-0,144	-0,070
-592,211	171,579	-0,070	-0,073
-591,196	-162,449	-0,113	0,004
-590,182	156,975	0,027	-0,027
-589,167	159,722	0,039	0,039
-588,152	95,778	-0,040	0,033
-587,138	-200,000	-0,023	-0,149
-586,123	-112,424	-0,162	0,023
-585,109	319,740	0,024	0,033
-584,094	113,451	0,115	-0,100
-583,079	-200,000	-0,001	0,082
-582,065	289,406	0,008	-0,010
-581,050	472,955	-0,069	-0,112
-580,036	-69,208	0,062	-0,017
-579,021	558,978	-0,052	-0,091
-578,006	243,837	-0,046	-0,056
-576,992	173,626	-0,084	0,087
-575,977	450,407	0,015	-0,023
-574,963	-200,000	-0,018	0,070
-573,948	-200,000	-0,006	0,128
-572,934	800,000	0,024	0,070
-571,919	238,317	-0,051	-0,061
-570,904	670,799	0,034	-0,064
-569,890	800,000	-0,027	-0,073
-568,875	536,823	0,088	-0,152
-567,861	221,960	-0,031	0,036
-566,846	-52,764	0,150	0,050
-565,831	399,137	-0,037	-0,056
-564,817	113,302	-0,117	0,102
-563,802	-200,000	-0,009	-0,130
-562,788	60,352	-0,042	0,030
-561,773	25,219	-0,028	0,017
-560,758	800,000	-0,048	0,113
-559,744	-200,000	0,037	0,151
-558,729	-200,000	-0,022	0,075
-557,715	557,430	-0,037	-0,065
-556,700	-200,000	-0,020	-0,070
-555,685	-200,000	0,004	-0,038
-554,671	77,644	0,037	-0,028
-553,656	-200,000	-0,003	0,027
-552,642	20,358	-0,124	0,072
-551,627	426,481	-0,012	-0,018
-550,612	288,771	-0,063	0,083
-549,598	82,862	-0,049	-0,039
-548,583	207,229	-0,078	-0,087
-547,569	800,000	-0,014	-0,029
-546,554	800,000	0,051	0,157
-545,539	-42,263	-0,098	-0,036
-544,525	11,046	-0,049	0,027
-543,510	713,597	-0,042	0,081
-542,496	780,712	-0,037	-0,073
-541,481	-200,000	0,019	-0,113
-540,466	-200,000	-0,002	-0,106
-539,452	-29,713	0,027	-0,011
-538,437	429,463	0,072	0,112
-537,423	-200,000	-0,003	0,036
-536,408	29,351	-0,053	0,032
-535,393	665,248	-0,053	-0,099
-534,379	544,999	-0,008	0,014
-533,364	-118,437	0,120	-0,015
-532,350	-129,272	-0,126	-0,012
-531,335	800,000	0,062	0,186
-530,321	164,220	-0,129	0,131
-529,306	-50,750	0,129	0,043
-528,291	99,749	-0,124	-0,103
-527,277	62,925	-0,023	0,016
-526,262	44,242	0,085	-0,056
-525,248	800,000	0,023	-0,050
-524,233	-91,204	0,016	-0,003
-523,218	-59,712	-0,051	-0,016
-522,204	322,524	-0,071	-0,098
-521,189	-200,000	-0,012	-0,081
-520,175	152,819	-0,100	-0,098
-519,160	-27,929	0,052	0,021
-518,145	-14,075	0,006	-0,003
-517,131	800,000	0,010	0,031
-516,116	-39,920	0,151	-0,056
-515,102	-200,000	-0,007	-0,059
-514,087	-200,000	-0,000	-0,175
-513,072	612,315	-0,021	-0,039
-512,058	143,739	-0,016	0,015
-511,043	304,582	0,120	0,160
-510,029	-152,338	0,025	0,001
-509,014	37,128	-0,079	0,050
-507,999	-85,955	-0,015	-0,003
-506,985	800,000	-0,018	-0,042
-505,970	219,509	-0,104	-0,119
-504,956	800,000	-0,018	-0,051
-503,941	250,944	0,066	-0,080
-502,926	-200,000	-0,020	-0,080
-501,912	-200,000	-0,035	0,157
-500,897	-200,000	0,016	-0,053
-499,883	238,315	0,016	-0,019
-498,868	-148,772	-0,116	-0,007
-497,853	-78,937	-0,133	0,032
-496,839	266,699	-0,076	-0,096
-495,824	150,096	0,090	0,088
-494,810	-102,902	0,116	0,020
-493,795	-200,000	-0,003	-0,025
-492,781	481,540	-0,077	-0,125
-491,766	800,000	-0,036	-0,112
-490,751	614,471	0,037	-0,067
-489,737	-200,000	0,012	0,108
-488,722	-200,000	-0,028	0,105
-487,708	-29,520	0,160	0,065
-486,693	-200,000	0,001	-0,175
-485,678	341,141	0,068	0,095
-484,664	-67,984	0,177	-0,049
-483,649	-30,551	-0,084	-0,034
-482,635	-200,000	0,017	-0,093
-481,620	592,872	0,074	0,132
-480,605	-182,092	-0,102	-0,001
-479,591	54,638	0,025	-0,018
-478,576	17,576	0,089	-0,051
-477,562	235,428	-0,054	-0,064
-476,547	-200,000	0,015	-0,067
-475,532	478,040	0,026	-0,042
-474,518	149,917	-0,052	-0,051
-473,503	-46,631	0,094	-0,033
-472,489	131,295	-0,110	0,101
-471,474	-183,829	-0,077	-0,001
-470,459	-122,208	-0,052	-0,006
-469,445	328,907	-0,042	0,058
-468,430	-68,048	0,038	0,011
-467,416	114,720	0,003	0,003
-466,401	411,480	-0,042	0,064
-465,386	-25,606	0,130	0,055
-464,372	800,000	-0,014	-0,035
-463,357	545,997	0,033	0,057
-462,343	-200,000	-0,033	-0,126
-461,328	-58,969	-0,183	0,056
-460,313	231,326	0,044	-0,051
-459,299	-104,098	0,102	0,017
-458,284	49,684	-0,085	-0,057
-457,270	-200,000	0,017	-0,133
-456,255	-70,656	-0,118	-0,032
-455,241	532,063	0,026	-0,044
-454,226	-200,000	0,009	-0,093
-453,211	358,083	0,023	-0,033
-452,197	168,490	-0,025	-0,025
-451,182	326,444	0,065	0,090
-450,168	-65,122	0,071	0,020
-449,153	-40,284	-0,065	-0,024
-448,138	-58,650	-0,137	-0,042
-447,124	800,000	0,007	-0,023
-446,109	-200,000	0,002	-0,127
-445,095	-200,000	-0,001	0,021
-444,080	800,000	0,035	-0,095
-443,065	-200,000	0,007	-0,100
-442,051	571,672	0,035	0,061
-441,036	-200,000	0,009	-0,077
-440,022	800,000	0,022	-0,058
-439,007	-10,297	0,073	-0,035
-437,992	800,000	0,025	0,057
-436,978	-29,139	0,021	0,008
-435,963	-200,000	-0,016	0,109
-434,949	39,429	-0,027	0,017
-433,934	-123,377	0,042	-0,005
-432,919	-200,000	-0,029	-0,131
-431,905	800,000	0,027	-0,070
-430,890	-33,099	0,032	-0,012
-429,876	-114,160	-0,062	-0,008
-428,861	-27,541	0,223	0,092
-427,846	800,000	-0,040	-0,105
-426,832	189,398	-0,045	-0,048
-425,817	-76,899	-0,054	0,013
-424,803	99,250	0,125	0,104
-423,788	-200,000	0,006	0,082
-422,773	800,000	0,036	0,077
-421,759	753,630	-0,048	0,094
-420,744	-200,000	0,010	-0,069
-419,730	138,555	0,030	-0,028
-418,715	-200,000	-0,006	0,040
-417,701	105,701	0,146	-0,124
-416,686	-200,000	0,030	-0,096
-415,671	-200,000	0,023	-0,075
-414,657	800,000	-0,032	-0,087
-413,642	345,705	-0,021	-0,029
-412,628	-200,000	0,041	0,133
-411,613	-128,293	0,066	0,007
-410,598	-200,000	0,005	-0,062
-409,584	187,720	0,021	0,022
-408,569	238,929	0,019	0,022
-407,555	800,000	-0,018	-0,042
-406,540	-63,633	0,125	-0,037
-405,525	800,000	-0,040	-0,090
-404,511	9,940	-0,075	-0,040
-403,496	-29,577	0,111	0,045
-402,482	333,618	-0,057	0,079
-401,467	-200,000	0,009	-0,038
-400,452	-135,789	-0,011	0,001
-399,438	-52,227	-0,067	-0,022
-398,423	-182,484	-0,097	0,001
-397,409	35,284	-0,112	0,070
-396,394	-200,000	-0,017	0,068
-395,379	402,807	0,039	-0,059
-394,365	-200,000	0,002	0,094
-393,350	-200,000	-0,023	-0,123
-392,336	-200,000	0,028	-0,122
-391,321	-200,000	0,003	0,019
-390,306	-35,034	0,142	-0,055
-389,292	-200,000	0,018	-0,092
-388,277	-200,000	-0,004	0,118
-387,263	-0,433	0,080	0,040
-386,248	46,317	0,061	-0,040
-385,233	-54,098	-0,052	0,017
-384,219	505,627	0,018	0,031
-383,204	152,408	-0,104	-0,102
-382,190	800,000	-0,030	-0,068
-381,175	443,537	-0,016	0,025
-380,160	-200,000	0,032	0,222
-379,146	127,846	0,043	-0,039
-378,131	800,000	-0,055	-0,126
-377,117	354,348	0,066	0,093
-376,102	-200,000	0,001	-0,005
-375,088	-59,845	-0,091	-0,028
-374,073	-8,033	-0,095	0,046
-373,058	-94,395	0,221	-0,043
-372,044	-8,439	0,113	-0,054
-371,029	381,358	-0,078	0,115
-370,015	800,000	-0,018	-0,039
-369,000	81,925	-0,104	-0,081
-367,985	30,407	0,102	-0,062
-366,971	371,941	-0,053	-0,076
-365,956	39,259	-0,033	-0,021
-364,942	800,000	0,048	-0,119
-363,927	800,000	0,058	0,129
-362,912	19,683	-0,107	0,061
-361,898	161,437	-0,026	0,026
-360,883	217,208	-0,107	0,121
-359,869	230,843	0,062	-0,072
-358,854	-111,357	-0,035	-0,005
-357,839	-200,000	-0,011	0,137
-356,825	-43,264	0,093	0,034
-355,810	-200,000	-0,023	0,116
-354,796	-200,000	0,011	0,040
-353,781	800,000	0,027	0,079
-352,766	732,995	-0,058	-0,111
-351,752	800,000	-0,044	-0,109
-350,737	-200,000	-0,006	-0,185
-349,723	167,007	0,099	0,101
-348,708	228,102	0,094	-0,109
-347,693	793,138	-0,043	-0,085
-346,679	31,420	0,075	0,046
-345,664	103,547	0,093	0,078
-344,650	588,349	0,025	0,044
-343,635	-200,000	0,034	-0,147
-342,620	800,000	-0,025	0,070
-341,606	800,000	0,005	-0,011
-340,591	306,648	-0,064	0,085
-339,577	154,119	-0,104	-0,102
-338,562	386,729	0,051	0,076
-337,548	-200,000	-0,008	-0,056
-336,533	-200,000	0,051	0,199
-335,518	-200,000	0,046	0,184
-334,504	239,452	0,068	0,080
-333,489	-115,451	-0,115	0,015
-332,475	-14,238	-0,046	-0,021
-331,460	70,056	-0,084	-0,062
-330,445	95,903	0,133	-0,109
-329,431	-38,482	0,108	-0,040
-328,416	-200,000	-0,027	0,100
-327,402	-200,000	0,004	0,135
-326,387	-124,421	-0,059	0,006
-325,372	-200,000	0,023	-0,080
-324,358	-38,823	0,065	-0,024
-323,343	800,000	-0,054	0,128
-322,329	-35,366	0,077	-0,030
-321,314	-73,872	-0,116	-0,030
-320,299	-111,857	0,146	0,021
-319,285	8,176	-0,082	-0,044
-318,270	158,650	0,032	0,031
-317,256	110,857	-0,024	0,021
-316,241	-200,000	-0,020	-0,080
-315,226	-200,000	-0,008	-0,058
-314,212	423,535	-0,051	0,078
-313,197	-25,293	0,091	0,038
-312,183	214,188	-0,011	-0,012
-311,168	154,243	-0,036	-0,035
-310,153	189,040	0,107	0,114
-309,139	-101,440	0,081	0,014
-308,124	15,076	-0,011	0,006
-307,110	2,598	0,100	0,051
-306,095	800,000	-0,042	0,122
-305,080	57,970	-0,088	-0,062
-304,066	-186,326	-0,038	0,000
-303,051	55,665	0,065	0,045
-302,037	-33,539	-0,134	-0,053
-301,022	800,000	-0,092	0,199
-300,008	414,152	0,070	0,106
-298,993	-62,855	0,047	-0,014
-297,978	-200,000	-0,003	0,077
-296,964	159,172	0,113	0,112
-295,949	-200,000	-0,006	-0,186
-294,935	-200,000	0,009	-0,043
-293,920	20,723	-0,045	0,026
-292,905	800,000	0,057	-0,135
-291,891	367,376	0,090	0,130
-290,876	-13,396	-0,110	0,051
-289,862	280,608	0,060	0,076
-288,847	800,000	0,046	-0,103
-287,832	-1,100	-0,145	-0,073
-286,818	-106,042	0,019	0,003
-285,803	-72,949	0,085	-0,022
-284,789	800,000	0,044	-0,135
-283,774	-9,448	0,160	0,076
-282,759	120,077	-0,104	-0,092
-281,745	387,780	0,059	0,088
-280,730	14,946	0,038	-0,021
-279,716	-131,346	-0,097	0,009
-278,701	-200,000	-0,001	0,003
-277,686	331,036	0,046	0,063
-276,672	800,000	0,033	0,071
-275,657	-200,000	0,006	0,135
-274,643	800,000	0,009	0,026
-273,628	800,000	0,046	-0,142
-272,613	-200,000	0,008	0,055
-271,599	800,000	0,019	0,039
-270,584	800,000	0,039	0,079
-269,570	-200,000	-0,003	0,022
-268,555	36,936	0,065	0,041
-267,540	121,804	0,046	0,041
-266,526	591,211	0,030	-0,054
-265,511	454,069	-0,071	0,112
-264,497	38,796	-0,026	0,016
-263,482	735,536	0,063	0,121
-262,467	-68,163	0,095	0,026
-261,453	414,009	-0,042	-0,064
-260,438	-200,000	0,028	0,000
-259,424	331,009	-0,057	-0,078
-258,409	-43,339	-0,070	0,025
-257,395	166,256	0,085	0,085
-256,380	133,010	0,025	-0,023
-255,365	-200,000	0,005	-0,034
-254,351	-200,000	0,006	0,050
-253,336	-200,000	-0,008	-0,057
-252,322	118,581	0,020	-0,018
-251,307	57,276	0,091	0,063
-250,292	133,081	-0,083	0,077
-249,278	340,737	0,036	0,050
-248,263	43,177	0,096	0,062
-247,249	147,660	-0,047	0,045
-246,234	-146,268	0,150	-0,009
-245,219	-200,000	-0,011	0,042
-244,205	85,397	0,021	0,017
-243,190	800,000	0,058	0,140
-242,176	332,765	0,051	-0,070
-241,161	414,640	-0,106	0,161
-240,146	-138,594	0,153	-0,012
-239,132	-75,022	-0,049	0,012
-238,117	-200,000	0,004	-0,165
-237,103	157,318	0,098	-0,096
-236,088	20,603	0,082	0,047
-235,073	-200,000	0,006	-0,107
-234,059	-37,995	0,028	-0,011
-233,044	186,548	0,042	-0,045
-232,030	-90,937	0,030	0,006
-231,015	27,341	-0,114	0,068
-230,000	-149,498	-0,044	0,002
-228,986	109,422	0,102	-0,087
-227,971	322,536	-0,096	0,130
-226,957	263,524	-0,087	0,108
-225,942	-200,000	0,010	0,092
-224,927	800,000	-0,054	0,107
-223,913	800,000	0,043	-0,093
-222,898	265,904	0,055	0,068
-221,884	800,000	0,014	0,040
-220,869	-28,602	0,178	0,072
-219,855	172,750	-0,055	0,057
-218,840	68,941	0,034	-0,025
-217,825	2,850	-0,185	0,095
-216,811	370,636	-0,060	-0,086
-215,796	-43,911	-0,107	-0,038
-214,782	82,363	0,058	-0,044
-213,767	800,000	-0,065	0,129
-212,752	59,027	0,016	-0,011
-211,738	-200,000	-0,016	0,150
-210,723	-200,000	-0,010	-0,040
-209,709	-200,000	0,009	-0,049
-208,694	-135,210	-0,164	-0,014
-207,679	-200,000	0,046	-0,177
-206,665	102,115	0,090	-0,074
-205,650	-82,143	0,109	-0,025
-204,636	519,579	0,024	-0,040
-203,621	40,926	0,087	0,056
-202,606	800,000	0,013	-0,028
-201,592	-200,000	0,008	-0,183
-200,577	-30,033	0,068	0,027
-199,563	-200,000	0,017	0,094
-198,548	-184,880	0,064	-0,001
-197,533	-42,562	-0,115	0,041
-196,519	800,000	-0,058	0,133
-195,504	14,751	-0,063	0,035
-194,490	-200,000	0,016	0,143
-193,475	800,000	0,038	-0,112
-192,460	800,000	-0,022	-0,060
-191,446	-173,892	0,060	-0,001
-190,431	-200,000	0,049	0,176
-189,417	-200,000	-0,003	0,126
-188,402	-200,000	0,018	-0,163
-187,387	-104,122	-0,043	-0,007
-186,373	294,479	0,062	-0,081
-185,358	-200,000	-0,007	-0,029
-184,344	118,681	0,042	0,037
-183,329	-200,000	-0,014	0,070
-182,315	-200,000	0,036	0,148
-181,300	-128,269	0,046	-0,005
-180,285	-21,950	-0,105	-0,045
-179,271	-200,000	0,008	-0,113
-178,256	401,272	0,068	-0,102
-177,242	-200,000	-0,004	-0,031
-176,227	-200,000	-0,029	0,104
-175,212	3,004	-0,042	0,022
-174,198	-200,000	-0,005	-0,075
-173,183	21,209	-0,088	0,050
-172,169	-31,374	-0,067	-0,027
-171,154	-200,000	-0,001	-0,146
-170,139	800,000	-0,039	0,086
-169,125	-70,611	0,059	0,016
-168,110	-119,004	0,042	0,005
-167,096	-131,928	-0,066	-0,006
-166,081	-143,013	-0,047	-0,003
-165,066	800,000	0,064	-0,199
-164,052	-200,000	0,007	0,150
-163,037	12,542	0,065	-0,035
-162,023	311,355	-0,049	-0,065
-161,008	-127,286	0,060	0,006
-159,993	-105,533	-0,156	0,025
-158,979	-200,000	-0,013	-0,094
-157,964	-200,000	-0,016	-0,105
-156,950	145,584	-0,064	0,061
-155,935	243,215	0,007	0,009
-154,920	220,198	0,073	-0,083
-153,906	-5,699	0,024	-0,012
-152,891	-107,956	-0,043	0,007
-151,877	-200,000	-0,002	-0,106
-150,862	-14,680	0,097	-0,044
-149,847	181,271	-0,074	-0,077
-148,833	136,175	-0,058	0,053
-147,818	112,051	-0,063	0,054
-146,804	38,149	0,114	0,071
-145,789	80,933	-0,062	-0,047
-144,775	-138,365	-0,084	0,006
-143,760	-200,000	-0,009	-0,086
-142,745	-29,704	0,176	-0,071
-141,731	504,251	-0,033	-0,054
-140,716	64,255	0,087	-0,062
-139,702	-200,000	0,001	0,066
-138,687	-200,000	-0,008	0,141
-137,672	-200,000	0,026	0,111
-136,658	-115,814	-0,076	0,010
-135,643	-200,000	0,017	0,173
-134,629	-135,330	-0,202	-0,017
-133,614	-200,000	0,018	0,074
-132,599	-200,000	-0,014	0,182
-131,585	-61,765	0,093	0,027
-130,570	800,000	-0,002	-0,004
-129,556	-67,690	-0,129	-0,035
-128,541	-200,000	0,015	0,127
-127,526	129,648	-0,035	0,032
-126,512	-200,000	-0,016	0,078
-125,497	622,246	0,065	0,117
-124,483	-179,859	0,185	-0,003
-123,468	-130,957	0,082	-0,008
-122,453	-12,792	0,091	0,042
-121,439	-2,551	0,153	-0,076
-120,424	800,000	0,087	-0,187
-119,410	135,728	0,086	0,079
-118,395	800,000	0,023	0,058
-117,380	-3,541	-0,047	-0,023
-116,366	-200,000	-0,002	0,080
-115,351	-33,497	-0,040	-0,016
-114,337	343,580	-0,037	0,052
-113,322	196,544	-0,096	-0,104
-112,307	-44,468	-0,066	-0,023
-111,293	32,414	0,111	0,068
-110,278	306,316	-0,042	0,056
-109,264	4,335	0,015	-0,008
-108,249	-200,000	-0,002	0,014
-107,234	-200,000	-0,017	-0,055
-106,220	-200,000	-0,012	0,073
-105,205	339,918	-0,125	0,173
-104,191	-36,813	0,060	-0,023
-103,176	276,272	0,049	-0,062
-102,162	-152,417	0,090	0,004
-101,147	800,000	-0,090	0,200
-100,132	800,000	-0,009	-0,020
-99,118	50,000	0,078	-0,052
-98,103	-133,864	0,074	-0,006
-97,089	-200,000	-0,003	-0,087
-96,074	89,407	0,045	-0,035
-95,059	415,341	-0,074	0,112
-94,045	103,835	0,097	0,081
-93,030	-200,000	-0,022	0,088
-92,016	-200,000	0,000	-0,115
-91,001	-26,696	-0,071	0,029
-89,986	-160,325	0,111	0,004
-88,972	77,925	0,055	-0,042
-87,957	250,530	0,014	0,017
-86,943	690,933	-0,069	-0,128
-85,928	272,731	-0,127	-0,158
-84,913	-79,165	0,165	-0,039
-83,899	-115,031	0,096	0,013
-82,884	110,552	0,063	-0,053
-81,870	-12,173	0,022	0,010
-80,855	-137,073	-0,055	0,004
-79,840	12,607	0,147	-0,080
-78,826	110,859	0,081	-0,069
-77,811	-200,000	0,011	-0,043
-76,797	-131,196	-0,122	-0,011
-75,782	-19,276	0,047	0,020
-74,767	460,707	0,039	-0,062
-73,753	-200,000	-0,001	0,044
-72,738	66,154	0,101	0,073
-71,724	-0,173	-0,122	-0,061
-70,709	-97,157	0,056	0,010
-69,694	-200,000	0,002	-0,018
-68,680	47,670	-0,045	-0,030
-67,665	473,028	-0,047	0,075
-66,651	343,953	0,091	0,127
-65,636	-200,000	-0,051	-0,160
-64,622	378,518	0,078	-0,113
-63,607	66,650	0,076	-0,054
-62,592	-43,310	0,027	-0,009
-61,578	389,771	-0,007	-0,010
-60,563	587,807	0,023	-0,041
-59,549	69,517	-0,076	0,055
-58,534	59,799	-2,065	-1,436
-57,519	632,657	-1,053	-1,890
-56,505	-200,000	-0,434	-4,518
-55,490	710,346	0,891	1,670
-54,476	800,000	5,136	11,416
-53,461	-200,000	22,056	339,373
-52,446	800,000	760,461	2290,041
-51,432	529,261	1654,694	2765,601
-50,417	68,765	1652,444	1194,809
-49,403	16,423	1527,451	848,226
-48,388	10,590	1452,220	778,338
-47,373	19,094	1444,258	814,697
-46,359	13,988	1433,031	784,148
-45,344	8,915	1428,974	757,826
-44,330	8,845	1427,055	756,449
-43,315	8,832	1425,208	755,378
-42,300	8,852	1423,466	754,520
-41,286	8,865	1422,244	753,903
-40,271	8,823	1420,940	752,982
-39,257	8,840	1419,894	752,477
-38,242	8,892	1418,714	752,067
-37,227	8,897	1417,385	751,358
-36,213	8,885	1416,233	750,662
-35,198	8,895	1415,146	750,100
-34,184	8,938	1414,184	749,765
-33,169	8,794	1412,653	748,245
-32,154	8,842	1411,689	747,931
-31,140	8,865	1410,431	747,344
-30,125	8,898	1409,148	746,788
-29,111	8,845	1408,243	746,031
-28,096	8,839	1407,059	745,346
-27,082	8,769	1405,825	744,338
-26,067	8,808	1404,804	743,950
-25,052	8,837	1403,659	743,448
-24,038	8,816	1402,638	742,777
-23,023	8,805	1401,705	742,204
-22,009	8,834	1400,560	741,703
-20,994	8,792	1399,616	740,977
-19,979	8,786	1398,865	740,522
-18,965	8,758	1398,091	739,955
-17,950	8,756	1396,719	739,190
-16,936	8,749	1395,900	738,694
-15,921	8,730	1394,896	738,047
-14,906	8,726	1394,023	737,535
-13,892	8,775	1392,985	737,183
-12,877	8,717	1392,378	736,564
-11,863	8,690	1391,866	736,141
-10,848	8,708	1390,778	735,619
-9,833	8,712	1389,717	735,047
-8,819	8,647	1388,857	734,264
-7,804	8,599	1387,884	733,498
-6,790	8,636	1386,841	733,086
-5,775	8,623	1385,981	732,546
-4,760	8,657	1384,920	732,111
-3,746	8,676	1383,807	731,579
-2,731	8,680	1383,079	731,188
-1,717	8,664	1382,163	730,599
-0,702	8,663	1380,495	729,685
0,313	12,781	1291,704	701,451
1,327	29,006	682,533	407,038
2,342	45,185	117,593	76,264
3,356	2,254	16,454	8,356
4,371	-0,405	3,832	1,912
5,386	37,869	1,138	0,711
6,400	800,000	0,298	0,646
7,415	-6,049	-0,294	-0,141
8,429	103,101	-0,299	-0,247
9,444	-9,352	-0,278	-0,130
10,459	313,482	-0,198	-0,263
11,473	53,609	-0,294	-0,198
12,488	-140,439	-0,270	0,019
13,502	-84,369	-0,398	-0,088
14,517	124,051	-0,228	-0,202
15,531	51,599	-0,413	-0,276
16,546	149,743	-0,280	-0,267
17,561	164,992	-0,242	-0,241
18,575	800,000	-0,048	-0,098
19,590	8,822	-0,239	-0,127
20,604	45,006	-0,255	-0,165
21,619	213,577	-0,344	-0,383
22,634	227,166	-0,284	-0,326
23,648	91,209	-0,434	-0,343
24,663	102,851	-0,417	-0,344
25,677	11,207	-0,393	-0,211
26,692	34,080	-0,319	-0,195
27,707	247,439	-0,230	-0,273
28,721	37,636	-0,351	-0,219
29,736	21,986	-0,362	-0,207
30,750	38,934	-0,411	-0,258
31,765	43,575	-0,420	-0,269
32,780	103,377	-0,314	-0,259
33,794	50,208	-0,320	-0,212
34,809	-74,002	-0,469	-0,119
35,823	101,243	-0,346	-0,283
36,838	286,713	-0,287	-0,364
37,853	36,496	-0,381	-0,236
38,867	232,630	-0,313	-0,361
39,882	28,742	-0,385	-0,228
40,896	50,458	-0,221	-0,147
41,911	-17,177	-0,217	-0,096
42,926	-5,590	-0,287	-0,138
43,940	47,319	-0,251	-0,164
44,955	60,258	-0,401	-0,278
45,969	75,101	-0,333	-0,247
46,984	58,036	-0,275	-0,189
47,999	8,005	-0,349	-0,183
49,013	63,154	-0,267	-0,188
50,028	-17,412	-0,310	-0,137
51,042	3,329	-0,448	-0,228
52,057	134,822	-0,327	-0,298
53,071	58,054	-0,269	-0,184
54,086	1,627	-0,171	-0,086
55,101	199,434	-0,287	-0,309
56,115	-1,986	-0,356	-0,175
57,130	-10,981	-0,337	-0,155
58,144	48,469	-0,354	-0,232
59,159	364,853	-0,227	-0,322
60,174	50,413	-0,369	-0,244
61,188	156,927	-0,288	-0,279
62,203	46,537	-0,278	-0,181
63,217	146,718	-0,219	-0,206
64,232	31,329	-0,281	-0,169
65,247	35,770	-0,382	-0,235
66,261	41,399	-0,330	-0,209
67,276	142,607	-0,347	-0,324
68,290	4,809	-0,475	-0,244
69,305	49,632	-0,340	-0,224
70,320	-40,560	-0,272	-0,098
71,334	288,286	-0,220	-0,280
72,349	86,357	-0,307	-0,237
73,363	60,422	-0,397	-0,275
74,378	203,411	-0,269	-0,292
75,393	44,202	-0,356	-0,228
76,407	103,290	-0,352	-0,289
77,422	25,859	-0,250	-0,146
78,436	-84,941	-0,376	-0,082
79,451	-55,183	-0,306	-0,096
80,466	48,417	-0,366	-0,239
81,480	148,275	-0,218	-0,206
82,495	-70,101	-0,304	-0,080
83,509	621,118	-0,211	-0,373
84,524	398,258	-0,231	-0,340
85,539	-56,354	-0,287	-0,089
86,553	-29,746	-0,284	-0,113
87,568	84,980	-0,378	-0,290
88,582	74,199	-0,258	-0,190
89,597	30,825	-0,230	-0,137
90,611	56,880	-0,265	-0,180
91,626	56,495	-0,265	-0,180
92,641	597,194	-0,148	-0,258
93,655	50,854	-0,265	-0,175
94,670	118,962	-0,319	-0,276
95,684	33,471	-0,352	-0,213
96,699	-38,766	-0,304	-0,112
97,714	152,976	-0,235	-0,225
98,728	-8,320	-0,078	-0,037
99,743	-51,138	-0,412	-0,134
100,757	509,868	-0,204	-0,333
101,772	-95,183	-0,299	-0,056
102,787	38,891	-0,300	-0,187
103,801	755,373	-0,123	-0,233
104,816	118,357	-0,241	-0,207
105,830	-153,939	-0,195	0,009
106,845	-37,766	-0,263	-0,097
107,860	230,263	-0,223	-0,255
108,874	13,805	-0,308	-0,167
109,889	92,457	-0,301	-0,237
110,903	-37,669	-0,365	-0,135
111,918	84,369	-0,245	-0,187
112,933	-75,622	-0,313	-0,077
113,947	23,625	-0,235	-0,134
114,962	41,576	-0,165	-0,104
115,976	162,145	-0,299	-0,293
116,991	112,249	-0,245	-0,207
118,006	19,574	-0,234	-0,131
119,020	-29,415	-0,279	-0,111
120,035	148,629	-0,273	-0,258
121,049	-83,126	-0,249	-0,055
122,064	31,515	-0,240	-0,144
123,079	-66,098	-0,274	-0,076
124,093	385,260	-0,209	-0,302
125,108	102,902	-0,185	-0,151
126,122	537,358	-0,134	-0,223
127,137	139,347	-0,231	-0,212
128,151	176,641	-0,106	-0,107
129,166	1,020	-0,251	-0,125
130,181	150,697	-0,139	-0,132
131,195	70,179	-0,322	-0,231
132,210	29,388	-0,214	-0,127
133,224	-0,856	-0,281	-0,138
134,239	113,132	-0,276	-0,233
135,254	-87,721	-0,254	-0,053
136,268	223,791	-0,211	-0,237
137,283	35,868	-0,221	-0,135
138,297	157,261	-0,213	-0,206
139,312	68,750	-0,274	-0,196
140,327	160,455	-0,216	-0,210
141,341	182,315	-0,193	-0,199
142,356	1,246	-0,179	-0,089
143,370	17,560	-0,316	-0,174
144,385	-200,000	-0,078	-0,258
145,400	156,684	-0,255	-0,245
146,414	-15,977	-0,342	-0,151
147,429	206,257	-0,243	-0,263
148,443	118,266	-0,217	-0,186
149,458	297,646	-0,173	-0,221
150,473	48,355	-0,257	-0,167
151,487	5,059	-0,277	-0,142
152,502	161,895	-0,216	-0,210
153,516	66,196	-0,311	-0,220
154,531	512,537	-0,223	-0,363
155,546	191,485	-0,114	-0,119
156,560	237,194	-0,141	-0,163
157,575	60,001	-0,245	-0,168
158,589	21,774	-0,285	-0,161
159,604	-73,021	-0,304	-0,077
160,619	12,855	-0,334	-0,179
161,633	82,405	-0,178	-0,134
162,648	53,805	-0,296	-0,197
163,662	92,621	-0,132	-0,103
164,677	-58,781	-0,197	-0,059
165,692	37,837	-0,286	-0,176
166,706	71,258	-0,195	-0,140
167,721	-17,859	-0,273	-0,118
168,735	114,037	-0,355	-0,300
169,750	148,614	-0,295	-0,277
170,764	382,115	-0,184	-0,263
171,779	800,000	-0,076	-0,212
172,794	286,166	-0,192	-0,241
173,808	358,969	-0,142	-0,197
174,823	5,094	-0,281	-0,143
175,837	-156,710	-0,273	-0,011
176,852	468,811	-0,194	-0,303
177,867	111,719	-0,142	-0,119
178,881	703,631	-0,160	-0,294
179,896	142,314	-0,168	-0,155
180,910	776,626	-0,139	-0,265
181,925	-73,698	-0,283	-0,071
182,940	151,099	-0,278	-0,262
183,954	7,648	-0,246	-0,127
184,969	14,226	-0,182	-0,098
185,983	-69,265	-0,172	-0,045
186,998	-100,168	-0,218	-0,037
188,013	41,702	-0,273	-0,171
189,027	16,183	-0,262	-0,143
190,042	800,000	-0,135	-0,266
191,056	31,261	-0,310	-0,184
192,071	121,986	-0,202	-0,175
193,086	160,186	-0,260	-0,251
194,100	307,914	-0,105	-0,136
195,115	115,529	-0,210	-0,178
196,129	178,998	-0,132	-0,134
197,144	419,297	-0,194	-0,288
198,159	-47,980	-0,310	-0,103
199,173	359,100	-0,103	-0,143
200,188	-138,828	-0,230	-0,017
201,202	-70,134	-0,209	-0,055
202,217	292,001	-0,099	-0,125
203,232	255,834	-0,153	-0,182
204,246	130,736	-0,129	-0,115
205,261	164,205	-0,262	-0,256
206,275	-33,023	-0,214	-0,082
207,290	187,405	-0,164	-0,169
208,304	37,951	-0,156	-0,096
209,319	8,391	-0,182	-0,095
210,334	800,000	-0,024	-0,063
211,348	8,775	-0,332	-0,173
212,363	200,783	-0,163	-0,174
213,377	262,696	-0,183	-0,220
214,392	400,580	-0,095	-0,139
215,407	-12,142	-0,298	-0,134
216,421	-103,375	-0,144	-0,023
217,436	168,943	-0,169	-0,167
218,450	185,741	-0,144	-0,148
219,465	254,941	-0,209	-0,248
220,480	118,434	-0,079	-0,067
221,494	169,681	-0,161	-0,160
222,509	-38,144	-0,169	-0,062
223,523	168,470	-0,225	-0,222
224,538	36,638	-0,136	-0,083
225,553	448,134	-0,067	-0,102
226,567	-200,000	-0,080	-0,248
227,582	-69,935	-0,247	0,065
228,596	69,039	-0,051	-0,036
229,611	-8,879	-0,130	-0,060
230,626	-0,650	-0,241	-0,117
231,640	307,107	-0,162	-0,210
232,655	326,691	-0,152	-0,202
233,669	153,155	-0,206	-0,194
234,684	350,846	-0,148	-0,203
235,699	74,613	-0,181	-0,131
236,713	-86,702	-0,252	-0,053
237,728	-177,228	-0,268	-0,004
238,742	8,514	-0,232	-0,120
239,757	7,867	-0,252	-0,130
240,772	800,000	-0,143	-0,351
241,786	223,789	-0,116	-0,129
242,801	407,429	-0,080	-0,118
243,815	223,273	-0,126	-0,140
244,830	-85,906	-0,073	-0,015
245,844	198,297	-0,059	-0,062
246,859	800,000	-0,152	-0,293
247,874	153,592	-0,172	-0,163
248,888	181,718	-0,205	-0,208
249,903	800,000	-0,037	-0,093
250,917	126,315	-0,094	-0,082
251,932	-45,165	-0,233	-0,080
252,947	431,054	-0,117	-0,175
253,961	82,806	-0,215	-0,161
254,976	321,223	-0,127	-0,167
255,990	344,334	-0,159	-0,216
257,005	254,308	-0,142	-0,168
258,020	-200,000	0,007	-0,067
259,034	-170,796	-0,194	0,004
260,049	-117,958	-0,233	-0,028
261,063	93,463	-0,186	-0,145
262,078	269,285	-0,221	-0,268
263,093	91,362	-0,114	-0,088
264,107	46,047	-0,139	-0,088
265,122	-41,239	-0,241	-0,085
266,136	295,403	-0,120	-0,151
267,151	800,000	-0,102	-0,198
268,166	38,648	-0,221	-0,136
269,180	240,602	-0,141	-0,162
270,195	533,424	-0,138	-0,226
271,209	108,377	-0,201	-0,165
272,224	496,593	-0,036	-0,058
273,239	138,211	-0,158	-0,143
274,253	-78,651	-0,119	-0,028
275,268	75,863	-0,093	-0,068
276,282	120,445	-0,240	-0,205
277,297	737,519	-0,132	-0,244
278,312	800,000	-0,063	-0,163
279,326	-18,547	-0,123	-0,053
280,341	61,765	-0,186	-0,127
281,355	173,682	-0,139	-0,138
282,370	79,223	-0,162	-0,119
283,384	110,564	-0,191	-0,158
284,399	275,570	-0,164	-0,200
285,414	36,105	-0,290	-0,175
286,428	-2,348	-0,057	0,027
287,443	286,047	-0,080	-0,099
288,457	598,118	-0,064	-0,109
289,472	-149,399	-0,170	0,009
290,487	234,001	-0,171	-0,194
291,501	11,075	-0,235	-0,123
292,516	-69,323	-0,285	-0,075
293,530	-30,803	-0,109	0,042
294,545	41,858	-0,135	-0,084
295,560	-198,493	-0,073	0,000
296,574	-48,516	-0,200	-0,066
297,589	94,880	-0,248	-0,193
298,603	35,214	-0,254	-0,152
299,618	68,451	-0,184	-0,129
300,633	800,000	-0,121	-0,239
301,647	-65,114	-0,089	-0,025
302,662	-39,984	-0,219	-0,078
303,676	800,000	-0,078	-0,161
304,691	160,272	-0,108	-0,104
305,706	800,000	-0,089	-0,175
306,720	425,179	-0,076	-0,113
307,735	92,737	-0,139	-0,108
308,749	166,523	-0,036	-0,035
309,764	92,867	-0,052	0,040
310,779	211,672	-0,081	-0,087
311,793	-200,000	0,029	-0,111
312,808	524,092	-0,213	-0,345
313,822	32,818	-0,239	-0,142
314,837	78,626	-0,132	-0,097
315,852	197,289	-0,142	-0,148
316,866	294,988	-0,128	-0,161
317,881	148,097	-0,171	-0,158
318,895	-53,785	-0,208	-0,065
319,910	70,425	-0,184	-0,130
320,925	157,979	-0,144	-0,137
321,939	-200,000	-0,070	-0,213
322,954	-200,000	-0,029	-0,089
323,968	465,980	-0,029	-0,044
324,983	800,000	-0,075	-0,199
325,997	93,449	-0,239	-0,185
327,012	128,025	-0,215	-0,187
328,027	615,485	-0,110	-0,189
329,041	800,000	-0,066	-0,133
330,056	-99,727	-0,174	0,030
331,070	273,423	-0,108	-0,131
332,085	800,000	-0,052	-0,118
333,100	256,061	-0,157	-0,185
334,114	-200,000	-0,017	-0,108
335,129	253,345	-0,132	-0,154
336,143	120,145	-0,219	-0,186
337,158	3,893	-0,093	-0,047
338,173	800,000	0,026	-0,069
339,187	38,456	-0,143	-0,087
340,202	46,003	-0,095	-0,060
341,216	-200,000	-0,061	-0,215
342,231	26,497	-0,069	-0,039
343,246	-200,000	-0,011	-0,090
344,260	-43,782	-0,154	-0,053
345,275	15,082	-0,045	-0,024
346,289	-70,170	-0,051	0,013
347,304	-26,962	-0,140	-0,056
348,319	-200,000	0,008	-0,056
349,333	11,533	-0,170	-0,089
350,348	-142,845	-0,247	-0,016
351,362	800,000	-0,035	-0,106
352,377	81,091	-0,059	0,044
353,392	71,562	-0,109	-0,077
354,406	182,702	-0,057	-0,057
355,421	207,778	1310,422	1399,927
356,435	159,856	1470,551	1400,382
