DTS Sentinel unit serial number:	SN410029Multiplexer serial number:	ORYXHardware model number:	OX2-SRSoftware version number:	ORYX F/W v4,00 Oryx Data Collector v3.7.2.0data status	okinstallation	B3 Nyhavnadifferential loss correction	single-endedforward channel	channel 1reverse channel	N/Adate	2023/12/03time	14:07:30forward acquisition time	300,00reverse acquisition time	0,00gamma	499,1914k internal	0,3198k external	0,3198temperature offset calibration	1,0000default loss term (dB/km)	0,3820temperature slope calibration	1,0000multiplexer offset coefficient	1,0000multiplexer slope coefficient	1,0000fibre end	0,00T internal ref (°C)	15,62T ext. ref 1 (°C)	1,57T ext. ref 2 (°C)	1,56length (m)	temperature (°C)	Stokes	anti-Stokes-744,400	449,865	-0,153	-0,247
-743,385	564,762	0,100	0,178
-742,371	800,000	-0,095	-0,285
-741,356	-200,000	0,083	0,376
-740,342	275,478	-0,175	-0,226
-739,327	-200,000	-0,018	0,544
-738,312	170,357	-0,226	-0,235
-737,298	-200,000	-0,065	0,216
-736,283	800,000	-0,145	-0,316
-735,269	-200,000	0,070	0,252
-734,254	-29,736	-0,200	-0,083
-733,239	471,584	-0,078	0,128
-732,225	42,651	-0,196	-0,129
-731,210	341,511	0,090	0,128
-730,196	-200,000	0,001	0,175
-729,181	-94,915	-0,119	0,023
-728,167	-25,649	-0,224	0,096
-727,152	800,000	0,063	-0,145
-726,137	-200,000	-0,009	0,094
-725,123	-142,245	-0,012	-0,001
-724,108	55,463	-0,071	-0,050
-723,094	165,263	-0,078	-0,081
-722,079	122,830	-0,107	-0,097
-721,064	-152,419	0,107	0,005
-720,050	107,655	-0,025	-0,021
-719,035	326,563	-0,120	-0,168
-718,021	107,314	-0,109	-0,094
-717,006	76,863	-0,131	-0,101
-715,991	49,666	-0,106	0,072
-714,977	-200,000	0,002	-0,193
-713,962	-200,000	0,020	-0,173
-712,948	-200,000	-0,013	-0,058
-711,933	-200,000	0,020	0,083
-710,918	-175,168	0,034	-0,001
-709,904	-200,000	-0,027	-0,105
-708,889	-200,000	-0,004	-0,066
-707,875	-200,000	0,029	-0,225
-706,860	483,929	-0,048	0,080
-705,845	-165,082	0,116	0,004
-704,831	76,801	-0,047	-0,036
-703,816	205,018	-0,079	-0,090
-702,802	-200,000	-0,035	-0,189
-701,787	-116,474	-0,099	-0,013
-700,772	-161,404	0,068	-0,003
-699,758	-200,000	0,021	0,116
-698,743	-147,377	0,048	-0,003
-697,729	-200,000	-0,009	-0,130
-696,714	-18,494	0,148	-0,067
-695,699	800,000	0,032	-0,085
-694,685	-45,399	-0,075	0,027
-693,670	25,344	-0,033	0,020
-692,656	402,441	-0,015	-0,023
-691,641	-154,504	-0,039	-0,002
-690,627	167,769	0,012	-0,012
-689,612	800,000	-0,054	0,112
-688,597	-15,061	-0,047	0,022
-687,583	-27,940	-0,197	-0,082
-686,568	800,000	-0,009	0,021
-685,554	-53,754	-0,079	0,026
-684,539	405,999	0,066	-0,101
-683,524	-94,424	0,020	-0,004
-682,510	24,051	0,054	0,032
-681,495	-72,374	-0,117	-0,031
-680,481	-199,712	-0,085	0,000
-679,466	-61,086	0,028	-0,009
-678,451	800,000	-0,044	-0,102
-677,437	544,817	-0,087	-0,151
-676,422	-83,473	0,067	0,016
-675,408	178,414	-0,083	-0,088
-674,393	-16,399	-0,054	-0,025
-673,378	-200,000	0,010	-0,177
-672,364	-200,000	-0,002	-0,109
-671,349	491,789	0,049	0,081
-670,335	-200,000	0,007	-0,030
-669,320	6,254	-0,028	-0,015
-668,305	-111,259	0,032	0,005
-667,291	-32,504	-0,049	-0,020
-666,276	231,853	-0,060	-0,072
-665,262	800,000	-0,078	-0,176
-664,247	-200,000	-0,001	-0,064
-663,232	201,282	-0,015	-0,017
-662,218	165,448	0,080	-0,082
-661,203	28,821	0,040	0,025
-660,189	800,000	0,065	-0,168
-659,174	-200,000	-0,013	-0,073
-658,159	747,918	-0,037	0,073
-657,145	-115,678	-0,180	0,024
-656,130	-172,598	0,052	0,001
-655,116	-84,342	-0,067	-0,015
-654,101	-73,625	-0,114	-0,030
-653,086	34,095	-0,099	-0,062
-652,072	-144,077	-0,064	0,004
-651,057	-200,000	0,011	-0,084
-650,043	738,669	0,078	0,152
-649,028	-75,227	-0,014	-0,004
-648,014	45,017	-0,075	0,050
-646,999	-156,243	0,108	0,005
-645,984	-200,000	0,004	-0,048
-644,970	-200,000	0,009	-0,061
-643,955	-170,607	-0,132	-0,003
-642,941	800,000	-0,063	-0,155
-641,926	-200,000	-0,035	0,123
-640,911	-60,316	-0,036	0,011
-639,897	42,669	0,058	-0,038
-638,882	-200,000	-0,040	-0,241
-637,868	301,572	0,069	0,093
-636,853	-190,884	-0,158	0,001
-635,838	49,431	0,061	0,042
-634,824	800,000	-0,021	0,043
-633,809	-200,000	0,015	-0,094
-632,795	211,766	0,056	0,064
-631,780	316,760	0,080	0,110
-630,765	-120,110	0,075	0,009
-629,751	-143,691	-0,132	0,009
-628,736	13,618	-0,123	-0,069
-627,722	625,099	0,028	0,051
-626,707	5,048	0,093	0,049
-625,692	164,439	0,074	0,075
-624,678	800,000	-0,097	0,206
-623,663	178,450	0,066	0,070
-622,649	-30,713	0,110	-0,045
-621,634	-200,000	0,010	-0,126
-620,619	-200,000	-0,016	-0,134
-619,605	20,970	0,059	0,035
-618,590	315,217	-0,034	-0,047
-617,576	-39,486	0,025	0,009
-616,561	-128,115	-0,104	0,011
-615,546	107,247	-0,091	-0,078
-614,532	-200,000	-0,036	-0,120
-613,517	113,375	-0,085	0,075
-612,503	22,427	0,111	-0,065
-611,488	800,000	-0,013	-0,027
-610,474	-200,000	0,017	0,077
-609,459	-101,340	-0,075	0,013
-608,444	39,412	-0,021	0,013
-607,430	-88,903	0,043	-0,009
-606,415	657,223	-0,068	-0,128
-605,401	0,535	0,088	-0,045
-604,386	-22,885	0,142	-0,062
-603,371	419,981	0,028	0,044
-602,357	-124,111	-0,097	0,011
-601,342	-90,229	0,133	-0,028
-600,328	332,098	0,039	-0,055
-599,313	322,683	-0,066	-0,091
-598,298	-178,824	0,095	-0,002
-597,284	-86,859	0,011	0,002
-596,269	-98,708	-0,074	-0,014
-595,255	-11,737	-0,038	0,018
-594,240	-123,673	-0,016	0,002
-593,225	23,474	0,026	-0,016
-592,211	-200,000	-0,001	-0,014
-591,196	172,578	0,019	-0,020
-590,182	-200,000	0,007	-0,047
-589,167	800,000	0,057	-0,138
-588,152	-50,283	-0,130	-0,044
-587,138	354,609	-0,094	-0,135
-586,123	-33,823	-0,096	0,038
-585,109	800,000	0,005	-0,011
-584,094	-129,469	-0,034	0,003
-583,079	-200,000	-0,006	-0,055
-582,065	-200,000	0,023	-0,124
-581,050	193,448	-0,058	-0,064
-580,036	140,100	0,064	0,061
-579,021	800,000	-0,031	0,079
-578,006	-70,139	-0,047	0,013
-576,992	-200,000	-0,024	0,087
-575,977	-200,000	-0,058	-0,291
-574,963	800,000	0,028	-0,062
-573,948	800,000	0,017	0,047
-572,934	671,660	-0,041	0,076
-571,919	800,000	-0,017	-0,045
-570,904	-200,000	-0,027	-0,146
-569,890	-159,326	0,135	0,005
-568,875	-173,160	0,031	-0,001
-567,861	9,989	0,075	-0,041
-566,846	21,292	0,069	0,041
-565,831	782,332	0,053	0,106
-564,817	-200,000	0,012	-0,132
-563,802	0,224	0,168	0,086
-562,788	254,470	-0,106	-0,131
-561,773	186,300	-0,075	-0,081
-560,758	-167,692	-0,055	-0,002
-559,744	-200,000	0,002	0,097
-558,729	-52,055	0,101	-0,034
-557,715	-200,000	-0,003	-0,030
-556,700	-86,885	-0,123	-0,027
-555,685	-8,580	-0,022	-0,010
-554,671	-69,792	0,003	0,001
-553,656	215,590	0,021	0,024
-552,642	721,654	0,057	0,110
-551,627	800,000	-0,015	-0,031
-550,612	-200,000	0,001	-0,005
-549,598	-36,396	0,059	-0,023
-548,583	16,314	-0,031	-0,017
-547,569	51,877	0,082	0,056
-546,554	800,000	0,045	-0,096
-545,539	-63,464	0,086	-0,025
-544,525	-121,496	0,104	0,012
-543,510	-200,000	0,008	-0,163
-542,496	631,101	-0,083	-0,152
-541,481	-111,091	-0,190	-0,028
-540,466	-158,747	-0,148	0,006
-539,452	-16,387	-0,185	-0,084
-538,437	-76,437	0,115	0,029
-537,423	119,207	-0,099	0,089
-536,408	-60,322	0,053	0,016
-535,393	-200,000	0,031	0,000
-534,379	324,044	-0,125	-0,173
-533,364	138,647	-0,050	-0,047
-532,350	356,633	-0,060	-0,086
-531,335	800,000	0,017	0,047
-530,321	-150,397	-0,006	0,000
-529,306	-200,000	0,001	0,069
-528,291	-145,325	0,131	0,008
-527,277	-200,000	0,038	-0,129
-526,262	-51,371	-0,127	-0,043
-525,248	400,035	-0,035	-0,053
-524,233	99,592	0,058	-0,049
-523,218	797,031	0,031	0,062
-522,204	-200,000	-0,031	0,131
-521,189	20,696	-0,201	-0,117
-520,175	800,000	-0,028	0,062
-519,160	-45,142	0,079	0,028
-518,145	-94,328	-0,138	0,027
-517,131	-200,000	0,015	0,099
-516,116	-200,000	-0,006	-0,036
-515,102	-68,856	-0,099	-0,027
-514,087	98,817	0,027	-0,023
-513,072	-77,731	-0,105	-0,026
-512,058	-200,000	0,000	-0,030
-511,043	81,962	-0,056	0,044
-510,029	-200,000	0,035	0,126
-509,014	24,168	0,052	0,031
-507,999	186,626	0,107	0,115
-506,985	800,000	-0,014	-0,037
-505,970	-89,820	-0,098	0,021
-504,956	-200,000	-0,018	-0,079
-503,941	84,911	-0,070	0,055
-502,926	512,532	0,099	0,167
-501,912	-90,082	0,248	0,052
-500,897	250,665	-0,034	0,041
-499,883	168,313	-0,050	-0,051
-498,868	-96,534	-0,073	0,014
-497,853	-200,000	-0,001	-0,058
-496,839	-200,000	0,015	-0,124
-495,824	228,777	-0,061	0,072
-494,810	800,000	0,080	-0,197
-493,795	-71,631	0,155	-0,041
-492,781	-64,370	-0,187	0,055
-491,766	-53,191	-0,124	0,041
-490,751	361,962	-0,008	-0,012
-489,737	79,557	-0,036	-0,028
-488,722	-177,583	-0,094	0,002
-487,708	800,000	-0,013	0,027
-486,693	-17,459	-0,037	0,017
-485,678	62,808	0,031	-0,023
-484,664	800,000	0,045	-0,092
-483,649	162,287	-0,026	-0,027
-482,635	-54,543	-0,034	-0,011
-481,620	18,543	0,200	-0,115
-480,605	197,624	0,117	-0,129
-479,591	338,065	0,017	0,024
-478,576	800,000	-0,060	-0,152
-477,562	-200,000	-0,023	0,166
-476,547	-148,887	-0,168	0,010
-475,532	-200,000	0,001	-0,016
-474,518	-200,000	0,004	0,027
-473,503	-200,000	-0,014	-0,052
-472,489	-133,909	0,071	-0,006
-471,474	-200,000	0,013	-0,046
-470,459	154,811	0,082	0,082
-469,445	-56,899	-0,040	0,013
-468,430	-200,000	-0,021	0,076
-467,416	-124,576	-0,070	-0,008
-466,401	410,302	0,016	0,025
-465,386	497,737	0,077	0,129
-464,372	785,836	-0,047	0,094
-463,357	-157,153	-0,201	-0,009
-462,343	-72,360	0,151	-0,040
-461,328	-103,350	0,021	-0,003
-460,313	459,457	0,047	-0,075
-459,299	-200,000	-0,010	-0,122
-458,284	-200,000	0,010	0,127
-457,270	-63,013	0,116	-0,034
-456,255	-162,396	0,157	0,005
-455,241	-200,000	-0,012	-0,128
-454,226	409,906	0,055	-0,084
-453,211	17,082	-0,056	-0,032
-452,197	242,395	0,021	0,026
-451,182	-108,948	-0,038	0,006
-450,168	800,000	-0,022	-0,052
-449,153	-142,001	-0,115	-0,008
-448,138	-200,000	0,032	0,141
-447,124	-3,918	-0,083	0,041
-446,109	800,000	-0,028	-0,076
-445,095	-102,303	0,080	0,014
-444,080	367,399	-0,072	0,105
-443,065	558,916	0,092	0,160
-442,051	-11,544	0,117	0,055
-441,036	130,854	-0,151	-0,139
-440,022	-200,000	0,028	0,113
-439,007	442,036	-0,059	0,094
-437,992	-200,000	0,011	-0,116
-436,978	800,000	0,014	0,033
-435,963	-164,635	-0,078	-0,002
-434,949	800,000	-0,020	0,045
-433,934	-42,079	0,088	-0,032
-432,919	-122,462	-0,045	0,005
-431,905	-200,000	0,010	-0,033
-430,890	-200,000	0,008	0,032
-429,876	-129,378	-0,164	-0,016
-428,861	-27,509	0,091	-0,038
-427,846	-36,210	-0,077	0,030
-426,832	1,069	-0,072	-0,037
-425,817	-120,193	0,030	-0,004
-424,803	-200,000	-0,010	0,041
-423,788	800,000	0,007	-0,016
-422,773	-200,000	-0,025	0,141
-421,759	-82,063	0,122	-0,028
-420,744	4,091	-0,055	-0,029
-419,730	-200,000	-0,017	-0,094
-418,715	470,446	-0,046	-0,074
-417,701	-200,000	0,050	-0,175
-416,686	800,000	0,029	-0,090
-415,671	151,829	0,045	0,044
-414,657	-71,588	-0,023	-0,006
-413,642	131,497	-0,062	-0,057
-412,628	165,420	-0,100	0,102
-411,613	-200,000	-0,013	0,057
-410,598	282,289	0,008	0,011
-409,584	391,490	0,019	-0,029
-408,569	505,822	-0,047	-0,079
-407,555	-55,515	0,161	0,052
-406,540	194,370	-0,046	0,050
-405,525	554,011	-0,012	-0,020
-404,511	-70,866	0,068	-0,018
-403,496	800,000	0,026	-0,059
-402,482	87,029	0,063	0,050
-401,467	96,654	-0,038	0,031
-400,452	7,749	0,074	0,040
-399,438	594,915	0,005	0,009
-398,423	241,653	-0,123	0,148
-397,409	37,456	0,045	-0,029
-396,394	-54,013	0,112	0,036
-395,379	-50,435	-0,092	-0,031
-394,365	-200,000	-0,012	0,086
-393,350	711,817	-0,050	-0,095
-392,336	-114,479	0,073	0,010
-391,321	-200,000	-0,019	-0,132
-390,306	-6,914	-0,133	-0,065
-389,292	83,249	0,106	0,083
-388,277	-200,000	-0,005	-0,094
-387,263	391,434	0,068	0,102
-386,248	-64,205	0,064	0,019
-385,233	91,168	0,161	0,130
-384,219	1,944	0,016	-0,008
-383,204	-200,000	-0,014	-0,063
-382,190	800,000	-0,061	-0,124
-381,175	800,000	-0,039	0,098
-380,160	68,381	0,124	0,091
-379,146	84,519	0,082	0,065
-378,131	-18,101	-0,045	-0,020
-377,117	-73,085	0,091	0,024
-376,102	664,460	-0,006	0,012
-375,088	19,212	0,018	-0,010
-374,073	5,959	-0,071	0,038
-373,058	800,000	0,026	0,074
-372,044	-20,282	0,109	0,048
-371,029	360,565	-0,039	0,056
-370,015	-135,296	-0,063	-0,005
-369,000	800,000	0,052	-0,134
-367,985	-76,570	-0,116	0,029
-366,971	-122,445	-0,074	-0,009
-365,956	-200,000	0,013	-0,068
-364,942	630,197	0,061	0,111
-363,927	-200,000	0,027	-0,109
-362,912	-28,576	-0,020	0,008
-361,898	101,452	-0,086	0,072
-360,883	103,781	-0,135	-0,114
-359,869	49,426	-0,064	0,043
-358,854	640,354	0,017	0,031
-357,839	-28,318	0,095	0,039
-356,825	197,666	0,049	0,054
-355,810	-52,479	0,077	-0,026
-354,796	-62,239	-0,165	0,049
-353,781	-168,215	-0,132	-0,004
-352,766	-200,000	0,004	0,016
-351,752	361,283	0,021	-0,031
-350,737	275,614	-0,081	0,103
-349,723	-172,014	0,051	0,001
-348,708	-200,000	-0,010	0,067
-347,693	175,840	-0,044	-0,046
-346,679	-108,328	-0,212	-0,033
-345,664	233,593	-0,073	0,086
-344,650	-27,981	0,063	0,026
-343,635	-61,709	-0,074	0,022
-342,620	68,541	0,097	0,071
-341,606	217,550	-0,065	0,074
-340,591	425,745	-0,033	0,052
-339,577	-34,770	0,088	0,034
-338,562	-3,528	-0,142	-0,070
-337,548	-200,000	0,009	-0,108
-336,533	-200,000	0,018	0,062
-335,518	-200,000	-0,017	0,137
-334,504	4,487	0,153	0,080
-333,489	800,000	0,012	0,034
-332,475	546,319	-0,055	-0,095
-331,460	-200,000	-0,022	-0,103
-330,445	-200,000	0,038	-0,197
-329,431	6,200	-0,079	0,042
-328,416	-131,141	0,167	-0,016
-327,402	-200,000	-0,006	0,029
-326,387	-200,000	-0,022	0,115
-325,372	800,000	0,022	-0,045
-324,358	-200,000	-0,007	-0,117
-323,343	503,292	-0,058	0,096
-322,329	800,000	0,014	-0,029
-321,314	-37,629	-0,099	0,037
-320,299	-200,000	0,015	0,072
-319,285	39,572	-0,024	0,016
-318,270	-200,000	-0,002	-0,070
-317,256	800,000	0,015	-0,033
-316,241	53,771	0,064	-0,044
-315,226	35,164	0,050	0,031
-314,212	-89,214	-0,081	0,017
-313,197	170,918	0,045	0,047
-312,183	-200,000	0,001	0,047
-311,168	-200,000	-0,013	-0,046
-310,153	30,843	-0,079	-0,049
-309,139	-200,000	0,003	-0,122
-308,124	-200,000	0,031	0,144
-307,110	800,000	0,037	0,106
-306,095	16,864	0,079	0,044
-305,080	221,721	-0,044	0,051
-304,066	-200,000	-0,008	0,069
-303,051	132,385	-0,036	0,033
-302,037	203,619	-0,159	0,176
-301,022	-167,953	0,016	-0,000
-300,008	-200,000	-0,014	0,078
-298,993	-35,222	-0,111	0,043
-297,978	133,554	0,086	-0,079
-296,964	146,914	0,048	0,046
-295,949	51,865	0,055	-0,037
-294,935	-200,000	-0,011	-0,118
-293,920	84,074	-0,048	-0,038
-292,905	800,000	-0,004	0,010
-291,891	121,075	-0,103	0,092
-290,876	466,535	0,062	-0,100
-289,862	-200,000	0,002	-0,060
-288,847	-162,377	-0,142	0,005
-287,832	175,618	-0,034	0,035
-286,818	-133,330	0,065	0,006
-285,803	70,016	0,079	0,059
-284,789	503,525	0,094	0,156
-283,774	164,093	0,027	-0,028
-282,759	800,000	-0,012	0,024
-281,745	-68,810	-0,147	0,040
-280,730	151,130	-0,046	-0,044
-279,716	800,000	-0,034	0,068
-278,701	244,167	0,060	0,073
-277,686	-200,000	0,006	0,127
-276,672	-106,207	0,058	0,009
-275,657	800,000	0,065	-0,173
-274,643	-200,000	-0,000	-0,128
-273,628	38,996	0,101	0,064
-272,613	-200,000	-0,023	0,098
-271,599	-27,477	0,027	0,011
-270,584	628,250	-0,067	0,121
-269,570	191,578	0,089	0,095
-268,555	-200,000	0,004	0,126
-267,540	-63,836	-0,064	-0,019
-266,526	-200,000	0,018	0,104
-265,511	-200,000	0,001	0,080
-264,497	-168,344	-0,047	0,001
-263,482	-200,000	0,016	0,052
-262,467	-53,774	0,097	-0,031
-261,453	-200,000	0,011	0,059
-260,438	101,783	-0,028	0,024
-259,424	-200,000	-0,016	0,084
-258,409	105,395	-0,054	-0,046
-257,395	147,966	0,049	0,047
-256,380	-179,893	-0,030	-0,000
-255,365	-14,866	0,061	0,028
-254,351	116,340	-0,110	0,096
-253,336	-21,636	-0,155	-0,067
-252,322	-69,968	-0,155	0,042
-251,307	172,006	0,110	0,113
-250,292	-200,000	0,015	-0,051
-249,278	238,464	0,042	-0,050
-248,263	-156,161	-0,057	-0,003
-247,249	-165,713	0,035	0,001
-246,234	800,000	0,036	0,085
-245,219	50,279	-0,067	-0,045
-244,205	-37,936	0,071	0,027
-243,190	91,740	-0,078	0,062
-242,176	-200,000	0,004	-0,146
-241,161	27,276	0,196	-0,117
-240,146	205,381	-0,019	-0,021
-239,132	-144,076	-0,177	0,012
-238,117	800,000	-0,026	-0,077
-237,103	800,000	-0,058	0,123
-236,088	-98,379	-0,071	0,013
-235,073	57,193	0,048	0,034
-234,059	-153,180	0,036	-0,002
-233,044	800,000	0,013	0,036
-232,030	-118,992	0,068	0,008
-231,015	-33,584	0,093	0,036
-230,000	-51,847	-0,023	0,008
-228,986	152,110	-0,066	0,065
-227,971	-31,406	0,129	-0,052
-226,957	-200,000	0,017	0,115
-225,942	800,000	0,046	0,108
-224,927	-200,000	0,016	-0,112
-223,913	773,320	-0,004	-0,008
-222,898	31,859	0,056	-0,034
-221,884	-53,147	-0,094	-0,030
-220,869	435,829	0,106	0,165
-219,855	507,410	0,033	-0,054
-218,840	-200,000	0,036	0,153
-217,825	800,000	0,047	0,102
-216,811	280,702	-0,030	-0,038
-215,796	-200,000	0,007	-0,048
-214,782	-142,750	-0,044	-0,003
-213,767	-179,282	0,057	-0,001
-212,752	-20,108	0,153	0,067
-211,738	-17,873	0,201	0,089
-210,723	-200,000	0,038	-0,125
-209,709	-200,000	-0,022	-0,085
-208,694	-200,000	-0,006	-0,041
-207,679	-200,000	0,009	-0,093
-206,665	-200,000	0,001	-0,025
-205,650	-64,097	0,093	0,027
-204,636	63,546	-0,111	0,079
-203,621	-70,426	-0,034	0,009
-202,606	800,000	-0,005	-0,015
-201,592	235,807	0,107	-0,126
-200,577	60,865	0,077	-0,054
-199,563	13,959	0,051	-0,028
-198,548	800,000	-0,035	0,094
-197,533	-56,851	0,184	0,058
-196,519	786,976	-0,027	0,053
-195,504	-102,023	0,013	-0,002
-194,490	-200,000	0,026	-0,092
-193,475	355,656	-0,022	0,031
-192,460	514,231	0,073	0,122
-191,446	580,863	0,027	-0,047
-190,431	-83,134	0,074	0,017
-189,417	201,242	0,106	0,116
-188,402	361,013	0,053	0,076
-187,387	371,773	0,037	-0,054
-186,373	-200,000	-0,009	-0,036
-185,358	46,767	0,080	0,053
-184,344	-68,359	0,127	0,035
-183,329	-200,000	-0,029	-0,113
-182,315	-200,000	0,000	-0,134
-181,300	-59,654	0,134	-0,041
-180,285	62,367	0,024	0,017
-179,271	-200,000	0,040	-0,184
-178,256	-200,000	0,022	-0,084
-177,242	-39,292	0,061	0,023
-176,227	800,000	-0,048	-0,137
-175,212	-119,221	0,054	-0,007
-174,198	-141,775	-0,085	-0,006
-173,183	800,000	-0,007	-0,015
-172,169	-23,239	-0,033	0,014
-171,154	-200,000	-0,003	-0,045
-170,139	-177,781	-0,147	0,002
-169,125	-124,723	-0,058	0,006
-168,110	-73,710	-0,145	0,037
-167,096	800,000	0,053	0,106
-166,081	-15,897	0,065	0,029
-165,066	-57,797	0,056	0,017
-164,052	501,568	0,057	-0,095
-163,037	-121,416	0,063	-0,007
-162,023	800,000	0,033	0,089
-161,008	196,855	0,075	-0,081
-159,993	800,000	-0,030	0,093
-158,979	-156,760	-0,113	-0,005
-157,964	-118,994	-0,037	-0,005
-156,950	800,000	-0,011	0,028
-155,935	-62,214	-0,120	-0,035
-154,920	800,000	-0,022	-0,048
-153,906	-200,000	-0,002	-0,065
-152,891	800,000	0,030	-0,072
-151,877	800,000	-0,039	-0,091
-150,862	-29,368	-0,067	0,027
-149,847	-200,000	-0,056	0,209
-148,833	96,870	0,107	0,087
-147,818	218,942	0,065	0,074
-146,804	-102,915	0,071	0,012
-145,789	1,870	0,128	0,065
-144,775	46,361	-0,163	-0,108
-143,760	800,000	-0,024	0,070
-142,745	-42,471	0,029	-0,010
-141,731	204,185	-0,091	0,100
-140,716	-175,671	-0,039	0,001
-139,702	-200,000	0,017	0,065
-138,687	-200,000	0,025	0,098
-137,672	800,000	0,022	-0,051
-136,658	-200,000	0,018	-0,056
-135,643	-23,744	-0,044	0,018
-134,629	142,074	0,129	0,121
-133,614	124,437	0,006	0,006
-132,599	-137,772	0,141	0,011
-131,585	-23,666	-0,060	0,025
-130,570	395,648	-0,034	0,051
-129,556	-200,000	0,028	0,101
-128,541	-200,000	0,005	-0,124
-127,526	-200,000	0,003	0,011
-126,512	20,150	-0,087	-0,050
-125,497	261,986	0,119	0,147
-124,483	-76,991	-0,066	0,016
-123,468	-141,710	-0,146	0,010
-122,453	474,346	-0,062	-0,100
-121,439	90,722	-0,025	0,020
-120,424	-52,935	-0,035	0,011
-119,410	-200,000	0,013	0,104
-118,395	-200,000	0,009	0,194
-117,380	-172,866	0,059	0,001
-116,366	-200,000	-0,039	0,126
-115,351	-56,250	-0,175	-0,055
-114,337	-45,682	0,063	0,022
-113,322	156,775	0,061	0,060
-112,307	108,732	-0,116	0,098
-111,293	4,098	0,108	-0,056
-110,278	-200,000	0,032	0,181
-109,264	-104,876	-0,013	0,002
-108,249	-62,409	-0,041	-0,012
-107,234	-200,000	-0,027	0,104
-106,220	-200,000	0,013	-0,065
-105,205	-102,384	0,165	0,028
-104,191	534,270	-0,049	0,083
-103,176	-9,578	-0,010	0,005
-102,162	-127,286	0,087	0,009
-101,147	195,237	0,064	-0,069
-100,132	613,856	-0,070	-0,125
-99,118	35,404	-0,131	-0,082
-98,103	800,000	0,015	-0,045
-97,089	-33,685	-0,062	0,024
-96,074	800,000	-0,037	0,115
-95,059	-200,000	0,000	-0,017
-94,045	773,869	0,046	0,089
-93,030	303,201	-0,047	-0,061
-92,016	72,229	0,167	-0,123
-91,001	-200,000	0,009	0,053
-89,986	17,932	0,157	0,089
-88,972	800,000	0,040	0,084
-87,957	-200,000	0,002	-0,041
-86,943	-200,000	0,002	-0,181
-85,928	309,486	0,036	-0,047
-84,913	800,000	0,051	-0,106
-83,899	-200,000	0,011	-0,122
-82,884	7,936	0,070	-0,037
-81,870	800,000	-0,062	-0,173
-80,855	31,364	-0,021	0,013
-79,840	-78,411	-0,111	-0,027
-78,826	349,993	-0,021	-0,030
-77,811	-36,474	-0,057	-0,022
-76,797	800,000	-0,032	0,088
-75,782	425,474	0,025	-0,038
-74,767	-56,632	0,166	0,052
-73,753	-46,209	-0,124	-0,043
-72,738	-49,446	-0,083	-0,028
-71,724	-200,000	-0,002	-0,010
-70,709	-200,000	0,010	0,100
-69,694	800,000	-0,015	-0,037
-68,680	-46,496	0,075	0,026
-67,665	280,666	0,050	0,063
-66,651	800,000	-0,017	-0,036
-65,636	-25,186	-0,041	0,017
-64,622	222,797	0,059	-0,067
-63,607	36,317	-0,102	-0,063
-62,592	19,135	0,127	-0,072
-61,578	-200,000	0,021	0,177
-60,563	60,191	0,087	0,061
-59,549	-200,000	0,001	0,061
-58,534	-76,763	-1,506	-0,371
-57,519	379,483	-1,437	-2,093
-56,505	-200,000	-0,640	-4,444
-55,490	182,347	0,979	1,024
-54,476	800,000	4,543	10,819
-53,461	-200,000	17,730	285,466
-52,446	800,000	722,309	2234,018
-51,432	563,768	1637,065	2820,494
-50,417	80,772	1660,806	1267,794
-49,403	23,521	1534,580	892,262
-48,388	17,514	1457,615	818,516
-47,373	18,086	1447,555	815,578
-46,359	17,607	1438,262	808,029
-45,344	15,732	1433,361	796,316
-44,330	15,602	1431,584	794,683
-43,315	15,646	1429,927	793,941
-42,300	15,694	1428,106	793,122
-41,286	15,731	1426,966	792,636
-40,271	15,676	1425,765	791,676
-39,257	15,687	1424,456	790,969
-38,242	15,713	1423,030	790,271
-37,227	15,765	1421,852	789,830
-36,213	15,706	1420,672	788,865
-35,198	15,741	1419,387	788,285
-34,184	15,779	1418,322	787,839
-33,169	15,627	1417,450	786,610
-32,154	15,729	1416,222	786,378
-31,140	15,759	1414,883	785,743
-30,125	15,793	1413,588	785,152
-29,111	15,743	1412,619	784,350
-28,096	15,714	1411,448	783,532
-27,082	15,638	1410,536	782,638
-26,067	15,639	1409,242	781,893
-25,052	15,627	1408,439	781,361
-24,038	15,641	1407,353	780,794
-23,023	15,658	1406,231	780,219
-22,009	15,610	1405,211	779,399
-20,994	15,599	1404,490	778,917
-19,979	15,628	1403,350	778,387
-18,965	15,589	1402,244	777,560
-17,950	15,554	1401,507	776,960
-16,936	15,573	1400,526	776,474
-15,921	15,552	1399,295	775,662
-14,906	15,505	1398,589	775,019
-13,892	15,515	1397,668	774,525
-12,877	15,554	1396,582	774,076
-11,863	15,574	1395,530	773,554
-10,848	15,561	1394,818	773,066
-9,833	15,537	1393,761	772,338
-8,819	15,480	1392,870	771,550
-7,804	15,482	1392,116	771,112
-6,790	15,466	1390,975	770,376
-5,775	15,443	1389,963	769,678
-4,760	15,452	1389,054	769,188
-3,746	15,454	1388,226	768,710
-2,731	15,430	1387,692	768,268
-1,717	15,411	1386,587	767,541
-0,702	15,468	1384,804	766,787
0,313	19,191	1305,063	739,842
1,327	35,478	707,186	438,669
2,342	54,159	125,062	85,071
3,356	3,822	16,589	8,552
4,371	12,850	3,131	1,709
5,386	-83,597	0,501	0,112
6,400	800,000	0,042	0,116
7,415	56,876	-0,246	-0,169
8,429	21,046	-0,191	-0,109
9,444	72,634	-0,308	-0,227
10,459	126,162	-0,303	-0,271
11,473	26,941	-0,273	-0,162
12,488	41,474	-0,290	-0,185
13,502	-40,808	-0,328	-0,119
14,517	151,900	-0,223	-0,215
15,531	65,582	-0,339	-0,242
16,546	30,576	-0,409	-0,247
17,561	1,668	-0,504	-0,256
18,575	424,743	-0,160	-0,245
19,590	575,925	-0,107	-0,186
20,604	-77,580	-0,282	-0,068
21,619	202,852	-0,370	-0,405
22,634	173,537	-0,360	-0,368
23,648	73,866	-0,402	-0,298
24,663	86,782	-0,432	-0,337
25,677	180,662	-0,379	-0,394
26,692	321,445	-0,286	-0,385
27,707	135,432	-0,356	-0,327
28,721	90,407	-0,379	-0,300
29,736	42,436	-0,335	-0,215
30,750	73,166	-0,423	-0,312
31,765	50,305	-0,433	-0,288
32,780	171,032	-0,274	-0,277
33,794	-35,362	-0,497	-0,190
34,809	36,504	-0,366	-0,228
35,823	139,350	-0,296	-0,275
36,838	29,831	-0,331	-0,199
37,853	45,117	-0,550	-0,357
38,867	70,127	-0,449	-0,327
39,882	140,655	-0,276	-0,257
40,896	75,712	-0,419	-0,312
41,911	215,295	-0,344	-0,386
42,926	6,175	-0,435	-0,227
43,940	50,864	-0,258	-0,172
44,955	-40,648	-0,349	-0,127
45,969	271,670	-0,363	-0,452
46,984	118,780	-0,390	-0,340
47,999	65,911	-0,286	-0,204
49,013	-17,942	-0,339	-0,149
50,028	74,854	-0,363	-0,269
51,042	1,746	-0,431	-0,218
52,057	-24,722	-0,389	-0,162
53,071	124,270	-0,260	-0,231
54,086	76,215	-0,403	-0,300
55,101	140,735	-0,292	-0,272
56,115	23,345	-0,411	-0,237
57,130	174,784	-0,200	-0,204
58,144	7,840	-0,315	-0,166
59,159	-8,764	-0,474	-0,223
60,174	81,664	-0,297	-0,227
61,188	22,564	-0,349	-0,201
62,203	159,211	-0,288	-0,282
63,217	69,500	-0,378	-0,274
64,232	181,431	-0,395	-0,410
65,247	100,814	-0,330	-0,270
66,261	15,395	-0,366	-0,202
67,276	393,659	-0,274	-0,403
68,290	-14,420	-0,246	-0,111
69,305	-7,358	-0,380	-0,180
70,320	34,463	-0,269	-0,165
71,334	-49,953	-0,260	-0,086
72,349	-74,528	-0,314	-0,079
73,363	-25,426	-0,397	-0,165
74,378	246,758	-0,270	-0,321
75,393	250,467	-0,237	-0,284
76,407	209,985	-0,219	-0,242
77,422	47,633	-0,363	-0,238
78,436	141,670	-0,331	-0,308
79,451	-29,067	-0,310	-0,125
80,466	-32,492	-0,356	-0,139
81,480	77,065	-0,332	-0,247
82,495	654,623	-0,160	-0,291
83,509	18,662	-0,176	-0,099
84,524	398,668	-0,096	-0,142
85,539	-16,409	-0,314	-0,139
86,553	83,604	-0,257	-0,197
87,568	37,792	-0,245	-0,153
88,582	32,895	-0,378	-0,230
89,597	66,434	-0,180	-0,128
90,611	200,508	-0,217	-0,234
91,626	44,224	-0,297	-0,191
92,641	23,799	-0,303	-0,175
93,655	40,886	-0,347	-0,220
94,670	52,557	-0,447	-0,299
95,684	24,519	-0,272	-0,158
96,699	-14,965	-0,385	-0,172
97,714	-10,113	-0,377	-0,175
98,728	82,907	-0,226	-0,173
99,743	-13,960	-0,212	-0,096
100,757	-10,759	-0,215	-0,099
101,772	100,877	-0,217	-0,177
102,787	36,962	-0,445	-0,276
103,801	84,163	-0,163	-0,125
104,816	-56,752	-0,296	-0,091
105,830	74,633	-0,325	-0,240
106,845	222,922	-0,266	-0,301
107,860	43,905	-0,362	-0,232
108,874	-27,773	-0,335	-0,136
109,889	65,603	-0,305	-0,216
110,903	103,622	-0,307	-0,252
111,918	59,760	-0,244	-0,169
112,933	162,360	-0,193	-0,190
113,947	225,846	-0,211	-0,241
114,962	326,255	-0,159	-0,214
115,976	37,932	-0,359	-0,223
116,991	-200,000	-0,078	-0,323
118,006	130,671	-0,328	-0,295
119,020	12,795	-0,296	-0,160
120,035	-91,861	-0,231	-0,046
121,049	-148,545	-0,194	-0,011
122,064	19,540	-0,288	-0,162
123,079	102,815	-0,066	-0,054
124,093	300,541	-0,208	-0,269
125,108	199,008	-0,177	-0,190
126,122	178,657	-0,155	-0,159
127,137	67,714	-0,221	-0,158
128,151	193,691	-0,223	-0,237
129,166	26,455	-0,266	-0,156
130,181	13,206	-0,220	-0,119
131,195	81,757	-0,345	-0,261
132,210	288,234	-0,218	-0,277
133,224	100,534	-0,245	-0,199
134,239	51,950	-0,207	-0,138
135,254	181,781	-0,234	-0,241
136,268	-134,057	-0,292	-0,025
137,283	65,332	-0,206	-0,145
138,297	-4,317	-0,320	-0,154
139,312	111,714	-0,310	-0,262
140,327	11,759	-0,333	-0,178
141,341	-1,063	-0,281	-0,138
142,356	-47,417	-0,152	-0,052
143,370	129,063	-0,142	-0,127
144,385	162,628	-0,214	-0,210
145,400	12,797	-0,265	-0,143
146,414	800,000	-0,176	-0,347
147,429	294,936	-0,225	-0,288
148,443	-117,544	-0,243	-0,030
149,458	155,901	-0,171	-0,165
150,473	5,072	-0,201	-0,103
151,487	297,915	-0,182	-0,234
152,502	67,432	-0,217	-0,154
153,516	120,169	-0,212	-0,184
154,531	-17,062	-0,153	-0,067
155,546	104,933	-0,285	-0,234
156,560	123,882	-0,250	-0,219
157,575	30,512	-0,199	-0,119
158,589	20,800	-0,197	-0,111
159,604	126,162	-0,134	-0,118
160,619	42,788	-0,418	-0,265
161,633	122,626	-0,201	-0,176
162,648	3,224	-0,323	-0,163
163,662	-192,185	-0,197	0,001
164,677	26,676	-0,259	-0,151
165,692	56,584	-0,224	-0,152
166,706	103,012	-0,350	-0,286
167,721	19,358	-0,350	-0,196
168,735	115,484	-0,313	-0,267
169,750	94,001	-0,331	-0,262
170,764	-139,637	-0,105	-0,008
171,779	-57,555	-0,328	-0,100
172,794	213,374	-0,195	-0,215
173,808	-148,711	-0,248	0,014
174,823	-118,949	-0,194	0,023
175,837	131,054	-0,193	-0,173
176,852	-74,242	-0,286	-0,072
177,867	10,322	-0,152	-0,080
178,881	422,995	-0,117	-0,176
179,896	242,078	-0,166	-0,194
180,910	-41,700	-0,193	-0,069
181,925	118,587	-0,211	-0,182
182,940	88,543	-0,163	-0,126
183,954	87,745	-0,217	-0,168
184,969	800,000	-0,054	-0,108
185,983	22,445	-0,151	-0,086
186,998	-14,635	-0,294	-0,131
188,013	68,833	-0,152	-0,108
189,027	149,824	-0,204	-0,192
190,042	295,318	-0,121	-0,154
191,056	60,165	-0,253	-0,174
192,071	-7,021	-0,174	-0,082
193,086	45,741	-0,154	-0,099
194,100	263,665	-0,145	-0,175
195,115	-64,746	-0,207	-0,058
196,129	471,627	-0,143	-0,225
197,144	-126,854	-0,264	0,027
198,159	-77,325	-0,249	-0,060
199,173	185,692	-0,195	-0,202
200,188	112,850	-0,131	-0,111
201,202	532,306	-0,100	-0,165
202,217	73,044	-0,211	-0,153
203,232	61,782	-0,193	-0,134
204,246	368,788	-0,135	-0,190
205,261	88,547	-0,243	-0,188
206,275	29,392	-0,247	-0,145
207,290	37,776	-0,212	-0,130
208,304	-99,924	-0,099	-0,017
209,319	49,606	-0,191	-0,125
210,334	-62,794	-0,222	-0,063
211,348	475,366	-0,179	-0,281
212,363	557,538	-0,163	-0,274
213,377	256,884	-0,194	-0,232
214,392	800,000	-0,073	-0,189
215,407	800,000	-0,100	-0,200
216,421	191,281	-0,267	-0,279
217,436	140,942	-0,244	-0,224
218,450	112,549	-0,156	-0,131
219,465	46,538	-0,268	-0,172
220,480	214,621	-0,179	-0,197
221,494	404,882	-0,167	-0,246
222,509	-152,112	-0,181	-0,009
223,523	385,574	-0,087	-0,125
224,538	17,299	-0,211	-0,116
225,553	344,572	-0,134	-0,183
226,567	128,598	-0,178	-0,158
227,582	-103,565	-0,092	0,015
228,596	-104,978	-0,185	-0,029
229,611	206,450	-0,062	-0,068
230,626	-81,088	-0,195	-0,044
231,640	118,204	-0,214	-0,183
232,655	274,787	-0,108	-0,133
233,669	27,722	-0,215	-0,125
234,684	233,040	-0,148	-0,169
235,699	800,000	-0,083	-0,214
236,713	159,041	-0,159	-0,153
237,728	74,710	-0,228	-0,167
238,742	-169,148	-0,151	-0,004
239,757	-200,000	-0,073	-0,310
240,772	22,654	-0,277	-0,157
241,786	155,152	-0,194	-0,185
242,801	47,368	-0,282	-0,182
243,815	243,183	-0,096	-0,112
244,830	422,662	-0,078	-0,117
245,844	-26,993	-0,268	-0,108
246,859	-26,199	-0,152	-0,062
247,874	-2,045	-0,275	-0,134
248,888	245,716	-0,181	-0,211
249,903	480,899	-0,131	-0,206
250,917	10,292	-0,111	-0,058
251,932	59,919	-0,162	-0,111
252,947	242,725	-0,089	-0,104
253,961	-200,000	-0,050	-0,205
254,976	124,689	-0,275	-0,240
255,990	107,071	-0,212	-0,174
257,005	153,325	-0,166	-0,157
258,020	-137,504	-0,055	-0,004
259,034	-200,000	-0,061	-0,216
260,049	249,552	-0,129	-0,152
261,063	249,315	-0,240	-0,282
262,078	-78,091	-0,250	-0,059
263,093	345,956	-0,170	-0,231
264,107	-200,000	-0,038	-0,161
265,122	15,330	-0,247	-0,134
266,136	-151,196	-0,205	0,010
267,151	-1,096	-0,281	-0,137
268,166	6,588	-0,280	-0,143
269,180	501,573	-0,144	-0,231
270,195	211,144	-0,186	-0,203
271,209	-5,893	-0,254	-0,120
272,224	162,779	-0,100	-0,098
273,239	-26,127	-0,121	-0,049
274,253	330,015	-0,170	-0,227
275,268	-19,337	-0,164	0,070
276,282	-72,595	-0,309	-0,078
277,297	-55,062	-0,115	-0,036
278,312	201,153	-0,211	-0,224
279,326	515,214	-0,067	-0,109
280,341	-12,641	-0,154	-0,069
281,355	526,458	-0,078	-0,127
282,370	-139,322	-0,154	-0,011
283,384	-25,530	-0,121	0,049
284,399	-200,000	-0,071	-0,241
285,414	317,056	-0,125	-0,164
286,428	340,208	-0,075	-0,102
287,443	285,968	-0,108	-0,135
288,457	800,000	-0,050	-0,107
289,472	60,832	-0,258	-0,177
290,487	-76,125	-0,240	-0,058
291,501	415,339	-0,228	-0,337
292,516	285,220	-0,158	-0,197
293,530	181,338	-0,151	-0,153
294,545	-96,186	-0,093	-0,017
295,560	-128,643	-0,150	0,014
296,574	-61,580	-0,205	-0,059
297,589	-40,974	-0,042	0,015
298,603	65,480	-0,199	-0,139
299,618	106,990	-0,112	-0,092
300,633	-14,659	-0,253	-0,112
301,647	19,046	-0,096	-0,053
302,662	104,090	-0,153	-0,124
303,676	343,272	-0,040	-0,054
304,691	-54,758	-0,219	-0,068
305,706	-200,000	-0,057	-0,227
306,720	94,378	-0,178	-0,140
307,735	-69,156	-0,127	-0,034
308,749	195,649	-0,071	0,074
309,764	179,152	-0,091	-0,092
310,779	-200,000	-0,019	-0,072
311,793	360,655	-0,118	-0,163
312,808	206,413	-0,110	-0,118
313,822	247,477	-0,098	-0,115
314,837	256,612	-0,093	-0,111
315,852	124,014	-0,086	-0,075
316,866	-166,374	-0,213	0,006
317,881	37,005	-0,105	-0,064
318,895	150,872	-0,170	-0,160
319,910	-3,895	-0,146	0,070
320,925	269,111	-0,074	-0,089
321,939	-13,227	-0,173	-0,077
322,954	264,975	-0,108	-0,130
323,968	-88,579	-0,124	-0,025
324,983	-46,387	-0,244	-0,082
325,997	38,661	-0,082	-0,050
327,012	-104,652	-0,157	0,025
328,027	-71,231	-0,262	-0,067
329,041	302,058	-0,098	-0,125
330,056	-200,000	0,013	-0,057
331,070	-200,000	0,001	-0,063
332,085	-37,304	-0,115	0,042
333,100	-87,757	-0,187	-0,038
334,114	48,788	-0,142	-0,091
335,129	-51,288	-0,290	-0,093
336,143	800,000	-0,043	-0,099
337,158	155,766	-0,127	-0,121
338,173	800,000	-0,065	-0,141
339,187	173,080	-0,206	0,205
340,202	-60,286	-0,177	0,052
341,216	84,874	-0,103	-0,077
342,231	-200,000	-0,035	-0,188
343,246	159,149	-0,159	-0,152
344,260	59,326	-0,148	-0,100
345,275	273,436	-0,085	-0,103
346,289	445,152	-0,056	0,085
347,304	108,522	-0,188	0,154
348,319	182,324	-0,200	-0,202
349,333	77,620	-0,234	-0,171
350,348	49,031	-0,212	-0,136
351,362	-200,000	0,015	-0,096
352,377	-175,786	-0,187	-0,003
353,392	113,188	-0,173	-0,144
354,406	79,091	-0,133	-0,098
355,421	209,699	1315,543	1417,884
356,435	161,400	1476,406	1418,398
