DTS Sentinel unit serial number:	SN410029Multiplexer serial number:	ORYXHardware model number:	OX2-SRSoftware version number:	ORYX F/W v4,00 Oryx Data Collector v3.7.2.0data status	okinstallation	B3 Nyhavnadifferential loss correction	single-endedforward channel	channel 1reverse channel	N/Adate	2023/12/01time	20:42:30forward acquisition time	300,00reverse acquisition time	0,00gamma	499,1914k internal	0,3197k external	0,3197temperature offset calibration	1,0000default loss term (dB/km)	0,3820temperature slope calibration	1,0000multiplexer offset coefficient	1,0000multiplexer slope coefficient	1,0000fibre end	0,00T internal ref (°C)	15,93T ext. ref 1 (°C)	1,45T ext. ref 2 (°C)	1,43length (m)	temperature (°C)	Stokes	anti-Stokes-744,400	61,969	-0,233	-0,169
-743,385	296,937	0,070	0,094
-742,371	800,000	-0,093	-0,269
-741,356	-200,000	0,010	0,415
-740,342	-26,661	-0,320	-0,136
-739,327	553,572	0,128	0,225
-738,312	187,567	-0,186	-0,202
-737,298	800,000	0,104	0,295
-736,283	-31,122	-0,221	-0,090
-735,269	800,000	0,131	0,274
-734,254	156,672	-0,174	-0,175
-733,239	800,000	-0,107	0,218
-732,225	336,015	-0,163	-0,230
-731,210	23,048	0,099	0,059
-730,196	-83,591	-0,126	-0,029
-729,181	762,227	-0,046	-0,092
-728,167	-59,417	-0,203	-0,063
-727,152	206,008	-0,088	0,100
-726,137	176,856	-0,062	-0,065
-725,123	64,261	-0,025	-0,019
-724,108	79,915	-0,102	-0,079
-723,094	-96,206	-0,108	0,021
-722,079	-22,806	0,037	-0,016
-721,064	800,000	-0,038	-0,113
-720,050	16,551	-0,014	0,008
-719,035	-104,172	-0,064	-0,011
-718,021	259,635	0,055	-0,070
-717,006	253,757	-0,055	-0,069
-715,991	800,000	-0,041	-0,111
-714,977	123,543	-0,058	0,053
-713,962	-42,648	-0,104	-0,038
-712,948	152,370	-0,033	0,033
-711,933	-56,062	0,158	-0,051
-710,918	800,000	-0,063	-0,135
-709,904	800,000	-0,022	-0,051
-708,889	43,068	-0,076	0,051
-707,875	800,000	0,016	0,036
-706,860	-200,000	0,006	-0,045
-705,845	-200,000	-0,004	0,148
-704,831	-149,943	-0,013	0,001
-703,816	592,405	-0,123	0,221
-702,802	23,546	-0,160	0,096
-701,787	68,394	0,021	0,015
-700,772	-152,722	0,107	0,005
-699,758	116,744	-0,123	0,109
-698,743	116,487	0,095	0,085
-697,729	193,829	0,051	0,056
-696,714	-107,954	-0,082	-0,013
-695,699	800,000	-0,071	0,159
-694,685	43,807	0,016	0,011
-693,670	487,751	-0,056	-0,092
-692,656	-128,234	0,037	-0,004
-691,641	-120,642	-0,085	-0,010
-690,627	231,458	-0,055	-0,066
-689,612	252,070	-0,041	0,051
-688,597	-200,000	0,011	-0,088
-687,583	800,000	0,023	-0,054
-686,568	-200,000	0,023	-0,158
-685,554	709,435	-0,065	-0,126
-684,539	-200,000	-0,011	0,054
-683,524	158,408	0,048	0,048
-682,510	-200,000	-0,002	-0,108
-681,495	230,398	-0,049	-0,058
-680,481	800,000	-0,054	-0,124
-679,466	-60,417	-0,082	0,025
-678,451	301,579	-0,073	-0,098
-677,437	-10,286	-0,023	0,011
-676,422	511,972	0,049	0,083
-675,408	260,939	0,055	0,069
-674,393	-169,853	0,019	-0,000
-673,378	-86,833	0,130	-0,029
-672,364	38,663	0,034	-0,022
-671,349	369,308	-0,023	-0,034
-670,335	151,223	-0,058	0,057
-669,320	-116,917	-0,030	0,004
-668,305	-50,270	-0,050	0,017
-667,291	-200,000	-0,041	0,163
-666,276	-146,525	-0,034	-0,002
-665,262	103,327	-0,088	-0,075
-664,247	-200,000	-0,036	-0,130
-663,232	-200,000	0,009	0,051
-662,218	800,000	0,037	0,083
-661,203	92,317	-0,055	-0,045
-660,189	-0,156	-0,010	0,005
-659,174	422,059	0,071	-0,111
-658,159	211,980	0,026	-0,030
-657,145	-200,000	-0,029	-0,108
-656,130	333,055	0,073	0,103
-655,116	99,082	-0,024	-0,020
-654,101	-200,000	0,001	0,019
-653,086	-200,000	-0,000	-0,058
-652,072	-100,664	-0,094	-0,017
-651,057	117,547	-0,102	-0,091
-650,043	575,998	0,034	0,060
-649,028	153,994	-0,048	-0,048
-648,014	500,348	0,024	-0,040
-646,999	587,377	0,083	-0,149
-645,984	90,736	-0,045	0,036
-644,970	-200,000	-0,006	-0,097
-643,955	-200,000	-0,005	-0,088
-642,941	137,692	0,088	-0,084
-641,926	418,171	0,030	0,047
-640,911	-20,868	-0,039	0,017
-639,897	509,864	0,034	-0,058
-638,882	58,060	-0,071	0,050
-637,868	-28,818	0,033	0,014
-636,853	74,144	-0,090	0,069
-635,838	800,000	-0,023	0,058
-634,824	13,614	-0,155	0,087
-633,809	-200,000	-0,018	0,063
-632,795	-200,000	-0,020	-0,076
-631,780	89,774	0,108	0,087
-630,765	158,624	-0,117	-0,118
-629,751	80,511	-0,170	0,132
-628,736	-105,016	0,084	-0,014
-627,722	231,281	-0,039	-0,047
-626,707	103,592	-0,064	0,054
-625,692	-19,825	-0,146	-0,065
-624,678	-200,000	-0,011	-0,088
-623,663	-200,000	0,029	-0,194
-622,649	783,277	-0,069	-0,138
-621,634	-114,459	0,106	0,015
-620,619	-38,051	0,074	0,028
-619,605	-200,000	0,004	0,026
-618,590	-200,000	0,009	0,034
-617,576	-103,036	0,143	0,024
-616,561	72,324	-0,054	0,041
-615,546	-68,151	-0,087	0,024
-614,532	-200,000	-0,003	0,030
-613,517	140,406	-0,105	-0,101
-612,503	614,086	0,081	-0,148
-611,488	-200,000	-0,003	-0,093
-610,474	75,569	-0,013	0,010
-609,459	800,000	-0,020	0,056
-608,444	42,094	0,118	0,077
-607,430	556,149	0,048	0,083
-606,415	162,969	-0,149	-0,152
-605,401	299,993	0,099	-0,132
-604,386	-66,192	0,031	0,009
-603,371	-200,000	-0,000	0,116
-602,357	-200,000	0,010	-0,105
-601,342	-200,000	-0,018	0,081
-600,328	94,341	-0,074	-0,061
-599,313	26,358	0,010	0,006
-598,298	-200,000	0,003	-0,045
-597,284	78,308	0,077	-0,059
-596,269	-200,000	0,023	0,081
-595,255	547,436	-0,044	0,076
-594,240	-172,642	-0,113	-0,003
-593,225	226,068	-0,051	-0,060
-592,211	-57,758	0,032	-0,010
-591,196	117,815	0,072	-0,064
-590,182	181,512	-0,087	-0,092
-589,167	800,000	-0,041	-0,100
-588,152	-145,886	-0,127	-0,008
-587,138	60,474	0,015	-0,011
-586,123	-200,000	0,017	-0,143
-585,109	303,652	-0,074	-0,100
-584,094	-51,027	-0,037	-0,012
-583,079	31,703	0,106	-0,066
-582,065	-71,290	0,133	-0,036
-581,050	-70,708	-0,064	0,017
-580,036	800,000	-0,031	0,087
-579,021	46,472	-0,060	0,040
-578,006	25,189	-0,135	-0,081
-576,992	-200,000	-0,006	0,063
-575,977	-65,495	0,015	-0,004
-574,963	-96,187	-0,067	0,013
-573,948	32,084	0,045	-0,028
-572,934	175,555	-0,065	0,068
-571,919	-172,724	-0,135	0,003
-570,904	-47,175	-0,076	-0,027
-569,890	-200,000	0,011	-0,137
-568,875	-67,887	0,125	0,035
-567,861	75,378	-0,025	-0,019
-566,846	-126,644	-0,097	-0,010
-565,831	-56,002	0,069	0,022
-564,817	39,874	-0,091	0,059
-563,802	800,000	-0,079	0,167
-562,788	-200,000	-0,002	-0,098
-561,773	-161,715	0,083	0,003
-560,758	800,000	0,045	0,137
-559,744	-200,000	-0,021	0,147
-558,729	800,000	0,048	0,102
-557,715	800,000	0,027	0,072
-556,700	653,202	0,017	0,031
-555,685	30,974	-0,086	0,053
-554,671	800,000	-0,012	0,035
-553,656	-49,822	-0,073	-0,025
-552,642	515,291	-0,019	-0,032
-551,627	9,414	0,090	0,049
-550,612	-158,356	-0,104	0,004
-549,598	32,790	0,048	0,030
-548,583	312,826	0,074	-0,100
-547,569	-200,000	0,022	0,119
-546,554	96,191	0,028	0,023
-545,539	-200,000	-0,004	-0,034
-544,525	800,000	0,054	-0,112
-543,510	722,891	0,014	-0,026
-542,496	623,213	-0,039	-0,072
-541,481	505,002	-0,030	-0,050
-540,466	48,863	0,068	-0,046
-539,452	-200,000	0,001	-0,085
-538,437	230,088	0,048	-0,057
-537,423	404,518	-0,046	-0,070
-536,408	337,645	0,072	-0,102
-535,393	-23,362	-0,087	-0,037
-534,379	-200,000	0,017	-0,073
-533,364	800,000	0,044	-0,124
-532,350	92,520	-0,010	0,008
-531,335	-82,709	-0,039	-0,009
-530,321	-200,000	-0,014	0,117
-529,306	231,603	0,037	0,044
-528,291	-200,000	-0,009	-0,108
-527,277	-200,000	-0,006	-0,074
-526,262	131,063	-0,056	0,052
-525,248	-2,530	-0,057	-0,029
-524,233	-131,555	0,133	-0,012
-523,218	-200,000	-0,043	0,160
-522,204	-91,945	0,111	-0,023
-521,189	-92,629	0,070	-0,014
-520,175	-95,679	-0,057	-0,011
-519,160	486,841	0,051	0,084
-518,145	80,124	0,046	-0,036
-517,131	800,000	-0,023	0,052
-516,116	171,170	0,036	-0,037
-515,102	-200,000	0,010	-0,074
-514,087	44,668	-0,072	0,047
-513,072	148,339	0,037	-0,036
-512,058	230,288	0,095	-0,113
-511,043	91,566	-0,051	0,041
-510,029	191,023	0,034	0,037
-509,014	-200,000	0,005	0,219
-507,999	104,230	-0,071	0,061
-506,985	-15,426	-0,082	0,037
-505,970	-65,900	0,053	-0,015
-504,956	800,000	-0,041	0,103
-503,941	73,445	-0,059	-0,045
-502,926	-106,087	0,095	-0,015
-501,912	389,578	-0,078	0,117
-500,897	37,425	0,073	0,047
-499,883	149,239	-0,118	-0,115
-498,868	515,778	-0,055	-0,092
-497,853	210,826	-0,077	-0,088
-496,839	551,841	-0,117	-0,204
-495,824	-104,160	0,142	-0,024
-494,810	370,943	0,152	0,223
-493,795	-87,491	0,051	-0,011
-492,781	413,976	0,043	-0,067
-491,766	310,157	0,015	-0,021
-490,751	-110,924	0,023	0,003
-489,737	-18,546	0,025	0,011
-488,722	-200,000	-0,016	0,098
-487,708	800,000	-0,043	0,122
-486,693	139,748	-0,070	0,067
-485,678	800,000	-0,021	-0,043
-484,664	-58,362	0,052	0,016
-483,649	-110,385	0,102	-0,015
-482,635	-92,480	-0,151	-0,030
-481,620	97,858	-0,024	0,020
-480,605	-200,000	0,005	0,226
-479,591	199,012	0,096	-0,106
-478,576	-91,305	0,069	-0,014
-477,562	390,133	-0,063	-0,094
-476,547	-200,000	-0,000	-0,120
-475,532	-135,460	0,032	-0,003
-474,518	-200,000	0,035	0,150
-473,503	175,634	0,047	0,049
-472,489	7,923	0,117	-0,063
-471,474	-200,000	-0,027	-0,137
-470,459	800,000	0,032	-0,076
-469,445	-200,000	0,006	0,020
-468,430	-8,489	-0,091	0,044
-467,416	-200,000	0,001	-0,034
-466,401	409,318	-0,101	0,154
-465,386	374,571	-0,051	-0,075
-464,372	-126,011	0,059	0,006
-463,357	60,061	-0,030	0,021
-462,343	-97,088	-0,026	-0,005
-461,328	-46,062	0,101	0,036
-460,313	375,028	-0,021	0,031
-459,299	165,932	0,076	0,077
-458,284	83,621	0,049	0,038
-457,270	176,835	-0,060	-0,063
-456,255	-200,000	0,002	0,020
-455,241	-23,245	-0,121	0,052
-454,226	-139,715	0,079	-0,006
-453,211	-65,681	-0,124	-0,036
-452,197	78,077	0,081	-0,062
-451,182	107,420	0,071	-0,061
-450,168	-125,895	-0,116	-0,012
-449,153	-200,000	-0,023	-0,100
-448,138	-110,149	-0,219	-0,033
-447,124	588,285	0,037	-0,065
-446,109	203,060	0,111	0,123
-445,095	-110,090	0,094	-0,014
-444,080	178,286	0,070	-0,073
-443,065	559,164	0,028	0,048
-442,051	70,689	-0,080	-0,060
-441,036	-76,042	-0,109	-0,027
-440,022	104,875	-0,112	-0,095
-439,007	190,654	0,122	-0,132
-437,992	800,000	0,063	-0,128
-436,978	-200,000	0,001	0,006
-435,963	-200,000	-0,018	0,081
-434,949	64,506	0,011	-0,008
-433,934	60,527	-0,072	-0,051
-432,919	392,296	0,080	-0,120
-431,905	-80,177	-0,101	0,024
-430,890	800,000	-0,028	0,059
-429,876	432,934	-0,034	-0,053
-428,861	-200,000	0,007	0,041
-427,846	-86,266	-0,086	0,019
-426,832	208,997	-0,069	-0,078
-425,817	800,000	-0,026	-0,078
-424,803	277,411	0,018	0,023
-423,788	491,803	-0,007	0,011
-422,773	176,873	-0,069	0,072
-421,759	-171,073	0,195	-0,005
-420,744	-49,670	0,035	-0,012
-419,730	241,541	0,035	-0,042
-418,715	-75,121	0,047	-0,012
-417,701	-200,000	-0,005	-0,050
-416,686	-43,776	0,081	-0,029
-415,671	202,431	0,067	0,074
-414,657	-200,000	-0,023	-0,141
-413,642	-22,465	0,136	0,059
-412,628	800,000	-0,012	0,036
-411,613	800,000	-0,061	-0,157
-410,598	-73,515	-0,049	0,013
-409,584	33,493	0,128	0,079
-408,569	136,254	0,114	-0,107
-407,555	99,391	-0,058	-0,048
-406,540	-200,000	0,025	0,147
-405,525	-200,000	-0,010	0,124
-404,511	-200,000	0,004	-0,134
-403,496	-200,000	0,004	-0,030
-402,482	-77,263	0,130	0,032
-401,467	-200,000	-0,028	0,114
-400,452	-200,000	0,032	0,153
-399,438	-116,703	0,142	-0,018
-398,423	-153,367	-0,089	0,004
-397,409	-91,570	-0,057	0,012
-396,394	800,000	-0,036	-0,093
-395,379	-200,000	-0,006	0,081
-394,365	-200,000	-0,003	0,137
-393,350	257,223	0,112	0,138
-392,336	-200,000	0,000	0,042
-391,321	-108,052	-0,067	0,010
-390,306	-200,000	-0,028	-0,153
-389,292	74,708	0,129	-0,098
-388,277	99,363	0,003	0,003
-387,263	61,133	0,082	-0,058
-386,248	516,783	0,047	0,079
-385,233	800,000	-0,036	0,077
-384,219	-175,059	0,059	0,001
-383,204	60,512	0,160	0,114
-382,190	39,331	-0,134	-0,086
-381,175	800,000	0,037	-0,075
-380,160	-200,000	0,003	0,079
-379,146	-200,000	-0,022	0,118
-378,131	-149,596	0,021	0,001
-377,117	-200,000	-0,011	0,053
-376,102	800,000	-0,023	-0,056
-375,088	333,751	0,014	-0,019
-374,073	-61,650	0,132	0,040
-373,058	-200,000	0,024	-0,104
-372,044	-111,152	0,067	-0,010
-371,029	-56,616	0,053	0,017
-370,015	361,300	0,086	0,124
-369,000	-200,000	0,020	0,072
-367,985	800,000	-0,069	-0,161
-366,971	-200,000	-0,025	-0,087
-365,956	800,000	-0,031	0,078
-364,942	-200,000	0,008	0,063
-363,927	-200,000	0,010	0,055
-362,912	-200,000	-0,005	0,030
-361,898	-105,092	-0,125	-0,020
-360,883	59,365	0,134	-0,095
-359,869	-200,000	0,003	0,141
-358,854	-28,028	-0,022	-0,009
-357,839	-62,572	0,210	-0,062
-356,825	-200,000	0,044	0,158
-355,810	142,406	0,068	0,065
-354,796	428,709	-0,035	-0,055
-353,781	-81,561	-0,086	0,020
-352,766	-200,000	-0,010	0,033
-351,752	327,656	-0,044	-0,061
-350,737	-200,000	-0,012	0,124
-349,723	-175,540	0,070	-0,001
-348,708	47,252	0,065	-0,043
-347,693	77,503	0,074	-0,056
-346,679	60,027	-0,126	-0,089
-345,664	-54,666	-0,138	-0,044
-344,650	611,706	0,073	-0,131
-343,635	243,624	0,167	0,201
-342,620	-200,000	-0,003	-0,020
-341,606	27,064	0,099	0,059
-340,591	-200,000	0,012	-0,083
-339,577	19,359	-0,130	0,075
-338,562	-152,464	-0,111	-0,006
-337,548	116,235	0,029	0,026
-336,533	800,000	-0,032	-0,077
-335,518	-26,139	0,030	0,013
-334,504	672,922	-0,035	-0,065
-333,489	421,585	0,091	0,141
-332,475	-155,142	0,072	0,003
-331,460	-200,000	-0,005	-0,120
-330,445	-200,000	0,031	-0,157
-329,431	263,226	-0,066	0,082
-328,416	-61,181	0,138	-0,041
-327,402	-6,121	0,028	0,013
-326,387	-129,825	-0,035	-0,003
-325,372	77,149	-0,120	-0,091
-324,358	734,370	-0,020	0,039
-323,343	800,000	-0,010	-0,025
-322,329	266,855	0,033	0,041
-321,314	-113,888	0,107	0,015
-320,299	-143,483	-0,030	0,002
-319,285	-200,000	0,028	-0,122
-318,270	136,078	0,020	0,018
-317,256	800,000	-0,055	0,119
-316,241	-200,000	0,006	-0,107
-315,226	-200,000	-0,003	0,077
-314,212	-200,000	-0,009	0,084
-313,197	-19,580	-0,146	0,065
-312,183	-196,701	0,028	-0,000
-311,168	-200,000	0,020	0,089
-310,153	-171,725	-0,149	0,003
-309,139	222,822	-0,072	0,084
-308,124	305,278	0,034	-0,046
-307,110	519,971	-0,057	0,095
-306,095	-200,000	-0,006	0,142
-305,080	129,642	0,009	-0,008
-304,066	800,000	-0,037	-0,079
-303,051	114,119	-0,035	-0,031
-302,037	800,000	-0,049	-0,113
-301,022	-107,360	-0,084	-0,013
-300,008	-102,167	0,126	0,021
-298,993	152,576	0,093	0,091
-297,978	58,163	0,096	0,067
-296,964	599,337	0,023	-0,041
-295,949	-200,000	-0,036	-0,122
-294,935	320,897	-0,009	-0,013
-293,920	200,006	-0,068	-0,075
-292,905	14,462	0,134	0,074
-291,891	-139,597	0,080	0,006
-290,876	417,226	0,036	0,055
-289,862	208,439	-0,087	-0,098
-288,847	145,720	-0,040	0,038
-287,832	-144,027	-0,240	0,016
-286,818	-74,923	-0,100	-0,026
-285,803	-107,471	0,158	-0,025
-284,789	-102,684	0,127	-0,021
-283,774	-21,226	0,039	0,017
-282,759	-200,000	-0,002	-0,007
-281,745	-101,088	-0,024	-0,004
-280,730	-200,000	-0,015	-0,091
-279,716	29,637	0,115	-0,070
-278,701	-200,000	-0,055	0,192
-277,686	-200,000	-0,003	0,149
-276,672	64,275	0,121	0,087
-275,657	-27,484	0,008	-0,003
-274,643	356,185	-0,076	-0,108
-273,628	-200,000	-0,003	-0,143
-272,613	38,269	-0,033	0,021
-271,599	33,305	0,031	-0,019
-270,584	-22,325	0,082	0,035
-269,570	-200,000	0,001	-0,106
-268,555	624,971	0,045	-0,082
-267,540	-44,865	0,059	-0,021
-266,526	510,822	0,074	-0,123
-265,511	800,000	0,033	-0,100
-264,497	-200,000	-0,001	-0,015
-263,482	-141,149	-0,045	-0,003
-262,467	800,000	-0,033	0,092
-261,453	-131,542	0,056	-0,005
-260,438	199,361	-0,065	0,071
-259,424	223,476	-0,021	-0,024
-258,409	460,917	-0,029	0,047
-257,395	246,058	0,056	-0,067
-256,380	16,646	-0,189	0,107
-255,365	-200,000	0,007	0,117
-254,351	-200,000	0,000	-0,031
-253,336	-125,052	0,053	-0,006
-252,322	-200,000	-0,003	-0,091
-251,307	161,383	0,045	0,045
-250,292	800,000	0,080	-0,161
-249,278	314,645	-0,068	0,092
-248,263	800,000	0,038	0,083
-247,249	324,149	0,041	0,057
-246,234	386,737	0,016	0,024
-245,219	-130,868	-0,056	-0,005
-244,205	23,388	-0,152	-0,089
-243,190	-170,894	0,073	-0,002
-242,176	-200,000	0,013	0,054
-241,161	800,000	-0,012	0,030
-240,146	125,996	-0,098	0,088
-239,132	52,500	0,030	0,020
-238,117	-12,710	-0,029	-0,014
-237,103	107,573	-0,085	-0,072
-236,088	-200,000	0,001	0,013
-235,073	569,717	0,104	0,182
-234,059	180,788	0,170	0,179
-233,044	172,177	0,154	0,158
-232,030	125,359	-0,077	0,069
-231,015	800,000	-0,058	-0,123
-230,000	186,015	0,040	-0,042
-228,986	-83,005	0,127	0,029
-227,971	-107,568	0,035	0,005
-226,957	-200,000	0,020	0,111
-225,942	-200,000	0,011	-0,060
-224,927	75,870	0,094	-0,071
-223,913	235,827	-0,042	-0,049
-222,898	532,639	-0,044	-0,075
-221,884	-88,043	-0,063	-0,013
-220,869	800,000	-0,053	0,107
-219,855	-200,000	0,021	-0,103
-218,840	-135,600	-0,113	0,009
-217,825	800,000	0,021	0,045
-216,811	10,230	-0,046	-0,025
-215,796	-153,661	-0,080	0,004
-214,782	385,011	0,087	-0,129
-213,767	-43,743	-0,143	-0,051
-212,752	109,539	0,026	0,022
-211,738	-94,202	0,131	0,025
-210,723	-67,543	0,012	0,003
-209,709	-1,227	-0,078	-0,039
-208,694	48,527	0,058	0,039
-207,679	66,128	-0,074	-0,054
-206,665	-160,355	0,060	0,002
-205,650	275,887	0,073	0,092
-204,636	247,846	-0,028	0,034
-203,621	21,337	0,066	-0,038
-202,606	-200,000	0,036	-0,135
-201,592	218,801	-0,061	-0,070
-200,577	-200,000	-0,004	-0,053
-199,563	244,976	-0,092	-0,110
-198,548	298,593	-0,020	0,026
-197,533	208,487	-0,079	0,088
-196,519	35,587	0,123	0,077
-195,504	-61,339	0,089	-0,027
-194,490	-200,000	0,001	0,071
-193,475	-113,628	-0,120	0,016
-192,460	-61,244	0,070	-0,021
-191,446	89,602	0,057	-0,045
-190,431	-200,000	0,001	0,145
-189,417	2,709	0,074	0,038
-188,402	29,793	0,087	-0,053
-187,387	-200,000	-0,051	-0,193
-186,373	-85,075	-0,088	-0,019
-185,358	-200,000	0,014	0,046
-184,344	-200,000	-0,034	0,146
-183,329	800,000	0,050	0,146
-182,315	-200,000	0,006	0,054
-181,300	-131,121	-0,151	0,014
-180,285	36,841	-0,103	-0,065
-179,271	800,000	-0,031	-0,063
-178,256	-200,000	-0,005	0,119
-177,242	-200,000	0,019	-0,060
-176,227	-200,000	-0,023	0,128
-175,212	216,245	-0,069	0,079
-174,198	468,407	-0,062	0,100
-173,183	-200,000	-0,034	0,132
-172,169	87,518	-0,085	0,067
-171,154	68,797	-0,076	0,055
-170,139	800,000	-0,042	-0,085
-169,125	-200,000	-0,022	-0,078
-168,110	-87,099	-0,069	-0,015
-167,096	-22,950	0,112	-0,048
-166,081	3,915	-0,018	0,010
-165,066	252,394	-0,016	0,020
-164,052	800,000	0,040	-0,102
-163,037	800,000	0,059	-0,119
-162,023	-200,000	-0,003	0,114
-161,008	-200,000	-0,024	0,095
-159,993	-79,981	0,062	0,015
-158,979	800,000	0,046	0,123
-157,964	16,851	-0,170	-0,096
-156,950	-160,427	-0,206	-0,008
-155,935	800,000	-0,049	0,141
-154,920	188,560	0,110	0,117
-153,906	525,952	-0,047	0,079
-152,891	420,369	0,045	0,069
-151,877	148,698	-0,077	-0,074
-150,862	-44,309	0,126	0,045
-149,847	15,653	0,089	-0,050
-148,833	-135,230	0,116	0,010
-147,818	-113,331	0,145	-0,020
-146,804	4,106	-0,055	-0,028
-145,789	-70,102	0,118	0,032
-144,775	40,526	-0,104	-0,066
-143,760	-200,000	-0,013	-0,211
-142,745	-18,286	-0,122	-0,054
-141,731	100,857	0,085	0,071
-140,716	69,287	0,113	-0,083
-139,702	759,013	0,045	0,088
-138,687	800,000	0,019	0,053
-137,672	-200,000	-0,009	0,079
-136,658	-200,000	0,019	-0,090
-135,643	330,864	-0,020	0,028
-134,629	65,085	0,038	-0,027
-133,614	-130,787	0,115	-0,011
-132,599	-16,028	-0,137	-0,062
-131,585	101,004	0,038	-0,032
-130,570	42,057	-0,117	0,076
-129,556	-3,501	0,079	0,039
-128,541	-147,469	-0,103	0,006
-127,526	733,333	0,069	-0,132
-126,512	-87,674	0,125	0,027
-125,497	-38,950	0,101	0,038
-124,483	187,009	0,032	0,034
-123,468	689,992	0,033	-0,062
-122,453	-13,099	-0,121	-0,056
-121,439	508,107	0,024	0,040
-120,424	-42,391	-0,131	-0,047
-119,410	-106,995	0,042	0,007
-118,395	521,296	0,009	-0,016
-117,380	174,349	-0,050	-0,051
-116,366	488,514	0,060	0,097
-115,351	44,163	-0,099	0,064
-114,337	-57,464	-0,116	-0,036
-113,322	-200,000	-0,001	0,012
-112,307	-61,370	0,011	0,003
-111,293	800,000	-0,041	0,103
-110,278	119,861	0,056	0,049
-109,264	137,711	0,016	0,015
-108,249	-41,514	-0,076	-0,028
-107,234	800,000	-0,049	-0,136
-106,220	800,000	0,009	0,019
-105,205	107,139	-0,069	0,059
-104,191	33,946	-0,039	-0,024
-103,176	-3,617	-0,092	0,045
-102,162	200,982	0,055	0,060
-101,147	-200,000	-0,001	0,040
-100,132	-62,562	-0,190	0,056
-99,118	-85,631	0,016	0,004
-98,103	167,079	-0,062	0,063
-97,089	-200,000	0,020	0,093
-96,074	-114,909	-0,134	0,018
-95,059	-200,000	-0,013	0,124
-94,045	-200,000	0,006	0,066
-93,030	95,017	0,024	-0,019
-92,016	297,402	-0,064	0,084
-91,001	-33,477	-0,053	0,021
-89,986	266,393	-0,045	0,055
-88,972	800,000	0,028	-0,082
-87,957	-200,000	-0,029	0,117
-86,943	800,000	0,039	-0,097
-85,928	800,000	-0,058	-0,166
-84,913	596,153	-0,045	-0,080
-83,899	206,637	-0,077	0,085
-82,884	-171,039	0,038	-0,001
-81,870	800,000	-0,043	-0,088
-80,855	722,348	-0,014	-0,026
-79,840	82,178	0,009	0,007
-78,826	5,320	0,086	0,045
-77,811	-200,000	-0,014	-0,060
-76,797	113,004	-0,062	-0,054
-75,782	3,885	0,041	0,021
-74,767	-200,000	0,009	0,149
-73,753	-59,586	-0,123	0,037
-72,738	137,556	0,050	0,047
-71,724	-1,434	-0,082	-0,041
-70,709	800,000	0,024	-0,067
-69,694	-200,000	0,004	0,067
-68,680	82,076	0,103	0,079
-67,665	-176,704	0,002	0,000
-66,651	800,000	0,016	-0,034
-65,636	-56,389	0,022	0,007
-64,622	800,000	-0,039	0,115
-63,607	-200,000	0,001	-0,065
-62,592	800,000	0,002	0,005
-61,578	693,870	-0,031	-0,058
-60,563	-20,589	0,137	0,059
-59,549	636,640	-0,112	0,202
-58,534	-94,934	-1,444	-0,275
-57,519	307,080	-1,571	-2,080
-56,505	-200,000	-0,457	-4,407
-55,490	16,745	0,975	0,545
-54,476	800,000	4,793	11,389
-53,461	-200,000	17,675	279,938
-52,446	800,000	719,572	2217,156
-51,432	559,954	1634,070	2808,800
-50,417	80,989	1657,868	1267,164
-49,403	23,805	1532,084	892,609
-48,388	17,735	1455,327	818,628
-47,373	18,218	1444,663	814,913
-46,359	17,826	1435,469	807,831
-45,344	16,055	1430,640	796,667
-44,330	15,949	1429,160	795,306
-43,315	15,979	1427,281	794,374
-42,300	15,989	1425,646	793,479
-41,286	16,055	1424,354	793,038
-40,271	16,007	1423,246	792,165
-39,257	16,008	1421,726	791,292
-38,242	16,072	1420,473	790,864
-37,227	16,055	1419,263	790,078
-36,213	16,071	1417,878	789,351
-35,198	16,035	1416,649	788,466
-34,184	16,055	1415,749	788,027
-33,169	15,965	1414,716	787,003
-32,154	16,037	1413,672	786,726
-31,140	16,062	1412,305	786,050
-30,125	16,096	1411,082	785,499
-29,111	16,052	1409,931	784,623
-28,096	16,025	1408,862	783,870
-27,082	15,909	1408,016	782,824
-26,067	15,972	1406,563	782,280
-25,052	15,962	1405,649	781,694
-24,038	15,983	1404,700	781,233
-23,023	15,942	1403,593	780,395
-22,009	15,939	1402,545	779,769
-20,994	15,918	1401,681	779,160
-19,979	15,916	1400,693	778,570
-18,965	15,866	1399,804	777,812
-17,950	15,899	1398,820	777,386
-16,936	15,900	1397,963	776,886
-15,921	15,838	1396,630	775,824
-14,906	15,867	1395,499	775,302
-13,892	15,851	1394,698	774,753
-12,877	15,886	1393,881	774,430
-11,863	15,853	1393,052	773,784
-10,848	15,862	1392,050	773,238
-9,833	15,869	1391,028	772,673
-8,819	15,812	1390,147	771,888
-7,804	15,799	1389,170	771,255
-6,790	15,767	1388,204	770,544
-5,775	15,763	1387,284	769,983
-4,760	15,746	1386,328	769,344
-3,746	15,744	1385,650	768,926
-2,731	15,734	1384,682	768,313
-1,717	15,745	1383,828	767,861
-0,702	15,721	1381,915	766,659
0,313	19,550	1303,055	740,556
1,327	36,031	706,998	440,003
2,342	55,443	125,349	85,811
3,356	3,840	16,537	8,529
4,371	0,245	3,071	1,547
5,386	-25,830	0,531	0,221
6,400	288,228	-0,038	-0,049
7,415	-41,543	-0,286	-0,104
8,429	190,503	-0,217	-0,231
9,444	53,421	-0,352	-0,238
10,459	141,906	-0,274	-0,257
11,473	-71,709	-0,423	-0,111
12,488	-34,427	-0,326	-0,126
13,502	59,926	-0,369	-0,258
14,517	-70,768	-0,301	-0,080
15,531	-27,630	-0,388	-0,159
16,546	173,895	-0,266	-0,272
17,561	130,508	-0,348	-0,316
18,575	97,039	-0,196	-0,159
19,590	19,716	-0,225	-0,128
20,604	465,852	-0,160	-0,254
21,619	38,993	-0,460	-0,290
22,634	142,339	-0,371	-0,349
23,648	169,438	-0,297	-0,300
24,663	75,576	-0,354	-0,264
25,677	80,285	-0,415	-0,316
26,692	-3,118	-0,292	-0,143
27,707	-101,167	-0,439	-0,075
28,721	123,984	-0,367	-0,326
29,736	49,732	-0,381	-0,253
30,750	98,678	-0,425	-0,347
31,765	370,942	-0,250	-0,359
32,780	111,281	-0,366	-0,312
33,794	-44,487	-0,305	-0,107
34,809	-30,862	-0,392	-0,156
35,823	158,693	-0,454	-0,446
36,838	67,121	-0,302	-0,217
37,853	51,044	-0,387	-0,259
38,867	15,201	-0,473	-0,261
39,882	65,097	-0,313	-0,223
40,896	23,946	-0,349	-0,202
41,911	-32,928	-0,319	-0,124
42,926	46,635	-0,266	-0,174
43,940	0,354	-0,368	-0,185
44,955	166,319	-0,391	-0,391
45,969	264,146	-0,291	-0,358
46,984	89,679	-0,292	-0,230
47,999	41,606	-0,306	-0,195
49,013	72,191	-0,380	-0,279
50,028	67,941	-0,349	-0,251
51,042	164,782	-0,392	-0,391
52,057	357,796	-0,206	-0,291
53,071	110,579	-0,462	-0,392
54,086	73,836	-0,311	-0,230
55,101	8,758	-0,252	-0,134
56,115	-13,977	-0,435	-0,197
57,130	38,377	-0,410	-0,257
58,144	44,992	-0,392	-0,254
59,159	17,297	-0,403	-0,225
60,174	54,647	-0,451	-0,306
61,188	2,046	-0,338	-0,171
62,203	92,824	-0,334	-0,265
63,217	-38,369	-0,458	-0,170
64,232	25,099	-0,343	-0,200
65,247	18,169	-0,393	-0,220
66,261	166,377	-0,385	-0,384
67,276	-13,133	-0,485	-0,221
68,290	103,826	-0,297	-0,246
69,305	-6,906	-0,441	-0,210
70,320	125,141	-0,361	-0,321
71,334	83,653	-0,320	-0,245
72,349	111,898	-0,331	-0,282
73,363	-8,485	-0,353	-0,166
74,378	104,562	-0,298	-0,247
75,393	55,811	-0,375	-0,255
76,407	-57,084	-0,284	-0,088
77,422	-106,156	-0,223	-0,035
78,436	81,919	-0,297	-0,226
79,451	134,005	-0,308	-0,281
80,466	64,473	-0,317	-0,225
81,480	-98,234	-0,398	-0,071
82,495	61,579	-0,286	-0,200
83,509	-28,037	-0,294	-0,119
84,524	308,346	-0,171	-0,226
85,539	9,168	-0,299	-0,159
86,553	90,397	-0,244	-0,192
87,568	285,142	-0,258	-0,327
88,582	-12,387	-0,488	-0,223
89,597	-80,199	-0,363	-0,085
90,611	159,155	-0,173	-0,169
91,626	185,838	-0,182	-0,190
92,641	11,923	-0,290	-0,156
93,655	163,997	-0,293	-0,291
94,670	-47,790	-0,251	-0,085
95,684	345,996	-0,256	-0,354
96,699	-91,419	-0,267	-0,053
97,714	-76,563	-0,204	-0,050
98,728	800,000	-0,074	-0,187
99,743	14,374	-0,346	-0,189
100,757	11,957	-0,261	-0,140
101,772	120,628	-0,254	-0,222
102,787	88,943	-0,303	-0,237
103,801	-17,023	-0,411	-0,182
104,816	-12,287	-0,215	-0,098
105,830	57,764	-0,260	-0,178
106,845	225,440	-0,208	-0,237
107,860	-77,714	-0,285	-0,069
108,874	-17,763	-0,304	-0,134
109,889	44,054	-0,319	-0,205
110,903	-48,139	-0,271	-0,091
111,918	-27,623	-0,188	-0,076
112,933	276,311	-0,171	-0,214
113,947	67,346	-0,300	-0,214
114,962	215,616	-0,151	-0,168
115,976	233,180	-0,202	-0,233
116,991	-111,353	-0,341	-0,048
118,006	144,906	-0,312	-0,292
119,020	69,913	-0,243	-0,176
120,035	170,435	-0,243	-0,244
121,049	62,903	-0,251	-0,176
122,064	66,521	-0,294	-0,210
123,079	3,792	-0,225	-0,115
124,093	31,985	-0,407	-0,245
125,108	-38,810	-0,220	-0,081
126,122	-3,123	-0,315	-0,153
127,137	-48,490	-0,324	-0,109
128,151	-50,401	-0,235	-0,077
129,166	-30,333	-0,199	-0,079
130,181	9,318	-0,176	-0,093
131,195	165,651	-0,240	-0,238
132,210	97,967	-0,281	-0,226
133,224	-158,584	-0,260	-0,010
134,239	140,182	-0,224	-0,207
135,254	63,714	-0,209	-0,146
136,268	-20,953	-0,259	-0,110
137,283	-56,431	-0,311	-0,096
138,297	-81,420	-0,267	-0,061
139,312	-72,476	-0,365	-0,094
140,327	-59,621	-0,293	-0,087
141,341	-6,227	-0,246	-0,117
142,356	10,091	-0,356	-0,189
143,370	-72,719	-0,258	-0,066
144,385	359,849	-0,213	-0,299
145,400	-123,149	-0,277	-0,031
146,414	800,000	-0,100	-0,228
147,429	-0,919	-0,297	-0,147
148,443	506,283	-0,153	-0,249
149,458	278,031	-0,225	-0,280
150,473	488,760	-0,222	-0,356
151,487	149,696	-0,194	-0,184
152,502	194,088	-0,157	-0,167
153,516	37,930	-0,252	-0,156
154,531	90,806	-0,303	-0,237
155,546	176,020	-0,208	-0,211
156,560	-15,905	-0,240	-0,106
157,575	39,760	-0,190	-0,119
158,589	130,238	-0,124	-0,111
159,604	-54,674	-0,255	-0,080
160,619	422,162	-0,227	-0,341
161,633	128,534	-0,175	-0,156
162,648	12,152	-0,275	-0,147
163,662	-50,204	-0,147	-0,048
164,677	-41,373	-0,260	-0,093
165,692	44,986	-0,254	-0,163
166,706	2,427	-0,224	-0,113
167,721	127,028	-0,155	-0,138
168,735	48,248	-0,261	-0,170
169,750	-53,879	-0,256	-0,081
170,764	371,076	-0,131	-0,186
171,779	-38,292	-0,296	-0,109
172,794	144,081	-0,228	-0,212
173,808	189,325	-0,240	-0,251
174,823	237,880	-0,235	-0,272
175,837	63,732	-0,232	-0,162
176,852	40,285	-0,186	-0,117
177,867	126,936	-0,147	-0,130
178,881	-0,216	-0,359	-0,178
179,896	-72,374	-0,272	-0,070
180,910	-10,797	-0,228	-0,105
181,925	32,053	-0,166	-0,100
182,940	1,181	-0,305	-0,152
183,954	4,972	-0,230	-0,118
184,969	-58,911	-0,166	-0,050
185,983	-75,598	-0,206	-0,051
186,998	166,319	-0,206	-0,204
188,013	56,603	-0,269	-0,182
189,027	212,715	-0,239	-0,263
190,042	264,676	-0,238	-0,289
191,056	-88,075	-0,148	-0,031
192,071	-57,248	-0,339	-0,103
193,086	125,380	-0,224	-0,197
194,100	130,695	-0,085	-0,076
195,115	423,843	-0,109	-0,164
196,129	65,727	-0,301	-0,212
197,144	605,825	-0,154	-0,268
198,159	-14,938	-0,218	-0,097
199,173	208,896	-0,145	-0,158
200,188	-13,161	-0,169	-0,076
201,202	9,744	-0,151	-0,079
202,217	41,344	-0,276	-0,174
203,232	-2,591	-0,202	-0,098
204,246	514,784	-0,141	-0,230
205,261	45,865	-0,227	-0,146
206,275	-2,002	-0,307	-0,149
207,290	-50,888	-0,147	-0,048
208,304	-180,093	-0,065	0,001
209,319	61,598	-0,200	-0,138
210,334	800,000	-0,121	-0,242
211,348	10,341	-0,230	-0,121
212,363	80,265	-0,211	-0,158
213,377	165,807	-0,108	-0,107
214,392	-65,448	-0,079	0,022
215,407	136,944	-0,145	-0,131
216,421	-81,737	-0,261	-0,059
217,436	-27,276	-0,230	-0,093
218,450	-104,392	-0,237	-0,038
219,465	43,156	-0,270	-0,171
220,480	66,476	-0,274	-0,194
221,494	800,000	-0,041	-0,118
222,509	-70,262	-0,184	-0,048
223,523	96,051	-0,213	-0,169
224,538	183,405	-0,217	-0,223
225,553	141,694	-0,247	-0,227
226,567	9,040	-0,247	-0,129
227,582	14,171	-0,170	-0,092
228,596	67,273	-0,104	-0,074
229,611	313,973	-0,094	-0,123
230,626	161,101	-0,130	-0,126
231,640	87,142	-0,172	-0,132
232,655	222,169	-0,259	-0,289
233,669	323,679	-0,232	-0,308
234,684	194,677	-0,218	-0,230
235,699	337,046	-0,144	-0,194
236,713	376,850	-0,128	-0,182
237,728	262,273	-0,188	-0,226
238,742	131,524	-0,138	-0,123
239,757	93,688	-0,239	-0,188
240,772	-200,000	-0,068	-0,253
241,786	38,445	-0,296	-0,183
242,801	80,436	-0,244	-0,182
243,815	22,058	-0,190	-0,107
244,830	-112,204	-0,192	0,026
245,844	-136,732	-0,130	-0,010
246,859	392,141	-0,149	-0,215
247,874	132,782	-0,297	-0,266
248,888	87,510	-0,228	-0,175
249,903	55,388	-0,195	-0,131
250,917	55,853	-0,107	0,072
251,932	-120,486	-0,146	0,017
252,947	315,524	-0,177	-0,232
253,961	14,851	-0,225	-0,122
254,976	435,716	-0,132	-0,199
255,990	-35,441	-0,215	-0,080
257,005	-38,091	-0,065	0,024
258,020	132,257	-0,092	-0,082
259,034	77,105	-0,163	0,120
260,049	406,721	-0,139	-0,204
261,063	-70,777	-0,182	-0,047
262,078	318,437	-0,137	-0,181
263,093	-99,576	-0,195	-0,034
264,107	800,000	-0,047	-0,136
265,122	800,000	-0,061	-0,139
266,136	-28,498	-0,141	-0,056
267,151	63,790	-0,149	-0,103
268,166	321,909	-0,092	-0,121
269,180	124,274	-0,227	-0,198
270,195	-73,902	-0,361	-0,090
271,209	-125,499	-0,066	-0,007
272,224	180,564	-0,133	-0,135
273,239	-10,055	-0,151	-0,069
274,253	-51,362	-0,272	-0,087
275,268	44,168	-0,187	-0,119
276,282	90,237	-0,263	-0,203
277,297	200,215	-0,230	-0,245
278,312	191,476	-0,173	-0,180
279,326	-1,075	-0,151	-0,074
280,341	69,130	-0,092	-0,065
281,355	170,982	-0,211	-0,209
282,370	40,932	-0,245	-0,152
283,384	356,337	-0,085	-0,117
284,399	12,673	-0,195	-0,104
285,414	361,249	-0,129	-0,179
286,428	-70,069	-0,220	-0,057
287,443	27,988	-0,088	-0,051
288,457	119,587	-0,134	-0,115
289,472	-200,000	0,002	-0,020
290,487	-17,208	-0,139	-0,060
291,501	-105,985	-0,216	0,033
292,516	800,000	-0,048	-0,127
293,530	-73,538	-0,039	-0,010
294,545	-72,479	-0,129	0,033
295,560	116,345	-0,153	-0,130
296,574	-61,454	-0,158	0,045
297,589	-148,312	-0,127	0,007
298,603	-200,000	-0,011	-0,059
299,618	122,743	-0,177	-0,153
300,633	-63,611	-0,145	0,041
301,647	-200,000	0,025	-0,149
302,662	-200,000	-0,025	-0,112
303,676	35,438	-0,101	-0,061
304,691	543,921	-0,111	-0,183
305,706	89,582	-0,185	-0,142
306,720	76,238	-0,171	-0,125
307,735	-69,093	-0,161	-0,042
308,749	210,467	-0,081	0,088
309,764	486,954	-0,039	0,061
310,779	-66,392	-0,071	-0,019
311,793	236,835	-0,128	-0,146
312,808	445,036	-0,118	-0,179
313,822	504,419	-0,156	-0,250
314,837	21,224	-0,087	0,048
315,852	73,128	-0,169	-0,122
316,866	117,948	-0,087	-0,074
317,881	-158,078	0,031	-0,001
318,895	241,968	-0,080	-0,092
319,910	569,661	-0,110	-0,185
320,925	203,122	-0,104	-0,111
321,939	194,039	-0,236	-0,246
322,954	800,000	0,017	-0,046
323,968	-118,447	-0,121	-0,015
324,983	37,073	-0,238	-0,145
325,997	21,593	-0,203	-0,113
327,012	-6,240	-0,214	-0,100
328,027	244,985	-0,108	-0,125
329,041	97,877	-0,133	-0,105
330,056	370,823	-0,058	-0,081
331,070	625,636	-0,124	-0,216
332,085	529,720	-0,064	-0,105
333,100	268,331	-0,028	0,034
334,114	110,835	-0,159	-0,132
335,129	-78,043	-0,186	0,044
336,143	13,300	-0,189	-0,101
337,158	-7,417	-0,061	-0,028
338,173	-52,435	-0,112	0,035
339,187	332,811	-0,136	-0,182
340,202	-144,789	-0,218	0,014
341,216	-200,000	-0,055	-0,174
342,231	1,001	-0,219	-0,107
343,246	-142,756	-0,133	-0,009
344,260	38,215	-0,195	-0,119
345,275	396,703	-0,016	-0,023
346,289	136,398	-0,148	-0,133
347,304	28,399	-0,149	-0,086
348,319	18,240	-0,168	-0,092
349,333	106,842	-0,166	-0,135
350,348	113,563	-0,168	-0,140
351,362	-34,827	-0,156	-0,058
352,377	127,033	-0,074	-0,065
353,392	83,238	-0,106	-0,079
354,406	-31,451	-0,157	-0,060
355,421	208,803	1313,637	1413,686
356,435	160,677	1474,275	1414,216
