DTS Sentinel unit serial number:	SN410029Multiplexer serial number:	ORYXHardware model number:	OX2-SRSoftware version number:	ORYX F/W v4,00 Oryx Data Collector v3.7.2.0data status	okinstallation	B3 Nyhavnadifferential loss correction	single-endedforward channel	channel 1reverse channel	N/Adate	2023/12/02time	21:52:30forward acquisition time	300,00reverse acquisition time	0,00gamma	499,1914k internal	0,3201k external	0,3201temperature offset calibration	1,0000default loss term (dB/km)	0,3820temperature slope calibration	1,0000multiplexer offset coefficient	1,0000multiplexer slope coefficient	1,0000fibre end	0,00T internal ref (°C)	13,22T ext. ref 1 (°C)	-1,86T ext. ref 2 (°C)	-1,87length (m)	temperature (°C)	Stokes	anti-Stokes-744,400	263,937	-0,262	-0,332
-743,385	-200,000	-0,013	0,280
-742,371	-31,047	-0,219	-0,090
-741,356	614,261	-0,137	0,251
-740,342	538,837	-0,187	-0,325
-739,327	800,000	-0,100	0,259
-738,312	74,262	-0,188	-0,143
-737,298	437,923	-0,122	0,193
-736,283	156,991	-0,148	-0,149
-735,269	-200,000	0,014	0,403
-734,254	157,286	-0,197	-0,199
-733,239	-90,810	-0,203	0,042
-732,225	-200,000	0,005	-0,109
-731,210	800,000	0,081	0,191
-730,196	-121,401	-0,048	0,006
-729,181	130,881	-0,069	0,064
-728,167	-91,742	-0,053	0,011
-727,152	800,000	0,029	0,065
-726,137	-82,744	-0,101	-0,024
-725,123	253,212	-0,123	-0,152
-724,108	-6,453	-0,037	-0,018
-723,094	-90,150	-0,157	0,033
-722,079	795,373	-0,039	0,078
-721,064	136,282	-0,112	-0,106
-720,050	-200,000	0,025	0,111
-719,035	800,000	-0,046	0,138
-718,021	-152,271	-0,132	0,007
-717,006	159,005	0,080	-0,081
-715,991	132,272	-0,160	0,150
-714,977	33,915	-0,057	-0,036
-713,962	-43,017	-0,144	0,053
-712,948	-200,000	-0,010	0,121
-711,933	165,624	-0,075	0,078
-710,918	-5,448	-0,169	-0,084
-709,904	-82,523	-0,143	-0,033
-708,889	-200,000	-0,004	-0,235
-707,875	354,990	-0,013	-0,019
-706,860	800,000	0,027	0,059
-705,845	56,422	0,036	0,025
-704,831	-49,927	-0,034	-0,012
-703,816	800,000	-0,059	0,128
-702,802	-80,670	-0,144	0,035
-701,787	-96,246	-0,110	0,021
-700,772	157,867	-0,031	-0,031
-699,758	-182,081	0,046	-0,001
-698,743	12,405	0,055	0,031
-697,729	800,000	-0,003	0,006
-696,714	80,827	0,046	-0,036
-695,699	0,259	0,146	-0,075
-694,685	800,000	0,049	0,125
-693,670	-121,663	-0,096	0,011
-692,656	-4,988	-0,136	-0,068
-691,641	774,205	-0,038	-0,076
-690,627	264,725	0,023	0,030
-689,612	147,607	0,083	-0,081
-688,597	-86,411	-0,086	0,019
-687,583	-200,000	-0,043	-0,147
-686,568	-45,445	-0,125	-0,045
-685,554	-56,073	-0,017	0,006
-684,539	-0,434	0,099	-0,051
-683,524	81,663	-0,048	0,038
-682,510	13,038	-0,073	0,041
-681,495	-200,000	-0,003	-0,016
-680,481	-132,746	-0,094	-0,009
-679,466	64,219	-0,061	-0,044
-678,451	-200,000	0,001	-0,003
-677,437	-20,206	-0,083	-0,037
-676,422	-200,000	0,004	0,142
-675,408	238,370	-0,123	0,148
-674,393	364,747	-0,101	-0,147
-673,378	339,541	-0,059	-0,084
-672,364	-144,856	0,101	-0,007
-671,349	139,015	0,065	0,062
-670,335	-18,687	-0,126	-0,057
-669,320	-178,351	-0,102	-0,002
-668,305	-200,000	0,015	-0,072
-667,291	-200,000	0,014	-0,060
-666,276	233,928	0,031	-0,037
-665,262	6,181	-0,106	0,057
-664,247	383,937	0,077	0,116
-663,232	-200,000	0,000	-0,072
-662,218	262,986	0,069	0,087
-661,203	262,522	-0,074	0,093
-660,189	179,891	0,009	0,009
-659,174	-200,000	-0,061	-0,260
-658,159	184,596	-0,082	0,088
-657,145	138,082	0,021	-0,020
-656,130	0,736	-0,117	-0,061
-655,116	-200,000	0,002	-0,104
-654,101	-200,000	0,029	0,143
-653,086	-92,018	-0,057	-0,012
-652,072	-193,283	-0,112	-0,001
-651,057	719,902	0,081	0,157
-650,043	-200,000	-0,012	0,044
-649,028	-200,000	0,015	0,058
-648,014	582,419	-0,052	0,093
-646,999	365,659	-0,033	-0,048
-645,984	-200,000	0,023	-0,093
-644,970	437,284	0,041	0,066
-643,955	-200,000	-0,007	0,058
-642,941	130,865	-0,066	-0,061
-641,926	-9,232	-0,090	0,043
-640,911	-73,826	0,008	-0,002
-639,897	172,279	0,078	0,082
-638,882	150,355	0,101	0,100
-637,868	311,617	-0,057	-0,078
-636,853	-200,000	-0,027	-0,086
-635,838	-200,000	0,018	-0,108
-634,824	-170,465	-0,110	0,003
-633,809	-152,896	0,080	-0,004
-632,795	101,504	0,083	-0,070
-631,780	-200,000	0,000	-0,014
-630,765	-35,854	-0,130	-0,051
-629,751	173,504	-0,092	-0,096
-628,736	-66,520	-0,029	-0,008
-627,722	-44,030	-0,170	-0,062
-626,707	-200,000	0,013	0,060
-625,692	-200,000	0,001	0,136
-624,678	-9,693	0,175	-0,084
-623,663	-112,703	-0,165	0,024
-622,649	532,684	0,098	-0,169
-621,634	800,000	-0,074	-0,198
-620,619	-113,426	0,113	0,016
-619,605	-155,336	0,116	-0,005
-618,590	2,562	-0,140	0,073
-617,576	320,832	0,057	0,079
-616,561	-91,044	0,054	0,011
-615,546	-125,805	-0,056	-0,006
-614,532	171,017	-0,037	-0,038
-613,517	82,534	0,037	-0,029
-612,503	12,142	0,140	0,078
-611,488	-200,000	0,029	0,127
-610,474	93,701	0,137	-0,112
-609,459	162,129	-0,038	0,039
-608,444	-45,181	0,052	-0,018
-607,430	-47,686	-0,031	0,011
-606,415	-43,152	-0,130	-0,047
-605,401	66,220	0,042	0,031
-604,386	711,082	-0,102	-0,197
-603,371	471,647	-0,035	0,058
-602,357	348,974	0,026	0,037
-601,342	800,000	-0,031	0,077
-600,328	800,000	0,033	0,074
-599,313	-111,627	0,060	-0,009
-598,298	-174,204	0,012	0,000
-597,284	11,561	0,053	-0,029
-596,269	531,085	-0,051	-0,088
-595,255	-43,840	0,145	-0,053
-594,240	342,091	0,051	0,073
-593,225	-37,472	-0,085	-0,032
-592,211	36,438	-0,049	-0,031
-591,196	143,839	-0,051	-0,050
-590,182	-78,946	0,158	0,039
-589,167	800,000	0,014	-0,030
-588,152	405,445	-0,054	0,083
-587,138	-200,000	0,013	0,091
-586,123	-68,633	-0,146	-0,041
-585,109	419,928	0,026	-0,040
-584,094	-200,000	0,023	0,108
-583,079	484,626	0,026	0,043
-582,065	40,411	-0,107	0,070
-581,050	40,008	0,090	0,058
-580,036	-5,532	-0,092	0,045
-579,021	-92,140	-0,006	0,001
-578,006	437,426	0,049	-0,077
-576,992	-200,000	0,013	0,084
-575,977	-200,000	-0,026	-0,115
-574,963	141,174	-0,069	0,066
-573,948	-142,806	0,164	0,011
-572,934	35,461	-0,110	-0,070
-571,919	99,034	-0,017	-0,014
-570,904	239,277	-0,039	-0,046
-569,890	631,844	0,048	-0,089
-568,875	800,000	0,050	-0,131
-567,861	0,224	-0,020	0,010
-566,846	-200,000	-0,002	-0,056
-565,831	-200,000	0,001	-0,017
-564,817	800,000	0,014	-0,035
-563,802	-200,000	0,012	-0,080
-562,788	-116,906	-0,066	0,009
-561,773	425,571	0,081	-0,127
-560,758	562,864	0,042	0,073
-559,744	-85,996	0,042	0,009
-558,729	-22,670	-0,130	0,056
-557,715	-78,086	-0,072	-0,018
-556,700	-80,429	0,072	0,017
-555,685	-136,675	-0,099	-0,008
-554,671	800,000	-0,029	0,089
-553,656	-19,215	-0,082	0,036
-552,642	-200,000	0,003	0,143
-551,627	345,357	0,073	0,104
-550,612	102,138	0,047	0,040
-549,598	-123,498	-0,089	0,010
-548,583	147,697	-0,097	-0,094
-547,569	96,415	-0,079	-0,065
-546,554	-200,000	-0,018	0,069
-545,539	140,865	0,035	0,034
-544,525	-200,000	0,023	0,098
-543,510	-82,939	-0,049	0,011
-542,496	-200,000	-0,020	0,072
-541,481	800,000	0,033	-0,070
-540,466	800,000	-0,029	0,083
-539,452	306,550	-0,017	0,023
-538,437	800,000	0,056	0,129
-537,423	235,688	0,100	-0,120
-536,408	-200,000	0,000	-0,040
-535,393	-77,657	-0,024	-0,006
-534,379	0,639	0,044	0,023
-533,364	82,603	0,117	-0,092
-532,350	-118,180	0,125	0,016
-531,335	-200,000	-0,008	0,068
-530,321	-200,000	-0,006	-0,070
-529,306	82,625	0,046	0,036
-528,291	800,000	0,025	0,068
-527,277	-200,000	-0,013	-0,093
-526,262	-67,521	0,083	-0,023
-525,248	-75,252	0,087	0,022
-524,233	-72,387	-0,047	0,012
-523,218	800,000	-0,019	-0,038
-522,204	-93,708	0,035	-0,007
-521,189	-30,766	-0,150	0,061
-520,175	36,177	-0,106	-0,067
-519,160	800,000	-0,059	0,124
-518,145	-85,334	-0,075	0,017
-517,131	-135,624	0,066	-0,006
-516,116	-200,000	0,017	0,058
-515,102	193,347	0,082	-0,089
-514,087	-129,718	-0,154	0,015
-513,072	800,000	-0,037	0,075
-512,058	-200,000	-0,026	-0,083
-511,043	-104,573	0,032	0,005
-510,029	-200,000	-0,012	0,129
-509,014	-53,188	0,068	0,022
-507,999	-27,513	-0,238	-0,099
-506,985	-114,160	-0,092	0,013
-505,970	26,185	0,017	-0,010
-504,956	-72,553	-0,050	-0,013
-503,941	-200,000	-0,015	0,058
-502,926	-43,156	0,046	-0,017
-501,912	156,820	0,056	0,055
-500,897	-200,000	0,023	-0,145
-499,883	-94,570	0,048	0,009
-498,868	-200,000	0,011	-0,088
-497,853	800,000	-0,069	-0,170
-496,839	-200,000	0,012	-0,063
-495,824	-200,000	0,003	0,070
-494,810	489,891	-0,119	0,196
-493,795	-200,000	-0,005	0,179
-492,781	-65,738	-0,073	0,021
-491,766	523,855	0,028	-0,047
-490,751	184,713	-0,086	0,092
-489,737	194,375	0,045	0,050
-488,722	49,428	0,089	-0,060
-487,708	-51,547	0,107	-0,036
-486,693	377,137	-0,043	0,063
-485,678	48,019	-0,083	0,056
-484,664	104,717	-0,061	-0,052
-483,649	-154,853	-0,112	-0,005
-482,635	-77,788	0,053	0,013
-481,620	-130,875	-0,046	-0,004
-480,605	-95,545	-0,082	0,016
-479,591	-48,454	0,043	-0,015
-478,576	-59,034	-0,110	0,034
-477,562	-60,606	-0,027	0,008
-476,547	302,257	0,048	-0,064
-475,532	638,275	-0,050	0,092
-474,518	333,945	-0,049	-0,068
-473,503	-47,545	-0,065	-0,023
-472,489	330,273	-0,107	0,149
-471,474	-200,000	-0,019	0,113
-470,459	313,553	-0,024	-0,032
-469,445	800,000	0,044	-0,095
-468,430	28,293	0,092	-0,056
-467,416	-158,210	-0,104	0,004
-466,401	-200,000	-0,020	0,074
-465,386	-175,384	0,132	0,003
-464,372	-51,568	-0,092	0,031
-463,357	537,590	0,065	-0,111
-462,343	198,998	-0,021	-0,023
-461,328	-122,671	0,140	0,016
-460,313	273,054	-0,084	-0,107
-459,299	351,810	0,072	0,103
-458,284	-101,687	-0,083	0,014
-457,270	87,163	0,064	0,051
-456,255	-200,000	0,012	0,108
-455,241	-200,000	-0,022	-0,111
-454,226	-128,503	-0,070	0,007
-453,211	235,878	0,067	-0,079
-452,197	-27,442	0,150	-0,062
-451,182	-18,719	0,138	0,062
-450,168	492,965	-0,064	0,106
-449,153	78,908	0,043	0,033
-448,138	-200,000	-0,010	0,040
-447,124	800,000	-0,032	-0,069
-446,109	5,036	0,039	-0,021
-445,095	244,209	0,045	0,055
-444,080	218,326	0,043	-0,049
-443,065	388,662	0,037	-0,055
-442,051	-86,314	-0,169	-0,037
-441,036	-118,713	-0,037	-0,005
-440,022	800,000	0,053	-0,122
-439,007	-27,608	-0,045	0,019
-437,992	706,060	0,016	-0,031
-436,978	-118,938	0,135	0,017
-435,963	17,930	0,079	0,045
-434,949	51,920	-0,149	-0,102
-433,934	224,560	-0,035	0,040
-432,919	-36,926	-0,109	-0,042
-431,905	-200,000	0,017	-0,088
-430,890	800,000	-0,034	0,093
-429,876	-200,000	0,005	-0,041
-428,861	-200,000	0,003	-0,020
-427,846	-111,926	-0,123	0,018
-426,832	-200,000	-0,016	-0,097
-425,817	-22,447	0,084	0,036
-424,803	-133,965	0,070	0,006
-423,788	-166,100	0,131	0,004
-422,773	-42,257	-0,116	0,043
-421,759	-30,516	0,165	0,067
-420,744	24,620	0,012	-0,007
-419,730	-132,861	0,083	0,007
-418,715	-200,000	-0,006	-0,082
-417,701	-200,000	-0,018	0,099
-416,686	165,905	-0,095	-0,096
-415,671	574,280	0,048	0,084
-414,657	192,103	-0,122	0,132
-413,642	36,097	-0,057	-0,036
-412,628	800,000	-0,049	0,122
-411,613	-87,806	-0,169	-0,036
-410,598	-200,000	0,024	-0,096
-409,584	-5,437	0,103	-0,051
-408,569	667,094	0,037	0,069
-407,555	800,000	0,070	0,148
-406,540	123,358	0,163	0,147
-405,525	226,060	-0,086	0,100
-404,511	555,292	-0,013	-0,023
-403,496	-200,000	0,140	0,000
-402,482	151,176	0,058	-0,056
-401,467	-200,000	0,006	0,154
-400,452	-93,074	0,017	0,003
-399,438	430,707	-0,067	0,104
-398,423	-18,301	0,067	0,030
-397,409	-200,000	0,010	-0,049
-396,394	-200,000	-0,003	0,075
-395,379	349,100	0,045	-0,064
-394,365	-119,434	-0,040	0,005
-393,350	-200,000	0,003	0,141
-392,336	800,000	0,027	0,075
-391,321	-34,906	0,122	-0,047
-390,306	-200,000	0,001	-0,064
-389,292	-200,000	0,042	-0,156
-388,277	800,000	0,035	0,094
-387,263	-14,517	-0,107	0,049
-386,248	-83,950	0,054	-0,012
-385,233	126,875	0,027	0,025
-384,219	455,152	-0,022	-0,035
-383,204	-162,482	-0,228	0,008
-382,190	370,307	0,034	-0,050
-381,175	516,262	-0,029	-0,050
-380,160	-20,904	0,033	-0,014
-379,146	-200,000	0,026	0,109
-378,131	-101,555	-0,031	0,005
-377,117	119,961	0,062	0,055
-376,102	21,914	-0,107	0,062
-375,088	218,123	0,034	0,039
-374,073	171,583	-0,019	0,019
-373,058	800,000	-0,038	-0,080
-372,044	6,565	-0,040	-0,021
-371,029	-121,319	-0,062	0,007
-370,015	-200,000	0,024	-0,125
-369,000	-50,771	-0,134	0,045
-367,985	-78,187	0,044	-0,011
-366,971	97,556	0,175	-0,144
-365,956	-14,549	0,032	0,015
-364,942	281,576	0,023	0,029
-363,927	-113,120	-0,228	0,032
-362,912	-141,059	0,193	0,014
-361,898	-179,822	0,161	-0,002
-360,883	800,000	0,088	-0,187
-359,869	167,032	-0,115	-0,117
-358,854	159,647	-0,201	0,200
-357,839	-200,000	-0,019	0,077
-356,825	800,000	0,013	0,030
-355,810	-200,000	-0,005	0,053
-354,796	-200,000	0,005	-0,043
-353,781	91,106	0,117	0,094
-352,766	-200,000	-0,000	-0,031
-351,752	-121,612	-0,064	-0,007
-350,737	-200,000	-0,025	0,080
-349,723	643,060	-0,033	0,060
-348,708	-13,412	-0,043	0,020
-347,693	237,846	-0,051	0,060
-346,679	-200,000	0,011	-0,188
-345,664	-200,000	0,037	-0,134
-344,650	-200,000	0,030	-0,174
-343,635	800,000	0,030	-0,068
-342,620	800,000	0,031	-0,095
-341,606	442,915	0,022	0,035
-340,591	-107,442	-0,103	-0,016
-339,577	-200,000	-0,006	-0,034
-338,562	-200,000	-0,003	-0,080
-337,548	-171,369	-0,163	-0,004
-336,533	-94,352	-0,028	0,005
-335,518	-200,000	0,009	0,054
-334,504	45,441	0,094	-0,062
-333,489	-49,649	0,031	-0,011
-332,475	156,601	-0,073	0,072
-331,460	800,000	0,014	0,037
-330,445	153,336	0,055	0,054
-329,431	-37,016	-0,033	-0,012
-328,416	139,094	-0,089	0,084
-327,402	-120,330	0,155	0,019
-326,387	800,000	-0,010	0,027
-325,372	800,000	-0,032	-0,076
-324,358	729,292	0,027	-0,052
-323,343	-200,000	0,005	-0,062
-322,329	297,944	-0,046	-0,060
-321,314	263,963	0,030	0,038
-320,299	-124,922	0,070	-0,008
-319,285	69,242	0,013	0,010
-318,270	115,339	-0,057	0,050
-317,256	-101,914	-0,076	-0,013
-316,241	186,965	-0,043	0,046
-315,226	-200,000	0,000	0,037
-314,212	-200,000	0,025	0,080
-313,197	89,444	0,138	0,110
-312,183	291,565	-0,076	0,099
-311,168	800,000	-0,017	-0,047
-310,153	104,968	-0,152	0,128
-309,139	-83,003	0,053	-0,012
-308,124	35,849	-0,043	0,027
-307,110	-200,000	0,005	-0,217
-306,095	326,121	0,103	-0,141
-305,080	-200,000	0,006	-0,044
-304,066	160,335	0,033	-0,033
-303,051	56,578	-0,083	-0,058
-302,037	800,000	0,014	0,031
-301,022	41,470	0,176	0,114
-300,008	800,000	-0,015	0,032
-298,993	79,406	0,085	-0,065
-297,978	-200,000	-0,027	0,130
-296,964	18,595	-0,089	0,051
-295,949	441,905	0,049	-0,077
-294,935	-12,606	-0,052	0,024
-293,920	-46,446	-0,123	0,043
-292,905	-103,883	0,133	-0,022
-291,891	800,000	0,013	-0,039
-290,876	-29,154	0,063	0,026
-289,862	-200,000	-0,003	-0,048
-288,847	199,232	-0,034	-0,037
-287,832	63,850	0,162	-0,116
-286,818	-22,781	-0,070	-0,030
-285,803	33,652	0,156	-0,097
-284,789	49,423	0,103	0,069
-283,774	-144,314	-0,073	0,005
-282,759	-200,000	-0,010	0,135
-281,745	206,530	0,034	-0,037
-280,730	31,473	0,033	-0,020
-279,716	362,463	0,070	0,100
-278,701	800,000	-0,040	0,098
-277,686	202,615	0,075	0,082
-276,672	430,983	-0,037	0,058
-275,657	506,550	-0,027	0,045
-274,643	239,117	0,073	-0,087
-273,628	-200,000	-0,037	0,125
-272,613	-200,000	-0,023	0,139
-271,599	439,491	0,072	0,113
-270,584	-200,000	0,029	-0,177
-269,570	-200,000	0,003	-0,053
-268,555	498,866	0,087	-0,144
-267,540	289,697	-0,079	-0,102
-266,526	-200,000	-0,032	-0,133
-265,511	-200,000	-0,003	-0,101
-264,497	-19,833	-0,127	0,056
-263,482	-1,817	0,091	-0,046
-262,467	-31,351	-0,136	-0,054
-261,453	99,313	0,050	-0,042
-260,438	-6,176	-0,014	-0,007
-259,424	-100,500	-0,117	-0,020
-258,409	464,626	0,059	0,094
-257,395	-74,778	0,122	0,031
-256,380	-23,831	0,061	0,026
-255,365	43,457	-0,089	0,058
-254,351	-200,000	-0,006	-0,040
-253,336	-2,350	0,037	-0,018
-252,322	-7,218	0,093	-0,045
-251,307	-66,977	-0,079	-0,022
-250,292	-200,000	0,018	-0,114
-249,278	127,758	0,089	0,081
-248,263	-200,000	-0,006	-0,021
-247,249	196,281	0,015	-0,017
-246,234	45,137	0,090	-0,059
-245,219	29,553	-0,103	-0,062
-244,205	71,003	0,026	0,019
-243,190	-200,000	-0,007	0,070
-242,176	75,362	-0,048	0,036
-241,161	-200,000	-0,016	0,122
-240,146	-17,000	0,114	0,051
-239,132	-200,000	-0,037	0,135
-238,117	49,068	-0,109	-0,073
-237,103	-8,886	0,090	-0,043
-236,088	24,949	0,121	-0,072
-235,073	129,457	-0,073	0,067
-234,059	-62,279	0,071	0,021
-233,044	23,315	0,116	-0,068
-232,030	-41,765	-0,032	0,012
-231,015	-97,267	-0,107	-0,020
-230,000	-63,475	-0,057	-0,017
-228,986	-142,124	0,156	-0,011
-227,971	-200,000	0,006	-0,104
-226,957	306,095	-0,042	0,056
-225,942	-31,222	0,014	-0,006
-224,927	70,233	-0,032	-0,023
-223,913	-14,271	0,081	-0,037
-222,898	-200,000	-0,002	-0,052
-221,884	-79,508	-0,063	-0,015
-220,869	195,252	-0,031	-0,034
-219,855	-10,885	-0,079	0,037
-218,840	373,018	-0,086	0,126
-217,825	3,471	0,063	0,033
-216,811	800,000	0,021	-0,043
-215,796	-147,745	-0,140	-0,008
-214,782	220,818	-0,079	0,090
-213,767	175,184	0,092	0,095
-212,752	-200,000	0,006	-0,057
-211,738	109,456	0,094	-0,080
-210,723	-200,000	0,033	0,111
-209,709	376,888	-0,032	0,046
-208,694	-4,938	-0,134	-0,065
-207,679	226,121	0,065	-0,075
-206,665	40,340	-0,038	-0,024
-205,650	-200,000	0,010	0,075
-204,636	-68,431	0,064	0,018
-203,621	-200,000	0,002	-0,017
-202,606	-160,628	-0,146	0,005
-201,592	-63,165	-0,109	-0,032
-200,577	68,929	0,109	-0,080
-199,563	800,000	-0,023	0,047
-198,548	-22,214	0,143	0,062
-197,533	200,995	-0,079	-0,087
-196,519	-139,029	-0,136	-0,010
-195,504	26,977	-0,032	-0,019
-194,490	-200,000	0,006	-0,113
-193,475	32,657	-0,019	-0,012
-192,460	-74,903	0,160	0,041
-191,446	127,029	0,097	0,087
-190,431	410,087	-0,034	-0,051
-189,417	-56,221	-0,123	0,039
-188,402	800,000	-0,069	0,161
-187,387	800,000	-0,068	-0,147
-186,373	-200,000	0,022	-0,104
-185,358	241,973	-0,081	0,097
-184,344	-200,000	-0,004	0,180
-183,329	694,952	0,040	-0,075
-182,315	237,857	0,058	-0,069
-181,300	-200,000	0,008	-0,105
-180,285	465,568	-0,011	-0,017
-179,271	-143,536	0,109	-0,007
-178,256	267,312	0,042	0,053
-177,242	753,635	0,034	-0,066
-176,227	-85,897	0,072	0,016
-175,212	122,001	-0,049	0,043
-174,198	-39,262	-0,169	0,063
-173,183	118,785	0,081	-0,071
-172,169	357,825	0,060	-0,085
-171,154	87,463	0,115	-0,090
-170,139	-200,000	-0,015	-0,073
-169,125	-109,960	0,081	0,012
-168,110	800,000	0,044	0,096
-167,096	800,000	0,034	0,082
-166,081	163,198	-0,072	-0,072
-165,066	-200,000	-0,058	-0,192
-164,052	-200,000	-0,012	-0,066
-163,037	-28,683	-0,033	0,013
-162,023	329,618	0,037	0,050
-161,008	800,000	0,028	0,066
-159,993	800,000	-0,031	0,074
-158,979	460,166	0,032	-0,051
-157,964	-32,698	-0,163	-0,064
-156,950	800,000	-0,029	-0,066
-155,935	71,223	0,154	-0,113
-154,920	185,507	-0,076	-0,080
-153,906	-1,478	0,244	0,122
-152,891	-200,000	-0,012	0,147
-151,877	340,165	0,069	-0,096
-150,862	36,665	-0,097	-0,061
-149,847	-200,000	-0,011	0,041
-148,833	-200,000	0,000	0,138
-147,818	105,655	0,053	0,044
-146,804	-200,000	0,022	0,100
-145,789	800,000	-0,036	0,091
-144,775	-200,000	0,002	0,044
-143,760	-77,822	-0,014	0,003
-142,745	-78,420	0,081	-0,019
-141,731	-200,000	0,024	-0,080
-140,716	-200,000	0,007	-0,079
-139,702	-62,766	0,072	-0,021
-138,687	155,809	0,054	-0,052
-137,672	-129,171	0,047	0,005
-136,658	-200,000	-0,000	-0,012
-135,643	139,199	-0,088	0,082
-134,629	37,897	0,077	-0,048
-133,614	-200,000	0,027	0,167
-132,599	-122,782	0,063	-0,007
-131,585	94,866	0,063	-0,051
-130,570	346,032	-0,087	-0,121
-129,556	231,227	-0,069	-0,080
-128,541	705,662	0,030	-0,057
-127,526	-200,000	0,008	-0,116
-126,512	800,000	0,024	-0,065
-125,497	508,022	-0,039	-0,064
-124,483	626,894	-0,012	-0,022
-123,468	-38,566	0,132	0,049
-122,453	365,503	0,051	-0,073
-121,439	19,081	-0,120	-0,068
-120,424	800,000	-0,032	-0,090
-119,410	800,000	0,020	-0,040
-118,395	-181,689	0,151	0,002
-117,380	-83,523	0,061	-0,014
-116,366	-29,414	-0,053	0,021
-115,351	-53,421	0,121	-0,039
-114,337	290,536	0,081	-0,104
-113,322	800,000	-0,035	0,104
-112,307	-65,203	-0,103	-0,029
-111,293	91,125	0,131	0,104
-110,278	-129,954	0,105	-0,010
-109,264	800,000	0,022	-0,063
-108,249	800,000	0,045	0,113
-107,234	-200,000	-0,041	-0,170
-106,220	800,000	-0,010	0,027
-105,205	-186,384	0,123	0,001
-104,191	79,683	0,093	0,071
-103,176	-59,104	-0,074	-0,023
-102,162	-11,123	0,143	-0,066
-101,147	-200,000	0,027	0,146
-100,132	-74,203	-0,150	-0,038
-99,118	-200,000	-0,005	-0,094
-98,103	800,000	-0,023	-0,060
-97,089	175,134	0,119	0,122
-96,074	-200,000	-0,002	-0,015
-95,059	-200,000	-0,024	0,107
-94,045	-200,000	0,019	-0,094
-93,030	-200,000	0,003	-0,074
-92,016	632,237	-0,007	0,012
-91,001	-200,000	-0,007	0,022
-89,986	-73,451	0,220	-0,056
-88,972	48,299	0,097	-0,065
-87,957	9,121	0,081	0,043
-86,943	-39,768	-0,242	-0,089
-85,928	-79,583	0,052	0,012
-84,913	800,000	0,020	0,046
-83,899	-200,000	0,002	0,016
-82,884	72,998	0,109	-0,081
-81,870	800,000	-0,017	-0,035
-80,855	13,630	0,069	-0,038
-79,840	-161,106	0,052	0,002
-78,826	-89,140	-0,059	0,012
-77,811	31,872	-0,064	-0,039
-76,797	350,549	0,054	-0,077
-75,782	-115,901	0,078	-0,010
-74,767	-200,000	-0,011	0,179
-73,753	51,192	-0,018	-0,012
-72,738	-200,000	-0,028	-0,115
-71,724	-31,861	-0,160	-0,063
-70,709	-93,874	0,136	-0,026
-69,694	-104,954	-0,058	0,009
-68,680	120,871	0,070	0,062
-67,665	-30,606	0,067	0,027
-66,651	-52,405	-0,070	-0,023
-65,636	760,937	0,041	-0,079
-64,622	203,926	0,036	-0,039
-63,607	-200,000	-0,017	-0,084
-62,592	-73,048	0,129	-0,033
-61,578	120,223	-0,069	-0,060
-60,563	-84,360	0,151	-0,034
-59,549	-92,554	-0,032	0,006
-58,534	-7,204	-1,667	-0,798
-57,519	374,184	-1,411	-2,040
-56,505	-200,000	-0,518	-4,370
-55,490	244,644	0,875	1,043
-54,476	800,000	5,000	11,448
-53,461	-200,000	19,219	320,960
-52,446	-200,000	742,012	2334,394
-51,432	571,819	1656,239	2867,194
-50,417	78,019	1670,990	1260,398
-49,403	21,195	1543,966	885,060
-48,388	15,117	1466,362	811,014
-47,373	18,007	1456,719	819,616
-46,359	16,671	1446,548	807,454
-45,344	13,332	1441,924	788,848
-44,330	13,232	1440,132	787,356
-43,315	13,227	1438,334	786,317
-42,300	13,275	1436,512	785,519
-41,286	13,309	1435,157	784,909
-40,271	13,259	1433,958	783,986
-39,257	13,261	1432,623	783,232
-38,242	13,299	1431,529	782,788
-37,227	13,316	1430,327	782,177
-36,213	13,307	1428,874	781,309
-35,198	13,307	1427,742	780,661
-34,184	13,320	1426,844	780,197
-33,169	13,268	1425,538	779,206
-32,154	13,335	1424,307	778,819
-31,140	13,345	1423,067	778,161
-30,125	13,352	1421,873	777,506
-29,111	13,307	1420,997	776,787
-28,096	13,312	1419,852	776,155
-27,082	13,278	1418,600	775,276
-26,067	13,224	1417,623	774,458
-25,052	13,267	1416,417	773,973
-24,038	13,226	1415,629	773,318
-23,023	13,240	1414,451	772,709
-22,009	13,213	1413,516	772,040
-20,994	13,213	1412,554	771,485
-19,979	13,227	1411,707	771,057
-18,965	13,160	1410,802	770,219
-17,950	13,178	1409,667	769,650
-16,936	13,232	1408,906	769,457
-15,921	13,167	1407,671	768,450
-14,906	13,177	1406,859	768,024
-13,892	13,190	1405,773	767,462
-12,877	13,199	1404,821	766,952
-11,863	13,138	1404,111	766,249
-10,848	13,115	1403,332	765,687
-9,833	13,109	1402,458	765,153
-8,819	13,076	1401,613	764,506
-7,804	13,060	1400,716	763,910
-6,790	13,018	1399,763	763,165
-5,775	13,036	1398,548	762,560
-4,760	13,037	1397,614	762,021
-3,746	13,065	1396,686	761,618
-2,731	13,040	1396,012	761,102
-1,717	13,012	1395,172	760,483
-0,702	13,010	1393,296	759,420
0,313	17,060	1309,788	732,604
1,327	33,573	703,271	431,490
2,342	51,779	123,004	82,667
3,356	2,710	16,693	8,535
4,371	8,217	3,236	1,714
5,386	-18,540	0,625	0,275
6,400	-200,000	0,027	0,306
7,415	-89,070	-0,349	-0,072
8,429	40,360	-0,235	-0,149
9,444	193,546	-0,318	-0,340
10,459	232,899	-0,184	-0,214
11,473	-24,599	-0,334	-0,140
12,488	644,236	-0,142	-0,257
13,502	10,401	-0,494	-0,265
14,517	101,949	-0,326	-0,269
15,531	57,542	-0,274	-0,189
16,546	12,955	-0,370	-0,201
17,561	40,288	-0,421	-0,267
18,575	-162,178	-0,186	-0,006
19,590	47,878	-0,229	-0,151
20,604	295,150	-0,190	-0,246
21,619	58,595	-0,519	-0,359
22,634	362,221	-0,326	-0,464
23,648	145,388	-0,398	-0,376
24,663	38,122	-0,466	-0,292
25,677	128,065	-0,367	-0,330
26,692	-28,963	-0,392	-0,158
27,707	110,226	-0,323	-0,274
28,721	104,896	-0,356	-0,296
29,736	32,893	-0,416	-0,254
30,750	16,576	-0,492	-0,274
31,765	187,063	-0,252	-0,265
32,780	-7,105	-0,443	-0,211
33,794	114,511	-0,395	-0,339
34,809	94,021	-0,223	-0,178
35,823	126,481	-0,341	-0,305
36,838	61,730	-0,423	-0,297
37,853	28,618	-0,331	-0,197
38,867	27,638	-0,365	-0,216
39,882	189,395	-0,236	-0,249
40,896	60,891	-0,353	-0,247
41,911	284,371	-0,260	-0,331
42,926	72,275	-0,374	-0,275
43,940	3,217	-0,402	-0,205
44,955	63,396	-0,379	-0,267
45,969	-75,686	-0,284	0,071
46,984	161,421	-0,262	-0,258
47,999	20,441	-0,321	-0,182
49,013	152,667	-0,291	-0,280
50,028	-48,413	-0,323	-0,109
51,042	-5,021	-0,483	-0,234
52,057	259,606	-0,243	-0,296
53,071	13,014	-0,465	-0,252
54,086	127,289	-0,254	-0,227
55,101	143,011	-0,342	-0,321
56,115	-32,313	-0,310	-0,121
57,130	-35,050	-0,481	-0,184
58,144	92,189	-0,340	-0,269
59,159	166,469	-0,279	-0,278
60,174	20,842	-0,403	-0,229
61,188	-40,812	-0,386	-0,140
62,203	60,659	-0,331	-0,230
63,217	149,288	-0,367	-0,350
64,232	43,220	-0,334	-0,214
65,247	2,017	-0,418	-0,211
66,261	64,661	-0,208	-0,148
67,276	-5,764	-0,392	-0,188
68,290	36,836	-0,286	-0,177
69,305	-62,956	-0,327	-0,094
70,320	-1,648	-0,297	-0,147
71,334	-104,046	-0,410	-0,066
72,349	118,158	-0,287	-0,249
73,363	0,965	-0,325	-0,163
74,378	104,066	-0,345	-0,285
75,393	-5,049	-0,299	-0,144
76,407	141,206	-0,138	-0,129
77,422	-85,942	-0,227	-0,049
78,436	55,955	-0,261	-0,177
79,451	184,310	-0,278	-0,290
80,466	31,023	-0,371	-0,223
81,480	109,889	-0,366	-0,309
82,495	68,719	-0,264	-0,190
83,509	-19,431	-0,350	-0,152
84,524	46,849	-0,329	-0,215
85,539	51,412	-0,183	-0,122
86,553	-30,022	-0,269	-0,107
87,568	90,572	-0,324	-0,255
88,582	112,300	-0,189	-0,160
89,597	93,774	-0,253	-0,201
90,611	156,991	-0,220	-0,214
91,626	68,259	-0,297	-0,213
92,641	126,673	-0,285	-0,253
93,655	178,572	-0,208	-0,213
94,670	-29,500	-0,319	-0,127
95,684	-30,159	-0,399	-0,159
96,699	190,302	-0,212	-0,223
97,714	34,521	-0,261	-0,160
98,728	-9,938	-0,258	-0,120
99,743	72,144	-0,243	-0,177
100,757	173,509	-0,230	-0,233
101,772	-46,744	-0,207	-0,071
102,787	23,087	-0,220	-0,126
103,801	223,208	-0,271	-0,307
104,816	-56,014	-0,270	-0,084
105,830	150,511	-0,151	-0,144
106,845	76,303	-0,244	-0,181
107,860	103,841	-0,239	-0,197
108,874	-34,022	-0,178	-0,068
109,889	-2,919	-0,454	-0,221
110,903	148,561	-0,266	-0,252
111,918	19,922	-0,338	-0,190
112,933	158,485	-0,269	-0,262
113,947	171,256	-0,293	-0,295
114,962	249,140	-0,105	-0,125
115,976	-78,293	-0,368	-0,088
116,991	355,284	-0,243	-0,340
118,006	54,640	-0,365	-0,246
119,020	60,623	-0,324	-0,224
120,035	-107,400	-0,208	0,032
121,049	-116,535	-0,371	-0,047
122,064	447,496	-0,200	-0,310
123,079	-52,459	-0,257	-0,083
124,093	113,837	-0,232	-0,197
125,108	123,702	-0,272	-0,239
126,122	-112,498	-0,374	-0,052
127,137	365,767	-0,075	-0,105
128,151	-17,281	-0,243	-0,107
129,166	18,545	-0,230	-0,129
130,181	4,091	-0,288	-0,147
131,195	43,030	-0,252	-0,161
132,210	137,682	-0,235	-0,215
133,224	126,110	-0,255	-0,225
134,239	59,525	-0,324	-0,223
135,254	18,884	-0,270	-0,151
136,268	311,779	-0,146	-0,191
137,283	511,060	-0,186	-0,304
138,297	74,314	-0,228	-0,168
139,312	-56,226	-0,351	-0,108
140,327	66,234	-0,392	-0,278
141,341	202,544	-0,252	-0,272
142,356	-16,129	-0,268	-0,118
143,370	-98,318	-0,182	-0,032
144,385	-57,128	-0,397	-0,121
145,400	-6,612	-0,275	-0,131
146,414	194,609	-0,294	-0,312
147,429	459,620	-0,188	-0,294
148,443	383,209	-0,101	-0,146
149,458	-120,125	-0,164	-0,019
150,473	112,961	-0,148	-0,125
151,487	138,943	-0,112	-0,103
152,502	-31,048	-0,206	-0,081
153,516	-90,800	-0,165	-0,033
154,531	468,074	-0,180	-0,283
155,546	8,535	-0,241	-0,126
156,560	0,097	-0,288	-0,143
157,575	5,352	-0,224	-0,115
158,589	14,352	-0,244	-0,132
159,604	6,672	-0,344	-0,178
160,619	131,372	-0,257	-0,230
161,633	-44,235	-0,245	-0,085
162,648	136,965	-0,224	-0,204
163,662	387,434	-0,143	-0,207
164,677	-87,475	-0,319	-0,067
165,692	66,344	-0,253	-0,179
166,706	298,614	-0,189	-0,243
167,721	281,285	-0,132	-0,165
168,735	484,953	-0,150	-0,238
169,750	62,927	-0,262	-0,182
170,764	202,381	-0,152	-0,164
171,779	-8,625	-0,251	-0,117
172,794	54,255	-0,176	-0,118
173,808	301,886	-0,177	-0,229
174,823	-35,556	-0,178	-0,067
175,837	-59,008	-0,305	-0,091
176,852	84,504	-0,158	-0,121
177,867	-3,583	-0,249	-0,120
178,881	-186,167	-0,291	-0,003
179,896	-4,289	-0,099	-0,047
180,910	90,349	-0,235	-0,183
181,925	333,840	-0,132	-0,179
182,940	144,851	-0,152	-0,142
183,954	75,526	-0,251	-0,184
184,969	-148,460	-0,246	-0,014
185,983	92,228	-0,141	-0,111
186,998	800,000	-0,043	-0,099
188,013	105,726	-0,155	-0,128
189,027	-87,952	-0,311	-0,065
190,042	55,706	-0,266	-0,179
191,056	45,560	-0,201	-0,129
192,071	134,310	-0,214	-0,193
193,086	17,057	-0,258	-0,142
194,100	-104,536	-0,224	-0,036
195,115	112,611	-0,146	-0,123
196,129	-34,529	-0,329	-0,125
197,144	-4,791	-0,284	-0,136
198,159	-11,441	-0,280	-0,128
199,173	76,207	-0,192	-0,141
200,188	250,317	-0,161	-0,190
201,202	321,130	-0,127	-0,168
202,217	83,871	-0,289	-0,219
203,232	157,629	-0,235	-0,227
204,246	354,015	-0,220	-0,304
205,261	181,929	-0,106	-0,109
206,275	73,603	-0,182	-0,132
207,290	290,156	-0,172	-0,218
208,304	-45,968	-0,195	-0,066
209,319	93,991	-0,123	-0,097
210,334	800,000	-0,071	-0,137
211,348	553,561	-0,164	-0,275
212,363	53,119	-0,108	-0,072
213,377	576,385	-0,194	-0,331
214,392	377,420	-0,079	-0,113
215,407	85,471	-0,247	-0,188
216,421	75,822	-0,224	-0,164
217,436	37,887	-0,206	-0,127
218,450	55,767	-0,199	-0,134
219,465	149,341	-0,263	-0,247
220,480	298,360	-0,128	-0,163
221,494	42,228	-0,248	-0,156
222,509	107,170	-0,040	0,033
223,523	39,029	-0,168	-0,104
224,538	-67,829	-0,208	-0,056
225,553	82,027	-0,222	-0,166
226,567	202,375	-0,224	-0,240
227,582	185,349	-0,096	-0,099
228,596	800,000	-0,140	-0,311
229,611	305,479	-0,144	-0,186
230,626	-168,459	-0,172	-0,004
231,640	274,227	-0,082	-0,101
232,655	-20,184	-0,468	-0,199
233,669	163,063	-0,185	-0,180
234,684	-41,629	-0,215	-0,076
235,699	800,000	-0,081	-0,168
236,713	-200,000	-0,033	-0,171
237,728	536,522	-0,124	-0,205
238,742	-10,584	-0,243	-0,111
239,757	-28,673	-0,278	-0,110
240,772	800,000	-0,093	-0,204
241,786	-2,368	-0,180	-0,087
242,801	201,022	-0,162	-0,173
243,815	622,535	-0,118	-0,207
244,830	-8,515	-0,157	0,073
245,844	-67,241	-0,225	-0,061
246,859	800,000	-0,054	-0,113
247,874	-7,611	-0,201	-0,094
248,888	17,511	-0,263	-0,145
249,903	-73,851	-0,262	-0,066
250,917	-133,740	-0,251	0,021
251,932	507,856	-0,043	-0,069
252,947	460,704	-0,113	-0,174
253,961	-145,784	-0,264	0,016
254,976	15,512	-0,308	-0,167
255,990	315,666	-0,112	-0,147
257,005	224,157	-0,134	-0,150
258,020	-76,391	-0,311	-0,075
259,034	154,276	-0,142	-0,135
260,049	732,241	-0,104	-0,194
261,063	559,565	-0,121	-0,203
262,078	128,329	-0,184	-0,162
263,093	140,968	-0,183	-0,167
264,107	100,757	-0,239	-0,192
265,122	364,782	-0,177	-0,248
266,136	13,544	-0,201	-0,107
267,151	800,000	-0,052	-0,107
268,166	61,720	-0,213	-0,146
269,180	72,002	-0,242	-0,174
270,195	44,628	-0,223	-0,141
271,209	106,426	-0,235	-0,192
272,224	79,270	-0,163	-0,120
273,239	-62,123	-0,094	-0,027
274,253	800,000	-0,060	-0,127
275,268	-58,766	-0,171	-0,051
276,282	221,923	-0,205	-0,228
277,297	17,290	-0,104	0,057
278,312	-31,607	-0,144	-0,056
279,326	107,745	-0,141	-0,116
280,341	-154,057	-0,235	0,011
281,355	-79,776	-0,240	-0,055
282,370	-57,618	-0,168	0,050
283,384	-132,978	-0,223	-0,019
284,399	134,941	-0,167	-0,150
285,414	73,084	-0,108	-0,078
286,428	225,723	-0,114	-0,127
287,443	496,420	-0,066	-0,105
288,457	555,288	-0,083	-0,138
289,472	42,121	-0,257	-0,161
290,487	-90,124	-0,183	-0,036
291,501	-138,638	-0,228	-0,017
292,516	121,808	-0,171	-0,147
293,530	279,347	-0,189	-0,233
294,545	-88,693	-0,182	-0,037
295,560	-80,011	-0,116	-0,027
296,574	-27,236	-0,196	-0,078
297,589	-37,987	-0,161	-0,058
298,603	78,502	-0,284	-0,209
299,618	111,207	-0,209	-0,174
300,633	-160,997	-0,270	-0,010
301,647	-46,154	-0,143	-0,048
302,662	-76,279	-0,034	-0,008
303,676	-91,143	-0,174	-0,034
304,691	24,446	-0,169	-0,096
305,706	15,592	-0,167	-0,090
306,720	81,575	-0,103	-0,077
307,735	97,060	-0,169	-0,133
308,749	-64,134	-0,153	-0,043
309,764	-200,000	-0,001	-0,085
310,779	450,632	-0,039	-0,060
311,793	19,781	-0,153	0,084
312,808	-85,301	-0,170	-0,036
313,822	570,856	-0,114	-0,192
314,837	800,000	-0,031	-0,093
315,852	22,597	-0,151	-0,085
316,866	149,632	-0,158	-0,147
317,881	-200,000	0,015	-0,059
318,895	25,482	-0,186	-0,106
319,910	-64,892	-0,228	-0,063
320,925	188,044	-0,132	-0,135
321,939	-143,131	-0,146	-0,010
322,954	800,000	-0,054	-0,151
323,968	307,719	-0,044	-0,056
324,983	-19,921	-0,099	-0,042
325,997	-14,630	-0,152	-0,067
327,012	-13,407	-0,095	0,042
328,027	-87,246	-0,186	-0,038
329,041	154,567	-0,166	-0,157
330,056	-152,299	-0,176	0,009
331,070	134,196	-0,073	0,065
332,085	-5,833	-0,086	-0,041
333,100	280,268	-0,174	-0,214
334,114	-28,397	-0,198	-0,078
335,129	800,000	-0,099	-0,235
336,143	18,681	-0,156	-0,086
337,158	133,935	-0,200	-0,178
338,173	-37,820	-0,134	-0,049
339,187	18,555	-0,268	-0,147
340,202	79,023	-0,091	-0,067
341,216	367,936	-0,140	-0,195
342,231	211,662	-0,159	-0,172
343,246	77,549	-0,135	-0,099
344,260	100,295	-0,101	-0,080
345,275	-149,468	-0,136	0,007
346,289	73,669	-0,040	0,029
347,304	-173,099	-0,192	-0,004
348,319	567,469	-0,119	-0,199
349,333	7,293	-0,139	-0,071
350,348	29,631	-0,219	-0,128
351,362	-16,710	-0,169	-0,073
352,377	-51,506	-0,196	0,062
353,392	26,631	-0,304	-0,174
354,406	107,866	0,056	0,046
355,421	209,812	1314,140	1415,430
356,435	161,503	1474,770	1415,928
