DTS Sentinel unit serial number:	SN410029Multiplexer serial number:	ORYXHardware model number:	OX2-SRSoftware version number:	ORYX F/W v4,00 Oryx Data Collector v3.7.2.0data status	okinstallation	B3 Nyhavnadifferential loss correction	single-endedforward channel	channel 1reverse channel	N/Adate	2023/11/30time	19:22:30forward acquisition time	300,00reverse acquisition time	0,00gamma	499,1914k internal	0,3206k external	0,3206temperature offset calibration	1,0000default loss term (dB/km)	0,3820temperature slope calibration	1,0000multiplexer offset coefficient	1,0000multiplexer slope coefficient	1,0000fibre end	0,00T internal ref (°C)	12,05T ext. ref 1 (°C)	-3,22T ext. ref 2 (°C)	-3,34length (m)	temperature (°C)	Stokes	anti-Stokes-744,400	232,017	-0,175	-0,209
-743,385	-200,000	-0,047	0,185
-742,371	800,000	-0,124	-0,299
-741,356	-200,000	-0,024	0,265
-740,342	800,000	-0,144	-0,307
-739,327	-200,000	-0,016	0,201
-738,312	-200,000	-0,069	-0,325
-737,298	140,572	-0,077	0,074
-736,283	173,569	-0,140	-0,147
-735,269	-200,000	0,033	0,334
-734,254	698,887	-0,131	-0,252
-733,239	188,005	-0,113	0,123
-732,225	56,006	-0,193	-0,135
-731,210	-125,448	0,114	0,012
-730,196	-200,000	-0,002	0,099
-729,181	-200,000	0,004	-0,130
-728,167	221,090	-0,087	0,102
-727,152	638,354	0,043	0,080
-726,137	-200,000	0,001	-0,009
-725,123	-38,498	-0,042	0,016
-724,108	324,736	-0,078	-0,109
-723,094	-200,000	0,016	0,056
-722,079	-195,152	-0,099	0,001
-721,064	-34,109	0,035	-0,014
-720,050	-168,900	0,017	-0,000
-719,035	-7,982	-0,209	-0,102
-718,021	-200,000	0,029	-0,103
-717,006	-82,983	0,117	0,027
-715,991	-200,000	-0,038	-0,153
-714,977	-200,000	-0,015	-0,242
-713,962	800,000	-0,023	-0,060
-712,948	327,658	-0,055	-0,077
-711,933	572,960	-0,038	0,067
-710,918	701,913	-0,082	-0,157
-709,904	800,000	-0,082	-0,190
-708,889	24,348	0,085	-0,051
-707,875	180,208	-0,112	-0,119
-706,860	129,436	-0,016	0,015
-705,845	800,000	-0,030	0,086
-704,831	86,422	0,079	0,063
-703,816	1,654	0,125	0,065
-702,802	92,331	-0,074	0,060
-701,787	-130,617	-0,212	-0,020
-700,772	-39,933	0,093	-0,035
-699,758	72,217	-0,028	0,021
-698,743	-75,802	0,121	-0,031
-697,729	-200,000	-0,010	-0,063
-696,714	-46,357	-0,158	-0,056
-695,699	-200,000	-0,011	-0,056
-694,685	413,565	-0,070	0,108
-693,670	-111,545	-0,122	-0,018
-692,656	163,209	0,051	-0,052
-691,641	55,936	-0,109	0,077
-690,627	3,674	0,076	0,040
-689,612	10,029	0,023	-0,013
-688,597	-128,101	-0,082	-0,008
-687,583	-63,457	-0,142	0,042
-686,568	101,631	-0,145	-0,123
-685,554	-200,000	-0,010	-0,111
-684,539	83,665	-0,082	0,065
-683,524	34,888	0,139	0,088
-682,510	-5,824	0,084	0,041
-681,495	-139,278	-0,114	-0,009
-680,481	-107,397	-0,136	0,021
-679,466	115,188	-0,107	-0,095
-678,451	800,000	0,068	-0,194
-677,437	-200,000	-0,006	-0,075
-676,422	377,484	-0,026	0,039
-675,408	-100,541	0,030	-0,005
-674,393	8,000	-0,035	0,019
-673,378	226,613	-0,080	-0,094
-672,364	115,937	-0,112	-0,100
-671,349	260,116	0,003	-0,004
-670,335	-134,260	-0,064	0,006
-669,320	-30,852	-0,081	-0,033
-668,305	308,922	0,017	0,023
-667,291	14,228	-0,150	-0,084
-666,276	-200,000	0,008	-0,145
-665,262	711,068	-0,040	-0,077
-664,247	-200,000	0,007	-0,100
-663,232	100,173	-0,116	-0,098
-662,218	-200,000	-0,022	0,089
-661,203	460,872	0,033	0,053
-660,189	750,001	-0,021	-0,041
-659,174	-136,639	-0,115	0,009
-658,159	171,400	-0,057	-0,059
-657,145	193,607	-0,113	-0,124
-656,130	-93,050	0,142	0,028
-655,116	-200,000	-0,002	0,018
-654,101	95,392	-0,057	0,047
-653,086	-200,000	-0,006	0,078
-652,072	800,000	-0,028	-0,074
-651,057	172,424	-0,113	-0,118
-650,043	76,519	-0,133	-0,102
-649,028	141,387	0,090	-0,086
-648,014	-93,521	0,161	-0,032
-646,999	-200,000	-0,005	0,032
-645,984	2,939	0,109	0,057
-644,970	208,165	-0,069	0,078
-643,955	50,328	-0,093	0,063
-642,941	-83,746	0,044	0,010
-641,926	800,000	-0,034	-0,071
-640,911	347,163	-0,080	-0,115
-639,897	87,000	0,020	0,016
-638,882	800,000	-0,056	-0,112
-637,868	70,590	-0,036	-0,027
-636,853	800,000	-0,026	-0,071
-635,838	-200,000	-0,011	-0,037
-634,824	800,000	-0,059	0,121
-633,809	-51,331	-0,023	0,008
-632,795	-31,938	-0,115	0,047
-631,780	670,682	0,042	0,078
-630,765	24,448	-0,159	0,095
-629,751	-22,134	-0,186	0,081
-628,736	-200,000	0,006	0,046
-627,722	-159,095	-0,027	0,001
-626,707	-154,465	-0,139	-0,007
-625,692	154,868	0,093	-0,093
-624,678	14,335	-0,117	0,066
-623,663	392,798	0,049	0,074
-622,649	-193,864	-0,089	0,001
-621,634	-27,555	0,099	-0,042
-620,619	-200,000	-0,006	-0,050
-619,605	-35,584	-0,064	0,025
-618,590	-200,000	0,009	0,048
-617,576	34,108	-0,085	-0,054
-616,561	-102,747	-0,051	-0,009
-615,546	-2,258	-0,091	0,046
-614,532	-1,209	-0,069	-0,035
-613,517	-137,507	-0,105	-0,008
-612,503	-40,360	-0,083	0,031
-611,488	69,450	0,084	-0,062
-610,474	-92,260	0,117	-0,024
-609,459	800,000	-0,014	-0,032
-608,444	-21,857	-0,055	-0,024
-607,430	-82,760	-0,068	0,016
-606,415	75,480	0,067	0,051
-605,401	800,000	-0,022	-0,061
-604,386	800,000	-0,041	-0,115
-603,371	64,958	-0,034	0,025
-602,357	-9,221	-0,031	-0,015
-601,342	137,050	0,087	0,082
-600,328	95,371	-0,086	-0,071
-599,313	-18,988	0,047	-0,021
-598,298	-3,161	-0,067	-0,033
-597,284	-200,000	0,014	-0,107
-596,269	-200,000	-0,002	-0,071
-595,255	800,000	-0,057	-0,178
-594,240	-200,000	0,031	-0,110
-593,225	-6,742	-0,073	-0,036
-592,211	800,000	-0,048	-0,132
-591,196	-200,000	0,001	-0,060
-590,182	-188,103	0,134	-0,001
-589,167	-200,000	-0,014	0,078
-588,152	291,810	0,008	-0,011
-587,138	158,379	-0,043	0,043
-586,123	800,000	-0,030	0,078
-585,109	-9,482	0,050	0,024
-584,094	-111,082	-0,047	-0,007
-583,079	-200,000	0,018	-0,137
-582,065	-200,000	0,004	-0,031
-581,050	245,024	0,023	-0,027
-580,036	-105,135	0,073	0,012
-579,021	-200,000	-0,020	-0,066
-578,006	-122,135	0,157	-0,018
-576,992	-200,000	0,008	-0,103
-575,977	25,836	-0,059	-0,035
-574,963	14,064	0,098	0,055
-573,948	800,000	0,036	-0,098
-572,934	26,290	-0,029	0,017
-571,919	-84,814	-0,035	0,008
-570,904	-145,822	-0,085	-0,005
-569,890	-200,000	-0,031	-0,189
-568,875	-200,000	-0,018	0,127
-567,861	-200,000	0,004	0,025
-566,846	542,518	0,027	0,046
-565,831	67,823	0,091	0,067
-564,817	-200,000	-0,005	-0,080
-563,802	-200,000	0,008	-0,139
-562,788	800,000	-0,017	-0,035
-561,773	335,047	0,078	0,110
-560,758	-145,531	0,217	0,014
-559,744	-114,960	0,084	-0,011
-558,729	-66,802	-0,231	0,065
-557,715	136,768	-0,068	-0,064
-556,700	-200,000	-0,015	0,066
-555,685	-99,568	0,109	0,020
-554,671	-200,000	0,002	-0,031
-553,656	345,761	-0,019	0,027
-552,642	-200,000	-0,004	-0,045
-551,627	-200,000	-0,018	0,083
-550,612	-200,000	-0,003	-0,050
-549,598	24,084	-0,150	0,089
-548,583	-24,420	-0,079	-0,034
-547,569	27,105	-0,098	-0,059
-546,554	-185,584	0,121	-0,001
-545,539	-17,622	0,086	0,039
-544,525	2,966	0,144	0,075
-543,510	383,481	-0,023	0,034
-542,496	-200,000	0,010	-0,131
-541,481	482,913	-0,075	-0,123
-540,466	800,000	0,011	0,028
-539,452	271,913	-0,072	0,092
-538,437	24,154	0,090	0,053
-537,423	800,000	0,024	0,075
-536,408	-96,604	-0,053	0,010
-535,393	75,800	-0,062	0,047
-534,379	-0,088	0,039	-0,020
-533,364	358,981	-0,063	-0,091
-532,350	40,756	0,074	0,048
-531,335	114,714	0,008	0,007
-530,321	179,838	0,065	0,069
-529,306	-200,000	-0,003	0,062
-528,291	-77,196	-0,104	-0,026
-527,277	-77,861	-0,070	0,017
-526,262	800,000	0,021	0,048
-525,248	800,000	-0,058	0,155
-524,233	800,000	0,050	0,115
-523,218	800,000	-0,041	0,121
-522,204	410,262	-0,029	-0,044
-521,189	466,829	-0,040	-0,066
-520,175	418,483	-0,084	-0,130
-519,160	-200,000	0,022	-0,071
-518,145	-50,920	0,074	-0,025
-517,131	-66,028	-0,104	-0,030
-516,116	46,267	0,093	-0,062
-515,102	119,224	-0,086	-0,076
-514,087	-169,586	-0,118	-0,003
-513,072	-36,370	-0,078	0,030
-512,058	800,000	-0,031	0,082
-511,043	139,598	-0,066	-0,063
-510,029	-200,000	-0,002	-0,019
-509,014	-82,647	-0,042	0,010
-507,999	800,000	-0,010	-0,022
-506,985	170,304	0,049	0,050
-505,970	-200,000	0,019	0,076
-504,956	-200,000	-0,002	-0,096
-503,941	499,060	-0,040	-0,067
-502,926	210,706	-0,033	-0,037
-501,912	128,202	0,038	-0,035
-500,897	80,349	0,063	-0,049
-499,883	-200,000	0,012	-0,130
-498,868	800,000	0,049	0,102
-497,853	-200,000	0,001	-0,106
-496,839	7,209	-0,049	-0,026
-495,824	417,610	-0,048	0,073
-494,810	800,000	0,050	-0,104
-493,795	800,000	0,011	0,031
-492,781	160,708	-0,094	-0,094
-491,766	56,580	0,076	-0,053
-490,751	371,524	0,090	-0,132
-489,737	16,883	0,025	-0,014
-488,722	-6,016	0,141	0,069
-487,708	71,407	0,015	0,011
-486,693	-200,000	0,013	0,052
-485,678	73,993	-0,141	0,106
-484,664	30,417	-0,018	-0,011
-483,649	-200,000	0,021	-0,179
-482,635	-30,517	0,107	-0,043
-481,620	20,675	-0,109	0,063
-480,605	209,610	0,128	0,144
-479,591	-200,000	-0,002	0,177
-478,576	117,516	-0,099	0,088
-477,562	3,998	0,072	-0,038
-476,547	-200,000	0,000	0,085
-475,532	-168,799	-0,122	-0,003
-474,518	-12,555	-0,129	0,060
-473,503	708,840	-0,013	-0,025
-472,489	-35,109	0,145	0,057
-471,474	-138,435	-0,048	0,004
-470,459	72,773	-0,100	0,075
-469,445	800,000	0,035	-0,092
-468,430	136,223	0,082	-0,077
-467,416	-152,238	0,093	0,005
-466,401	239,065	0,031	-0,037
-465,386	159,429	0,032	-0,032
-464,372	-200,000	0,040	-0,195
-463,357	-32,858	0,054	-0,021
-462,343	-200,000	-0,031	-0,117
-461,328	800,000	-0,009	-0,025
-460,313	-143,254	-0,117	0,008
-459,299	3,953	-0,071	0,037
-458,284	144,703	-0,094	-0,091
-457,270	388,848	0,030	0,044
-456,255	-63,225	-0,148	-0,044
-455,241	-200,000	-0,013	-0,205
-454,226	-106,375	-0,069	0,011
-453,211	44,317	0,148	-0,098
-452,197	4,997	-0,148	-0,078
-451,182	-200,000	-0,032	0,181
-450,168	800,000	0,079	0,162
-449,153	800,000	-0,053	0,128
-448,138	800,000	0,022	0,049
-447,124	800,000	0,026	0,076
-446,109	350,261	0,034	0,048
-445,095	510,252	0,101	-0,168
-444,080	-83,435	0,113	0,026
-443,065	800,000	0,014	0,032
-442,051	-200,000	-0,012	0,000
-441,036	-171,860	-0,099	-0,002
-440,022	-200,000	0,032	-0,117
-439,007	-200,000	0,050	0,174
-437,992	-200,000	0,002	-0,129
-436,978	365,390	0,045	0,065
-435,963	273,783	0,019	-0,024
-434,949	800,000	0,036	-0,103
-433,934	382,364	-0,102	0,151
-432,919	236,121	-0,030	-0,036
-431,905	197,206	0,062	-0,068
-430,890	-135,532	0,097	0,008
-429,876	-200,000	-0,006	-0,031
-428,861	230,713	-0,041	0,048
-427,846	277,582	-0,066	0,084
-426,832	39,112	-0,170	-0,109
-425,817	312,275	-0,082	0,110
-424,803	-3,825	0,042	-0,021
-423,788	117,440	0,054	0,048
-422,773	-27,085	-0,036	-0,015
-421,759	-125,423	0,057	0,006
-420,744	-86,745	-0,058	-0,013
-419,730	88,743	-0,171	0,136
-418,715	-200,000	-0,006	0,041
-417,701	-29,500	-0,022	0,009
-416,686	201,850	-0,040	-0,045
-415,671	-200,000	-0,015	0,073
-414,657	-107,284	0,118	-0,018
-413,642	-93,971	0,044	0,009
-412,628	-22,659	-0,058	0,025
-411,613	-200,000	0,008	-0,066
-410,598	430,384	-0,096	0,149
-409,584	800,000	-0,058	-0,153
-408,569	28,675	0,166	0,100
-407,555	193,414	0,113	0,123
-406,540	-196,564	-0,161	-0,001
-405,525	-10,994	-0,051	0,024
-404,511	-200,000	-0,004	-0,085
-403,496	-122,061	0,021	-0,002
-402,482	-157,448	0,117	0,005
-401,467	800,000	0,015	0,034
-400,452	38,948	0,070	-0,045
-399,438	-33,469	0,051	0,020
-398,423	-91,173	-0,114	0,023
-397,409	735,665	-0,066	-0,128
-396,394	-189,799	-0,096	0,001
-395,379	-44,464	0,089	0,032
-394,365	427,457	0,030	0,047
-393,350	636,915	0,057	-0,104
-392,336	-200,000	0,077	-0,000
-391,321	587,626	0,063	-0,111
-390,306	285,645	0,080	-0,104
-389,292	-143,922	-0,122	-0,008
-388,277	800,000	-0,047	-0,128
-387,263	65,656	0,112	0,081
-386,248	-105,725	-0,065	0,010
-385,233	394,973	0,057	0,086
-384,219	144,263	-0,141	0,135
-383,204	-17,000	0,102	-0,046
-382,190	340,535	0,037	-0,051
-381,175	479,639	0,017	-0,027
-380,160	777,722	-0,033	-0,064
-379,146	211,070	0,020	0,023
-378,131	374,872	-0,081	0,118
-377,117	-49,867	-0,081	-0,027
-376,102	-200,000	-0,033	-0,117
-375,088	185,114	-0,017	0,018
-374,073	557,417	-0,056	0,097
-373,058	-153,141	0,077	-0,004
-372,044	800,000	0,036	0,095
-371,029	317,486	0,062	-0,085
-370,015	-73,871	0,103	-0,027
-369,000	800,000	-0,033	-0,067
-367,985	173,912	-0,097	-0,100
-366,971	2,560	0,036	-0,019
-365,956	-200,000	0,007	0,069
-364,942	-105,352	-0,039	0,006
-363,927	800,000	0,033	0,069
-362,912	-26,416	0,070	0,029
-361,898	-111,434	-0,123	-0,018
-360,883	489,429	0,104	-0,171
-359,869	-200,000	0,008	-0,041
-358,854	323,558	-0,040	0,055
-357,839	187,173	0,021	0,022
-356,825	765,123	0,080	0,157
-355,810	-200,000	-0,002	0,024
-354,796	800,000	0,056	-0,132
-353,781	-16,767	-0,133	-0,060
-352,766	181,757	-0,086	0,090
-351,752	-200,000	0,008	0,039
-350,737	-110,740	0,121	-0,018
-349,723	-96,221	0,060	0,011
-348,708	800,000	-0,020	-0,051
-347,693	60,053	-0,168	-0,119
-346,679	-200,000	-0,003	-0,108
-345,664	800,000	0,020	-0,053
-344,650	-118,691	0,149	-0,019
-343,635	-200,000	-0,011	0,122
-342,620	70,693	0,106	0,078
-341,606	-96,177	0,052	0,010
-340,591	-2,780	-0,151	0,075
-339,577	-108,873	-0,101	-0,015
-338,562	-200,000	-0,016	-0,080
-337,548	-52,366	0,016	-0,005
-336,533	-122,665	-0,070	-0,008
-335,518	24,915	-0,064	0,038
-334,504	453,240	0,148	0,235
-333,489	800,000	0,021	-0,067
-332,475	115,706	-0,052	-0,046
-331,460	25,641	0,058	0,035
-330,445	-47,313	-0,030	0,010
-329,431	-137,602	0,087	0,007
-328,416	746,806	0,048	0,092
-327,402	-200,000	-0,008	0,067
-326,387	-13,166	0,024	-0,011
-325,372	47,128	-0,127	0,084
-324,358	-39,932	-0,026	-0,010
-323,343	-125,360	0,095	0,010
-322,329	-59,226	0,083	0,025
-321,314	35,573	0,042	-0,027
-320,299	-200,000	0,018	0,108
-319,285	80,442	-0,099	-0,076
-318,270	-179,422	-0,008	-0,000
-317,256	-200,000	-0,008	-0,031
-316,241	127,885	0,073	0,066
-315,226	364,466	0,083	0,120
-314,212	116,876	0,105	0,092
-313,197	-200,000	-0,010	0,139
-312,183	-200,000	0,019	0,062
-311,168	-200,000	-0,004	-0,159
-310,153	101,807	-0,057	-0,048
-309,139	-73,947	-0,067	0,017
-308,124	-11,344	0,021	0,010
-307,110	37,690	-0,059	0,038
-306,095	-170,843	0,090	0,002
-305,080	800,000	-0,058	0,143
-304,066	88,225	-0,078	0,062
-303,051	72,406	0,171	0,127
-302,037	-200,000	-0,029	-0,130
-301,022	29,968	0,110	0,067
-300,008	-115,082	0,022	0,003
-298,993	80,059	-0,082	0,063
-297,978	-1,674	0,192	0,096
-296,964	-40,447	-0,067	-0,025
-295,949	284,237	0,061	0,079
-294,935	800,000	0,041	-0,108
-293,920	126,791	-0,040	0,036
-292,905	-40,004	-0,046	0,017
-291,891	800,000	-0,017	0,040
-290,876	-184,342	0,086	0,001
-289,862	-30,621	-0,017	-0,007
-288,847	-9,434	-0,066	-0,031
-287,832	3,019	-0,162	-0,084
-286,818	249,183	0,061	-0,074
-285,803	-168,997	-0,028	0,001
-284,789	800,000	0,002	-0,005
-283,774	-122,553	0,011	-0,001
-282,759	94,439	0,025	0,021
-281,745	37,813	-0,168	-0,106
-280,730	166,232	-0,048	0,049
-279,716	66,341	0,114	-0,083
-278,701	-200,000	-0,029	-0,173
-277,686	600,506	-0,037	0,066
-276,672	236,494	0,067	0,079
-275,657	113,604	-0,052	-0,045
-274,643	-74,249	-0,128	0,033
-273,628	800,000	-0,019	-0,041
-272,613	-61,143	0,105	0,031
-271,599	8,748	0,080	-0,043
-270,584	-31,627	0,120	0,048
-269,570	-200,000	-0,007	0,108
-268,555	-16,937	-0,117	0,052
-267,540	88,253	0,060	0,048
-266,526	-200,000	-0,018	-0,109
-265,511	419,426	0,042	0,064
-264,497	-200,000	0,002	-0,022
-263,482	315,132	0,078	0,105
-262,467	-200,000	0,011	0,088
-261,453	502,582	-0,039	0,064
-260,438	286,040	0,047	-0,061
-259,424	800,000	-0,046	-0,143
-258,409	-158,759	-0,097	-0,004
-257,395	103,525	0,048	0,040
-256,380	566,090	0,075	-0,130
-255,365	62,820	0,047	0,033
-254,351	-107,718	0,105	0,016
-253,336	78,533	-0,044	-0,034
-252,322	20,214	-0,104	-0,060
-251,307	294,261	-0,063	-0,082
-250,292	-200,000	0,001	0,067
-249,278	36,239	-0,038	-0,024
-248,263	-115,272	0,193	-0,026
-247,249	-200,000	0,027	-0,094
-246,234	174,546	-0,086	0,089
-245,219	-200,000	0,023	-0,156
-244,205	60,294	0,081	-0,057
-243,190	720,290	-0,050	0,095
-242,176	-130,664	0,075	0,007
-241,161	-36,929	-0,077	-0,029
-240,146	-22,692	0,043	0,018
-239,132	-200,000	-0,016	-0,093
-238,117	-112,861	0,108	0,015
-237,103	-200,000	0,036	-0,113
-236,088	-200,000	-0,017	0,080
-235,073	-90,655	0,074	0,015
-234,059	156,324	0,076	-0,075
-233,044	800,000	0,073	0,205
-232,030	-18,895	-0,063	-0,028
-231,015	315,600	0,049	-0,066
-230,000	-200,000	0,015	-0,172
-228,986	-200,000	0,011	0,124
-227,971	365,096	0,096	0,138
-226,957	-200,000	0,001	0,032
-225,942	-200,000	0,010	-0,135
-224,927	-200,000	0,013	0,099
-223,913	800,000	-0,022	0,057
-222,898	133,642	-0,067	-0,061
-221,884	800,000	-0,034	-0,098
-220,869	283,276	-0,051	-0,066
-219,855	-56,999	0,145	0,045
-218,840	81,858	0,162	0,125
-217,825	172,686	-0,025	0,026
-216,811	51,795	-0,017	-0,012
-215,796	800,000	0,004	-0,011
-214,782	146,468	0,073	-0,070
-213,767	140,246	-0,053	0,050
-212,752	4,380	0,152	0,079
-211,738	-119,867	-0,096	0,012
-210,723	572,304	-0,042	0,072
-209,709	14,888	0,036	-0,020
-208,694	-200,000	0,011	-0,101
-207,679	179,748	-0,017	0,018
-206,665	-3,085	0,086	-0,042
-205,650	-200,000	-0,012	0,066
-204,636	313,685	0,077	0,104
-203,621	-200,000	-0,018	0,087
-202,606	142,103	0,032	-0,030
-201,592	-200,000	0,022	-0,144
-200,577	-200,000	0,026	-0,124
-199,563	100,889	0,058	-0,048
-198,548	80,704	0,086	0,066
-197,533	800,000	0,038	-0,081
-196,519	199,344	0,078	-0,085
-195,504	276,138	0,036	0,045
-194,490	800,000	-0,033	-0,082
-193,475	403,676	-0,088	-0,132
-192,460	568,363	0,040	0,069
-191,446	800,000	-0,044	0,136
-190,431	51,762	0,087	0,059
-189,417	-200,000	0,020	0,066
-188,402	74,899	0,042	0,031
-187,387	208,256	-0,083	-0,092
-186,373	-200,000	-0,021	-0,135
-185,358	-200,000	-0,014	-0,058
-184,344	113,800	-0,022	-0,019
-183,329	-20,796	0,077	0,033
-182,315	198,767	-0,058	0,063
-181,300	-39,623	0,042	-0,016
-180,285	-2,507	-0,115	-0,057
-179,271	102,247	-0,074	-0,061
-178,256	159,956	-0,024	0,024
-177,242	-114,000	0,105	-0,014
-176,227	-200,000	-0,064	0,312
-175,212	-200,000	-0,038	0,247
-174,198	738,723	-0,059	-0,114
-173,183	114,563	-0,032	-0,028
-172,169	463,181	-0,080	-0,127
-171,154	800,000	-0,016	-0,035
-170,139	71,103	0,082	0,061
-169,125	-50,518	0,116	-0,039
-168,110	-200,000	0,003	0,031
-167,096	-200,000	0,001	-0,029
-166,081	91,605	0,080	-0,064
-165,066	-18,170	-0,071	0,031
-164,052	-123,875	-0,005	0,001
-163,037	64,926	0,104	-0,074
-162,023	-72,380	-0,076	0,020
-161,008	126,860	0,091	0,082
-159,993	-200,000	0,045	0,155
-158,979	-200,000	0,008	0,217
-157,964	-16,081	-0,149	0,067
-156,950	-154,090	-0,194	-0,009
-155,935	-167,208	0,157	0,004
-154,920	-200,000	0,039	0,151
-153,906	142,391	0,040	0,037
-152,891	-15,253	-0,030	-0,013
-151,877	37,995	-0,068	-0,043
-150,862	-200,000	-0,011	-0,148
-149,847	-200,000	-0,016	-0,174
-148,833	595,275	-0,093	-0,163
-147,818	-200,000	0,010	0,089
-146,804	13,243	-0,104	0,057
-145,789	-122,311	0,175	0,020
-144,775	-165,056	0,059	0,002
-143,760	800,000	0,012	-0,025
-142,745	-140,905	-0,080	-0,006
-141,731	-200,000	-0,008	-0,067
-140,716	-200,000	-0,001	-0,031
-139,702	-177,168	0,112	0,002
-138,687	-42,016	0,036	-0,013
-137,672	-200,000	0,011	-0,045
-136,658	-200,000	-0,020	-0,185
-135,643	-65,984	0,151	0,043
-134,629	172,312	-0,087	0,089
-133,614	-33,231	0,179	0,070
-132,599	-200,000	-0,021	0,118
-131,585	240,312	-0,054	0,064
-130,570	86,377	0,020	0,015
-129,556	-29,862	0,051	0,021
-128,541	800,000	-0,002	-0,007
-127,526	193,045	0,049	0,052
-126,512	54,797	0,064	0,044
-125,497	800,000	0,006	-0,013
-124,483	416,833	-0,041	0,062
-123,468	0,982	0,014	0,007
-122,453	124,903	-0,182	-0,162
-121,439	206,991	-0,081	-0,090
-120,424	178,439	-0,069	0,071
-119,410	220,104	0,037	0,042
-118,395	5,301	0,024	0,012
-117,380	800,000	0,020	0,040
-116,366	-89,703	-0,122	0,025
-115,351	-200,000	0,000	0,099
-114,337	800,000	0,003	0,007
-113,322	-200,000	0,021	-0,125
-112,307	800,000	-0,035	0,106
-111,293	-200,000	0,012	0,083
-110,278	-200,000	0,031	-0,111
-109,264	800,000	-0,021	0,051
-108,249	-200,000	0,004	-0,062
-107,234	-82,303	-0,049	-0,011
-106,220	800,000	-0,041	-0,110
-105,205	-200,000	-0,002	-0,034
-104,191	130,944	0,047	0,043
-103,176	124,533	0,112	-0,100
-102,162	-157,868	-0,189	-0,008
-101,147	-200,000	0,028	0,097
-100,132	328,119	-0,060	-0,081
-99,118	116,429	-0,055	0,048
-98,103	-200,000	-0,006	0,117
-97,089	-200,000	-0,010	0,055
-96,074	-66,030	0,140	-0,039
-95,059	261,786	0,054	0,066
-94,045	-200,000	-0,010	-0,034
-93,030	23,454	0,028	0,016
-92,016	-20,860	-0,023	-0,010
-91,001	-200,000	-0,003	-0,023
-89,986	233,653	-0,064	-0,075
-88,972	-200,000	-0,003	0,091
-87,957	-160,906	0,154	0,006
-86,943	-72,177	-0,110	0,029
-85,928	-200,000	-0,005	-0,035
-84,913	-200,000	0,004	0,053
-83,899	-62,360	0,158	-0,046
-82,884	373,615	-0,071	0,102
-81,870	-200,000	-0,032	0,163
-80,855	800,000	0,076	-0,153
-79,840	800,000	0,027	-0,058
-78,826	276,872	0,062	0,078
-77,811	-126,473	-0,046	-0,005
-76,797	-200,000	0,007	0,174
-75,782	-89,008	0,101	-0,021
-74,767	800,000	0,006	-0,017
-73,753	67,589	0,037	0,027
-72,738	70,484	-0,120	0,087
-71,724	28,275	0,042	0,025
-70,709	-7,742	-0,116	0,055
-69,694	-138,481	0,082	-0,006
-68,680	159,215	0,111	0,110
-67,665	104,805	-0,092	-0,076
-66,651	-200,000	-0,002	0,011
-65,636	-200,000	0,010	0,083
-64,622	113,589	-0,046	-0,039
-63,607	313,985	-0,097	-0,129
-62,592	175,705	-0,133	0,136
-61,578	800,000	0,055	0,115
-60,563	120,595	-0,048	0,042
-59,549	-116,394	0,043	0,006
-58,534	-9,930	-1,883	-0,882
-57,519	526,410	-1,253	-2,094
-56,505	-200,000	-0,358	-4,438
-55,490	266,532	0,885	1,095
-54,476	800,000	4,951	11,339
-53,461	-200,000	20,270	327,561
-52,446	800,000	751,664	2314,601
-51,432	549,572	1660,430	2824,732
-50,417	74,820	1668,038	1240,007
-49,403	19,872	1540,869	875,256
-48,388	13,871	1463,224	802,036
-47,373	18,800	1453,483	820,405
-46,359	16,548	1442,873	803,633
-45,344	12,179	1438,370	780,232
-44,330	12,102	1436,760	778,958
-43,315	12,181	1434,741	778,211
-42,300	12,088	1433,232	776,917
-41,286	12,137	1431,775	776,331
-40,271	12,047	1430,679	775,280
-39,257	12,063	1429,569	774,723
-38,242	12,126	1428,093	774,189
-37,227	12,115	1427,079	773,557
-36,213	12,064	1425,776	772,577
-35,198	12,131	1424,563	772,207
-34,184	12,151	1423,646	771,776
-33,169	12,104	1422,289	770,785
-32,154	12,161	1420,957	770,303
-31,140	12,165	1419,766	769,644
-30,125	12,211	1418,711	769,260
-29,111	12,130	1417,810	768,361
-28,096	12,129	1416,551	767,644
-27,082	12,082	1415,437	766,789
-26,067	12,083	1414,392	766,195
-25,052	12,102	1413,204	765,611
-24,038	12,088	1412,355	765,052
-23,023	12,056	1411,313	764,308
-22,009	12,056	1410,252	763,705
-20,994	12,100	1409,182	763,298
-19,979	12,083	1408,374	762,754
-18,965	12,044	1407,505	762,070
-17,950	12,031	1406,757	761,573
-16,936	12,019	1405,798	760,969
-15,921	12,005	1404,702	760,279
-14,906	12,003	1403,724	759,713
-13,892	11,993	1402,769	759,118
-12,877	12,010	1402,013	758,758
-11,863	11,992	1401,090	758,144
-10,848	11,977	1400,167	757,545
-9,833	11,903	1399,269	756,683
-8,819	11,920	1398,381	756,254
-7,804	11,868	1397,726	755,628
-6,790	11,875	1396,618	755,029
-5,775	11,892	1395,634	754,548
-4,760	11,884	1394,590	753,917
-3,746	11,883	1393,665	753,383
-2,731	11,865	1392,806	752,803
-1,717	11,819	1392,096	752,178
-0,702	11,841	1390,407	751,335
0,313	15,820	1305,117	723,558
1,327	32,178	697,599	424,214
2,342	49,861	121,634	80,884
3,356	4,159	16,571	8,541
4,371	-0,593	3,268	1,632
5,386	-25,639	0,791	0,328
6,400	-200,000	-0,011	0,457
7,415	-68,758	-0,276	-0,075
8,429	93,209	-0,303	-0,242
9,444	-19,569	-0,361	-0,157
10,459	125,309	-0,203	-0,181
11,473	16,937	-0,409	-0,228
12,488	-16,039	-0,274	-0,122
13,502	122,781	-0,306	-0,270
14,517	22,376	-0,335	-0,193
15,531	116,712	-0,346	-0,300
16,546	116,246	-0,226	-0,195
17,561	101,753	-0,404	-0,332
18,575	34,488	-0,219	-0,134
19,590	198,131	-0,201	-0,217
20,604	559,945	-0,076	-0,129
21,619	45,798	-0,429	-0,279
22,634	88,058	-0,412	-0,322
23,648	135,992	-0,387	-0,356
24,663	27,106	-0,409	-0,242
25,677	257,369	-0,276	-0,335
26,692	31,000	-0,401	-0,242
27,707	88,804	-0,384	-0,301
28,721	108,113	-0,326	-0,274
29,736	87,838	-0,450	-0,351
30,750	209,472	-0,338	-0,373
31,765	155,318	-0,392	-0,380
32,780	103,997	-0,287	-0,238
33,794	-8,179	-0,282	-0,133
34,809	-45,568	-0,498	-0,173
35,823	326,499	-0,275	-0,372
36,838	38,133	-0,347	-0,217
37,853	49,071	-0,374	-0,247
38,867	31,543	-0,420	-0,254
39,882	-26,387	-0,363	-0,149
40,896	-31,991	-0,405	-0,159
41,911	-101,250	-0,378	-0,064
42,926	-89,470	-0,342	-0,070
43,940	74,964	-0,361	-0,267
44,955	192,981	-0,351	-0,374
45,969	129,280	-0,366	-0,329
46,984	3,523	-0,261	-0,134
47,999	171,428	-0,333	-0,336
49,013	-2,869	-0,317	-0,155
50,028	34,520	-0,415	-0,254
51,042	45,157	-0,363	-0,235
52,057	465,032	-0,203	-0,321
53,071	39,281	-0,301	-0,189
54,086	-21,613	-0,256	-0,109
55,101	4,616	-0,463	-0,238
56,115	-29,510	-0,439	-0,176
57,130	247,645	-0,335	-0,398
58,144	137,184	-0,226	-0,208
59,159	119,872	-0,386	-0,336
60,174	281,551	-0,314	-0,397
61,188	183,538	-0,283	-0,294
62,203	-72,288	-0,408	-0,105
63,217	156,042	-0,269	-0,261
64,232	161,650	-0,226	-0,223
65,247	54,042	-0,402	-0,271
66,261	88,682	-0,331	-0,258
67,276	9,110	-0,368	-0,195
68,290	145,033	-0,263	-0,247
69,305	-27,165	-0,347	-0,141
70,320	-8,307	-0,314	-0,148
71,334	76,911	-0,297	-0,221
72,349	-49,639	-0,358	-0,119
73,363	2,397	-0,248	-0,126
74,378	58,712	-0,346	-0,238
75,393	195,464	-0,224	-0,239
76,407	111,380	-0,129	-0,109
77,422	-141,029	-0,236	-0,017
78,436	248,521	-0,148	-0,176
79,451	-73,650	-0,326	-0,083
80,466	48,390	-0,363	-0,238
81,480	2,942	-0,326	-0,166
82,495	97,073	-0,278	-0,224
83,509	103,097	-0,153	-0,126
84,524	-97,284	-0,337	-0,061
85,539	29,835	-0,225	-0,134
86,553	49,556	-0,285	-0,188
87,568	58,616	-0,282	-0,194
88,582	33,097	-0,237	-0,144
89,597	17,107	-0,358	-0,198
90,611	90,488	-0,387	-0,304
91,626	127,365	-0,279	-0,248
92,641	9,104	-0,308	-0,162
93,655	95,625	-0,279	-0,223
94,670	83,444	-0,332	-0,254
95,684	124,017	-0,229	-0,202
96,699	70,802	-0,277	-0,201
97,714	193,594	-0,171	-0,182
98,728	-25,976	-0,229	-0,094
99,743	-51,731	-0,245	-0,079
100,757	-51,861	-0,295	-0,096
101,772	85,203	-0,208	-0,160
102,787	800,000	-0,135	-0,293
103,801	104,501	-0,326	-0,269
104,816	291,038	-0,183	-0,234
105,830	-33,059	-0,212	-0,082
106,845	330,185	-0,221	-0,299
107,860	800,000	-0,154	-0,315
108,874	-44,201	-0,353	-0,123
109,889	106,963	-0,328	-0,272
110,903	26,337	-0,312	-0,182
111,918	98,963	-0,233	-0,188
112,933	-76,570	-0,185	-0,045
113,947	-90,403	-0,208	-0,042
114,962	-4,915	-0,370	-0,178
115,976	18,476	-0,146	-0,081
116,991	246,210	-0,239	-0,283
118,006	-1,671	-0,399	-0,196
119,020	135,957	-0,367	-0,334
120,035	222,603	-0,226	-0,255
121,049	27,494	-0,211	-0,124
122,064	-0,412	-0,168	-0,083
123,079	-65,429	-0,271	-0,076
124,093	264,381	-0,148	-0,180
125,108	100,642	-0,218	-0,177
126,122	143,898	-0,192	-0,179
127,137	-48,175	-0,215	-0,072
128,151	31,015	-0,340	-0,203
129,166	-22,714	-0,324	-0,136
130,181	96,282	-0,311	-0,248
131,195	-48,014	-0,359	-0,120
132,210	83,584	-0,273	-0,208
133,224	-80,605	-0,268	-0,062
134,239	346,034	-0,195	-0,269
135,254	-154,244	-0,233	-0,011
136,268	110,286	-0,067	-0,056
137,283	323,917	-0,131	-0,175
138,297	-24,899	-0,292	-0,120
139,312	-25,865	-0,175	-0,072
140,327	288,802	-0,185	-0,235
141,341	111,976	-0,243	-0,205
142,356	420,538	-0,153	-0,229
143,370	796,435	-0,090	-0,174
144,385	428,948	-0,154	-0,232
145,400	59,812	-0,241	-0,166
146,414	26,360	-0,330	-0,192
147,429	7,246	-0,268	-0,139
148,443	127,338	-0,228	-0,202
149,458	690,735	-0,073	-0,134
150,473	47,190	-0,181	-0,118
151,487	269,508	-0,276	-0,339
152,502	-101,858	-0,296	-0,049
153,516	22,374	-0,319	-0,181
154,531	75,871	-0,201	-0,148
155,546	-48,150	-0,330	-0,110
156,560	41,215	-0,322	-0,202
157,575	-181,325	-0,258	0,003
158,589	-96,259	-0,300	-0,055
159,604	-95,796	-0,373	-0,069
160,619	-71,519	-0,281	-0,073
161,633	77,738	-0,364	-0,270
162,648	-13,308	-0,355	-0,160
163,662	428,061	-0,160	-0,241
164,677	-73,924	-0,271	-0,068
165,692	129,616	-0,266	-0,237
166,706	-15,523	-0,285	-0,126
167,721	213,323	-0,241	-0,265
168,735	47,293	-0,243	-0,157
169,750	-76,999	-0,184	-0,044
170,764	692,726	-0,131	-0,240
171,779	72,988	-0,176	-0,128
172,794	44,196	-0,233	-0,149
173,808	219,939	-0,247	-0,276
174,823	43,056	-0,339	-0,215
175,837	238,608	-0,191	-0,221
176,852	-64,143	-0,252	-0,071
177,867	-132,165	-0,215	0,019
178,881	-41,648	-0,263	-0,093
179,896	-177,058	-0,387	0,007
180,910	51,868	-0,115	-0,076
181,925	659,015	-0,134	-0,241
182,940	149,066	-0,237	-0,223
183,954	315,038	-0,193	-0,254
184,969	91,933	-0,212	-0,165
185,983	800,000	-0,086	-0,244
186,998	114,002	-0,182	-0,154
188,013	34,508	-0,265	-0,160
189,027	16,415	-0,195	-0,107
190,042	46,990	-0,390	-0,252
191,056	154,522	-0,220	-0,210
192,071	35,651	-0,169	-0,103
193,086	-40,518	-0,250	-0,090
194,100	55,432	-0,246	-0,165
195,115	78,756	-0,211	-0,156
196,129	298,393	-0,185	-0,237
197,144	32,596	-0,364	-0,218
198,159	320,647	-0,184	-0,243
199,173	304,472	-0,161	-0,208
200,188	233,820	-0,106	-0,121
201,202	156,835	-0,275	-0,264
202,217	82,628	-0,196	-0,147
203,232	324,907	-0,087	-0,115
204,246	218,796	-0,151	-0,168
205,261	58,802	-0,198	-0,135
206,275	17,318	-0,134	-0,074
207,290	800,000	-0,090	-0,180
208,304	-200,000	-0,039	-0,148
209,319	26,850	-0,293	-0,170
210,334	83,363	-0,156	-0,118
211,348	800,000	-0,062	-0,180
212,363	-67,193	-0,189	-0,051
213,377	297,534	-0,113	-0,144
214,392	217,057	-0,129	-0,143
215,407	139,031	-0,134	-0,122
216,421	-70,142	-0,269	-0,070
217,436	-200,000	-0,025	-0,271
218,450	188,372	-0,239	-0,248
219,465	-6,050	-0,140	-0,066
220,480	491,338	-0,121	-0,193
221,494	19,783	-0,193	-0,107
222,509	-4,734	-0,197	-0,094
223,523	2,004	-0,158	-0,079
224,538	-57,914	-0,132	0,040
225,553	119,524	-0,153	-0,131
226,567	95,578	-0,202	-0,159
227,582	488,818	-0,170	-0,270
228,596	19,010	-0,222	-0,123
229,611	61,343	-0,189	-0,130
230,626	-115,135	-0,145	-0,019
231,640	-28,169	-0,140	-0,056
232,655	-62,849	-0,234	-0,067
233,669	-128,288	-0,185	-0,018
234,684	115,547	-0,187	-0,158
235,699	137,081	-0,131	-0,119
236,713	800,000	-0,092	-0,222
237,728	106,328	-0,248	-0,203
238,742	255,673	-0,107	-0,127
239,757	369,131	-0,112	-0,157
240,772	129,468	-0,235	-0,208
241,786	61,201	-0,233	-0,160
242,801	83,643	-0,159	-0,120
243,815	800,000	-0,021	-0,042
244,830	80,772	-0,169	-0,126
245,844	122,319	-0,094	-0,082
246,859	191,923	-0,194	-0,203
247,874	-105,395	-0,231	-0,036
248,888	192,782	-0,113	-0,119
249,903	117,403	-0,255	-0,217
250,917	171,456	-0,154	-0,152
251,932	-89,652	-0,198	-0,040
252,947	-102,979	-0,193	-0,031
253,961	-75,726	-0,289	-0,070
254,976	312,933	-0,133	-0,173
255,990	46,532	-0,190	-0,121
257,005	227,400	-0,069	-0,078
258,020	-20,720	-0,193	-0,082
259,034	60,180	-0,185	-0,126
260,049	101,283	-0,129	-0,104
261,063	155,887	-0,183	-0,174
262,078	113,756	-0,295	-0,248
263,093	-24,622	-0,196	-0,080
264,107	773,285	-0,058	-0,109
265,122	-200,000	-0,034	-0,161
266,136	800,000	-0,070	-0,158
267,151	47,523	-0,193	0,124
268,166	107,686	-0,205	-0,169
269,180	97,221	-0,247	-0,196
270,195	-152,252	-0,232	-0,011
271,209	150,104	-0,186	-0,174
272,224	-200,000	-0,009	-0,135
273,239	-58,249	-0,193	-0,058
274,253	800,000	-0,078	-0,178
275,268	81,115	-0,191	-0,142
276,282	172,182	-0,183	-0,182
277,297	-155,374	-0,201	-0,009
278,312	-104,304	-0,188	-0,030
279,326	-200,000	-0,043	-0,135
280,341	421,954	-0,122	-0,182
281,355	-80,010	-0,142	-0,033
282,370	-128,688	-0,228	-0,022
283,384	114,710	-0,132	-0,111
284,399	195,166	-0,172	-0,180
285,414	2,141	-0,153	-0,076
286,428	-45,600	-0,129	-0,044
287,443	-140,811	-0,124	0,009
288,457	69,617	-0,189	-0,134
289,472	97,513	-0,207	-0,164
290,487	122,420	-0,191	-0,164
291,501	108,295	-0,164	-0,135
292,516	-32,337	-0,251	-0,096
293,530	130,419	-0,116	-0,102
294,545	-135,974	-0,135	-0,011
295,560	257,812	-0,090	-0,106
296,574	59,434	-0,012	-0,008
297,589	271,825	-0,083	-0,101
298,603	411,189	-0,145	-0,212
299,618	-3,516	-0,277	-0,132
300,633	309,295	-0,169	-0,218
301,647	603,717	-0,092	-0,159
302,662	800,000	-0,139	-0,350
303,676	559,405	-0,077	-0,128
304,691	187,720	-0,189	-0,195
305,706	-57,243	-0,313	-0,094
306,720	320,519	-0,130	-0,170
307,735	544,414	-0,110	-0,181
308,749	-122,229	-0,045	-0,005
309,764	-71,349	-0,151	-0,039
310,779	-174,285	-0,261	-0,005
311,793	-36,674	-0,187	-0,069
312,808	800,000	-0,083	-0,189
313,822	72,202	-0,197	-0,141
314,837	-200,000	-0,015	-0,251
315,852	-4,897	-0,228	-0,108
316,866	-74,702	-0,209	-0,051
317,881	-107,882	-0,197	0,029
318,895	-93,880	-0,217	-0,041
319,910	-76,949	-0,240	0,057
320,925	-121,336	-0,198	-0,022
321,939	140,999	-0,098	-0,089
322,954	15,213	0,044	-0,024
323,968	-200,000	-0,153	0,000
324,983	-102,883	-0,137	0,022
325,997	202,308	-0,193	-0,205
327,012	-36,961	-0,183	-0,067
328,027	404,416	-0,172	-0,249
329,041	88,427	-0,210	-0,160
330,056	28,959	-0,088	-0,051
331,070	214,925	-0,071	-0,077
332,085	136,574	-0,077	-0,069
333,100	43,581	-0,058	0,037
334,114	71,896	-0,129	-0,092
335,129	800,000	-0,078	-0,223
336,143	156,972	-0,159	-0,151
337,158	-200,000	0,026	-0,104
338,173	-200,000	-0,011	0,078
339,187	-123,362	-0,170	-0,018
340,202	419,860	-0,057	-0,084
341,216	-60,248	-0,155	-0,045
342,231	140,918	-0,136	-0,123
343,246	800,000	-0,130	-0,268
344,260	179,434	0,024	0,024
345,275	465,621	-0,133	-0,204
346,289	-45,671	-0,158	-0,053
347,304	800,000	-0,108	-0,208
348,319	664,842	-0,114	-0,203
349,333	23,910	-0,134	-0,075
350,348	-29,146	-0,199	-0,078
351,362	267,384	-0,131	-0,158
352,377	259,000	-0,046	-0,055
353,392	-95,357	-0,191	-0,035
354,406	-130,070	-0,134	-0,012
355,421	208,848	1313,998	1410,277
356,435	160,718	1474,624	1410,770
