DTS Sentinel unit serial number:	SN410029Multiplexer serial number:	ORYXHardware model number:	OX2-SRSoftware version number:	ORYX F/W v4,00 Oryx Data Collector v3.7.2.0data status	okinstallation	B3 Nyhavnadifferential loss correction	single-endedforward channel	channel 1reverse channel	N/Adate	2023/11/30time	22:57:30forward acquisition time	300,00reverse acquisition time	0,00gamma	499,1914k internal	0,3210k external	0,3210temperature offset calibration	1,0000default loss term (dB/km)	0,3820temperature slope calibration	1,0000multiplexer offset coefficient	1,0000multiplexer slope coefficient	1,0000fibre end	0,00T internal ref (°C)	9,84T ext. ref 1 (°C)	-5,29T ext. ref 2 (°C)	-5,41length (m)	temperature (°C)	Stokes	anti-Stokes-744,400	48,617	-0,257	-0,174
-743,385	-200,000	-0,003	0,211
-742,371	800,000	-0,074	-0,168
-741,356	504,312	0,138	0,232
-740,342	18,801	-0,200	-0,116
-739,327	800,000	0,059	0,163
-738,312	195,480	-0,150	-0,166
-737,298	-200,000	-0,017	0,227
-736,283	201,639	-0,174	-0,194
-735,269	800,000	-0,076	0,202
-734,254	-1,040	-0,241	-0,123
-733,239	19,772	-0,221	0,129
-732,225	151,615	-0,110	-0,109
-731,210	265,647	0,124	0,157
-730,196	60,955	-0,140	-0,101
-729,181	-200,000	-0,001	0,033
-728,167	800,000	0,013	-0,033
-727,152	199,805	-0,059	0,066
-726,137	800,000	-0,009	0,019
-725,123	454,941	-0,051	0,082
-724,108	2,656	-0,276	-0,144
-723,094	-71,983	-0,102	-0,027
-722,079	115,787	-0,086	-0,076
-721,064	-200,000	0,021	-0,181
-720,050	46,788	-0,119	-0,080
-719,035	352,084	-0,036	0,052
-718,021	-128,405	-0,176	-0,018
-717,006	532,201	-0,097	-0,166
-715,991	509,961	-0,006	-0,011
-714,977	76,361	-0,087	0,067
-713,962	800,000	-0,048	-0,105
-712,948	-39,470	-0,127	0,048
-711,933	331,125	0,075	0,105
-710,918	-51,800	-0,186	-0,062
-709,904	-129,490	-0,119	-0,012
-708,889	-12,817	0,040	-0,019
-707,875	-129,265	-0,148	0,015
-706,860	-24,552	0,062	0,027
-705,845	-51,445	0,062	0,021
-704,831	-200,000	0,012	-0,161
-703,816	-24,348	0,026	-0,011
-702,802	109,411	-0,141	-0,122
-701,787	47,925	-0,095	0,064
-700,772	-164,570	0,036	0,001
-699,758	521,076	-0,108	-0,185
-698,743	-42,386	0,063	-0,023
-697,729	-200,000	-0,003	-0,132
-696,714	570,839	0,088	-0,156
-695,699	-200,000	0,001	0,012
-694,685	248,900	0,023	-0,028
-693,670	206,511	-0,104	-0,117
-692,656	621,547	0,081	-0,148
-691,641	-136,721	0,180	-0,015
-690,627	1,590	-0,101	-0,052
-689,612	-6,705	0,022	0,011
-688,597	230,116	0,065	-0,076
-687,583	28,276	-0,052	-0,031
-686,568	96,614	-0,122	-0,101
-685,554	-56,298	0,073	0,023
-684,539	-108,527	-0,104	0,016
-683,524	800,000	-0,048	-0,104
-682,510	-88,369	-0,064	-0,014
-681,495	140,296	-0,088	0,084
-680,481	-107,110	-0,122	0,019
-679,466	-200,000	0,002	-0,118
-678,451	-200,000	-0,014	-0,049
-677,437	22,608	-0,045	0,027
-676,422	146,535	-0,064	0,062
-675,408	-200,000	-0,001	-0,087
-674,393	-200,000	-0,015	-0,197
-673,378	-200,000	0,005	-0,140
-672,364	56,858	-0,059	-0,042
-671,349	-14,472	0,011	-0,005
-670,335	15,808	-0,138	0,078
-669,320	64,493	0,043	-0,031
-668,305	-200,000	0,007	0,052
-667,291	315,956	0,043	0,059
-666,276	45,887	-0,064	-0,043
-665,262	-200,000	0,002	0,058
-664,247	103,462	0,098	-0,083
-663,232	800,000	-0,051	-0,164
-662,218	17,778	-0,080	-0,046
-661,203	800,000	-0,022	0,052
-660,189	370,326	-0,020	0,030
-659,174	181,852	-0,108	0,115
-658,159	54,694	-0,044	-0,030
-657,145	192,558	-0,035	-0,038
-656,130	-2,596	0,013	0,006
-655,116	-122,583	-0,198	0,023
-654,101	-200,000	-0,041	0,149
-653,086	-200,000	-0,005	-0,065
-652,072	800,000	-0,064	0,139
-651,057	-12,386	-0,128	-0,060
-650,043	-200,000	-0,009	-0,078
-649,028	687,448	0,054	-0,103
-648,014	44,894	0,104	0,069
-646,999	158,802	0,066	-0,067
-645,984	147,697	0,045	0,044
-644,970	164,018	-0,024	-0,024
-643,955	-59,687	-0,094	-0,029
-642,941	177,896	-0,079	-0,083
-641,926	598,562	-0,006	-0,011
-640,911	-200,000	0,023	-0,121
-639,897	800,000	-0,025	-0,074
-638,882	-34,925	-0,075	0,029
-637,868	-200,000	0,005	0,041
-636,853	-3,192	-0,113	-0,057
-635,838	469,797	-0,053	0,087
-634,824	800,000	0,042	-0,086
-633,809	99,027	0,079	-0,066
-632,795	-32,918	0,030	-0,012
-631,780	-85,373	0,015	-0,003
-630,765	-112,082	-0,026	0,004
-629,751	551,271	-0,023	-0,041
-628,736	162,903	0,116	-0,118
-627,722	-107,303	-0,085	-0,013
-626,707	-95,957	0,068	-0,013
-625,692	92,346	0,137	0,111
-624,678	-40,981	-0,117	-0,044
-623,663	-22,588	0,101	0,044
-622,649	-200,000	0,030	-0,112
-621,634	-26,593	-0,112	-0,047
-620,619	800,000	0,012	-0,026
-619,605	-6,123	-0,036	0,018
-618,590	373,283	-0,011	-0,017
-617,576	116,479	0,100	0,089
-616,561	-200,000	-0,008	-0,072
-615,546	421,003	0,044	0,069
-614,532	-200,000	-0,013	-0,117
-613,517	69,964	-0,212	0,157
-612,503	751,261	-0,039	0,076
-611,488	-72,635	-0,073	-0,019
-610,474	800,000	-0,049	0,128
-609,459	-158,312	0,159	0,007
-608,444	-121,476	-0,096	-0,011
-607,430	270,212	-0,071	-0,090
-606,415	172,416	0,027	-0,028
-605,401	-75,480	0,053	0,014
-604,386	-200,000	0,015	0,098
-603,371	-109,710	0,058	-0,009
-602,357	-200,000	0,010	-0,056
-601,342	-200,000	0,040	-0,176
-600,328	139,616	-0,078	-0,074
-599,313	723,344	-0,038	-0,072
-598,298	313,576	0,041	0,056
-597,284	214,408	0,073	0,084
-596,269	-152,909	-0,125	-0,006
-595,255	-120,460	-0,030	-0,004
-594,240	198,495	-0,096	0,106
-593,225	-200,000	-0,013	-0,051
-592,211	240,513	-0,111	0,133
-591,196	-200,000	0,021	0,073
-590,182	-200,000	0,038	0,168
-589,167	800,000	-0,026	0,057
-588,152	3,674	-0,099	0,052
-587,138	-144,408	-0,107	-0,007
-586,123	-108,761	-0,061	-0,009
-585,109	-141,998	0,026	0,002
-584,094	200,758	-0,045	0,049
-583,079	-200,000	-0,006	-0,139
-582,065	224,875	0,109	-0,128
-581,050	-71,943	-0,069	-0,018
-580,036	-44,546	-0,073	0,026
-579,021	301,186	-0,115	-0,153
-578,006	-200,000	-0,006	-0,161
-576,992	31,283	0,024	-0,015
-575,977	122,240	-0,045	0,041
-574,963	167,419	0,063	0,064
-573,948	-139,151	-0,082	0,006
-572,934	100,235	-0,113	0,095
-571,919	-25,319	-0,034	0,014
-570,904	59,179	-0,125	-0,088
-569,890	-200,000	-0,004	-0,105
-568,875	-120,284	0,072	0,009
-567,861	-33,558	-0,094	0,037
-566,846	-108,791	-0,122	0,019
-565,831	-98,100	-0,111	0,020
-564,817	-92,236	-0,057	0,012
-563,802	798,625	-0,097	-0,194
-562,788	68,729	-0,093	-0,069
-561,773	-95,366	-0,026	-0,005
-560,758	-98,432	0,150	-0,027
-559,744	800,000	-0,044	-0,129
-558,729	-158,377	-0,065	0,003
-557,715	-200,000	-0,013	0,053
-556,700	-88,687	-0,092	0,020
-555,685	-104,851	-0,120	0,020
-554,671	-200,000	0,037	0,188
-553,656	-25,210	-0,122	-0,052
-552,642	800,000	0,062	0,146
-551,627	253,702	0,095	0,118
-550,612	-37,581	0,114	-0,044
-549,598	800,000	0,041	-0,110
-548,583	-126,542	0,049	-0,005
-547,569	800,000	0,028	-0,056
-546,554	180,482	0,038	0,040
-545,539	-200,000	0,000	-0,063
-544,525	800,000	-0,019	0,042
-543,510	122,136	0,056	-0,050
-542,496	29,863	-0,136	-0,083
-541,481	-200,000	-0,018	-0,165
-540,466	198,311	-0,086	-0,094
-539,452	-59,094	0,091	-0,028
-538,437	800,000	-0,046	0,121
-537,423	3,229	-0,081	0,042
-536,408	-200,000	-0,019	0,132
-535,393	-200,000	-0,018	0,089
-534,379	-200,000	0,010	-0,032
-533,364	-200,000	-0,018	-0,165
-532,350	293,448	-0,035	0,046
-531,335	-139,126	0,045	0,003
-530,321	-89,153	-0,056	-0,012
-529,306	102,519	-0,048	0,040
-528,291	800,000	-0,041	0,091
-527,277	79,055	0,034	-0,026
-526,262	256,492	0,013	-0,017
-525,248	800,000	0,026	0,053
-524,233	9,958	-0,029	-0,016
-523,218	194,125	-0,012	-0,013
-522,204	-1,975	-0,073	-0,037
-521,189	-70,928	-0,142	-0,038
-520,175	232,421	0,177	-0,209
-519,160	-129,205	-0,053	0,005
-518,145	229,369	0,137	0,162
-517,131	-83,985	0,107	-0,024
-516,116	-153,624	0,076	-0,004
-515,102	216,724	-0,062	0,071
-514,087	-128,409	-0,073	0,007
-513,072	800,000	-0,013	0,025
-512,058	642,957	-0,029	0,053
-511,043	-200,000	-0,028	0,123
-510,029	88,564	0,029	0,023
-509,014	800,000	0,017	-0,049
-507,999	-200,000	-0,002	0,038
-506,985	-200,000	-0,001	-0,019
-505,970	48,806	-0,118	0,079
-504,956	800,000	-0,026	-0,065
-503,941	-200,000	-0,016	-0,113
-502,926	243,093	0,103	0,124
-501,912	800,000	-0,045	0,124
-500,897	177,682	-0,074	-0,078
-499,883	318,494	0,092	-0,126
-498,868	-200,000	0,001	-0,040
-497,853	800,000	-0,040	-0,107
-496,839	800,000	0,079	-0,168
-495,824	-86,793	-0,028	0,006
-494,810	800,000	-0,041	0,086
-493,795	62,314	0,040	0,029
-492,781	-117,008	0,045	-0,006
-491,766	800,000	0,033	0,100
-490,751	-62,513	-0,082	-0,024
-489,737	800,000	-0,033	0,095
-488,722	-182,201	-0,076	0,001
-487,708	-102,961	0,091	-0,015
-486,693	328,334	0,060	0,083
-485,678	-200,000	-0,013	-0,135
-484,664	-112,519	0,065	0,009
-483,649	800,000	-0,058	-0,122
-482,635	-109,731	-0,120	-0,018
-481,620	800,000	0,022	0,069
-480,605	370,434	-0,009	0,014
-479,591	27,495	0,085	0,051
-478,576	800,000	0,023	-0,051
-477,562	-103,797	-0,053	-0,009
-476,547	197,114	-0,035	0,039
-475,532	361,171	0,047	0,068
-474,518	800,000	0,025	-0,059
-473,503	234,964	-0,021	0,024
-472,489	-46,234	-0,086	-0,030
-471,474	-126,035	-0,113	0,012
-470,459	-11,368	0,034	0,016
-469,445	-200,000	0,016	-0,285
-468,430	243,644	0,046	-0,055
-467,416	-11,054	-0,190	0,089
-466,401	-94,324	0,121	0,024
-465,386	-200,000	-0,005	-0,029
-464,372	-108,469	0,030	-0,005
-463,357	-107,914	0,140	-0,022
-462,343	282,437	0,030	-0,038
-461,328	-200,000	0,013	-0,096
-460,313	-200,000	0,029	0,118
-459,299	800,000	0,099	0,222
-458,284	469,013	-0,067	0,109
-457,270	241,313	-0,070	-0,084
-456,255	-78,213	-0,055	0,014
-455,241	-200,000	0,030	-0,179
-454,226	-200,000	0,001	-0,059
-453,211	127,522	0,039	0,035
-452,197	-200,000	0,019	0,115
-451,182	-200,000	0,015	0,095
-450,168	46,038	0,051	-0,034
-449,153	-147,014	-0,015	-0,001
-448,138	-64,295	-0,020	0,006
-447,124	175,817	0,012	-0,012
-446,109	-200,000	0,006	0,078
-445,095	-72,007	0,074	-0,020
-444,080	148,021	0,011	-0,011
-443,065	282,267	0,072	-0,092
-442,051	-44,645	0,009	0,003
-441,036	-12,335	-0,089	0,041
-440,022	-15,955	0,068	0,031
-439,007	-136,511	-0,125	-0,010
-437,992	-200,000	-0,003	0,066
-436,978	800,000	-0,030	0,084
-435,963	2,701	0,056	-0,029
-434,949	5,396	-0,036	0,019
-433,934	160,718	0,065	-0,065
-432,919	800,000	0,011	0,028
-431,905	335,909	-0,030	-0,042
-430,890	595,414	0,080	0,142
-429,876	44,300	0,066	0,043
-428,861	476,925	0,043	-0,069
-427,846	183,081	0,024	0,025
-426,832	-17,025	-0,130	-0,058
-425,817	800,000	-0,041	-0,120
-424,803	-200,000	0,000	-0,028
-423,788	-81,174	0,097	0,023
-422,773	-32,717	0,057	0,023
-421,759	800,000	0,021	0,051
-420,744	197,733	0,026	-0,028
-419,730	350,476	-0,039	-0,055
-418,715	74,127	-0,060	0,045
-417,701	-200,000	0,009	0,064
-416,686	-200,000	0,011	0,185
-415,671	219,975	-0,054	0,062
-414,657	-139,412	0,099	-0,007
-413,642	641,645	0,067	0,123
-412,628	-200,000	-0,001	-0,016
-411,613	-94,289	0,064	-0,013
-410,598	89,526	0,049	-0,039
-409,584	-137,062	-0,031	-0,002
-408,569	-74,784	-0,062	0,016
-407,555	709,735	-0,024	0,045
-406,540	6,801	-0,044	0,023
-405,525	613,502	-0,027	-0,049
-404,511	99,224	-0,162	-0,134
-403,496	800,000	0,045	-0,141
-402,482	-200,000	0,020	-0,125
-401,467	62,208	0,065	-0,047
-400,452	104,633	-0,096	-0,081
-399,438	-14,672	-0,034	-0,015
-398,423	-200,000	-0,005	-0,039
-397,409	797,696	-0,065	-0,129
-396,394	800,000	0,053	-0,126
-395,379	-200,000	-0,024	-0,089
-394,365	-200,000	0,036	-0,144
-393,350	54,923	-0,039	0,027
-392,336	-99,493	-0,110	0,020
-391,321	4,445	0,039	-0,020
-390,306	-170,443	-0,065	0,002
-389,292	-77,432	-0,050	-0,012
-388,277	-200,000	-0,002	-0,014
-387,263	367,187	0,045	0,065
-386,248	723,686	0,051	0,097
-385,233	74,682	0,083	0,062
-384,219	457,449	-0,038	-0,061
-383,204	-133,858	-0,118	-0,010
-382,190	-200,000	-0,003	0,091
-381,175	256,798	0,030	0,036
-380,160	-200,000	-0,036	0,177
-379,146	6,449	0,176	0,093
-378,131	-200,000	-0,032	-0,175
-377,117	244,651	0,118	0,142
-376,102	-23,969	-0,133	0,057
-375,088	-38,774	0,116	0,043
-374,073	20,691	0,147	0,085
-373,058	-26,869	-0,150	0,062
-372,044	131,001	0,025	0,023
-371,029	195,580	0,028	0,031
-370,015	-71,966	-0,027	0,007
-369,000	206,133	-0,121	-0,134
-367,985	-41,515	0,089	-0,033
-366,971	-200,000	-0,006	0,036
-365,956	-51,890	-0,177	0,059
-364,942	-200,000	0,020	0,208
-363,927	51,780	-0,079	-0,054
-362,912	35,813	0,100	0,062
-361,898	-111,061	-0,059	0,009
-360,883	149,356	-0,049	0,048
-359,869	85,102	-0,086	-0,067
-358,854	-200,000	0,021	0,079
-357,839	-7,289	0,175	0,084
-356,825	-200,000	0,002	0,112
-355,810	-200,000	0,018	0,105
-354,796	41,805	0,134	-0,087
-353,781	79,567	-0,121	0,093
-352,766	-65,541	-0,050	-0,014
-351,752	223,481	-0,076	-0,088
-350,737	122,128	0,055	0,049
-349,723	-200,000	0,011	-0,046
-348,708	-42,854	0,076	-0,028
-347,693	129,160	-0,087	-0,079
-346,679	800,000	-0,041	-0,127
-345,664	800,000	-0,008	-0,019
-344,650	2,045	0,157	0,080
-343,635	-101,363	0,079	0,014
-342,620	107,189	0,089	-0,075
-341,606	-130,417	0,096	-0,009
-340,591	319,305	-0,056	0,076
-339,577	-200,000	-0,009	-0,033
-338,562	-126,479	0,087	0,009
-337,548	161,510	-0,033	-0,033
-336,533	306,565	0,060	0,079
-335,518	-200,000	-0,018	0,056
-334,504	-26,945	-0,055	0,023
-333,489	20,820	-0,034	-0,020
-332,475	-200,000	-0,002	-0,013
-331,460	35,024	-0,102	-0,064
-330,445	800,000	-0,084	-0,211
-329,431	-200,000	-0,008	-0,204
-328,416	0,212	0,060	0,031
-327,402	54,927	0,048	0,033
-326,387	-200,000	-0,019	-0,155
-325,372	-8,979	0,050	-0,024
-324,358	-88,361	-0,112	-0,024
-323,343	800,000	-0,026	-0,078
-322,329	800,000	0,056	-0,123
-321,314	64,340	-0,021	-0,015
-320,299	213,599	0,047	0,053
-319,285	-102,247	0,050	-0,009
-318,270	-134,860	-0,093	0,008
-317,256	230,467	0,066	0,077
-316,241	-169,830	-0,061	0,002
-315,226	350,250	0,095	-0,134
-314,212	681,227	0,074	0,137
-313,197	-66,155	0,073	-0,021
-312,183	-57,007	-0,072	0,022
-311,168	-200,000	0,003	0,129
-310,153	-103,802	0,024	0,004
-309,139	-136,500	-0,059	0,005
-308,124	659,501	0,059	-0,109
-307,110	-200,000	0,009	0,037
-306,095	-0,495	0,135	0,068
-305,080	-200,000	-0,015	0,073
-304,066	-200,000	0,016	-0,056
-303,051	154,235	-0,110	0,107
-302,037	60,119	-0,139	0,098
-301,022	63,671	0,053	-0,038
-300,008	167,976	0,174	0,177
-298,993	792,296	0,034	0,066
-297,978	800,000	0,043	0,109
-296,964	-188,171	-0,027	-0,000
-295,949	55,954	-0,127	-0,088
-294,935	197,165	0,064	-0,070
-293,920	307,274	-0,050	0,066
-292,905	800,000	-0,081	0,217
-291,891	800,000	0,031	0,081
-290,876	421,340	-0,060	0,091
-289,862	-41,275	0,081	0,030
-288,847	-89,338	0,105	0,022
-287,832	-41,757	-0,075	-0,027
-286,818	-200,000	-0,001	-0,097
-285,803	-96,762	0,051	0,010
-284,789	272,149	-0,031	0,039
-283,774	800,000	0,028	0,061
-282,759	-44,292	0,084	0,030
-281,745	-200,000	0,002	-0,063
-280,730	-107,754	-0,091	0,014
-279,716	-200,000	0,010	0,100
-278,701	313,456	0,086	-0,115
-277,686	-200,000	0,037	0,167
-276,672	-116,943	0,072	-0,009
-275,657	-200,000	0,047	0,206
-274,643	134,821	-0,125	-0,116
-273,628	-117,876	0,069	-0,009
-272,613	800,000	0,057	-0,127
-271,599	-35,538	0,068	-0,026
-270,584	-200,000	-0,010	0,121
-269,570	-61,066	0,187	0,056
-268,555	-200,000	-0,024	0,092
-267,540	-200,000	-0,037	0,126
-266,526	-81,854	-0,044	-0,010
-265,511	-200,000	-0,026	-0,087
-264,497	-79,646	0,103	-0,024
-263,482	-88,277	0,091	0,019
-262,467	49,737	0,063	0,042
-261,453	-200,000	-0,003	-0,096
-260,438	-200,000	-0,020	-0,085
-259,424	68,024	-0,126	-0,091
-258,409	-200,000	-0,005	-0,025
-257,395	-47,758	-0,051	-0,017
-256,380	64,735	0,157	0,112
-255,365	638,465	0,007	0,013
-254,351	252,643	0,063	0,076
-253,336	-4,461	-0,062	0,030
-252,322	-183,609	0,038	-0,000
-251,307	35,353	0,074	-0,046
-250,292	685,705	0,040	-0,074
-249,278	800,000	0,040	0,124
-248,263	-200,000	-0,011	0,123
-247,249	-200,000	-0,008	0,208
-246,234	26,041	-0,057	-0,034
-245,219	465,715	0,061	-0,098
-244,205	-200,000	0,027	-0,105
-243,190	103,041	-0,007	0,006
-242,176	800,000	0,045	0,097
-241,161	-200,000	-0,015	-0,078
-240,146	213,616	0,106	-0,119
-239,132	800,000	-0,030	-0,069
-238,117	72,503	-0,123	-0,091
-237,103	-38,818	-0,060	0,022
-236,088	-200,000	0,000	0,094
-235,073	800,000	0,046	0,111
-234,059	173,946	0,118	0,121
-233,044	-200,000	-0,002	0,010
-232,030	409,306	-0,038	-0,058
-231,015	170,022	-0,111	-0,113
-230,000	-200,000	0,019	-0,105
-228,986	-14,854	-0,051	-0,023
-227,971	537,100	-0,037	0,062
-226,957	142,785	-0,056	0,053
-225,942	310,722	-0,030	0,041
-224,927	557,067	0,022	-0,038
-223,913	-200,000	0,013	0,083
-222,898	31,495	0,054	-0,033
-221,884	263,159	0,056	-0,070
-220,869	-152,178	0,064	0,003
-219,855	-200,000	0,007	-0,026
-218,840	-200,000	-0,001	-0,064
-217,825	350,625	-0,075	0,106
-216,811	775,604	-0,084	-0,164
-215,796	-81,864	0,082	-0,019
-214,782	236,068	0,103	-0,121
-213,767	461,524	0,080	-0,128
-212,752	-144,316	0,043	0,003
-211,738	74,798	0,042	0,031
-210,723	800,000	0,019	0,060
-209,709	800,000	0,034	0,070
-208,694	64,440	-0,051	-0,036
-207,679	-189,466	-0,185	0,001
-206,665	684,859	0,070	0,130
-205,650	-161,660	-0,027	0,001
-204,636	119,560	0,117	-0,103
-203,621	75,179	0,086	0,065
-202,606	73,437	0,040	-0,030
-201,592	606,770	0,053	0,094
-200,577	-200,000	0,016	-0,060
-199,563	-113,603	0,184	-0,025
-198,548	438,795	0,034	0,054
-197,533	113,198	-0,026	0,022
-196,519	-200,000	-0,003	-0,021
-195,504	-200,000	0,003	-0,131
-194,490	-111,635	-0,093	-0,013
-193,475	447,179	-0,073	0,114
-192,460	-200,000	-0,022	0,101
-191,446	-86,759	-0,059	0,013
-190,431	193,849	0,048	0,052
-189,417	-200,000	-0,026	0,207
-188,402	59,680	-0,043	0,030
-187,387	-200,000	0,002	-0,036
-186,373	503,239	-0,029	-0,048
-185,358	-6,622	0,079	-0,038
-184,344	-111,642	0,051	-0,007
-183,329	268,373	0,062	0,077
-182,315	-22,174	0,084	-0,036
-181,300	594,259	-0,012	-0,021
-180,285	27,130	0,067	-0,040
-179,271	-10,366	-0,043	0,020
-178,256	198,716	-0,155	0,169
-177,242	-108,814	0,076	0,011
-176,227	-97,216	-0,086	-0,016
-175,212	-63,646	0,019	-0,005
-174,198	229,423	0,034	0,039
-173,183	-200,000	-0,022	-0,068
-172,169	-200,000	0,002	0,092
-171,154	37,411	0,045	0,028
-170,139	-200,000	-0,004	-0,044
-169,125	-159,885	0,148	-0,006
-168,110	-143,106	0,081	-0,005
-167,096	467,904	0,023	-0,037
-166,081	249,063	-0,024	-0,029
-165,066	-200,000	0,015	-0,131
-164,052	-67,549	-0,117	0,032
-163,037	-55,443	0,131	-0,041
-162,023	-68,520	0,067	-0,018
-161,008	625,750	0,060	-0,109
-159,993	-79,259	-0,101	0,024
-158,979	-145,350	-0,096	0,006
-157,964	364,730	0,069	-0,098
-156,950	503,706	0,055	-0,090
-155,935	-116,303	-0,092	-0,012
-154,920	-200,000	0,027	-0,099
-153,906	-200,000	0,012	0,067
-152,891	-56,596	-0,125	-0,039
-151,877	271,021	0,082	-0,102
-150,862	-200,000	-0,008	-0,120
-149,847	-200,000	-0,011	-0,073
-148,833	65,232	0,093	0,067
-147,818	-200,000	-0,009	-0,098
-146,804	-200,000	-0,007	0,130
-145,789	322,249	-0,036	0,049
-144,775	-94,623	-0,039	-0,007
-143,760	800,000	0,041	-0,117
-142,745	-88,155	-0,188	0,040
-141,731	800,000	-0,029	-0,060
-140,716	800,000	0,036	0,108
-139,702	-93,385	0,024	-0,005
-138,687	-200,000	-0,003	0,015
-137,672	8,173	0,050	0,027
-136,658	-200,000	0,006	0,044
-135,643	-200,000	-0,014	-0,057
-134,629	167,977	-0,075	-0,076
-133,614	112,009	-0,070	0,060
-132,599	73,724	0,134	0,099
-131,585	-116,674	-0,057	0,007
-130,570	629,709	-0,029	0,053
-129,556	-200,000	0,004	-0,068
-128,541	800,000	-0,029	-0,087
-127,526	186,967	0,029	0,030
-126,512	104,837	0,049	-0,041
-125,497	71,318	0,121	0,089
-124,483	-200,000	0,008	-0,043
-123,468	405,806	0,085	-0,128
-122,453	-139,884	-0,157	-0,012
-121,439	440,908	0,019	-0,030
-120,424	800,000	0,048	-0,126
-119,410	48,961	-0,036	-0,024
-118,395	-200,000	0,046	0,173
-117,380	55,467	0,067	0,046
-116,366	9,399	-0,090	0,048
-115,351	-200,000	0,001	-0,071
-114,337	212,228	0,031	-0,035
-113,322	-200,000	-0,030	-0,157
-112,307	-10,190	-0,079	0,037
-111,293	367,345	-0,028	0,041
-110,278	800,000	-0,038	0,115
-109,264	800,000	0,029	0,077
-108,249	2,099	0,039	-0,020
-107,234	-140,081	-0,087	0,006
-106,220	-200,000	-0,006	0,076
-105,205	-113,865	0,165	-0,022
-104,191	-43,213	0,071	-0,025
-103,176	-16,835	-0,064	-0,029
-102,162	800,000	0,041	0,100
-101,147	-48,780	-0,075	-0,025
-100,132	800,000	-0,038	-0,111
-99,118	726,858	-0,041	-0,078
-98,103	-200,000	0,005	-0,041
-97,089	29,888	0,098	0,059
-96,074	22,323	-0,076	0,044
-95,059	471,142	0,037	0,059
-94,045	-200,000	-0,005	0,037
-93,030	-99,510	0,066	-0,012
-92,016	-127,379	-0,051	0,005
-91,001	800,000	0,037	0,114
-89,986	-200,000	-0,002	0,113
-88,972	71,463	0,036	0,027
-87,957	-117,373	-0,100	-0,013
-86,943	531,012	0,082	-0,137
-85,928	-25,021	-0,140	0,058
-84,913	-200,000	-0,007	-0,181
-83,899	112,124	0,061	0,052
-82,884	-59,069	0,108	0,033
-81,870	-150,984	-0,079	-0,004
-80,855	192,461	0,108	-0,115
-79,840	198,135	-0,063	0,068
-78,826	800,000	-0,001	-0,004
-77,811	-64,870	-0,177	-0,050
-76,797	-200,000	-0,003	-0,022
-75,782	147,373	0,133	-0,127
-74,767	-200,000	0,040	0,000
-73,753	67,167	0,055	0,040
-72,738	26,257	0,078	-0,046
-71,724	-200,000	0,003	0,118
-70,709	183,959	-0,129	0,135
-69,694	270,445	0,018	-0,023
-68,680	-200,000	-0,036	-0,112
-67,665	-200,000	0,002	-0,035
-66,651	-200,000	0,038	0,123
-65,636	-190,601	-0,085	0,001
-64,622	-90,377	0,083	-0,017
-63,607	65,921	-0,115	-0,083
-62,592	-157,822	-0,061	0,003
-61,578	660,291	0,054	-0,098
-60,563	-200,000	0,019	-0,073
-59,549	79,322	0,027	0,020
-58,534	27,098	-2,086	-1,233
-57,519	551,648	-1,197	-2,037
-56,505	-200,000	-0,316	-4,557
-55,490	309,308	0,912	1,207
-54,476	800,000	5,351	11,750
-53,461	-200,000	21,817	346,020
-52,446	800,000	763,208	2363,549
-51,432	554,347	1665,921	2840,023
-50,417	72,870	1662,525	1224,241
-49,403	17,726	1535,965	860,365
-48,388	11,676	1459,777	788,387
-47,373	19,601	1451,244	821,827
-46,359	15,255	1440,187	794,847
-45,344	10,004	1436,203	767,580
-44,330	9,893	1434,423	766,067
-43,315	9,899	1432,327	764,945
-42,300	9,914	1430,641	764,087
-41,286	9,934	1429,302	763,434
-40,271	9,927	1428,272	762,819
-39,257	9,900	1427,086	762,029
-38,242	9,907	1425,879	761,390
-37,227	9,871	1424,903	760,665
-36,213	9,943	1423,371	760,159
-35,198	9,927	1422,278	759,468
-34,184	9,997	1421,314	759,255
-33,169	9,884	1420,171	758,080
-32,154	9,934	1419,024	757,673
-31,140	9,964	1417,534	756,992
-30,125	9,976	1416,635	756,536
-29,111	9,942	1415,430	755,705
-28,096	9,930	1414,234	754,978
-27,082	9,856	1413,033	753,960
-26,067	9,878	1412,080	753,526
-25,052	9,872	1411,144	752,967
-24,038	9,869	1410,152	752,395
-23,023	9,896	1409,125	751,942
-22,009	9,874	1408,155	751,294
-20,994	9,849	1407,261	750,667
-19,979	9,870	1406,168	750,153
-18,965	9,789	1405,448	749,359
-17,950	9,834	1404,308	748,932
-16,936	9,812	1403,551	748,398
-15,921	9,795	1402,651	747,808
-14,906	9,788	1401,740	747,262
-13,892	9,820	1400,672	746,812
-12,877	9,805	1399,867	746,281
-11,863	9,780	1398,910	745,627
-10,848	9,713	1398,313	744,966
-9,833	9,744	1397,313	744,547
-8,819	9,718	1396,302	743,860
-7,804	9,660	1395,532	743,153
-6,790	9,726	1394,296	742,767
-5,775	9,707	1393,275	742,106
-4,760	9,677	1392,420	741,485
-3,746	9,708	1391,254	740,978
-2,731	9,700	1390,681	740,606
-1,717	9,723	1389,649	740,131
-0,702	9,713	1387,902	739,129
0,313	13,661	1299,932	710,373
1,327	29,605	689,852	413,134
2,342	45,733	119,411	77,724
3,356	0,952	16,450	8,290
4,371	9,543	3,538	1,884
5,386	5,542	1,125	0,584
6,400	800,000	0,232	0,650
7,415	18,110	-0,200	-0,112
8,429	100,524	-0,331	-0,271
9,444	194,253	-0,276	-0,295
10,459	64,186	-0,269	-0,190
11,473	46,508	-0,192	-0,125
12,488	-8,160	-0,295	-0,139
13,502	132,669	-0,293	-0,266
14,517	-31,435	-0,309	-0,122
15,531	152,960	-0,268	-0,258
16,546	-47,621	-0,473	-0,161
17,561	5,000	-0,412	-0,213
18,575	33,714	-0,237	-0,145
19,590	-200,000	-0,017	-0,065
20,604	59,307	-0,101	-0,070
21,619	65,618	-0,538	-0,383
22,634	132,365	-0,395	-0,359
23,648	29,218	-0,493	-0,294
24,663	67,110	-0,448	-0,321
25,677	130,669	-0,410	-0,370
26,692	19,175	-0,308	-0,174
27,707	34,815	-0,393	-0,242
28,721	365,442	-0,261	-0,371
29,736	-19,086	-0,276	-0,120
30,750	8,127	-0,451	-0,237
31,765	92,039	-0,419	-0,332
32,780	93,184	-0,381	-0,303
33,794	194,172	-0,240	-0,256
34,809	-86,458	-0,514	-0,110
35,823	-15,903	-0,458	-0,204
36,838	114,410	-0,331	-0,284
37,853	67,069	-0,399	-0,285
38,867	204,342	-0,316	-0,345
39,882	84,290	-0,283	-0,218
40,896	314,947	-0,312	-0,414
41,911	-73,765	-0,373	-0,095
42,926	104,296	-0,301	-0,249
43,940	14,963	-0,364	-0,200
44,955	81,397	-0,352	-0,268
45,969	144,625	-0,318	-0,298
46,984	192,829	-0,320	-0,340
47,999	109,753	-0,325	-0,274
49,013	225,384	-0,230	-0,262
50,028	241,125	-0,255	-0,300
51,042	-26,743	-0,371	-0,152
52,057	480,005	-0,168	-0,268
53,071	83,507	-0,289	-0,221
54,086	132,785	-0,262	-0,238
55,101	197,364	-0,339	-0,364
56,115	41,104	-0,340	-0,215
57,130	52,921	-0,384	-0,257
58,144	231,887	-0,331	-0,381
59,159	-16,474	-0,434	-0,193
60,174	31,404	-0,380	-0,229
61,188	85,032	-0,319	-0,245
62,203	112,466	-0,294	-0,250
63,217	136,361	-0,218	-0,199
64,232	36,558	-0,334	-0,206
65,247	-46,491	-0,358	-0,123
66,261	87,585	-0,380	-0,295
67,276	37,476	-0,339	-0,211
68,290	53,773	-0,414	-0,278
69,305	14,843	-0,391	-0,214
70,320	800,000	-0,114	-0,257
71,334	11,547	-0,434	-0,233
72,349	175,816	-0,266	-0,271
73,363	194,081	-0,296	-0,314
74,378	14,540	-0,371	-0,203
75,393	110,277	-0,362	-0,304
76,407	95,052	-0,345	-0,275
77,422	344,702	-0,219	-0,303
78,436	25,870	-0,276	-0,161
79,451	73,225	-0,253	-0,185
80,466	98,164	-0,330	-0,266
81,480	44,077	-0,400	-0,257
82,495	60,283	-0,263	-0,182
83,509	-13,752	-0,256	-0,116
84,524	-21,444	-0,197	-0,084
85,539	-0,480	-0,393	-0,195
86,553	-35,042	-0,413	-0,157
87,568	108,267	-0,290	-0,242
88,582	280,876	-0,181	-0,227
89,597	65,131	-0,326	-0,230
90,611	89,524	-0,328	-0,256
91,626	118,226	-0,222	-0,191
92,641	201,042	-0,263	-0,284
93,655	263,190	-0,205	-0,250
94,670	136,431	-0,209	-0,191
95,684	-61,646	-0,397	-0,116
96,699	100,695	-0,221	-0,179
97,714	-59,904	-0,358	-0,106
98,728	8,627	-0,276	-0,145
99,743	-115,248	-0,254	-0,033
100,757	-111,910	-0,282	-0,039
101,772	297,867	-0,230	-0,296
102,787	316,210	-0,264	-0,349
103,801	-8,399	-0,313	-0,147
104,816	145,565	-0,188	-0,176
105,830	237,246	-0,161	-0,187
106,845	174,726	-0,118	-0,119
107,860	158,312	-0,181	-0,176
108,874	327,712	-0,133	-0,179
109,889	87,202	-0,314	-0,242
110,903	85,415	-0,399	-0,306
111,918	66,324	-0,216	-0,153
112,933	800,000	-0,105	-0,222
113,947	-75,519	-0,314	-0,077
114,962	2,948	-0,250	-0,127
115,976	258,043	-0,243	-0,293
116,991	800,000	-0,139	-0,297
118,006	170,622	-0,206	-0,207
119,020	29,554	-0,223	-0,132
120,035	310,292	-0,106	-0,138
121,049	-63,247	-0,182	-0,052
122,064	-21,659	-0,240	-0,102
123,079	177,475	-0,256	-0,261
124,093	47,308	-0,305	-0,198
125,108	-31,691	-0,354	-0,138
126,122	155,006	-0,195	-0,187
127,137	24,847	-0,270	-0,156
128,151	385,269	-0,141	-0,203
129,166	-136,545	-0,228	-0,018
130,181	118,959	-0,317	-0,274
131,195	60,725	-0,316	-0,218
132,210	-7,494	-0,235	-0,110
133,224	-15,028	-0,257	-0,114
134,239	-102,840	-0,203	-0,033
135,254	800,000	-0,057	-0,111
136,268	293,912	-0,206	-0,263
137,283	-77,020	-0,267	-0,064
138,297	148,914	-0,214	-0,202
139,312	46,926	-0,298	-0,192
140,327	587,190	-0,168	-0,290
141,341	210,247	-0,191	-0,210
142,356	61,607	-0,215	-0,149
143,370	220,407	-0,143	-0,161
144,385	-14,898	-0,393	-0,175
145,400	148,002	-0,205	-0,193
146,414	198,254	-0,187	-0,200
147,429	-3,420	-0,312	-0,151
148,443	-52,420	-0,252	-0,081
149,458	-200,000	-0,070	-0,250
150,473	317,278	-0,191	-0,252
151,487	162,810	-0,280	-0,274
152,502	250,604	-0,166	-0,197
153,516	281,592	-0,270	-0,337
154,531	-8,647	-0,256	-0,119
155,546	211,066	-0,181	-0,199
156,560	96,063	-0,215	-0,171
157,575	131,930	-0,225	-0,202
158,589	148,945	-0,212	-0,199
159,604	44,131	-0,209	-0,133
160,619	-48,942	-0,301	-0,100
161,633	74,039	-0,418	-0,305
162,648	55,334	-0,313	-0,210
163,662	-115,876	-0,246	-0,032
164,677	187,635	-0,168	-0,175
165,692	6,419	-0,338	-0,174
166,706	122,997	-0,235	-0,204
167,721	23,277	-0,299	-0,170
168,735	-108,087	-0,326	-0,049
169,750	206,570	-0,195	-0,211
170,764	463,948	-0,125	-0,195
171,779	-62,045	-0,209	-0,060
172,794	144,187	-0,197	-0,182
173,808	39,722	-0,212	-0,132
174,823	98,302	-0,215	-0,172
175,837	67,695	-0,239	-0,170
176,852	103,555	-0,203	-0,165
177,867	180,806	-0,318	-0,325
178,881	-22,387	-0,231	-0,097
179,896	-140,609	-0,131	-0,009
180,910	17,686	-0,398	-0,219
181,925	159,923	-0,268	-0,260
182,940	221,602	-0,212	-0,237
183,954	-20,273	-0,264	-0,112
184,969	69,752	-0,128	-0,091
185,983	-139,494	-0,194	-0,014
186,998	26,034	-0,373	-0,216
188,013	184,037	-0,243	-0,250
189,027	271,713	-0,144	-0,177
190,042	101,604	-0,248	-0,201
191,056	50,451	-0,155	-0,102
192,071	319,528	-0,165	-0,218
193,086	46,989	-0,177	-0,114
194,100	-170,450	-0,227	0,005
195,115	-139,450	-0,355	-0,026
196,129	300,835	-0,116	-0,149
197,144	74,126	-0,200	-0,146
198,159	321,249	-0,160	-0,211
199,173	-42,674	-0,274	-0,096
200,188	191,048	-0,157	-0,164
201,202	796,345	-0,106	-0,203
202,217	-97,334	-0,283	-0,051
203,232	58,847	-0,256	-0,174
204,246	110,692	-0,278	-0,232
205,261	137,671	-0,126	-0,115
206,275	800,000	-0,049	-0,102
207,290	800,000	-0,129	-0,287
208,304	76,343	-0,127	-0,093
209,319	-130,161	-0,306	-0,028
210,334	20,889	-0,290	-0,162
211,348	123,946	-0,191	-0,166
212,363	-30,748	-0,277	-0,108
213,377	545,985	-0,143	-0,238
214,392	-200,000	-0,064	-0,211
215,407	-182,212	-0,121	0,002
216,421	-20,129	-0,278	-0,118
217,436	75,706	-0,221	-0,161
218,450	-200,000	-0,097	-0,384
219,465	-63,249	-0,159	-0,045
220,480	85,337	-0,173	-0,132
221,494	594,673	-0,097	-0,167
222,509	-166,051	-0,221	-0,006
223,523	-77,356	-0,179	-0,043
224,538	60,009	-0,149	-0,102
225,553	88,610	-0,155	-0,119
226,567	309,031	-0,174	-0,225
227,582	-34,587	-0,203	-0,076
228,596	-52,224	-0,084	0,027
229,611	689,600	-0,151	-0,274
230,626	221,676	-0,190	-0,211
231,640	800,000	-0,110	-0,263
232,655	54,199	-0,269	-0,179
233,669	-200,000	-0,022	-0,222
234,684	79,245	-0,288	-0,213
235,699	317,369	-0,155	-0,204
236,713	-25,547	-0,270	-0,110
237,728	800,000	-0,119	-0,238
238,742	77,490	-0,218	-0,160
239,757	283,519	-0,150	-0,187
240,772	29,597	-0,220	-0,129
241,786	164,994	-0,218	-0,213
242,801	-34,840	-0,151	-0,057
243,815	74,713	-0,251	-0,183
244,830	800,000	-0,068	-0,188
245,844	36,395	-0,245	-0,149
246,859	-36,359	-0,260	-0,096
247,874	102,992	-0,172	-0,139
248,888	-121,527	-0,233	-0,026
249,903	-11,383	-0,139	-0,063
250,917	80,792	-0,069	-0,052
251,932	-182,622	-0,134	0,002
252,947	22,949	-0,175	-0,099
253,961	29,434	-0,122	-0,071
254,976	232,164	-0,208	-0,236
255,990	15,965	-0,308	-0,167
257,005	151,218	-0,200	-0,188
258,020	800,000	-0,105	-0,220
259,034	-63,846	-0,210	-0,059
260,049	67,922	-0,229	-0,161
261,063	-134,880	-0,196	-0,016
262,078	170,024	-0,227	-0,224
263,093	170,523	-0,147	-0,145
264,107	-200,000	-0,051	-0,192
265,122	-81,124	-0,208	0,047
266,136	800,000	-0,057	-0,139
267,151	172,381	-0,011	0,011
268,166	0,747	-0,201	-0,099
269,180	113,406	-0,126	-0,105
270,195	155,570	-0,238	-0,225
271,209	50,810	-0,212	-0,138
272,224	23,905	-0,117	-0,067
273,239	213,007	-0,179	-0,195
274,253	-171,670	-0,176	0,004
275,268	-86,482	-0,129	0,027
276,282	181,565	-0,201	-0,204
277,297	-200,000	-0,077	-0,234
278,312	-89,231	-0,203	-0,041
279,326	-200,000	-0,019	-0,128
280,341	-200,000	0,021	-0,084
281,355	-17,429	-0,134	-0,058
282,370	-26,361	-0,202	-0,081
283,384	214,317	-0,197	-0,215
284,399	13,663	-0,128	-0,068
285,414	169,513	-0,168	-0,165
286,428	800,000	-0,108	-0,309
287,443	525,361	-0,166	-0,270
288,457	679,102	-0,101	-0,181
289,472	-116,873	-0,077	-0,010
290,487	-40,900	-0,211	-0,075
291,501	118,370	-0,261	-0,221
292,516	304,509	-0,151	-0,193
293,530	148,047	-0,148	-0,138
294,545	-143,184	-0,169	0,011
295,560	-125,236	-0,205	0,021
296,574	39,254	-0,154	-0,095
297,589	-79,620	-0,134	0,031
298,603	216,322	-0,143	-0,157
299,618	575,207	-0,118	-0,198
300,633	504,453	-0,107	-0,171
301,647	10,491	-0,119	-0,062
302,662	572,854	-0,110	-0,185
303,676	-121,707	-0,216	-0,024
304,691	-56,437	-0,221	-0,067
305,706	-44,619	-0,234	-0,080
306,720	76,307	-0,251	-0,182
307,735	181,780	-0,093	-0,094
308,749	-22,608	-0,121	-0,050
309,764	21,136	-0,157	-0,087
310,779	-164,520	-0,123	-0,004
311,793	-40,787	-0,229	-0,081
312,808	179,090	-0,109	-0,109
313,822	24,332	-0,203	-0,115
314,837	23,896	-0,061	-0,035
315,852	800,000	-0,054	-0,139
316,866	-11,888	-0,165	-0,074
317,881	-131,292	-0,070	-0,006
318,895	-200,000	-0,049	-0,255
319,910	276,184	-0,184	-0,225
320,925	-200,000	-0,024	-0,075
321,939	-112,621	-0,095	-0,013
322,954	800,000	-0,128	-0,306
323,968	421,864	-0,043	-0,064
324,983	-200,000	-0,016	-0,100
325,997	190,527	-0,130	-0,134
327,012	11,025	-0,212	-0,111
328,027	-200,000	-0,068	-0,207
329,041	-57,401	-0,084	-0,025
330,056	17,592	-0,095	-0,051
331,070	322,445	-0,104	-0,137
332,085	-28,686	-0,157	-0,062
333,100	800,000	-0,052	-0,133
334,114	19,440	-0,223	-0,122
335,129	174,775	-0,216	-0,215
336,143	182,887	-0,152	-0,154
337,158	-35,784	-0,139	-0,051
338,173	800,000	0,037	-0,102
339,187	-124,947	-0,126	-0,013
340,202	-67,051	-0,138	0,037
341,216	256,544	-0,089	-0,105
342,231	-38,657	-0,198	-0,071
343,246	80,330	-0,083	-0,061
344,260	28,940	-0,059	0,034
345,275	-96,633	-0,143	-0,025
346,289	59,278	-0,057	0,038
347,304	-2,650	-0,222	0,106
348,319	24,763	-0,174	-0,098
349,333	-68,444	-0,182	-0,048
350,348	60,354	-0,188	-0,127
351,362	800,000	-0,062	-0,160
352,377	227,322	-0,121	-0,134
353,392	225,977	-0,037	-0,041
354,406	-181,660	-0,152	-0,002
355,421	207,419	1310,634	1400,374
356,435	159,560	1470,824	1400,839
