DTS Sentinel unit serial number:	SN410029Multiplexer serial number:	ORYXHardware model number:	OX2-SRSoftware version number:	ORYX F/W v4,00 Oryx Data Collector v3.7.2.0data status	okinstallation	B3 Nyhavnadifferential loss correction	single-endedforward channel	channel 1reverse channel	N/Adate	2023/12/01time	15:57:30forward acquisition time	300,00reverse acquisition time	0,00gamma	499,1914k internal	0,3207k external	0,3207temperature offset calibration	1,0000default loss term (dB/km)	0,3820temperature slope calibration	1,0000multiplexer offset coefficient	1,0000multiplexer slope coefficient	1,0000fibre end	0,00T internal ref (°C)	12,63T ext. ref 1 (°C)	-0,83T ext. ref 2 (°C)	-0,87length (m)	temperature (°C)	Stokes	anti-Stokes-744,400	422,873	-0,243	-0,380
-743,385	-200,000	0,056	0,297
-742,371	356,890	-0,065	-0,095
-741,356	-200,000	0,054	0,368
-740,342	136,250	-0,190	-0,180
-739,327	-200,000	-0,029	0,357
-738,312	398,113	-0,213	-0,325
-737,298	-200,000	-0,064	0,283
-736,283	800,000	-0,093	-0,269
-735,269	800,000	0,087	0,278
-734,254	321,960	-0,116	-0,160
-733,239	70,852	-0,262	0,197
-732,225	602,576	-0,153	-0,278
-731,210	-46,544	0,104	0,037
-730,196	495,516	-0,063	0,106
-729,181	460,376	-0,058	0,095
-728,167	548,723	-0,090	-0,157
-727,152	-200,000	-0,100	0,000
-726,137	800,000	-0,069	-0,184
-725,123	354,127	0,010	-0,014
-724,108	59,595	-0,034	-0,024
-723,094	330,680	-0,078	-0,109
-722,079	-72,526	-0,060	0,016
-721,064	800,000	-0,035	-0,089
-720,050	11,379	0,103	-0,057
-719,035	43,681	-0,037	-0,025
-718,021	-78,038	-0,083	0,020
-717,006	415,774	-0,078	-0,122
-715,991	-61,362	-0,039	-0,012
-714,977	800,000	-0,055	-0,134
-713,962	25,387	-0,108	0,065
-712,948	20,033	-0,039	0,023
-711,933	-200,000	0,004	0,029
-710,918	-150,779	0,021	-0,001
-709,904	-131,952	-0,162	0,015
-708,889	800,000	-0,043	-0,109
-707,875	-113,624	-0,080	-0,011
-706,860	-200,000	-0,049	-0,211
-705,845	-99,217	0,143	0,026
-704,831	143,109	0,039	-0,038
-703,816	-55,691	0,093	0,030
-702,802	-200,000	-0,010	-0,144
-701,787	37,384	-0,058	-0,037
-700,772	785,250	-0,065	-0,129
-699,758	800,000	0,022	-0,044
-698,743	-200,000	-0,014	0,123
-697,729	88,928	-0,106	0,085
-696,714	221,998	0,050	0,058
-695,699	-200,000	0,043	-0,195
-694,685	164,501	-0,022	-0,023
-693,670	800,000	-0,077	-0,163
-692,656	157,279	-0,095	-0,096
-691,641	-69,772	-0,076	0,021
-690,627	-200,000	-0,002	0,039
-689,612	800,000	0,044	-0,097
-688,597	-158,816	-0,135	0,005
-687,583	-105,331	-0,009	-0,002
-686,568	800,000	0,045	-0,093
-685,554	-125,375	-0,097	0,011
-684,539	34,853	-0,120	-0,076
-683,524	-37,313	0,118	0,045
-682,510	28,114	-0,070	-0,043
-681,495	126,898	0,123	-0,113
-680,481	12,812	-0,087	-0,048
-679,466	-200,000	0,001	-0,091
-678,451	800,000	-0,096	-0,214
-677,437	-200,000	-0,006	-0,072
-676,422	675,524	0,041	-0,077
-675,408	278,321	-0,031	-0,040
-674,393	800,000	-0,023	0,060
-673,378	31,636	0,039	0,024
-672,364	-185,700	-0,159	0,002
-671,349	159,845	-0,029	-0,029
-670,335	-200,000	-0,014	-0,116
-669,320	-38,542	0,098	-0,037
-668,305	426,621	-0,007	0,010
-667,291	-71,571	-0,025	-0,007
-666,276	85,271	-0,024	-0,019
-665,262	32,801	0,080	-0,050
-664,247	27,337	-0,098	-0,060
-663,232	54,442	0,133	-0,093
-662,218	-87,276	-0,024	0,005
-661,203	-200,000	-0,033	0,190
-660,189	88,900	-0,088	-0,070
-659,174	-118,934	0,094	0,012
-658,159	-62,622	-0,023	0,007
-657,145	-35,612	0,045	-0,018
-656,130	4,971	-0,077	-0,041
-655,116	-200,000	-0,019	-0,089
-654,101	26,547	0,103	0,062
-653,086	16,792	0,064	0,037
-652,072	800,000	-0,114	-0,230
-651,057	44,710	-0,042	0,028
-650,043	-107,849	-0,095	0,015
-649,028	-200,000	-0,002	-0,167
-648,014	48,779	-0,117	-0,079
-646,999	28,962	-0,060	-0,037
-645,984	-22,488	-0,061	-0,026
-644,970	800,000	0,037	0,116
-643,955	105,413	0,075	-0,064
-642,941	800,000	-0,066	-0,141
-641,926	800,000	-0,018	0,055
-640,911	800,000	-0,013	0,027
-639,897	-200,000	0,025	0,116
-638,882	-200,000	0,021	0,088
-637,868	-200,000	-0,004	-0,143
-636,853	800,000	-0,027	-0,077
-635,838	70,654	0,108	0,081
-634,824	800,000	-0,032	0,095
-633,809	85,613	0,076	0,060
-632,795	-94,598	-0,088	-0,017
-631,780	-182,212	0,153	0,002
-630,765	-38,201	-0,046	-0,017
-629,751	-200,000	0,003	-0,056
-628,736	800,000	-0,029	0,070
-627,722	197,376	0,043	0,047
-626,707	292,052	0,049	-0,065
-625,692	-127,314	0,072	0,008
-624,678	218,436	-0,015	0,018
-623,663	82,391	-0,031	0,024
-622,649	-200,000	-0,012	-0,059
-621,634	240,899	-0,051	-0,061
-620,619	436,746	-0,105	-0,165
-619,605	65,753	-0,116	-0,085
-618,590	-50,936	0,056	0,019
-617,576	253,788	0,040	0,050
-616,561	800,000	-0,058	-0,118
-615,546	411,847	0,049	0,076
-614,532	41,026	-0,071	0,047
-613,517	-71,341	-0,047	0,013
-612,503	539,613	0,046	0,080
-611,488	654,966	0,043	0,080
-610,474	-200,000	0,000	0,159
-609,459	-15,174	0,079	0,036
-608,444	-94,266	-0,139	0,027
-607,430	142,875	0,046	-0,044
-606,415	-200,000	-0,029	0,117
-605,401	800,000	0,045	0,117
-604,386	800,000	0,059	0,147
-603,371	800,000	-0,046	0,103
-602,357	-50,271	0,031	0,011
-601,342	-200,000	0,020	0,132
-600,328	-10,448	-0,060	0,029
-599,313	-200,000	-0,008	0,044
-598,298	-200,000	0,017	-0,061
-597,284	800,000	0,015	0,041
-596,269	800,000	-0,040	0,099
-595,255	185,998	-0,101	-0,109
-594,240	184,714	-0,058	0,062
-593,225	234,800	0,046	-0,055
-592,211	-8,843	0,020	0,009
-591,196	-13,023	0,030	0,014
-590,182	-17,046	0,044	0,020
-589,167	-4,071	0,064	0,032
-588,152	156,152	0,028	-0,027
-587,138	-149,539	-0,130	0,007
-586,123	267,508	-0,117	-0,148
-585,109	800,000	0,015	-0,033
-584,094	-6,515	0,077	0,038
-583,079	31,807	0,021	0,013
-582,065	-200,000	-0,004	0,048
-581,050	-2,534	-0,063	-0,032
-580,036	258,384	-0,077	-0,096
-579,021	-200,000	0,014	-0,049
-578,006	83,842	-0,053	-0,042
-576,992	-82,696	0,019	-0,004
-575,977	-200,000	0,021	0,109
-574,963	30,697	0,056	0,035
-573,948	-200,000	-0,024	0,220
-572,934	4,819	0,043	-0,022
-571,919	800,000	0,018	-0,039
-570,904	-64,827	-0,141	0,041
-569,890	246,763	0,031	-0,037
-568,875	-141,829	-0,043	0,003
-567,861	-114,886	0,176	-0,024
-566,846	800,000	-0,029	0,079
-565,831	236,045	-0,076	-0,091
-564,817	-200,000	-0,007	-0,147
-563,802	13,116	-0,085	0,047
-562,788	800,000	0,014	-0,031
-561,773	-151,779	0,184	0,010
-560,758	-200,000	-0,013	0,125
-559,744	-12,560	-0,198	0,093
-558,729	465,517	-0,088	0,142
-557,715	115,898	-0,051	0,045
-556,700	-200,000	0,008	-0,067
-555,685	-200,000	0,014	-0,091
-554,671	-21,655	0,091	-0,040
-553,656	229,087	-0,054	-0,064
-552,642	-73,631	0,146	0,038
-551,627	800,000	-0,034	0,090
-550,612	-127,748	-0,067	0,007
-549,598	-200,000	0,012	-0,179
-548,583	2,826	-0,138	-0,072
-547,569	-200,000	-0,035	0,231
-546,554	-121,556	0,108	0,013
-545,539	-200,000	-0,005	-0,060
-544,525	696,628	-0,013	0,024
-543,510	-9,415	-0,042	-0,020
-542,496	-89,522	0,077	0,016
-541,481	-43,506	-0,067	-0,024
-540,466	-97,090	0,052	0,010
-539,452	-149,821	0,066	0,004
-538,437	-63,919	0,156	0,046
-537,423	-104,766	-0,026	0,004
-536,408	31,645	0,115	0,071
-535,393	47,796	-0,145	-0,097
-534,379	-32,049	-0,109	0,044
-533,364	-200,000	0,027	-0,103
-532,350	-200,000	0,020	0,104
-531,335	-200,000	0,008	-0,041
-530,321	-157,703	0,003	-0,000
-529,306	435,210	0,064	-0,100
-528,291	786,652	0,027	0,054
-527,277	-6,691	-0,155	0,076
-526,262	-112,837	0,091	-0,013
-525,248	-128,535	0,163	-0,016
-524,233	122,835	0,070	-0,063
-523,218	-86,499	-0,054	0,012
-522,204	-200,000	-0,013	0,157
-521,189	-179,858	-0,128	0,002
-520,175	551,917	-0,026	-0,045
-519,160	-200,000	-0,005	-0,156
-518,145	-200,000	-0,015	-0,074
-517,131	185,957	-0,082	0,088
-516,116	6,516	0,042	0,023
-515,102	-143,028	-0,030	-0,002
-514,087	-200,000	0,013	-0,113
-513,072	-73,123	-0,115	0,030
-512,058	-70,734	-0,039	-0,011
-511,043	-200,000	-0,006	-0,076
-510,029	106,932	0,046	0,039
-509,014	42,644	0,047	0,031
-507,999	-145,464	0,072	-0,005
-506,985	309,000	-0,100	-0,135
-505,970	501,490	-0,038	0,064
-504,956	-200,000	-0,017	-0,152
-503,941	-200,000	-0,016	-0,059
-502,926	-200,000	0,031	-0,114
-501,912	587,305	-0,020	0,036
-500,897	-200,000	0,020	0,192
-499,883	647,181	0,072	-0,133
-498,868	21,545	0,092	0,054
-497,853	800,000	0,025	0,050
-496,839	-1,190	-0,166	-0,084
-495,824	-96,721	-0,080	0,015
-494,810	-200,000	0,011	-0,067
-493,795	800,000	-0,032	0,088
-492,781	800,000	0,084	0,176
-491,766	-126,502	0,007	-0,001
-490,751	-200,000	0,013	-0,056
-489,737	255,672	-0,096	-0,118
-488,722	30,621	0,111	0,068
-487,708	-200,000	-0,011	0,060
-486,693	800,000	-0,021	0,043
-485,678	454,266	0,004	-0,006
-484,664	800,000	0,012	-0,028
-483,649	237,003	-0,093	-0,111
-482,635	-19,724	-0,097	-0,043
-481,620	252,310	-0,077	0,095
-480,605	127,000	0,056	-0,051
-479,591	77,245	0,052	-0,040
-478,576	-200,000	0,003	-0,025
-477,562	-95,977	0,106	-0,020
-476,547	79,513	-0,136	-0,105
-475,532	126,785	-0,070	0,064
-474,518	135,590	-0,093	-0,087
-473,503	-37,523	-0,054	0,021
-472,489	-57,659	0,150	0,047
-471,474	-100,713	0,068	-0,012
-470,459	86,793	-0,095	0,075
-469,445	72,548	-0,073	-0,055
-468,430	265,953	-0,026	-0,033
-467,416	183,810	-0,022	0,023
-466,401	-118,328	0,100	0,013
-465,386	339,862	0,055	-0,077
-464,372	-114,473	-0,124	0,017
-463,357	361,207	-0,052	0,075
-462,343	58,083	-0,050	0,035
-461,328	394,554	-0,068	0,103
-460,313	-200,000	0,026	0,145
-459,299	592,804	-0,037	-0,066
-458,284	-64,503	-0,040	0,012
-457,270	-200,000	0,011	0,101
-456,255	220,325	0,121	-0,140
-455,241	-148,856	-0,277	-0,016
-454,226	12,384	-0,099	-0,055
-453,211	-12,828	-0,092	0,043
-452,197	8,886	0,097	0,052
-451,182	800,000	0,064	0,136
-450,168	210,573	-0,143	0,162
-449,153	-49,800	-0,111	-0,038
-448,138	-38,846	0,111	-0,042
-447,124	304,148	0,102	0,136
-446,109	591,526	0,031	-0,056
-445,095	-200,000	0,047	0,196
-444,080	16,755	-0,076	-0,043
-443,065	106,035	0,029	-0,025
-442,051	29,674	-0,111	-0,068
-441,036	-60,229	0,051	-0,016
-440,022	-74,879	0,032	-0,008
-439,007	-200,000	0,018	-0,089
-437,992	-200,000	-0,013	0,049
-436,978	-200,000	0,003	0,020
-435,963	-200,000	-0,004	-0,051
-434,949	800,000	0,030	-0,077
-433,934	-116,183	-0,026	0,003
-432,919	-102,254	0,053	0,009
-431,905	49,554	0,121	-0,082
-430,890	87,768	0,032	0,026
-429,876	800,000	-0,015	0,044
-428,861	213,571	0,096	-0,109
-427,846	-12,054	0,046	0,022
-426,832	-200,000	-0,015	-0,077
-425,817	-200,000	-0,011	-0,082
-424,803	296,129	-0,024	0,032
-423,788	78,934	0,090	-0,069
-422,773	-36,796	-0,124	-0,047
-421,759	-200,000	0,012	0,078
-420,744	15,099	0,149	-0,083
-419,730	71,612	-0,109	-0,081
-418,715	-200,000	-0,029	-0,100
-417,701	-91,417	-0,045	-0,009
-416,686	-200,000	-0,001	-0,106
-415,671	45,914	0,105	-0,070
-414,657	800,000	0,021	0,056
-413,642	-200,000	-0,000	0,091
-412,628	238,527	-0,110	-0,131
-411,613	-16,799	-0,030	-0,014
-410,598	12,687	0,041	-0,023
-409,584	-200,000	-0,001	-0,070
-408,569	53,920	0,026	0,018
-407,555	-200,000	0,018	0,062
-406,540	63,459	-0,077	-0,055
-405,525	-200,000	-0,009	0,123
-404,511	207,613	0,017	-0,019
-403,496	-168,193	0,095	0,003
-402,482	725,108	0,066	0,126
-401,467	800,000	-0,044	0,112
-400,452	285,160	0,041	0,053
-399,438	635,090	0,121	0,222
-398,423	-200,000	-0,013	0,056
-397,409	29,414	-0,150	0,091
-396,394	-200,000	0,007	-0,049
-395,379	-200,000	-0,009	-0,070
-394,365	15,074	0,071	-0,040
-393,350	-200,000	-0,006	0,022
-392,336	-148,085	0,095	0,006
-391,321	556,643	-0,087	-0,151
-390,306	79,451	-0,026	0,020
-389,292	-200,000	0,021	-0,070
-388,277	237,553	0,024	-0,029
-387,263	227,166	0,064	0,074
-386,248	-46,463	0,058	-0,020
-385,233	85,683	0,152	0,120
-384,219	-200,000	-0,022	0,076
-383,204	800,000	-0,054	-0,141
-382,190	217,087	-0,136	-0,156
-381,175	800,000	0,054	0,121
-380,160	-200,000	0,011	0,093
-379,146	-75,875	0,110	-0,028
-378,131	-200,000	0,013	0,091
-377,117	207,390	0,042	-0,047
-376,102	202,227	-0,064	0,071
-375,088	-82,259	-0,066	-0,015
-374,073	-160,164	-0,067	0,003
-373,058	185,000	0,110	0,117
-372,044	-83,989	0,083	-0,019
-371,029	357,357	0,071	0,102
-370,015	175,914	-0,032	-0,033
-369,000	-200,000	-0,003	0,081
-367,985	-14,993	0,061	-0,028
-366,971	-31,179	-0,071	-0,029
-365,956	491,419	0,035	-0,058
-364,942	-200,000	0,006	0,076
-363,927	697,700	0,012	-0,022
-362,912	-102,855	-0,223	-0,037
-361,898	353,308	-0,043	-0,061
-360,883	69,444	0,045	0,033
-359,869	800,000	0,017	-0,043
-358,854	-163,590	0,121	-0,004
-357,839	-200,000	0,013	0,075
-356,825	413,969	-0,053	0,081
-355,810	-200,000	0,024	0,115
-354,796	315,699	0,068	-0,092
-353,781	0,869	-0,061	-0,031
-352,766	-200,000	-0,013	-0,090
-351,752	130,576	-0,100	-0,092
-350,737	-56,015	0,188	-0,060
-349,723	-200,000	-0,009	0,215
-348,708	131,346	-0,007	0,006
-347,693	193,879	-0,009	0,010
-346,679	-14,789	-0,082	-0,038
-345,664	459,279	-0,033	-0,053
-344,650	101,392	0,066	0,055
-343,635	-116,325	0,239	0,031
-342,620	-127,947	-0,145	0,015
-341,606	-84,233	0,119	-0,027
-340,591	795,009	-0,044	-0,087
-339,577	800,000	-0,020	0,046
-338,562	-6,067	0,036	-0,018
-337,548	576,629	0,031	0,054
-336,533	738,870	0,040	0,078
-335,518	335,907	-0,038	0,052
-334,504	-188,740	0,078	-0,001
-333,489	47,277	-0,007	0,005
-332,475	-106,081	-0,104	-0,017
-331,460	-200,000	-0,008	-0,058
-330,445	800,000	0,053	-0,111
-329,431	92,213	-0,072	0,058
-328,416	-79,710	0,060	0,014
-327,402	-53,816	-0,090	0,029
-326,387	-200,000	0,008	0,030
-325,372	-179,792	-0,060	-0,001
-324,358	600,654	-0,017	0,030
-323,343	380,119	0,057	-0,083
-322,329	800,000	0,018	0,053
-321,314	-195,927	-0,030	-0,000
-320,299	-34,202	0,094	-0,037
-319,285	800,000	0,041	-0,119
-318,270	376,282	0,096	-0,140
-317,256	-110,874	-0,161	-0,023
-316,241	-148,804	0,031	-0,002
-315,226	-200,000	0,005	0,185
-314,212	396,030	0,065	-0,097
-313,197	134,024	0,062	-0,057
-312,183	294,724	0,047	0,061
-311,168	197,876	-0,057	-0,062
-310,153	30,296	-0,078	-0,048
-309,139	-200,000	-0,015	-0,139
-308,124	-51,329	0,098	0,033
-307,110	6,446	0,059	0,031
-306,095	464,464	0,049	-0,078
-305,080	-25,839	-0,112	-0,047
-304,066	-200,000	0,002	0,133
-303,051	145,706	-0,033	0,031
-302,037	-122,660	-0,049	0,006
-301,022	413,995	0,031	0,047
-300,008	4,908	-0,053	-0,028
-298,993	193,280	0,074	-0,080
-297,978	46,386	-0,035	0,023
-296,964	-200,000	-0,014	0,092
-295,949	-88,458	-0,114	0,024
-294,935	-200,000	-0,001	-0,019
-293,920	366,907	-0,040	-0,058
-292,905	-200,000	-0,005	0,104
-291,891	301,762	-0,017	-0,022
-290,876	207,924	-0,062	-0,069
-289,862	-30,536	-0,012	-0,005
-288,847	-22,933	0,104	-0,045
-287,832	-26,581	0,040	-0,017
-286,818	79,944	0,076	-0,059
-285,803	36,683	-0,109	-0,068
-284,789	800,000	-0,032	0,091
-283,774	18,332	0,096	0,054
-282,759	109,067	0,039	-0,033
-281,745	366,452	-0,089	-0,128
-280,730	53,548	-0,121	-0,083
-279,716	-200,000	-0,006	-0,093
-278,701	800,000	0,030	0,081
-277,686	725,829	0,072	0,138
-276,672	369,469	-0,056	-0,081
-275,657	-92,635	0,103	0,020
-274,643	222,238	0,076	-0,088
-273,628	-200,000	-0,020	-0,155
-272,613	180,842	-0,040	-0,042
-271,599	-144,079	0,161	-0,011
-270,584	-139,382	-0,032	-0,002
-269,570	-200,000	-0,014	-0,059
-268,555	-200,000	0,001	0,074
-267,540	-4,336	-0,123	0,061
-266,526	-11,562	0,077	-0,036
-265,511	-115,314	-0,149	-0,020
-264,497	-94,748	0,223	-0,043
-263,482	579,509	-0,069	0,122
-262,467	-111,814	-0,058	0,008
-261,453	800,000	-0,060	-0,125
-260,438	218,333	-0,081	-0,092
-259,424	-72,234	-0,063	0,017
-258,409	402,252	-0,079	-0,118
-257,395	296,951	0,050	-0,066
-256,380	-200,000	0,020	0,161
-255,365	331,924	0,064	0,088
-254,351	-200,000	0,002	0,159
-253,336	344,526	0,061	0,086
-252,322	-200,000	0,044	-0,149
-251,307	800,000	-0,062	0,122
-250,292	388,772	0,005	-0,008
-249,278	302,297	-0,016	0,020
-248,263	-200,000	0,018	0,064
-247,249	385,510	0,095	0,139
-246,234	800,000	0,046	-0,108
-245,219	-37,256	-0,016	0,006
-244,205	351,178	-0,067	0,095
-243,190	-200,000	-0,004	0,041
-242,176	-37,386	0,068	0,026
-241,161	73,618	0,119	0,088
-240,146	-200,000	-0,020	-0,063
-239,132	114,928	-0,064	-0,055
-238,117	800,000	0,056	0,115
-237,103	-200,000	0,009	-0,058
-236,088	1,720	0,095	-0,048
-235,073	688,256	0,040	0,075
-234,059	-73,630	-0,113	0,029
-233,044	-200,000	0,038	0,167
-232,030	-24,598	-0,052	-0,022
-231,015	-200,000	0,007	0,044
-230,000	-200,000	0,004	-0,027
-228,986	-200,000	-0,003	-0,075
-227,971	-41,118	0,095	-0,035
-226,957	15,032	0,103	-0,057
-225,942	347,602	-0,045	0,063
-224,927	800,000	-0,039	0,083
-223,913	-105,935	-0,213	0,034
-222,898	800,000	-0,033	-0,087
-221,884	503,379	-0,034	0,056
-220,869	-200,000	-0,001	-0,051
-219,855	-89,227	0,118	0,024
-218,840	-200,000	0,034	-0,212
-217,825	334,478	-0,031	0,043
-216,811	263,852	-0,037	0,045
-215,796	-200,000	-0,010	-0,131
-214,782	-84,972	-0,058	-0,013
-213,767	662,709	0,054	0,100
-212,752	800,000	0,020	0,062
-211,738	83,212	-0,040	0,031
-210,723	181,971	-0,108	0,113
-209,709	800,000	0,045	-0,121
-208,694	-200,000	0,017	0,163
-207,679	800,000	-0,020	0,048
-206,665	23,600	0,040	0,024
-205,650	-200,000	-0,006	-0,043
-204,636	7,856	-0,125	0,066
-203,621	-200,000	0,018	0,112
-202,606	800,000	0,010	0,021
-201,592	-200,000	-0,005	-0,129
-200,577	68,570	-0,045	-0,033
-199,563	-200,000	-0,023	-0,076
-198,548	53,982	0,107	-0,073
-197,533	690,703	-0,049	0,092
-196,519	800,000	0,042	0,105
-195,504	-200,000	0,004	-0,029
-194,490	59,891	-0,095	-0,067
-193,475	244,754	-0,031	0,037
-192,460	308,311	0,066	-0,088
-191,446	82,248	0,080	0,061
-190,431	-4,585	-0,093	0,045
-189,417	-200,000	-0,015	-0,121
-188,402	-82,654	-0,010	-0,002
-187,387	800,000	0,029	-0,069
-186,373	-34,024	-0,026	-0,010
-185,358	-98,244	0,081	-0,015
-184,344	104,281	0,074	0,062
-183,329	104,767	-0,074	-0,062
-182,315	800,000	-0,028	0,077
-181,300	-111,302	0,105	0,015
-180,285	116,937	0,116	-0,102
-179,271	-5,975	-0,182	-0,088
-178,256	284,464	0,039	-0,050
-177,242	291,293	0,028	-0,036
-176,227	-200,000	0,044	0,161
-175,212	-200,000	0,022	0,075
-174,198	34,435	0,138	-0,085
-173,183	326,968	0,063	-0,086
-172,169	-71,111	0,067	0,018
-171,154	1,175	-0,085	0,043
-170,139	800,000	0,023	0,066
-169,125	79,156	0,032	-0,024
-168,110	-132,204	0,157	-0,014
-167,096	-200,000	0,044	0,178
-166,081	-134,320	0,060	-0,005
-165,066	-101,777	0,045	-0,008
-164,052	-112,126	0,183	0,026
-163,037	-200,000	-0,011	-0,046
-162,023	-65,064	0,060	0,017
-161,008	-128,628	-0,185	0,018
-159,993	800,000	0,088	-0,248
-158,979	800,000	0,027	-0,070
-157,964	-23,838	-0,075	-0,032
-156,950	59,138	-0,126	-0,088
-155,935	304,597	0,088	-0,116
-154,920	800,000	-0,061	-0,130
-153,906	162,464	0,035	0,035
-152,891	34,480	-0,125	-0,077
-151,877	326,376	-0,068	-0,093
-150,862	340,535	-0,069	-0,096
-149,847	344,010	0,047	-0,066
-148,833	-148,367	0,082	0,005
-147,818	42,180	-0,047	0,030
-146,804	-200,000	-0,006	0,040
-145,789	800,000	0,033	0,085
-144,775	-172,350	0,086	0,002
-143,760	-171,898	-0,096	-0,002
-142,745	154,736	0,127	0,124
-141,731	-150,674	0,110	-0,006
-140,716	-113,706	0,158	-0,022
-139,702	132,908	0,067	0,061
-138,687	-151,966	0,171	-0,009
-137,672	-200,000	-0,032	0,104
-136,658	-200,000	-0,009	-0,098
-135,643	13,361	0,059	-0,032
-134,629	-200,000	0,001	0,012
-133,614	18,464	0,138	-0,078
-132,599	800,000	-0,075	-0,165
-131,585	140,756	0,021	0,020
-130,570	498,895	-0,051	0,083
-129,556	-200,000	0,014	-0,053
-128,541	548,297	-0,102	-0,173
-127,526	-200,000	-0,008	0,041
-126,512	-200,000	0,027	-0,122
-125,497	290,676	0,059	-0,077
-124,483	85,737	-0,039	-0,030
-123,468	160,698	-0,124	-0,123
-122,453	7,661	-0,060	-0,032
-121,439	-200,000	-0,036	-0,135
-120,424	289,256	0,050	-0,065
-119,410	21,938	0,027	-0,016
-118,395	99,540	0,075	-0,062
-117,380	-196,834	0,044	0,000
-116,366	800,000	0,059	0,128
-115,351	574,069	-0,064	-0,110
-114,337	800,000	0,036	-0,085
-113,322	800,000	-0,039	-0,085
-112,307	407,996	-0,024	0,036
-111,293	-200,000	0,006	0,028
-110,278	91,288	0,069	0,055
-109,264	-135,513	0,171	0,014
-108,249	319,531	-0,055	-0,074
-107,234	113,689	0,068	0,059
-106,220	-17,321	-0,102	0,045
-105,205	-189,715	-0,052	0,000
-104,191	575,809	-0,040	0,070
-103,176	440,472	0,104	0,162
-102,162	-8,959	-0,102	-0,048
-101,147	491,021	-0,036	0,059
-100,132	800,000	0,022	0,060
-99,118	800,000	-0,012	-0,025
-98,103	258,449	0,013	0,016
-97,089	535,159	0,003	0,004
-96,074	-114,751	0,155	0,021
-95,059	457,266	-0,029	-0,046
-94,045	36,152	-0,069	-0,043
-93,030	-200,000	0,009	0,057
-92,016	800,000	0,054	-0,111
-91,001	800,000	0,025	0,075
-89,986	-69,137	0,068	0,018
-88,972	127,988	-0,136	0,122
-87,957	101,063	0,113	0,093
-86,943	800,000	-0,008	0,021
-85,928	-200,000	0,010	-0,085
-84,913	337,079	0,004	0,006
-83,899	198,981	0,080	0,087
-82,884	268,226	0,036	-0,044
-81,870	121,424	0,090	0,079
-80,855	-200,000	-0,026	0,081
-79,840	-200,000	0,011	0,040
-78,826	-115,845	0,055	0,007
-77,811	800,000	0,035	0,078
-76,797	800,000	0,042	-0,087
-75,782	292,258	0,005	0,007
-74,767	800,000	-0,042	0,104
-73,753	-15,996	0,048	0,021
-72,738	287,178	-0,042	0,054
-71,724	31,867	0,125	0,076
-70,709	-82,191	-0,066	-0,015
-69,694	-200,000	-0,029	0,117
-68,680	-200,000	-0,025	0,105
-67,665	800,000	0,066	0,154
-66,651	800,000	0,057	0,124
-65,636	-200,000	-0,003	0,038
-64,622	274,575	0,051	-0,064
-63,607	26,741	-0,028	0,016
-62,592	-200,000	0,023	-0,142
-61,578	-144,657	0,039	-0,003
-60,563	-184,927	-0,071	-0,001
-59,549	161,311	0,174	0,172
-58,534	-39,711	-1,812	-0,666
-57,519	402,643	-1,397	-2,083
-56,505	-200,000	-0,425	-4,470
-55,490	273,194	0,949	1,188
-54,476	800,000	4,983	11,317
-53,461	-200,000	19,589	328,018
-52,446	-200,000	741,143	2335,120
-51,432	571,241	1651,363	2852,093
-50,417	77,235	1665,920	1250,169
-49,403	20,577	1539,566	877,700
-48,388	14,523	1462,096	804,219
-47,373	18,439	1452,371	817,672
-46,359	16,687	1442,086	803,493
-45,344	12,755	1437,476	782,142
-44,330	12,611	1435,888	780,561
-43,315	12,607	1434,130	779,555
-42,300	12,670	1432,355	778,861
-41,286	12,713	1431,042	778,320
-40,271	12,647	1429,872	777,337
-39,257	12,659	1428,302	776,511
-38,242	12,685	1427,105	775,954
-37,227	12,687	1426,010	775,338
-36,213	12,702	1424,634	774,626
-35,198	12,734	1423,325	774,038
-34,184	12,775	1422,324	773,657
-33,169	12,717	1421,108	772,691
-32,154	12,760	1419,929	772,222
-31,140	12,804	1418,903	771,838
-30,125	12,743	1417,918	770,987
-29,111	12,775	1416,665	770,425
-28,096	12,745	1415,649	769,701
-27,082	12,645	1414,658	768,663
-26,067	12,629	1413,327	767,831
-25,052	12,686	1412,101	767,403
-24,038	12,662	1411,242	766,792
-23,023	12,630	1410,386	766,149
-22,009	12,624	1409,235	765,464
-20,994	12,621	1408,289	764,904
-19,979	12,630	1407,690	764,591
-18,965	12,637	1406,454	763,923
-17,950	12,578	1405,722	763,221
-16,936	12,573	1404,893	762,716
-15,921	12,570	1403,697	762,025
-14,906	12,533	1402,984	761,432
-13,892	12,609	1401,904	761,168
-12,877	12,554	1401,081	760,440
-11,863	12,567	1400,003	759,881
-10,848	12,534	1399,287	759,313
-9,833	12,499	1398,518	758,701
-8,819	12,487	1397,646	758,142
-7,804	12,456	1396,783	757,501
-6,790	12,523	1395,541	757,105
-5,775	12,466	1394,547	756,276
-4,760	12,499	1393,535	755,848
-3,746	12,441	1392,753	755,125
-2,731	12,466	1391,900	754,750
-1,717	12,468	1390,753	754,106
-0,702	12,418	1389,207	753,005
0,313	16,362	1305,669	725,880
1,327	32,644	699,689	426,351
2,342	50,188	122,387	81,475
3,356	2,034	16,551	8,409
4,371	5,236	3,296	1,710
5,386	-10,605	0,529	0,246
6,400	-200,000	0,003	0,359
7,415	-200,000	-0,056	-0,266
8,429	111,723	-0,349	-0,298
9,444	30,970	-0,430	-0,259
10,459	124,542	-0,215	-0,191
11,473	-1,829	-0,310	-0,153
12,488	-154,316	-0,357	-0,017
13,502	13,437	-0,458	-0,250
14,517	70,146	-0,465	-0,339
15,531	28,487	-0,392	-0,233
16,546	77,078	-0,284	-0,213
17,561	154,396	-0,338	-0,328
18,575	77,605	-0,250	-0,187
19,590	566,015	-0,118	-0,203
20,604	-74,236	-0,300	-0,076
21,619	689,262	-0,203	-0,377
22,634	73,399	-0,431	-0,318
23,648	85,522	-0,565	-0,437
24,663	-1,669	-0,359	-0,178
25,677	40,733	-0,359	-0,228
26,692	230,710	-0,224	-0,259
27,707	161,314	-0,177	-0,175
28,721	201,438	-0,333	-0,362
29,736	158,367	-0,331	-0,324
30,750	-13,203	-0,424	-0,193
31,765	134,671	-0,335	-0,306
32,780	244,263	-0,276	-0,327
33,794	80,388	-0,295	-0,224
34,809	332,944	-0,166	-0,226
35,823	-0,219	-0,339	-0,169
36,838	114,294	-0,419	-0,359
37,853	800,000	-0,174	-0,346
38,867	140,843	-0,348	-0,324
39,882	98,535	-0,308	-0,250
40,896	38,055	-0,402	-0,251
41,911	-57,065	-0,290	-0,090
42,926	12,066	-0,341	-0,184
43,940	68,006	-0,416	-0,299
44,955	82,257	-0,284	-0,216
45,969	125,959	-0,287	-0,255
46,984	112,766	-0,322	-0,275
47,999	63,249	-0,269	-0,189
49,013	-103,847	-0,375	-0,061
50,028	-63,054	-0,387	-0,112
51,042	-61,111	-0,376	-0,111
52,057	158,771	-0,225	-0,219
53,071	-81,169	-0,473	-0,109
54,086	230,966	-0,223	-0,257
55,101	126,877	-0,248	-0,221
56,115	-9,985	-0,400	-0,186
57,130	25,139	-0,418	-0,243
58,144	36,720	-0,446	-0,277
59,159	177,780	-0,294	-0,301
60,174	90,212	-0,389	-0,306
61,188	85,012	-0,377	-0,290
62,203	70,887	-0,319	-0,232
63,217	22,814	-0,262	-0,150
64,232	311,547	-0,198	-0,261
65,247	88,711	-0,370	-0,289
66,261	99,451	-0,357	-0,290
67,276	-22,838	-0,341	-0,144
68,290	156,010	-0,261	-0,253
69,305	-30,489	-0,339	-0,134
70,320	-39,864	-0,315	-0,115
71,334	-6,726	-0,269	-0,128
72,349	-32,619	-0,428	-0,167
73,363	23,493	-0,436	-0,251
74,378	69,748	-0,233	-0,169
75,393	230,784	-0,246	-0,283
76,407	154,639	-0,170	-0,164
77,422	-44,040	-0,257	-0,090
78,436	-76,780	-0,239	-0,058
79,451	-30,378	-0,357	-0,141
80,466	75,653	-0,262	-0,194
81,480	-170,782	-0,316	-0,007
82,495	-1,426	-0,339	-0,167
83,509	503,382	-0,149	-0,242
84,524	-23,621	-0,238	-0,099
85,539	97,929	-0,208	-0,168
86,553	-92,751	-0,237	-0,046
87,568	6,157	-0,393	-0,204
88,582	-71,083	-0,273	-0,072
89,597	17,113	-0,441	-0,244
90,611	-109,676	-0,359	-0,052
91,626	-39,193	-0,252	-0,092
92,641	77,228	-0,251	-0,187
93,655	74,506	-0,230	-0,169
94,670	23,171	-0,378	-0,217
95,684	-117,862	-0,399	-0,050
96,699	109,176	-0,303	-0,254
97,714	128,073	-0,293	-0,261
98,728	49,464	-0,305	-0,200
99,743	-15,955	-0,412	-0,183
100,757	166,827	-0,300	-0,298
101,772	35,025	-0,293	-0,179
102,787	13,396	-0,379	-0,205
103,801	230,988	-0,247	-0,283
104,816	168,671	-0,194	-0,193
105,830	47,943	-0,297	-0,194
106,845	800,000	-0,127	-0,268
107,860	8,469	-0,229	-0,120
108,874	42,883	-0,306	-0,195
109,889	-84,502	-0,480	-0,105
110,903	154,048	-0,150	-0,144
111,918	176,019	-0,253	-0,257
112,933	439,409	-0,143	-0,220
113,947	152,520	-0,087	-0,083
114,962	-59,647	-0,272	-0,081
115,976	24,593	-0,175	-0,101
116,991	236,802	-0,237	-0,275
118,006	355,434	-0,282	-0,394
119,020	239,602	-0,257	-0,299
120,035	-116,503	-0,141	-0,018
121,049	800,000	-0,048	-0,111
122,064	57,940	-0,319	-0,218
123,079	145,725	-0,202	-0,189
124,093	-36,435	-0,355	-0,133
125,108	-24,312	-0,371	-0,154
126,122	467,328	-0,183	-0,288
127,137	247,541	-0,286	-0,339
128,151	205,768	-0,161	-0,175
129,166	-22,214	-0,292	-0,123
130,181	144,124	-0,199	-0,185
131,195	108,845	-0,311	-0,259
132,210	63,496	-0,218	-0,152
133,224	80,920	-0,168	-0,126
134,239	341,763	-0,218	-0,298
135,254	386,751	-0,090	-0,131
136,268	0,398	-0,237	-0,118
137,283	-89,689	-0,206	-0,042
138,297	203,597	-0,216	-0,234
139,312	-43,132	-0,388	-0,136
140,327	-22,125	-0,240	-0,101
141,341	-1,372	-0,352	-0,173
142,356	800,000	-0,079	-0,220
143,370	88,164	-0,249	-0,193
144,385	1,539	-0,241	-0,120
145,400	59,260	-0,281	-0,193
146,414	-107,698	-0,256	-0,039
147,429	207,034	-0,249	-0,271
148,443	230,446	-0,225	-0,256
149,458	-200,000	-0,027	-0,125
150,473	123,114	-0,287	-0,250
151,487	87,077	-0,217	-0,167
152,502	261,654	-0,210	-0,254
153,516	595,587	-0,191	-0,330
154,531	31,245	-0,319	-0,191
155,546	3,731	-0,312	-0,158
156,560	92,956	-0,270	-0,212
157,575	-64,077	-0,152	-0,043
158,589	102,073	-0,197	-0,160
159,604	245,344	-0,191	-0,224
160,619	280,512	-0,202	-0,252
161,633	121,419	-0,236	-0,205
162,648	-114,328	-0,279	-0,037
163,662	-176,676	-0,077	-0,001
164,677	61,726	-0,237	-0,164
165,692	110,995	-0,173	-0,145
166,706	389,178	-0,214	-0,309
167,721	-34,313	-0,289	-0,110
168,735	7,504	-0,324	-0,168
169,750	13,066	-0,336	-0,180
170,764	-13,268	-0,255	-0,115
171,779	-78,576	-0,338	-0,080
172,794	425,251	-0,164	-0,246
173,808	54,962	-0,272	-0,182
174,823	179,405	-0,172	-0,175
175,837	95,804	-0,266	-0,211
176,852	340,395	-0,181	-0,247
177,867	247,591	-0,066	-0,078
178,881	41,284	-0,239	-0,150
179,896	207,836	-0,175	-0,190
180,910	273,016	-0,247	-0,304
181,925	-47,933	-0,208	-0,070
182,940	136,393	-0,178	-0,161
183,954	-51,698	-0,261	-0,084
184,969	-61,038	-0,280	-0,082
185,983	-58,225	-0,203	-0,061
186,998	671,286	-0,101	-0,183
188,013	368,317	-0,125	-0,176
189,027	278,198	-0,191	-0,237
190,042	-66,467	-0,339	-0,093
191,056	-43,651	-0,328	-0,114
192,071	29,868	-0,146	-0,086
193,086	429,705	-0,150	-0,226
194,100	-41,169	-0,293	-0,104
195,115	133,191	-0,210	-0,189
196,129	61,834	-0,234	-0,162
197,144	156,465	-0,167	-0,161
198,159	48,901	-0,283	-0,184
199,173	47,946	-0,087	-0,056
200,188	149,040	-0,099	-0,093
201,202	-65,119	-0,206	-0,057
202,217	347,084	-0,086	-0,118
203,232	48,065	-0,163	-0,106
204,246	-25,772	-0,232	-0,095
205,261	206,515	-0,188	-0,203
206,275	800,000	-0,067	-0,188
207,290	-23,686	-0,209	-0,087
208,304	158,211	-0,098	-0,094
209,319	711,702	-0,092	-0,170
210,334	100,070	-0,286	-0,229
211,348	-57,765	-0,208	-0,063
212,363	163,213	-0,211	-0,206
213,377	-25,500	-0,149	-0,061
214,392	31,207	-0,247	-0,147
215,407	-48,164	-0,170	-0,056
216,421	-10,906	-0,199	-0,091
217,436	-56,263	-0,230	-0,071
218,450	750,467	-0,120	-0,225
219,465	287,802	-0,131	-0,165
220,480	72,951	-0,211	-0,152
221,494	800,000	-0,096	-0,198
222,509	-119,489	-0,108	0,013
223,523	75,958	-0,223	-0,163
224,538	-40,826	-0,097	-0,035
225,553	4,287	-0,308	-0,156
226,567	67,920	-0,228	-0,161
227,582	143,567	-0,160	-0,148
228,596	-100,761	-0,218	-0,037
229,611	268,547	-0,114	-0,139
230,626	503,205	-0,106	-0,171
231,640	7,816	-0,292	-0,151
232,655	73,698	-0,194	-0,141
233,669	-24,681	-0,162	-0,066
234,684	229,175	-0,147	-0,166
235,699	88,524	-0,195	-0,150
236,713	313,242	-0,095	-0,124
237,728	800,000	-0,089	-0,179
238,742	110,200	-0,106	-0,088
239,757	207,044	-0,207	-0,224
240,772	-51,296	-0,201	-0,065
241,786	372,767	-0,091	-0,128
242,801	-100,832	-0,181	-0,030
243,815	-69,893	-0,142	-0,037
244,830	299,572	-0,064	-0,081
245,844	800,000	-0,125	-0,244
246,859	800,000	-0,106	-0,257
247,874	30,959	-0,346	-0,204
248,888	20,092	-0,271	0,150
249,903	21,205	-0,229	-0,128
250,917	658,710	-0,069	-0,124
251,932	-200,000	-0,029	-0,141
252,947	614,003	-0,082	-0,143
253,961	551,738	-0,138	-0,230
254,976	-200,000	-0,040	-0,212
255,990	397,379	-0,150	-0,217
257,005	800,000	-0,071	-0,180
258,020	15,444	-0,200	-0,108
259,034	-23,106	-0,080	-0,033
260,049	26,031	-0,079	-0,045
261,063	-105,398	-0,187	-0,029
262,078	53,091	-0,276	-0,182
263,093	313,702	-0,124	-0,161
264,107	-128,624	-0,215	-0,021
265,122	-122,564	-0,111	0,012
266,136	-19,439	-0,128	-0,054
267,151	-45,912	-0,319	-0,108
268,166	313,588	-0,053	-0,069
269,180	-71,602	-0,131	-0,033
270,195	800,000	-0,082	-0,171
271,209	199,545	-0,110	-0,117
272,224	146,434	-0,109	-0,101
273,239	145,314	-0,112	-0,103
274,253	-18,293	-0,239	-0,103
275,268	-139,878	-0,223	-0,016
276,282	-69,904	-0,129	0,034
277,297	193,468	-0,148	-0,155
278,312	800,000	-0,138	-0,271
279,326	305,641	-0,095	-0,122
280,341	211,376	-0,105	-0,114
281,355	644,492	-0,102	-0,180
282,370	117,726	-0,158	-0,134
283,384	-8,759	-0,162	-0,075
284,399	-2,880	-0,239	-0,115
285,414	255,840	-0,118	-0,139
286,428	-141,651	-0,110	0,008
287,443	67,583	-0,161	-0,113
288,457	-112,797	-0,110	0,015
289,472	312,710	-0,095	-0,123
290,487	28,942	-0,199	-0,116
291,501	-67,869	-0,320	-0,085
292,516	43,844	-0,136	-0,086
293,530	-54,817	-0,118	0,036
294,545	263,093	-0,064	0,076
295,560	-102,910	-0,250	-0,040
296,574	242,344	-0,154	-0,177
297,589	63,651	-0,159	-0,109
298,603	-23,009	-0,238	-0,098
299,618	26,083	-0,184	-0,106
300,633	-111,191	-0,108	-0,015
301,647	-124,016	-0,130	0,014
302,662	466,796	-0,125	-0,193
303,676	71,718	-0,161	-0,115
304,691	466,123	-0,068	-0,105
305,706	285,601	-0,115	-0,142
306,720	85,315	-0,234	-0,176
307,735	539,491	-0,087	-0,143
308,749	-200,000	-0,022	-0,080
309,764	-92,276	-0,111	0,021
310,779	800,000	-0,054	0,160
311,793	10,919	-0,178	-0,093
312,808	67,594	-0,190	-0,133
313,822	-116,708	-0,243	0,030
314,837	-6,117	-0,159	-0,075
315,852	-98,209	-0,251	0,044
316,866	-71,493	-0,157	0,040
317,881	-44,249	-0,176	-0,060
318,895	144,189	-0,126	-0,115
319,910	33,637	-0,230	-0,137
320,925	800,000	-0,061	-0,139
321,939	-145,316	-0,202	-0,012
322,954	-200,000	-0,007	-0,135
323,968	-115,856	-0,171	-0,022
324,983	313,824	-0,089	-0,115
325,997	-24,489	-0,294	-0,120
327,012	23,705	-0,224	-0,126
328,027	-56,932	-0,218	-0,066
329,041	-116,299	-0,180	0,023
330,056	-104,813	-0,167	0,026
331,070	18,115	-0,080	-0,044
332,085	-111,742	-0,102	-0,014
333,100	211,033	-0,135	-0,146
334,114	800,000	-0,031	-0,078
335,129	-86,435	-0,173	0,036
336,143	98,976	-0,147	-0,116
337,158	-200,000	-0,008	0,161
338,173	69,451	-0,171	-0,120
339,187	-23,432	-0,163	-0,067
340,202	303,230	-0,059	-0,075
341,216	-50,757	-0,108	0,035
342,231	684,838	-0,011	-0,020
343,246	-20,405	-0,257	-0,108
344,260	215,804	-0,005	-0,005
345,275	800,000	-0,042	-0,123
346,289	103,779	0,041	-0,033
347,304	800,000	-0,067	-0,143
348,319	255,546	-0,163	-0,191
349,333	85,234	-0,186	-0,139
350,348	800,000	-0,083	-0,162
351,362	-6,760	-0,125	-0,058
352,377	-154,385	-0,131	0,006
353,392	-24,688	-0,189	-0,077
354,406	-143,076	-0,278	0,018
355,421	208,538	1314,183	1408,893
356,435	160,459	1474,861	1409,384
