DTS Sentinel unit serial number:	SN410029Multiplexer serial number:	ORYXHardware model number:	OX2-SRSoftware version number:	ORYX F/W v4,00 Oryx Data Collector v3.7.2.0data status	okinstallation	B3 Nyhavnadifferential loss correction	single-endedforward channel	channel 1reverse channel	N/Adate	2023/12/02time	04:27:30forward acquisition time	300,00reverse acquisition time	0,00gamma	499,1914k internal	0,3194k external	0,3194temperature offset calibration	1,0000default loss term (dB/km)	0,3820temperature slope calibration	1,0000multiplexer offset coefficient	1,0000multiplexer slope coefficient	1,0000fibre end	0,00T internal ref (°C)	16,50T ext. ref 1 (°C)	1,33T ext. ref 2 (°C)	1,32length (m)	temperature (°C)	Stokes	anti-Stokes-744,400	447,269	-0,155	-0,250
-743,385	-200,000	-0,066	0,330
-742,371	600,883	-0,119	-0,216
-741,356	739,470	0,197	0,387
-740,342	98,445	-0,249	-0,209
-739,327	800,000	0,119	0,363
-738,312	-200,000	-0,081	-0,388
-737,298	-200,000	0,109	0,371
-736,283	154,560	-0,264	-0,265
-735,269	-200,000	0,021	0,421
-734,254	-31,026	-0,297	-0,121
-733,239	800,000	-0,104	0,234
-732,225	111,068	-0,190	-0,166
-731,210	309,855	0,111	0,152
-730,196	470,997	0,031	-0,052
-729,181	-12,765	0,051	0,024
-728,167	61,499	-0,077	-0,056
-727,152	0,819	-0,118	-0,061
-726,137	-200,000	0,003	-0,117
-725,123	-129,895	-0,201	-0,020
-724,108	-116,844	-0,092	0,012
-723,094	-42,391	-0,073	0,027
-722,079	800,000	-0,014	0,033
-721,064	383,009	-0,049	-0,073
-720,050	-182,479	-0,050	-0,001
-719,035	-200,000	0,015	-0,053
-718,021	-200,000	0,021	0,086
-717,006	-3,850	-0,259	-0,130
-715,991	-140,411	-0,123	-0,009
-714,977	40,723	-0,070	-0,046
-713,962	-51,617	-0,094	0,032
-712,948	80,803	-0,091	-0,072
-711,933	-48,599	-0,024	-0,008
-710,918	-200,000	-0,009	-0,151
-709,904	-200,000	-0,016	-0,066
-708,889	7,390	-0,048	-0,026
-707,875	-97,968	-0,060	0,011
-706,860	-105,339	0,096	0,016
-705,845	-200,000	-0,021	-0,112
-704,831	-139,227	-0,026	0,002
-703,816	93,177	-0,061	0,050
-702,802	245,906	0,068	-0,084
-701,787	-200,000	0,032	-0,107
-700,772	-148,006	-0,143	-0,008
-699,758	-57,013	-0,131	-0,042
-698,743	800,000	-0,034	-0,101
-697,729	10,735	0,112	0,062
-696,714	-33,388	0,033	-0,013
-695,699	800,000	0,033	-0,105
-694,685	561,895	-0,074	-0,131
-693,670	800,000	-0,049	-0,109
-692,656	-200,000	0,010	0,044
-691,641	-4,193	-0,147	0,074
-690,627	103,955	0,086	0,074
-689,612	767,489	-0,005	-0,010
-688,597	-94,411	0,104	-0,020
-687,583	141,890	-0,114	-0,110
-686,568	-200,000	-0,014	-0,083
-685,554	-141,888	0,098	-0,007
-684,539	-2,653	-0,112	0,057
-683,524	-155,379	0,065	0,003
-682,510	-154,730	-0,120	-0,006
-681,495	-200,000	-0,005	-0,071
-680,481	81,483	0,047	-0,037
-679,466	107,051	-0,041	-0,036
-678,451	-200,000	-0,009	0,056
-677,437	-200,000	0,005	-0,028
-676,422	606,416	0,076	0,139
-675,408	38,838	0,046	0,030
-674,393	69,309	0,031	-0,023
-673,378	149,662	0,087	-0,086
-672,364	-90,520	0,171	-0,036
-671,349	194,431	-0,037	-0,041
-670,335	-200,000	-0,023	0,162
-669,320	-200,000	0,011	-0,069
-668,305	-200,000	0,005	-0,061
-667,291	21,762	-0,086	-0,051
-666,276	-35,973	-0,114	0,044
-665,262	140,082	0,051	-0,049
-664,247	-200,000	0,009	0,101
-663,232	287,373	0,049	-0,064
-662,218	-36,145	0,086	-0,034
-661,203	-200,000	-0,010	0,086
-660,189	163,312	-0,062	0,063
-659,174	-200,000	-0,002	0,033
-658,159	-117,369	-0,050	-0,006
-657,145	-200,000	0,005	-0,046
-656,130	-133,323	-0,153	0,014
-655,116	-200,000	-0,005	-0,116
-654,101	370,295	-0,086	0,126
-653,086	294,239	0,025	0,033
-652,072	683,021	-0,058	-0,111
-651,057	636,263	0,023	0,043
-650,043	260,180	0,015	0,019
-649,028	-200,000	-0,002	-0,078
-648,014	100,817	0,067	-0,056
-646,999	-13,012	-0,038	0,018
-645,984	464,536	0,091	-0,149
-644,970	573,802	-0,051	-0,091
-643,955	800,000	0,019	0,044
-642,941	-200,000	-0,004	-0,076
-641,926	-109,093	0,170	0,026
-640,911	-200,000	0,025	-0,145
-639,897	-200,000	-0,015	0,158
-638,882	57,808	-0,053	0,038
-637,868	800,000	0,044	-0,109
-636,853	424,220	-0,036	-0,056
-635,838	-71,921	-0,130	0,035
-634,824	-121,788	0,170	0,020
-633,809	186,125	0,094	-0,102
-632,795	-60,905	-0,157	0,048
-631,780	36,717	-0,104	0,067
-630,765	-200,000	-0,021	0,076
-629,751	85,945	-0,055	0,044
-628,736	-200,000	0,003	-0,173
-627,722	800,000	-0,005	-0,015
-626,707	800,000	-0,039	-0,083
-625,692	-126,340	0,159	-0,017
-624,678	346,656	-0,074	0,105
-623,663	197,306	0,049	0,054
-622,649	-34,273	-0,095	-0,038
-621,634	625,621	-0,068	-0,125
-620,619	-90,158	-0,109	0,023
-619,605	800,000	0,036	0,097
-618,590	-200,000	0,004	0,072
-617,576	-109,894	-0,178	0,027
-616,561	414,241	-0,027	0,042
-615,546	-10,361	-0,018	0,009
-614,532	-200,000	0,014	-0,075
-613,517	-200,000	0,007	-0,108
-612,503	-123,379	-0,030	0,003
-611,488	257,588	0,136	0,169
-610,474	128,012	0,076	-0,070
-609,459	67,767	0,105	-0,078
-608,444	800,000	-0,014	-0,032
-607,430	-200,000	-0,007	-0,084
-606,415	-73,225	-0,127	-0,033
-605,401	-92,024	0,089	0,018
-604,386	-91,100	0,099	-0,020
-603,371	-200,000	0,008	0,145
-602,357	-200,000	0,017	0,083
-601,342	193,290	0,040	-0,044
-600,328	-200,000	-0,007	-0,232
-599,313	-200,000	-0,037	-0,233
-598,298	-200,000	-0,083	0,000
-597,284	-79,675	-0,048	0,012
-596,269	-71,427	0,110	0,030
-595,255	12,013	-0,064	-0,035
-594,240	-24,189	-0,159	0,068
-593,225	-71,771	-0,163	-0,044
-592,211	288,841	-0,057	-0,075
-591,196	146,028	-0,031	-0,030
-590,182	-19,450	0,028	0,013
-589,167	86,264	-0,030	0,024
-588,152	-85,676	-0,149	0,033
-587,138	485,811	0,022	0,037
-586,123	-39,540	0,071	0,027
-585,109	-200,000	0,010	-0,106
-584,094	-107,112	-0,081	-0,013
-583,079	-40,905	0,057	-0,021
-582,065	-200,000	-0,065	0,000
-581,050	-200,000	0,009	-0,076
-580,036	27,549	-0,087	-0,053
-579,021	76,549	-0,067	-0,052
-578,006	-6,818	-0,038	0,019
-576,992	-146,203	0,133	0,008
-575,977	150,433	-0,035	-0,035
-574,963	60,182	0,091	-0,065
-573,948	-200,000	0,023	0,144
-572,934	703,945	-0,015	-0,029
-571,919	800,000	0,019	-0,049
-570,904	-70,746	-0,057	0,016
-569,890	-64,801	-0,059	0,017
-568,875	-200,000	-0,004	0,027
-567,861	15,165	0,093	0,052
-566,846	134,627	-0,015	0,014
-565,831	-31,413	0,045	-0,018
-564,817	-7,528	-0,082	-0,040
-563,802	83,682	-0,060	0,047
-562,788	-200,000	0,001	-0,055
-561,773	-113,736	0,061	0,009
-560,758	-43,135	0,020	-0,007
-559,744	695,126	0,048	0,091
-558,729	-32,696	0,021	0,008
-557,715	261,955	0,065	-0,082
-556,700	162,166	-0,065	-0,066
-555,685	-150,461	-0,174	-0,010
-554,671	192,763	-0,004	0,005
-553,656	-99,969	0,065	0,012
-552,642	107,052	0,033	-0,028
-551,627	-74,115	-0,012	0,003
-550,612	93,720	-0,051	-0,042
-549,598	126,802	-0,016	0,015
-548,583	-65,968	0,084	-0,024
-547,569	-200,000	0,008	0,049
-546,554	800,000	0,035	-0,072
-545,539	-112,553	0,108	0,015
-544,525	-93,760	0,097	0,019
-543,510	435,462	0,017	-0,027
-542,496	313,024	-0,062	-0,084
-541,481	-153,322	-0,151	-0,007
-540,466	51,131	-0,090	-0,062
-539,452	-142,418	0,222	-0,016
-538,437	-158,432	-0,014	0,001
-537,423	29,652	-0,108	-0,067
-536,408	-200,000	-0,008	0,047
-535,393	477,342	-0,046	0,075
-534,379	-65,418	-0,137	-0,039
-533,364	377,294	0,039	0,058
-532,350	-1,353	0,045	0,023
-531,335	407,170	-0,056	0,086
-530,321	8,247	0,164	0,089
-529,306	-200,000	0,004	-0,013
-528,291	-200,000	-0,022	-0,125
-527,277	-17,616	0,082	-0,037
-526,262	800,000	0,030	0,087
-525,248	-200,000	-0,023	0,089
-524,233	-200,000	-0,011	-0,049
-523,218	800,000	0,041	0,127
-522,204	226,386	-0,097	0,115
-521,189	-128,952	0,016	-0,002
-520,175	483,804	0,029	-0,048
-519,160	-200,000	-0,005	0,038
-518,145	-156,445	-0,030	0,001
-517,131	-161,794	0,126	0,005
-516,116	92,782	-0,035	-0,029
-515,102	61,898	-0,128	-0,092
-514,087	-34,887	0,093	-0,036
-513,072	76,226	-0,065	-0,050
-512,058	449,517	0,035	-0,055
-511,043	116,591	-0,118	-0,104
-510,029	41,868	0,104	0,068
-509,014	-200,000	-0,003	-0,015
-507,999	-46,405	0,099	-0,035
-506,985	-200,000	0,009	-0,052
-505,970	462,289	-0,034	-0,055
-504,956	153,389	-0,014	0,014
-503,941	708,123	0,027	0,051
-502,926	368,479	0,015	-0,022
-501,912	-178,269	0,044	-0,001
-500,897	-72,448	0,016	-0,004
-499,883	40,399	-0,029	0,019
-498,868	-72,026	-0,064	-0,017
-497,853	-51,108	0,072	0,024
-496,839	131,523	0,073	-0,068
-495,824	5,657	0,137	0,073
-494,810	711,451	0,022	0,042
-493,795	581,928	0,041	0,072
-492,781	294,383	0,063	0,083
-491,766	-119,080	-0,093	0,012
-490,751	-200,000	-0,035	0,133
-489,737	130,263	0,053	0,049
-488,722	-200,000	-0,021	0,097
-487,708	-200,000	-0,016	0,080
-486,693	-200,000	0,009	0,089
-485,678	95,046	0,061	0,050
-484,664	259,870	-0,074	0,092
-483,649	268,046	0,060	-0,076
-482,635	-19,655	-0,154	-0,069
-481,620	-101,421	-0,109	0,019
-480,605	-200,000	-0,007	0,043
-479,591	132,451	0,053	0,049
-478,576	198,537	-0,015	0,017
-477,562	800,000	0,032	0,075
-476,547	302,638	-0,045	0,060
-475,532	104,641	-0,050	-0,042
-474,518	-52,986	0,067	-0,022
-473,503	-200,000	0,011	-0,067
-472,489	82,094	0,031	-0,025
-471,474	172,155	-0,080	-0,083
-470,459	37,779	-0,038	0,024
-469,445	84,798	0,133	-0,105
-468,430	42,141	0,074	0,048
-467,416	-200,000	0,041	0,148
-466,401	-200,000	-0,003	0,101
-465,386	-134,862	0,081	0,007
-464,372	313,028	0,106	0,144
-463,357	131,133	-0,045	-0,042
-462,343	800,000	-0,053	-0,122
-461,328	-200,000	-0,016	-0,113
-460,313	-58,537	0,108	-0,034
-459,299	349,305	-0,058	0,082
-458,284	486,293	0,060	0,099
-457,270	782,166	0,041	0,082
-456,255	-69,854	0,075	0,020
-455,241	800,000	-0,030	-0,077
-454,226	-166,499	0,099	-0,003
-453,211	85,537	0,029	-0,023
-452,197	-200,000	0,008	0,034
-451,182	800,000	0,025	-0,050
-450,168	-200,000	0,001	0,075
-449,153	800,000	-0,038	0,076
-448,138	-126,792	-0,029	-0,003
-447,124	306,084	-0,070	-0,095
-446,109	800,000	0,070	-0,158
-445,095	-105,282	-0,108	-0,018
-444,080	574,760	0,047	0,082
-443,065	-200,000	-0,003	0,085
-442,051	147,766	0,105	0,102
-441,036	238,917	-0,084	-0,101
-440,022	-79,239	0,111	-0,027
-439,007	-38,534	-0,051	0,019
-437,992	16,774	0,137	0,078
-436,978	-111,328	0,039	-0,006
-435,963	344,066	-0,124	0,176
-434,949	542,155	-0,090	0,156
-433,934	46,725	0,060	-0,040
-432,919	555,525	-0,075	0,131
-431,905	150,978	0,041	-0,040
-430,890	58,324	0,030	0,021
-429,876	-200,000	0,029	-0,162
-428,861	-200,000	0,005	0,022
-427,846	524,904	0,026	0,044
-426,832	646,998	0,038	-0,070
-425,817	11,569	-0,111	-0,061
-424,803	374,121	-0,033	0,049
-423,788	75,821	-0,038	0,029
-422,773	-110,212	-0,064	0,010
-421,759	130,461	0,044	0,041
-420,744	-131,930	-0,061	-0,006
-419,730	19,861	-0,095	0,055
-418,715	49,205	-0,117	0,079
-417,701	800,000	-0,045	0,107
-416,686	-200,000	0,027	0,202
-415,671	95,622	0,054	0,044
-414,657	37,366	-0,060	0,038
-413,642	66,651	0,029	0,021
-412,628	-113,074	-0,156	-0,022
-411,613	-200,000	-0,045	-0,152
-410,598	-140,502	0,090	0,007
-409,584	-166,078	0,126	0,004
-408,569	144,750	0,040	0,038
-407,555	568,393	-0,059	0,103
-406,540	-92,827	-0,075	0,015
-405,525	-152,169	0,148	-0,008
-404,511	-200,000	0,003	-0,127
-403,496	259,254	0,051	-0,063
-402,482	800,000	-0,039	-0,110
-401,467	169,656	-0,067	-0,069
-400,452	-200,000	-0,001	0,051
-399,438	800,000	0,047	-0,102
-398,423	-161,138	0,087	-0,003
-397,409	-142,172	-0,061	0,004
-396,394	800,000	0,026	-0,075
-395,379	-54,584	-0,051	-0,017
-394,365	341,397	0,057	0,080
-393,350	-8,799	-0,054	0,026
-392,336	-80,963	0,032	0,008
-391,321	-200,000	-0,009	0,112
-390,306	-200,000	-0,184	0,000
-389,292	-70,502	0,057	-0,015
-388,277	-200,000	-0,019	-0,065
-387,263	-69,044	-0,047	0,013
-386,248	725,379	0,024	0,046
-385,233	-6,898	-0,124	0,061
-384,219	-2,555	-0,065	0,032
-383,204	219,005	0,062	-0,071
-382,190	131,536	-0,071	-0,066
-381,175	239,136	-0,066	0,080
-380,160	-200,000	0,010	0,109
-379,146	143,777	0,089	-0,086
-378,131	-121,577	0,096	0,011
-377,117	-124,551	0,115	-0,013
-376,102	-200,000	-0,019	-0,080
-375,088	-117,459	0,160	0,021
-374,073	800,000	0,036	0,103
-373,058	79,432	0,048	-0,037
-372,044	307,344	0,042	0,056
-371,029	-200,000	0,019	0,065
-370,015	191,767	0,058	-0,063
-369,000	5,468	-0,039	-0,021
-367,985	122,780	-0,039	0,035
-366,971	-169,144	0,024	0,001
-365,956	-200,000	-0,020	0,085
-364,942	128,014	0,028	0,026
-363,927	37,096	0,169	0,107
-362,912	539,381	-0,046	0,079
-361,898	16,856	0,065	0,037
-360,883	800,000	-0,054	-0,138
-359,869	-103,630	-0,066	-0,011
-358,854	66,758	0,067	-0,049
-357,839	338,848	0,091	0,128
-356,825	551,914	-0,050	-0,087
-355,810	198,801	0,175	0,192
-354,796	550,418	-0,041	-0,071
-353,781	192,121	-0,068	-0,074
-352,766	375,715	0,091	-0,133
-351,752	-200,000	0,010	-0,079
-350,737	544,483	0,043	0,074
-349,723	28,647	0,120	-0,073
-348,708	442,927	-0,040	-0,063
-347,693	-59,504	-0,094	-0,029
-346,679	-18,142	-0,152	-0,068
-345,664	332,563	0,053	-0,074
-344,650	-200,000	0,014	-0,126
-343,635	209,168	0,027	0,031
-342,620	572,487	-0,067	0,117
-341,606	-161,974	-0,171	0,006
-340,591	410,981	-0,076	-0,115
-339,577	455,825	0,067	-0,108
-338,562	-200,000	-0,001	0,023
-337,548	800,000	0,045	0,095
-336,533	800,000	0,084	0,196
-335,518	90,495	0,041	0,033
-334,504	-32,995	0,102	0,041
-333,489	219,197	-0,037	0,042
-332,475	496,888	0,011	-0,018
-331,460	-200,000	0,028	-0,120
-330,445	-200,000	-0,009	0,137
-329,431	465,345	0,061	-0,098
-328,416	-164,719	-0,126	-0,004
-327,402	-200,000	0,036	0,264
-326,387	35,146	0,031	0,020
-325,372	-200,000	-0,011	-0,041
-324,358	14,784	0,031	-0,017
-323,343	-121,454	0,098	-0,012
-322,329	23,055	-0,077	0,045
-321,314	258,002	-0,062	0,076
-320,299	-71,877	0,105	-0,028
-319,285	-32,787	-0,052	0,021
-318,270	76,472	0,083	-0,063
-317,256	-30,836	-0,110	-0,044
-316,241	-200,000	0,012	-0,051
-315,226	79,582	0,150	-0,115
-314,212	-13,071	0,030	0,014
-313,197	-114,135	0,079	-0,011
-312,183	195,224	0,059	0,064
-311,168	272,347	0,087	-0,111
-310,153	279,905	0,194	-0,249
-309,139	1,340	-0,120	-0,062
-308,124	-144,580	-0,089	0,006
-307,110	358,722	0,032	0,047
-306,095	-200,000	0,001	0,020
-305,080	1,290	-0,012	0,006
-304,066	37,907	-0,073	0,046
-303,051	396,082	-0,053	-0,079
-302,037	-200,000	-0,004	-0,019
-301,022	36,807	-0,068	0,043
-300,008	-156,407	-0,046	0,002
-298,993	-200,000	0,011	-0,096
-297,978	63,796	0,131	-0,094
-296,964	800,000	0,032	0,085
-295,949	-200,000	-0,030	0,109
-294,935	-99,227	-0,054	0,010
-293,920	47,331	-0,027	-0,018
-292,905	800,000	0,012	0,034
-291,891	-200,000	-0,018	-0,059
-290,876	529,831	-0,006	0,011
-289,862	-200,000	-0,033	-0,108
-288,847	-97,703	-0,093	-0,017
-287,832	49,676	-0,103	-0,069
-286,818	-55,531	-0,019	0,006
-285,803	-42,155	0,107	-0,039
-284,789	-16,734	-0,156	0,070
-283,774	-102,806	-0,019	0,003
-282,759	64,070	0,126	0,091
-281,745	800,000	-0,009	-0,025
-280,730	-150,962	-0,076	0,004
-279,716	22,676	0,141	-0,082
-278,701	51,316	0,056	-0,038
-277,686	289,571	0,070	0,091
-276,672	-200,000	0,012	0,082
-275,657	800,000	0,005	0,013
-274,643	39,412	0,060	-0,038
-273,628	136,200	-0,017	0,016
-272,613	102,625	0,074	0,062
-271,599	-91,890	-0,151	0,030
-270,584	-200,000	-0,007	0,110
-269,570	800,000	-0,020	0,059
-268,555	-130,366	0,049	-0,005
-267,540	738,806	0,052	-0,101
-266,526	-200,000	-0,001	-0,096
-265,511	-200,000	-0,028	-0,114
-264,497	-139,268	-0,052	-0,004
-263,482	178,428	-0,011	0,011
-262,467	-200,000	0,012	-0,045
-261,453	-200,000	-0,014	0,105
-260,438	208,121	-0,071	0,080
-259,424	-200,000	0,009	0,074
-258,409	114,827	-0,092	-0,080
-257,395	137,293	0,080	-0,075
-256,380	420,342	0,014	-0,021
-255,365	-66,319	0,073	-0,021
-254,351	0,376	0,103	0,052
-253,336	800,000	0,006	0,017
-252,322	-200,000	-0,012	-0,126
-251,307	-131,059	0,014	0,001
-250,292	112,511	0,067	0,058
-249,278	-200,000	0,015	0,121
-248,263	-200,000	0,019	0,068
-247,249	-200,000	0,012	0,085
-246,234	108,290	-0,156	-0,133
-245,219	-200,000	0,004	0,118
-244,205	-161,697	-0,087	-0,003
-243,190	-200,000	0,024	0,112
-242,176	23,794	0,023	-0,014
-241,161	800,000	-0,045	0,113
-240,146	82,230	-0,131	0,101
-239,132	-31,927	0,095	-0,038
-238,117	-91,225	-0,065	0,013
-237,103	-200,000	0,013	0,057
-236,088	254,966	-0,072	-0,088
-235,073	-92,622	0,053	-0,010
-234,059	284,786	0,040	0,051
-233,044	15,975	0,072	0,040
-232,030	-56,179	-0,160	0,051
-231,015	-200,000	-0,013	-0,049
-230,000	47,717	-0,090	0,060
-228,986	-200,000	0,020	-0,075
-227,971	-169,717	0,023	0,001
-226,957	198,785	0,075	0,082
-225,942	75,055	-0,160	0,120
-224,927	23,803	0,087	-0,051
-223,913	631,196	-0,036	-0,066
-222,898	-16,930	-0,163	0,073
-221,884	30,629	-0,101	-0,062
-220,869	-200,000	0,010	0,075
-219,855	-26,965	0,093	-0,039
-218,840	193,385	0,044	0,048
-217,825	800,000	-0,049	0,106
-216,811	-200,000	0,007	-0,090
-215,796	800,000	-0,016	-0,048
-214,782	387,026	-0,046	-0,068
-213,767	-200,000	0,031	-0,108
-212,752	63,094	0,074	0,053
-211,738	800,000	-0,049	-0,135
-210,723	354,714	-0,068	0,096
-209,709	61,826	-0,043	-0,030
-208,694	800,000	0,037	-0,077
-207,679	-200,000	0,031	0,110
-206,665	-200,000	0,010	-0,043
-205,650	-31,547	0,170	0,068
-204,636	800,000	-0,038	0,095
-203,621	723,583	-0,061	-0,116
-202,606	-24,362	-0,068	0,029
-201,592	22,802	-0,043	0,025
-200,577	7,626	-0,080	-0,042
-199,563	-13,469	0,181	-0,083
-198,548	-200,000	0,010	-0,078
-197,533	800,000	-0,013	0,040
-196,519	14,943	-0,055	0,031
-195,504	-88,256	-0,037	-0,008
-194,490	800,000	0,033	-0,073
-193,475	-200,000	-0,034	-0,154
-192,460	-9,803	-0,055	0,026
-191,446	-95,371	0,173	0,033
-190,431	-101,330	0,128	-0,022
-189,417	-200,000	-0,010	0,088
-188,402	-86,396	-0,017	-0,004
-187,387	-153,792	-0,086	0,004
-186,373	800,000	-0,076	-0,156
-185,358	84,156	-0,045	-0,035
-184,344	-78,110	0,018	-0,004
-183,329	-200,000	0,002	-0,035
-182,315	-118,669	0,130	-0,016
-181,300	136,110	0,157	0,146
-180,285	-200,000	0,003	-0,097
-179,271	155,072	-0,069	-0,068
-178,256	-200,000	-0,000	-0,043
-177,242	42,501	0,033	0,022
-176,227	800,000	-0,072	0,145
-175,212	-144,708	0,117	-0,008
-174,198	573,841	-0,099	-0,173
-173,183	204,940	-0,056	0,062
-172,169	156,751	-0,048	0,047
-171,154	800,000	-0,064	0,176
-170,139	-73,844	0,078	-0,020
-169,125	301,541	0,029	0,038
-168,110	326,351	0,054	0,074
-167,096	-200,000	0,035	0,178
-166,081	-24,052	-0,121	0,051
-165,066	773,627	-0,045	-0,088
-164,052	-200,000	-0,111	0,000
-163,037	215,462	0,068	-0,077
-162,023	303,146	0,014	0,018
-161,008	6,200	0,020	-0,011
-159,993	-122,395	-0,096	0,011
-158,979	-51,638	-0,043	-0,014
-157,964	97,992	-0,114	-0,093
-156,950	-200,000	0,000	-0,027
-155,935	-200,000	0,026	-0,169
-154,920	800,000	0,049	-0,140
-153,906	-200,000	0,010	-0,032
-152,891	-34,777	-0,053	0,020
-151,877	800,000	0,028	0,060
-150,862	238,367	-0,093	-0,111
-149,847	-187,296	-0,103	0,001
-148,833	249,879	-0,120	0,145
-147,818	-98,087	0,107	0,019
-146,804	-200,000	-0,018	0,114
-145,789	800,000	0,029	0,067
-144,775	-1,151	-0,062	0,031
-143,760	-200,000	-0,010	0,040
-142,745	-31,846	-0,168	-0,067
-141,731	-110,153	-0,071	-0,010
-140,716	102,286	-0,066	-0,055
-139,702	77,570	0,103	0,078
-138,687	-64,806	0,086	-0,025
-137,672	231,673	0,075	0,087
-136,658	310,378	-0,083	0,111
-135,643	330,922	-0,053	0,073
-134,629	-145,104	0,080	0,005
-133,614	-112,793	0,174	-0,024
-132,599	13,459	-0,143	0,079
-131,585	800,000	0,036	-0,076
-130,570	-200,000	-0,022	0,095
-129,556	-65,044	0,097	0,028
-128,541	-149,300	-0,141	-0,008
-127,526	183,783	0,057	0,060
-126,512	-200,000	-0,012	0,179
-125,497	775,897	0,037	0,072
-124,483	-34,618	-0,134	0,052
-123,468	15,609	-0,094	-0,052
-122,453	381,300	0,036	0,053
-121,439	-200,000	-0,034	-0,121
-120,424	114,920	-0,090	-0,078
-119,410	-200,000	0,001	0,030
-118,395	-200,000	-0,000	0,157
-117,380	126,636	-0,030	-0,027
-116,366	800,000	-0,008	-0,018
-115,351	-40,144	0,060	-0,022
-114,337	29,502	-0,059	0,036
-113,322	800,000	-0,069	0,156
-112,307	-133,604	-0,054	0,005
-111,293	116,316	0,127	-0,111
-110,278	800,000	0,017	0,041
-109,264	-132,511	-0,079	-0,007
-108,249	574,941	0,021	-0,037
-107,234	50,321	-0,044	0,029
-106,220	800,000	-0,053	-0,112
-105,205	-200,000	0,007	-0,049
-104,191	-200,000	0,007	0,142
-103,176	800,000	0,067	0,197
-102,162	-56,706	-0,067	-0,021
-101,147	-104,980	-0,140	0,023
-100,132	-133,039	0,049	-0,004
-99,118	-200,000	0,016	-0,079
-98,103	800,000	0,020	0,056
-97,089	-200,000	-0,000	0,019
-96,074	63,435	0,126	0,090
-95,059	-99,779	0,105	0,018
-94,045	148,785	-0,106	-0,101
-93,030	150,589	0,081	-0,079
-92,016	-200,000	-0,020	-0,068
-91,001	-200,000	-0,043	0,142
-89,986	800,000	-0,048	-0,107
-88,972	12,494	0,067	-0,037
-87,957	15,023	0,043	-0,024
-86,943	7,186	0,022	-0,011
-85,928	-200,000	-0,005	-0,047
-84,913	58,508	-0,048	-0,033
-83,899	59,026	-0,024	0,017
-82,884	261,034	-0,097	0,120
-81,870	-53,312	0,065	-0,021
-80,855	-200,000	0,005	0,023
-79,840	800,000	-0,031	-0,074
-78,826	-200,000	-0,010	-0,038
-77,811	-200,000	-0,008	-0,074
-76,797	-66,622	0,180	-0,050
-75,782	117,176	-0,059	-0,052
-74,767	-200,000	0,044	0,139
-73,753	88,850	0,064	-0,051
-72,738	-200,000	-0,009	-0,051
-71,724	481,816	0,024	-0,039
-70,709	-1,737	-0,140	0,070
-69,694	14,452	0,150	0,083
-68,680	59,290	-0,138	-0,097
-67,665	-200,000	-0,008	-0,025
-66,651	188,295	0,101	0,107
-65,636	-200,000	-0,019	-0,081
-64,622	800,000	-0,007	0,015
-63,607	391,571	-0,011	0,017
-62,592	-15,822	0,048	-0,022
-61,578	518,038	-0,073	0,122
-60,563	349,232	0,054	0,076
-59,549	-118,452	-0,170	0,021
-58,534	-57,385	-1,379	-0,427
-57,519	391,187	-1,516	-2,241
-56,505	-200,000	-0,432	-4,267
-55,490	41,118	0,845	0,541
-54,476	800,000	5,026	11,361
-53,461	-200,000	17,325	271,670
-52,446	800,000	716,080	2190,531
-51,432	554,788	1630,477	2794,878
-50,417	81,370	1656,212	1269,047
-49,403	24,330	1530,393	895,141
-48,388	18,300	1453,693	821,235
-47,373	18,559	1442,880	816,331
-46,359	18,231	1433,806	809,605
-45,344	16,626	1428,996	799,237
-44,330	16,606	1426,917	797,949
-43,315	16,555	1425,542	796,906
-42,300	16,568	1423,773	795,947
-41,286	16,611	1422,699	795,517
-40,271	16,617	1421,327	794,747
-39,257	16,603	1420,077	793,951
-38,242	16,583	1418,822	793,122
-37,227	16,631	1417,670	792,675
-36,213	16,621	1416,184	791,765
-35,198	16,608	1415,188	791,118
-34,184	16,609	1414,176	790,521
-33,169	16,551	1413,023	789,574
-32,154	16,635	1411,898	789,311
-31,140	16,615	1410,698	788,512
-30,125	16,649	1409,373	787,900
-29,111	16,655	1408,221	787,255
-28,096	16,552	1407,282	786,213
-27,082	16,565	1405,974	785,516
-26,067	16,554	1404,793	784,772
-25,052	16,550	1403,890	784,219
-24,038	16,524	1403,046	783,592
-23,023	16,499	1401,809	782,757
-22,009	16,478	1401,002	782,176
-20,994	16,528	1399,940	781,783
-19,979	16,460	1399,156	781,001
-18,965	16,470	1398,070	780,410
-17,950	16,417	1397,392	779,753
-16,936	16,485	1396,041	779,286
-15,921	16,400	1394,921	778,236
-14,906	16,428	1393,908	777,767
-13,892	16,438	1392,969	777,258
-12,877	16,463	1392,311	776,975
-11,863	16,474	1391,386	776,478
-10,848	16,442	1390,386	775,742
-9,833	16,386	1389,574	775,003
-8,819	16,383	1388,422	774,316
-7,804	16,363	1387,679	773,775
-6,790	16,354	1386,611	773,111
-5,775	16,284	1385,812	772,313
-4,760	16,326	1384,771	771,894
-3,746	16,305	1384,000	771,338
-2,731	16,326	1383,186	770,948
-1,717	16,326	1382,083	770,304
-0,702	16,268	1380,544	769,150
0,313	20,078	1301,938	742,916
1,327	36,687	707,590	442,308
2,342	56,472	125,776	86,597
3,356	3,908	16,656	8,603
4,371	6,155	3,107	1,628
5,386	12,350	0,581	0,316
6,400	-200,000	0,005	0,030
7,415	200,909	-0,178	-0,195
8,429	253,396	-0,157	-0,190
9,444	-16,426	-0,367	-0,164
10,459	189,049	-0,265	-0,282
11,473	-49,709	-0,277	-0,093
12,488	11,742	-0,219	-0,119
13,502	32,295	-0,302	-0,184
14,517	-46,482	-0,324	-0,112
15,531	33,134	-0,376	-0,230
16,546	56,695	-0,337	-0,232
17,561	150,759	-0,280	-0,269
18,575	-190,706	-0,264	0,002
19,590	249,424	-0,226	-0,271
20,604	-4,529	-0,264	-0,129
21,619	87,320	-0,323	-0,253
22,634	59,426	-0,439	-0,306
23,648	31,489	-0,546	-0,331
24,663	4,060	-0,361	-0,187
25,677	74,355	-0,332	-0,247
26,692	32,301	-0,317	-0,193
27,707	24,079	-0,421	-0,245
28,721	15,052	-0,404	-0,223
29,736	72,335	-0,360	-0,265
30,750	115,092	-0,376	-0,324
31,765	62,459	-0,327	-0,231
32,780	11,168	-0,361	-0,194
33,794	-21,588	-0,448	-0,192
34,809	33,273	-0,322	-0,197
35,823	13,475	-0,468	-0,256
36,838	55,329	-0,445	-0,304
37,853	-17,402	-0,419	-0,186
38,867	152,167	-0,315	-0,304
39,882	134,826	-0,367	-0,337
40,896	158,659	-0,385	-0,378
41,911	143,493	-0,315	-0,296
42,926	5,437	-0,384	-0,200
43,940	109,708	-0,327	-0,277
44,955	111,803	-0,352	-0,300
45,969	249,792	-0,227	-0,273
46,984	44,047	-0,363	-0,234
47,999	39,295	-0,265	-0,167
49,013	-55,115	-0,319	-0,101
50,028	116,906	-0,375	-0,325
51,042	58,350	-0,376	-0,260
52,057	64,237	-0,350	-0,249
53,071	59,981	-0,354	-0,246
54,086	179,177	-0,329	-0,340
55,101	7,502	-0,289	-0,152
56,115	45,277	-0,353	-0,229
57,130	72,003	-0,344	-0,252
58,144	-47,244	-0,510	-0,174
59,159	66,482	-0,353	-0,253
60,174	311,015	-0,251	-0,332
61,188	137,158	-0,338	-0,312
62,203	32,025	-0,420	-0,255
63,217	-4,667	-0,332	-0,161
64,232	-102,008	-0,446	-0,075
65,247	-11,977	-0,370	-0,170
66,261	134,987	-0,369	-0,338
67,276	37,062	-0,315	-0,196
68,290	-16,113	-0,321	-0,143
69,305	-89,697	-0,266	-0,054
70,320	-69,984	-0,401	-0,107
71,334	29,398	-0,339	-0,203
72,349	30,741	-0,316	-0,190
73,363	120,666	-0,280	-0,245
74,378	-10,871	-0,500	-0,232
75,393	-18,426	-0,272	-0,119
76,407	111,433	-0,301	-0,255
77,422	165,553	-0,046	-0,046
78,436	-25,515	-0,392	-0,162
79,451	33,048	-0,402	-0,245
80,466	52,243	-0,425	-0,285
81,480	27,909	-0,389	-0,230
82,495	2,607	-0,371	-0,189
83,509	-33,487	-0,206	-0,080
84,524	78,736	-0,178	-0,134
85,539	-59,588	-0,225	-0,067
86,553	-44,355	-0,281	-0,098
87,568	13,565	-0,294	-0,160
88,582	-23,184	-0,342	-0,144
89,597	42,739	-0,268	-0,172
90,611	-48,605	-0,338	-0,114
91,626	37,596	-0,232	-0,145
92,641	18,816	-0,273	-0,153
93,655	178,978	-0,189	-0,194
94,670	-79,660	-0,272	-0,064
95,684	479,185	-0,207	-0,330
96,699	224,772	-0,264	-0,301
97,714	70,697	-0,334	-0,243
98,728	-24,909	-0,338	-0,140
99,743	295,486	-0,116	-0,150
100,757	68,545	-0,208	-0,150
101,772	-48,347	-0,315	-0,106
102,787	-73,441	-0,288	-0,073
103,801	3,659	-0,328	-0,168
104,816	269,656	-0,233	-0,289
105,830	128,310	-0,249	-0,223
106,845	281,330	-0,098	-0,124
107,860	-169,483	-0,228	-0,006
108,874	126,618	-0,270	-0,240
109,889	44,264	-0,314	-0,202
110,903	800,000	-0,111	-0,219
111,918	-39,368	-0,227	-0,083
112,933	77,517	-0,203	-0,151
113,947	46,893	-0,198	-0,129
114,962	29,458	-0,203	-0,121
115,976	316,435	-0,198	-0,264
116,991	234,815	-0,252	-0,293
118,006	41,464	-0,417	-0,264
119,020	24,070	-0,259	-0,150
120,035	189,104	-0,253	-0,266
121,049	2,375	-0,250	-0,126
122,064	-30,529	-0,189	-0,075
123,079	166,530	-0,198	-0,197
124,093	14,774	-0,295	-0,162
125,108	179,846	-0,259	-0,267
126,122	214,751	-0,224	-0,249
127,137	108,599	-0,242	-0,203
128,151	65,157	-0,257	-0,182
129,166	272,532	-0,238	-0,295
130,181	320,340	-0,177	-0,237
131,195	61,813	-0,283	-0,198
132,210	327,158	-0,272	-0,367
133,224	194,456	-0,253	-0,270
134,239	114,008	-0,218	-0,186
135,254	47,756	-0,331	-0,216
136,268	226,648	-0,178	-0,203
137,283	-7,457	-0,350	-0,166
138,297	176,376	-0,196	-0,200
139,312	25,157	-0,329	-0,191
140,327	222,712	-0,200	-0,226
141,341	197,788	-0,249	-0,266
142,356	304,190	-0,197	-0,256
143,370	-93,047	-0,173	-0,033
144,385	383,090	-0,168	-0,242
145,400	-17,056	-0,280	-0,123
146,414	110,452	-0,238	-0,200
147,429	189,621	-0,173	-0,182
148,443	177,939	-0,134	-0,137
149,458	235,987	-0,104	-0,121
150,473	46,131	-0,283	-0,183
151,487	-25,732	-0,283	-0,116
152,502	121,526	-0,153	-0,133
153,516	73,560	-0,273	-0,200
154,531	-68,670	-0,255	-0,069
155,546	226,504	-0,117	-0,133
156,560	343,504	-0,171	-0,235
157,575	221,233	-0,125	-0,140
158,589	86,135	-0,185	-0,142
159,604	261,841	-0,233	-0,283
160,619	84,015	-0,311	-0,238
161,633	226,763	-0,248	-0,282
162,648	33,659	-0,188	-0,114
163,662	379,376	-0,064	-0,092
164,677	39,192	-0,207	-0,129
165,692	397,061	-0,144	-0,212
166,706	-21,701	-0,252	-0,107
167,721	-62,512	-0,371	-0,107
168,735	188,295	-0,188	-0,197
169,750	38,643	-0,200	-0,124
170,764	211,742	-0,219	-0,241
171,779	199,142	-0,151	-0,162
172,794	185,409	-0,261	-0,271
173,808	-183,021	-0,207	0,003
174,823	6,945	-0,324	-0,168
175,837	-16,295	-0,274	-0,121
176,852	13,940	-0,224	-0,121
177,867	46,309	-0,296	-0,191
178,881	-200,000	-0,006	-0,024
179,896	-84,459	-0,141	-0,031
180,910	41,888	-0,205	-0,130
181,925	255,865	-0,237	-0,284
182,940	370,237	-0,189	-0,268
183,954	74,730	-0,296	-0,217
184,969	290,678	-0,176	-0,223
185,983	255,356	-0,124	-0,148
186,998	7,858	-0,162	-0,085
188,013	302,459	-0,177	-0,230
189,027	800,000	-0,090	-0,268
190,042	-48,271	-0,231	-0,077
191,056	-76,664	-0,294	-0,071
192,071	457,891	-0,086	-0,134
193,086	-123,245	-0,187	-0,021
194,100	145,016	-0,098	-0,091
195,115	-25,683	-0,185	-0,076
196,129	800,000	-0,098	-0,256
197,144	378,837	-0,129	-0,184
198,159	109,316	-0,189	-0,158
199,173	135,272	-0,170	-0,154
200,188	584,683	-0,039	-0,068
201,202	0,260	-0,242	-0,120
202,217	-71,857	-0,174	-0,045
203,232	-108,843	-0,176	-0,026
204,246	45,386	-0,236	-0,151
205,261	-177,429	-0,271	0,005
206,275	120,513	-0,190	-0,165
207,290	140,165	-0,088	-0,081
208,304	38,359	-0,224	-0,139
209,319	681,290	-0,064	-0,117
210,334	209,655	-0,161	-0,175
211,348	69,866	-0,253	-0,181
212,363	-96,183	-0,250	-0,046
213,377	227,908	-0,151	-0,171
214,392	89,529	-0,173	-0,134
215,407	47,092	-0,204	-0,132
216,421	27,733	-0,311	-0,182
217,436	361,828	-0,119	-0,166
218,450	-151,081	-0,260	-0,013
219,465	516,269	-0,127	-0,208
220,480	18,093	-0,176	-0,097
221,494	733,431	-0,125	-0,233
222,509	-88,958	-0,228	-0,047
223,523	-28,777	-0,154	-0,061
224,538	43,305	-0,152	-0,096
225,553	63,457	-0,230	-0,160
226,567	800,000	-0,061	-0,132
227,582	-62,559	-0,195	-0,056
228,596	181,145	-0,169	-0,173
229,611	163,291	-0,167	-0,163
230,626	800,000	-0,088	-0,198
231,640	215,822	-0,092	-0,102
232,655	99,920	-0,166	-0,134
233,669	102,429	-0,249	-0,202
234,684	800,000	-0,054	-0,158
235,699	-101,595	-0,202	-0,034
236,713	179,706	-0,147	-0,150
237,728	212,175	-0,096	-0,106
238,742	72,820	-0,178	-0,129
239,757	-21,674	-0,266	-0,112
240,772	-44,814	-0,258	-0,089
241,786	174,028	-0,214	-0,215
242,801	-142,460	-0,201	0,014
243,815	-33,847	-0,166	0,063
244,830	9,918	-0,197	-0,103
245,844	-28,306	-0,220	-0,088
246,859	267,875	-0,202	-0,247
247,874	127,432	-0,109	-0,096
248,888	100,335	-0,238	-0,192
249,903	-75,833	-0,231	-0,056
250,917	19,637	-0,141	-0,078
251,932	37,552	-0,109	-0,067
252,947	38,244	-0,175	-0,108
253,961	-0,051	-0,237	-0,117
254,976	-52,966	-0,294	-0,093
255,990	552,919	-0,087	-0,146
257,005	132,437	-0,186	-0,166
258,020	21,356	-0,136	-0,076
259,034	-2,400	-0,155	-0,075
260,049	-22,537	-0,095	-0,040
261,063	164,207	-0,189	-0,185
262,078	207,710	-0,137	-0,148
263,093	800,000	-0,081	-0,168
264,107	-50,632	-0,247	-0,080
265,122	179,580	-0,052	-0,052
266,136	-125,964	-0,216	-0,022
267,151	-113,764	-0,204	-0,027
268,166	236,135	-0,181	-0,208
269,180	-44,769	-0,080	-0,028
270,195	800,000	-0,080	-0,194
271,209	217,205	-0,135	-0,150
272,224	107,142	-0,152	-0,125
273,239	4,037	-0,139	-0,070
274,253	60,477	-0,166	-0,113
275,268	121,063	-0,200	-0,172
276,282	-30,312	-0,125	-0,049
277,297	-1,521	-0,210	-0,102
278,312	-100,549	-0,226	-0,038
279,326	231,833	-0,140	-0,159
280,341	287,163	-0,109	-0,136
281,355	71,983	-0,184	-0,132
282,370	208,105	-0,092	-0,100
283,384	12,235	-0,223	-0,119
284,399	88,467	-0,177	-0,136
285,414	800,000	-0,079	-0,159
286,428	-200,000	-0,027	-0,153
287,443	488,109	-0,029	-0,046
288,457	-167,206	-0,197	-0,005
289,472	-39,446	-0,170	-0,061
290,487	48,756	-0,158	-0,103
291,501	21,147	-0,083	-0,047
292,516	800,000	-0,081	-0,201
293,530	32,669	-0,194	0,116
294,545	338,742	-0,125	-0,169
295,560	48,369	-0,064	0,042
296,574	514,799	-0,073	-0,118
297,589	38,394	-0,211	-0,130
298,603	270,217	-0,051	-0,063
299,618	275,530	-0,223	-0,273
300,633	-44,036	-0,205	-0,071
301,647	-95,682	-0,198	-0,036
302,662	-35,868	-0,124	0,046
303,676	800,000	-0,007	-0,021
304,691	387,574	-0,155	-0,221
305,706	192,559	-0,187	-0,195
306,720	18,694	-0,062	-0,034
307,735	76,763	-0,118	-0,086
308,749	-43,825	-0,128	0,044
309,764	800,000	0,035	-0,067
310,779	117,705	0,146	-0,124
311,793	60,116	-0,125	-0,085
312,808	275,293	-0,198	-0,243
313,822	-58,529	-0,243	-0,072
314,837	181,187	-0,175	-0,178
315,852	-117,312	-0,253	-0,031
316,866	-72,991	-0,244	0,061
317,881	89,657	-0,202	-0,155
318,895	-153,582	-0,214	0,010
319,910	53,187	-0,099	-0,065
320,925	33,236	-0,328	-0,195
321,939	-167,612	-0,180	-0,005
322,954	-79,216	-0,153	0,036
323,968	589,020	-0,102	-0,174
324,983	-136,025	-0,118	0,009
325,997	0,281	-0,136	-0,067
327,012	-31,799	-0,230	-0,088
328,027	-81,539	-0,122	0,027
329,041	70,717	-0,126	-0,090
330,056	62,308	-0,251	-0,172
331,070	173,221	0,016	-0,016
332,085	137,006	-0,128	-0,115
333,100	245,022	-0,211	-0,245
334,114	800,000	-0,141	-0,285
335,129	248,365	-0,191	-0,223
336,143	79,182	-0,152	-0,112
337,158	800,000	-0,019	-0,047
338,173	-67,774	-0,110	-0,029
339,187	-33,098	-0,166	0,063
340,202	609,495	-0,095	-0,164
341,216	361,543	-0,178	-0,246
342,231	285,370	-0,081	-0,100
343,246	143,534	-0,131	-0,120
344,260	-200,000	-0,013	-0,116
345,275	-11,588	-0,185	-0,083
346,289	-35,058	-0,132	-0,049
347,304	-89,270	-0,068	0,014
348,319	-28,788	-0,197	-0,077
349,333	147,804	-0,100	-0,093
350,348	110,094	-0,239	-0,197
351,362	155,514	-0,159	-0,151
352,377	-130,614	-0,143	-0,013
353,392	-97,617	-0,047	-0,008
354,406	394,333	-0,075	0,108
355,421	211,271	1314,409	1423,382
356,435	162,679	1475,132	1423,918
