DTS Sentinel unit serial number:	SN410029Multiplexer serial number:	ORYXHardware model number:	OX2-SRSoftware version number:	ORYX F/W v4,00 Oryx Data Collector v3.7.2.0data status	okinstallation	B3 Nyhavnadifferential loss correction	single-endedforward channel	channel 1reverse channel	N/Adate	2023/11/29time	19:52:30forward acquisition time	300,00reverse acquisition time	0,00gamma	499,1914k internal	0,3210k external	0,3210temperature offset calibration	1,0000default loss term (dB/km)	0,3820temperature slope calibration	1,0000multiplexer offset coefficient	1,0000multiplexer slope coefficient	1,0000fibre end	0,00T internal ref (°C)	10,89T ext. ref 1 (°C)	-4,27T ext. ref 2 (°C)	-4,39length (m)	temperature (°C)	Stokes	anti-Stokes-744,400	88,154	-0,176	-0,142
-743,385	-200,000	-0,029	0,215
-742,371	321,104	-0,108	-0,149
-741,356	800,000	-0,089	0,220
-740,342	149,326	-0,139	-0,136
-739,327	-200,000	-0,058	0,302
-738,312	29,350	-0,311	-0,191
-737,298	-200,000	-0,073	0,237
-736,283	237,487	-0,321	-0,386
-735,269	-200,000	0,005	0,227
-734,254	68,961	-0,195	-0,145
-733,239	17,979	-0,177	0,102
-732,225	-200,000	-0,080	-0,382
-731,210	-200,000	0,036	0,196
-730,196	-200,000	0,001	-0,026
-729,181	-200,000	0,001	-0,097
-728,167	-64,148	-0,035	0,010
-727,152	-200,000	-0,020	0,094
-726,137	550,869	0,041	0,071
-725,123	-16,157	-0,098	0,045
-724,108	33,922	-0,042	-0,026
-723,094	-200,000	0,008	-0,061
-722,079	248,177	0,028	0,035
-721,064	-44,063	-0,044	0,016
-720,050	-133,507	-0,092	0,008
-719,035	-51,422	0,035	0,012
-718,021	-153,802	-0,191	-0,009
-717,006	-23,705	-0,083	-0,036
-715,991	53,674	-0,062	-0,043
-714,977	445,948	-0,052	-0,082
-713,962	-200,000	-0,018	0,071
-712,948	75,316	-0,048	0,036
-711,933	-60,121	0,207	0,063
-710,918	-86,828	-0,186	-0,041
-709,904	-84,254	0,048	-0,011
-708,889	-21,973	-0,164	-0,072
-707,875	-59,624	0,084	0,026
-706,860	-70,903	-0,135	-0,037
-705,845	-14,587	0,081	0,037
-704,831	40,520	-0,043	0,028
-703,816	217,149	0,015	0,017
-702,802	277,271	0,056	-0,072
-701,787	75,772	-0,093	-0,071
-700,772	35,325	-0,074	-0,047
-699,758	-134,142	-0,097	-0,009
-698,743	632,968	-0,031	-0,057
-697,729	800,000	0,038	0,082
-696,714	800,000	-0,045	0,127
-695,699	195,346	0,036	0,039
-694,685	-200,000	-0,027	0,096
-693,670	800,000	-0,025	0,057
-692,656	-200,000	0,007	0,094
-691,641	0,724	0,102	-0,053
-690,627	50,583	0,066	-0,045
-689,612	16,133	-0,031	-0,018
-688,597	-200,000	-0,028	-0,091
-687,583	-200,000	-0,019	-0,076
-686,568	183,365	-0,012	-0,012
-685,554	45,848	0,014	0,010
-684,539	276,624	0,067	0,087
-683,524	-132,139	0,036	0,003
-682,510	800,000	0,005	-0,015
-681,495	800,000	-0,039	-0,091
-680,481	-59,287	-0,013	-0,004
-679,466	-200,000	-0,010	-0,054
-678,451	296,593	-0,022	-0,029
-677,437	-59,392	0,117	0,036
-676,422	-200,000	0,015	0,062
-675,408	-178,820	0,111	0,002
-674,393	313,506	0,124	-0,169
-673,378	-105,932	-0,017	-0,003
-672,364	683,155	-0,038	-0,072
-671,349	32,895	-0,193	-0,120
-670,335	800,000	-0,056	-0,138
-669,320	-200,000	0,001	0,090
-668,305	82,327	-0,028	-0,022
-667,291	121,775	-0,043	-0,038
-666,276	-5,895	0,084	0,041
-665,262	-170,019	-0,049	-0,001
-664,247	-101,790	-0,093	-0,016
-663,232	-21,791	0,033	0,015
-662,218	44,845	0,133	-0,089
-661,203	476,029	0,069	-0,114
-660,189	-2,275	-0,120	0,061
-659,174	0,579	-0,112	0,058
-658,159	-167,800	0,062	-0,002
-657,145	-200,000	0,038	-0,200
-656,130	320,657	0,049	0,068
-655,116	136,029	-0,042	-0,040
-654,101	191,615	0,056	-0,061
-653,086	63,686	-0,092	-0,067
-652,072	-23,927	-0,014	0,006
-651,057	-26,159	-0,216	0,091
-650,043	800,000	0,033	-0,070
-649,028	364,209	-0,060	0,087
-648,014	293,360	-0,042	0,056
-646,999	127,296	-0,061	0,056
-645,984	443,783	0,032	-0,050
-644,970	131,515	0,077	-0,071
-643,955	-121,274	-0,014	0,002
-642,941	-200,000	0,003	-0,200
-641,926	800,000	0,027	0,060
-640,911	800,000	-0,032	-0,091
-639,897	-6,451	0,054	-0,027
-638,882	-200,000	-0,013	0,074
-637,868	-127,384	0,095	0,010
-636,853	-0,836	-0,070	0,035
-635,838	-200,000	0,006	-0,104
-634,824	-106,966	-0,072	-0,011
-633,809	308,924	-0,060	-0,081
-632,795	-200,000	-0,022	0,120
-631,780	-131,726	0,106	0,010
-630,765	28,372	0,048	-0,029
-629,751	800,000	-0,027	0,062
-628,736	512,142	-0,048	-0,081
-627,722	184,683	-0,035	0,038
-626,707	120,429	0,045	0,041
-625,692	800,000	-0,020	-0,059
-624,678	-200,000	-0,005	0,034
-623,663	233,348	0,005	-0,006
-622,649	215,848	-0,035	0,040
-621,634	-200,000	-0,023	-0,125
-620,619	546,906	0,036	-0,063
-619,605	-44,887	0,067	-0,024
-618,590	97,246	0,026	-0,022
-617,576	227,986	0,089	-0,105
-616,561	-127,194	0,064	0,007
-615,546	-124,551	-0,135	-0,015
-614,532	-90,647	-0,088	-0,018
-613,517	-80,364	0,079	0,019
-612,503	444,162	-0,098	0,156
-611,488	184,082	0,085	-0,091
-610,474	-51,037	0,071	-0,024
-609,459	68,360	-0,057	0,042
-608,444	-22,219	0,057	0,025
-607,430	222,369	0,052	-0,060
-606,415	-80,072	0,041	0,010
-605,401	-200,000	-0,002	0,080
-604,386	103,094	0,083	0,070
-603,371	800,000	0,022	0,049
-602,357	-154,734	-0,137	0,006
-601,342	193,123	-0,006	0,007
-600,328	-117,547	0,119	-0,015
-599,313	-200,000	-0,002	0,065
-598,298	-45,365	-0,111	-0,039
-597,284	-200,000	0,046	0,169
-596,269	-200,000	0,008	0,041
-595,255	-115,410	0,072	-0,010
-594,240	800,000	0,025	0,052
-593,225	-200,000	-0,004	0,098
-592,211	-200,000	-0,056	-0,201
-591,196	392,714	-0,069	-0,103
-590,182	-200,000	-0,019	-0,139
-589,167	-86,133	-0,059	0,013
-588,152	-24,735	0,146	0,062
-587,138	800,000	0,017	0,041
-586,123	-146,622	0,020	-0,001
-585,109	-200,000	0,007	0,063
-584,094	-86,984	-0,152	0,033
-583,079	-200,000	-0,009	0,111
-582,065	239,693	-0,028	-0,034
-581,050	64,869	0,066	0,048
-580,036	-200,000	-0,018	0,063
-579,021	152,157	-0,091	-0,089
-578,006	21,183	-0,077	-0,045
-576,992	800,000	-0,044	-0,091
-575,977	-103,329	0,122	0,021
-574,963	98,210	0,100	0,083
-573,948	-200,000	-0,012	0,066
-572,934	-139,842	-0,091	-0,007
-571,919	-66,340	0,094	0,027
-570,904	776,707	0,005	0,009
-569,890	571,761	-0,062	-0,110
-568,875	230,170	-0,031	-0,037
-567,861	-0,153	0,128	0,066
-566,846	131,773	-0,053	0,049
-565,831	142,179	-0,070	-0,067
-564,817	-200,000	-0,048	-0,173
-563,802	800,000	0,016	-0,040
-562,788	-86,072	-0,161	0,035
-561,773	34,615	0,182	-0,114
-560,758	800,000	-0,009	0,025
-559,744	-200,000	-0,006	0,090
-558,729	800,000	0,020	-0,060
-557,715	-66,425	-0,182	0,052
-556,700	219,160	-0,097	-0,112
-555,685	-130,402	0,029	-0,003
-554,671	539,148	0,044	0,075
-553,656	-200,000	-0,035	-0,161
-552,642	281,407	-0,089	0,115
-551,627	-7,244	-0,139	-0,067
-550,612	-101,503	0,021	-0,004
-549,598	-62,630	-0,048	0,014
-548,583	516,359	-0,057	0,096
-547,569	-44,923	0,041	-0,015
-546,554	-200,000	0,038	-0,171
-545,539	-200,000	-0,003	-0,066
-544,525	-93,009	0,061	-0,012
-543,510	221,047	-0,028	-0,032
-542,496	-200,000	0,022	-0,074
-541,481	121,852	-0,025	0,022
-540,466	-200,000	0,011	0,078
-539,452	800,000	0,060	-0,130
-538,437	363,734	0,082	-0,118
-537,423	55,946	0,097	0,067
-536,408	546,457	0,049	0,085
-535,393	191,923	-0,109	-0,118
-534,379	-200,000	0,007	0,063
-533,364	-200,000	0,000	-0,006
-532,350	180,668	-0,078	0,082
-531,335	-200,000	-0,013	0,099
-530,321	371,357	-0,051	0,074
-529,306	-101,144	0,077	0,013
-528,291	-100,370	-0,144	0,025
-527,277	800,000	-0,074	-0,172
-526,262	-115,153	-0,048	0,006
-525,248	23,629	0,109	0,064
-524,233	-94,316	0,065	0,013
-523,218	59,495	-0,086	-0,061
-522,204	-76,574	0,140	-0,035
-521,189	104,957	-0,106	-0,089
-520,175	800,000	-0,067	-0,193
-519,160	-200,000	0,007	-0,118
-518,145	-200,000	0,017	-0,127
-517,131	-3,963	0,069	0,035
-516,116	-115,831	0,019	0,002
-515,102	-200,000	-0,012	-0,080
-514,087	368,132	-0,015	-0,021
-513,072	46,528	-0,034	0,023
-512,058	-200,000	-0,007	0,031
-511,043	-94,758	0,115	0,022
-510,029	-15,255	-0,046	0,021
-509,014	717,164	-0,088	0,169
-507,999	-122,263	0,035	-0,004
-506,985	58,004	0,063	0,045
-505,970	60,238	-0,036	-0,025
-504,956	649,039	0,045	-0,082
-503,941	-135,080	-0,113	-0,010
-502,926	-47,691	0,137	0,047
-501,912	70,981	-0,034	0,026
-500,897	800,000	-0,020	0,045
-499,883	-200,000	0,010	0,121
-498,868	175,583	-0,087	-0,090
-497,853	261,756	0,054	-0,067
-496,839	47,887	-0,048	-0,032
-495,824	212,473	0,053	0,060
-494,810	481,149	-0,043	0,070
-493,795	2,477	0,109	0,057
-492,781	-124,301	-0,127	0,014
-491,766	800,000	-0,030	-0,062
-490,751	42,994	-0,097	-0,064
-489,737	-200,000	-0,027	-0,171
-488,722	-49,316	0,145	0,050
-487,708	-105,067	0,158	0,026
-486,693	-58,991	0,059	0,018
-485,678	-200,000	-0,005	-0,077
-484,664	-200,000	0,015	-0,066
-483,649	-200,000	-0,031	-0,110
-482,635	599,621	0,024	-0,043
-481,620	-200,000	-0,007	0,039
-480,605	800,000	0,037	0,085
-479,591	-73,511	0,127	0,033
-478,576	24,663	-0,005	-0,003
-477,562	-46,777	0,076	-0,026
-476,547	-200,000	-0,001	-0,255
-475,532	-66,368	-0,115	0,033
-474,518	800,000	0,023	-0,067
-473,503	-200,000	0,050	0,280
-472,489	-200,000	0,026	0,248
-471,474	-94,931	-0,069	0,013
-470,459	800,000	0,016	-0,043
-469,445	289,208	-0,022	-0,029
-468,430	800,000	-0,036	-0,108
-467,416	327,674	-0,049	0,067
-466,401	-200,000	-0,044	0,159
-465,386	-67,033	0,121	0,034
-464,372	506,203	-0,027	-0,045
-463,357	-66,842	-0,148	-0,042
-462,343	43,143	-0,129	0,084
-461,328	-46,672	-0,048	-0,017
-460,313	-120,246	0,115	-0,014
-459,299	800,000	0,007	-0,016
-458,284	-37,776	0,082	-0,031
-457,270	-72,412	-0,058	-0,015
-456,255	-200,000	-0,018	-0,070
-455,241	800,000	0,014	0,043
-454,226	-200,000	-0,014	0,052
-453,211	-48,823	-0,116	0,040
-452,197	-111,852	0,132	0,019
-451,182	172,334	-0,041	0,042
-450,168	-156,068	0,093	0,004
-449,153	-200,000	-0,016	0,080
-448,138	108,730	0,119	-0,102
-447,124	211,366	-0,043	0,048
-446,109	-145,595	-0,095	-0,006
-445,095	344,473	0,033	-0,046
-444,080	205,075	0,099	0,110
-443,065	-54,706	0,124	0,040
-442,051	344,077	-0,031	0,043
-441,036	62,361	-0,105	-0,075
-440,022	215,768	0,088	-0,101
-439,007	-6,965	-0,143	-0,070
-437,992	156,339	0,047	0,046
-436,978	189,606	0,031	-0,033
-435,963	-200,000	0,018	0,173
-434,949	-200,000	0,010	0,084
-433,934	463,846	0,030	0,048
-432,919	235,299	-0,031	0,036
-431,905	-39,557	0,022	-0,008
-430,890	-21,620	0,050	-0,022
-429,876	18,196	0,069	0,039
-428,861	800,000	0,027	0,061
-427,846	170,830	0,041	0,042
-426,832	3,648	0,084	-0,044
-425,817	-200,000	0,027	-0,103
-424,803	800,000	0,035	-0,077
-423,788	800,000	0,031	0,071
-422,773	133,608	0,098	0,091
-421,759	-34,205	-0,058	0,023
-420,744	-3,161	0,089	0,044
-419,730	95,711	0,060	-0,049
-418,715	800,000	-0,031	-0,079
-417,701	-49,365	-0,153	0,052
-416,686	271,673	0,122	-0,154
-415,671	42,691	-0,036	-0,023
-414,657	-79,342	-0,097	0,023
-413,642	198,149	0,017	-0,019
-412,628	-200,000	-0,038	0,152
-411,613	29,022	-0,041	-0,025
-410,598	-10,017	0,127	0,060
-409,584	-3,071	0,101	0,050
-408,569	236,109	0,069	-0,082
-407,555	70,145	0,041	0,031
-406,540	-200,000	0,008	-0,039
-405,525	28,879	0,088	0,053
-404,511	366,633	-0,146	-0,212
-403,496	299,946	0,115	-0,153
-402,482	6,055	-0,082	-0,043
-401,467	-200,000	-0,031	0,155
-400,452	598,935	-0,041	-0,073
-399,438	-71,755	-0,059	0,016
-398,423	-83,796	-0,106	0,024
-397,409	260,477	-0,075	-0,093
-396,394	-114,738	0,091	0,012
-395,379	589,650	-0,028	0,050
-394,365	129,109	0,011	0,010
-393,350	88,859	0,085	0,067
-392,336	-4,934	0,090	0,044
-391,321	216,745	-0,142	-0,162
-390,306	108,344	-0,090	0,077
-389,292	-57,431	-0,088	-0,027
-388,277	800,000	0,032	-0,070
-387,263	-200,000	-0,025	-0,120
-386,248	173,657	0,131	0,136
-385,233	632,376	-0,061	0,111
-384,219	356,648	-0,100	0,143
-383,204	-84,841	-0,043	-0,010
-382,190	-200,000	0,012	-0,185
-381,175	-65,433	-0,061	0,018
-380,160	-7,184	-0,132	0,064
-379,146	-200,000	-0,018	0,184
-378,131	800,000	0,037	0,116
-377,117	-120,222	0,041	0,005
-376,102	-173,524	-0,082	0,002
-375,088	-86,252	-0,084	-0,018
-374,073	659,575	0,019	0,034
-373,058	-61,478	0,014	0,004
-372,044	202,734	-0,051	-0,056
-371,029	-200,000	0,024	0,084
-370,015	-200,000	-0,014	0,117
-369,000	-90,183	0,054	0,011
-367,985	404,462	-0,053	-0,080
-366,971	-136,084	-0,100	0,008
-365,956	230,490	-0,066	0,077
-364,942	-21,710	0,057	0,025
-363,927	96,259	0,071	0,058
-362,912	-91,292	-0,090	0,018
-361,898	800,000	-0,077	0,218
-360,883	-58,476	0,043	0,013
-359,869	-200,000	0,006	-0,036
-358,854	-200,000	0,022	0,130
-357,839	399,869	0,094	0,141
-356,825	-200,000	0,005	-0,026
-355,810	-200,000	0,008	-0,041
-354,796	-200,000	0,018	-0,084
-353,781	364,088	-0,062	-0,089
-352,766	-158,169	0,057	-0,002
-351,752	82,916	0,069	0,054
-350,737	255,372	0,058	-0,071
-349,723	800,000	0,091	0,192
-348,708	51,014	0,132	0,089
-347,693	-127,394	-0,111	-0,011
-346,679	-108,907	-0,236	-0,036
-345,664	-200,000	-0,019	-0,187
-344,650	-200,000	0,029	-0,106
-343,635	287,129	0,036	0,047
-342,620	209,869	0,063	0,070
-341,606	322,455	-0,065	0,088
-340,591	417,217	-0,067	0,102
-339,577	-77,153	-0,042	0,010
-338,562	324,393	0,088	-0,120
-337,548	182,417	-0,120	-0,126
-336,533	-22,657	-0,061	-0,026
-335,518	310,021	0,080	0,107
-334,504	-60,231	0,093	-0,028
-333,489	800,000	0,050	-0,102
-332,475	800,000	-0,010	-0,030
-331,460	-137,856	-0,034	-0,003
-330,445	400,112	0,049	-0,074
-329,431	-200,000	0,035	0,149
-328,416	77,564	0,102	-0,077
-327,402	16,000	0,086	-0,048
-326,387	-31,812	0,090	0,036
-325,372	257,733	0,027	-0,034
-324,358	83,256	-0,144	-0,112
-323,343	-100,730	0,139	-0,024
-322,329	49,654	0,145	0,097
-321,314	800,000	-0,023	-0,046
-320,299	-200,000	-0,032	0,229
-319,285	-101,099	-0,067	0,012
-318,270	-119,871	0,114	0,014
-317,256	341,267	-0,052	-0,073
-316,241	180,979	0,043	-0,045
-315,226	-121,207	0,068	-0,008
-314,212	24,792	0,051	0,030
-313,197	-200,000	-0,006	0,121
-312,183	800,000	-0,075	0,191
-311,168	260,497	-0,155	0,192
-310,153	-200,000	-0,031	-0,178
-309,139	800,000	-0,015	-0,041
-308,124	43,146	-0,004	0,002
-307,110	-103,972	-0,091	-0,015
-306,095	-112,337	0,091	0,013
-305,080	-99,675	0,215	-0,038
-304,066	368,638	-0,096	-0,138
-303,051	25,149	-0,039	0,023
-302,037	-200,000	0,009	0,058
-301,022	627,486	0,073	-0,132
-300,008	612,475	-0,056	0,100
-298,993	-200,000	0,028	0,091
-297,978	-200,000	-0,017	0,142
-296,964	800,000	-0,026	-0,053
-295,949	800,000	0,003	0,006
-294,935	800,000	0,055	-0,116
-293,920	151,675	-0,098	0,095
-292,905	158,419	-0,028	0,027
-291,891	31,092	0,087	0,053
-290,876	-200,000	-0,000	0,068
-289,862	-200,000	-0,002	-0,249
-288,847	-108,286	-0,099	-0,015
-287,832	-68,948	0,035	-0,010
-286,818	-200,000	-0,025	0,156
-285,803	-200,000	0,014	0,082
-284,789	320,550	0,065	0,089
-283,774	-37,390	0,065	0,025
-282,759	-4,801	-0,157	-0,077
-281,745	59,374	-0,051	-0,036
-280,730	102,906	0,061	-0,051
-279,716	161,766	-0,032	-0,032
-278,701	-91,467	-0,012	-0,002
-277,686	-200,000	0,009	0,107
-276,672	13,812	-0,062	0,034
-275,657	-200,000	-0,021	-0,082
-274,643	25,339	0,066	-0,039
-273,628	-113,419	-0,067	-0,009
-272,613	-91,885	0,116	0,023
-271,599	758,665	0,016	-0,032
-270,584	800,000	0,079	0,200
-269,570	303,803	0,041	-0,054
-268,555	325,820	0,048	0,066
-267,540	221,010	-0,073	-0,083
-266,526	-200,000	0,031	-0,155
-265,511	504,738	-0,086	-0,143
-264,497	56,082	0,130	-0,090
-263,482	630,685	0,052	0,094
-262,467	19,654	0,100	-0,057
-261,453	800,000	0,049	-0,125
-260,438	-57,443	-0,123	0,038
-259,424	198,202	-0,040	0,044
-258,409	-101,052	0,038	-0,007
-257,395	-101,288	-0,056	-0,010
-256,380	-200,000	-0,005	-0,059
-255,365	171,114	0,073	0,075
-254,351	37,529	-0,185	0,117
-253,336	800,000	-0,030	-0,093
-252,322	338,596	-0,061	-0,085
-251,307	427,610	-0,034	-0,052
-250,292	235,497	0,075	0,088
-249,278	-63,114	0,177	0,052
-248,263	-88,793	0,159	-0,033
-247,249	-200,000	-0,041	0,191
-246,234	232,474	0,071	-0,083
-245,219	289,242	0,015	0,020
-244,205	800,000	-0,014	-0,038
-243,190	605,717	0,010	0,019
-242,176	738,885	-0,030	0,058
-241,161	64,379	-0,164	0,117
-240,146	168,099	0,078	0,079
-239,132	800,000	-0,042	-0,085
-238,117	-200,000	0,012	-0,114
-237,103	-200,000	-0,019	-0,156
-236,088	-117,715	0,082	-0,010
-235,073	711,311	0,036	-0,068
-234,059	-200,000	-0,007	-0,040
-233,044	124,396	0,079	0,071
-232,030	493,573	0,027	0,045
-231,015	-31,082	-0,102	0,041
-230,000	111,272	-0,100	-0,086
-228,986	203,724	0,017	-0,018
-227,971	-200,000	0,031	0,134
-226,957	-60,258	-0,108	-0,033
-225,942	-165,374	-0,049	0,002
-224,927	-63,071	-0,077	0,023
-223,913	-200,000	-0,018	0,068
-222,898	800,000	0,006	0,016
-221,884	188,972	0,049	0,052
-220,869	-200,000	-0,057	0,000
-219,855	221,707	-0,101	0,115
-218,840	188,851	0,039	-0,042
-217,825	6,551	-0,099	-0,052
-216,811	-68,749	-0,110	-0,030
-215,796	800,000	-0,034	0,068
-214,782	-200,000	-0,001	-0,008
-213,767	358,453	0,072	-0,102
-212,752	488,640	0,044	0,072
-211,738	-61,055	0,129	0,039
-210,723	-193,440	-0,063	-0,000
-209,709	475,826	0,018	0,029
-208,694	74,247	-0,165	0,123
-207,679	682,746	-0,101	-0,187
-206,665	-65,789	0,081	-0,023
-205,650	-6,294	-0,135	-0,065
-204,636	800,000	0,019	0,041
-203,621	-200,000	0,023	-0,100
-202,606	-97,939	0,123	0,022
-201,592	113,144	-0,066	0,057
-200,577	800,000	-0,005	0,015
-199,563	-200,000	0,010	0,038
-198,548	-200,000	0,022	-0,112
-197,533	17,842	0,044	-0,025
-196,519	148,146	-0,145	0,139
-195,504	800,000	-0,047	0,129
-194,490	290,557	-0,025	0,032
-193,475	-200,000	0,004	-0,042
-192,460	800,000	-0,056	-0,144
-191,446	800,000	0,054	0,115
-190,431	800,000	-0,009	-0,026
-189,417	117,067	0,021	-0,018
-188,402	-103,753	0,151	-0,025
-187,387	-150,418	-0,044	0,002
-186,373	443,953	0,079	-0,124
-185,358	-31,446	0,107	-0,042
-184,344	-175,183	-0,031	0,001
-183,329	800,000	-0,013	0,035
-182,315	800,000	0,040	0,105
-181,300	-200,000	0,023	-0,089
-180,285	800,000	-0,020	-0,059
-179,271	-55,817	0,033	0,010
-178,256	-36,863	0,093	0,035
-177,242	20,193	-0,063	-0,036
-176,227	800,000	0,058	0,136
-175,212	47,670	0,069	0,046
-174,198	204,020	0,036	-0,040
-173,183	144,225	-0,158	-0,150
-172,169	-200,000	0,016	-0,092
-171,154	-50,236	0,102	-0,034
-170,139	18,507	0,097	0,055
-169,125	226,534	-0,063	-0,073
-168,110	-179,417	0,067	0,001
-167,096	-200,000	0,031	-0,146
-166,081	-200,000	-0,002	0,087
-165,066	523,124	-0,033	-0,055
-164,052	-11,186	-0,060	0,028
-163,037	-200,000	-0,018	-0,108
-162,023	445,832	-0,013	0,020
-161,008	459,417	0,031	-0,049
-159,993	-107,258	-0,119	-0,018
-158,979	800,000	-0,036	-0,104
-157,964	-30,850	-0,108	0,043
-156,950	721,859	-0,031	-0,059
-155,935	243,916	-0,029	0,035
-154,920	-8,807	0,127	-0,060
-153,906	800,000	-0,029	0,061
-152,891	-200,000	0,005	0,123
-151,877	281,009	-0,120	-0,153
-150,862	212,766	-0,018	0,021
-149,847	60,563	-0,053	0,037
-148,833	-5,303	0,133	-0,065
-147,818	74,275	0,102	0,076
-146,804	800,000	-0,024	0,068
-145,789	-200,000	0,021	0,181
-144,775	-135,940	0,047	-0,004
-143,760	-82,062	-0,065	0,015
-142,745	-200,000	-0,004	-0,107
-141,731	-200,000	0,017	-0,055
-140,716	-200,000	0,017	0,093
-139,702	207,870	0,031	0,034
-138,687	-200,000	0,031	0,150
-137,672	800,000	-0,065	0,163
-136,658	115,950	-0,035	0,030
-135,643	180,867	0,051	0,053
-134,629	182,985	0,068	-0,072
-133,614	-116,318	0,073	-0,009
-132,599	404,472	0,056	-0,084
-131,585	-191,454	0,085	0,001
-130,570	741,807	-0,042	0,080
-129,556	-200,000	-0,016	-0,063
-128,541	522,715	0,069	-0,115
-127,526	-10,374	-0,084	0,039
-126,512	27,148	0,049	0,029
-125,497	97,507	0,120	0,098
-124,483	276,139	-0,030	0,038
-123,468	-24,334	0,027	0,011
-122,453	286,821	0,006	-0,008
-121,439	-200,000	0,023	0,115
-120,424	-200,000	0,012	0,087
-119,410	324,023	0,130	0,177
-118,395	-200,000	-0,001	-0,063
-117,380	-99,534	0,034	-0,006
-116,366	-149,361	0,119	-0,007
-115,351	-200,000	0,014	0,064
-114,337	17,601	-0,065	-0,036
-113,322	55,497	0,106	-0,073
-112,307	86,339	0,086	0,067
-111,293	-84,150	-0,037	-0,008
-110,278	800,000	0,014	0,033
-109,264	-103,446	0,091	-0,015
-108,249	-69,722	0,151	-0,041
-107,234	48,976	0,056	-0,037
-106,220	-200,000	0,006	0,032
-105,205	-117,307	0,183	-0,023
-104,191	185,355	-0,074	0,078
-103,176	63,876	-0,037	0,027
-102,162	117,963	0,142	0,124
-101,147	-91,403	-0,089	0,018
-100,132	120,955	-0,015	0,013
-99,118	-10,613	0,119	-0,055
-98,103	252,776	-0,048	0,058
-97,089	100,207	0,037	-0,031
-96,074	800,000	-0,056	0,119
-95,059	432,778	0,077	0,118
-94,045	-2,018	-0,158	0,078
-93,030	270,888	-0,033	-0,042
-92,016	64,402	0,189	0,134
-91,001	800,000	0,021	0,050
-89,986	8,835	0,102	-0,054
-88,972	800,000	0,012	-0,023
-87,957	139,206	0,018	0,017
-86,943	800,000	0,034	-0,071
-85,928	239,427	0,009	-0,011
-84,913	-86,742	-0,081	0,017
-83,899	-36,662	-0,075	-0,028
-82,884	383,961	0,051	0,075
-81,870	800,000	-0,014	0,040
-80,855	-104,091	0,095	0,015
-79,840	-200,000	0,005	0,106
-78,826	-160,502	-0,097	0,004
-77,811	800,000	-0,018	-0,039
-76,797	-130,372	-0,058	-0,005
-75,782	97,258	0,106	-0,086
-74,767	26,994	0,080	-0,048
-73,753	800,000	0,017	-0,040
-72,738	800,000	0,013	-0,027
-71,724	-200,000	0,002	0,028
-70,709	87,796	-0,059	0,046
-69,694	-200,000	-0,000	-0,215
-68,680	72,228	0,164	0,121
-67,665	-14,648	0,107	0,048
-66,651	299,266	-0,067	0,088
-65,636	104,031	0,005	-0,004
-64,622	181,483	-0,036	-0,038
-63,607	-200,000	-0,019	-0,080
-62,592	294,690	-0,058	-0,076
-61,578	-200,000	-0,002	-0,028
-60,563	-35,987	-0,013	0,005
-59,549	-59,006	0,189	-0,057
-58,534	9,521	-1,888	-1,007
-57,519	542,569	-1,233	-2,084
-56,505	-200,000	-0,340	-4,311
-55,490	365,992	0,987	1,410
-54,476	800,000	5,083	11,174
-53,461	-200,000	20,884	329,068
-52,446	800,000	757,008	2322,573
-51,432	550,069	1662,242	2825,522
-50,417	73,521	1664,151	1229,038
-49,403	18,718	1537,498	866,459
-48,388	12,730	1460,230	793,924
-47,373	19,015	1451,027	819,085
-46,359	15,867	1440,311	798,014
-45,344	11,020	1435,975	772,485
-44,330	10,949	1433,917	771,010
-43,315	10,939	1432,124	769,966
-42,300	10,931	1430,426	768,986
-41,286	10,963	1429,248	768,470
-40,271	10,920	1428,077	767,609
-39,257	10,922	1426,868	766,935
-38,242	10,944	1425,527	766,292
-37,227	10,923	1424,694	765,714
-36,213	10,939	1423,480	765,107
-35,198	10,941	1422,393	764,500
-34,184	11,023	1421,310	764,273
-33,169	10,950	1419,809	763,092
-32,154	10,993	1419,018	762,840
-31,140	11,040	1417,649	762,294
-30,125	11,075	1416,764	761,956
-29,111	11,019	1415,420	760,936
-28,096	11,004	1414,279	760,223
-27,082	10,924	1413,315	759,299
-26,067	10,937	1412,155	758,708
-25,052	10,931	1411,032	758,044
-24,038	10,934	1409,973	757,460
-23,023	10,922	1409,091	756,900
-22,009	10,873	1407,970	756,038
-20,994	10,930	1406,843	755,670
-19,979	10,888	1406,357	755,185
-18,965	10,899	1405,164	754,565
-17,950	10,865	1404,418	753,973
-16,936	10,873	1403,608	753,545
-15,921	10,823	1402,528	752,706
-14,906	10,819	1401,659	752,192
-13,892	10,874	1400,602	751,847
-12,877	10,803	1400,030	751,183
-11,863	10,840	1399,028	750,788
-10,848	10,834	1397,996	750,173
-9,833	10,771	1397,125	749,384
-8,819	10,742	1396,314	748,786
-7,804	10,749	1395,592	748,399
-6,790	10,758	1394,315	747,729
-5,775	10,772	1393,469	747,308
-4,760	10,758	1392,342	746,613
-3,746	10,797	1391,379	746,245
-2,731	10,737	1390,640	745,544
-1,717	10,699	1389,918	744,952
-0,702	10,708	1387,970	743,916
0,313	14,832	1301,668	716,538
1,327	31,237	693,201	418,920
2,342	48,695	120,372	79,505
3,356	0,283	16,512	8,286
4,371	-7,040	3,373	1,610
5,386	-9,540	0,875	0,410
6,400	700,484	0,289	0,539
7,415	-60,800	-0,159	0,047
8,429	-14,559	-0,234	-0,106
9,444	384,811	-0,266	-0,388
10,459	90,663	-0,232	-0,183
11,473	59,596	-0,359	-0,249
12,488	69,182	-0,279	-0,202
13,502	-71,304	-0,275	-0,072
14,517	298,754	-0,196	-0,254
15,531	215,564	-0,314	-0,352
16,546	10,517	-0,307	-0,165
17,561	192,266	-0,285	-0,303
18,575	103,953	-0,078	0,065
19,590	118,227	-0,187	-0,163
20,604	27,515	-0,156	-0,092
21,619	39,865	-0,395	-0,249
22,634	268,269	-0,394	-0,487
23,648	5,380	-0,419	-0,217
24,663	41,438	-0,396	-0,252
25,677	25,905	-0,319	-0,187
26,692	-9,551	-0,342	-0,160
27,707	249,693	-0,253	-0,303
28,721	48,048	-0,389	-0,255
29,736	233,587	-0,396	-0,460
30,750	195,676	-0,333	-0,356
31,765	50,093	-0,364	-0,242
32,780	115,297	-0,338	-0,291
33,794	-8,420	-0,351	-0,166
34,809	10,948	-0,482	-0,258
35,823	147,562	-0,234	-0,222
36,838	140,893	-0,402	-0,374
37,853	77,816	-0,305	-0,229
38,867	448,598	-0,235	-0,365
39,882	45,442	-0,356	-0,230
40,896	83,355	-0,349	-0,267
41,911	-49,591	-0,405	-0,135
42,926	-0,470	-0,406	-0,202
43,940	-3,718	-0,429	-0,209
44,955	305,106	-0,235	-0,308
45,969	120,125	-0,392	-0,342
46,984	70,484	-0,370	-0,269
47,999	157,661	-0,150	-0,146
49,013	185,699	-0,299	-0,313
50,028	84,886	-0,386	-0,297
51,042	273,273	-0,262	-0,326
52,057	78,899	-0,324	-0,243
53,071	20,818	-0,432	-0,245
54,086	46,585	-0,282	-0,184
55,101	145,952	-0,319	-0,300
56,115	413,139	-0,234	-0,351
57,130	75,651	-0,387	-0,287
58,144	106,580	-0,329	-0,274
59,159	24,274	-0,360	-0,208
60,174	145,336	-0,326	-0,307
61,188	51,223	-0,418	-0,278
62,203	281,486	-0,177	-0,223
63,217	43,219	-0,411	-0,263
64,232	47,449	-0,202	-0,132
65,247	0,461	-0,368	-0,184
66,261	227,419	-0,300	-0,343
67,276	25,525	-0,424	-0,247
68,290	148,967	-0,309	-0,293
69,305	429,130	-0,196	-0,299
70,320	152,182	-0,262	-0,251
71,334	-2,864	-0,334	-0,163
72,349	1,178	-0,321	-0,161
73,363	148,740	-0,321	-0,305
74,378	-1,371	-0,323	-0,160
75,393	-7,698	-0,316	-0,149
76,407	63,074	-0,167	-0,117
77,422	125,494	-0,284	-0,251
78,436	120,409	-0,225	-0,196
79,451	75,458	-0,325	-0,240
80,466	6,705	-0,373	-0,194
81,480	-147,659	-0,394	-0,023
82,495	-39,053	-0,310	-0,114
83,509	78,515	-0,160	-0,120
84,524	49,262	-0,399	-0,262
85,539	-124,648	-0,313	0,034
86,553	95,927	-0,253	-0,203
87,568	94,629	-0,301	-0,240
88,582	72,669	-0,297	-0,217
89,597	800,000	-0,122	-0,238
90,611	42,749	-0,337	-0,214
91,626	63,296	-0,258	-0,181
92,641	-176,581	-0,240	-0,004
93,655	57,757	-0,381	-0,260
94,670	16,177	-0,369	-0,203
95,684	90,948	-0,354	-0,278
96,699	178,039	-0,282	-0,288
97,714	214,419	-0,184	-0,204
98,728	26,891	-0,263	-0,154
99,743	138,332	-0,169	-0,155
100,757	-15,447	-0,307	-0,137
101,772	-84,371	-0,251	-0,055
102,787	12,305	-0,301	-0,162
103,801	329,299	-0,199	-0,268
104,816	-49,115	-0,323	-0,108
105,830	305,590	-0,187	-0,244
106,845	-8,163	-0,186	-0,087
107,860	197,324	-0,240	-0,257
108,874	12,946	-0,223	-0,120
109,889	171,284	-0,256	-0,257
110,903	35,253	-0,326	-0,200
111,918	69,123	-0,323	-0,232
112,933	78,091	-0,278	-0,207
113,947	6,151	-0,244	-0,126
114,962	-11,448	-0,177	-0,081
115,976	37,742	-0,199	-0,124
116,991	203,494	-0,204	-0,221
118,006	-111,332	-0,303	-0,043
119,020	69,437	-0,362	-0,260
120,035	67,870	-0,271	-0,193
121,049	146,996	-0,228	-0,214
122,064	25,293	-0,240	-0,139
123,079	391,405	-0,242	-0,351
124,093	-34,176	-0,272	-0,104
125,108	110,119	-0,202	-0,169
126,122	-32,705	-0,286	-0,111
127,137	-125,077	-0,298	-0,032
128,151	78,511	-0,266	-0,198
129,166	179,364	-0,136	-0,139
130,181	124,652	-0,233	-0,204
131,195	-33,227	-0,269	-0,103
132,210	411,753	-0,206	-0,306
133,224	374,008	-0,174	-0,248
134,239	-44,671	-0,223	-0,077
135,254	2,248	-0,215	-0,108
136,268	664,332	-0,134	-0,241
137,283	46,798	-0,248	-0,161
138,297	-2,799	-0,313	-0,152
139,312	302,658	-0,237	-0,307
140,327	258,432	-0,139	-0,167
141,341	2,898	-0,212	-0,107
142,356	465,776	-0,106	-0,166
143,370	-107,104	-0,241	-0,037
144,385	81,644	-0,178	-0,134
145,400	67,387	-0,247	-0,175
146,414	62,741	-0,189	-0,132
147,429	-24,514	-0,356	-0,147
148,443	452,361	-0,134	-0,207
149,458	412,185	-0,094	-0,140
150,473	-36,768	-0,127	-0,047
151,487	55,734	-0,284	-0,192
152,502	89,943	-0,199	-0,154
153,516	178,838	-0,209	-0,213
154,531	-28,680	-0,352	-0,140
155,546	103,825	-0,113	-0,092
156,560	34,559	-0,189	-0,115
157,575	-61,976	-0,292	-0,084
158,589	123,186	-0,243	-0,212
159,604	-44,315	-0,289	-0,100
160,619	-41,050	-0,334	-0,120
161,633	-28,108	-0,278	-0,111
162,648	102,190	-0,228	-0,185
163,662	-151,124	-0,194	-0,010
164,677	224,906	-0,252	-0,284
165,692	83,222	-0,218	-0,165
166,706	36,158	-0,336	-0,205
167,721	123,047	-0,251	-0,218
168,735	505,768	-0,107	-0,173
169,750	-35,545	-0,286	-0,107
170,764	81,372	-0,120	-0,090
171,779	185,982	-0,240	-0,248
172,794	37,552	-0,186	-0,114
173,808	-4,507	-0,369	-0,177
174,823	1,729	-0,212	-0,106
175,837	379,435	-0,120	-0,171
176,852	165,491	-0,202	-0,199
177,867	-20,437	-0,273	-0,116
178,881	-200,000	-0,065	-0,228
179,896	138,212	-0,162	-0,147
180,910	-14,267	-0,315	-0,140
181,925	-17,197	-0,269	-0,117
182,940	202,168	-0,185	-0,198
183,954	-200,000	-0,051	-0,214
184,969	319,047	-0,154	-0,203
185,983	-22,721	-0,264	-0,110
186,998	40,953	-0,290	-0,181
188,013	97,501	-0,212	-0,169
189,027	142,765	-0,194	-0,179
190,042	-45,519	-0,180	-0,061
191,056	120,877	-0,173	-0,149
192,071	262,757	-0,150	-0,181
193,086	217,890	-0,266	-0,295
194,100	44,073	-0,158	-0,100
195,115	-19,560	-0,187	-0,080
196,129	76,256	-0,266	-0,195
197,144	78,549	-0,128	-0,095
198,159	95,554	-0,134	-0,106
199,173	-82,519	-0,146	-0,033
200,188	800,000	-0,083	-0,212
201,202	-55,014	-0,176	0,054
202,217	7,038	-0,140	-0,072
203,232	-73,925	-0,310	-0,077
204,246	-26,310	-0,251	-0,102
205,261	95,850	-0,153	-0,121
206,275	256,974	-0,191	-0,228
207,290	263,051	-0,190	-0,229
208,304	260,340	-0,116	-0,140
209,319	103,057	-0,154	-0,125
210,334	152,172	-0,209	-0,198
211,348	27,050	-0,277	-0,161
212,363	275,850	-0,202	-0,248
213,377	267,989	-0,154	-0,187
214,392	462,688	-0,103	-0,160
215,407	-167,618	-0,078	-0,002
216,421	-105,118	-0,199	-0,031
217,436	-112,682	-0,161	-0,022
218,450	554,387	-0,106	-0,177
219,465	195,534	-0,215	-0,227
220,480	744,251	-0,048	-0,090
221,494	-119,422	-0,150	-0,018
222,509	644,477	-0,034	-0,060
223,523	489,483	-0,061	-0,097
224,538	-129,274	-0,203	0,019
225,553	155,206	-0,139	-0,133
226,567	195,083	-0,217	-0,228
227,582	18,928	-0,280	-0,155
228,596	347,214	-0,062	-0,084
229,611	-113,188	-0,150	-0,020
230,626	-73,765	-0,261	-0,065
231,640	48,646	-0,167	-0,108
232,655	216,434	-0,219	-0,241
233,669	800,000	-0,117	-0,295
234,684	-8,512	-0,236	-0,109
235,699	-115,045	-0,319	0,041
236,713	-3,726	-0,215	-0,103
237,728	240,846	-0,170	-0,197
238,742	-6,085	-0,234	-0,110
239,757	800,000	-0,154	-0,300
240,772	68,729	-0,184	-0,130
241,786	461,750	-0,173	-0,268
242,801	800,000	-0,078	-0,170
243,815	220,621	-0,170	-0,188
244,830	-129,531	-0,198	-0,019
245,844	-34,767	-0,159	-0,060
246,859	365,685	-0,148	-0,206
247,874	268,129	-0,210	-0,254
248,888	251,052	-0,118	-0,139
249,903	-11,309	-0,197	-0,089
250,917	-200,000	-0,164	-0,000
251,932	32,743	-0,081	-0,048
252,947	-106,158	-0,188	-0,029
253,961	73,831	-0,153	-0,111
254,976	27,911	-0,284	-0,165
255,990	60,423	-0,215	-0,147
257,005	-200,000	-0,054	-0,287
258,020	-50,334	-0,201	-0,065
259,034	103,454	-0,110	-0,089
260,049	371,052	-0,128	-0,179
261,063	800,000	-0,061	-0,125
262,078	-22,690	-0,207	-0,086
263,093	111,233	-0,139	-0,115
264,107	20,615	-0,218	-0,121
265,122	-97,537	-0,235	-0,042
266,136	238,016	-0,104	-0,120
267,151	-22,216	-0,125	-0,052
268,166	-19,782	-0,302	-0,128
269,180	-62,587	-0,261	-0,074
270,195	-12,267	-0,178	-0,080
271,209	-133,269	-0,120	-0,010
272,224	-139,701	-0,098	0,007
273,239	291,595	-0,097	-0,122
274,253	51,937	-0,295	-0,193
275,268	25,383	-0,176	-0,101
276,282	181,564	-0,128	-0,129
277,297	-19,764	-0,093	-0,039
278,312	-10,378	-0,120	-0,054
279,326	-71,206	-0,214	-0,055
280,341	-19,665	-0,156	-0,066
281,355	47,031	-0,179	-0,114
282,370	152,801	-0,140	-0,132
283,384	182,784	-0,117	-0,119
284,399	-11,107	-0,234	-0,106
285,414	204,565	-0,209	-0,223
286,428	21,352	-0,202	-0,112
287,443	102,371	-0,097	0,078
288,457	-80,388	-0,145	-0,033
289,472	267,123	-0,159	-0,191
290,487	800,000	-0,086	-0,174
291,501	-67,411	-0,212	-0,057
292,516	335,661	-0,132	-0,177
293,530	96,602	-0,058	-0,046
294,545	-39,920	-0,163	-0,058
295,560	800,000	-0,048	-0,145
296,574	-95,204	-0,158	0,029
297,589	-30,435	-0,180	-0,070
298,603	-7,453	-0,315	-0,146
299,618	-44,636	-0,129	-0,044
300,633	75,981	-0,150	-0,109
301,647	-132,451	-0,089	0,008
302,662	-200,000	-0,014	-0,048
303,676	-200,000	-0,016	-0,050
304,691	20,033	-0,276	-0,152
305,706	705,774	-0,040	-0,073
306,720	-78,389	-0,231	-0,054
307,735	-117,674	-0,235	-0,029
308,749	-156,783	-0,095	-0,004
309,764	429,160	-0,060	-0,089
310,779	-125,438	-0,189	-0,019
311,793	38,532	-0,145	-0,088
312,808	16,194	-0,202	-0,109
313,822	197,961	-0,088	-0,092
314,837	274,255	-0,126	-0,153
315,852	-200,000	0,040	-0,164
316,866	800,000	-0,103	-0,205
317,881	199,579	-0,046	-0,049
318,895	234,270	-0,159	-0,180
319,910	800,000	-0,062	-0,149
320,925	79,171	-0,302	-0,222
321,939	-91,128	-0,084	-0,016
322,954	-80,962	-0,149	-0,034
323,968	7,630	-0,072	0,037
324,983	-30,408	-0,129	-0,050
325,997	-182,623	-0,142	-0,002
327,012	800,000	-0,049	-0,103
328,027	800,000	-0,075	-0,162
329,041	409,047	-0,115	-0,167
330,056	477,171	-0,098	-0,153
331,070	-200,000	0,016	-0,143
332,085	-27,383	-0,207	-0,082
333,100	-147,529	-0,071	-0,004
334,114	-17,242	-0,203	-0,087
335,129	-143,942	-0,290	-0,018
336,143	380,422	-0,064	-0,090
337,158	-200,000	-0,008	-0,086
338,173	79,374	-0,075	-0,055
339,187	634,169	-0,127	-0,222
340,202	101,356	-0,147	-0,117
341,216	800,000	-0,070	-0,157
342,231	-94,185	-0,219	-0,041
343,246	-55,653	-0,115	-0,035
344,260	236,698	-0,043	-0,049
345,275	-200,000	-0,013	-0,088
346,289	-152,370	-0,085	0,004
347,304	19,689	-0,219	-0,120
348,319	190,151	-0,107	-0,110
349,333	184,616	-0,164	-0,167
350,348	73,676	-0,144	-0,103
351,362	227,328	-0,117	-0,131
352,377	-200,000	-0,221	-0,001
353,392	16,511	-0,149	-0,080
354,406	800,000	-0,045	-0,128
355,421	206,338	1309,104	1395,782
356,435	158,687	1469,117	1396,269
