DTS Sentinel unit serial number:	SN410029Multiplexer serial number:	ORYXHardware model number:	OX2-SRSoftware version number:	ORYX F/W v4,00 Oryx Data Collector v3.7.2.0data status	okinstallation	B3 Nyhavnadifferential loss correction	single-endedforward channel	channel 1reverse channel	N/Adate	2023/12/01time	04:17:30forward acquisition time	300,00reverse acquisition time	0,00gamma	499,1914k internal	0,3213k external	0,3213temperature offset calibration	1,0000default loss term (dB/km)	0,3820temperature slope calibration	1,0000multiplexer offset coefficient	1,0000multiplexer slope coefficient	1,0000fibre end	0,00T internal ref (°C)	8,12T ext. ref 1 (°C)	-6,95T ext. ref 2 (°C)	-7,08length (m)	temperature (°C)	Stokes	anti-Stokes-744,400	663,903	-0,159	-0,299
-743,385	73,139	-0,179	0,136
-742,371	96,634	-0,176	-0,146
-741,356	-200,000	-0,046	0,272
-740,342	216,956	-0,175	-0,202
-739,327	-200,000	0,002	0,206
-738,312	242,011	-0,115	-0,140
-737,298	211,094	-0,064	0,073
-736,283	69,413	-0,255	-0,190
-735,269	-200,000	-0,039	0,415
-734,254	-137,874	-0,222	-0,018
-733,239	-46,134	-0,243	0,086
-732,225	301,280	-0,024	-0,032
-731,210	-200,000	0,048	0,172
-730,196	125,824	-0,028	0,026
-729,181	-200,000	-0,033	-0,214
-728,167	-92,145	-0,097	0,020
-727,152	-130,841	0,066	-0,006
-726,137	-10,182	-0,045	0,021
-725,123	-130,228	-0,067	-0,006
-724,108	-200,000	-0,030	-0,116
-723,094	-200,000	-0,016	-0,177
-722,079	204,976	-0,042	-0,047
-721,064	43,994	-0,051	-0,034
-720,050	123,216	-0,007	-0,007
-719,035	269,435	-0,011	0,014
-718,021	313,059	-0,083	-0,114
-717,006	-90,244	-0,098	-0,020
-715,991	103,965	-0,099	0,084
-714,977	277,555	-0,075	-0,097
-713,962	800,000	0,042	-0,112
-712,948	-157,920	0,070	-0,003
-711,933	109,535	-0,134	-0,116
-710,918	-112,518	0,098	-0,014
-709,904	800,000	-0,007	-0,018
-708,889	90,932	-0,134	-0,109
-707,875	-87,130	0,072	-0,016
-706,860	310,895	0,070	-0,096
-705,845	-105,233	-0,138	-0,023
-704,831	250,715	0,066	0,081
-703,816	800,000	-0,022	0,069
-702,802	14,475	-0,018	-0,010
-701,787	-200,000	0,001	-0,042
-700,772	383,508	-0,065	0,097
-699,758	491,865	-0,060	-0,099
-698,743	10,406	0,076	0,042
-697,729	-99,849	0,050	0,009
-696,714	123,285	0,058	0,053
-695,699	800,000	-0,065	0,145
-694,685	208,663	0,058	0,066
-693,670	463,302	0,043	0,070
-692,656	-71,937	0,053	-0,014
-691,641	-200,000	-0,014	0,113
-690,627	-16,150	0,115	-0,053
-689,612	800,000	-0,012	-0,030
-688,597	-113,865	0,109	-0,015
-687,583	-158,533	-0,125	-0,005
-686,568	-200,000	0,001	-0,029
-685,554	294,627	0,041	0,054
-684,539	800,000	0,047	0,112
-683,524	800,000	-0,046	0,126
-682,510	-200,000	0,004	-0,044
-681,495	235,314	-0,050	-0,060
-680,481	-10,289	-0,106	-0,051
-679,466	-77,921	-0,090	-0,022
-678,451	370,184	0,011	-0,016
-677,437	-45,476	-0,060	-0,021
-676,422	800,000	0,032	0,064
-675,408	314,360	-0,086	0,117
-674,393	494,173	0,036	0,060
-673,378	34,486	-0,140	0,088
-672,364	-130,281	-0,160	0,016
-671,349	-49,247	0,068	-0,023
-670,335	-75,962	0,003	-0,001
-669,320	62,813	-0,064	0,046
-668,305	800,000	0,018	-0,038
-667,291	-200,000	-0,007	-0,089
-666,276	-100,277	-0,157	-0,028
-665,262	16,864	-0,051	0,029
-664,247	-63,122	0,151	0,045
-663,232	-115,512	0,042	-0,006
-662,218	-200,000	-0,013	0,067
-661,203	-122,869	0,128	0,015
-660,189	8,053	0,079	-0,043
-659,174	315,874	0,041	-0,056
-658,159	445,939	-0,013	-0,020
-657,145	-21,814	-0,168	-0,073
-656,130	-200,000	-0,003	-0,051
-655,116	800,000	0,029	0,059
-654,101	683,980	0,071	-0,134
-653,086	-200,000	0,019	-0,106
-652,072	110,646	-0,085	-0,074
-651,057	-82,483	0,142	-0,033
-650,043	-200,000	-0,005	-0,195
-649,028	-118,915	0,209	-0,026
-648,014	-200,000	0,004	-0,027
-646,999	-200,000	-0,027	0,178
-645,984	-143,731	0,075	0,005
-644,970	-185,565	-0,189	0,002
-643,955	-153,655	-0,151	-0,007
-642,941	-162,226	-0,072	0,003
-641,926	-123,027	-0,125	0,014
-640,911	762,301	0,060	0,119
-639,897	-72,415	0,052	0,014
-638,882	-200,000	-0,004	0,098
-637,868	800,000	-0,057	0,150
-636,853	410,736	0,019	0,029
-635,838	-128,028	-0,045	-0,005
-634,824	-101,962	-0,032	0,005
-633,809	72,188	0,077	-0,058
-632,795	131,256	0,050	-0,047
-631,780	218,663	-0,131	-0,151
-630,765	-174,504	-0,093	-0,002
-629,751	-200,000	-0,045	-0,162
-628,736	264,968	0,023	0,028
-627,722	-25,182	-0,060	-0,025
-626,707	-20,889	-0,074	-0,033
-625,692	-77,048	-0,064	0,016
-624,678	-24,816	-0,136	-0,058
-623,663	-18,456	-0,122	-0,055
-622,649	242,153	-0,119	-0,144
-621,634	-136,735	0,110	0,009
-620,619	245,628	0,028	0,034
-619,605	16,571	0,158	0,090
-618,590	800,000	-0,011	-0,026
-617,576	-200,000	-0,004	-0,138
-616,561	-180,642	-0,095	0,001
-615,546	-57,378	0,156	-0,049
-614,532	800,000	-0,024	0,051
-613,517	800,000	-0,041	-0,101
-612,503	81,655	-0,101	-0,078
-611,488	232,205	-0,022	-0,026
-610,474	-200,000	0,006	0,098
-609,459	63,057	-0,118	-0,085
-608,444	-6,220	0,040	0,019
-607,430	800,000	-0,029	-0,079
-606,415	-200,000	-0,009	-0,046
-605,401	800,000	0,014	0,033
-604,386	4,117	-0,067	-0,035
-603,371	551,557	0,028	0,049
-602,357	-61,073	0,060	0,018
-601,342	313,226	-0,063	-0,085
-600,328	553,694	-0,051	-0,090
-599,313	-200,000	-0,016	-0,122
-598,298	-200,000	-0,002	-0,104
-597,284	-178,916	-0,134	0,002
-596,269	-200,000	0,022	-0,099
-595,255	0,156	-0,052	-0,026
-594,240	151,730	-0,142	0,139
-593,225	182,172	0,057	-0,060
-592,211	3,430	-0,050	0,026
-591,196	134,748	0,049	-0,045
-590,182	238,905	-0,073	-0,088
-589,167	-68,922	0,031	-0,008
-588,152	43,968	-0,025	0,016
-587,138	-53,413	0,139	-0,046
-586,123	66,939	-0,164	-0,120
-585,109	-36,550	-0,041	0,016
-584,094	-181,781	-0,179	-0,002
-583,079	-192,449	0,162	0,001
-582,065	-141,995	0,084	0,006
-581,050	273,691	0,080	0,102
-580,036	4,902	-0,152	-0,080
-579,021	296,018	0,045	0,060
-578,006	44,315	-0,149	-0,098
-576,992	-183,167	-0,089	-0,001
-575,977	800,000	-0,025	-0,063
-574,963	-40,559	0,042	-0,015
-573,948	212,486	0,007	0,008
-572,934	-68,136	-0,089	0,025
-571,919	-91,110	0,106	-0,022
-570,904	800,000	-0,007	0,014
-569,890	-200,000	0,037	0,000
-568,875	800,000	-0,032	-0,064
-567,861	121,410	0,109	0,098
-566,846	-74,005	-0,196	-0,051
-565,831	266,187	-0,023	-0,029
-564,817	231,766	-0,092	-0,109
-563,802	-200,000	-0,004	-0,070
-562,788	800,000	-0,014	-0,037
-561,773	57,673	0,082	0,057
-560,758	-200,000	0,011	-0,073
-559,744	136,580	0,046	0,043
-558,729	-89,831	0,127	-0,026
-557,715	219,233	-0,037	0,042
-556,700	-55,773	-0,192	-0,061
-555,685	-200,000	-0,029	0,119
-554,671	-105,891	-0,047	-0,007
-553,656	-102,986	-0,041	0,007
-552,642	718,166	-0,088	0,169
-551,627	56,770	-0,029	-0,020
-550,612	-200,000	-0,008	-0,048
-549,598	-65,187	-0,102	-0,029
-548,583	-99,642	-0,060	-0,011
-547,569	29,564	0,095	-0,058
-546,554	103,377	0,178	0,150
-545,539	18,681	0,095	0,054
-544,525	-200,000	0,030	0,109
-543,510	-11,203	-0,085	-0,040
-542,496	-118,432	0,042	-0,005
-541,481	-106,961	0,042	0,007
-540,466	-200,000	-0,028	0,133
-539,452	706,732	-0,021	-0,040
-538,437	-200,000	0,006	0,020
-537,423	47,778	0,069	-0,046
-536,408	-90,160	0,081	0,017
-535,393	800,000	0,013	-0,037
-534,379	800,000	-0,042	-0,094
-533,364	-53,680	0,074	0,024
-532,350	-200,000	-0,014	-0,087
-531,335	193,638	0,050	0,055
-530,321	-47,383	-0,130	-0,045
-529,306	-184,709	-0,138	-0,002
-528,291	800,000	-0,034	0,074
-527,277	-130,962	-0,152	-0,014
-526,262	-200,000	0,012	-0,051
-525,248	-106,700	0,120	-0,019
-524,233	-200,000	0,012	0,046
-523,218	-200,000	-0,003	0,038
-522,204	225,864	-0,071	0,083
-521,189	-200,000	0,001	0,062
-520,175	800,000	0,020	-0,051
-519,160	690,691	-0,036	0,068
-518,145	-200,000	0,015	-0,092
-517,131	50,946	-0,010	-0,007
-516,116	-200,000	0,036	0,184
-515,102	-141,566	0,143	-0,010
-514,087	82,562	-0,113	0,088
-513,072	-119,781	-0,109	0,013
-512,058	-32,203	-0,089	0,035
-511,043	-200,000	0,023	-0,084
-510,029	463,086	-0,009	0,015
-509,014	168,540	0,101	0,103
-507,999	249,913	-0,050	0,062
-506,985	158,377	0,095	0,095
-505,970	57,477	-0,061	-0,043
-504,956	-200,000	-0,001	-0,171
-503,941	449,925	-0,059	-0,094
-502,926	-200,000	-0,001	-0,012
-501,912	-200,000	-0,006	0,031
-500,897	114,289	-0,110	0,097
-499,883	-200,000	0,003	0,054
-498,868	203,468	0,070	0,078
-497,853	-45,703	-0,053	-0,019
-496,839	-200,000	0,002	-0,159
-495,824	-200,000	0,003	0,025
-494,810	719,786	0,065	0,124
-493,795	154,685	0,084	0,083
-492,781	-161,626	0,034	-0,001
-491,766	800,000	0,037	-0,079
-490,751	104,140	-0,075	0,064
-489,737	800,000	-0,043	-0,127
-488,722	256,163	0,038	-0,047
-487,708	175,300	-0,051	-0,054
-486,693	-200,000	-0,024	0,143
-485,678	135,195	-0,093	-0,086
-484,664	-200,000	0,021	-0,086
-483,649	-200,000	0,004	-0,097
-482,635	-200,000	-0,027	0,100
-481,620	16,560	-0,033	-0,018
-480,605	-75,315	0,136	-0,034
-479,591	-200,000	0,016	0,059
-478,576	-200,000	0,004	-0,014
-477,562	-200,000	-0,021	-0,129
-476,547	91,233	-0,148	-0,119
-475,532	-200,000	-0,013	-0,068
-474,518	-200,000	0,011	-0,036
-473,503	220,114	-0,024	0,028
-472,489	27,997	-0,010	-0,006
-471,474	-200,000	-0,001	-0,048
-470,459	220,518	-0,063	0,073
-469,445	800,000	-0,020	0,040
-468,430	-89,196	-0,076	0,016
-467,416	-200,000	0,005	0,091
-466,401	-91,712	0,073	0,015
-465,386	-39,284	0,078	-0,029
-464,372	-200,000	0,001	-0,022
-463,357	24,491	-0,057	0,033
-462,343	-58,947	-0,053	-0,016
-461,328	15,258	0,111	0,062
-460,313	800,000	0,011	0,022
-459,299	800,000	0,043	0,089
-458,284	43,294	0,031	-0,021
-457,270	3,606	0,070	0,037
-456,255	146,860	0,084	-0,081
-455,241	5,367	-0,130	0,068
-454,226	453,946	0,089	-0,142
-453,211	-136,758	-0,092	-0,007
-452,197	-113,374	0,039	0,005
-451,182	141,254	0,068	0,064
-450,168	-200,000	-0,018	0,082
-449,153	215,799	-0,039	0,044
-448,138	-0,440	0,121	0,062
-447,124	121,916	-0,122	-0,109
-446,109	-200,000	0,016	0,075
-445,095	800,000	0,037	0,077
-444,080	-83,867	0,019	0,004
-443,065	800,000	-0,045	0,111
-442,051	-135,759	0,028	0,002
-441,036	800,000	0,085	-0,184
-440,022	-200,000	-0,012	-0,086
-439,007	800,000	0,038	-0,114
-437,992	-25,772	-0,058	0,025
-436,978	-14,533	0,129	0,059
-435,963	-25,537	-0,132	0,056
-434,949	393,486	0,058	-0,087
-433,934	-138,310	-0,047	0,004
-432,919	40,165	-0,151	-0,097
-431,905	518,600	0,024	-0,040
-430,890	800,000	-0,012	-0,029
-429,876	497,382	0,037	-0,061
-428,861	800,000	-0,043	-0,105
-427,846	-200,000	-0,051	-0,192
-426,832	47,477	-0,069	-0,046
-425,817	-136,230	-0,124	-0,010
-424,803	-86,156	-0,052	0,011
-423,788	614,385	0,061	0,109
-422,773	442,285	0,077	0,121
-421,759	-88,713	-0,059	-0,012
-420,744	85,158	-0,049	-0,038
-419,730	-82,420	-0,120	-0,028
-418,715	88,958	0,043	-0,034
-417,701	-200,000	0,036	-0,146
-416,686	-65,013	0,102	-0,029
-415,671	7,073	0,124	-0,066
-414,657	-200,000	0,006	0,101
-413,642	63,403	0,097	0,069
-412,628	715,700	-0,016	0,030
-411,613	-200,000	0,004	0,095
-410,598	-200,000	0,014	-0,092
-409,584	1,044	0,111	-0,057
-408,569	75,054	0,098	-0,074
-407,555	30,069	0,026	0,016
-406,540	-34,226	-0,018	-0,007
-405,525	800,000	0,038	0,080
-404,511	49,187	-0,056	0,038
-403,496	-23,026	-0,044	0,019
-402,482	166,814	-0,043	0,044
-401,467	-200,000	-0,002	-0,056
-400,452	-200,000	0,016	-0,092
-399,438	-112,854	-0,006	0,001
-398,423	250,135	-0,033	-0,040
-397,409	-84,150	-0,016	-0,003
-396,394	800,000	0,030	-0,081
-395,379	-200,000	-0,010	-0,054
-394,365	-200,000	-0,010	0,065
-393,350	-133,673	-0,035	-0,003
-392,336	-7,078	-0,049	0,024
-391,321	-99,990	0,059	-0,010
-390,306	-102,668	0,065	-0,011
-389,292	666,533	-0,060	-0,112
-388,277	35,697	0,169	0,106
-387,263	800,000	0,084	0,212
-386,248	800,000	0,067	0,184
-385,233	287,656	-0,059	0,076
-384,219	800,000	0,038	0,087
-383,204	-200,000	-0,018	-0,085
-382,190	800,000	0,024	-0,054
-381,175	-33,848	0,052	-0,020
-380,160	264,259	0,101	0,126
-379,146	-119,617	0,055	-0,007
-378,131	-112,341	0,040	0,006
-377,117	123,250	0,164	0,147
-376,102	-21,554	-0,093	-0,040
-375,088	-26,077	-0,056	0,023
-374,073	-200,000	-0,010	0,055
-373,058	-10,928	0,048	-0,022
-372,044	-100,454	0,154	0,027
-371,029	349,436	-0,082	0,116
-370,015	73,593	-0,078	-0,058
-369,000	-200,000	0,043	0,144
-367,985	-200,000	0,011	-0,039
-366,971	-109,558	0,087	0,013
-365,956	23,015	0,098	0,057
-364,942	698,107	0,045	0,085
-363,927	-200,000	0,029	0,185
-362,912	-56,202	-0,212	0,067
-361,898	29,224	0,091	0,055
-360,883	800,000	0,044	-0,107
-359,869	20,726	0,095	0,055
-358,854	39,351	-0,052	-0,033
-357,839	56,859	0,036	-0,025
-356,825	-200,000	0,008	0,036
-355,810	51,500	0,102	-0,069
-354,796	41,320	-0,043	0,027
-353,781	-200,000	0,009	-0,143
-352,766	464,909	0,088	-0,141
-351,752	79,668	0,058	0,045
-350,737	-7,342	0,073	-0,035
-349,723	162,992	-0,037	0,037
-348,708	108,272	0,163	0,139
-347,693	-200,000	0,003	0,083
-346,679	-200,000	-0,007	0,096
-345,664	-200,000	-0,013	0,043
-344,650	-160,755	0,149	-0,006
-343,635	35,981	-0,056	0,035
-342,620	-148,466	-0,082	0,005
-341,606	800,000	0,011	-0,033
-340,591	45,440	0,076	0,050
-339,577	-50,548	-0,087	0,029
-338,562	201,803	0,015	0,017
-337,548	476,978	0,040	0,065
-336,533	174,750	0,070	0,072
-335,518	541,763	0,018	0,031
-334,504	-200,000	0,002	0,142
-333,489	81,000	-0,066	0,051
-332,475	800,000	-0,014	-0,038
-331,460	-6,165	-0,046	-0,022
-330,445	800,000	-0,011	-0,033
-329,431	-147,738	0,093	0,005
-328,416	385,142	0,038	0,055
-327,402	-123,977	-0,098	-0,011
-326,387	-200,000	0,008	0,032
-325,372	-200,000	-0,002	-0,088
-324,358	590,561	-0,078	-0,139
-323,343	135,656	0,058	0,054
-322,329	-200,000	-0,049	-0,172
-321,314	-69,545	-0,123	0,033
-320,299	800,000	0,050	0,148
-319,285	115,789	0,050	-0,043
-318,270	-200,000	-0,003	-0,070
-317,256	800,000	0,033	0,095
-316,241	-200,000	-0,001	-0,018
-315,226	800,000	0,042	-0,132
-314,212	15,949	-0,025	0,014
-313,197	204,427	0,044	-0,048
-312,183	-31,025	0,123	0,049
-311,168	191,272	0,019	-0,020
-310,153	-28,863	-0,073	0,030
-309,139	-135,318	-0,024	0,002
-308,124	159,425	0,027	-0,027
-307,110	333,201	0,034	0,048
-306,095	614,598	-0,005	-0,008
-305,080	-31,897	0,152	-0,060
-304,066	-10,139	-0,123	-0,058
-303,051	-24,627	-0,046	0,019
-302,037	12,457	0,065	-0,036
-301,022	800,000	0,020	0,045
-300,008	4,580	0,049	-0,026
-298,993	800,000	0,042	0,102
-297,978	-200,000	0,000	-0,018
-296,964	800,000	0,036	0,072
-295,949	740,482	-0,041	-0,079
-294,935	-200,000	0,005	0,065
-293,920	280,095	-0,080	-0,102
-292,905	-200,000	0,158	0,001
-291,891	-16,013	-0,038	0,017
-290,876	800,000	0,026	-0,075
-289,862	87,813	-0,036	-0,028
-288,847	-114,359	-0,062	-0,008
-287,832	800,000	-0,073	0,164
-286,818	113,410	-0,071	-0,061
-285,803	38,601	0,063	0,040
-284,789	202,644	0,072	0,080
-283,774	260,240	0,045	-0,056
-282,759	-200,000	0,031	-0,143
-281,745	-117,846	-0,222	-0,028
-280,730	29,877	-0,075	-0,045
-279,716	47,692	-0,043	-0,029
-278,701	-200,000	0,072	0,229
-277,686	800,000	0,085	0,215
-276,672	-200,000	-0,016	0,220
-275,657	-200,000	0,023	0,154
-274,643	124,712	-0,123	-0,110
-273,628	402,784	0,039	-0,059
-272,613	-90,403	-0,058	-0,012
-271,599	80,470	0,038	0,029
-270,584	9,650	0,078	0,042
-269,570	-200,000	0,017	0,090
-268,555	554,788	0,021	0,036
-267,540	800,000	0,028	0,063
-266,526	-200,000	-0,018	-0,141
-265,511	433,198	0,022	0,035
-264,497	70,205	-0,078	0,057
-263,482	-200,000	-0,016	0,143
-262,467	-200,000	0,030	0,100
-261,453	466,014	-0,097	0,155
-260,438	-200,000	-0,008	-0,037
-259,424	183,685	-0,037	0,039
-258,409	-200,000	0,009	-0,091
-257,395	-200,000	0,023	-0,159
-256,380	-45,670	0,051	-0,018
-255,365	-133,376	-0,083	0,007
-254,351	800,000	-0,039	0,097
-253,336	-95,703	-0,105	0,020
-252,322	170,085	-0,069	-0,071
-251,307	-43,699	-0,029	-0,010
-250,292	-200,000	-0,029	-0,124
-249,278	377,535	0,031	0,045
-248,263	-200,000	0,009	0,101
-247,249	-1,476	0,103	-0,051
-246,234	781,117	0,055	-0,108
-245,219	608,915	-0,077	-0,137
-244,205	-52,476	0,037	0,012
-243,190	712,552	0,076	-0,145
-242,176	86,028	-0,009	0,007
-241,161	-200,000	0,008	0,089
-240,146	800,000	0,041	0,096
-239,132	-133,484	0,130	0,011
-238,117	-200,000	-0,022	0,098
-237,103	-200,000	0,011	-0,063
-236,088	800,000	-0,013	0,029
-235,073	60,026	-0,097	0,068
-234,059	-56,207	0,107	0,033
-233,044	-116,870	0,118	-0,015
-232,030	-200,000	-0,003	-0,052
-231,015	-68,158	-0,104	-0,028
-230,000	-182,212	0,102	-0,001
-228,986	-40,772	-0,216	-0,079
-227,971	800,000	0,019	0,058
-226,957	-140,458	0,124	0,009
-225,942	-200,000	0,014	0,144
-224,927	-54,225	0,066	-0,021
-223,913	-200,000	0,002	0,040
-222,898	261,614	0,064	0,079
-221,884	-146,567	0,032	-0,002
-220,869	115,667	0,064	0,055
-219,855	-200,000	0,026	0,084
-218,840	-200,000	-0,006	0,103
-217,825	47,155	-0,119	-0,078
-216,811	376,064	-0,044	-0,064
-215,796	-157,239	-0,098	-0,004
-214,782	-200,000	0,015	-0,158
-213,767	11,789	0,107	-0,058
-212,752	83,074	0,028	0,022
-211,738	-200,000	0,014	0,066
-210,723	-158,253	-0,066	0,003
-209,709	-72,614	0,012	-0,003
-208,694	-200,000	0,002	0,068
-207,679	380,029	0,018	-0,026
-206,665	-133,412	0,067	-0,006
-205,650	-200,000	-0,008	0,045
-204,636	-95,344	0,176	-0,033
-203,621	-22,817	-0,097	-0,041
-202,606	36,051	-0,052	0,032
-201,592	800,000	-0,022	-0,049
-200,577	251,122	-0,087	-0,105
-199,563	43,564	-0,131	0,085
-198,548	-50,412	0,039	0,013
-197,533	23,627	0,066	0,039
-196,519	800,000	0,044	-0,113
-195,504	-29,752	0,082	0,033
-194,490	200,908	0,006	-0,006
-193,475	-200,000	-0,005	-0,064
-192,460	237,848	-0,046	-0,054
-191,446	544,038	-0,051	-0,086
-190,431	-105,035	0,165	0,027
-189,417	48,847	0,047	0,031
-188,402	800,000	-0,030	-0,070
-187,387	-200,000	0,038	-0,199
-186,373	-200,000	0,017	-0,206
-185,358	311,381	-0,031	-0,041
-184,344	-188,161	0,057	0,001
-183,329	-200,000	-0,033	-0,128
-182,315	83,898	0,055	-0,042
-181,300	-200,000	-0,034	0,118
-180,285	-26,554	0,079	-0,033
-179,271	143,254	-0,065	-0,061
-178,256	343,851	0,113	-0,157
-177,242	254,775	0,105	0,128
-176,227	-119,346	0,167	-0,020
-175,212	-200,000	-0,019	-0,080
-174,198	-147,947	-0,094	0,005
-173,183	-200,000	-0,025	-0,218
-172,169	100,684	-0,102	-0,084
-171,154	753,062	0,012	0,024
-170,139	54,021	0,083	0,056
-169,125	316,642	0,097	0,130
-168,110	134,194	-0,068	0,062
-167,096	311,957	0,031	-0,042
-166,081	-200,000	-0,034	-0,136
-165,066	74,827	0,075	0,056
-164,052	126,178	-0,055	-0,050
-163,037	-88,625	0,030	-0,006
-162,023	-14,875	0,033	0,015
-161,008	-57,140	-0,059	0,018
-159,993	800,000	0,019	0,044
-158,979	139,325	-0,113	0,106
-157,964	-76,889	-0,102	0,025
-156,950	426,307	-0,046	-0,070
-155,935	-200,000	0,018	0,058
-154,920	-74,343	0,045	-0,011
-153,906	-200,000	0,036	0,141
-152,891	800,000	0,034	0,089
-151,877	-200,000	0,005	-0,055
-150,862	-200,000	-0,026	-0,081
-149,847	257,772	-0,052	0,063
-148,833	342,119	0,052	-0,072
-147,818	66,643	0,051	-0,037
-146,804	0,771	0,124	-0,063
-145,789	-95,430	-0,069	-0,013
-144,775	-200,000	-0,002	0,068
-143,760	490,830	-0,028	0,045
-142,745	166,049	-0,088	-0,088
-141,731	-200,000	0,006	-0,124
-140,716	-62,198	0,028	-0,008
-139,702	-200,000	0,005	-0,026
-138,687	800,000	0,027	0,079
-137,672	-43,479	-0,091	0,032
-136,658	106,492	-0,074	0,062
-135,643	-147,685	-0,071	-0,004
-134,629	-44,823	0,066	0,023
-133,614	66,173	0,089	-0,064
-132,599	-45,341	0,089	0,031
-131,585	335,068	-0,040	0,055
-130,570	56,504	-0,030	-0,021
-129,556	150,306	0,058	-0,056
-128,541	81,008	-0,066	0,051
-127,526	-12,331	0,162	0,075
-126,512	-200,000	0,009	-0,045
-125,497	800,000	0,043	0,132
-124,483	-115,689	0,088	-0,012
-123,468	-200,000	0,009	-0,039
-122,453	-200,000	0,003	0,017
-121,439	237,481	0,064	-0,075
-120,424	609,451	-0,044	0,078
-119,410	447,790	0,057	0,090
-118,395	525,345	-0,005	0,009
-117,380	11,068	-0,043	-0,023
-116,366	339,418	0,051	0,071
-115,351	1,983	0,106	0,054
-114,337	-200,000	-0,012	-0,050
-113,322	-200,000	0,018	0,121
-112,307	323,742	-0,094	0,127
-111,293	800,000	0,012	0,023
-110,278	-200,000	-0,002	-0,020
-109,264	194,541	-0,061	-0,066
-108,249	-200,000	0,005	-0,209
-107,234	-29,274	0,072	-0,029
-106,220	800,000	0,021	0,053
-105,205	-200,000	0,022	0,092
-104,191	800,000	-0,022	0,053
-103,176	205,713	0,095	0,105
-102,162	-35,269	0,038	-0,015
-101,147	248,145	-0,026	0,031
-100,132	-91,820	0,118	0,024
-99,118	21,044	-0,146	-0,083
-98,103	663,962	0,014	-0,026
-97,089	97,860	-0,036	0,029
-96,074	-200,000	0,012	0,097
-95,059	-67,207	0,092	0,025
-94,045	-200,000	0,002	0,119
-93,030	800,000	0,034	0,102
-92,016	-68,010	-0,112	0,031
-91,001	-180,825	0,111	-0,002
-89,986	-200,000	-0,029	0,119
-88,972	462,364	0,020	-0,032
-87,957	86,135	0,028	0,022
-86,943	-200,000	-0,000	0,042
-85,928	-65,682	-0,140	-0,039
-84,913	-154,313	-0,108	0,005
-83,899	-34,696	0,047	0,018
-82,884	311,906	0,038	0,050
-81,870	-95,454	0,116	-0,022
-80,855	-117,247	-0,058	-0,007
-79,840	-84,191	-0,079	-0,018
-78,826	250,631	0,041	-0,049
-77,811	-200,000	0,035	-0,145
-76,797	-168,694	0,067	-0,002
-75,782	-177,609	-0,025	0,000
-74,767	-200,000	-0,005	0,030
-73,753	39,574	0,062	0,039
-72,738	-200,000	-0,003	0,031
-71,724	138,979	0,103	0,096
-70,709	-97,025	-0,174	-0,032
-69,694	144,843	0,122	-0,115
-68,680	-117,284	0,065	0,008
-67,665	800,000	0,036	-0,073
-66,651	-149,667	0,030	-0,002
-65,636	-15,433	-0,121	0,054
-64,622	-200,000	0,010	0,043
-63,607	111,970	-0,074	0,063
-62,592	-200,000	0,017	-0,111
-61,578	-200,000	-0,010	0,092
-60,563	-200,000	-0,001	-0,010
-59,549	-100,097	0,068	-0,012
-58,534	55,826	-2,131	-1,456
-57,519	535,957	-1,015	-1,706
-56,505	-200,000	-0,430	-4,576
-55,490	525,904	0,968	1,615
-54,476	800,000	5,460	11,771
-53,461	-200,000	22,268	345,721
-52,446	800,000	756,613	2295,525
-51,432	535,635	1643,590	2761,165
-50,417	68,260	1642,808	1185,547
-49,403	15,785	1519,875	840,998
-48,388	9,969	1446,030	772,207
-47,373	19,267	1438,443	812,422
-46,359	13,460	1426,997	778,524
-45,344	8,281	1423,157	751,910
-44,330	8,216	1421,265	750,573
-43,315	8,230	1419,081	749,453
-42,300	8,176	1417,543	748,358
-41,286	8,256	1416,145	747,965
-40,271	8,182	1415,128	747,052
-39,257	8,202	1413,954	746,498
-38,242	8,280	1412,533	746,083
-37,227	8,200	1411,921	745,356
-36,213	8,169	1410,580	744,469
-35,198	8,258	1409,136	744,097
-34,184	8,255	1408,196	743,559
-33,169	8,196	1406,826	742,528
-32,154	8,189	1405,979	742,019
-31,140	8,199	1404,643	741,332
-30,125	8,231	1403,462	740,826
-29,111	8,205	1402,362	740,097
-28,096	8,227	1401,184	739,550
-27,082	8,119	1399,978	738,378
-26,067	8,147	1398,883	737,901
-25,052	8,176	1397,706	737,386
-24,038	8,155	1396,886	736,827
-23,023	8,167	1395,938	736,356
-22,009	8,122	1395,023	735,635
-20,994	8,154	1393,905	735,160
-19,979	8,138	1392,913	734,535
-18,965	8,104	1392,103	733,921
-17,950	8,111	1390,956	733,319
-16,936	8,052	1390,264	732,655
-15,921	8,025	1389,271	731,976
-14,906	8,021	1388,177	731,355
-13,892	8,112	1387,375	731,322
-12,877	8,087	1386,745	730,846
-11,863	8,033	1386,076	730,214
-10,848	8,048	1384,989	729,681
-9,833	8,024	1383,913	728,976
-8,819	7,968	1383,022	728,219
-7,804	7,968	1382,321	727,821
-6,790	7,986	1381,013	727,187
-5,775	7,959	1380,164	726,585
-4,760	7,987	1379,197	726,177
-3,746	7,978	1378,089	725,525
-2,731	8,006	1377,203	725,155
-1,717	7,959	1376,613	724,600
-0,702	7,971	1374,580	723,559
0,313	11,887	1285,334	694,337
1,327	27,520	677,572	400,883
2,342	42,913	116,483	74,714
3,356	-1,297	16,531	8,201
4,371	5,364	3,854	1,997
5,386	-1,384	1,364	0,676
6,400	372,765	0,532	0,765
7,415	87,323	-0,097	-0,075
8,429	-178,949	-0,273	-0,004
9,444	-11,502	-0,318	-0,147
10,459	70,731	-0,198	-0,144
11,473	54,981	-0,325	-0,220
12,488	183,478	-0,196	-0,204
13,502	-16,837	-0,408	-0,181
14,517	52,863	-0,242	-0,163
15,531	127,397	-0,265	-0,237
16,546	217,249	-0,254	-0,285
17,561	100,204	-0,407	-0,332
18,575	183,676	-0,097	-0,101
19,590	-32,255	-0,262	-0,103
20,604	-12,845	-0,228	-0,104
21,619	69,400	-0,370	-0,268
22,634	187,217	-0,403	-0,424
23,648	456,650	-0,243	-0,381
24,663	48,947	-0,475	-0,313
25,677	89,965	-0,336	-0,264
26,692	17,726	-0,312	-0,174
27,707	56,084	-0,351	-0,239
28,721	245,163	-0,306	-0,363
29,736	203,932	-0,386	-0,421
30,750	-6,195	-0,448	-0,214
31,765	134,160	-0,396	-0,361
32,780	87,189	-0,391	-0,304
33,794	97,057	-0,318	-0,257
34,809	76,304	-0,367	-0,273
35,823	102,615	-0,376	-0,309
36,838	201,152	-0,314	-0,340
37,853	72,688	-0,348	-0,255
38,867	58,322	-0,380	-0,261
39,882	-10,398	-0,406	-0,188
40,896	69,544	-0,329	-0,238
41,911	-109,970	-0,224	-0,033
42,926	209,860	-0,178	-0,196
43,940	9,341	-0,413	-0,219
44,955	50,900	-0,335	-0,223
45,969	171,962	-0,272	-0,275
46,984	266,180	-0,392	-0,481
47,999	104,663	-0,221	-0,183
49,013	130,790	-0,318	-0,286
50,028	99,940	-0,360	-0,293
51,042	169,192	-0,244	-0,244
52,057	28,681	-0,360	-0,213
53,071	217,155	-0,236	-0,264
54,086	-33,917	-0,330	-0,127
55,101	-63,645	-0,305	-0,087
56,115	-89,361	-0,307	-0,063
57,130	124,117	-0,239	-0,211
58,144	36,499	-0,324	-0,200
59,159	177,551	-0,213	-0,218
60,174	4,217	-0,312	-0,160
61,188	630,872	-0,213	-0,380
62,203	301,893	-0,247	-0,321
63,217	65,528	-0,370	-0,262
64,232	194,057	-0,236	-0,251
65,247	15,889	-0,319	-0,176
66,261	182,445	-0,393	-0,407
67,276	0,296	-0,470	-0,235
68,290	62,595	-0,331	-0,231
69,305	126,743	-0,238	-0,211
70,320	146,604	-0,197	-0,186
71,334	-58,507	-0,360	-0,109
72,349	40,059	-0,288	-0,181
73,363	253,496	-0,074	-0,089
74,378	74,179	-0,296	-0,217
75,393	-25,874	-0,243	-0,100
76,407	145,118	-0,328	-0,307
77,422	-39,155	-0,275	-0,101
78,436	-19,379	-0,392	-0,169
79,451	61,366	-0,344	-0,239
80,466	-14,045	-0,457	-0,206
81,480	399,322	-0,245	-0,361
82,495	329,039	-0,234	-0,315
83,509	42,684	-0,379	-0,241
84,524	-66,687	-0,095	-0,026
85,539	87,198	-0,305	-0,236
86,553	315,610	-0,109	-0,144
87,568	421,773	-0,147	-0,221
88,582	251,902	-0,328	-0,392
89,597	68,908	-0,227	-0,163
90,611	-54,755	-0,186	-0,058
91,626	-65,204	-0,223	-0,063
92,641	89,002	-0,201	-0,156
93,655	157,144	-0,236	-0,229
94,670	214,852	-0,251	-0,279
95,684	240,534	-0,233	-0,272
96,699	-170,037	-0,320	-0,008
97,714	51,304	-0,316	-0,210
98,728	104,209	-0,216	-0,177
99,743	-69,628	-0,287	-0,076
100,757	50,691	-0,237	-0,157
101,772	247,959	-0,252	-0,298
102,787	-36,818	-0,273	-0,102
103,801	350,570	-0,148	-0,205
104,816	-38,386	-0,366	-0,135
105,830	14,921	-0,239	-0,130
106,845	-174,059	-0,134	0,003
107,860	-12,954	-0,245	-0,111
108,874	187,142	-0,191	-0,199
109,889	381,752	-0,173	-0,249
110,903	195,751	-0,226	-0,240
111,918	316,637	-0,221	-0,292
112,933	313,965	-0,185	-0,244
113,947	-41,034	-0,356	-0,128
114,962	248,898	-0,133	-0,158
115,976	58,642	-0,223	-0,152
116,991	323,500	-0,256	-0,342
118,006	170,077	-0,179	-0,179
119,020	11,142	-0,243	-0,129
120,035	-123,912	-0,236	-0,026
121,049	800,000	0,033	-0,088
122,064	23,325	-0,189	-0,108
123,079	45,626	-0,338	-0,218
124,093	66,854	-0,235	-0,166
125,108	26,373	-0,269	-0,156
126,122	-13,295	-0,328	-0,148
127,137	-25,574	-0,214	-0,088
128,151	-34,157	-0,262	-0,100
129,166	245,753	-0,202	-0,238
130,181	-53,792	-0,181	-0,057
131,195	-43,614	-0,385	-0,135
132,210	267,740	-0,185	-0,226
133,224	206,983	-0,189	-0,206
134,239	82,250	-0,355	-0,268
135,254	66,348	-0,268	-0,189
136,268	-117,581	-0,200	-0,025
137,283	-98,508	-0,274	-0,048
138,297	-152,064	-0,326	-0,016
139,312	207,165	-0,187	-0,204
140,327	205,026	-0,193	-0,208
141,341	182,676	-0,199	-0,204
142,356	429,293	-0,166	-0,250
143,370	131,166	-0,157	-0,140
144,385	398,155	-0,179	-0,262
145,400	-166,369	-0,287	-0,008
146,414	-28,316	-0,349	-0,140
147,429	46,883	-0,194	-0,125
148,443	800,000	-0,109	-0,217
149,458	238,029	-0,173	-0,200
150,473	192,104	-0,149	-0,157
151,487	-18,425	-0,266	-0,115
152,502	33,234	-0,290	-0,175
153,516	106,160	-0,200	-0,164
154,531	-38,464	-0,235	-0,086
155,546	5,263	-0,245	-0,125
156,560	-17,363	-0,220	-0,096
157,575	181,554	-0,225	-0,231
158,589	86,418	-0,265	-0,203
159,604	279,027	-0,231	-0,288
160,619	165,787	-0,180	-0,177
161,633	282,329	-0,264	-0,330
162,648	-32,302	-0,323	-0,125
163,662	-150,077	-0,185	0,010
164,677	132,601	-0,125	-0,112
165,692	86,105	-0,154	-0,118
166,706	96,223	-0,233	-0,185
167,721	129,025	-0,335	-0,297
168,735	396,842	-0,256	-0,372
169,750	391,951	-0,198	-0,286
170,764	800,000	-0,088	-0,172
171,779	141,558	-0,119	-0,109
172,794	116,445	-0,062	-0,053
173,808	2,363	-0,290	-0,145
174,823	68,464	-0,178	-0,126
175,837	0,046	-0,117	-0,058
176,852	76,956	-0,169	-0,124
177,867	618,834	-0,191	-0,335
178,881	202,939	-0,247	-0,265
179,896	-21,287	-0,219	-0,092
180,910	-67,844	-0,250	-0,067
181,925	106,082	-0,175	-0,144
182,940	30,267	-0,228	-0,134
183,954	6,756	-0,213	-0,110
184,969	215,889	-0,111	-0,122
185,983	144,191	-0,142	-0,132
186,998	-167,817	-0,200	0,005
188,013	-76,552	-0,299	-0,072
189,027	359,479	-0,200	-0,278
190,042	11,356	-0,348	-0,184
191,056	54,088	-0,079	-0,053
192,071	-36,863	-0,163	-0,060
193,086	118,551	-0,126	-0,108
194,100	110,081	-0,210	-0,175
195,115	67,523	-0,134	-0,095
196,129	-68,902	-0,199	0,053
197,144	256,996	-0,135	-0,162
198,159	121,553	-0,163	-0,140
199,173	800,000	-0,100	-0,195
200,188	92,301	-0,156	-0,122
201,202	119,678	-0,157	-0,135
202,217	-111,195	-0,180	-0,025
203,232	169,658	-0,178	-0,177
204,246	800,000	-0,092	-0,183
205,261	209,025	-0,201	-0,218
206,275	548,256	-0,118	-0,197
207,290	539,810	-0,167	-0,276
208,304	297,055	-0,136	-0,173
209,319	324,324	-0,111	-0,147
210,334	518,348	-0,119	-0,194
211,348	360,025	-0,203	-0,282
212,363	-42,149	-0,278	-0,098
213,377	80,099	-0,160	-0,119
214,392	584,990	-0,136	-0,232
215,407	189,727	-0,174	-0,181
216,421	39,056	-0,272	-0,168
217,436	208,140	-0,201	-0,217
218,450	125,322	-0,157	-0,137
219,465	217,892	-0,179	-0,198
220,480	12,058	-0,139	-0,074
221,494	84,427	-0,094	-0,071
222,509	122,433	-0,139	-0,120
223,523	-15,026	-0,240	-0,106
224,538	800,000	-0,075	-0,156
225,553	167,976	-0,230	-0,226
226,567	-40,988	-0,198	-0,070
227,582	46,698	-0,251	-0,161
228,596	261,188	-0,112	-0,134
229,611	-200,000	-0,054	-0,170
230,626	3,442	-0,203	-0,102
231,640	90,772	-0,264	-0,204
232,655	56,822	-0,235	-0,158
233,669	56,919	-0,171	-0,115
234,684	800,000	-0,120	-0,260
235,699	91,027	-0,208	-0,161
236,713	19,078	-0,163	-0,090
237,728	-39,842	-0,132	-0,047
238,742	-78,086	-0,209	-0,049
239,757	-59,598	-0,171	-0,050
240,772	347,640	-0,237	-0,324
241,786	17,919	-0,118	0,065
242,801	-200,000	-0,030	-0,208
243,815	-200,000	-0,009	-0,105
244,830	177,411	-0,138	-0,139
245,844	-58,346	-0,250	-0,074
246,859	183,228	-0,255	-0,260
247,874	277,397	-0,075	-0,092
248,888	-59,035	-0,180	-0,053
249,903	-76,196	-0,165	-0,040
250,917	24,377	-0,147	-0,083
251,932	-74,053	-0,115	-0,029
252,947	-16,221	-0,230	-0,100
253,961	-197,300	-0,162	-0,001
254,976	-26,117	-0,139	-0,056
255,990	226,649	-0,137	-0,153
257,005	-200,000	-0,019	-0,140
258,020	-64,694	-0,182	-0,051
259,034	800,000	0,055	-0,147
260,049	-132,568	-0,109	-0,010
261,063	508,171	-0,138	-0,221
262,078	30,561	-0,244	-0,143
263,093	-43,681	-0,149	-0,052
264,107	26,326	-0,187	-0,107
265,122	-6,770	-0,172	-0,080
266,136	149,435	-0,088	-0,082
267,151	61,078	-0,070	0,048
268,166	527,342	-0,123	-0,201
269,180	80,161	-0,137	-0,102
270,195	85,125	-0,217	-0,164
271,209	79,384	-0,192	-0,142
272,224	30,296	-0,095	-0,056
273,239	52,634	-0,192	-0,126
274,253	800,000	-0,056	-0,120
275,268	50,916	-0,145	-0,095
276,282	402,666	-0,137	-0,198
277,297	-91,121	-0,268	-0,053
278,312	-132,498	-0,174	0,015
279,326	-200,000	0,024	0,084
280,341	-97,994	-0,198	-0,035
281,355	68,354	-0,140	-0,099
282,370	522,502	-0,086	-0,139
283,384	183,125	-0,090	-0,091
284,399	7,878	-0,135	-0,069
285,414	80,198	-0,114	-0,084
286,428	-9,009	-0,112	-0,051
287,443	145,062	-0,093	-0,085
288,457	-48,294	-0,245	-0,081
289,472	800,000	-0,052	-0,129
290,487	-16,569	-0,071	-0,031
291,501	19,982	-0,212	-0,117
292,516	800,000	-0,104	-0,240
293,530	149,666	-0,112	-0,104
294,545	-200,000	-0,019	-0,087
295,560	-1,001	-0,240	-0,116
296,574	45,496	-0,179	-0,113
297,589	90,042	-0,184	-0,141
298,603	3,529	-0,310	-0,155
299,618	263,842	0,025	0,030
300,633	159,548	-0,110	-0,105
301,647	56,044	-0,082	-0,054
302,662	27,651	-0,191	-0,110
303,676	-27,675	-0,184	-0,073
304,691	57,785	-0,170	-0,114
305,706	10,274	-0,096	-0,050
306,720	161,809	-0,138	-0,132
307,735	-200,000	-0,025	-0,108
308,749	-192,352	-0,246	-0,002
309,764	-56,819	-0,111	-0,033
310,779	800,000	-0,126	-0,255
311,793	-200,000	-0,069	-0,246
312,808	46,741	-0,273	-0,173
313,822	800,000	-0,058	-0,121
314,837	-10,091	-0,207	-0,094
315,852	800,000	-0,073	-0,161
316,866	28,730	-0,093	-0,054
317,881	40,435	-0,050	-0,031
318,895	-12,363	-0,153	-0,068
319,910	392,854	-0,145	-0,208
320,925	800,000	-0,100	-0,196
321,939	-164,495	-0,264	0,008
322,954	261,327	-0,103	-0,122
323,968	-200,000	-0,029	-0,147
324,983	-102,531	-0,223	0,036
325,997	174,567	-0,123	-0,122
327,012	-92,516	-0,238	-0,045
328,027	81,464	-0,173	-0,128
329,041	800,000	-0,090	-0,189
330,056	156,390	-0,068	-0,064
331,070	-27,796	-0,126	-0,050
332,085	735,959	-0,105	-0,193
333,100	-57,821	-0,212	-0,063
334,114	-112,178	-0,082	0,011
335,129	10,195	-0,206	-0,107
336,143	349,214	-0,026	-0,035
337,158	-26,210	-0,080	-0,032
338,173	-104,371	-0,082	0,013
339,187	-200,000	-0,178	-0,000
340,202	-85,450	-0,248	-0,052
341,216	-52,763	-0,071	-0,022
342,231	-58,359	-0,224	-0,066
343,246	100,530	-0,140	-0,111
344,260	-9,058	-0,182	-0,083
345,275	-66,053	-0,126	-0,034
346,289	-46,741	-0,045	0,015
347,304	242,115	-0,096	-0,110
348,319	-38,468	-0,197	-0,071
349,333	800,000	-0,094	-0,251
350,348	800,000	-0,064	-0,144
351,362	45,479	-0,210	-0,132
352,377	-200,000	-0,080	0,000
353,392	-125,155	-0,158	0,016
354,406	-120,796	-0,195	0,022
355,421	207,047	1311,007	1398,654
356,435	159,254	1471,229	1399,090
