DTS Sentinel unit serial number:	SN410029Multiplexer serial number:	ORYXHardware model number:	OX2-SRSoftware version number:	ORYX F/W v4,00 Oryx Data Collector v3.7.2.0data status	okinstallation	B3 Nyhavnadifferential loss correction	single-endedforward channel	channel 1reverse channel	N/Adate	2023/12/01time	01:47:30forward acquisition time	300,00reverse acquisition time	0,00gamma	499,1914k internal	0,3211k external	0,3211temperature offset calibration	1,0000default loss term (dB/km)	0,3820temperature slope calibration	1,0000multiplexer offset coefficient	1,0000multiplexer slope coefficient	1,0000fibre end	0,00T internal ref (°C)	8,80T ext. ref 1 (°C)	-6,34T ext. ref 2 (°C)	-6,46length (m)	temperature (°C)	Stokes	anti-Stokes-744,400	257,671	-0,165	-0,206
-743,385	-200,000	0,052	0,318
-742,371	11,754	-0,220	-0,122
-741,356	-200,000	0,003	0,312
-740,342	800,000	-0,074	-0,219
-739,327	-200,000	-0,053	0,279
-738,312	800,000	-0,157	-0,317
-737,298	800,000	-0,103	0,273
-736,283	800,000	-0,093	-0,266
-735,269	800,000	-0,077	0,232
-734,254	690,542	-0,110	-0,209
-733,239	637,549	-0,076	0,140
-732,225	-200,000	0,055	-0,243
-731,210	412,577	0,091	0,141
-730,196	277,505	0,078	-0,101
-729,181	-140,404	-0,139	-0,010
-728,167	800,000	-0,015	0,036
-727,152	-8,227	0,047	0,023
-726,137	-200,000	0,007	-0,034
-725,123	-149,742	-0,130	-0,007
-724,108	800,000	0,068	-0,199
-723,094	-121,381	-0,048	-0,006
-722,079	382,368	0,148	-0,221
-721,064	-200,000	0,019	-0,068
-720,050	422,735	0,093	-0,146
-719,035	428,752	-0,043	-0,067
-718,021	-200,000	-0,009	0,030
-717,006	219,293	-0,154	-0,179
-715,991	-35,281	0,081	-0,032
-714,977	103,394	0,051	-0,043
-713,962	800,000	0,030	0,063
-712,948	-125,061	0,147	-0,016
-711,933	293,752	-0,044	-0,059
-710,918	-25,185	-0,060	-0,026
-709,904	800,000	-0,044	0,102
-708,889	-200,000	0,010	-0,253
-707,875	212,461	0,059	-0,068
-706,860	-200,000	0,032	-0,144
-705,845	48,483	0,092	-0,062
-704,831	-200,000	0,003	-0,041
-703,816	593,786	0,083	-0,150
-702,802	-200,000	-0,001	-0,036
-701,787	793,680	-0,042	-0,084
-700,772	112,938	-0,137	-0,121
-699,758	-200,000	-0,003	0,038
-698,743	-200,000	-0,010	0,068
-697,729	-200,000	0,010	0,065
-696,714	-90,836	0,094	0,019
-695,699	-138,639	-0,032	0,002
-694,685	615,895	-0,020	-0,037
-693,670	39,179	-0,094	-0,060
-692,656	224,478	0,045	0,053
-691,641	167,601	0,080	-0,082
-690,627	3,113	0,033	0,017
-689,612	800,000	0,043	0,108
-688,597	-58,426	-0,056	-0,017
-687,583	16,723	-0,124	0,071
-686,568	-200,000	-0,031	0,107
-685,554	241,984	-0,029	-0,035
-684,539	-200,000	-0,004	-0,046
-683,524	800,000	0,050	-0,121
-682,510	-94,719	0,116	-0,023
-681,495	800,000	0,024	0,067
-680,481	-200,000	-0,026	-0,099
-679,466	156,350	-0,140	-0,140
-678,451	-87,030	-0,050	-0,011
-677,437	64,373	0,096	-0,070
-676,422	-60,599	-0,078	0,024
-675,408	545,238	0,046	0,079
-674,393	-200,000	-0,015	-0,088
-673,378	-200,000	0,029	-0,121
-672,364	318,830	0,083	-0,115
-671,349	136,459	-0,091	-0,086
-670,335	23,167	0,122	-0,072
-669,320	-12,877	0,073	-0,034
-668,305	92,409	-0,023	-0,019
-667,291	1,969	-0,193	-0,100
-666,276	-200,000	0,012	-0,165
-665,262	-55,527	-0,097	0,031
-664,247	800,000	-0,043	0,105
-663,232	800,000	-0,025	-0,072
-662,218	116,286	-0,062	0,055
-661,203	800,000	0,024	0,064
-660,189	91,257	-0,135	0,109
-659,174	68,427	-0,126	-0,093
-658,159	-98,897	-0,068	0,012
-657,145	396,371	-0,111	-0,168
-656,130	-75,569	-0,078	0,020
-655,116	-56,040	0,085	-0,027
-654,101	95,724	-0,105	0,086
-653,086	-124,033	0,108	-0,012
-652,072	-200,000	-0,029	-0,183
-651,057	-200,000	-0,030	-0,128
-650,043	34,846	-0,092	0,058
-649,028	-105,735	0,143	-0,023
-648,014	-200,000	-0,001	0,035
-646,999	61,884	-0,054	-0,039
-645,984	-21,217	-0,072	-0,032
-644,970	-200,000	0,010	0,064
-643,955	310,505	-0,106	-0,143
-642,941	160,301	-0,072	-0,073
-641,926	-178,371	-0,095	0,002
-640,911	-200,000	0,000	0,134
-639,897	551,917	0,032	-0,055
-638,882	-51,895	-0,203	0,068
-637,868	-84,889	0,022	0,005
-636,853	-26,111	-0,042	-0,018
-635,838	-29,525	-0,146	-0,060
-634,824	-200,000	-0,025	-0,102
-633,809	546,670	0,039	0,068
-632,795	800,000	-0,030	0,062
-631,780	130,158	-0,062	-0,057
-630,765	-71,919	-0,136	0,036
-629,751	-121,808	-0,043	0,005
-628,736	-188,727	-0,088	0,001
-627,722	311,064	-0,017	-0,022
-626,707	730,377	0,027	-0,052
-625,692	-109,156	-0,094	0,014
-624,678	-200,000	0,023	0,111
-623,663	431,562	-0,019	-0,029
-622,649	-143,664	-0,130	-0,009
-621,634	-89,371	-0,099	0,021
-620,619	74,072	0,062	-0,047
-619,605	101,679	-0,042	0,035
-618,590	155,099	0,035	-0,035
-617,576	135,525	-0,058	0,054
-616,561	800,000	-0,028	-0,069
-615,546	633,276	-0,033	-0,061
-614,532	-200,000	-0,007	-0,144
-613,517	63,459	0,028	0,020
-612,503	800,000	0,078	-0,158
-611,488	-62,152	0,147	0,044
-610,474	-164,660	0,047	-0,002
-609,459	121,507	-0,083	0,075
-608,444	29,547	-0,098	-0,060
-607,430	645,433	0,027	-0,050
-606,415	490,531	0,049	0,081
-605,401	272,107	-0,029	-0,036
-604,386	-200,000	-0,003	0,101
-603,371	-127,855	0,056	-0,006
-602,357	138,155	-0,053	-0,050
-601,342	243,734	0,076	0,092
-600,328	160,220	0,066	-0,067
-599,313	-200,000	-0,010	-0,189
-598,298	-129,464	-0,114	0,011
-597,284	-134,954	0,103	-0,009
-596,269	800,000	-0,029	0,073
-595,255	54,710	0,051	-0,035
-594,240	-200,000	0,010	0,059
-593,225	44,797	-0,111	-0,074
-592,211	80,033	-0,054	-0,042
-591,196	4,790	0,048	0,025
-590,182	369,024	0,033	0,048
-589,167	-200,000	0,007	-0,082
-588,152	-200,000	-0,033	-0,122
-587,138	161,197	0,090	-0,091
-586,123	-179,434	-0,056	0,001
-585,109	-200,000	0,017	0,074
-584,094	277,027	-0,020	-0,026
-583,079	319,967	0,023	-0,032
-582,065	66,429	-0,039	-0,029
-581,050	-134,188	-0,043	-0,004
-580,036	800,000	0,054	-0,117
-579,021	800,000	0,027	-0,060
-578,006	14,149	-0,085	0,048
-576,992	800,000	0,038	-0,078
-575,977	-200,000	0,015	0,094
-574,963	429,887	0,047	-0,073
-573,948	-16,518	-0,154	0,070
-572,934	-101,279	0,063	0,011
-571,919	-57,060	-0,093	-0,029
-570,904	710,018	-0,084	-0,162
-569,890	-119,959	0,026	-0,003
-568,875	715,255	0,079	0,151
-567,861	534,290	0,010	-0,018
-566,846	71,297	-0,048	0,036
-565,831	-200,000	0,022	0,102
-564,817	-3,081	-0,097	-0,049
-563,802	-200,000	-0,021	-0,092
-562,788	-200,000	0,013	-0,214
-561,773	-31,156	-0,140	-0,056
-560,758	-200,000	0,035	-0,137
-559,744	800,000	0,056	-0,142
-558,729	57,765	0,101	0,071
-557,715	671,328	-0,010	0,018
-556,700	3,654	0,077	-0,040
-555,685	206,607	0,010	-0,012
-554,671	-11,201	0,062	-0,029
-553,656	147,888	-0,069	-0,067
-552,642	-14,225	0,041	0,019
-551,627	287,093	0,039	-0,050
-550,612	-200,000	0,028	0,142
-549,598	325,814	0,046	-0,063
-548,583	130,147	-0,067	0,062
-547,569	800,000	-0,027	-0,083
-546,554	70,398	0,065	-0,048
-545,539	63,249	-0,064	0,046
-544,525	-200,000	-0,009	0,034
-543,510	125,740	0,078	0,071
-542,496	350,226	-0,057	-0,081
-541,481	87,639	-0,086	0,069
-540,466	62,550	-0,018	0,013
-539,452	-200,000	-0,064	-0,213
-538,437	628,653	0,026	0,048
-537,423	275,630	0,094	0,120
-536,408	195,329	-0,084	0,092
-535,393	568,193	-0,111	-0,195
-534,379	176,440	-0,133	-0,139
-533,364	195,499	-0,084	-0,092
-532,350	98,909	0,124	0,103
-531,335	-200,000	-0,022	0,111
-530,321	74,326	0,010	-0,008
-529,306	722,740	0,068	-0,131
-528,291	-200,000	0,015	-0,116
-527,277	800,000	-0,055	0,167
-526,262	-57,635	-0,013	-0,004
-525,248	-146,615	0,084	-0,005
-524,233	-110,573	0,133	0,020
-523,218	-41,904	0,016	-0,006
-522,204	-39,857	0,181	-0,068
-521,189	-121,437	-0,124	-0,015
-520,175	-200,000	0,000	0,067
-519,160	-77,146	-0,103	0,026
-518,145	-200,000	0,017	0,103
-517,131	-200,000	0,020	0,112
-516,116	-41,545	0,025	-0,009
-515,102	800,000	-0,011	-0,024
-514,087	-200,000	-0,045	-0,175
-513,072	-200,000	0,011	-0,072
-512,058	-11,773	-0,093	-0,044
-511,043	800,000	-0,043	-0,113
-510,029	72,133	0,078	0,058
-509,014	-128,747	0,143	0,014
-507,999	122,220	0,052	0,047
-506,985	-50,144	-0,152	0,052
-505,970	-200,000	0,008	0,045
-504,956	-105,887	-0,033	0,005
-503,941	-200,000	-0,027	0,103
-502,926	223,493	0,107	-0,124
-501,912	196,166	0,037	0,041
-500,897	632,564	0,016	-0,029
-499,883	800,000	0,065	-0,190
-498,868	-200,000	-0,026	0,085
-497,853	800,000	-0,006	-0,014
-496,839	-37,820	0,096	-0,036
-495,824	54,787	0,078	0,054
-494,810	-200,000	0,010	-0,062
-493,795	-200,000	-0,009	0,046
-492,781	236,364	-0,046	-0,054
-491,766	121,145	0,013	-0,012
-490,751	-19,641	0,131	-0,058
-489,737	800,000	-0,015	-0,032
-488,722	126,534	0,168	0,152
-487,708	-125,444	0,055	-0,006
-486,693	77,598	0,108	-0,082
-485,678	4,041	-0,114	-0,059
-484,664	-200,000	0,038	-0,130
-483,649	-72,652	-0,060	-0,016
-482,635	-4,407	0,090	0,045
-481,620	-65,259	0,091	0,026
-480,605	-162,920	-0,041	0,001
-479,591	146,187	-0,111	-0,107
-478,576	-67,605	0,051	0,014
-477,562	-40,723	-0,051	-0,019
-476,547	-61,736	-0,062	-0,019
-475,532	249,529	-0,035	-0,042
-474,518	-100,845	0,061	-0,011
-473,503	85,363	0,052	0,041
-472,489	800,000	0,040	0,080
-471,474	-200,000	0,008	-0,101
-470,459	17,313	-0,043	-0,025
-469,445	-24,734	-0,098	0,041
-468,430	674,051	0,026	-0,049
-467,416	-68,395	0,110	-0,031
-466,401	-114,952	-0,126	-0,017
-465,386	800,000	-0,028	0,065
-464,372	-26,625	0,075	0,031
-463,357	428,532	-0,042	-0,065
-462,343	-155,185	0,075	-0,003
-461,328	48,984	-0,189	0,127
-460,313	661,484	0,030	0,055
-459,299	260,107	0,062	0,077
-458,284	-200,000	0,022	0,092
-457,270	-200,000	0,000	0,064
-456,255	177,689	0,126	0,132
-455,241	181,821	0,077	0,082
-454,226	800,000	-0,021	0,046
-453,211	-132,372	-0,041	-0,004
-452,197	-49,500	0,136	0,046
-451,182	800,000	0,025	0,051
-450,168	800,000	0,027	-0,055
-449,153	-91,836	0,093	0,019
-448,138	-200,000	0,001	0,054
-447,124	61,581	0,106	0,075
-446,109	182,656	0,090	0,096
-445,095	209,254	0,090	-0,101
-444,080	0,037	0,218	0,111
-443,065	-39,395	0,106	-0,039
-442,051	-43,526	-0,088	0,032
-441,036	333,800	0,079	-0,109
-440,022	-29,304	0,130	-0,053
-439,007	-179,451	0,073	0,001
-437,992	800,000	0,065	-0,132
-436,978	800,000	-0,020	0,061
-435,963	92,952	0,075	-0,060
-434,949	210,997	-0,018	-0,020
-433,934	97,235	-0,092	-0,075
-432,919	-200,000	0,010	-0,069
-431,905	297,833	-0,129	-0,170
-430,890	-98,204	0,061	-0,011
-429,876	0,321	-0,086	-0,044
-428,861	800,000	-0,041	0,093
-427,846	800,000	0,042	-0,106
-426,832	-150,552	-0,029	0,002
-425,817	274,489	-0,041	-0,052
-424,803	-200,000	0,012	-0,071
-423,788	-9,144	0,119	0,057
-422,773	43,732	0,059	0,039
-421,759	-50,496	0,139	-0,047
-420,744	624,581	-0,081	0,146
-419,730	59,549	0,100	-0,071
-418,715	-75,399	-0,070	-0,018
-417,701	-127,308	0,047	-0,005
-416,686	-200,000	0,023	0,101
-415,671	800,000	-0,035	0,095
-414,657	200,103	-0,080	0,088
-413,642	-24,799	0,098	-0,042
-412,628	326,568	-0,091	0,125
-411,613	-60,789	-0,030	0,009
-410,598	259,042	0,010	0,012
-409,584	-200,000	-0,027	0,124
-408,569	-200,000	0,015	0,074
-407,555	267,900	-0,026	-0,033
-406,540	38,492	0,077	0,049
-405,525	-200,000	0,022	-0,166
-404,511	225,003	-0,059	-0,069
-403,496	-35,587	-0,130	-0,050
-402,482	570,435	0,034	-0,059
-401,467	800,000	0,045	0,094
-400,452	-200,000	0,023	-0,109
-399,438	9,610	-0,077	-0,041
-398,423	-200,000	-0,012	0,074
-397,409	-12,030	-0,040	-0,019
-396,394	-184,001	-0,227	-0,003
-395,379	41,795	0,103	-0,066
-394,365	-200,000	-0,002	0,018
-393,350	82,966	0,064	0,049
-392,336	109,827	-0,069	-0,059
-391,321	146,649	-0,072	-0,069
-390,306	606,542	0,032	0,057
-389,292	420,322	-0,099	-0,153
-388,277	252,579	0,033	0,040
-387,263	800,000	0,058	0,168
-386,248	109,514	-0,038	0,033
-385,233	-200,000	-0,019	0,237
-384,219	123,625	-0,068	0,061
-383,204	-22,437	-0,063	-0,027
-382,190	-200,000	-0,022	-0,091
-381,175	95,069	0,057	0,047
-380,160	-200,000	0,028	-0,114
-379,146	176,920	0,034	-0,035
-378,131	340,539	0,045	-0,062
-377,117	22,173	0,013	0,008
-376,102	250,384	-0,156	-0,189
-375,088	148,184	0,035	-0,034
-374,073	-200,000	0,016	-0,055
-373,058	41,524	0,133	-0,086
-372,044	800,000	0,022	-0,050
-371,029	-6,666	0,036	-0,018
-370,015	-63,585	-0,048	0,014
-369,000	-104,735	-0,129	-0,021
-367,985	181,531	-0,096	-0,101
-366,971	-200,000	-0,013	-0,066
-365,956	-200,000	0,015	0,078
-364,942	-200,000	-0,001	0,134
-363,927	-200,000	0,016	0,103
-362,912	-200,000	-0,012	-0,040
-361,898	-200,000	0,003	-0,121
-360,883	40,708	0,061	-0,039
-359,869	288,297	-0,105	-0,136
-358,854	-200,000	-0,011	0,094
-357,839	-77,855	0,119	-0,029
-356,825	-98,043	0,110	0,020
-355,810	540,382	-0,019	-0,032
-354,796	800,000	-0,015	0,039
-353,781	-187,018	0,142	-0,001
-352,766	-110,643	0,132	-0,019
-351,752	-164,036	-0,108	0,003
-350,737	800,000	-0,029	-0,086
-349,723	-57,456	-0,049	0,015
-348,708	702,942	0,011	0,021
-347,693	-200,000	0,018	-0,077
-346,679	511,245	-0,046	-0,076
-345,664	800,000	-0,042	0,129
-344,650	-200,000	0,014	0,060
-343,635	-200,000	0,017	0,077
-342,620	-200,000	-0,019	0,225
-341,606	800,000	-0,054	0,111
-340,591	-200,000	0,005	0,024
-339,577	114,231	-0,085	-0,074
-338,562	-88,984	-0,057	-0,012
-337,548	-93,177	0,130	0,026
-336,533	-200,000	0,008	0,038
-335,518	192,437	-0,029	0,032
-334,504	229,433	0,004	0,004
-333,489	-200,000	0,011	0,138
-332,475	399,511	-0,022	-0,033
-331,460	-200,000	0,025	0,094
-330,445	800,000	-0,025	-0,066
-329,431	111,172	0,021	-0,018
-328,416	-200,000	0,002	-0,058
-327,402	73,809	-0,018	-0,013
-326,387	-200,000	0,012	-0,068
-325,372	693,536	-0,029	0,055
-324,358	252,386	-0,084	-0,102
-323,343	637,868	0,053	-0,096
-322,329	800,000	0,070	0,169
-321,314	-48,870	0,094	0,032
-320,299	800,000	0,028	-0,057
-319,285	342,548	0,047	0,065
-318,270	-73,487	-0,101	-0,026
-317,256	-134,153	-0,122	0,011
-316,241	83,822	-0,072	0,056
-315,226	3,836	0,043	-0,022
-314,212	-108,750	0,096	-0,015
-313,197	-200,000	0,047	0,153
-312,183	331,331	-0,031	-0,042
-311,168	-183,934	-0,114	0,001
-310,153	33,571	-0,038	0,024
-309,139	-200,000	-0,006	-0,037
-308,124	2,828	0,082	0,042
-307,110	252,702	0,044	-0,054
-306,095	144,380	0,019	0,018
-305,080	-200,000	0,029	0,091
-304,066	800,000	0,061	0,161
-303,051	272,628	-0,082	0,103
-302,037	800,000	0,050	0,118
-301,022	-200,000	-0,032	0,154
-300,008	293,780	0,125	0,163
-298,993	87,539	0,188	0,149
-297,978	313,889	-0,044	-0,060
-296,964	-200,000	0,001	-0,085
-295,949	-85,884	-0,103	-0,022
-294,935	539,534	0,075	-0,128
-293,920	2,721	0,031	-0,016
-292,905	179,327	-0,091	-0,095
-291,891	551,474	0,041	0,071
-290,876	-200,000	-0,018	0,070
-289,862	-121,226	-0,082	0,010
-288,847	800,000	0,028	-0,075
-287,832	-120,279	-0,034	0,004
-286,818	331,414	-0,041	0,057
-285,803	-79,557	-0,106	-0,025
-284,789	-126,895	0,064	0,007
-283,774	-18,978	0,069	-0,030
-282,759	369,817	-0,044	-0,064
-281,745	355,897	0,022	0,031
-280,730	-110,466	0,034	-0,005
-279,716	489,566	0,047	0,077
-278,701	-200,000	0,010	0,108
-277,686	-40,363	-0,057	0,021
-276,672	-96,468	-0,052	0,010
-275,657	-111,569	0,122	0,017
-274,643	62,019	-0,097	0,069
-273,628	-88,240	-0,171	0,036
-272,613	800,000	0,048	0,119
-271,599	2,162	-0,117	0,060
-270,584	-73,502	0,098	-0,025
-269,570	-55,550	-0,063	0,020
-268,555	800,000	-0,058	0,132
-267,540	-167,550	-0,054	-0,002
-266,526	-35,930	0,040	-0,016
-265,511	800,000	-0,029	-0,060
-264,497	800,000	-0,029	0,072
-263,482	610,028	0,055	-0,097
-262,467	-200,000	-0,008	0,104
-261,453	800,000	-0,050	0,100
-260,438	-119,638	-0,123	-0,015
-259,424	-200,000	-0,001	0,156
-258,409	22,913	-0,032	-0,019
-257,395	-200,000	0,015	0,054
-256,380	-200,000	-0,021	-0,158
-255,365	620,616	-0,044	0,079
-254,351	153,623	0,053	-0,052
-253,336	800,000	0,064	0,132
-252,322	-86,651	-0,104	0,022
-251,307	-136,371	-0,061	0,005
-250,292	94,217	-0,040	-0,032
-249,278	111,033	0,032	-0,027
-248,263	-122,528	0,042	0,005
-247,249	149,843	-0,042	-0,040
-246,234	322,419	-0,072	0,098
-245,219	-123,447	-0,024	0,003
-244,205	-157,092	-0,110	0,005
-243,190	-131,775	-0,090	-0,008
-242,176	310,351	0,012	-0,015
-241,161	-102,094	0,140	-0,024
-240,146	140,775	0,045	-0,043
-239,132	542,084	0,057	-0,096
-238,117	-10,660	-0,043	-0,020
-237,103	403,433	0,014	0,021
-236,088	-200,000	-0,014	-0,109
-235,073	-52,815	0,155	0,050
-234,059	-200,000	-0,013	0,048
-233,044	180,780	0,125	0,130
-232,030	373,514	-0,060	0,087
-231,015	800,000	0,068	-0,159
-230,000	-96,931	-0,091	0,017
-228,986	213,753	0,019	0,021
-227,971	-106,842	0,125	0,019
-226,957	-200,000	0,011	0,086
-225,942	-5,297	-0,032	-0,015
-224,927	-200,000	0,011	-0,046
-223,913	-200,000	-0,005	-0,158
-222,898	-171,198	0,106	-0,002
-221,884	168,934	0,021	-0,021
-220,869	-200,000	0,024	0,108
-219,855	-51,809	0,061	0,020
-218,840	800,000	0,040	0,080
-217,825	-29,267	0,084	-0,034
-216,811	94,259	-0,070	-0,057
-215,796	-200,000	-0,004	-0,110
-214,782	178,529	-0,119	-0,124
-213,767	-148,663	0,117	0,007
-212,752	465,941	-0,023	-0,037
-211,738	-157,472	0,073	0,003
-210,723	-166,317	-0,129	-0,004
-209,709	-26,580	-0,092	0,038
-208,694	-200,000	0,016	-0,185
-207,679	170,446	0,067	-0,068
-206,665	161,311	-0,094	0,093
-205,650	-200,000	-0,011	0,068
-204,636	-104,004	0,230	0,038
-203,621	800,000	0,024	-0,074
-202,606	-200,000	0,002	-0,063
-201,592	21,474	-0,046	-0,026
-200,577	181,683	0,035	-0,036
-199,563	324,720	0,105	0,143
-198,548	800,000	-0,028	0,071
-197,533	-200,000	-0,001	0,086
-196,519	-99,398	-0,174	-0,031
-195,504	55,668	0,109	-0,075
-194,490	264,037	-0,026	-0,032
-193,475	-146,395	-0,044	-0,003
-192,460	-148,271	0,062	-0,004
-191,446	-65,793	-0,030	-0,008
-190,431	40,628	0,070	0,045
-189,417	60,081	-0,045	0,031
-188,402	-200,000	-0,006	-0,095
-187,387	247,437	0,107	-0,128
-186,373	-95,145	0,028	-0,005
-185,358	-200,000	0,032	0,102
-184,344	14,632	-0,083	0,046
-183,329	175,128	0,093	0,096
-182,315	-200,000	0,029	0,106
-181,300	226,879	-0,069	-0,080
-180,285	21,544	-0,122	-0,070
-179,271	-117,307	-0,122	0,015
-178,256	337,547	0,028	0,039
-177,242	37,410	0,091	-0,057
-176,227	-30,122	0,113	-0,045
-175,212	189,706	-0,018	-0,019
-174,198	158,527	-0,055	0,054
-173,183	185,449	-0,063	0,066
-172,169	74,200	0,073	0,054
-171,154	-200,000	-0,010	0,114
-170,139	122,532	-0,132	0,117
-169,125	156,446	0,060	0,058
-168,110	703,548	-0,026	-0,049
-167,096	-200,000	0,016	0,130
-166,081	119,611	-0,047	0,041
-165,066	-120,544	0,060	0,007
-164,052	-200,000	-0,002	-0,096
-163,037	-98,513	-0,053	-0,009
-162,023	-34,682	0,058	0,022
-161,008	-130,312	-0,127	-0,012
-159,993	576,734	-0,065	0,113
-158,979	-10,176	-0,104	0,049
-157,964	-183,281	-0,151	-0,002
-156,950	49,398	-0,045	-0,030
-155,935	-16,661	0,068	0,030
-154,920	297,756	0,037	-0,049
-153,906	-200,000	0,013	0,061
-152,891	-83,668	0,204	-0,046
-151,877	-200,000	0,000	0,025
-150,862	421,485	-0,068	-0,104
-149,847	-95,853	-0,037	-0,007
-148,833	-200,000	0,003	0,142
-147,818	800,000	-0,012	-0,033
-146,804	224,292	-0,137	0,157
-145,789	-200,000	0,004	-0,019
-144,775	-200,000	0,000	-0,042
-143,760	-199,134	-0,058	-0,000
-142,745	228,040	-0,101	0,116
-141,731	-200,000	0,057	-0,000
-140,716	2,640	0,071	-0,036
-139,702	-126,762	0,011	-0,001
-138,687	-136,231	0,191	0,016
-137,672	-200,000	0,029	0,148
-136,658	-17,220	-0,023	0,010
-135,643	330,642	0,061	-0,083
-134,629	800,000	-0,042	-0,125
-133,614	-200,000	0,003	-0,037
-132,599	800,000	0,037	0,096
-131,585	-90,631	0,129	0,026
-130,570	43,965	-0,081	-0,053
-129,556	-66,687	0,067	0,019
-128,541	-36,930	-0,147	-0,055
-127,526	216,401	-0,049	-0,055
-126,512	-200,000	-0,001	0,054
-125,497	35,377	-0,023	0,014
-124,483	-200,000	-0,015	-0,066
-123,468	800,000	0,026	-0,073
-122,453	-79,556	-0,076	0,018
-121,439	-200,000	-0,010	-0,051
-120,424	800,000	0,023	-0,065
-119,410	7,242	-0,013	-0,007
-118,395	233,369	-0,053	0,062
-117,380	800,000	-0,020	0,049
-116,366	800,000	-0,012	-0,033
-115,351	800,000	-0,031	-0,091
-114,337	2,814	-0,093	-0,048
-113,322	-179,569	-0,043	0,001
-112,307	571,440	-0,012	-0,021
-111,293	-200,000	0,018	-0,088
-110,278	198,570	0,136	0,147
-109,264	294,006	0,053	0,068
-108,249	-86,892	-0,060	0,013
-107,234	-150,395	-0,091	-0,005
-106,220	577,326	0,036	0,062
-105,205	-128,450	0,075	0,007
-104,191	-156,439	0,134	-0,006
-103,176	-200,000	-0,007	0,105
-102,162	-200,000	0,040	0,139
-101,147	53,847	0,045	0,031
-100,132	-200,000	-0,016	-0,066
-99,118	800,000	-0,030	-0,077
-98,103	-200,000	-0,024	-0,088
-97,089	151,716	-0,059	0,057
-96,074	-66,307	0,074	-0,021
-95,059	-4,852	0,023	0,011
-94,045	71,121	-0,012	-0,009
-93,030	1,225	-0,094	-0,047
-92,016	287,573	-0,109	-0,139
-91,001	-200,000	-0,021	-0,074
-89,986	-156,100	0,040	0,002
-88,972	42,839	0,045	0,029
-87,957	800,000	-0,026	0,072
-86,943	-200,000	0,045	0,181
-85,928	14,783	-0,101	-0,055
-84,913	-15,385	0,036	0,016
-83,899	800,000	-0,010	0,029
-82,884	-200,000	-0,004	-0,014
-81,870	800,000	-0,070	-0,145
-80,855	-81,440	0,141	-0,033
-79,840	673,955	0,027	-0,050
-78,826	-76,730	0,107	-0,026
-77,811	292,639	0,083	-0,107
-76,797	691,450	-0,042	0,079
-75,782	-86,558	0,204	0,044
-74,767	-63,295	-0,132	0,038
-73,753	-200,000	0,002	0,007
-72,738	-84,306	-0,107	0,024
-71,724	390,524	-0,068	-0,100
-70,709	-200,000	-0,026	0,137
-69,694	147,999	-0,072	-0,069
-68,680	-26,231	-0,092	-0,038
-67,665	154,293	-0,134	0,130
-66,651	254,613	0,060	0,072
-65,636	-22,138	0,067	-0,029
-64,622	-200,000	-0,121	0,000
-63,607	-200,000	0,023	-0,076
-62,592	-200,000	0,003	-0,040
-61,578	93,761	0,151	-0,121
-60,563	-83,460	0,195	-0,044
-59,549	-200,000	-0,002	0,078
-58,534	52,245	-2,117	-1,423
-57,519	489,401	-1,156	-1,872
-56,505	-200,000	-0,398	-4,659
-55,490	456,155	0,893	1,404
-54,476	800,000	5,423	12,141
-53,461	-200,000	22,003	340,477
-52,446	800,000	759,254	2296,078
-51,432	532,330	1652,889	2770,802
-50,417	69,002	1651,004	1195,691
-49,403	16,463	1526,318	848,303
-48,388	10,656	1450,967	778,449
-47,373	19,189	1443,122	814,997
-46,359	14,110	1431,734	784,490
-45,344	9,001	1427,703	758,017
-44,330	8,898	1425,923	756,554
-43,315	8,888	1423,992	755,453
-42,300	8,887	1422,294	754,515
-41,286	8,914	1421,044	753,949
-40,271	8,899	1419,889	753,236
-39,257	8,887	1418,579	752,453
-38,242	8,895	1417,533	751,906
-37,227	8,943	1416,507	751,558
-36,213	8,920	1415,237	750,746
-35,198	8,901	1413,886	749,912
-34,184	8,946	1412,882	749,561
-33,169	8,841	1411,740	748,435
-32,154	8,845	1410,938	747,998
-31,140	8,888	1409,483	747,395
-30,125	8,873	1408,355	746,698
-29,111	8,883	1407,200	746,105
-28,096	8,878	1405,882	745,350
-27,082	8,828	1404,926	744,580
-26,067	8,792	1403,722	743,747
-25,052	8,806	1402,805	743,298
-24,038	8,813	1401,811	742,773
-23,023	8,832	1400,704	742,245
-22,009	8,828	1399,709	741,671
-20,994	8,806	1398,893	741,108
-19,979	8,820	1397,850	740,587
-18,965	8,785	1396,874	739,882
-17,950	8,747	1395,966	739,193
-16,936	8,781	1395,022	738,821
-15,921	8,746	1394,108	738,148
-14,906	8,757	1393,094	737,630
-13,892	8,764	1392,334	737,231
-12,877	8,795	1391,475	736,888
-11,863	8,780	1390,574	736,314
-10,848	8,756	1389,616	735,668
-9,833	8,691	1388,727	734,869
-8,819	8,654	1387,876	734,218
-7,804	8,621	1387,027	733,586
-6,790	8,704	1385,681	733,230
-5,775	8,633	1385,177	732,606
-4,760	8,663	1384,045	732,116
-3,746	8,700	1382,970	731,686
-2,731	8,717	1382,077	731,262
-1,717	8,650	1381,358	730,548
-0,702	8,678	1379,428	729,624
0,313	12,728	1290,789	701,149
1,327	28,893	681,932	406,672
2,342	45,381	117,360	76,232
3,356	0,550	16,549	8,315
4,371	4,518	3,824	1,972
5,386	25,298	1,266	0,740
6,400	483,120	0,368	0,592
7,415	-68,157	-0,274	0,075
8,429	-20,715	-0,220	-0,095
9,444	148,232	-0,303	-0,288
10,459	29,737	-0,203	-0,122
11,473	110,811	-0,211	-0,179
12,488	49,602	-0,277	-0,184
13,502	-37,780	-0,146	-0,054
14,517	219,232	-0,258	-0,291
15,531	413,771	-0,258	-0,388
16,546	98,548	-0,341	-0,277
17,561	108,409	-0,249	-0,209
18,575	64,257	-0,221	-0,156
19,590	69,975	-0,138	-0,100
20,604	139,022	-0,173	-0,160
21,619	3,914	-0,455	-0,233
22,634	95,455	-0,394	-0,316
23,648	23,088	-0,379	-0,219
24,663	36,166	-0,447	-0,277
25,677	314,151	-0,148	-0,196
26,692	-6,277	-0,357	-0,171
27,707	-103,486	-0,334	-0,055
28,721	416,392	-0,266	-0,400
29,736	-9,741	-0,405	-0,189
30,750	-42,581	-0,381	-0,136
31,765	-55,707	-0,385	-0,120
32,780	224,016	-0,203	-0,231
33,794	-25,814	-0,171	-0,071
34,809	120,154	-0,396	-0,346
35,823	112,510	-0,495	-0,421
36,838	119,812	-0,324	-0,282
37,853	386,951	-0,267	-0,389
38,867	209,708	-0,280	-0,309
39,882	-62,912	-0,292	-0,084
40,896	267,484	-0,217	-0,267
41,911	89,818	-0,313	-0,245
42,926	90,492	-0,305	-0,240
43,940	94,479	-0,318	-0,254
44,955	1,889	-0,343	-0,173
45,969	-19,545	-0,320	-0,139
46,984	110,155	-0,330	-0,278
47,999	77,650	-0,335	-0,251
49,013	161,568	-0,236	-0,232
50,028	-11,951	-0,336	-0,154
51,042	125,340	-0,328	-0,290
52,057	114,308	-0,335	-0,287
53,071	33,290	-0,363	-0,220
54,086	160,044	-0,309	-0,303
55,101	-19,541	-0,380	-0,165
56,115	75,130	-0,200	-0,147
57,130	-22,155	-0,448	-0,190
58,144	43,474	-0,364	-0,233
59,159	174,159	-0,309	-0,314
60,174	-65,802	-0,430	-0,120
61,188	104,477	-0,317	-0,262
62,203	-42,516	-0,316	-0,112
63,217	87,365	-0,412	-0,319
64,232	104,934	-0,245	-0,203
65,247	-140,803	-0,364	-0,026
66,261	56,050	-0,280	-0,190
67,276	28,386	-0,454	-0,268
68,290	47,765	-0,313	-0,205
69,305	106,106	-0,293	-0,243
70,320	-70,742	-0,293	-0,077
71,334	22,500	-0,329	-0,188
72,349	22,772	-0,433	-0,248
73,363	13,966	-0,390	-0,212
74,378	-33,068	-0,244	-0,095
75,393	22,487	-0,255	-0,146
76,407	58,763	-0,266	-0,183
77,422	31,228	-0,307	-0,184
78,436	-79,180	-0,249	-0,059
79,451	69,730	-0,402	-0,290
80,466	-39,414	-0,277	-0,101
81,480	-4,421	-0,340	-0,164
82,495	51,697	-0,310	-0,206
83,509	10,591	-0,249	-0,133
84,524	-39,636	-0,176	0,064
85,539	-13,972	-0,267	-0,120
86,553	18,863	-0,301	-0,168
87,568	-85,992	-0,395	-0,085
88,582	-149,323	-0,336	-0,018
89,597	216,333	-0,288	-0,321
90,611	75,531	-0,365	-0,270
91,626	633,121	-0,207	-0,369
92,641	109,996	-0,263	-0,221
93,655	232,243	-0,266	-0,306
94,670	524,202	-0,231	-0,382
95,684	10,495	-0,471	-0,250
96,699	36,244	-0,362	-0,223
97,714	267,378	-0,258	-0,316
98,728	2,321	-0,281	-0,141
99,743	101,555	-0,223	-0,182
100,757	71,545	-0,258	-0,187
101,772	124,503	-0,350	-0,308
102,787	-22,515	-0,352	-0,148
103,801	-12,420	-0,296	-0,135
104,816	64,015	-0,251	-0,176
105,830	264,958	-0,218	-0,266
106,845	-28,554	-0,299	-0,120
107,860	-20,105	-0,318	-0,136
108,874	71,715	-0,195	-0,141
109,889	-95,382	-0,364	-0,068
110,903	-18,214	-0,316	-0,137
111,918	455,151	-0,129	-0,200
112,933	12,970	-0,204	-0,110
113,947	-89,711	-0,311	-0,063
114,962	-70,411	-0,306	-0,080
115,976	-2,943	-0,316	-0,153
116,991	800,000	-0,135	-0,272
118,006	221,851	-0,370	-0,416
119,020	287,258	-0,217	-0,274
120,035	388,232	-0,185	-0,268
121,049	219,541	-0,140	-0,157
122,064	68,896	-0,302	-0,216
123,079	-61,978	-0,302	-0,088
124,093	315,759	-0,210	-0,277
125,108	65,016	-0,267	-0,188
126,122	130,691	-0,251	-0,224
127,137	-58,018	-0,309	-0,093
128,151	116,510	-0,150	-0,129
129,166	162,159	-0,152	-0,149
130,181	97,527	-0,222	-0,177
131,195	318,209	-0,206	-0,272
132,210	276,973	-0,184	-0,229
133,224	64,112	-0,176	-0,123
134,239	200,998	-0,182	-0,196
135,254	119,419	-0,193	-0,167
136,268	213,705	-0,158	-0,175
137,283	103,288	-0,271	-0,222
138,297	239,497	-0,275	-0,320
139,312	205,454	-0,324	-0,351
140,327	166,715	-0,191	-0,189
141,341	311,080	-0,202	-0,265
142,356	420,282	-0,191	-0,285
143,370	800,000	-0,115	-0,274
144,385	234,844	-0,158	-0,181
145,400	149,787	-0,264	-0,249
146,414	103,571	-0,309	-0,253
147,429	172,751	-0,319	-0,320
148,443	233,904	-0,240	-0,276
149,458	-80,630	-0,289	-0,066
150,473	68,424	-0,294	-0,209
151,487	189,928	-0,217	-0,227
152,502	53,410	-0,196	-0,131
153,516	55,948	-0,254	-0,171
154,531	-37,493	-0,235	-0,087
155,546	548,764	-0,110	-0,184
156,560	157,749	-0,142	-0,137
157,575	84,131	-0,134	-0,101
158,589	-169,710	-0,302	-0,007
159,604	-19,941	-0,291	-0,125
160,619	54,892	-0,316	-0,212
161,633	216,864	-0,251	-0,279
162,648	140,871	-0,205	-0,189
163,662	-33,405	-0,219	-0,084
164,677	40,487	-0,210	-0,131
165,692	222,380	-0,229	-0,256
166,706	203,466	-0,238	-0,256
167,721	62,222	-0,289	-0,200
168,735	509,340	-0,146	-0,236
169,750	151,454	-0,214	-0,202
170,764	-43,702	-0,304	-0,106
171,779	323,655	-0,139	-0,185
172,794	18,458	-0,254	-0,141
173,808	-104,894	-0,106	0,017
174,823	-76,685	-0,278	-0,067
175,837	-5,441	-0,197	-0,094
176,852	159,207	-0,172	-0,166
177,867	183,139	-0,119	-0,122
178,881	147,719	-0,251	-0,235
179,896	27,461	-0,167	-0,097
180,910	179,014	-0,251	-0,255
181,925	193,839	-0,210	-0,221
182,940	6,180	-0,273	-0,140
183,954	300,089	-0,193	-0,248
184,969	46,754	-0,145	-0,093
185,983	56,186	-0,254	-0,171
186,998	196,450	-0,242	-0,256
188,013	-75,466	-0,356	-0,087
189,027	190,318	-0,246	-0,256
190,042	161,483	-0,287	-0,279
191,056	123,779	-0,235	-0,205
192,071	116,093	-0,214	-0,182
193,086	521,184	-0,166	-0,270
194,100	-24,171	-0,129	-0,053
195,115	16,440	-0,205	-0,112
196,129	257,017	-0,137	-0,164
197,144	800,000	-0,075	-0,213
198,159	-42,840	-0,200	-0,070
199,173	91,055	-0,154	-0,120
200,188	577,864	-0,091	-0,155
201,202	800,000	-0,118	-0,252
202,217	4,004	-0,214	-0,108
203,232	233,669	-0,140	-0,160
204,246	547,554	-0,173	-0,289
205,261	363,773	-0,141	-0,198
206,275	800,000	-0,137	-0,273
207,290	372,648	-0,180	-0,254
208,304	340,817	-0,062	-0,084
209,319	-61,240	-0,303	-0,088
210,334	-132,062	-0,191	0,017
211,348	29,486	-0,291	-0,171
212,363	-39,861	-0,074	0,027
213,377	293,408	-0,200	-0,254
214,392	-200,000	-0,025	-0,078
215,407	-110,942	-0,189	-0,027
216,421	-65,106	-0,294	0,081
217,436	664,138	-0,134	-0,240
218,450	257,230	-0,226	-0,269
219,465	-108,563	-0,189	-0,028
220,480	26,748	-0,297	-0,172
221,494	-37,699	-0,183	-0,067
222,509	14,101	-0,193	-0,104
223,523	57,481	-0,201	-0,136
224,538	493,791	-0,101	-0,160
225,553	147,606	-0,272	-0,253
226,567	-73,920	-0,278	-0,069
227,582	56,636	-0,246	-0,166
228,596	178,707	-0,225	-0,227
229,611	-21,595	-0,177	-0,074
230,626	-179,612	-0,196	-0,003
231,640	158,192	-0,280	-0,269
232,655	-48,214	-0,112	-0,037
233,669	222,978	-0,199	-0,222
234,684	-6,307	-0,134	-0,063
235,699	121,191	-0,210	-0,180
236,713	315,902	-0,103	-0,135
237,728	-130,572	-0,193	-0,018
238,742	304,769	-0,135	-0,174
239,757	79,462	-0,224	-0,166
240,772	67,662	-0,233	-0,164
241,786	251,783	-0,137	-0,161
242,801	11,779	-0,195	-0,103
243,815	724,868	-0,159	-0,294
244,830	584,182	-0,134	-0,228
245,844	42,942	-0,208	-0,131
246,859	75,590	-0,211	-0,154
247,874	-73,119	-0,184	-0,046
248,888	17,691	-0,219	-0,120
249,903	325,849	-0,164	-0,217
250,917	-79,193	-0,136	0,032
251,932	-129,182	-0,160	-0,015
252,947	-40,418	-0,214	-0,076
253,961	135,260	-0,142	-0,127
254,976	75,833	-0,172	-0,126
255,990	61,997	-0,289	-0,198
257,005	-141,514	-0,267	-0,018
258,020	-115,693	-0,200	-0,026
259,034	464,691	-0,035	0,055
260,049	-71,513	-0,196	-0,050
261,063	94,734	-0,224	-0,175
262,078	549,161	-0,178	-0,295
263,093	110,731	-0,184	-0,153
264,107	-200,000	-0,009	-0,157
265,122	318,183	-0,086	-0,112
266,136	338,087	-0,077	-0,103
267,151	461,984	-0,092	-0,141
268,166	800,000	-0,093	-0,190
269,180	187,068	-0,202	-0,208
270,195	-122,414	-0,201	-0,022
271,209	-18,468	-0,194	-0,083
272,224	-200,000	-0,063	-0,228
273,239	31,122	-0,168	-0,099
274,253	800,000	-0,050	-0,106
275,268	54,091	-0,164	-0,108
276,282	334,974	-0,155	-0,207
277,297	421,600	-0,164	-0,243
278,312	47,734	-0,201	-0,129
279,326	-48,937	-0,153	-0,050
280,341	545,586	-0,087	-0,144
281,355	385,732	-0,117	-0,166
282,370	334,732	-0,127	-0,169
283,384	56,199	-0,167	-0,111
284,399	84,211	-0,164	-0,123
285,414	-29,730	-0,267	-0,104
286,428	-176,636	-0,088	-0,002
287,443	142,913	-0,117	-0,107
288,457	99,573	-0,130	-0,104
289,472	79,083	-0,121	-0,089
290,487	-26,401	-0,219	-0,088
291,501	163,097	-0,218	-0,211
292,516	204,329	-0,161	-0,172
293,530	119,917	-0,112	-0,096
294,545	-1,260	-0,130	-0,063
295,560	-130,256	-0,141	-0,013
296,574	161,831	-0,272	-0,262
297,589	357,157	-0,144	-0,198
298,603	-200,000	-0,004	-0,224
299,618	277,092	-0,096	-0,117
300,633	612,465	-0,145	-0,250
301,647	74,665	-0,201	-0,145
302,662	-36,073	0,049	0,018
303,676	24,671	-0,096	-0,054
304,691	-85,681	-0,308	-0,065
305,706	229,900	-0,162	-0,182
306,720	78,779	-0,179	-0,132
307,735	614,549	-0,028	-0,049
308,749	-200,000	-0,047	-0,196
309,764	-51,111	-0,151	-0,048
310,779	-200,000	-0,057	-0,227
311,793	-147,306	-0,257	-0,015
312,808	56,294	-0,139	-0,093
313,822	-73,507	-0,203	-0,050
314,837	-200,000	-0,050	-0,211
315,852	-200,000	-0,011	-0,094
316,866	506,584	-0,040	-0,064
317,881	119,763	-0,095	-0,081
318,895	489,289	-0,187	-0,294
319,910	163,890	-0,163	-0,158
320,925	94,613	-0,146	-0,114
321,939	-141,276	-0,125	-0,009
322,954	-200,000	-0,035	-0,176
323,968	188,289	-0,065	-0,067
324,983	-131,585	-0,152	0,014
325,997	148,308	-0,227	-0,210
327,012	57,273	-0,285	-0,190
328,027	-105,307	-0,201	-0,031
329,041	27,077	-0,203	-0,117
330,056	471,812	-0,140	-0,216
331,070	-44,019	-0,209	-0,072
332,085	174,945	-0,062	0,061
333,100	174,455	-0,095	-0,094
334,114	169,144	-0,168	-0,164
335,129	118,055	-0,110	-0,093
336,143	-48,889	-0,189	-0,062
337,158	395,977	-0,061	-0,088
338,173	17,910	0,050	0,027
339,187	173,551	-0,111	-0,109
340,202	82,794	-0,088	-0,065
341,216	800,000	-0,066	-0,164
342,231	-200,000	-0,030	-0,187
343,246	-20,581	-0,179	-0,075
344,260	-68,964	-0,187	0,049
345,275	-200,000	-0,017	-0,068
346,289	-136,789	-0,141	0,011
347,304	-27,984	-0,094	-0,037
348,319	72,527	-0,079	-0,056
349,333	677,719	-0,085	-0,151
350,348	101,977	-0,114	0,091
351,362	155,849	-0,118	-0,111
352,377	-90,343	-0,244	-0,048
353,392	322,148	0,022	0,029
354,406	-133,835	-0,143	0,012
355,421	207,874	1309,932	1400,535
356,435	159,931	1470,033	1401,009
