DTS Sentinel unit serial number:	SN410029Multiplexer serial number:	ORYXHardware model number:	OX2-SRSoftware version number:	ORYX F/W v4,00 Oryx Data Collector v3.7.2.0data status	okinstallation	B3 Nyhavnadifferential loss correction	single-endedforward channel	channel 1reverse channel	N/Adate	2023/12/02time	13:02:30forward acquisition time	300,00reverse acquisition time	0,00gamma	499,1914k internal	0,3199k external	0,3199temperature offset calibration	1,0000default loss term (dB/km)	0,3820temperature slope calibration	1,0000multiplexer offset coefficient	1,0000multiplexer slope coefficient	1,0000fibre end	0,00T internal ref (°C)	14,27T ext. ref 1 (°C)	-0,10T ext. ref 2 (°C)	-0,12length (m)	temperature (°C)	Stokes	anti-Stokes-744,400	200,493	-0,244	-0,273
-743,385	800,000	0,119	0,315
-742,371	-200,000	-0,099	-0,327
-741,356	-200,000	-0,021	0,243
-740,342	243,802	-0,302	-0,370
-739,327	-200,000	0,044	0,225
-738,312	158,114	-0,269	-0,271
-737,298	800,000	-0,081	0,234
-736,283	139,539	-0,246	-0,236
-735,269	800,000	0,107	0,302
-734,254	176,962	-0,221	-0,234
-733,239	15,355	-0,164	0,093
-732,225	521,961	-0,116	-0,198
-731,210	322,479	0,042	0,059
-730,196	-76,580	0,073	0,019
-729,181	-200,000	-0,021	0,117
-728,167	800,000	-0,038	0,099
-727,152	344,215	-0,071	0,101
-726,137	-102,119	0,062	-0,011
-725,123	-200,000	-0,029	0,173
-724,108	-96,285	-0,073	-0,014
-723,094	-117,536	-0,169	0,022
-722,079	451,305	-0,083	-0,134
-721,064	800,000	-0,049	-0,138
-720,050	103,336	-0,024	0,020
-719,035	-200,000	0,004	-0,048
-718,021	800,000	-0,010	0,026
-717,006	-127,372	-0,270	-0,028
-715,991	-37,010	-0,040	0,016
-714,977	-200,000	-0,011	-0,044
-713,962	56,634	0,065	-0,046
-712,948	162,545	-0,073	-0,074
-711,933	-39,653	-0,042	-0,016
-710,918	-109,370	-0,074	-0,011
-709,904	800,000	-0,078	-0,188
-708,889	116,837	-0,185	-0,165
-707,875	5,997	0,071	-0,038
-706,860	279,862	0,051	-0,067
-705,845	122,218	0,189	-0,172
-704,831	-24,828	-0,118	-0,051
-703,816	160,625	-0,059	-0,060
-702,802	-200,000	0,053	0,183
-701,787	800,000	-0,054	-0,133
-700,772	-113,679	-0,018	0,002
-699,758	96,253	0,042	-0,035
-698,743	563,333	0,069	0,121
-697,729	139,113	-0,067	0,064
-696,714	-84,635	0,002	-0,000
-695,699	208,564	-0,032	0,036
-694,685	-200,000	0,014	-0,139
-693,670	517,305	-0,039	-0,067
-692,656	284,917	-0,053	-0,070
-691,641	-118,201	0,161	-0,021
-690,627	403,381	-0,083	0,128
-689,612	-200,000	0,004	0,094
-688,597	-200,000	0,015	0,051
-687,583	118,517	0,095	-0,085
-686,568	-66,160	-0,108	0,031
-685,554	26,329	-0,123	0,075
-684,539	-100,420	-0,155	0,028
-683,524	328,410	-0,061	0,086
-682,510	108,826	0,098	0,085
-681,495	-113,923	-0,154	0,022
-680,481	-86,627	0,016	-0,004
-679,466	-104,480	-0,103	-0,017
-678,451	32,954	-0,039	0,024
-677,437	800,000	-0,073	0,203
-676,422	467,967	0,036	0,058
-675,408	-200,000	0,021	-0,122
-674,393	800,000	0,018	-0,047
-673,378	-154,282	0,153	0,007
-672,364	800,000	0,032	-0,095
-671,349	518,493	-0,027	-0,047
-670,335	39,698	-0,116	0,075
-669,320	288,673	0,021	0,028
-668,305	108,319	-0,015	-0,013
-667,291	-200,000	0,008	-0,046
-666,276	405,938	-0,065	-0,100
-665,262	70,167	-0,106	0,080
-664,247	48,633	-0,060	0,041
-663,232	719,636	-0,037	-0,071
-662,218	800,000	0,019	-0,043
-661,203	588,116	0,038	0,068
-660,189	-200,000	-0,021	-0,117
-659,174	-200,000	0,018	0,062
-658,159	-46,885	-0,155	-0,055
-657,145	567,007	-0,030	-0,054
-656,130	-158,397	0,112	0,005
-655,116	634,163	-0,007	-0,013
-654,101	-112,575	0,071	0,010
-653,086	146,366	0,028	-0,027
-652,072	-104,895	-0,142	0,023
-651,057	1,597	0,064	-0,033
-650,043	58,053	-0,177	-0,126
-649,028	248,731	-0,038	-0,046
-648,014	800,000	-0,113	-0,254
-646,999	8,287	0,045	-0,024
-645,984	116,757	-0,079	-0,070
-644,970	96,180	-0,085	0,071
-643,955	-200,000	0,026	-0,131
-642,941	-200,000	-0,038	-0,165
-641,926	-92,281	0,104	-0,021
-640,911	-200,000	0,014	-0,054
-639,897	-200,000	-0,017	0,064
-638,882	446,475	-0,016	-0,026
-637,868	-82,077	-0,061	-0,014
-636,853	-10,233	-0,097	0,046
-635,838	-200,000	0,041	-0,163
-634,824	742,542	-0,044	-0,086
-633,809	-200,000	-0,034	0,156
-632,795	-200,000	0,020	0,129
-631,780	-162,981	0,104	-0,004
-630,765	548,343	0,086	-0,151
-629,751	26,656	-0,130	0,079
-628,736	67,225	-0,096	-0,071
-627,722	-200,000	0,013	-0,056
-626,707	-200,000	0,002	-0,072
-625,692	800,000	-0,048	0,119
-624,678	-6,141	0,120	0,059
-623,663	-30,626	-0,128	-0,052
-622,649	-74,403	-0,160	0,041
-621,634	280,789	-0,085	-0,111
-620,619	338,356	0,059	-0,084
-619,605	-90,997	-0,022	0,005
-618,590	-200,000	-0,024	0,117
-617,576	-142,294	-0,202	0,014
-616,561	30,261	-0,060	-0,037
-615,546	-96,796	0,086	-0,016
-614,532	-85,637	-0,152	-0,034
-613,517	71,690	-0,088	-0,066
-612,503	-200,000	0,005	0,039
-611,488	646,889	-0,003	-0,005
-610,474	-155,842	0,153	0,007
-609,459	-200,000	-0,026	0,142
-608,444	24,560	-0,072	-0,043
-607,430	600,060	-0,076	0,138
-606,415	-14,502	-0,090	0,042
-605,401	-200,000	-0,004	-0,108
-604,386	-168,176	0,079	0,002
-603,371	285,987	-0,037	0,048
-602,357	-76,069	-0,072	0,018
-601,342	470,984	-0,080	-0,131
-600,328	-200,000	0,002	-0,014
-599,313	263,211	-0,074	-0,093
-598,298	-200,000	0,040	-0,142
-597,284	147,011	0,074	0,072
-596,269	800,000	-0,034	0,087
-595,255	-75,795	0,013	-0,003
-594,240	19,296	-0,212	-0,123
-593,225	168,162	-0,031	-0,032
-592,211	223,300	-0,050	-0,059
-591,196	-150,864	-0,073	-0,004
-590,182	218,962	0,069	0,080
-589,167	286,520	0,010	-0,014
-588,152	-200,000	-0,021	0,087
-587,138	126,798	-0,064	-0,058
-586,123	121,593	0,048	0,043
-585,109	-95,651	0,062	-0,012
-584,094	800,000	-0,025	-0,071
-583,079	145,364	0,093	0,090
-582,065	208,970	-0,067	0,076
-581,050	-0,027	0,040	0,020
-580,036	-200,000	0,010	-0,035
-579,021	-200,000	0,005	-0,120
-578,006	-200,000	-0,005	-0,156
-576,992	761,520	0,048	-0,095
-575,977	334,925	0,040	0,056
-574,963	-200,000	0,004	0,082
-573,948	381,529	0,040	0,059
-572,934	-200,000	-0,028	0,120
-571,919	-200,000	0,002	-0,024
-570,904	218,022	-0,093	-0,108
-569,890	7,158	-0,144	0,077
-568,875	532,006	0,042	0,072
-567,861	800,000	-0,009	0,024
-566,846	106,932	0,095	-0,081
-565,831	-200,000	0,006	-0,052
-564,817	-200,000	-0,007	0,027
-563,802	-77,166	-0,090	-0,022
-562,788	206,205	0,020	-0,023
-561,773	-60,676	0,042	-0,013
-560,758	800,000	0,043	-0,096
-559,744	800,000	-0,053	0,168
-558,729	800,000	0,041	0,127
-557,715	-60,582	-0,112	0,034
-556,700	231,888	-0,058	-0,068
-555,685	216,207	0,109	-0,125
-554,671	-47,745	-0,044	-0,015
-553,656	-143,059	0,088	0,006
-552,642	172,119	0,033	0,034
-551,627	-145,454	0,049	0,003
-550,612	-37,786	0,110	-0,042
-549,598	800,000	-0,026	-0,059
-548,583	-200,000	-0,004	-0,017
-547,569	-134,709	-0,142	-0,012
-546,554	-134,878	0,085	0,007
-545,539	800,000	0,065	-0,142
-544,525	800,000	0,026	0,053
-543,510	-200,000	-0,016	-0,128
-542,496	716,023	-0,038	-0,073
-541,481	800,000	0,011	-0,031
-540,466	27,824	-0,059	-0,036
-539,452	-65,776	0,103	0,030
-538,437	-58,919	0,053	-0,016
-537,423	113,060	0,067	0,059
-536,408	4,740	0,123	0,065
-535,393	-14,993	-0,073	-0,034
-534,379	-200,000	-0,009	-0,036
-533,364	-200,000	-0,011	0,000
-532,350	800,000	0,052	-0,134
-531,335	800,000	-0,050	0,104
-530,321	-200,000	-0,016	0,129
-529,306	-95,542	-0,051	-0,010
-528,291	-200,000	0,003	0,020
-527,277	-102,217	-0,115	0,020
-526,262	512,025	-0,017	-0,029
-525,248	-15,709	0,049	0,023
-524,233	-21,399	0,036	-0,016
-523,218	800,000	0,068	0,154
-522,204	-200,000	-0,027	-0,119
-521,189	-167,881	-0,147	-0,004
-520,175	800,000	-0,035	0,101
-519,160	-38,385	-0,114	0,043
-518,145	800,000	0,045	-0,142
-517,131	-200,000	-0,008	0,052
-516,116	-46,937	-0,128	-0,045
-515,102	137,628	0,112	0,106
-514,087	-124,111	0,090	0,010
-513,072	-68,814	-0,155	0,043
-512,058	10,902	0,110	-0,061
-511,043	-200,000	-0,039	-0,133
-510,029	-64,615	0,134	0,039
-509,014	-200,000	0,021	0,069
-507,999	-200,000	0,029	0,112
-506,985	-200,000	0,011	0,118
-505,970	800,000	-0,023	-0,070
-504,956	-51,336	0,072	0,024
-503,941	-61,309	-0,067	-0,020
-502,926	74,402	-0,027	0,021
-501,912	451,800	0,052	0,083
-500,897	-110,947	-0,016	0,002
-499,883	-21,871	0,124	0,054
-498,868	-69,659	-0,073	-0,020
-497,853	-59,467	0,038	-0,012
-496,839	403,876	0,079	-0,121
-495,824	-200,000	-0,001	0,069
-494,810	402,485	0,049	-0,074
-493,795	-67,479	-0,104	-0,029
-492,781	-57,500	-0,038	0,012
-491,766	-30,109	-0,137	0,056
-490,751	732,024	0,088	0,170
-489,737	120,422	-0,049	0,044
-488,722	-59,812	0,152	-0,047
-487,708	175,697	-0,017	0,018
-486,693	-44,908	0,067	0,024
-485,678	449,685	0,027	0,042
-484,664	-11,360	-0,109	0,051
-483,649	800,000	-0,016	-0,037
-482,635	767,375	0,018	-0,035
-481,620	128,968	0,049	0,045
-480,605	327,017	-0,045	0,062
-479,591	-200,000	0,018	0,116
-478,576	-80,047	0,051	-0,012
-477,562	-89,712	-0,118	0,025
-476,547	-100,689	-0,123	-0,022
-475,532	715,777	0,018	0,035
-474,518	800,000	0,028	-0,071
-473,503	800,000	0,019	0,046
-472,489	-5,156	0,075	-0,037
-471,474	-200,000	-0,010	-0,061
-470,459	181,984	0,071	-0,075
-469,445	800,000	-0,089	-0,186
-468,430	-200,000	-0,006	-0,048
-467,416	89,673	0,066	-0,053
-466,401	332,376	-0,061	0,085
-465,386	-92,842	0,146	-0,029
-464,372	567,218	0,058	0,101
-463,357	-107,585	-0,140	-0,022
-462,343	-200,000	-0,041	-0,253
-461,328	-200,000	0,004	-0,059
-460,313	-114,817	0,096	-0,013
-459,299	-150,250	-0,155	0,009
-458,284	202,896	0,068	0,076
-457,270	648,158	-0,031	0,057
-456,255	280,082	-0,021	0,027
-455,241	-30,593	0,044	-0,018
-454,226	295,098	-0,075	-0,099
-453,211	-15,271	-0,120	0,055
-452,197	47,086	-0,172	0,115
-451,182	-113,961	0,059	0,008
-450,168	-200,000	0,008	0,121
-449,153	62,454	-0,077	0,055
-448,138	360,107	0,030	-0,043
-447,124	-59,097	0,083	0,026
-446,109	800,000	-0,023	0,069
-445,095	72,136	-0,031	0,023
-444,080	145,863	0,093	0,090
-443,065	800,000	0,030	0,094
-442,051	697,764	-0,052	0,100
-441,036	131,520	-0,087	0,081
-440,022	-101,497	0,089	0,015
-439,007	-200,000	-0,100	-0,000
-437,992	650,057	-0,036	0,067
-436,978	203,131	0,075	-0,083
-435,963	-200,000	0,005	0,053
-434,949	-27,609	-0,025	0,010
-433,934	46,780	-0,035	-0,023
-432,919	800,000	0,039	-0,111
-431,905	12,949	-0,047	0,026
-430,890	800,000	0,052	0,122
-429,876	201,781	-0,114	0,126
-428,861	800,000	0,024	0,048
-427,846	-86,997	0,027	0,006
-426,832	108,863	0,057	-0,049
-425,817	-16,488	0,130	0,059
-424,803	185,241	-0,048	0,051
-423,788	-107,289	0,131	0,021
-422,773	-115,369	-0,161	0,022
-421,759	-54,639	0,078	-0,025
-420,744	-45,955	-0,019	-0,007
-419,730	-200,000	0,017	-0,077
-418,715	435,225	-0,017	0,027
-417,701	800,000	-0,019	-0,052
-416,686	26,242	-0,092	-0,055
-415,671	-200,000	0,001	0,114
-414,657	170,554	0,074	-0,076
-413,642	176,838	-0,051	0,053
-412,628	168,206	0,028	0,028
-411,613	252,425	0,033	-0,040
-410,598	-200,000	-0,006	-0,095
-409,584	-17,190	0,046	0,021
-408,569	19,856	-0,153	-0,088
-407,555	220,022	0,106	-0,122
-406,540	800,000	0,027	0,073
-405,525	-200,000	-0,015	0,080
-404,511	196,149	-0,035	0,038
-403,496	-200,000	-0,010	-0,065
-402,482	42,200	0,065	0,043
-401,467	143,311	0,119	0,114
-400,452	8,853	0,040	-0,022
-399,438	151,833	-0,039	0,038
-398,423	567,069	0,041	0,072
-397,409	-58,133	0,058	-0,018
-396,394	-49,398	-0,060	0,020
-395,379	-200,000	0,000	-0,010
-394,365	-109,702	0,129	0,019
-393,350	-132,419	0,129	-0,012
-392,336	101,882	0,054	0,045
-391,321	271,117	0,052	-0,065
-390,306	-131,512	0,023	-0,002
-389,292	800,000	-0,041	-0,085
-388,277	-38,616	0,170	-0,064
-387,263	204,779	0,064	0,071
-386,248	-200,000	-0,035	0,114
-385,233	276,573	0,029	-0,037
-384,219	-96,966	-0,049	-0,009
-383,204	-34,952	-0,048	-0,019
-382,190	800,000	0,043	-0,113
-381,175	-200,000	0,009	-0,136
-380,160	-200,000	-0,035	-0,140
-379,146	-37,287	0,088	0,034
-378,131	800,000	-0,025	-0,061
-377,117	744,581	0,042	0,082
-376,102	509,672	-0,086	-0,143
-375,088	12,464	-0,087	0,048
-374,073	-3,928	-0,078	0,039
-373,058	800,000	-0,022	-0,057
-372,044	-22,312	0,081	-0,035
-371,029	-192,751	-0,031	-0,000
-370,015	-200,000	-0,015	0,089
-369,000	-200,000	-0,011	-0,038
-367,985	-200,000	0,004	-0,026
-366,971	-200,000	0,000	0,086
-365,956	-34,799	0,113	0,044
-364,942	-73,955	0,143	0,037
-363,927	654,477	-0,009	0,017
-362,912	618,667	0,036	0,065
-361,898	20,862	0,028	0,016
-360,883	20,942	0,030	0,018
-359,869	800,000	0,010	-0,028
-358,854	-200,000	0,023	-0,089
-357,839	-37,919	0,121	0,046
-356,825	21,076	0,187	0,109
-355,810	4,053	0,097	0,051
-354,796	-200,000	0,005	-0,094
-353,781	147,124	0,026	-0,025
-352,766	-53,546	-0,136	0,044
-351,752	-200,000	0,014	-0,078
-350,737	-200,000	0,007	0,043
-349,723	800,000	-0,067	0,165
-348,708	35,743	0,030	-0,019
-347,693	257,645	0,073	0,090
-346,679	-154,815	0,026	0,001
-345,664	-200,000	-0,033	0,110
-344,650	-2,071	-0,089	0,045
-343,635	-28,631	0,079	0,033
-342,620	28,203	-0,109	0,066
-341,606	65,424	0,108	0,078
-340,591	800,000	-0,034	-0,079
-339,577	-200,000	-0,029	0,113
-338,562	82,103	0,033	-0,026
-337,548	392,933	0,047	0,071
-336,533	706,003	0,074	0,140
-335,518	-47,161	-0,087	0,030
-334,504	-200,000	0,023	-0,101
-333,489	-200,000	-0,016	-0,074
-332,475	-57,223	-0,061	0,019
-331,460	-200,000	-0,001	0,056
-330,445	800,000	0,026	0,057
-329,431	60,339	0,035	-0,024
-328,416	58,602	0,093	0,065
-327,402	-200,000	0,014	0,087
-326,387	-200,000	0,027	0,112
-325,372	-18,227	-0,075	0,033
-324,358	800,000	0,036	-0,104
-323,343	-200,000	0,005	-0,095
-322,329	186,240	-0,051	-0,054
-321,314	-94,865	0,075	0,014
-320,299	-35,493	-0,091	0,035
-319,285	-200,000	-0,006	-0,107
-318,270	48,312	-0,037	-0,025
-317,256	-39,674	-0,095	-0,035
-316,241	800,000	0,034	-0,069
-315,226	-177,728	0,088	0,001
-314,212	-200,000	-0,002	-0,044
-313,197	351,692	0,072	0,102
-312,183	54,425	-0,087	-0,060
-311,168	429,449	-0,067	0,104
-310,153	800,000	-0,017	0,040
-309,139	-200,000	0,001	-0,043
-308,124	363,330	-0,050	-0,073
-307,110	-181,632	0,102	0,001
-306,095	381,039	0,073	-0,108
-305,080	-137,551	0,082	0,007
-304,066	308,906	-0,057	0,076
-303,051	159,830	-0,102	0,101
-302,037	48,896	0,065	0,044
-301,022	56,798	0,113	0,078
-300,008	-43,713	-0,033	0,012
-298,993	302,701	-0,108	0,143
-297,978	108,370	0,072	0,062
-296,964	98,107	-0,058	0,048
-295,949	-200,000	-0,058	-0,204
-294,935	-52,868	0,135	-0,044
-293,920	89,499	-0,032	0,026
-292,905	-200,000	0,000	0,067
-291,891	563,720	0,059	0,103
-290,876	-200,000	-0,021	0,139
-289,862	-200,000	0,006	0,086
-288,847	-200,000	0,032	-0,106
-287,832	-137,707	0,099	-0,008
-286,818	-94,439	0,051	0,010
-285,803	156,477	0,067	-0,066
-284,789	271,577	-0,094	0,119
-283,774	317,501	-0,070	0,095
-282,759	-116,883	0,094	0,012
-281,745	116,408	-0,070	-0,061
-280,730	-200,000	0,006	-0,029
-279,716	-117,342	0,061	0,008
-278,701	-43,353	0,017	-0,006
-277,686	569,661	0,050	-0,088
-276,672	-200,000	0,001	-0,045
-275,657	-200,000	-0,001	-0,046
-274,643	44,871	-0,047	-0,031
-273,628	-22,325	0,025	-0,011
-272,613	-3,007	-0,015	0,008
-271,599	-200,000	0,002	-0,096
-270,584	91,598	0,040	0,032
-269,570	378,037	0,033	0,048
-268,555	-29,431	-0,096	0,039
-267,540	-0,997	-0,126	-0,064
-266,526	-200,000	-0,005	0,074
-265,511	-200,000	0,004	0,099
-264,497	-200,000	-0,019	-0,100
-263,482	-200,000	-0,006	0,031
-262,467	544,084	0,016	-0,028
-261,453	800,000	0,055	0,122
-260,438	1,312	0,060	0,031
-259,424	0,103	0,096	-0,048
-258,409	-131,390	-0,103	0,010
-257,395	800,000	0,064	0,160
-256,380	53,940	0,079	0,054
-255,365	22,068	0,011	-0,006
-254,351	-14,816	-0,098	-0,045
-253,336	-44,009	-0,081	-0,029
-252,322	521,736	-0,080	-0,135
-251,307	39,345	-0,013	0,008
-250,292	241,150	0,023	0,027
-249,278	654,687	-0,053	0,097
-248,263	-166,451	-0,034	-0,001
-247,249	94,758	0,087	0,070
-246,234	588,160	-0,052	0,092
-245,219	-136,644	-0,140	-0,011
-244,205	62,158	-0,115	0,082
-243,190	291,387	-0,067	-0,087
-242,176	-167,707	0,079	-0,002
-241,161	521,414	-0,039	0,066
-240,146	-200,000	-0,006	0,095
-239,132	477,792	-0,024	0,040
-238,117	57,541	0,021	0,014
-237,103	-117,636	-0,032	0,004
-236,088	-8,282	0,088	-0,042
-235,073	594,596	0,067	-0,119
-234,059	-141,218	0,116	0,008
-233,044	800,000	-0,021	-0,044
-232,030	-80,238	-0,116	0,027
-231,015	9,811	0,057	-0,031
-230,000	408,913	-0,059	-0,090
-228,986	179,414	0,151	-0,158
-227,971	800,000	0,044	-0,128
-226,957	-109,723	0,083	-0,012
-225,942	-200,000	0,001	0,064
-224,927	93,370	0,053	0,042
-223,913	800,000	0,027	-0,075
-222,898	800,000	0,060	-0,182
-221,884	-126,402	-0,051	-0,005
-220,869	427,452	-0,070	-0,108
-219,855	324,678	-0,022	-0,031
-218,840	-159,197	0,076	-0,003
-217,825	327,283	-0,108	-0,148
-216,811	800,000	0,048	-0,095
-215,796	133,974	-0,054	-0,050
-214,782	-106,407	0,045	0,007
-213,767	43,064	-0,033	-0,021
-212,752	-110,527	0,084	0,012
-211,738	114,740	0,090	-0,078
-210,723	193,246	-0,078	-0,084
-209,709	800,000	-0,039	-0,082
-208,694	-78,689	-0,158	-0,038
-207,679	-18,794	0,096	-0,043
-206,665	-200,000	0,022	-0,088
-205,650	68,272	-0,068	0,049
-204,636	718,260	-0,050	0,096
-203,621	76,209	0,043	0,032
-202,606	-70,812	-0,055	0,015
-201,592	-200,000	-0,000	0,022
-200,577	-200,000	-0,025	-0,081
-199,563	58,836	-0,050	0,035
-198,548	13,487	0,128	0,071
-197,533	342,012	0,068	-0,095
-196,519	117,868	0,040	0,035
-195,504	-200,000	-0,017	-0,073
-194,490	259,895	-0,077	-0,095
-193,475	-200,000	0,014	0,112
-192,460	198,624	0,061	0,067
-191,446	173,387	0,025	-0,026
-190,431	90,934	0,022	0,018
-189,417	100,467	0,034	0,028
-188,402	-200,000	-0,023	-0,109
-187,387	378,006	-0,103	-0,150
-186,373	-200,000	-0,039	-0,152
-185,358	-200,000	0,031	0,156
-184,344	-200,000	-0,006	-0,038
-183,329	800,000	-0,044	-0,095
-182,315	269,074	0,064	-0,081
-181,300	-200,000	-0,020	-0,066
-180,285	166,959	0,056	0,056
-179,271	508,722	-0,033	-0,055
-178,256	-200,000	0,014	-0,074
-177,242	-119,745	0,159	-0,019
-176,227	-200,000	-0,005	0,100
-175,212	-200,000	0,154	0,000
-174,198	800,000	0,009	0,026
-173,183	437,907	0,025	-0,039
-172,169	-25,177	0,061	0,026
-171,154	461,845	-0,041	-0,065
-170,139	169,077	0,058	0,059
-169,125	-200,000	0,015	-0,081
-168,110	699,044	-0,059	0,112
-167,096	-200,000	-0,011	0,151
-166,081	-143,783	-0,158	0,010
-165,066	-74,581	-0,067	0,017
-164,052	380,388	0,021	0,030
-163,037	205,502	0,014	0,016
-162,023	800,000	-0,069	0,139
-161,008	439,191	0,041	0,064
-159,993	-27,025	-0,115	0,048
-158,979	-200,000	-0,008	0,027
-157,964	235,709	-0,036	-0,042
-156,950	-200,000	0,205	-0,000
-155,935	384,116	-0,038	0,055
-154,920	-200,000	0,002	0,041
-153,906	-200,000	0,015	-0,097
-152,891	-62,083	-0,118	-0,035
-151,877	-22,138	0,026	0,011
-150,862	800,000	-0,017	-0,036
-149,847	168,408	-0,107	0,109
-148,833	213,173	0,116	-0,130
-147,818	208,297	-0,053	0,059
-146,804	685,096	-0,030	0,056
-145,789	520,217	0,056	0,094
-144,775	-26,697	-0,039	-0,016
-143,760	-200,000	-0,015	0,143
-142,745	-37,803	-0,048	-0,018
-141,731	-200,000	0,007	0,070
-140,716	640,855	-0,014	0,026
-139,702	45,571	0,033	0,022
-138,687	-200,000	0,023	0,075
-137,672	419,898	-0,031	0,048
-136,658	800,000	0,039	-0,080
-135,643	53,382	-0,056	-0,038
-134,629	4,120	-0,071	0,037
-133,614	-200,000	0,042	-0,154
-132,599	-26,744	-0,052	0,021
-131,585	-65,004	0,061	-0,017
-130,570	-200,000	-0,002	-0,011
-129,556	690,190	0,072	-0,135
-128,541	-57,875	-0,091	0,028
-127,526	417,167	-0,021	0,032
-126,512	-4,783	-0,032	-0,015
-125,497	-109,782	0,070	0,010
-124,483	-148,907	-0,102	-0,006
-123,468	-155,700	0,068	0,003
-122,453	800,000	-0,016	-0,046
-121,439	78,195	-0,134	0,101
-120,424	56,502	0,088	-0,060
-119,410	147,024	-0,046	-0,044
-118,395	639,794	0,031	0,057
-117,380	-29,358	0,255	0,103
-116,366	800,000	0,007	0,015
-115,351	187,373	-0,026	0,028
-114,337	-15,971	0,037	-0,017
-113,322	48,135	-0,083	0,055
-112,307	-200,000	0,009	0,065
-111,293	-59,882	-0,116	0,035
-110,278	-62,497	0,028	-0,008
-109,264	-47,944	-0,022	0,007
-108,249	-200,000	0,011	-0,121
-107,234	165,720	-0,069	-0,069
-106,220	-200,000	-0,009	-0,136
-105,205	126,910	0,026	-0,023
-104,191	97,994	-0,140	0,114
-103,176	-200,000	-0,008	0,109
-102,162	-200,000	0,016	-0,086
-101,147	-200,000	0,034	-0,140
-100,132	-200,000	0,002	0,060
-99,118	-36,390	-0,108	0,041
-98,103	-32,528	-0,097	0,038
-97,089	800,000	0,033	-0,076
-96,074	47,627	0,144	0,095
-95,059	-200,000	-0,068	0,227
-94,045	-152,945	-0,112	-0,006
-93,030	-74,001	-0,075	0,019
-92,016	-104,522	-0,135	-0,022
-91,001	385,081	0,101	-0,148
-89,986	293,297	-0,078	0,101
-88,972	350,655	-0,055	0,077
-87,957	-200,000	0,012	-0,115
-86,943	800,000	0,032	-0,070
-85,928	34,274	-0,005	0,003
-84,913	364,271	-0,018	-0,026
-83,899	84,352	-0,088	0,068
-82,884	539,854	-0,022	0,037
-81,870	-101,597	-0,087	-0,015
-80,855	-200,000	-0,007	0,038
-79,840	-112,813	0,063	-0,009
-78,826	-48,508	-0,138	0,047
-77,811	355,721	-0,034	-0,049
-76,797	-152,867	-0,096	-0,005
-75,782	800,000	0,035	-0,079
-74,767	2,908	0,099	-0,051
-73,753	-61,196	0,092	0,027
-72,738	-40,990	0,089	0,032
-71,724	495,193	-0,056	0,091
-70,709	800,000	-0,021	0,056
-69,694	36,787	-0,173	0,108
-68,680	87,884	0,110	-0,086
-67,665	24,669	0,013	-0,008
-66,651	-200,000	0,043	0,177
-65,636	-200,000	0,008	0,073
-64,622	800,000	0,006	-0,016
-63,607	-18,959	-0,156	0,068
-62,592	183,917	0,091	0,095
-61,578	-200,000	-0,010	0,042
-60,563	211,392	-0,029	-0,032
-59,549	146,134	0,142	0,135
-58,534	-27,623	-1,599	-0,655
-57,519	359,312	-1,461	-2,076
-56,505	-200,000	-0,428	-4,455
-55,490	149,731	1,042	1,001
-54,476	800,000	4,815	11,226
-53,461	-200,000	18,696	299,505
-52,446	800,000	734,000	2270,249
-51,432	562,562	1650,037	2839,982
-50,417	78,727	1668,012	1262,713
-49,403	22,202	1540,797	889,041
-48,388	16,171	1463,725	815,299
-47,373	17,793	1453,815	817,577
-46,359	16,982	1443,907	808,087
-45,344	14,457	1439,217	793,352
-44,330	14,329	1437,235	791,618
-43,315	14,349	1435,386	790,665
-42,300	14,365	1433,937	789,909
-41,286	14,402	1432,710	789,381
-40,271	14,364	1431,597	788,555
-39,257	14,331	1430,307	787,653
-38,242	14,392	1428,920	787,148
-37,227	14,445	1427,654	786,670
-36,213	14,378	1426,474	785,675
-35,198	14,372	1425,373	785,005
-34,184	14,377	1424,463	784,499
-33,169	14,377	1422,963	783,641
-32,154	14,399	1421,841	783,097
-31,140	14,415	1420,508	782,405
-30,125	14,363	1419,745	781,708
-29,111	14,384	1418,373	781,022
-28,096	14,375	1417,308	780,364
-27,082	14,341	1416,184	779,553
-26,067	14,287	1415,285	778,773
-25,052	14,296	1414,172	778,172
-24,038	14,273	1413,405	777,610
-23,023	14,308	1411,969	776,956
-22,009	14,246	1411,402	776,321
-20,994	14,214	1410,497	775,641
-19,979	14,232	1409,563	775,181
-18,965	14,238	1408,426	774,556
-17,950	14,245	1407,554	774,076
-16,936	14,264	1406,428	773,516
-15,921	14,198	1405,336	772,575
-14,906	14,155	1404,794	772,045
-13,892	14,224	1403,520	771,639
-12,877	14,214	1402,697	771,106
-11,863	14,203	1401,914	770,596
-10,848	14,211	1400,971	770,082
-9,833	14,183	1399,931	769,353
-8,819	14,136	1399,182	768,692
-7,804	14,106	1398,196	767,980
-6,790	14,124	1397,228	767,502
-5,775	14,083	1396,138	766,681
-4,760	14,131	1395,359	766,446
-3,746	14,095	1394,401	765,721
-2,731	14,119	1393,557	765,339
-1,717	14,102	1392,756	764,789
-0,702	14,086	1390,922	763,679
0,313	17,987	1309,420	736,982
1,327	34,573	705,633	435,566
2,342	53,006	124,049	83,917
3,356	3,680	16,568	8,532
4,371	1,182	3,256	1,649
5,386	-19,875	0,540	0,235
6,400	-200,000	0,060	0,205
7,415	89,148	-0,244	-0,192
8,429	-10,886	-0,311	-0,145
9,444	524,041	-0,227	-0,380
10,459	-42,038	-0,385	-0,139
11,473	56,899	-0,224	-0,154
12,488	-99,540	-0,324	-0,057
13,502	122,558	-0,363	-0,321
14,517	-17,549	-0,402	-0,178
15,531	3,824	-0,404	-0,208
16,546	-32,943	-0,401	-0,157
17,561	-19,032	-0,412	-0,180
18,575	-71,895	-0,309	-0,081
19,590	3,585	-0,281	-0,144
20,604	34,138	-0,206	-0,126
21,619	109,879	-0,454	-0,385
22,634	186,878	-0,424	-0,447
23,648	61,948	-0,440	-0,310
24,663	18,322	-0,483	-0,272
25,677	75,407	-0,281	-0,209
26,692	-75,162	-0,298	-0,075
27,707	-28,511	-0,436	-0,177
28,721	-33,877	-0,405	-0,157
29,736	125,331	-0,394	-0,351
30,750	452,592	-0,292	-0,457
31,765	532,460	-0,234	-0,392
32,780	115,148	-0,320	-0,276
33,794	155,654	-0,344	-0,334
34,809	-59,219	-0,380	-0,115
35,823	-80,121	-0,488	-0,115
36,838	68,219	-0,597	-0,431
37,853	61,979	-0,501	-0,352
38,867	364,269	-0,252	-0,359
39,882	347,324	-0,331	-0,461
40,896	41,353	-0,263	-0,168
41,911	136,091	-0,357	-0,328
42,926	96,726	-0,393	-0,317
43,940	-18,022	-0,402	-0,177
44,955	115,074	-0,341	-0,294
45,969	-5,617	-0,304	-0,146
46,984	-5,553	-0,416	-0,201
47,999	-26,997	-0,317	-0,130
49,013	-25,492	-0,357	-0,148
50,028	1,520	-0,353	-0,178
51,042	8,118	-0,408	-0,215
52,057	800,000	-0,127	-0,363
53,071	145,403	-0,341	-0,322
54,086	181,267	-0,308	-0,319
55,101	-0,493	-0,268	-0,133
56,115	59,588	-0,300	-0,208
57,130	38,326	-0,400	-0,251
58,144	-43,461	-0,449	-0,159
59,159	84,209	-0,385	-0,296
60,174	91,477	-0,349	-0,276
61,188	-11,272	-0,395	-0,183
62,203	88,774	-0,409	-0,320
63,217	-41,961	-0,349	-0,125
64,232	76,823	-0,443	-0,331
65,247	6,776	-0,389	-0,203
66,261	223,165	-0,349	-0,397
67,276	67,746	-0,235	-0,169
68,290	191,481	-0,326	-0,346
69,305	250,358	-0,211	-0,253
70,320	-20,220	-0,300	-0,129
71,334	-49,759	-0,396	-0,132
72,349	101,334	-0,309	-0,253
73,363	-18,179	-0,528	-0,232
74,378	163,435	-0,295	-0,292
75,393	32,104	-0,349	-0,211
76,407	32,751	-0,363	-0,221
77,422	354,276	-0,235	-0,329
78,436	124,271	-0,217	-0,192
79,451	182,765	-0,203	-0,211
80,466	-24,094	-0,305	-0,127
81,480	88,477	-0,346	-0,270
82,495	-75,012	-0,313	-0,078
83,509	195,703	-0,218	-0,233
84,524	-9,019	-0,261	-0,122
85,539	39,917	-0,339	-0,213
86,553	65,674	-0,342	-0,243
87,568	-68,023	-0,403	-0,110
88,582	-55,376	-0,328	-0,103
89,597	121,477	-0,271	-0,237
90,611	-13,486	-0,291	-0,132
91,626	1,980	-0,221	-0,111
92,641	229,769	-0,225	-0,258
93,655	-1,796	-0,341	-0,168
94,670	4,822	-0,406	-0,209
95,684	104,078	-0,291	-0,240
96,699	86,756	-0,254	-0,197
97,714	-3,266	-0,173	-0,084
98,728	-29,518	-0,323	-0,129
99,743	-47,305	-0,287	-0,097
100,757	208,887	-0,178	-0,195
101,772	27,809	-0,294	-0,173
102,787	102,289	-0,316	-0,259
103,801	81,360	-0,152	-0,115
104,816	397,121	-0,237	-0,348
105,830	-12,562	-0,233	-0,106
106,845	67,866	-0,299	-0,214
107,860	-17,409	-0,262	-0,115
108,874	-70,766	-0,293	-0,077
109,889	-1,719	-0,324	-0,159
110,903	50,840	-0,318	-0,211
111,918	-79,502	-0,250	-0,059
112,933	66,264	-0,335	-0,238
113,947	82,292	-0,238	-0,181
114,962	-5,304	-0,217	-0,104
115,976	95,180	-0,217	-0,173
116,991	104,280	-0,294	-0,242
118,006	211,934	-0,211	-0,233
119,020	245,706	-0,208	-0,246
120,035	209,873	-0,267	-0,294
121,049	118,832	-0,222	-0,192
122,064	657,488	-0,056	-0,101
123,079	-139,709	-0,242	0,018
124,093	81,082	-0,268	-0,202
125,108	305,263	-0,186	-0,242
126,122	-52,750	-0,279	-0,090
127,137	71,464	-0,164	-0,119
128,151	186,319	-0,283	-0,295
129,166	-99,059	-0,311	-0,055
130,181	110,478	-0,296	-0,249
131,195	154,513	-0,232	-0,224
132,210	-70,583	-0,440	-0,116
133,224	174,601	-0,236	-0,239
134,239	800,000	-0,106	-0,222
135,254	39,692	-0,273	-0,171
136,268	204,412	-0,264	-0,287
137,283	61,506	-0,187	-0,130
138,297	94,742	-0,306	-0,244
139,312	-86,849	-0,337	-0,071
140,327	4,746	-0,221	-0,113
141,341	95,540	-0,389	-0,310
142,356	-106,238	-0,118	-0,018
143,370	698,579	-0,195	-0,360
144,385	-5,167	-0,280	-0,134
145,400	45,864	-0,212	-0,137
146,414	194,505	-0,132	-0,140
147,429	233,856	-0,175	-0,201
148,443	-3,462	-0,255	-0,124
149,458	111,838	-0,172	-0,145
150,473	223,949	-0,225	-0,254
151,487	52,992	-0,235	-0,157
152,502	-88,655	-0,256	-0,053
153,516	326,934	-0,218	-0,292
154,531	18,675	-0,169	-0,094
155,546	-55,278	-0,249	-0,078
156,560	277,363	-0,183	-0,228
157,575	103,158	-0,199	-0,163
158,589	111,221	-0,296	-0,249
159,604	245,341	-0,125	-0,147
160,619	205,060	-0,278	-0,302
161,633	78,781	-0,262	-0,196
162,648	83,702	-0,174	-0,132
163,662	-134,646	-0,292	0,024
164,677	-87,960	-0,207	0,043
165,692	-98,265	-0,222	0,039
166,706	-54,730	-0,308	0,096
167,721	122,470	-0,291	-0,254
168,735	61,951	-0,171	-0,119
169,750	-39,807	-0,330	-0,120
170,764	800,000	-0,136	-0,279
171,779	-103,022	-0,152	-0,025
172,794	-96,152	-0,205	-0,038
173,808	51,797	-0,236	-0,157
174,823	60,467	-0,273	-0,188
175,837	41,554	-0,257	-0,162
176,852	158,939	-0,229	-0,222
177,867	-200,000	-0,048	-0,197
178,881	28,050	-0,163	-0,096
179,896	-94,621	-0,281	-0,053
180,910	386,507	-0,110	-0,159
181,925	64,935	-0,191	-0,134
182,940	-120,341	-0,293	-0,034
183,954	800,000	-0,140	-0,279
184,969	-62,589	-0,265	-0,076
185,983	46,101	-0,193	-0,124
186,998	800,000	-0,083	-0,203
188,013	-148,950	-0,211	0,012
189,027	-95,834	-0,264	-0,049
190,042	69,238	-0,257	-0,184
191,056	-85,415	-0,199	-0,043
192,071	-69,424	-0,228	-0,061
193,086	-69,332	-0,130	-0,035
194,100	73,899	-0,143	-0,104
195,115	-155,284	-0,320	-0,014
196,129	170,988	-0,216	-0,216
197,144	6,757	-0,281	-0,145
198,159	187,017	-0,158	-0,164
199,173	0,272	-0,274	-0,136
200,188	-31,214	-0,236	-0,092
201,202	-80,684	-0,218	0,050
202,217	-13,215	-0,278	-0,125
203,232	-101,126	-0,238	-0,040
204,246	87,794	-0,307	-0,236
205,261	311,053	-0,181	-0,236
206,275	-115,050	-0,245	-0,032
207,290	94,034	-0,199	-0,157
208,304	261,890	-0,161	-0,195
209,319	32,078	-0,305	-0,183
210,334	71,687	-0,284	-0,205
211,348	-13,501	-0,216	-0,097
212,363	70,613	-0,194	-0,139
213,377	800,000	-0,090	-0,199
214,392	236,142	-0,146	-0,168
215,407	8,715	-0,341	-0,178
216,421	-21,222	-0,225	-0,095
217,436	800,000	-0,093	-0,186
218,450	253,351	-0,150	-0,178
219,465	273,960	-0,176	-0,217
220,480	238,401	-0,207	-0,239
221,494	359,777	-0,137	-0,190
222,509	-128,776	-0,070	0,007
223,523	-10,632	-0,288	-0,132
224,538	-67,826	-0,268	-0,072
225,553	290,629	-0,130	-0,165
226,567	66,992	-0,279	-0,197
227,582	194,140	-0,210	-0,221
228,596	44,295	0,008	0,005
229,611	-21,219	-0,125	-0,053
230,626	299,374	-0,143	-0,183
231,640	163,230	-0,141	-0,137
232,655	35,030	-0,202	-0,123
233,669	-6,720	-0,253	-0,119
234,684	129,808	-0,322	-0,286
235,699	573,089	-0,098	-0,167
236,713	579,069	-0,100	-0,171
237,728	179,342	-0,135	-0,137
238,742	-127,849	-0,193	-0,019
239,757	-29,389	-0,231	-0,091
240,772	61,473	-0,235	-0,162
241,786	215,214	-0,168	-0,185
242,801	136,333	-0,169	-0,153
243,815	390,045	-0,143	-0,206
244,830	102,012	-0,183	-0,148
245,844	24,993	-0,140	-0,081
246,859	-34,083	-0,249	-0,095
247,874	136,826	-0,243	-0,220
248,888	183,310	-0,225	-0,230
249,903	-33,613	-0,171	-0,065
250,917	21,711	-0,178	-0,100
251,932	145,984	-0,115	-0,107
252,947	434,278	-0,140	-0,211
253,961	142,037	-0,211	-0,194
254,976	-60,110	-0,199	-0,059
255,990	-14,029	-0,208	-0,093
257,005	203,848	-0,155	-0,167
258,020	78,167	-0,258	-0,191
259,034	800,000	-0,087	-0,191
260,049	52,001	-0,224	-0,147
261,063	-37,317	-0,174	-0,064
262,078	136,251	-0,191	-0,172
263,093	296,606	-0,209	-0,266
264,107	-77,565	-0,179	-0,043
265,122	-140,115	-0,125	-0,009
266,136	-39,916	-0,354	-0,127
267,151	-127,358	-0,223	-0,022
268,166	-116,406	-0,298	-0,038
269,180	242,655	-0,109	-0,126
270,195	313,317	-0,236	-0,307
271,209	800,000	-0,117	-0,228
272,224	260,698	-0,114	-0,136
273,239	-57,835	-0,127	-0,038
274,253	-84,611	-0,241	-0,052
275,268	236,727	-0,126	-0,144
276,282	274,849	-0,225	-0,277
277,297	544,863	-0,131	-0,216
278,312	136,240	-0,210	-0,189
279,326	105,960	-0,123	-0,101
280,341	-183,054	-0,188	-0,002
281,355	-50,322	-0,176	-0,057
282,370	14,925	-0,099	-0,053
283,384	211,919	-0,132	-0,143
284,399	442,749	-0,151	-0,229
285,414	-128,171	-0,218	0,021
286,428	-92,842	-0,069	0,013
287,443	39,134	-0,070	-0,043
288,457	-77,756	-0,222	-0,053
289,472	-5,259	-0,123	0,058
290,487	0,869	-0,209	-0,103
291,501	6,193	-0,256	-0,131
292,516	35,726	-0,116	-0,070
293,530	254,358	-0,140	-0,165
294,545	-200,000	-0,009	-0,083
295,560	131,640	-0,153	-0,136
296,574	-109,852	-0,201	-0,029
297,589	800,000	-0,055	-0,139
298,603	-127,584	-0,054	-0,005
299,618	233,098	-0,141	-0,160
300,633	290,432	-0,118	-0,148
301,647	252,383	-0,164	-0,193
302,662	39,812	-0,086	-0,053
303,676	339,810	-0,044	-0,059
304,691	-139,968	-0,171	-0,012
305,706	51,646	-0,180	-0,118
306,720	371,250	-0,134	-0,188
307,735	-200,000	0,008	-0,184
308,749	230,864	-0,125	-0,141
309,764	-122,014	-0,128	-0,014
310,779	102,350	-0,089	-0,072
311,793	-12,956	-0,219	-0,098
312,808	800,000	-0,070	-0,157
313,822	206,899	-0,132	-0,142
314,837	18,821	-0,160	-0,088
315,852	8,693	-0,228	-0,118
316,866	-122,183	-0,112	-0,013
317,881	572,433	-0,028	-0,046
318,895	38,732	-0,077	-0,047
319,910	230,710	-0,178	-0,200
320,925	117,745	-0,137	-0,116
321,939	269,156	-0,225	-0,272
322,954	-40,627	-0,151	-0,054
323,968	-101,058	-0,077	0,013
324,983	-165,242	-0,146	0,004
325,997	56,352	-0,187	-0,125
327,012	175,678	-0,230	-0,230
328,027	532,523	-0,115	-0,187
329,041	150,313	-0,119	-0,111
330,056	93,002	-0,068	-0,053
331,070	-36,359	-0,045	0,016
332,085	-9,132	-0,056	0,026
333,100	800,000	-0,082	-0,229
334,114	40,469	-0,093	-0,058
335,129	-123,198	-0,172	-0,019
336,143	-23,332	-0,150	-0,062
337,158	11,693	-0,093	-0,049
338,173	800,000	-0,026	-0,060
339,187	-200,000	-0,031	-0,152
340,202	35,070	-0,240	-0,144
341,216	5,852	-0,234	-0,118
342,231	-36,093	-0,206	-0,076
343,246	-200,000	0,012	-0,048
344,260	432,881	-0,104	-0,155
345,275	65,789	-0,095	-0,066
346,289	800,000	-0,092	-0,197
347,304	800,000	-0,022	-0,047
348,319	369,939	-0,188	-0,263
349,333	414,243	-0,174	-0,255
350,348	160,064	-0,094	-0,090
351,362	-86,001	-0,073	-0,015
352,377	-200,000	-0,024	0,081
353,392	211,635	-0,079	-0,086
354,406	-44,583	-0,243	-0,083
355,421	209,032	1310,552	1410,279
356,435	160,857	1470,796	1410,773
