DTS Sentinel unit serial number:	SN410029Multiplexer serial number:	ORYXHardware model number:	OX2-SRSoftware version number:	ORYX F/W v4,00 Oryx Data Collector v3.7.2.0data status	okinstallation	B3 Nyhavnadifferential loss correction	single-endedforward channel	channel 1reverse channel	N/Adate	2023/11/30time	15:52:30forward acquisition time	300,00reverse acquisition time	0,00gamma	499,1914k internal	0,3206k external	0,3206temperature offset calibration	1,0000default loss term (dB/km)	0,3820temperature slope calibration	1,0000multiplexer offset coefficient	1,0000multiplexer slope coefficient	1,0000fibre end	0,00T internal ref (°C)	12,62T ext. ref 1 (°C)	-1,70T ext. ref 2 (°C)	-1,73length (m)	temperature (°C)	Stokes	anti-Stokes-744,400	261,380	-0,253	-0,319
-743,385	800,000	-0,084	0,258
-742,371	39,945	-0,202	-0,131
-741,356	-200,000	0,037	0,348
-740,342	642,052	-0,175	-0,326
-739,327	-200,000	0,014	0,448
-738,312	8,763	-0,217	-0,118
-737,298	-200,000	-0,036	0,289
-736,283	800,000	-0,098	-0,205
-735,269	-200,000	-0,052	0,303
-734,254	800,000	-0,122	-0,250
-733,239	43,364	-0,148	0,098
-732,225	-200,000	-0,038	-0,318
-731,210	309,184	0,106	0,144
-730,196	48,926	0,159	-0,108
-729,181	11,363	-0,049	-0,027
-728,167	-200,000	-0,013	-0,113
-727,152	121,559	-0,041	0,037
-726,137	-32,771	-0,091	0,037
-725,123	89,874	0,051	-0,041
-724,108	53,942	-0,033	-0,023
-723,094	199,893	-0,052	-0,059
-722,079	-39,945	0,111	-0,042
-721,064	800,000	-0,011	-0,029
-720,050	-18,698	0,137	-0,062
-719,035	-200,000	-0,032	-0,235
-718,021	-108,662	-0,236	0,036
-717,006	-200,000	0,023	-0,111
-715,991	-200,000	0,026	0,126
-714,977	-200,000	-0,004	-0,052
-713,962	115,681	-0,137	0,121
-712,948	-70,954	-0,101	-0,027
-711,933	80,777	-0,070	-0,055
-710,918	-8,473	-0,064	-0,031
-709,904	-200,000	0,002	-0,144
-708,889	152,010	0,010	-0,010
-707,875	-200,000	-0,021	-0,118
-706,860	800,000	0,026	-0,052
-705,845	800,000	-0,070	0,142
-704,831	14,306	0,099	0,056
-703,816	264,744	0,044	-0,056
-702,802	41,989	0,039	-0,026
-701,787	800,000	-0,049	-0,101
-700,772	49,876	-0,154	0,105
-699,758	143,402	0,047	-0,045
-698,743	-187,984	0,059	-0,001
-697,729	-200,000	0,047	0,208
-696,714	90,514	0,039	0,032
-695,699	800,000	-0,037	-0,077
-694,685	-59,514	-0,063	-0,019
-693,670	800,000	-0,061	-0,152
-692,656	-200,000	0,008	0,028
-691,641	-35,619	0,067	0,026
-690,627	-200,000	0,004	0,049
-689,612	-94,273	-0,113	0,022
-688,597	-200,000	0,010	0,074
-687,583	111,056	-0,195	-0,170
-686,568	-200,000	-0,048	-0,180
-685,554	-174,294	0,101	0,002
-684,539	51,805	-0,126	0,087
-683,524	72,060	0,114	-0,086
-682,510	286,700	0,045	0,060
-681,495	800,000	-0,063	-0,134
-680,481	236,171	-0,088	-0,106
-679,466	800,000	-0,011	0,034
-678,451	-200,000	-0,011	-0,092
-677,437	-132,645	0,111	0,010
-676,422	214,687	0,070	0,081
-675,408	-41,590	0,117	0,043
-674,393	38,658	-0,012	0,008
-673,378	507,000	-0,019	-0,032
-672,364	-86,203	-0,088	0,019
-671,349	-68,907	0,070	-0,019
-670,335	800,000	-0,007	-0,021
-669,320	638,101	0,045	0,083
-668,305	259,558	-0,007	0,009
-667,291	800,000	0,032	0,067
-666,276	259,096	0,095	-0,119
-665,262	467,604	-0,078	-0,127
-664,247	129,063	-0,057	-0,052
-663,232	-200,000	-0,020	-0,096
-662,218	-97,490	0,019	0,004
-661,203	-54,708	-0,075	-0,024
-660,189	-174,538	0,037	0,001
-659,174	-72,060	-0,091	-0,024
-658,159	36,167	0,083	0,053
-657,145	188,997	-0,072	0,079
-656,130	156,480	-0,030	0,030
-655,116	143,567	0,045	-0,044
-654,101	656,195	-0,046	0,087
-653,086	123,002	-0,075	-0,068
-652,072	116,872	0,132	-0,118
-651,057	-27,052	-0,097	-0,041
-650,043	800,000	-0,016	-0,038
-649,028	-31,435	0,059	0,024
-648,014	-145,643	-0,087	-0,006
-646,999	218,912	0,067	-0,078
-645,984	-200,000	-0,023	-0,108
-644,970	-32,116	0,139	0,056
-643,955	-200,000	-0,055	-0,187
-642,941	-139,952	-0,016	0,001
-641,926	-150,968	-0,094	0,005
-640,911	536,053	-0,028	0,048
-639,897	70,202	-0,106	0,079
-638,882	31,903	-0,100	0,062
-637,868	-200,000	-0,008	0,146
-636,853	800,000	-0,077	-0,192
-635,838	256,938	-0,013	0,016
-634,824	133,829	-0,030	-0,028
-633,809	-40,037	0,069	-0,026
-632,795	800,000	0,033	0,088
-631,780	-200,000	0,006	0,043
-630,765	226,081	0,047	0,055
-629,751	283,619	-0,015	0,020
-628,736	-17,218	-0,158	-0,072
-627,722	242,816	-0,083	-0,101
-626,707	104,144	-0,089	0,076
-625,692	-149,899	0,074	-0,004
-624,678	146,169	-0,051	0,049
-623,663	117,140	0,088	0,078
-622,649	-43,151	-0,118	0,043
-621,634	-200,000	0,001	-0,190
-620,619	-34,444	0,068	0,027
-619,605	-2,055	-0,017	0,009
-618,590	-69,447	-0,153	0,042
-617,576	800,000	-0,029	-0,058
-616,561	-75,017	0,084	0,022
-615,546	36,222	-0,057	0,036
-614,532	800,000	-0,028	-0,074
-613,517	19,223	0,034	-0,020
-612,503	-200,000	0,008	-0,032
-611,488	-200,000	-0,014	-0,072
-610,474	171,972	0,051	0,053
-609,459	187,013	0,057	0,061
-608,444	-200,000	-0,036	-0,141
-607,430	95,703	-0,096	-0,079
-606,415	-102,365	-0,128	-0,022
-605,401	-200,000	0,010	-0,048
-604,386	-79,335	0,070	0,017
-603,371	420,970	0,056	0,087
-602,357	-11,952	-0,146	0,069
-601,342	240,352	0,073	-0,088
-600,328	-200,000	-0,002	0,045
-599,313	-173,503	-0,061	0,001
-598,298	-102,589	0,064	0,011
-597,284	-60,415	0,155	0,047
-596,269	-125,317	0,095	0,010
-595,255	-182,486	0,125	-0,002
-594,240	-200,000	-0,001	0,048
-593,225	510,827	-0,094	-0,158
-592,211	-70,883	-0,076	0,021
-591,196	-200,000	-0,006	-0,050
-590,182	800,000	-0,069	-0,145
-589,167	-9,924	-0,102	-0,049
-588,152	-200,000	-0,024	-0,111
-587,138	-5,827	-0,071	-0,035
-586,123	800,000	-0,056	-0,126
-585,109	84,093	0,095	-0,075
-584,094	-200,000	0,010	-0,071
-583,079	-200,000	0,006	-0,057
-582,065	271,536	0,047	0,060
-581,050	-200,000	0,019	0,075
-580,036	-200,000	-0,006	-0,128
-579,021	-2,885	0,071	-0,036
-578,006	15,911	-0,047	0,027
-576,992	-41,283	-0,067	-0,025
-575,977	-200,000	0,016	0,097
-574,963	-137,641	0,093	0,007
-573,948	13,781	0,061	0,034
-572,934	-200,000	-0,016	-0,114
-571,919	-189,466	-0,023	-0,000
-570,904	168,755	0,045	0,046
-569,890	-200,000	-0,010	-0,106
-568,875	-18,952	-0,083	0,037
-567,861	-200,000	0,000	-0,071
-566,846	800,000	-0,074	0,167
-565,831	289,948	0,068	0,090
-564,817	318,458	-0,013	-0,018
-563,802	2,928	-0,119	-0,062
-562,788	-200,000	0,002	-0,120
-561,773	703,746	-0,061	-0,116
-560,758	680,751	-0,032	0,061
-559,744	26,738	0,113	0,068
-558,729	50,480	-0,066	0,045
-557,715	-12,203	0,133	0,063
-556,700	-10,014	-0,062	0,030
-555,685	-200,000	-0,010	0,073
-554,671	-77,669	-0,044	-0,011
-553,656	-101,403	-0,045	0,008
-552,642	426,463	-0,043	-0,067
-551,627	72,351	-0,037	-0,027
-550,612	2,808	-0,129	-0,067
-549,598	-79,881	-0,093	-0,022
-548,583	73,967	0,068	-0,051
-547,569	-88,078	-0,070	-0,015
-546,554	-34,703	0,069	0,027
-545,539	434,143	-0,024	-0,037
-544,525	-200,000	-0,006	-0,071
-543,510	-200,000	0,008	0,037
-542,496	-200,000	0,005	-0,028
-541,481	-16,049	-0,094	-0,043
-540,466	712,369	-0,045	-0,087
-539,452	-200,000	-0,011	-0,080
-538,437	148,175	0,130	0,126
-537,423	-200,000	0,028	0,118
-536,408	-200,000	0,011	-0,072
-535,393	-200,000	-0,036	-0,193
-534,379	-200,000	0,005	0,044
-533,364	109,771	0,078	-0,067
-532,350	156,410	0,101	0,101
-531,335	361,637	-0,105	0,151
-530,321	127,765	-0,041	0,037
-529,306	-200,000	-0,015	-0,126
-528,291	173,200	0,111	0,115
-527,277	537,444	-0,039	-0,067
-526,262	-102,810	-0,186	0,032
-525,248	-200,000	0,005	0,026
-524,233	-63,287	0,117	-0,034
-523,218	324,657	-0,096	-0,132
-522,204	-104,087	0,020	-0,003
-521,189	-200,000	0,054	-0,206
-520,175	-88,303	-0,027	-0,006
-519,160	800,000	0,054	-0,154
-518,145	-200,000	0,021	-0,088
-517,131	800,000	0,019	0,044
-516,116	95,595	0,107	0,087
-515,102	599,693	0,041	-0,073
-514,087	-56,895	-0,099	0,031
-513,072	-200,000	-0,032	-0,175
-512,058	800,000	-0,034	0,088
-511,043	-200,000	-0,025	-0,093
-510,029	800,000	-0,044	-0,125
-509,014	-72,328	0,129	-0,034
-507,999	407,570	0,061	0,093
-506,985	278,634	0,021	0,026
-505,970	-173,667	-0,046	-0,001
-504,956	-200,000	-0,021	-0,118
-503,941	76,504	-0,054	-0,041
-502,926	-2,240	-0,041	-0,020
-501,912	-200,000	0,012	0,080
-500,897	59,432	-0,060	0,042
-499,883	800,000	0,028	-0,074
-498,868	-109,313	0,063	-0,009
-497,853	-200,000	-0,006	0,024
-496,839	-17,367	-0,030	0,013
-495,824	271,032	0,058	0,073
-494,810	56,489	0,171	0,119
-493,795	-79,019	-0,144	0,035
-492,781	195,834	0,064	0,070
-491,766	-200,000	-0,001	-0,145
-490,751	485,877	-0,032	0,052
-489,737	294,362	0,104	-0,137
-488,722	105,407	0,047	-0,040
-487,708	-166,432	0,183	0,005
-486,693	2,588	-0,006	0,003
-485,678	800,000	0,033	-0,084
-484,664	-200,000	0,018	-0,157
-483,649	-141,665	-0,114	-0,008
-482,635	-141,806	0,129	-0,009
-481,620	409,627	-0,058	0,089
-480,605	223,532	-0,035	0,041
-479,591	-142,656	0,027	-0,002
-478,576	-200,000	0,001	0,013
-477,562	-12,123	-0,017	-0,008
-476,547	-200,000	0,010	-0,180
-475,532	-200,000	0,159	-0,000
-474,518	42,202	0,154	0,100
-473,503	94,395	-0,059	0,048
-472,489	-200,000	0,002	-0,026
-471,474	800,000	0,057	0,133
-470,459	447,861	-0,066	-0,105
-469,445	-200,000	-0,011	-0,117
-468,430	485,356	0,027	0,044
-467,416	158,175	0,069	0,068
-466,401	-200,000	-0,008	-0,040
-465,386	226,361	0,054	0,063
-464,372	537,687	0,029	0,050
-463,357	-66,550	0,062	-0,018
-462,343	-200,000	-0,029	0,092
-461,328	-200,000	0,005	0,102
-460,313	-200,000	0,015	0,087
-459,299	-105,644	0,121	0,020
-458,284	-200,000	0,001	0,041
-457,270	800,000	0,015	-0,038
-456,255	-116,163	0,064	-0,008
-455,241	247,930	0,061	0,075
-454,226	158,093	-0,069	-0,069
-453,211	-30,888	0,149	-0,060
-452,197	527,456	0,058	-0,099
-451,182	544,228	-0,040	-0,069
-450,168	39,647	0,018	0,011
-449,153	74,339	-0,029	0,022
-448,138	800,000	-0,040	0,099
-447,124	-129,429	0,114	0,011
-446,109	55,018	-0,074	-0,051
-445,095	800,000	0,028	-0,062
-444,080	-156,154	-0,041	-0,002
-443,065	273,668	-0,060	0,077
-442,051	-170,208	0,169	-0,004
-441,036	-56,049	-0,105	0,033
-440,022	16,504	0,060	0,034
-439,007	-200,000	0,000	0,006
-437,992	93,601	-0,091	0,074
-436,978	800,000	-0,090	0,187
-435,963	-33,474	-0,071	-0,028
-434,949	-39,531	0,073	0,027
-433,934	-72,348	-0,059	0,015
-432,919	-111,991	-0,066	0,010
-431,905	14,178	-0,138	0,077
-430,890	-33,164	0,089	0,035
-429,876	145,708	0,097	0,094
-428,861	289,990	-0,041	-0,054
-427,846	706,933	0,025	0,047
-426,832	204,385	0,043	-0,048
-425,817	800,000	0,028	-0,082
-424,803	800,000	0,018	-0,050
-423,788	-200,000	0,002	0,034
-422,773	-73,057	0,123	-0,032
-421,759	-158,658	0,086	0,003
-420,744	395,023	-0,033	-0,049
-419,730	111,163	0,120	0,104
-418,715	239,655	-0,038	-0,045
-417,701	101,070	-0,041	0,034
-416,686	800,000	0,030	0,066
-415,671	-200,000	0,002	0,062
-414,657	800,000	0,031	0,064
-413,642	-148,701	0,113	0,007
-412,628	113,354	-0,059	0,051
-411,613	23,528	0,024	0,014
-410,598	800,000	-0,029	0,067
-409,584	-149,809	-0,164	-0,009
-408,569	-109,171	0,116	-0,017
-407,555	48,742	0,050	0,034
-406,540	228,679	0,084	0,099
-405,525	-41,577	-0,065	0,024
-404,511	-62,244	-0,115	0,034
-403,496	-200,000	0,032	-0,191
-402,482	800,000	-0,053	0,107
-401,467	-200,000	-0,003	0,115
-400,452	35,471	0,133	-0,083
-399,438	-57,052	-0,053	0,017
-398,423	-31,533	-0,060	-0,024
-397,409	-56,895	-0,216	-0,068
-396,394	-200,000	0,013	-0,184
-395,379	297,601	0,011	0,014
-394,365	-104,227	0,191	0,031
-393,350	-56,115	0,053	0,017
-392,336	-200,000	0,005	-0,113
-391,321	137,734	0,066	0,062
-390,306	9,036	0,026	0,014
-389,292	-121,492	0,087	-0,010
-388,277	552,863	0,040	0,068
-387,263	56,153	0,164	-0,114
-386,248	354,373	0,072	-0,102
-385,233	800,000	0,039	0,094
-384,219	-200,000	-0,003	0,180
-383,204	674,783	0,037	0,069
-382,190	27,157	-0,140	-0,084
-381,175	57,982	-0,085	-0,060
-380,160	-16,556	0,061	-0,028
-379,146	800,000	-0,023	0,060
-378,131	-96,238	0,022	0,004
-377,117	-200,000	-0,001	0,031
-376,102	125,022	-0,086	-0,078
-375,088	-200,000	-0,029	-0,096
-374,073	-55,230	-0,058	-0,019
-373,058	79,971	0,040	0,031
-372,044	26,067	-0,011	-0,006
-371,029	89,523	0,051	-0,040
-370,015	464,103	-0,026	0,042
-369,000	-200,000	0,002	-0,152
-367,985	-97,809	-0,110	0,020
-366,971	170,322	-0,063	-0,064
-365,956	-84,889	0,006	-0,001
-364,942	194,784	-0,058	0,063
-363,927	106,448	0,028	0,024
-362,912	114,450	-0,091	0,079
-361,898	-200,000	0,011	-0,047
-360,883	-14,172	-0,048	0,022
-359,869	130,839	0,080	0,074
-358,854	800,000	0,011	0,030
-357,839	109,123	0,070	0,060
-356,825	-85,023	0,056	0,013
-355,810	114,459	-0,047	0,041
-354,796	130,093	-0,200	-0,183
-353,781	-25,905	-0,064	0,027
-352,766	98,778	-0,008	0,007
-351,752	800,000	-0,038	-0,094
-350,737	709,866	-0,035	0,066
-349,723	-49,180	0,034	-0,011
-348,708	-18,798	0,144	0,064
-347,693	419,183	0,060	0,093
-346,679	777,975	-0,011	-0,021
-345,664	-200,000	-0,025	0,125
-344,650	62,919	-0,133	-0,095
-343,635	27,628	0,082	-0,049
-342,620	205,882	0,051	-0,057
-341,606	249,160	-0,041	-0,050
-340,591	800,000	-0,016	0,040
-339,577	456,613	0,060	-0,096
-338,562	182,639	-0,068	0,072
-337,548	123,045	-0,159	0,142
-336,533	800,000	-0,025	0,053
-335,518	-23,828	0,153	-0,065
-334,504	-200,000	0,047	0,165
-333,489	-165,385	0,070	-0,002
-332,475	283,472	0,053	0,068
-331,460	-51,972	-0,069	-0,023
-330,445	-12,449	-0,078	0,036
-329,431	462,430	0,037	-0,059
-328,416	408,631	-0,041	-0,063
-327,402	-61,019	0,046	-0,014
-326,387	-200,000	-0,012	-0,090
-325,372	10,119	-0,149	-0,080
-324,358	107,235	0,010	-0,009
-323,343	-200,000	-0,010	-0,073
-322,329	-51,024	0,054	0,018
-321,314	-186,754	0,121	0,001
-320,299	-130,248	0,035	0,003
-319,285	100,593	0,057	0,047
-318,270	7,145	-0,097	-0,052
-317,256	35,236	-0,070	-0,044
-316,241	375,143	-0,026	-0,038
-315,226	-200,000	-0,010	0,168
-314,212	275,067	0,074	0,094
-313,197	800,000	-0,037	-0,074
-312,183	-97,930	0,188	-0,034
-311,168	-84,595	-0,076	0,017
-310,153	323,150	-0,037	-0,051
-309,139	4,624	-0,093	0,049
-308,124	12,862	0,095	-0,052
-307,110	82,165	0,120	0,093
-306,095	629,419	-0,031	0,056
-305,080	-200,000	-0,018	0,165
-304,066	180,010	0,039	-0,041
-303,051	433,303	0,049	-0,076
-302,037	-200,000	0,005	-0,113
-301,022	-200,000	-0,022	-0,092
-300,008	62,140	0,163	0,116
-298,993	69,350	-0,096	0,070
-297,978	-200,000	-0,007	-0,094
-296,964	-200,000	-0,018	-0,188
-295,949	-59,429	0,120	0,037
-294,935	-119,568	0,141	0,017
-293,920	-200,000	-0,014	0,163
-292,905	505,372	-0,053	0,088
-291,891	104,937	-0,051	0,043
-290,876	547,319	0,050	0,086
-289,862	-77,987	0,134	-0,033
-288,847	158,846	-0,066	-0,065
-287,832	126,872	-0,076	-0,069
-286,818	344,270	0,032	-0,044
-285,803	62,456	-0,071	0,050
-284,789	112,277	0,037	-0,032
-283,774	-200,000	0,003	0,062
-282,759	410,169	0,053	-0,080
-281,745	-50,362	-0,176	-0,059
-280,730	-200,000	0,002	0,077
-279,716	630,691	0,027	0,048
-278,701	800,000	-0,038	-0,107
-277,686	-200,000	-0,009	-0,033
-276,672	108,981	0,130	0,110
-275,657	297,557	-0,044	0,058
-274,643	-200,000	-0,008	-0,057
-273,628	214,095	-0,047	-0,053
-272,613	-124,566	-0,027	-0,003
-271,599	731,559	0,055	0,105
-270,584	706,031	-0,033	0,062
-269,570	8,791	-0,008	-0,004
-268,555	483,345	-0,088	-0,143
-267,540	-200,000	0,001	0,034
-266,526	-200,000	-0,014	-0,157
-265,511	800,000	0,012	-0,035
-264,497	-200,000	0,009	-0,061
-263,482	-200,000	-0,025	0,084
-262,467	-26,247	0,170	0,071
-261,453	445,242	0,013	0,021
-260,438	-135,382	-0,031	-0,003
-259,424	513,070	0,026	-0,043
-258,409	-13,051	0,081	0,038
-257,395	-27,972	0,054	0,022
-256,380	-200,000	-0,009	0,068
-255,365	90,987	0,104	0,083
-254,351	-200,000	-0,014	0,055
-253,336	390,247	0,083	-0,124
-252,322	800,000	0,006	-0,015
-251,307	-173,606	-0,128	-0,003
-250,292	60,722	-0,041	0,029
-249,278	-120,211	0,045	0,005
-248,263	187,077	0,028	0,029
-247,249	66,280	-0,042	-0,030
-246,234	-157,947	0,039	0,002
-245,219	302,681	0,050	-0,067
-244,205	-68,876	-0,089	0,024
-243,190	55,057	0,003	-0,002
-242,176	70,178	0,048	-0,036
-241,161	-200,000	-0,029	0,121
-240,146	-200,000	-0,023	0,123
-239,132	-200,000	-0,026	-0,130
-238,117	32,722	0,046	-0,028
-237,103	5,691	-0,016	-0,008
-236,088	-50,284	0,058	-0,019
-235,073	-2,583	-0,029	0,014
-234,059	52,890	-0,095	0,065
-233,044	72,925	-0,063	0,046
-232,030	-200,000	-0,012	-0,042
-231,015	-200,000	0,011	-0,076
-230,000	302,092	0,025	-0,033
-228,986	-121,169	0,053	0,006
-227,971	-44,251	-0,150	-0,053
-226,957	800,000	0,051	0,114
-225,942	-80,666	0,134	-0,031
-224,927	-200,000	-0,025	0,104
-223,913	236,183	-0,116	0,137
-222,898	416,150	-0,047	0,072
-221,884	63,384	0,106	0,075
-220,869	800,000	-0,009	0,026
-219,855	-145,274	-0,205	0,013
-218,840	-30,789	0,176	0,070
-217,825	-126,037	0,058	0,006
-216,811	800,000	0,029	-0,081
-215,796	-48,927	-0,135	-0,046
-214,782	-66,092	-0,087	-0,025
-213,767	-26,648	0,063	-0,026
-212,752	187,709	0,047	0,050
-211,738	-37,854	-0,163	-0,061
-210,723	-12,479	0,018	-0,008
-209,709	-93,837	-0,220	-0,043
-208,694	800,000	0,030	-0,064
-207,679	-200,000	0,014	-0,091
-206,665	-87,899	0,038	-0,008
-205,650	48,223	0,112	0,074
-204,636	-200,000	0,048	0,214
-203,621	-200,000	0,012	0,126
-202,606	70,394	0,090	0,066
-201,592	-200,000	-0,013	-0,067
-200,577	-74,221	-0,122	0,031
-199,563	-133,641	0,127	0,011
-198,548	24,828	0,116	0,068
-197,533	11,576	0,173	0,094
-196,519	-200,000	0,006	0,099
-195,504	-200,000	-0,001	-0,063
-194,490	-104,066	-0,055	-0,009
-193,475	368,647	0,021	-0,030
-192,460	-71,685	-0,079	-0,021
-191,446	427,420	0,091	0,140
-190,431	320,048	0,091	-0,123
-189,417	800,000	-0,054	0,127
-188,402	-73,737	0,057	0,015
-187,387	182,735	-0,039	-0,041
-186,373	289,714	-0,037	0,048
-185,358	-125,083	-0,167	0,018
-184,344	94,978	-0,053	0,043
-183,329	79,816	0,106	-0,081
-182,315	-135,260	-0,124	-0,010
-181,300	-200,000	-0,008	0,069
-180,285	-200,000	0,005	0,099
-179,271	-200,000	0,007	-0,043
-178,256	215,162	0,093	-0,105
-177,242	200,235	0,089	0,097
-176,227	-0,198	-0,064	0,032
-175,212	800,000	0,021	-0,062
-174,198	8,505	-0,060	0,032
-173,183	238,299	-0,082	-0,096
-172,169	800,000	-0,026	-0,068
-171,154	800,000	-0,022	-0,044
-170,139	800,000	-0,032	0,087
-169,125	68,740	-0,135	0,098
-168,110	-89,934	0,177	0,036
-167,096	-37,551	-0,080	-0,030
-166,081	264,992	-0,027	0,033
-165,066	-200,000	0,005	0,034
-164,052	-86,529	-0,093	0,020
-163,037	520,623	-0,121	0,201
-162,023	-65,931	0,163	0,046
-161,008	71,328	0,071	-0,053
-159,993	-29,969	-0,091	0,037
-158,979	800,000	-0,039	0,091
-157,964	-200,000	-0,006	0,029
-156,950	317,783	-0,086	-0,115
-155,935	113,386	-0,068	-0,059
-154,920	74,571	-0,087	0,065
-153,906	135,188	0,063	-0,058
-152,891	65,100	-0,156	-0,112
-151,877	165,295	0,047	0,047
-150,862	-10,825	-0,087	-0,041
-149,847	157,474	-0,028	-0,027
-148,833	81,822	0,031	-0,024
-147,818	-71,831	0,109	0,029
-146,804	247,271	0,048	-0,057
-145,789	-200,000	0,012	0,116
-144,775	137,502	-0,068	0,063
-143,760	-125,987	0,141	-0,015
-142,745	494,467	0,015	0,025
-141,731	36,485	0,117	-0,073
-140,716	174,633	0,108	0,111
-139,702	402,819	0,098	0,146
-138,687	-79,180	-0,053	-0,013
-137,672	-200,000	0,007	0,078
-136,658	376,123	-0,053	-0,077
-135,643	-200,000	0,002	0,064
-134,629	55,241	-0,068	0,046
-133,614	800,000	0,035	0,104
-132,599	800,000	-0,081	0,196
-131,585	-200,000	0,035	0,163
-130,570	-65,891	-0,140	-0,040
-129,556	22,318	-0,072	0,041
-128,541	-62,813	-0,080	0,023
-127,526	-8,865	0,045	0,021
-126,512	-200,000	0,020	-0,072
-125,497	-139,012	0,082	0,006
-124,483	-26,104	-0,167	0,069
-123,468	267,334	-0,047	-0,059
-122,453	160,348	-0,161	-0,160
-121,439	233,085	0,072	-0,084
-120,424	-127,916	-0,119	0,012
-119,410	77,368	0,032	-0,024
-118,395	-78,949	-0,064	0,015
-117,380	105,081	0,047	-0,040
-116,366	-200,000	0,047	0,240
-115,351	-58,193	-0,119	-0,036
-114,337	86,586	-0,078	-0,061
-113,322	421,775	0,046	-0,070
-112,307	-159,975	0,074	-0,003
-111,293	-200,000	-0,003	-0,042
-110,278	800,000	0,020	0,055
-109,264	76,672	-0,132	-0,099
-108,249	-200,000	0,010	-0,112
-107,234	-66,573	-0,116	-0,032
-106,220	89,822	-0,122	-0,097
-105,205	665,103	0,020	0,037
-104,191	-200,000	0,008	-0,131
-103,176	643,090	-0,018	0,033
-102,162	44,785	0,097	0,063
-101,147	59,713	0,108	-0,076
-100,132	127,541	-0,055	0,049
-99,118	-200,000	0,013	-0,113
-98,103	3,806	-0,122	-0,063
-97,089	-23,051	0,112	0,048
-96,074	-200,000	-0,003	-0,018
-95,059	303,413	-0,077	0,101
-94,045	800,000	0,036	-0,076
-93,030	7,031	-0,087	0,046
-92,016	-23,438	-0,042	-0,018
-91,001	127,038	0,027	0,024
-89,986	-37,660	-0,071	-0,026
-88,972	-200,000	0,006	-0,093
-87,957	37,039	0,118	-0,074
-86,943	-109,584	-0,064	-0,009
-85,928	800,000	0,029	-0,067
-84,913	-89,176	-0,062	-0,013
-83,899	-161,385	0,078	-0,003
-82,884	359,274	-0,012	0,017
-81,870	-200,000	-0,020	0,164
-80,855	800,000	0,083	0,168
-79,840	-200,000	0,000	0,068
-78,826	800,000	0,034	-0,080
-77,811	-200,000	0,017	-0,130
-76,797	98,215	-0,083	0,067
-75,782	-200,000	-0,005	-0,077
-74,767	-17,027	0,035	0,015
-73,753	774,114	-0,053	0,103
-72,738	91,374	0,066	-0,052
-71,724	-200,000	-0,006	0,028
-70,709	114,598	-0,069	-0,060
-69,694	-200,000	-0,027	-0,138
-68,680	-117,222	0,150	-0,019
-67,665	-136,834	0,061	0,005
-66,651	316,301	-0,012	0,016
-65,636	90,587	0,096	0,076
-64,622	-106,650	0,086	0,013
-63,607	67,526	-0,082	0,059
-62,592	-150,150	0,117	0,006
-61,578	-111,128	0,106	-0,015
-60,563	-55,069	-0,182	0,058
-59,549	800,000	-0,028	0,067
-58,534	4,847	-1,810	-0,938
-57,519	393,854	-1,447	-2,137
-56,505	-200,000	-0,456	-4,455
-55,490	448,208	0,738	1,153
-54,476	800,000	5,048	11,284
-53,461	-200,000	19,609	328,530
-52,446	-200,000	742,194	2335,185
-51,432	569,972	1651,647	2850,977
-50,417	77,066	1665,680	1249,539
-49,403	20,566	1539,079	877,652
-48,388	14,460	1461,317	803,748
-47,373	18,461	1451,657	817,644
-46,359	16,700	1441,335	803,397
-45,344	12,702	1436,819	781,788
-44,330	12,638	1434,832	780,373
-43,315	12,668	1433,142	779,564
-42,300	12,672	1431,501	778,660
-41,286	12,634	1430,347	777,822
-40,271	12,652	1429,026	777,155
-39,257	12,636	1427,629	776,288
-38,242	12,668	1426,525	775,810
-37,227	12,674	1425,241	775,108
-36,213	12,711	1423,934	774,542
-35,198	12,694	1422,533	773,669
-34,184	12,766	1421,664	773,505
-33,169	12,728	1420,388	772,602
-32,154	12,741	1419,459	772,128
-31,140	12,726	1418,117	771,296
-30,125	12,741	1417,210	770,841
-29,111	12,692	1416,150	770,008
-28,096	12,764	1414,679	769,512
-27,082	12,666	1413,729	768,506
-26,067	12,668	1412,691	767,919
-25,052	12,625	1411,750	767,179
-24,038	12,671	1410,517	766,693
-23,023	12,609	1409,704	765,929
-22,009	12,626	1408,613	765,385
-20,994	12,668	1407,765	765,089
-19,979	12,625	1406,873	764,376
-18,965	12,565	1405,988	763,584
-17,950	12,609	1404,933	763,187
-16,936	12,633	1404,031	762,776
-15,921	12,525	1403,037	761,704
-14,906	12,554	1402,258	761,387
-13,892	12,617	1400,985	760,959
-12,877	12,512	1400,437	760,143
-11,863	12,587	1399,376	759,882
-10,848	12,525	1398,653	759,174
-9,833	12,459	1397,716	758,329
-8,819	12,485	1396,610	757,816
-7,804	12,468	1396,222	757,500
-6,790	12,488	1395,009	756,905
-5,775	12,463	1393,911	756,163
-4,760	12,466	1392,764	755,526
-3,746	12,472	1391,899	755,051
-2,731	12,457	1391,209	754,577
-1,717	12,351	1390,559	753,708
-0,702	12,382	1388,603	752,759
0,313	16,266	1304,854	725,249
1,327	32,393	699,143	425,587
2,342	49,874	122,194	81,252
3,356	2,716	16,514	8,431
4,371	9,046	3,174	1,687
5,386	-17,916	0,607	0,268
6,400	-200,000	0,085	0,349
7,415	51,844	-0,202	-0,135
8,429	66,860	-0,169	-0,121
9,444	-45,009	-0,455	-0,159
10,459	159,932	-0,272	-0,268
11,473	-69,858	-0,359	-0,096
12,488	-34,176	-0,274	-0,106
13,502	-32,460	-0,186	0,073
14,517	-5,413	-0,276	-0,133
15,531	-50,392	-0,581	-0,192
16,546	-89,520	-0,285	-0,059
17,561	208,442	-0,324	-0,358
18,575	-164,504	-0,385	0,012
19,590	-11,074	-0,360	-0,167
20,604	-53,912	-0,188	-0,060
21,619	70,413	-0,330	-0,241
22,634	123,948	-0,374	-0,331
23,648	84,806	-0,406	-0,313
24,663	40,160	-0,403	-0,255
25,677	157,723	-0,376	-0,368
26,692	49,041	-0,354	-0,234
27,707	38,925	-0,366	-0,230
28,721	47,002	-0,312	-0,204
29,736	149,160	-0,382	-0,365
30,750	84,806	-0,430	-0,332
31,765	139,500	-0,354	-0,328
32,780	76,206	-0,401	-0,299
33,794	-14,526	-0,370	-0,167
34,809	-3,987	-0,296	-0,144
35,823	234,027	-0,340	-0,395
36,838	317,546	-0,209	-0,279
37,853	86,353	-0,317	-0,246
38,867	130,769	-0,281	-0,254
39,882	37,107	-0,264	-0,164
40,896	-52,030	-0,312	-0,101
41,911	100,962	-0,368	-0,301
42,926	82,318	-0,209	-0,160
43,940	-30,544	-0,422	-0,168
44,955	618,394	-0,195	-0,346
45,969	244,722	-0,285	-0,337
46,984	27,778	-0,276	-0,163
47,999	388,340	-0,193	-0,282
49,013	311,909	-0,292	-0,386
50,028	89,552	-0,325	-0,255
51,042	0,191	-0,430	-0,215
52,057	340,005	-0,257	-0,353
53,071	11,693	-0,385	-0,207
54,086	22,621	-0,364	-0,209
55,101	348,716	-0,224	-0,312
56,115	22,337	-0,289	-0,166
57,130	-57,949	-0,379	-0,116
58,144	90,041	-0,324	-0,254
59,159	111,703	-0,269	-0,228
60,174	251,514	-0,236	-0,283
61,188	31,786	-0,475	-0,287
62,203	0,938	-0,262	-0,131
63,217	2,751	-0,270	-0,137
64,232	-15,995	-0,312	-0,139
65,247	182,197	-0,278	-0,289
66,261	-32,704	-0,428	-0,166
67,276	52,638	-0,285	-0,191
68,290	144,205	-0,230	-0,216
69,305	133,246	-0,295	-0,267
70,320	119,783	-0,223	-0,194
71,334	164,645	-0,188	-0,187
72,349	-152,760	-0,482	-0,024
73,363	-51,450	-0,358	-0,117
74,378	12,526	-0,433	-0,234
75,393	110,870	-0,312	-0,264
76,407	35,926	-0,209	-0,129
77,422	30,188	-0,338	-0,202
78,436	85,041	-0,306	-0,236
79,451	-73,301	-0,338	-0,086
80,466	-26,482	-0,368	-0,151
81,480	30,998	-0,296	-0,178
82,495	132,327	-0,261	-0,236
83,509	109,785	-0,307	-0,258
84,524	-159,413	-0,287	-0,011
85,539	183,361	-0,169	-0,175
86,553	31,730	-0,242	-0,145
87,568	126,116	-0,366	-0,325
88,582	75,082	-0,374	-0,276
89,597	106,777	-0,256	-0,213
90,611	174,981	-0,281	-0,285
91,626	392,752	-0,180	-0,263
92,641	66,129	-0,237	-0,168
93,655	-2,898	-0,273	-0,133
94,670	492,142	-0,155	-0,250
95,684	-33,545	-0,364	-0,140
96,699	0,936	-0,296	-0,148
97,714	142,066	-0,196	-0,183
98,728	126,565	-0,232	-0,206
99,743	57,938	-0,267	-0,183
100,757	-109,998	-0,317	-0,046
101,772	132,179	-0,291	-0,262
102,787	86,592	-0,223	-0,172
103,801	64,082	-0,276	-0,194
104,816	298,286	-0,207	-0,268
105,830	-44,168	-0,305	-0,106
106,845	-55,709	-0,255	-0,079
107,860	-102,899	-0,201	-0,033
108,874	179,177	-0,212	-0,217
109,889	-47,333	-0,369	-0,125
110,903	74,304	-0,206	-0,151
111,918	8,174	-0,269	-0,141
112,933	270,406	-0,165	-0,203
113,947	37,773	-0,330	-0,204
114,962	-12,368	-0,410	-0,187
115,976	265,678	-0,195	-0,238
116,991	101,467	-0,250	-0,203
118,006	163,324	-0,315	-0,310
119,020	-24,676	-0,421	-0,174
120,035	309,821	-0,105	-0,138
121,049	42,048	-0,204	-0,129
122,064	-23,295	-0,154	-0,065
123,079	241,160	-0,183	-0,214
124,093	4,579	-0,343	-0,175
125,108	3,298	-0,286	-0,145
126,122	166,552	-0,195	-0,193
127,137	-145,721	-0,319	-0,020
128,151	30,237	-0,211	-0,126
129,166	-53,419	-0,309	-0,098
130,181	124,949	-0,214	-0,188
131,195	358,946	-0,226	-0,316
132,210	-1,837	-0,212	-0,104
133,224	40,570	-0,300	-0,188
134,239	57,783	-0,319	-0,218
135,254	236,099	-0,166	-0,192
136,268	-20,389	-0,248	-0,106
137,283	-21,172	-0,183	-0,078
138,297	-90,887	-0,261	-0,052
139,312	-103,889	-0,373	-0,060
140,327	170,113	-0,251	-0,251
141,341	487,090	-0,174	-0,278
142,356	555,090	-0,186	-0,313
143,370	120,536	-0,166	-0,144
144,385	75,237	-0,249	-0,183
145,400	235,778	-0,245	-0,283
146,414	228,513	-0,250	-0,285
147,429	242,292	-0,204	-0,239
148,443	397,782	-0,176	-0,258
149,458	-158,800	-0,304	0,012
150,473	-32,263	-0,274	-0,106
151,487	-47,709	-0,284	-0,096
152,502	-27,800	-0,209	0,084
153,516	82,602	-0,228	-0,172
154,531	94,920	-0,249	-0,197
155,546	144,983	-0,230	-0,214
156,560	-117,440	-0,236	-0,029
157,575	119,468	-0,250	-0,216
158,589	69,040	-0,232	-0,166
159,604	448,211	-0,110	-0,169
160,619	-50,009	-0,324	-0,106
161,633	121,498	-0,190	-0,165
162,648	181,587	-0,263	-0,269
163,662	122,392	-0,187	-0,162
164,677	-86,813	-0,227	-0,048
165,692	-78,283	-0,132	-0,031
166,706	233,646	-0,196	-0,225
167,721	77,690	-0,239	-0,177
168,735	183,173	-0,253	-0,260
169,750	80,569	-0,205	-0,153
170,764	95,160	-0,302	-0,239
171,779	90,852	-0,214	-0,167
172,794	-15,005	-0,212	-0,094
173,808	-8,230	-0,208	-0,097
174,823	-16,115	-0,300	-0,132
175,837	153,425	-0,168	-0,160
176,852	44,478	-0,190	-0,121
177,867	-21,896	-0,230	-0,097
178,881	96,186	-0,210	-0,166
179,896	358,938	-0,091	-0,127
180,910	-132,009	-0,199	-0,018
181,925	175,413	-0,240	-0,242
182,940	43,135	-0,277	-0,176
183,954	79,571	-0,232	-0,173
184,969	28,015	-0,253	-0,148
185,983	375,576	-0,098	-0,139
186,998	-125,024	-0,177	-0,019
188,013	92,772	-0,177	-0,139
189,027	115,697	-0,258	-0,219
190,042	32,191	-0,290	-0,174
191,056	262,267	-0,243	-0,293
192,071	120,444	-0,241	-0,208
193,086	141,970	-0,164	-0,151
194,100	27,388	-0,205	-0,120
195,115	18,097	-0,171	-0,094
196,129	219,248	-0,187	-0,208
197,144	243,157	-0,176	-0,206
198,159	-49,183	-0,184	-0,061
199,173	-4,080	-0,273	-0,131
200,188	-49,633	-0,177	-0,058
201,202	5,544	-0,201	-0,102
202,217	-40,312	-0,203	-0,073
203,232	-33,857	-0,255	-0,097
204,246	167,912	-0,131	-0,129
205,261	65,388	-0,288	-0,202
206,275	82,226	-0,246	-0,185
207,290	357,648	-0,164	-0,228
208,304	171,856	-0,185	-0,185
209,319	203,860	-0,167	-0,180
210,334	327,320	-0,167	-0,223
211,348	162,061	-0,314	-0,305
212,363	305,792	-0,154	-0,199
213,377	-15,836	-0,201	-0,088
214,392	376,116	-0,164	-0,232
215,407	-128,136	-0,182	-0,018
216,421	-56,187	-0,219	-0,067
217,436	54,438	-0,124	-0,083
218,450	110,389	-0,249	-0,207
219,465	165,778	-0,138	-0,135
220,480	249,162	-0,189	-0,223
221,494	-21,730	-0,190	-0,080
222,509	213,298	-0,071	-0,078
223,523	29,385	-0,213	-0,125
224,538	-200,000	-0,062	-0,200
225,553	127,833	-0,349	-0,308
226,567	88,364	-0,218	-0,167
227,582	456,635	-0,146	-0,226
228,596	22,876	-0,223	-0,126
229,611	64,464	-0,055	-0,038
230,626	178,386	-0,144	-0,146
231,640	18,162	-0,139	-0,077
232,655	146,292	-0,165	-0,153
233,669	143,380	-0,165	-0,152
234,684	800,000	-0,085	-0,193
235,699	60,792	-0,198	-0,136
236,713	-92,772	-0,140	0,027
237,728	-95,733	-0,192	-0,035
238,742	428,934	-0,148	-0,222
239,757	594,417	-0,087	-0,149
240,772	-80,694	-0,243	-0,056
241,786	303,574	-0,186	-0,240
242,801	71,036	-0,185	-0,132
243,815	800,000	-0,104	-0,214
244,830	-200,000	0,016	-0,079
245,844	-43,808	-0,176	-0,061
246,859	-63,740	-0,157	-0,044
247,874	-58,624	-0,195	-0,058
248,888	76,508	-0,247	-0,181
249,903	28,287	-0,247	-0,144
250,917	-79,981	-0,173	0,040
251,932	-127,732	-0,189	0,019
252,947	-42,812	-0,186	-0,065
253,961	149,685	-0,218	-0,204
254,976	-137,371	-0,214	-0,017
255,990	109,745	-0,112	-0,093
257,005	53,859	-0,102	-0,067
258,020	-173,501	-0,078	-0,002
259,034	-70,598	-0,202	-0,052
260,049	268,413	-0,154	-0,187
261,063	-1,424	-0,148	-0,072
262,078	168,897	-0,147	-0,145
263,093	74,361	-0,222	-0,161
264,107	800,000	-0,167	-0,358
265,122	-200,000	-0,043	-0,143
266,136	-48,842	-0,178	-0,059
267,151	462,764	-0,122	-0,189
268,166	42,648	-0,211	-0,132
269,180	468,396	-0,111	-0,172
270,195	-19,583	-0,232	-0,099
271,209	662,544	-0,055	-0,098
272,224	194,184	-0,161	-0,168
273,239	-70,342	-0,256	-0,067
274,253	38,602	-0,205	-0,126
275,268	-67,646	-0,210	-0,056
276,282	26,305	-0,165	-0,095
277,297	49,903	-0,191	-0,124
278,312	92,350	-0,248	-0,192
279,326	285,846	-0,132	0,165
280,341	395,610	-0,115	-0,166
281,355	-23,943	-0,118	-0,049
282,370	-85,475	-0,237	-0,050
283,384	-114,694	-0,217	-0,028
284,399	156,231	-0,215	-0,205
285,414	-200,000	-0,023	-0,136
286,428	129,481	-0,230	-0,203
287,443	13,298	-0,153	0,081
288,457	22,650	-0,214	-0,120
289,472	-29,362	-0,146	-0,057
290,487	13,056	-0,095	-0,051
291,501	-1,814	-0,205	-0,099
292,516	800,000	-0,057	-0,172
293,530	795,801	-0,030	-0,057
294,545	-27,891	-0,190	-0,075
295,560	217,082	-0,158	-0,173
296,574	-200,000	-0,063	-0,271
297,589	800,000	-0,082	-0,218
298,603	65,851	-0,181	-0,126
299,618	-200,000	-0,049	-0,159
300,633	-103,599	-0,087	0,014
301,647	-47,566	-0,162	-0,054
302,662	800,000	-0,100	-0,205
303,676	65,712	-0,138	-0,096
304,691	-73,350	-0,197	0,049
305,706	-59,998	-0,220	0,064
306,720	455,810	-0,103	-0,158
307,735	-4,935	-0,103	-0,048
308,749	-3,156	-0,125	-0,060
309,764	6,841	-0,160	-0,082
310,779	256,076	-0,137	-0,161
311,793	127,623	-0,161	-0,140
312,808	-99,908	-0,183	-0,031
313,822	37,231	-0,198	-0,120
314,837	800,000	0,042	-0,105
315,852	59,976	-0,116	-0,079
316,866	331,852	-0,038	0,051
317,881	75,100	-0,159	-0,115
318,895	112,675	-0,154	-0,128
319,910	-54,494	-0,257	-0,080
320,925	134,111	-0,130	-0,116
321,939	-57,210	-0,220	-0,066
322,954	-184,791	-0,190	-0,002
323,968	601,329	-0,036	0,061
324,983	207,851	-0,175	-0,188
325,997	58,158	-0,070	-0,047
327,012	-61,816	-0,184	-0,052
328,027	137,308	-0,186	-0,167
329,041	-56,155	-0,229	0,069
330,056	-200,000	-0,047	-0,192
331,070	800,000	-0,047	-0,093
332,085	33,629	-0,067	0,040
333,100	-46,259	-0,078	-0,026
334,114	40,373	-0,051	-0,031
335,129	-200,000	-0,034	-0,135
336,143	800,000	-0,146	-0,279
337,158	674,107	-0,078	-0,139
338,173	800,000	-0,049	-0,119
339,187	212,234	-0,091	-0,099
340,202	238,261	-0,107	-0,122
341,216	-105,702	-0,267	-0,041
342,231	800,000	-0,095	-0,204
343,246	-200,000	-0,088	-0,271
344,260	-200,000	0,007	-0,259
345,275	-157,826	-0,164	-0,007
346,289	70,298	-0,118	-0,084
347,304	744,369	-0,095	-0,175
348,319	-200,000	-0,010	-0,088
349,333	779,075	-0,127	-0,238
350,348	400,924	-0,157	-0,226
351,362	57,088	-0,133	-0,089
352,377	-76,239	-0,177	0,042
353,392	61,142	-0,121	-0,082
354,406	-33,187	-0,172	-0,065
355,421	207,233	1311,536	1402,562
356,435	159,410	1471,875	1403,068
