DTS Sentinel unit serial number:	SN410029Multiplexer serial number:	ORYXHardware model number:	OX2-SRSoftware version number:	ORYX F/W v4,00 Oryx Data Collector v3.7.2.0data status	okinstallation	B3 Nyhavnadifferential loss correction	single-endedforward channel	channel 1reverse channel	N/Adate	2023/11/29time	01:32:30forward acquisition time	300,00reverse acquisition time	0,00gamma	499,1914k internal	0,3212k external	0,3212temperature offset calibration	1,0000default loss term (dB/km)	0,3820temperature slope calibration	1,0000multiplexer offset coefficient	1,0000multiplexer slope coefficient	1,0000fibre end	0,00T internal ref (°C)	9,50T ext. ref 1 (°C)	-5,01T ext. ref 2 (°C)	-5,16length (m)	temperature (°C)	Stokes	anti-Stokes-744,400	800,000	-0,146	-0,336
-743,385	109,613	-0,092	0,080
-742,371	800,000	-0,079	-0,236
-741,356	800,000	-0,126	0,390
-740,342	516,270	-0,127	-0,215
-739,327	-200,000	0,025	0,186
-738,312	98,793	-0,233	-0,195
-737,298	606,947	-0,124	0,224
-736,283	259,188	-0,209	-0,262
-735,269	268,666	0,121	0,154
-734,254	-11,961	-0,213	-0,101
-733,239	-91,748	-0,260	0,053
-732,225	-200,000	0,018	-0,258
-731,210	800,000	0,046	0,140
-730,196	-200,000	0,019	-0,085
-729,181	-200,000	0,012	0,113
-728,167	-200,000	0,030	-0,172
-727,152	-51,611	-0,062	0,021
-726,137	-25,815	-0,175	0,075
-725,123	482,492	-0,034	-0,056
-724,108	-20,123	-0,187	-0,083
-723,094	365,600	0,065	-0,095
-722,079	28,410	0,047	0,029
-721,064	515,624	-0,071	-0,121
-720,050	-46,384	0,072	0,025
-719,035	179,303	0,037	-0,039
-718,021	-166,462	-0,129	0,004
-717,006	373,774	0,070	0,104
-715,991	233,323	-0,149	-0,177
-714,977	-70,971	0,058	-0,016
-713,962	-200,000	-0,006	-0,096
-712,948	133,965	0,048	-0,045
-711,933	800,000	0,036	-0,100
-710,918	-29,419	-0,117	0,048
-709,904	-200,000	0,013	-0,067
-708,889	167,536	0,075	-0,077
-707,875	306,384	-0,121	-0,164
-706,860	420,574	-0,046	0,072
-705,845	-137,065	-0,091	0,007
-704,831	-200,000	-0,040	0,139
-703,816	243,140	0,001	-0,001
-702,802	-200,000	0,001	-0,079
-701,787	-200,000	0,008	-0,090
-700,772	81,686	-0,101	-0,079
-699,758	800,000	-0,060	-0,134
-698,743	124,245	0,045	-0,041
-697,729	-93,787	0,080	-0,016
-696,714	-162,241	-0,078	0,003
-695,699	57,665	-0,042	0,030
-694,685	-173,943	-0,064	-0,001
-693,670	-15,040	-0,175	-0,081
-692,656	-200,000	0,031	-0,118
-691,641	-200,000	0,003	0,067
-690,627	-114,848	0,031	0,004
-689,612	800,000	-0,014	0,031
-688,597	-16,662	-0,041	0,019
-687,583	-107,390	-0,107	0,017
-686,568	-45,652	0,064	-0,023
-685,554	524,510	0,071	-0,121
-684,539	-94,089	-0,151	0,030
-683,524	65,250	-0,091	0,066
-682,510	46,700	0,062	0,042
-681,495	150,522	0,088	0,087
-680,481	110,688	-0,046	0,040
-679,466	-36,127	-0,107	-0,042
-678,451	800,000	-0,022	-0,051
-677,437	210,518	0,017	-0,020
-676,422	16,369	0,051	-0,029
-675,408	-200,000	-0,046	-0,160
-674,393	-200,000	-0,003	-0,058
-673,378	-103,354	-0,100	-0,017
-672,364	800,000	-0,032	-0,102
-671,349	800,000	0,051	-0,130
-670,335	-113,888	0,004	0,001
-669,320	192,536	-0,140	-0,153
-668,305	-129,268	0,036	-0,004
-667,291	282,238	-0,058	-0,076
-666,276	105,866	-0,067	-0,057
-665,262	89,889	-0,136	-0,110
-664,247	-200,000	-0,006	-0,099
-663,232	-36,358	-0,046	-0,018
-662,218	163,773	-0,036	-0,037
-661,203	562,543	0,065	0,114
-660,189	97,026	-0,098	-0,081
-659,174	167,676	-0,038	-0,040
-658,159	-94,233	-0,085	0,017
-657,145	93,725	-0,121	-0,099
-656,130	-79,438	0,032	0,008
-655,116	51,298	-0,074	0,051
-654,101	9,421	0,026	0,014
-653,086	-127,371	-0,054	0,006
-652,072	72,517	-0,200	0,151
-651,057	-200,000	0,017	-0,184
-650,043	68,475	-0,143	-0,106
-649,028	800,000	0,037	-0,086
-648,014	-7,151	0,027	-0,013
-646,999	-200,000	-0,001	-0,003
-645,984	52,869	-0,054	-0,037
-644,970	31,371	-0,082	0,051
-643,955	98,604	-0,125	0,104
-642,941	-28,690	-0,147	-0,061
-641,926	-200,000	-0,019	-0,170
-640,911	800,000	0,054	0,146
-639,897	800,000	0,055	0,155
-638,882	95,526	-0,059	-0,048
-637,868	41,220	0,076	-0,049
-636,853	9,569	-0,177	-0,097
-635,838	-200,000	0,025	-0,145
-634,824	113,707	-0,058	-0,051
-633,809	-13,736	0,062	-0,029
-632,795	-200,000	-0,004	0,012
-631,780	-200,000	0,007	0,103
-630,765	191,649	0,095	0,103
-629,751	145,412	-0,075	-0,072
-628,736	-44,422	-0,159	-0,057
-627,722	115,590	0,057	0,050
-626,707	-200,000	0,000	-0,003
-625,692	-129,023	0,057	-0,006
-624,678	-7,599	-0,096	-0,047
-623,663	155,408	0,076	-0,076
-622,649	83,280	-0,068	0,053
-621,634	-200,000	0,024	-0,099
-620,619	-200,000	0,036	-0,184
-619,605	800,000	-0,025	0,080
-618,590	209,813	0,054	-0,061
-617,576	218,328	0,094	0,108
-616,561	118,651	0,054	0,048
-615,546	-98,848	-0,183	-0,033
-614,532	440,748	0,049	-0,077
-613,517	-108,158	0,037	0,006
-612,503	103,725	0,104	0,088
-611,488	-84,219	-0,036	-0,008
-610,474	50,204	-0,020	0,014
-609,459	-137,306	-0,092	0,007
-608,444	-90,494	0,162	0,034
-607,430	-9,799	-0,119	-0,057
-606,415	85,182	0,114	-0,090
-605,401	148,484	0,059	0,058
-604,386	125,947	0,033	0,030
-603,371	-200,000	-0,002	-0,016
-602,357	-12,159	-0,068	-0,032
-601,342	24,275	-0,073	0,044
-600,328	-142,377	-0,103	-0,007
-599,313	75,648	0,064	-0,049
-598,298	156,115	-0,063	0,063
-597,284	157,862	0,003	0,003
-596,269	-130,355	-0,135	0,013
-595,255	577,942	-0,026	0,046
-594,240	800,000	0,066	-0,172
-593,225	-200,000	0,004	-0,050
-592,211	-112,504	-0,031	0,004
-591,196	166,752	0,022	-0,023
-590,182	-20,309	-0,125	0,055
-589,167	177,367	0,051	0,054
-588,152	118,984	-0,082	-0,073
-587,138	-200,000	-0,046	-0,228
-586,123	800,000	-0,039	-0,118
-585,109	22,830	-0,145	-0,086
-584,094	-200,000	0,009	0,159
-583,079	-42,396	0,101	-0,037
-582,065	477,999	0,051	-0,083
-581,050	-84,072	-0,042	-0,010
-580,036	-200,000	-0,027	0,123
-579,021	800,000	0,025	-0,077
-578,006	-200,000	-0,030	-0,310
-576,992	727,092	-0,047	-0,091
-575,977	2,431	-0,095	-0,049
-574,963	-200,000	-0,018	0,134
-573,948	-21,615	-0,070	-0,031
-572,934	800,000	0,044	-0,109
-571,919	223,679	0,057	-0,066
-570,904	2,033	0,095	-0,049
-569,890	131,655	0,079	0,073
-568,875	167,630	-0,022	-0,023
-567,861	17,991	0,079	0,045
-566,846	274,885	-0,087	-0,112
-565,831	308,542	-0,087	0,118
-564,817	211,741	-0,055	0,063
-563,802	13,670	-0,123	-0,069
-562,788	33,496	-0,034	0,021
-561,773	-129,185	-0,072	0,007
-560,758	189,284	0,074	-0,080
-559,744	567,689	-0,055	0,096
-558,729	-47,981	-0,027	-0,009
-557,715	-200,000	0,004	-0,027
-556,700	-113,290	-0,115	-0,016
-555,685	-162,937	-0,043	-0,001
-554,671	322,172	0,094	-0,129
-553,656	-117,657	0,189	0,024
-552,642	-171,945	0,168	0,004
-551,627	-157,438	-0,070	0,003
-550,612	76,998	0,025	-0,019
-549,598	-96,134	0,040	-0,008
-548,583	-200,000	0,014	-0,192
-547,569	517,997	-0,071	-0,120
-546,554	175,292	0,066	-0,069
-545,539	352,170	-0,069	0,098
-544,525	-67,177	0,110	0,031
-543,510	96,563	0,059	-0,048
-542,496	208,123	0,029	0,033
-541,481	800,000	0,014	-0,036
-540,466	703,603	-0,032	-0,061
-539,452	-200,000	0,020	0,088
-538,437	393,873	-0,079	0,119
-537,423	396,439	0,071	-0,108
-536,408	209,212	0,019	0,022
-535,393	569,266	-0,048	-0,084
-534,379	-98,797	-0,048	-0,009
-533,364	-79,997	0,065	-0,016
-532,350	245,617	0,046	-0,055
-531,335	-200,000	-0,012	-0,043
-530,321	172,049	0,043	-0,045
-529,306	-200,000	-0,005	0,057
-528,291	-81,993	0,093	-0,022
-527,277	228,894	0,016	-0,019
-526,262	-200,000	-0,035	-0,159
-525,248	-200,000	0,019	-0,112
-524,233	800,000	0,040	0,098
-523,218	800,000	-0,026	-0,059
-522,204	-40,759	-0,086	0,032
-521,189	745,177	-0,047	-0,091
-520,175	394,149	-0,056	-0,084
-519,160	-190,233	-0,035	0,000
-518,145	350,992	0,062	0,089
-517,131	-200,000	0,008	-0,082
-516,116	380,121	0,039	-0,058
-515,102	800,000	0,012	-0,027
-514,087	92,220	0,042	0,034
-513,072	-200,000	0,021	-0,138
-512,058	-200,000	0,007	-0,080
-511,043	142,831	-0,058	0,055
-510,029	-61,087	0,081	0,024
-509,014	46,751	-0,041	0,027
-507,999	404,368	0,076	0,115
-506,985	91,607	-0,079	-0,064
-505,970	387,026	-0,073	-0,109
-504,956	-200,000	-0,023	-0,137
-503,941	103,602	-0,010	-0,009
-502,926	-28,594	-0,082	-0,034
-501,912	-200,000	0,022	0,135
-500,897	-37,135	0,101	-0,039
-499,883	-23,135	-0,044	0,019
-498,868	234,099	0,115	-0,136
-497,853	-200,000	0,017	-0,209
-496,839	-75,534	-0,057	0,014
-495,824	-90,864	0,126	-0,026
-494,810	-134,632	-0,028	0,002
-493,795	423,315	0,044	-0,068
-492,781	34,379	-0,145	0,090
-491,766	-200,000	-0,010	-0,145
-490,751	-200,000	-0,001	-0,145
-489,737	-200,000	-0,029	-0,119
-488,722	-121,989	0,048	0,006
-487,708	158,911	0,108	0,108
-486,693	462,550	-0,094	-0,151
-485,678	43,411	-0,062	0,041
-484,664	-200,000	0,019	-0,078
-483,649	453,255	-0,064	-0,102
-482,635	-200,000	-0,012	-0,038
-481,620	-200,000	-0,012	-0,082
-480,605	-105,124	0,169	-0,027
-479,591	-200,000	-0,007	-0,067
-478,576	-89,033	-0,033	-0,007
-477,562	-140,658	-0,068	-0,005
-476,547	800,000	-0,019	-0,045
-475,532	498,442	0,107	-0,178
-474,518	40,295	0,092	-0,059
-473,503	-70,913	0,091	0,024
-472,489	800,000	0,046	0,100
-471,474	91,661	0,090	-0,072
-470,459	339,996	-0,050	0,071
-469,445	-200,000	-0,002	-0,069
-468,430	-163,939	-0,114	-0,004
-467,416	-200,000	0,034	-0,127
-466,401	267,512	0,073	0,091
-465,386	800,000	0,035	0,097
-464,372	311,988	0,033	0,045
-463,357	-200,000	-0,002	0,017
-462,343	-18,396	0,159	0,071
-461,328	-200,000	0,020	-0,107
-460,313	385,140	0,086	-0,128
-459,299	570,809	0,039	0,069
-458,284	747,961	0,087	0,169
-457,270	800,000	0,074	0,169
-456,255	-97,379	-0,156	0,029
-455,241	800,000	0,052	-0,110
-454,226	-200,000	0,018	-0,113
-453,211	-200,000	-0,004	0,052
-452,197	-64,760	0,097	-0,028
-451,182	-200,000	0,009	-0,044
-450,168	129,093	-0,095	-0,087
-449,153	800,000	-0,037	-0,075
-448,138	-155,583	-0,104	0,005
-447,124	121,260	0,057	0,051
-446,109	418,881	0,075	0,115
-445,095	354,530	0,047	-0,067
-444,080	325,461	0,034	0,047
-443,065	118,851	-0,050	0,044
-442,051	-200,000	-0,033	0,123
-441,036	142,697	-0,060	0,058
-440,022	-200,000	-0,027	0,202
-439,007	-55,245	-0,071	-0,023
-437,992	-131,655	0,122	-0,011
-436,978	235,469	0,059	0,070
-435,963	-156,235	0,128	-0,006
-434,949	23,638	-0,079	-0,047
-433,934	266,432	-0,062	-0,077
-432,919	-200,000	-0,011	-0,048
-431,905	-26,292	-0,063	0,027
-430,890	-200,000	-0,005	0,089
-429,876	5,022	-0,137	0,072
-428,861	800,000	-0,025	-0,055
-427,846	-50,250	-0,159	0,053
-426,832	32,754	-0,043	0,027
-425,817	12,450	-0,095	-0,052
-424,803	-122,915	-0,103	0,012
-423,788	42,381	0,014	0,009
-422,773	-151,801	0,185	0,010
-421,759	-200,000	0,041	0,130
-420,744	-200,000	-0,011	0,187
-419,730	126,110	0,022	0,020
-418,715	66,160	-0,012	-0,009
-417,701	176,368	0,034	0,036
-416,686	-200,000	0,004	0,126
-415,671	-200,000	0,006	-0,097
-414,657	800,000	0,041	0,115
-413,642	41,475	-0,079	-0,051
-412,628	-200,000	-0,005	-0,045
-411,613	152,753	0,020	-0,019
-410,598	-200,000	-0,037	-0,137
-409,584	-3,336	0,122	0,061
-408,569	-126,127	-0,061	-0,006
-407,555	198,992	0,048	0,052
-406,540	562,451	0,057	0,099
-405,525	111,109	0,050	0,043
-404,511	-55,529	-0,155	0,049
-403,496	-50,980	-0,055	0,018
-402,482	88,874	-0,041	-0,032
-401,467	80,536	0,090	-0,069
-400,452	230,272	-0,083	0,097
-399,438	-200,000	0,008	0,069
-398,423	166,467	-0,114	0,116
-397,409	158,294	-0,061	0,060
-396,394	83,727	0,008	0,006
-395,379	-200,000	-0,011	-0,116
-394,365	-94,636	0,211	0,041
-393,350	800,000	-0,025	0,059
-392,336	149,165	0,103	-0,099
-391,321	-64,334	0,049	-0,014
-390,306	234,325	-0,116	-0,137
-389,292	142,237	0,040	-0,038
-388,277	800,000	0,019	0,049
-387,263	-111,782	0,069	-0,010
-386,248	73,380	0,037	-0,028
-385,233	-200,000	0,014	0,088
-384,219	-42,280	-0,093	-0,034
-383,204	800,000	0,029	0,070
-382,190	-200,000	0,001	0,056
-381,175	-200,000	-0,008	0,049
-380,160	800,000	0,037	0,102
-379,146	324,246	0,118	0,162
-378,131	-126,610	0,044	0,005
-377,117	-29,883	-0,079	-0,032
-376,102	-197,725	-0,042	0,000
-375,088	126,257	0,037	-0,034
-374,073	-112,342	-0,033	-0,005
-373,058	501,721	0,060	0,099
-372,044	-200,000	0,009	0,125
-371,029	-200,000	0,023	0,080
-370,015	-200,000	0,010	0,087
-369,000	800,000	0,054	-0,113
-367,985	277,124	-0,049	-0,062
-366,971	50,074	0,025	0,017
-365,956	-59,130	0,095	0,029
-364,942	9,241	0,019	0,010
-363,927	72,676	-0,082	-0,061
-362,912	-73,833	0,051	-0,013
-361,898	-200,000	-0,012	-0,084
-360,883	15,587	-0,165	-0,092
-359,869	-200,000	-0,003	0,128
-358,854	-90,038	-0,080	0,017
-357,839	-200,000	-0,002	0,016
-356,825	-82,879	-0,013	0,003
-355,810	694,002	0,046	-0,086
-354,796	-200,000	-0,001	-0,039
-353,781	151,395	-0,079	-0,077
-352,766	-43,581	0,082	0,029
-351,752	10,383	0,123	0,067
-350,737	-200,000	-0,017	-0,143
-349,723	-103,169	-0,057	0,009
-348,708	213,106	0,080	0,090
-347,693	-16,389	-0,065	0,029
-346,679	112,180	-0,035	-0,030
-345,664	-200,000	-0,032	-0,187
-344,650	312,083	-0,096	0,129
-343,635	-116,512	0,092	-0,012
-342,620	16,200	-0,083	0,047
-341,606	-200,000	0,012	-0,094
-340,591	-1,830	0,057	0,029
-339,577	-55,749	-0,069	-0,022
-338,562	140,999	0,084	-0,080
-337,548	62,429	-0,061	0,043
-336,533	-87,627	0,213	0,046
-335,518	-200,000	-0,010	-0,069
-334,504	116,555	0,166	0,145
-333,489	-61,637	-0,088	-0,026
-332,475	-200,000	0,032	-0,118
-331,460	428,320	-0,010	0,015
-330,445	325,430	-0,077	-0,105
-329,431	800,000	-0,056	0,112
-328,416	-26,563	0,044	0,018
-327,402	217,192	-0,100	0,114
-326,387	128,744	0,101	0,092
-325,372	800,000	0,032	-0,093
-324,358	-200,000	0,019	-0,087
-323,343	18,769	-0,108	-0,061
-322,329	14,151	-0,169	0,094
-321,314	382,815	0,078	-0,115
-320,299	-11,343	-0,080	0,037
-319,285	800,000	0,026	0,064
-318,270	81,256	0,008	0,006
-317,256	-14,004	-0,069	0,032
-316,241	-95,757	0,121	0,023
-315,226	800,000	0,077	0,231
-314,212	308,437	0,120	0,160
-313,197	-200,000	-0,001	0,188
-312,183	564,106	0,031	0,053
-311,168	28,550	-0,110	0,066
-310,153	-200,000	-0,005	0,045
-309,139	800,000	-0,011	-0,031
-308,124	-102,753	-0,109	-0,018
-307,110	-200,000	0,032	0,108
-306,095	470,472	0,080	0,129
-305,080	-56,609	0,276	0,086
-304,066	-200,000	-0,031	-0,172
-303,051	370,919	-0,066	-0,096
-302,037	-78,596	-0,114	0,027
-301,022	117,074	0,114	0,100
-300,008	-37,956	0,080	-0,030
-298,993	800,000	0,039	0,101
-297,978	-59,193	0,075	0,023
-296,964	-200,000	0,012	-0,063
-295,949	239,541	-0,110	-0,130
-294,935	-200,000	0,001	0,149
-293,920	-200,000	0,006	-0,037
-292,905	800,000	0,089	0,204
-291,891	-200,000	0,011	0,147
-290,876	800,000	0,078	0,156
-289,862	-65,378	-0,198	-0,056
-288,847	800,000	-0,021	-0,066
-287,832	139,178	-0,087	0,082
-286,818	256,279	0,119	0,145
-285,803	175,424	0,046	-0,047
-284,789	-82,336	0,071	0,016
-283,774	800,000	0,057	0,122
-282,759	79,136	-0,108	0,083
-281,745	47,517	0,022	-0,014
-280,730	-46,970	-0,129	-0,045
-279,716	-200,000	0,020	-0,139
-278,701	132,722	-0,058	-0,054
-277,686	-200,000	-0,029	0,116
-276,672	-181,285	0,066	-0,001
-275,657	-200,000	-0,012	0,176
-274,643	-20,313	-0,138	-0,060
-273,628	-130,627	-0,027	-0,003
-272,613	800,000	-0,054	-0,115
-271,599	205,029	0,069	-0,077
-270,584	-200,000	0,018	0,114
-269,570	-200,000	-0,014	0,069
-268,555	-148,932	0,154	-0,009
-267,540	313,825	0,011	-0,014
-266,526	-181,802	-0,214	-0,003
-265,511	-104,466	0,103	0,017
-264,497	108,191	0,108	0,092
-263,482	173,298	0,008	0,008
-262,467	-68,933	-0,071	-0,019
-261,453	800,000	-0,015	-0,037
-260,438	54,209	-0,088	0,060
-259,424	-9,009	-0,062	-0,030
-258,409	-96,863	-0,028	-0,005
-257,395	96,923	-0,131	0,107
-256,380	-115,245	0,052	-0,007
-255,365	-200,000	0,007	0,085
-254,351	298,008	-0,025	-0,033
-253,336	800,000	0,063	0,142
-252,322	182,972	0,083	0,087
-251,307	-200,000	-0,004	-0,103
-250,292	434,864	0,062	0,095
-249,278	-126,839	0,102	0,011
-248,263	-200,000	-0,004	0,132
-247,249	124,641	-0,148	0,133
-246,234	-86,141	-0,083	-0,018
-245,219	-200,000	-0,012	0,058
-244,205	-200,000	0,000	0,009
-243,190	-77,848	0,057	-0,014
-242,176	244,212	0,035	0,042
-241,161	-48,674	-0,103	0,035
-240,146	-101,715	-0,121	-0,021
-239,132	-200,000	0,014	0,049
-238,117	-200,000	-0,124	-0,000
-237,103	-200,000	-0,008	-0,031
-236,088	218,420	0,027	-0,030
-235,073	12,456	0,095	0,052
-234,059	-9,676	0,104	0,049
-233,044	-200,000	-0,012	-0,093
-232,030	237,610	0,046	-0,054
-231,015	-9,495	-0,126	0,060
-230,000	-200,000	-0,026	-0,145
-228,986	297,308	-0,039	0,050
-227,971	-101,088	-0,062	-0,011
-226,957	-124,096	0,140	0,015
-225,942	-200,000	-0,013	0,076
-224,927	65,188	0,121	-0,087
-223,913	-50,749	-0,163	0,054
-222,898	3,049	0,035	-0,018
-221,884	107,577	-0,087	-0,074
-220,869	485,518	0,050	0,081
-219,855	129,253	-0,047	0,043
-218,840	263,405	0,047	-0,059
-217,825	-104,753	-0,112	0,018
-216,811	-137,665	-0,075	-0,006
-215,796	-200,000	-0,007	-0,044
-214,782	-23,740	0,094	-0,040
-213,767	-152,252	0,142	-0,007
-212,752	62,734	0,073	0,052
-211,738	-200,000	0,005	0,056
-210,723	-86,987	-0,139	-0,030
-209,709	65,083	-0,034	0,024
-208,694	339,329	-0,038	-0,052
-207,679	-108,797	-0,114	-0,017
-206,665	49,115	0,110	-0,073
-205,650	-7,057	-0,038	0,018
-204,636	800,000	0,012	-0,025
-203,621	52,845	-0,099	0,067
-202,606	84,772	-0,091	-0,071
-201,592	29,600	0,115	0,069
-200,577	-113,386	-0,118	0,016
-199,563	-200,000	0,017	0,091
-198,548	434,936	0,048	0,074
-197,533	-32,320	-0,152	0,060
-196,519	139,037	0,162	0,151
-195,504	152,871	0,015	0,014
-194,490	429,916	-0,072	-0,111
-193,475	-42,430	-0,023	-0,008
-192,460	46,276	-0,051	0,034
-191,446	229,686	0,069	0,080
-190,431	-126,170	0,017	-0,002
-189,417	800,000	-0,018	-0,044
-188,402	53,792	0,038	0,026
-187,387	800,000	-0,038	-0,114
-186,373	-200,000	0,030	-0,158
-185,358	800,000	0,043	-0,110
-184,344	-200,000	0,024	-0,114
-183,329	77,382	0,118	0,089
-182,315	433,520	0,101	0,157
-181,300	-200,000	0,020	0,131
-180,285	-116,995	-0,148	0,019
-179,271	-69,140	0,136	0,037
-178,256	-200,000	-0,008	-0,067
-177,242	800,000	0,051	0,147
-176,227	386,933	-0,045	0,067
-175,212	8,250	0,095	0,050
-174,198	-68,655	-0,091	-0,025
-173,183	666,130	-0,115	-0,211
-172,169	800,000	-0,046	-0,091
-171,154	477,529	-0,045	-0,073
-170,139	-105,563	0,167	-0,027
-169,125	263,639	0,096	-0,118
-168,110	64,604	0,035	0,025
-167,096	193,009	0,091	0,097
-166,081	49,965	-0,058	0,039
-165,066	272,713	0,042	-0,053
-164,052	800,000	-0,072	-0,213
-163,037	-200,000	0,135	0,000
-162,023	800,000	0,015	0,039
-161,008	350,384	-0,015	-0,021
-159,993	662,185	0,036	0,066
-158,979	-26,849	-0,084	0,035
-157,964	-18,855	0,057	0,025
-156,950	-92,319	0,035	0,007
-155,935	800,000	-0,019	0,045
-154,920	-51,203	-0,089	0,029
-153,906	113,356	0,152	0,130
-152,891	82,320	-0,114	-0,087
-151,877	800,000	-0,029	-0,086
-150,862	112,979	0,100	-0,086
-149,847	-27,144	-0,022	0,009
-148,833	800,000	-0,016	0,047
-147,818	-200,000	0,003	-0,116
-146,804	12,464	0,087	0,047
-145,789	-200,000	0,046	0,146
-144,775	175,307	-0,087	-0,090
-143,760	-14,062	-0,121	-0,055
-142,745	-71,877	0,048	-0,012
-141,731	-200,000	-0,011	-0,083
-140,716	187,436	0,090	0,095
-139,702	-177,675	0,074	-0,001
-138,687	-200,000	0,015	0,211
-137,672	118,652	-0,059	-0,052
-136,658	795,947	0,047	0,092
-135,643	800,000	-0,097	-0,241
-134,629	119,062	0,057	-0,049
-133,614	133,039	-0,048	0,044
-132,599	218,525	0,081	0,092
-131,585	3,486	-0,059	-0,030
-130,570	-85,936	-0,101	-0,022
-129,556	-122,023	0,076	0,009
-128,541	-134,782	0,144	0,012
-127,526	800,000	-0,048	0,113
-126,512	-200,000	0,020	0,111
-125,497	-106,795	0,054	0,008
-124,483	800,000	0,041	0,124
-123,468	15,602	-0,117	0,065
-122,453	-188,482	-0,055	-0,000
-121,439	321,782	0,041	-0,055
-120,424	-30,591	0,051	-0,020
-119,410	-181,155	-0,091	-0,001
-118,395	483,303	0,067	0,108
-117,380	-162,344	0,067	-0,002
-116,366	42,477	-0,103	0,066
-115,351	-18,042	-0,080	0,035
-114,337	204,998	-0,055	0,060
-113,322	800,000	-0,024	-0,059
-112,307	219,442	0,083	0,094
-111,293	127,731	-0,018	0,016
-110,278	-123,724	-0,092	-0,010
-109,264	118,163	-0,083	-0,073
-108,249	800,000	0,051	-0,112
-107,234	-31,040	-0,059	0,023
-106,220	-134,795	0,029	0,002
-105,205	485,284	0,123	0,199
-104,191	-200,000	-0,014	-0,047
-103,176	146,899	-0,055	-0,053
-102,162	-23,773	0,151	0,064
-101,147	-86,493	-0,201	0,043
-100,132	31,433	-0,122	0,074
-99,118	167,033	-0,158	-0,159
-98,103	800,000	0,016	-0,046
-97,089	-155,485	0,162	0,007
-96,074	-106,901	-0,082	-0,013
-95,059	800,000	-0,044	0,115
-94,045	800,000	0,060	-0,148
-93,030	33,451	-0,100	0,061
-92,016	575,450	-0,097	0,169
-91,001	-200,000	-0,015	-0,049
-89,986	-200,000	-0,035	0,124
-88,972	-25,725	0,094	0,039
-87,957	176,507	-0,043	-0,044
-86,943	69,200	-0,009	-0,007
-85,928	15,838	-0,053	0,030
-84,913	800,000	0,052	-0,157
-83,899	-65,754	-0,105	-0,030
-82,884	800,000	0,039	-0,090
-81,870	800,000	0,057	0,126
-80,855	141,446	-0,122	0,115
-79,840	-92,218	0,102	0,020
-78,826	-54,447	-0,107	-0,034
-77,811	-64,508	0,062	-0,018
-76,797	103,777	-0,026	0,022
-75,782	-126,124	-0,064	-0,007
-74,767	-96,623	-0,064	-0,012
-73,753	778,575	0,033	0,065
-72,738	21,515	-0,136	0,078
-71,724	-200,000	-0,020	-0,179
-70,709	181,599	-0,027	-0,028
-69,694	162,882	0,060	-0,059
-68,680	-200,000	0,007	0,119
-67,665	-168,560	0,130	0,003
-66,651	484,436	0,052	-0,084
-65,636	-81,596	-0,095	-0,022
-64,622	-200,000	0,074	-0,334
-63,607	147,331	-0,129	0,123
-62,592	-19,331	0,008	0,004
-61,578	15,985	-0,091	-0,050
-60,563	-63,308	0,089	0,026
-59,549	-200,000	0,016	0,094
-58,534	34,332	-2,123	-1,304
-57,519	462,441	-1,278	-2,019
-56,505	-200,000	-0,292	-4,261
-55,490	655,703	0,969	1,764
-54,476	800,000	5,016	11,109
-53,461	-200,000	21,661	343,043
-52,446	800,000	762,825	2347,721
-51,432	548,960	1661,788	2820,663
-50,417	71,661	1657,872	1214,163
-49,403	17,309	1531,113	855,191
-48,388	11,347	1455,053	783,928
-47,373	19,327	1446,613	817,568
-46,359	14,891	1435,629	790,282
-45,344	9,625	1431,713	763,064
-44,330	9,580	1429,610	761,700
-43,315	9,556	1428,039	760,719
-42,300	9,557	1426,282	759,757
-41,286	9,564	1424,936	759,044
-40,271	9,534	1423,821	758,278
-39,257	9,515	1422,588	757,501
-38,242	9,582	1421,401	757,156
-37,227	9,579	1420,532	756,649
-36,213	9,573	1418,862	755,702
-35,198	9,614	1417,817	755,309
-34,184	9,630	1417,026	754,931
-33,169	9,489	1415,928	753,652
-32,154	9,558	1414,583	753,233
-31,140	9,555	1413,381	752,548
-30,125	9,589	1412,163	752,027
-29,111	9,587	1411,022	751,383
-28,096	9,566	1409,791	750,597
-27,082	9,537	1408,654	749,826
-26,067	9,532	1407,624	749,227
-25,052	9,516	1406,589	748,571
-24,038	9,565	1405,639	748,262
-23,023	9,548	1404,735	747,671
-22,009	9,519	1403,760	746,990
-20,994	9,506	1402,884	746,434
-19,979	9,505	1401,772	745,805
-18,965	9,508	1400,889	745,319
-17,950	9,473	1399,862	744,583
-16,936	9,504	1398,723	744,093
-15,921	9,412	1398,320	743,420
-14,906	9,422	1397,173	742,827
-13,892	9,505	1396,075	742,599
-12,877	9,460	1395,391	741,999
-11,863	9,494	1394,482	741,643
-10,848	9,427	1393,629	740,848
-9,833	9,380	1392,560	740,031
-8,819	9,368	1391,806	739,545
-7,804	9,360	1390,985	739,046
-6,790	9,342	1389,825	738,318
-5,775	9,318	1388,835	737,650
-4,760	9,308	1387,950	737,103
-3,746	9,377	1386,937	736,857
-2,731	9,292	1386,238	736,062
-1,717	9,319	1385,282	735,652
-0,702	9,347	1383,518	734,812
0,313	13,378	1295,836	706,634
1,327	29,362	687,211	410,843
2,342	45,705	118,687	77,211
3,356	-0,036	16,426	8,220
4,371	18,213	3,630	2,037
5,386	2,494	1,253	0,638
6,400	421,665	0,362	0,549
7,415	-54,174	-0,234	0,074
8,429	122,583	-0,298	-0,263
9,444	215,728	-0,205	-0,230
10,459	8,409	-0,241	-0,127
11,473	11,018	-0,352	-0,189
12,488	66,861	-0,258	-0,185
13,502	-57,868	-0,353	-0,108
14,517	-52,206	-0,230	-0,075
15,531	-7,576	-0,499	-0,237
16,546	94,583	-0,237	-0,190
17,561	57,715	-0,327	-0,225
18,575	-92,307	-0,156	-0,031
19,590	-57,880	-0,218	-0,067
20,604	-133,478	-0,344	0,030
21,619	23,569	-0,413	-0,239
22,634	17,525	-0,565	-0,315
23,648	219,539	-0,347	-0,391
24,663	297,073	-0,250	-0,324
25,677	8,201	-0,392	-0,207
26,692	145,935	-0,315	-0,297
27,707	11,453	-0,344	-0,185
28,721	135,202	-0,368	-0,336
29,736	70,807	-0,425	-0,309
30,750	55,716	-0,413	-0,281
31,765	22,703	-0,453	-0,260
32,780	56,175	-0,417	-0,284
33,794	2,326	-0,310	-0,157
34,809	240,371	-0,199	-0,234
35,823	-23,195	-0,381	-0,160
36,838	62,514	-0,374	-0,262
37,853	-57,421	-0,496	-0,152
38,867	109,649	-0,365	-0,307
39,882	53,949	-0,311	-0,210
40,896	38,886	-0,217	-0,136
41,911	-24,498	-0,444	-0,185
42,926	-4,266	-0,416	-0,202
43,940	33,114	-0,325	-0,198
44,955	379,506	-0,289	-0,417
45,969	202,676	-0,314	-0,341
46,984	216,637	-0,217	-0,243
47,999	316,214	-0,188	-0,250
49,013	178,670	-0,173	-0,177
50,028	-98,460	-0,449	-0,080
51,042	108,701	-0,396	-0,332
52,057	-75,905	-0,409	-0,101
53,071	-3,987	-0,377	-0,183
54,086	18,792	-0,355	-0,199
55,101	177,876	-0,216	-0,221
56,115	71,225	-0,322	-0,234
57,130	53,166	-0,274	-0,184
58,144	82,260	-0,395	-0,300
59,159	51,157	-0,423	-0,281
60,174	-67,101	-0,393	-0,108
61,188	2,568	-0,370	-0,187
62,203	-53,873	-0,330	-0,105
63,217	98,294	-0,198	-0,160
64,232	-58,419	-0,356	-0,108
65,247	83,460	-0,328	-0,251
66,261	3,932	-0,373	-0,191
67,276	47,906	-0,398	-0,260
68,290	36,607	-0,367	-0,226
69,305	-19,758	-0,207	-0,089
70,320	22,654	-0,330	-0,189
71,334	64,084	-0,329	-0,232
72,349	192,605	-0,161	-0,170
73,363	264,176	-0,269	-0,329
74,378	14,653	-0,358	-0,196
75,393	13,132	-0,303	-0,164
76,407	-72,007	-0,317	-0,082
77,422	168,470	-0,216	-0,216
78,436	96,970	-0,268	-0,215
79,451	91,882	-0,305	-0,240
80,466	-17,533	-0,437	-0,191
81,480	27,661	-0,266	-0,157
82,495	483,426	-0,160	-0,255
83,509	4,289	-0,372	-0,190
84,524	189,305	-0,197	-0,207
85,539	74,802	-0,197	-0,145
86,553	-104,647	-0,218	-0,035
87,568	72,843	-0,357	-0,261
88,582	30,304	-0,248	-0,148
89,597	-27,999	-0,371	-0,150
90,611	71,545	-0,282	-0,205
91,626	2,864	-0,253	-0,128
92,641	-31,315	-0,151	-0,059
93,655	-8,478	-0,292	-0,137
94,670	103,959	-0,283	-0,233
95,684	256,196	-0,258	-0,310
96,699	-110,911	-0,380	-0,054
97,714	208,461	-0,201	-0,221
98,728	21,360	-0,275	-0,156
99,743	-3,502	-0,226	-0,110
100,757	-149,582	-0,267	-0,015
101,772	90,165	-0,169	-0,132
102,787	27,827	-0,256	-0,151
103,801	20,669	-0,264	-0,149
104,816	-18,607	-0,302	-0,131
105,830	31,924	-0,219	-0,132
106,845	-69,143	-0,226	-0,060
107,860	7,815	-0,236	-0,123
108,874	-28,876	-0,363	-0,145
109,889	344,886	-0,215	-0,295
110,903	37,846	-0,290	-0,180
111,918	20,126	-0,322	-0,181
112,933	800,000	-0,085	-0,180
113,947	212,655	-0,254	-0,280
114,962	58,646	-0,324	-0,222
115,976	213,444	-0,083	-0,092
116,991	-40,622	-0,318	-0,114
118,006	-33,551	-0,341	-0,131
119,020	13,825	-0,207	-0,112
120,035	131,028	-0,242	-0,217
121,049	378,200	-0,123	-0,176
122,064	151,160	-0,201	-0,191
123,079	-2,202	-0,192	-0,094
124,093	41,554	-0,360	-0,227
125,108	186,153	-0,195	-0,202
126,122	-25,073	-0,137	-0,056
127,137	-38,140	-0,345	-0,127
128,151	294,415	-0,167	-0,213
129,166	96,429	-0,155	-0,123
130,181	28,529	-0,213	-0,126
131,195	192,732	-0,272	-0,287
132,210	-23,421	-0,311	-0,130
133,224	72,424	-0,269	-0,195
134,239	-133,698	-0,233	0,020
135,254	80,820	-0,280	-0,210
136,268	65,812	-0,318	-0,224
137,283	-14,347	-0,238	-0,107
138,297	8,412	-0,268	-0,140
139,312	17,341	-0,240	-0,132
140,327	86,794	-0,282	-0,217
141,341	-107,642	-0,253	-0,038
142,356	5,758	-0,210	-0,108
143,370	114,930	-0,105	-0,089
144,385	266,421	-0,110	-0,134
145,400	439,291	-0,211	-0,322
146,414	206,961	-0,234	-0,254
147,429	186,511	-0,284	-0,295
148,443	-30,302	-0,269	-0,106
149,458	281,936	-0,154	-0,192
150,473	69,211	-0,164	-0,117
151,487	18,406	-0,290	-0,161
152,502	69,803	-0,195	-0,140
153,516	194,041	-0,216	-0,228
154,531	-139,967	-0,293	-0,021
155,546	-14,727	-0,194	-0,087
156,560	-88,045	-0,259	-0,054
157,575	61,938	-0,250	-0,173
158,589	-42,455	-0,282	-0,099
159,604	-45,376	-0,221	-0,076
160,619	64,887	-0,415	-0,291
161,633	159,580	-0,219	-0,212
162,648	58,885	-0,250	-0,170
163,662	68,565	-0,209	-0,149
164,677	-63,861	-0,078	-0,022
165,692	-155,421	-0,239	0,011
166,706	137,346	-0,161	-0,147
167,721	102,223	-0,205	-0,166
168,735	17,151	-0,266	-0,146
169,750	251,312	-0,128	-0,151
170,764	242,094	-0,193	-0,225
171,779	34,521	-0,241	-0,146
172,794	264,775	-0,120	-0,146
173,808	800,000	-0,067	-0,178
174,823	-7,073	-0,303	-0,142
175,837	107,282	-0,355	-0,293
176,852	132,245	-0,161	-0,144
177,867	79,633	-0,157	-0,117
178,881	31,965	-0,141	-0,084
179,896	198,867	-0,187	-0,199
180,910	90,459	-0,288	-0,223
181,925	217,413	-0,236	-0,261
182,940	96,753	-0,249	-0,198
183,954	-28,953	-0,210	-0,083
184,969	800,000	-0,123	-0,267
185,983	683,421	-0,071	-0,129
186,998	-9,349	-0,231	-0,107
188,013	45,196	-0,284	-0,182
189,027	27,431	-0,341	-0,198
190,042	278,488	-0,252	-0,312
191,056	294,470	-0,202	-0,257
192,071	176,265	-0,243	-0,245
193,086	14,524	-0,141	-0,076
194,100	88,118	-0,173	-0,133
195,115	544,385	-0,209	-0,348
196,129	-42,255	-0,345	-0,121
197,144	388,828	-0,159	-0,230
198,159	19,479	-0,287	-0,159
199,173	-15,557	-0,366	-0,161
200,188	13,663	-0,153	-0,082
201,202	-16,915	-0,332	-0,145
202,217	-124,459	-0,201	-0,021
203,232	-108,365	-0,224	-0,033
204,246	42,004	-0,281	-0,176
205,261	-86,762	-0,158	-0,033
206,275	-105,020	-0,261	-0,041
207,290	-20,771	-0,156	-0,066
208,304	-62,393	-0,056	0,016
209,319	800,000	-0,100	-0,271
210,334	154,234	-0,119	-0,113
211,348	99,768	-0,300	-0,241
212,363	11,707	-0,128	-0,068
213,377	88,210	-0,312	-0,240
214,392	-46,785	-0,210	-0,071
215,407	159,523	-0,187	-0,180
216,421	134,698	-0,208	-0,187
217,436	55,895	-0,217	-0,145
218,450	-10,356	-0,219	-0,100
219,465	453,692	-0,124	-0,191
220,480	92,268	-0,122	-0,095
221,494	342,786	-0,131	-0,177
222,509	-87,939	-0,116	-0,024
223,523	-37,233	-0,170	0,063
224,538	-3,864	-0,120	-0,057
225,553	76,648	-0,141	-0,103
226,567	136,009	-0,158	-0,143
227,582	-122,075	-0,257	-0,029
228,596	300,479	-0,093	-0,119
229,611	98,661	-0,071	-0,057
230,626	163,329	-0,212	-0,206
231,640	-47,331	-0,172	-0,058
232,655	79,606	-0,203	-0,150
233,669	43,882	-0,251	-0,159
234,684	-1,187	-0,243	-0,118
235,699	1,748	-0,082	-0,041
236,713	-200,000	-0,007	-0,194
237,728	497,149	-0,123	-0,196
238,742	-145,148	-0,223	-0,014
239,757	-200,000	-0,009	-0,249
240,772	23,632	-0,339	-0,192
241,786	-20,045	-0,200	-0,085
242,801	-12,787	-0,274	-0,123
243,815	-97,144	-0,049	0,009
244,830	237,142	-0,124	-0,142
245,844	70,300	-0,146	-0,104
246,859	0,630	-0,248	-0,122
247,874	-154,012	-0,158	0,007
248,888	85,195	-0,132	-0,100
249,903	-99,491	-0,226	-0,039
250,917	-23,132	-0,201	-0,083
251,932	-128,108	-0,179	-0,017
252,947	-122,021	-0,246	0,027
253,961	800,000	-0,128	-0,283
254,976	-200,000	-0,023	-0,158
255,990	188,955	-0,197	-0,204
257,005	-86,691	-0,197	-0,041
258,020	97,347	-0,176	-0,139
259,034	33,609	-0,177	-0,106
260,049	-99,982	-0,176	0,030
261,063	16,240	-0,192	-0,104
262,078	84,989	-0,244	-0,184
263,093	120,526	-0,277	-0,237
264,107	6,261	-0,146	-0,074
265,122	41,419	-0,168	-0,105
266,136	800,000	-0,054	-0,116
267,151	124,533	-0,131	-0,113
268,166	-200,000	-0,213	0,001
269,180	84,829	-0,257	-0,194
270,195	-104,199	-0,244	-0,039
271,209	73,994	-0,214	-0,154
272,224	87,525	-0,265	-0,202
273,239	-10,947	-0,113	-0,051
274,253	-171,923	-0,135	-0,003
275,268	299,724	-0,120	-0,152
276,282	155,165	-0,197	-0,187
277,297	122,061	-0,182	-0,156
278,312	12,822	-0,219	-0,116
279,326	-56,474	-0,104	0,032
280,341	42,027	-0,101	-0,063
281,355	345,646	-0,153	-0,207
282,370	-50,534	-0,231	-0,075
283,384	-68,209	-0,180	-0,048
284,399	89,408	-0,212	-0,162
285,414	458,978	-0,048	-0,073
286,428	167,477	-0,169	-0,165
287,443	-200,000	-0,003	-0,082
288,457	140,557	-0,142	-0,129
289,472	-200,000	0,003	-0,074
290,487	-134,667	-0,209	-0,017
291,501	1,118	-0,208	-0,102
292,516	-57,005	-0,056	-0,017
293,530	-84,153	-0,211	-0,046
294,545	-135,401	-0,095	0,008
295,560	326,716	-0,144	-0,190
296,574	-84,830	-0,215	-0,046
297,589	41,220	-0,167	-0,104
298,603	129,230	-0,175	-0,154
299,618	280,638	-0,046	-0,057
300,633	-161,288	-0,088	0,003
301,647	-131,924	-0,113	0,010
302,662	800,000	0,019	-0,052
303,676	-103,702	-0,160	0,026
304,691	-97,182	-0,356	-0,063
305,706	29,678	-0,133	-0,078
306,720	-200,000	-0,017	-0,111
307,735	76,558	-0,033	0,024
308,749	-0,763	-0,057	-0,028
309,764	-99,129	-0,191	-0,033
310,779	-200,000	-0,158	0,000
311,793	11,597	-0,092	-0,048
312,808	800,000	-0,080	-0,213
313,822	179,707	-0,150	-0,151
314,837	158,367	-0,092	-0,088
315,852	81,933	-0,118	-0,088
316,866	61,744	-0,045	-0,031
317,881	111,952	-0,112	-0,093
318,895	73,255	-0,147	-0,106
319,910	78,614	-0,194	-0,142
320,925	800,000	-0,093	-0,192
321,939	-200,000	-0,030	-0,125
322,954	7,576	-0,103	-0,052
323,968	-139,283	-0,099	0,007
324,983	800,000	-0,049	-0,132
325,997	253,781	-0,058	-0,068
327,012	81,935	-0,153	-0,113
328,027	-58,064	-0,300	-0,089
329,041	-182,848	-0,202	-0,002
330,056	800,000	-0,014	0,041
331,070	-38,883	-0,104	0,037
332,085	-78,844	-0,115	-0,027
333,100	521,271	-0,067	-0,107
334,114	-142,657	-0,245	-0,016
335,129	-18,224	-0,190	-0,081
336,143	-200,000	-0,198	0,001
337,158	-85,992	-0,167	-0,035
338,173	241,892	-0,072	-0,083
339,187	228,659	-0,051	-0,057
340,202	-29,995	-0,133	-0,052
341,216	-175,688	-0,231	0,004
342,231	800,000	-0,110	-0,291
343,246	161,894	-0,108	-0,104
344,260	-91,844	-0,062	0,012
345,275	180,960	-0,146	-0,147
346,289	47,808	-0,088	-0,056
347,304	-200,000	-0,019	-0,086
348,319	183,111	-0,184	-0,187
349,333	337,242	-0,063	-0,084
350,348	-136,977	-0,209	-0,016
351,362	-25,724	-0,163	-0,066
352,377	-105,911	-0,167	0,026
353,392	202,475	-0,154	-0,162
354,406	592,332	-0,041	-0,069
355,421	207,111	1306,869	1394,857
356,435	159,316	1466,599	1395,345
