DTS Sentinel unit serial number:	SN410029Multiplexer serial number:	ORYXHardware model number:	OX2-SRSoftware version number:	ORYX F/W v4,00 Oryx Data Collector v3.7.2.0data status	okinstallation	B3 Nyhavnadifferential loss correction	single-endedforward channel	channel 1reverse channel	N/Adate	2023/12/03time	12:52:30forward acquisition time	300,00reverse acquisition time	0,00gamma	499,1914k internal	0,3201k external	0,3201temperature offset calibration	1,0000default loss term (dB/km)	0,3820temperature slope calibration	1,0000multiplexer offset coefficient	1,0000multiplexer slope coefficient	1,0000fibre end	0,00T internal ref (°C)	14,43T ext. ref 1 (°C)	0,67T ext. ref 2 (°C)	0,65length (m)	temperature (°C)	Stokes	anti-Stokes-744,400	257,271	-0,333	-0,417
-743,385	-200,000	0,077	0,318
-742,371	312,566	-0,071	-0,097
-741,356	589,567	0,200	0,360
-740,342	-158,219	-0,232	-0,010
-739,327	-200,000	-0,017	0,354
-738,312	72,233	-0,178	-0,135
-737,298	737,063	-0,083	0,163
-736,283	800,000	-0,166	-0,358
-735,269	319,961	0,185	0,256
-734,254	99,587	-0,222	-0,187
-733,239	-54,978	-0,193	0,063
-732,225	-200,000	-0,050	-0,197
-731,210	5,812	0,108	0,058
-730,196	334,184	0,108	0,152
-729,181	329,352	0,060	0,084
-728,167	-200,000	-0,009	-0,084
-727,152	300,592	-0,045	-0,061
-726,137	800,000	0,041	0,127
-725,123	-143,067	-0,011	-0,001
-724,108	502,470	-0,102	-0,171
-723,094	761,017	-0,065	-0,129
-722,079	482,707	0,018	-0,030
-721,064	-200,000	-0,025	0,118
-720,050	-102,187	0,072	-0,012
-719,035	137,063	0,080	-0,076
-718,021	800,000	0,019	-0,051
-717,006	-200,000	-0,032	-0,106
-715,991	-112,174	-0,108	-0,016
-714,977	161,172	-0,066	-0,067
-713,962	242,101	-0,034	0,041
-712,948	86,868	-0,041	0,033
-711,933	-153,959	0,117	-0,006
-710,918	58,034	0,067	0,047
-709,904	800,000	-0,019	-0,042
-708,889	129,878	-0,136	-0,126
-707,875	-200,000	-0,003	-0,241
-706,860	800,000	0,028	-0,061
-705,845	90,452	-0,036	-0,029
-704,831	133,037	0,040	-0,038
-703,816	123,118	-0,106	0,096
-702,802	-159,686	-0,184	-0,007
-701,787	800,000	-0,024	0,058
-700,772	485,517	-0,039	0,065
-699,758	-200,000	0,001	0,064
-698,743	472,978	0,036	0,059
-697,729	-102,438	0,102	0,018
-696,714	-68,613	-0,194	0,054
-695,699	16,197	0,105	-0,060
-694,685	4,016	0,076	-0,040
-693,670	-119,801	-0,114	-0,014
-692,656	-95,264	0,045	-0,009
-691,641	481,473	0,048	0,080
-690,627	-200,000	-0,100	-0,000
-689,612	-55,562	-0,097	-0,031
-688,597	-200,000	0,027	-0,099
-687,583	-20,582	-0,053	0,024
-686,568	384,569	0,017	-0,026
-685,554	4,970	0,049	-0,026
-684,539	-200,000	0,018	-0,063
-683,524	288,432	0,010	-0,013
-682,510	42,388	0,079	0,052
-681,495	89,578	-0,081	-0,065
-680,481	56,432	-0,106	-0,075
-679,466	-16,442	-0,012	0,006
-678,451	82,200	0,028	0,022
-677,437	35,060	0,088	0,056
-676,422	-17,086	-0,081	0,037
-675,408	800,000	0,022	-0,065
-674,393	185,975	0,030	-0,032
-673,378	-2,673	-0,166	0,084
-672,364	-122,372	-0,113	-0,013
-671,349	-200,000	-0,027	0,176
-670,335	189,292	-0,072	0,079
-669,320	800,000	-0,062	0,145
-668,305	-62,604	0,086	0,026
-667,291	83,314	-0,076	0,060
-666,276	-200,000	0,019	0,067
-665,262	-200,000	-0,012	-0,038
-664,247	-100,703	-0,035	0,006
-663,232	-200,000	0,019	-0,078
-662,218	-50,665	0,035	0,012
-661,203	-182,145	0,083	0,001
-660,189	345,644	-0,059	-0,084
-659,174	-1,117	-0,108	-0,055
-658,159	-34,851	-0,100	-0,040
-657,145	323,549	-0,107	-0,149
-656,130	-5,898	0,095	-0,047
-655,116	800,000	0,014	-0,045
-654,101	-200,000	-0,000	0,071
-653,086	-56,521	-0,086	0,027
-652,072	-200,000	0,003	0,012
-651,057	-45,270	-0,119	0,042
-650,043	-200,000	-0,020	-0,120
-649,028	-200,000	0,012	0,061
-648,014	316,555	0,071	-0,098
-646,999	-163,128	-0,061	0,002
-645,984	-200,000	-0,017	0,110
-644,970	547,554	-0,051	0,089
-643,955	-132,944	-0,094	0,009
-642,941	-200,000	-0,001	0,020
-641,926	-175,563	-0,011	0,000
-640,911	2,014	-0,116	0,060
-639,897	281,231	0,027	0,035
-638,882	11,748	-0,015	-0,008
-637,868	579,944	-0,028	0,049
-636,853	331,728	0,035	-0,049
-635,838	303,669	-0,032	0,043
-634,824	60,923	-0,039	-0,028
-633,809	0,461	-0,024	-0,012
-632,795	151,416	-0,061	0,060
-631,780	-200,000	-0,008	0,031
-630,765	57,484	-0,039	-0,027
-629,751	-57,931	-0,080	-0,025
-628,736	-200,000	0,007	-0,184
-627,722	800,000	-0,033	-0,067
-626,707	-200,000	0,002	-0,156
-625,692	-117,435	0,066	0,009
-624,678	53,207	-0,054	-0,037
-623,663	-21,905	-0,068	-0,030
-622,649	334,250	-0,056	-0,079
-621,634	216,505	-0,092	-0,107
-620,619	444,904	0,038	-0,061
-619,605	615,224	0,059	0,108
-618,590	1,922	0,054	-0,028
-617,576	140,054	-0,114	-0,109
-616,561	54,263	0,019	-0,013
-615,546	-74,151	-0,054	-0,014
-614,532	320,433	-0,073	-0,101
-613,517	161,084	0,054	0,055
-612,503	-63,537	0,109	0,032
-611,488	-77,381	-0,154	-0,038
-610,474	-29,894	0,124	-0,051
-609,459	-37,613	-0,115	-0,044
-608,444	-8,216	-0,097	-0,047
-607,430	146,262	-0,106	-0,103
-606,415	622,592	-0,043	-0,079
-605,401	-33,005	-0,086	0,035
-604,386	-10,074	0,027	0,013
-603,371	255,100	-0,065	-0,081
-602,357	-27,399	0,091	-0,038
-601,342	567,587	0,054	-0,095
-600,328	5,784	-0,226	-0,121
-599,313	-200,000	-0,022	-0,078
-598,298	378,995	0,029	0,043
-597,284	-9,644	0,090	0,043
-596,269	800,000	-0,033	-0,070
-595,255	-200,000	-0,027	0,149
-594,240	697,301	-0,020	-0,038
-593,225	652,437	-0,027	-0,051
-592,211	-200,000	-0,005	0,079
-591,196	587,951	-0,041	-0,073
-590,182	495,772	0,052	-0,086
-589,167	-144,191	0,083	0,006
-588,152	-200,000	0,004	-0,020
-587,138	-200,000	0,009	-0,148
-586,123	-200,000	0,010	-0,185
-585,109	-14,974	-0,041	0,019
-584,094	-102,959	-0,111	-0,019
-583,079	668,624	0,090	-0,168
-582,065	-119,061	-0,066	0,008
-581,050	-138,448	0,040	0,003
-580,036	-52,918	-0,132	-0,044
-579,021	9,492	-0,089	-0,048
-578,006	-200,000	-0,012	-0,052
-576,992	103,222	-0,096	0,081
-575,977	-99,258	-0,056	0,010
-574,963	-200,000	-0,009	-0,101
-573,948	211,852	0,044	-0,050
-572,934	-200,000	-0,005	0,020
-571,919	800,000	-0,010	0,023
-570,904	-200,000	-0,003	-0,025
-569,890	35,227	0,113	-0,071
-568,875	12,378	0,025	0,014
-567,861	342,605	-0,078	-0,111
-566,846	-200,000	0,042	0,195
-565,831	-200,000	0,037	0,124
-564,817	362,091	-0,077	-0,113
-563,802	-200,000	-0,044	-0,211
-562,788	800,000	-0,012	0,025
-561,773	27,886	0,091	0,055
-560,758	-175,259	0,011	-0,000
-559,744	291,948	0,075	0,099
-558,729	800,000	0,044	0,140
-557,715	-200,000	0,008	0,060
-556,700	-200,000	0,011	0,041
-555,685	-200,000	-0,012	-0,061
-554,671	-129,141	0,043	0,004
-553,656	654,439	-0,032	-0,059
-552,642	-122,459	0,094	-0,011
-551,627	800,000	0,041	0,083
-550,612	222,706	-0,061	-0,071
-549,598	800,000	0,018	-0,043
-548,583	800,000	-0,045	-0,104
-547,569	168,555	0,070	0,072
-546,554	-7,976	0,137	0,066
-545,539	-2,947	0,127	-0,064
-544,525	212,206	0,034	-0,039
-543,510	-64,574	-0,123	0,036
-542,496	161,865	-0,048	-0,048
-541,481	14,006	0,093	-0,052
-540,466	217,202	0,055	0,063
-539,452	429,542	0,059	-0,093
-538,437	250,776	0,128	0,157
-537,423	80,608	0,039	0,030
-536,408	-153,912	-0,134	-0,006
-535,393	204,875	-0,102	-0,114
-534,379	-11,664	-0,054	-0,026
-533,364	800,000	-0,051	-0,142
-532,350	37,158	-0,054	-0,035
-531,335	800,000	0,102	0,238
-530,321	184,076	0,025	0,027
-529,306	800,000	0,050	-0,136
-528,291	-200,000	0,006	-0,025
-527,277	306,449	0,037	-0,049
-526,262	-200,000	-0,014	-0,201
-525,248	547,926	0,066	0,114
-524,233	800,000	0,046	0,129
-523,218	-68,304	0,079	0,022
-522,204	800,000	0,020	-0,047
-521,189	-200,000	0,013	-0,069
-520,175	-64,293	0,062	-0,018
-519,160	66,515	0,032	-0,024
-518,145	152,553	0,088	0,087
-517,131	-200,000	-0,013	0,067
-516,116	271,443	-0,026	-0,033
-515,102	104,722	-0,191	-0,162
-514,087	800,000	-0,040	-0,082
-513,072	-86,367	-0,072	0,016
-512,058	166,509	0,077	0,079
-511,043	155,149	0,114	-0,113
-510,029	174,630	-0,062	-0,065
-509,014	64,041	0,065	0,047
-507,999	800,000	0,018	-0,040
-506,985	-72,277	-0,108	-0,029
-505,970	-36,759	-0,023	0,009
-504,956	184,937	-0,025	0,027
-503,941	405,988	0,070	-0,107
-502,926	-68,338	-0,095	-0,026
-501,912	66,414	0,027	0,020
-500,897	-200,000	0,046	0,150
-499,883	672,384	-0,051	-0,096
-498,868	-70,790	0,056	-0,015
-497,853	800,000	0,030	-0,090
-496,839	800,000	0,019	-0,057
-495,824	800,000	-0,010	0,030
-494,810	-22,840	0,109	0,047
-493,795	-48,841	0,082	0,028
-492,781	-144,292	-0,088	-0,006
-491,766	-81,888	-0,033	0,008
-490,751	-200,000	-0,015	-0,067
-489,737	800,000	-0,076	0,191
-488,722	449,768	0,088	0,140
-487,708	-200,000	-0,004	-0,133
-486,693	53,011	-0,152	0,104
-485,678	-136,786	0,086	-0,007
-484,664	65,568	-0,009	-0,007
-483,649	-43,712	-0,137	0,050
-482,635	-116,187	0,072	-0,009
-481,620	-12,054	0,136	0,064
-480,605	99,131	-0,016	0,014
-479,591	139,038	0,030	0,029
-478,576	449,380	-0,051	0,081
-477,562	226,751	-0,066	-0,077
-476,547	110,322	-0,108	-0,093
-475,532	-92,239	-0,119	-0,024
-474,518	0,156	-0,041	0,021
-473,503	46,523	0,044	-0,030
-472,489	797,670	-0,023	0,046
-471,474	172,527	-0,029	-0,031
-470,459	38,223	-0,070	-0,045
-469,445	-113,052	0,075	-0,010
-468,430	800,000	0,055	0,124
-467,416	141,423	-0,014	0,013
-466,401	-200,000	-0,025	0,085
-465,386	192,054	-0,041	0,045
-464,372	287,457	0,046	0,060
-463,357	-9,998	-0,165	-0,079
-462,343	103,064	0,054	-0,045
-461,328	17,059	0,098	0,056
-460,313	-200,000	-0,013	0,089
-459,299	469,974	0,032	0,052
-458,284	73,635	0,093	0,070
-457,270	43,046	-0,168	0,110
-456,255	-37,900	-0,014	-0,005
-455,241	169,196	-0,111	0,114
-454,226	-121,800	-0,105	0,012
-453,211	800,000	-0,029	-0,090
-452,197	-64,827	0,088	0,026
-451,182	320,148	-0,036	0,049
-450,168	-53,129	-0,160	0,052
-449,153	265,256	-0,040	-0,050
-448,138	100,131	-0,126	-0,105
-447,124	133,978	0,030	-0,028
-446,109	-37,728	-0,103	0,039
-445,095	539,793	0,067	0,116
-444,080	656,781	0,076	0,141
-443,065	-200,000	0,013	0,204
-442,051	62,723	-0,049	0,035
-441,036	89,436	-0,090	-0,072
-440,022	-14,182	-0,055	-0,026
-439,007	225,947	-0,045	0,053
-437,992	-129,724	0,214	-0,021
-436,978	-74,241	0,099	0,025
-435,963	662,061	-0,075	0,139
-434,949	-55,341	-0,048	-0,016
-433,934	800,000	-0,020	-0,059
-432,919	143,372	-0,050	-0,048
-431,905	-200,000	0,021	0,147
-430,890	-200,000	-0,020	0,089
-429,876	268,264	-0,005	-0,006
-428,861	411,455	0,054	0,083
-427,846	73,840	-0,081	0,061
-426,832	-172,327	0,096	0,002
-425,817	800,000	0,046	0,144
-424,803	269,234	0,091	0,115
-423,788	194,226	0,062	-0,068
-422,773	-200,000	-0,009	0,102
-421,759	310,580	-0,019	-0,026
-420,744	-90,111	0,035	0,007
-419,730	-104,147	-0,098	-0,016
-418,715	-200,000	0,000	-0,051
-417,701	-200,000	0,020	0,064
-416,686	328,296	-0,053	0,073
-415,671	149,860	0,060	-0,058
-414,657	98,261	0,027	-0,023
-413,642	177,699	-0,026	0,027
-412,628	51,257	-0,176	0,120
-411,613	-52,227	0,043	-0,014
-410,598	17,725	0,017	0,010
-409,584	800,000	0,013	0,037
-408,569	261,511	-0,085	0,106
-407,555	-12,129	0,079	-0,037
-406,540	234,591	0,069	-0,082
-405,525	692,431	0,032	0,061
-404,511	376,049	-0,086	0,127
-403,496	7,659	-0,130	-0,070
-402,482	229,259	0,050	-0,059
-401,467	-200,000	0,038	0,170
-400,452	254,329	0,064	0,079
-399,438	468,650	0,027	0,044
-398,423	-20,255	-0,071	0,031
-397,409	34,488	-0,152	-0,095
-396,394	69,089	0,134	-0,099
-395,379	800,000	-0,030	-0,065
-394,365	256,597	0,082	0,101
-393,350	-200,000	-0,002	-0,035
-392,336	-200,000	-0,016	0,051
-391,321	800,000	0,085	0,175
-390,306	-145,651	0,029	-0,002
-389,292	-178,328	-0,048	0,001
-388,277	-7,790	-0,153	-0,074
-387,263	800,000	0,045	0,112
-386,248	-200,000	-0,000	-0,049
-385,233	48,372	0,117	-0,079
-384,219	800,000	0,058	0,184
-383,204	-200,000	0,006	0,074
-382,190	215,467	-0,091	-0,104
-381,175	70,991	-0,008	-0,006
-380,160	184,034	0,071	-0,075
-379,146	130,288	0,020	-0,019
-378,131	-200,000	0,017	-0,056
-377,117	-200,000	0,016	0,056
-376,102	-133,022	0,007	0,001
-375,088	-200,000	-0,012	-0,197
-374,073	253,134	0,043	-0,052
-373,058	315,878	0,036	-0,048
-372,044	-200,000	-0,008	-0,045
-371,029	-89,368	0,172	-0,036
-370,015	225,588	-0,056	-0,065
-369,000	-117,081	-0,097	0,013
-367,985	800,000	0,043	-0,109
-366,971	759,523	0,010	-0,020
-365,956	451,052	-0,044	0,069
-364,942	625,564	-0,037	-0,067
-363,927	-200,000	-0,028	0,180
-362,912	-62,848	0,073	0,022
-361,898	-200,000	0,001	-0,092
-360,883	800,000	0,013	-0,041
-359,869	67,131	-0,127	-0,092
-358,854	18,707	-0,070	-0,040
-357,839	51,062	0,074	-0,050
-356,825	-27,653	0,051	0,021
-355,810	-200,000	-0,015	0,102
-354,796	800,000	0,058	-0,128
-353,781	800,000	0,005	0,015
-352,766	185,344	-0,081	0,086
-351,752	150,610	0,090	-0,088
-350,737	-65,503	0,017	-0,005
-349,723	399,511	0,030	0,045
-348,708	-200,000	0,009	0,050
-347,693	-154,204	0,032	-0,002
-346,679	-58,081	-0,104	-0,032
-345,664	477,307	-0,071	0,115
-344,650	-67,663	-0,054	-0,015
-343,635	120,279	0,023	-0,021
-342,620	800,000	0,070	0,178
-341,606	800,000	-0,013	-0,041
-340,591	800,000	0,022	0,068
-339,577	-82,210	0,102	-0,024
-338,562	39,441	-0,103	0,066
-337,548	-64,819	0,052	0,015
-336,533	126,273	0,124	0,112
-335,518	370,430	-0,024	0,035
-334,504	-200,000	-0,005	-0,066
-333,489	-200,000	0,035	0,142
-332,475	13,749	-0,026	0,015
-331,460	378,264	0,062	-0,090
-330,445	-161,304	0,062	-0,002
-329,431	800,000	-0,022	-0,065
-328,416	407,437	0,034	0,052
-327,402	347,928	-0,036	0,052
-326,387	450,257	-0,058	0,091
-325,372	800,000	-0,029	-0,061
-324,358	-140,500	0,051	-0,004
-323,343	-95,851	-0,028	-0,005
-322,329	800,000	0,019	0,054
-321,314	800,000	0,032	-0,081
-320,299	55,924	-0,065	-0,045
-319,285	90,005	-0,055	0,044
-318,270	-200,000	-0,023	0,097
-317,256	393,737	-0,125	-0,186
-316,241	-29,731	0,120	-0,049
-315,226	20,529	0,039	-0,022
-314,212	-200,000	0,023	0,158
-313,197	-200,000	0,082	0,286
-312,183	-44,260	-0,094	0,034
-311,168	-113,485	0,099	0,014
-310,153	-200,000	0,017	0,066
-309,139	-200,000	-0,008	-0,057
-308,124	-200,000	-0,005	0,041
-307,110	800,000	-0,077	0,159
-306,095	800,000	-0,003	0,009
-305,080	35,565	-0,071	0,044
-304,066	-171,356	0,123	-0,003
-303,051	-125,364	-0,010	0,001
-302,037	-34,017	-0,127	-0,050
-301,022	-16,911	-0,193	-0,087
-300,008	-143,958	0,043	0,003
-298,993	201,939	-0,087	0,096
-297,978	800,000	0,037	0,079
-296,964	-133,427	0,204	0,018
-295,949	-144,947	-0,028	-0,002
-294,935	557,573	0,026	0,044
-293,920	-43,853	0,114	0,041
-292,905	800,000	0,019	0,056
-291,891	-76,529	0,157	0,039
-290,876	170,860	0,061	-0,062
-289,862	198,346	0,050	0,055
-288,847	-143,571	-0,139	-0,009
-287,832	61,661	0,101	-0,072
-286,818	-200,000	-0,001	-0,017
-285,803	39,512	0,046	-0,029
-284,789	-98,752	0,053	0,010
-283,774	119,345	-0,091	0,080
-282,759	800,000	-0,032	-0,063
-281,745	-138,598	-0,132	0,010
-280,730	-200,000	-0,005	0,044
-279,716	-200,000	-0,043	-0,170
-278,701	-23,679	0,042	-0,018
-277,686	382,071	0,023	-0,034
-276,672	-200,000	-0,009	0,072
-275,657	-42,177	-0,059	-0,021
-274,643	-120,008	-0,059	-0,007
-273,628	354,692	-0,058	-0,082
-272,613	340,778	-0,057	-0,079
-271,599	800,000	-0,009	0,023
-270,584	-61,360	0,196	0,059
-269,570	-105,295	-0,079	0,013
-268,555	294,346	0,090	-0,118
-267,540	-126,734	-0,135	0,014
-266,526	211,954	0,055	0,062
-265,511	-71,981	0,053	0,014
-264,497	-139,151	-0,102	0,008
-263,482	45,543	0,065	0,043
-262,467	520,455	0,065	0,109
-261,453	137,115	0,014	-0,013
-260,438	134,585	0,031	-0,029
-259,424	-200,000	0,005	-0,102
-258,409	-200,000	-0,020	-0,128
-257,395	188,376	-0,142	0,151
-256,380	59,966	0,051	-0,036
-255,365	-46,392	0,183	0,064
-254,351	-200,000	0,013	0,075
-253,336	9,200	-0,060	-0,032
-252,322	-10,735	0,087	-0,041
-251,307	113,699	-0,107	-0,093
-250,292	-37,973	-0,053	0,020
-249,278	-66,276	0,021	-0,006
-248,263	158,673	-0,112	-0,111
-247,249	166,232	0,098	0,099
-246,234	-200,000	-0,005	-0,057
-245,219	8,502	-0,092	-0,049
-244,205	800,000	0,048	-0,133
-243,190	-200,000	0,040	-0,137
-242,176	-137,742	0,096	-0,008
-241,161	-110,142	0,117	0,017
-240,146	-200,000	-0,019	-0,171
-239,132	-61,200	0,100	0,030
-238,117	40,059	-0,076	-0,048
-237,103	17,317	0,066	-0,037
-236,088	150,549	-0,014	-0,014
-235,073	-200,000	0,000	0,108
-234,059	157,500	0,061	0,060
-233,044	-200,000	0,046	0,181
-232,030	-134,450	0,089	0,008
-231,015	-57,256	-0,121	-0,038
-230,000	-18,088	-0,072	-0,032
-228,986	787,497	-0,050	-0,098
-227,971	-200,000	-0,040	-0,146
-226,957	52,075	0,053	-0,036
-225,942	-163,137	0,016	0,001
-224,927	-200,000	0,009	0,086
-223,913	214,691	-0,105	-0,118
-222,898	-200,000	0,028	-0,112
-221,884	-200,000	-0,034	0,121
-220,869	30,236	-0,141	0,086
-219,855	-51,996	0,148	0,049
-218,840	-46,103	-0,068	0,024
-217,825	531,861	-0,042	-0,072
-216,811	76,522	-0,068	-0,051
-215,796	800,000	-0,022	-0,069
-214,782	800,000	0,028	-0,058
-213,767	-36,283	0,118	-0,045
-212,752	68,569	0,019	-0,014
-211,738	800,000	-0,015	-0,032
-210,723	13,862	-0,039	-0,021
-209,709	-50,271	0,142	0,048
-208,694	89,705	-0,106	0,085
-207,679	403,721	-0,081	0,121
-206,665	132,073	0,097	-0,089
-205,650	19,682	-0,117	0,067
-204,636	-75,644	0,071	-0,018
-203,621	-113,469	0,132	0,018
-202,606	393,040	-0,066	0,098
-201,592	-75,341	0,052	-0,013
-200,577	-77,442	0,064	-0,016
-199,563	-127,698	0,059	-0,006
-198,548	777,414	0,063	-0,123
-197,533	236,622	0,009	-0,011
-196,519	-200,000	-0,015	-0,100
-195,504	110,666	0,058	-0,049
-194,490	677,234	0,020	-0,038
-193,475	-87,891	0,035	0,007
-192,460	205,396	-0,048	-0,053
-191,446	131,717	-0,029	0,027
-190,431	-174,437	0,112	-0,002
-189,417	128,762	0,041	0,037
-188,402	-99,381	-0,072	-0,013
-187,387	-129,280	-0,097	0,010
-186,373	50,838	-0,111	-0,075
-185,358	-116,160	-0,069	-0,009
-184,344	-200,000	0,014	0,083
-183,329	800,000	0,027	-0,077
-182,315	-109,018	0,071	-0,011
-181,300	-1,895	0,084	0,042
-180,285	800,000	-0,024	-0,068
-179,271	-5,253	0,009	-0,004
-178,256	-61,209	0,080	0,024
-177,242	297,861	-0,083	-0,109
-176,227	800,000	-0,001	0,003
-175,212	-137,565	0,082	0,006
-174,198	-200,000	0,037	0,160
-173,183	-6,706	0,229	-0,110
-172,169	-120,963	0,059	-0,007
-171,154	800,000	-0,040	0,125
-170,139	-117,096	-0,014	-0,002
-169,125	-56,049	0,116	-0,036
-168,110	112,815	0,090	0,078
-167,096	-26,010	0,113	0,047
-166,081	-200,000	0,043	-0,135
-165,066	-1,848	0,077	-0,038
-164,052	406,336	0,047	0,070
-163,037	211,722	-0,045	0,051
-162,023	59,638	0,035	0,024
-161,008	800,000	-0,063	0,182
-159,993	477,223	-0,002	-0,003
-158,979	34,400	0,030	-0,019
-157,964	580,828	-0,058	-0,101
-156,950	337,555	-0,065	0,090
-155,935	-116,035	0,043	0,006
-154,920	800,000	0,027	0,067
-153,906	651,235	-0,055	0,101
-152,891	-200,000	-0,000	0,072
-151,877	-109,501	-0,165	0,025
-150,862	-22,519	0,039	-0,017
-149,847	-46,565	-0,203	-0,070
-148,833	800,000	0,039	-0,117
-147,818	434,929	0,078	0,120
-146,804	177,625	0,071	-0,074
-145,789	800,000	-0,034	0,086
-144,775	-28,712	0,068	-0,028
-143,760	800,000	0,048	0,102
-142,745	-60,672	0,018	-0,005
-141,731	489,960	-0,006	-0,009
-140,716	185,842	-0,038	0,040
-139,702	83,049	0,022	-0,017
-138,687	11,574	0,034	0,018
-137,672	-3,904	-0,105	0,052
-136,658	78,152	0,049	0,037
-135,643	253,686	-0,070	-0,085
-134,629	800,000	-0,010	0,028
-133,614	176,719	-0,058	-0,059
-132,599	206,542	0,032	0,036
-131,585	-200,000	0,023	0,100
-130,570	86,883	0,147	0,115
-129,556	319,853	0,079	-0,107
-128,541	-86,307	-0,032	0,007
-127,526	-35,942	0,131	0,050
-126,512	-95,066	-0,119	0,023
-125,497	-130,445	0,094	0,009
-124,483	-200,000	-0,011	0,079
-123,468	-200,000	-0,036	0,134
-122,453	550,501	0,075	-0,129
-121,439	-181,414	0,030	-0,000
-120,424	-200,000	-0,012	0,045
-119,410	-134,882	-0,060	-0,005
-118,395	603,482	0,026	-0,046
-117,380	-200,000	0,116	0,000
-116,366	205,448	0,048	0,053
-115,351	291,925	-0,060	-0,078
-114,337	194,732	0,062	-0,067
-113,322	-86,708	-0,144	0,031
-112,307	-37,593	0,042	0,016
-111,293	-94,501	0,080	0,015
-110,278	800,000	0,025	0,061
-109,264	160,413	0,124	0,123
-108,249	205,722	-0,043	-0,048
-107,234	800,000	-0,077	-0,188
-106,220	-24,633	0,092	0,039
-105,205	181,740	-0,087	0,091
-104,191	79,894	0,119	0,091
-103,176	-200,000	0,006	0,103
-102,162	466,582	-0,029	-0,046
-101,147	-134,354	-0,094	-0,008
-100,132	-200,000	0,002	-0,026
-99,118	391,997	-0,045	-0,066
-98,103	140,453	0,092	-0,086
-97,089	480,051	0,084	0,136
-96,074	800,000	-0,056	-0,138
-95,059	-30,520	-0,080	-0,032
-94,045	-5,888	-0,148	0,071
-93,030	10,094	-0,111	-0,060
-92,016	251,047	-0,013	-0,016
-91,001	-14,324	-0,082	-0,037
-89,986	-68,252	-0,221	-0,060
-88,972	176,518	0,088	-0,091
-87,957	-200,000	-0,032	0,140
-86,943	-118,187	-0,078	-0,010
-85,928	800,000	0,028	0,067
-84,913	-29,042	-0,076	-0,031
-83,899	-9,854	0,047	0,022
-82,884	92,148	-0,053	0,042
-81,870	69,889	0,023	-0,017
-80,855	800,000	0,038	0,082
-79,840	800,000	0,051	0,115
-78,826	-98,247	0,122	0,022
-77,811	179,366	-0,057	-0,059
-76,797	19,490	0,040	-0,023
-75,782	-175,746	0,093	0,002
-74,767	60,945	-0,062	-0,043
-73,753	-200,000	-0,019	0,074
-72,738	5,730	-0,079	0,041
-71,724	-141,875	-0,039	-0,003
-70,709	-200,000	-0,018	0,122
-69,694	-200,000	-0,012	0,126
-68,680	-82,534	0,060	0,014
-67,665	-200,000	0,017	0,179
-66,651	196,342	0,029	-0,032
-65,636	-90,034	0,060	0,012
-64,622	-200,000	-0,017	-0,082
-63,607	-51,940	-0,073	-0,024
-62,592	-200,000	-0,025	-0,089
-61,578	-14,236	0,187	0,085
-60,563	14,668	-0,126	0,069
-59,549	93,080	0,029	-0,023
-58,534	-43,518	-1,552	-0,552
-57,519	381,822	-1,503	-2,193
-56,505	-200,000	-0,607	-4,445
-55,490	234,280	0,946	1,105
-54,476	800,000	4,834	10,815
-53,461	-200,000	18,307	295,134
-52,446	800,000	730,625	2251,961
-51,432	559,266	1646,363	2824,731
-50,417	78,773	1666,613	1260,891
-49,403	22,381	1539,848	888,702
-48,388	16,318	1462,707	814,804
-47,373	17,780	1452,522	816,139
-46,359	16,944	1443,104	806,815
-45,344	14,563	1438,356	792,759
-44,330	14,486	1436,582	791,382
-43,315	14,499	1434,753	790,403
-42,300	14,499	1433,001	789,408
-41,286	14,528	1431,907	788,910
-40,271	14,509	1430,770	788,164
-39,257	14,469	1429,300	787,132
-38,242	14,565	1427,945	786,811
-37,227	14,543	1426,948	786,129
-36,213	14,523	1425,459	785,179
-35,198	14,545	1424,440	784,690
-34,184	14,588	1423,430	784,309
-33,169	14,483	1422,259	783,137
-32,154	14,536	1421,092	782,710
-31,140	14,568	1419,851	782,150
-30,125	14,552	1418,707	781,412
-29,111	14,536	1417,735	780,769
-28,096	14,532	1416,402	779,989
-27,082	14,466	1415,617	779,212
-26,067	14,495	1414,452	778,675
-25,052	14,519	1413,217	778,079
-24,038	14,418	1412,292	777,064
-23,023	14,468	1411,213	776,676
-22,009	14,417	1410,251	775,873
-20,994	14,386	1409,607	775,346
-19,979	14,422	1408,612	774,934
-18,965	14,387	1407,508	774,132
-17,950	14,357	1406,618	773,473
-16,936	14,403	1405,704	773,154
-15,921	14,326	1404,671	772,195
-14,906	14,396	1403,643	771,926
-13,892	14,356	1402,701	771,193
-12,877	14,363	1401,783	770,691
-11,863	14,364	1401,047	770,261
-10,848	14,348	1399,973	769,561
-9,833	14,328	1399,387	769,119
-8,819	14,272	1398,304	768,232
-7,804	14,318	1397,436	767,938
-6,790	14,261	1396,481	767,117
-5,775	14,294	1395,392	766,645
-4,760	14,282	1394,380	766,000
-3,746	14,283	1393,510	765,499
-2,731	14,248	1392,710	764,868
-1,717	14,258	1391,855	764,411
-0,702	14,276	1390,177	763,544
0,313	18,173	1308,719	736,812
1,327	34,759	705,598	435,626
2,342	53,206	124,232	84,052
3,356	3,925	16,499	8,503
4,371	-7,446	3,212	1,532
5,386	-9,278	0,619	0,291
6,400	-200,000	-0,001	0,126
7,415	82,196	-0,240	-0,184
8,429	160,768	-0,195	-0,192
9,444	66,160	-0,322	-0,231
10,459	100,629	-0,201	-0,165
11,473	-22,641	-0,349	-0,148
12,488	-26,605	-0,400	-0,165
13,502	295,575	-0,223	-0,290
14,517	-18,516	-0,204	-0,090
15,531	-20,111	-0,332	-0,144
16,546	39,555	-0,345	-0,218
17,561	196,725	-0,350	-0,377
18,575	-9,758	-0,187	-0,088
19,590	118,812	-0,282	-0,246
20,604	-16,827	-0,318	-0,142
21,619	80,771	-0,420	-0,319
22,634	71,274	-0,462	-0,338
23,648	169,326	-0,336	-0,339
24,663	48,601	-0,397	-0,262
25,677	158,654	-0,389	-0,382
26,692	189,504	-0,209	-0,221
27,707	207,073	-0,276	-0,304
28,721	96,672	-0,364	-0,294
29,736	33,741	-0,411	-0,252
30,750	-16,704	-0,465	-0,207
31,765	113,949	-0,394	-0,338
32,780	88,936	-0,413	-0,324
33,794	22,953	-0,421	-0,243
34,809	104,360	-0,359	-0,298
35,823	47,946	-0,391	-0,257
36,838	144,612	-0,293	-0,276
37,853	43,745	-0,409	-0,264
38,867	92,284	-0,399	-0,317
39,882	108,180	-0,319	-0,268
40,896	89,189	-0,298	-0,234
41,911	143,937	-0,318	-0,299
42,926	19,655	-0,369	-0,209
43,940	24,818	-0,447	-0,260
44,955	127,756	-0,395	-0,354
45,969	126,327	-0,384	-0,342
46,984	311,019	-0,211	-0,280
47,999	116,371	-0,307	-0,265
49,013	104,332	-0,282	-0,234
50,028	245,953	-0,203	-0,242
51,042	-24,582	-0,508	-0,212
52,057	28,829	-0,339	-0,202
53,071	11,567	-0,350	-0,189
54,086	214,345	-0,230	-0,257
55,101	0,980	-0,435	-0,219
56,115	5,997	-0,250	-0,130
57,130	-44,879	-0,374	-0,131
58,144	55,853	-0,317	-0,216
59,159	186,457	-0,464	-0,486
60,174	121,816	-0,339	-0,298
61,188	166,590	-0,241	-0,241
62,203	59,708	-0,307	-0,213
63,217	-146,813	-0,305	-0,018
64,232	188,216	-0,320	-0,337
65,247	447,766	-0,230	-0,358
66,261	140,971	-0,247	-0,230
67,276	97,481	-0,385	-0,311
68,290	72,392	-0,403	-0,295
69,305	-81,633	-0,374	-0,086
70,320	587,855	-0,173	-0,300
71,334	10,404	-0,294	-0,157
72,349	-70,739	-0,250	-0,066
73,363	161,695	-0,311	-0,306
74,378	226,330	-0,294	-0,336
75,393	18,512	-0,302	-0,169
76,407	350,718	-0,269	-0,375
77,422	128,066	-0,354	-0,317
78,436	28,418	-0,414	-0,246
79,451	75,929	-0,283	-0,210
80,466	129,531	-0,284	-0,255
81,480	0,238	-0,366	-0,183
82,495	513,832	-0,150	-0,247
83,509	49,791	-0,219	-0,145
84,524	550,270	-0,061	-0,104
85,539	-71,469	-0,252	-0,066
86,553	114,251	-0,337	-0,288
87,568	-18,316	-0,381	-0,167
88,582	45,488	-0,315	-0,204
89,597	-104,314	-0,337	-0,054
90,611	28,185	-0,336	-0,199
91,626	18,627	-0,394	-0,221
92,641	-64,198	-0,178	-0,051
93,655	-126,840	-0,315	-0,032
94,670	47,575	-0,268	-0,175
95,684	155,385	-0,229	-0,221
96,699	182,385	-0,236	-0,244
97,714	-139,665	-0,155	-0,011
98,728	120,005	-0,151	-0,131
99,743	-49,086	-0,331	-0,110
100,757	220,004	-0,220	-0,248
101,772	239,716	-0,162	-0,190
102,787	98,124	-0,263	-0,212
103,801	-65,052	-0,351	-0,099
104,816	82,301	-0,281	-0,214
105,830	2,604	-0,302	-0,153
106,845	-72,045	-0,276	-0,071
107,860	123,804	-0,239	-0,210
108,874	21,737	-0,386	-0,220
109,889	37,989	-0,398	-0,248
110,903	7,708	-0,359	-0,188
111,918	-48,358	-0,352	-0,118
112,933	42,648	-0,236	-0,150
113,947	-3,902	-0,258	-0,125
114,962	548,340	-0,181	-0,305
115,976	313,388	-0,252	-0,332
116,991	107,054	-0,400	-0,333
118,006	113,573	-0,207	-0,176
119,020	88,531	-0,215	-0,167
120,035	51,741	-0,279	-0,185
121,049	61,881	-0,140	-0,097
122,064	-200,000	-0,062	-0,204
123,079	-158,822	-0,228	0,009
124,093	-125,577	-0,356	-0,037
125,108	-97,066	-0,257	-0,047
126,122	111,579	-0,234	-0,198
127,137	65,428	-0,189	-0,134
128,151	-6,867	-0,320	-0,152
129,166	-112,216	-0,264	-0,037
130,181	33,821	-0,310	-0,189
131,195	118,775	-0,197	-0,170
132,210	93,604	-0,226	-0,179
133,224	144,001	-0,327	-0,305
134,239	358,058	-0,147	-0,206
135,254	92,472	-0,260	-0,205
136,268	98,926	-0,218	-0,176
137,283	313,769	-0,130	-0,171
138,297	58,384	-0,286	-0,196
139,312	172,243	-0,201	-0,202
140,327	91,270	-0,277	-0,217
141,341	23,597	-0,256	-0,147
142,356	41,692	-0,337	-0,213
143,370	-70,978	-0,201	-0,053
144,385	478,365	-0,111	-0,176
145,400	-185,192	-0,194	0,002
146,414	77,276	-0,266	-0,197
147,429	95,887	-0,279	-0,222
148,443	45,322	-0,305	-0,196
149,458	-40,647	-0,180	-0,065
150,473	78,720	-0,238	-0,178
151,487	-193,897	-0,228	-0,001
152,502	63,326	-0,237	-0,166
153,516	-10,062	-0,253	-0,117
154,531	221,270	-0,246	-0,276
155,546	53,331	-0,190	-0,127
156,560	174,569	-0,172	-0,174
157,575	51,865	-0,279	-0,185
158,589	800,000	-0,174	-0,416
159,604	9,663	-0,237	-0,125
160,619	241,112	-0,182	-0,212
161,633	69,242	-0,365	-0,261
162,648	139,696	-0,244	-0,225
163,662	116,189	-0,221	-0,189
164,677	595,785	-0,152	-0,263
165,692	77,009	-0,300	-0,222
166,706	312,662	-0,144	-0,189
167,721	567,012	-0,193	-0,328
168,735	-40,947	-0,281	-0,101
169,750	234,932	-0,234	-0,270
170,764	534,350	-0,143	-0,238
171,779	-62,052	-0,252	-0,073
172,794	104,540	-0,183	-0,150
173,808	-17,442	-0,212	-0,093
174,823	-64,561	-0,284	-0,080
175,837	489,583	-0,173	-0,276
176,852	253,371	-0,172	-0,206
177,867	-23,036	-0,165	-0,069
178,881	-24,821	-0,139	-0,057
179,896	-8,218	-0,155	-0,073
180,910	114,612	-0,201	-0,171
181,925	130,615	-0,250	-0,223
182,940	331,191	-0,188	-0,253
183,954	46,693	-0,214	-0,138
184,969	429,206	-0,130	-0,197
185,983	-74,389	-0,248	-0,062
186,998	-137,640	-0,296	-0,023
188,013	300,687	-0,149	-0,191
189,027	800,000	-0,071	-0,154
190,042	-170,822	-0,383	-0,009
191,056	-32,533	-0,173	-0,067
192,071	43,043	-0,181	-0,114
193,086	-77,056	-0,253	-0,061
194,100	14,793	-0,287	-0,156
195,115	20,411	-0,260	-0,146
196,129	98,076	-0,192	-0,154
197,144	247,426	-0,267	-0,315
198,159	142,005	-0,229	-0,211
199,173	11,162	-0,255	-0,135
200,188	491,180	-0,073	-0,117
201,202	-55,988	-0,218	-0,067
202,217	800,000	-0,072	-0,185
203,232	109,330	-0,171	-0,142
204,246	90,247	-0,251	-0,195
205,261	261,763	-0,064	-0,077
206,275	174,563	-0,170	-0,171
207,290	103,202	-0,208	-0,169
208,304	144,466	-0,155	-0,144
209,319	-27,105	-0,240	-0,097
210,334	179,584	-0,219	-0,223
211,348	-25,217	-0,259	-0,106
212,363	557,449	-0,153	-0,257
213,377	154,058	-0,185	-0,176
214,392	-94,708	-0,207	-0,039
215,407	93,692	-0,157	-0,124
216,421	-169,499	-0,200	-0,005
217,436	186,978	-0,192	-0,199
218,450	7,507	-0,296	-0,153
219,465	201,275	-0,147	-0,158
220,480	-32,157	-0,192	-0,074
221,494	28,004	-0,157	-0,092
222,509	542,498	-0,112	-0,185
223,523	-12,665	-0,256	-0,115
224,538	-40,382	-0,257	-0,092
225,553	44,040	-0,252	-0,160
226,567	26,892	-0,210	-0,122
227,582	483,793	-0,134	-0,212
228,596	15,317	-0,273	-0,148
229,611	146,548	-0,173	-0,161
230,626	-0,181	-0,176	-0,086
231,640	61,248	-0,269	-0,185
232,655	155,643	-0,276	-0,264
233,669	350,209	-0,144	-0,197
234,684	45,955	-0,226	-0,145
235,699	98,561	-0,154	-0,123
236,713	-71,661	-0,214	-0,055
237,728	-200,000	-0,065	-0,220
238,742	441,265	-0,149	-0,227
239,757	414,670	-0,202	-0,299
240,772	26,165	-0,214	-0,124
241,786	-45,600	-0,361	-0,123
242,801	204,902	-0,081	-0,088
243,815	800,000	-0,090	-0,206
244,830	-200,000	-0,006	-0,068
245,844	151,065	-0,217	-0,205
246,859	151,730	-0,235	-0,221
247,874	449,068	-0,216	-0,331
248,888	167,922	-0,187	-0,185
249,903	110,982	-0,141	-0,118
250,917	112,739	-0,182	-0,153
251,932	158,262	-0,099	-0,095
252,947	270,840	-0,155	-0,190
253,961	11,525	-0,243	-0,129
254,976	800,000	-0,092	-0,188
255,990	-64,206	-0,138	-0,039
257,005	132,825	-0,107	-0,096
258,020	-5,165	-0,118	-0,056
259,034	-85,915	-0,134	-0,029
260,049	-101,308	-0,237	0,040
261,063	249,874	-0,195	-0,229
262,078	412,032	-0,154	-0,227
263,093	195,131	-0,163	-0,171
264,107	-192,294	-0,166	-0,001
265,122	-161,293	-0,175	0,006
266,136	-131,425	-0,236	-0,021
267,151	-113,053	-0,314	-0,042
268,166	94,850	-0,170	-0,134
269,180	63,109	-0,223	-0,154
270,195	106,368	-0,121	-0,099
271,209	800,000	-0,148	-0,348
272,224	594,356	-0,129	-0,221
273,239	304,476	-0,131	-0,168
274,253	-40,406	-0,145	-0,052
275,268	184,029	-0,178	-0,183
276,282	-98,818	-0,209	-0,036
277,297	269,763	-0,189	-0,230
278,312	101,344	-0,131	-0,105
279,326	28,299	-0,101	-0,059
280,341	377,800	-0,127	-0,180
281,355	800,000	-0,019	0,042
282,370	747,496	-0,099	-0,185
283,384	-83,800	-0,168	-0,037
284,399	-45,772	-0,263	-0,089
285,414	163,165	-0,199	-0,193
286,428	-54,554	-0,122	-0,038
287,443	497,486	-0,035	-0,055
288,457	108,479	-0,122	-0,101
289,472	-23,343	-0,174	-0,072
290,487	96,465	-0,196	-0,155
291,501	-46,145	-0,176	0,059
292,516	11,225	-0,172	-0,091
293,530	800,000	-0,080	-0,242
294,545	409,189	-0,081	-0,118
295,560	50,228	-0,136	-0,088
296,574	-158,690	-0,334	0,013
297,589	134,454	-0,111	-0,099
298,603	-123,346	-0,232	0,025
299,618	-4,348	-0,227	-0,108
300,633	800,000	-0,056	-0,116
301,647	4,936	-0,078	-0,039
302,662	800,000	-0,012	0,025
303,676	-200,000	0,041	-0,348
304,691	523,838	-0,157	-0,255
305,706	48,464	-0,160	-0,103
306,720	-107,958	-0,188	0,028
307,735	-34,860	-0,155	-0,058
308,749	-69,880	-0,160	-0,042
309,764	120,034	-0,168	-0,144
310,779	800,000	-0,063	-0,149
311,793	-10,050	-0,201	-0,092
312,808	100,773	-0,164	-0,131
313,822	800,000	-0,132	-0,265
314,837	800,000	-0,105	-0,246
315,852	543,119	-0,050	-0,082
316,866	-60,930	-0,218	-0,063
317,881	800,000	-0,069	-0,135
318,895	-200,000	0,024	-0,155
319,910	58,450	-0,168	-0,113
320,925	400,612	-0,194	-0,281
321,939	142,640	-0,104	-0,095
322,954	-200,000	-0,015	-0,085
323,968	3,372	-0,192	-0,096
324,983	246,125	-0,092	-0,107
325,997	-92,619	-0,228	-0,044
327,012	-73,861	-0,139	-0,034
328,027	800,000	-0,055	-0,133
329,041	-144,494	-0,123	0,008
330,056	97,332	-0,159	-0,125
331,070	-200,000	-0,023	-0,143
332,085	-147,582	-0,112	0,006
333,100	-200,000	0,018	-0,102
334,114	277,703	-0,109	-0,134
335,129	-200,000	-0,111	-0,341
336,143	-200,000	-0,025	-0,103
337,158	-2,573	-0,091	-0,044
338,173	-71,884	-0,221	-0,056
339,187	-72,825	-0,268	-0,067
340,202	-58,415	-0,198	0,059
341,216	31,229	-0,165	-0,097
342,231	616,684	-0,092	-0,160
343,246	154,269	-0,053	-0,050
344,260	-107,410	-0,122	-0,018
345,275	-18,261	-0,241	-0,103
346,289	-140,335	-0,099	0,007
347,304	441,189	-0,060	-0,091
348,319	110,865	-0,159	-0,131
349,333	309,768	-0,107	-0,138
350,348	-172,541	-0,061	-0,001
351,362	800,000	-0,036	-0,096
352,377	-46,664	-0,076	-0,025
353,392	-110,789	-0,135	-0,019
354,406	-129,601	-0,157	0,015
355,421	209,372	1314,623	1414,573
356,435	161,133	1475,366	1415,072
