DTS Sentinel unit serial number:	SN410029Multiplexer serial number:	ORYXHardware model number:	OX2-SRSoftware version number:	ORYX F/W v4,00 Oryx Data Collector v3.7.2.0data status	okinstallation	B3 Nyhavnadifferential loss correction	single-endedforward channel	channel 1reverse channel	N/Adate	2023/12/01time	00:17:30forward acquisition time	300,00reverse acquisition time	0,00gamma	499,1914k internal	0,3211k external	0,3211temperature offset calibration	1,0000default loss term (dB/km)	0,3820temperature slope calibration	1,0000multiplexer offset coefficient	1,0000multiplexer slope coefficient	1,0000fibre end	0,00T internal ref (°C)	9,27T ext. ref 1 (°C)	-5,81T ext. ref 2 (°C)	-5,95length (m)	temperature (°C)	Stokes	anti-Stokes-744,400	-200,000	-0,087	-0,396
-743,385	688,804	0,115	0,220
-742,371	310,224	-0,100	-0,136
-741,356	800,000	0,074	0,193
-740,342	800,000	-0,117	-0,261
-739,327	800,000	-0,098	0,208
-738,312	21,635	-0,175	-0,103
-737,298	99,820	-0,136	0,114
-736,283	191,632	-0,262	-0,287
-735,269	800,000	0,128	0,259
-734,254	207,112	-0,084	-0,095
-733,239	-73,049	-0,115	0,030
-732,225	-200,000	-0,081	-0,308
-731,210	-162,878	0,133	-0,005
-730,196	308,497	-0,101	0,137
-729,181	800,000	0,034	0,081
-728,167	-200,000	-0,001	-0,076
-727,152	-159,822	-0,125	0,005
-726,137	800,000	-0,046	-0,125
-725,123	-61,076	-0,125	0,038
-724,108	184,957	-0,031	0,033
-723,094	24,928	-0,026	-0,016
-722,079	-200,000	0,013	-0,118
-721,064	800,000	0,040	-0,112
-720,050	-135,194	0,057	-0,005
-719,035	-16,334	0,116	0,053
-718,021	-200,000	-0,006	-0,078
-717,006	-200,000	-0,012	-0,113
-715,991	800,000	-0,065	-0,171
-714,977	-200,000	-0,006	-0,189
-713,962	800,000	-0,050	-0,120
-712,948	321,738	0,035	0,049
-711,933	800,000	-0,048	0,097
-710,918	569,033	0,056	-0,098
-709,904	-58,392	-0,064	0,020
-708,889	-64,766	-0,035	-0,010
-707,875	-200,000	0,005	-0,124
-706,860	175,339	0,083	-0,087
-705,845	568,576	0,060	-0,106
-704,831	97,355	-0,211	0,175
-703,816	-83,492	0,027	0,006
-702,802	-200,000	-0,002	0,078
-701,787	-200,000	-0,061	-0,202
-700,772	154,099	0,023	-0,023
-699,758	98,227	-0,051	0,042
-698,743	393,416	-0,062	-0,093
-697,729	-200,000	0,005	0,042
-696,714	63,933	-0,114	0,083
-695,699	484,596	-0,041	-0,068
-694,685	363,979	0,110	-0,160
-693,670	-200,000	-0,018	-0,092
-692,656	800,000	-0,060	0,158
-691,641	612,210	0,062	0,112
-690,627	-186,183	-0,118	0,001
-689,612	246,928	-0,024	0,029
-688,597	130,684	0,059	-0,055
-687,583	18,473	0,045	-0,026
-686,568	-200,000	-0,048	-0,185
-685,554	-200,000	0,024	-0,143
-684,539	-200,000	0,037	-0,262
-683,524	-50,545	0,055	0,019
-682,510	144,785	-0,068	0,066
-681,495	-200,000	-0,019	0,078
-680,481	-9,727	-0,136	-0,065
-679,466	-33,439	-0,054	0,021
-678,451	800,000	-0,007	0,020
-677,437	649,245	-0,048	-0,090
-676,422	-141,761	0,150	0,011
-675,408	159,996	0,052	0,053
-674,393	-4,407	-0,042	-0,021
-673,378	800,000	-0,048	-0,131
-672,364	194,724	-0,077	-0,084
-671,349	67,055	0,073	-0,054
-670,335	800,000	-0,069	-0,145
-669,320	90,042	-0,104	-0,084
-668,305	60,174	-0,045	-0,032
-667,291	-200,000	-0,038	-0,243
-666,276	-100,895	-0,063	0,011
-665,262	800,000	0,047	-0,103
-664,247	245,097	0,004	0,005
-663,232	-114,693	-0,134	-0,018
-662,218	-78,639	0,078	-0,019
-661,203	-11,541	-0,045	-0,021
-660,189	800,000	-0,011	-0,033
-659,174	78,119	-0,103	-0,079
-658,159	-200,000	0,003	-0,101
-657,145	783,875	-0,046	-0,091
-656,130	35,528	-0,089	-0,056
-655,116	-78,688	0,059	0,015
-654,101	-94,057	0,080	0,016
-653,086	-78,066	0,064	-0,016
-652,072	800,000	-0,035	-0,101
-651,057	375,481	-0,093	-0,137
-650,043	-200,000	0,003	-0,033
-649,028	712,507	-0,062	-0,118
-648,014	489,428	0,043	0,071
-646,999	96,073	0,042	-0,035
-645,984	-200,000	-0,023	-0,136
-644,970	-63,002	-0,129	-0,038
-643,955	-97,361	0,162	-0,030
-642,941	-200,000	-0,026	-0,148
-641,926	-200,000	0,010	0,033
-640,911	615,264	0,063	-0,115
-639,897	670,164	-0,057	-0,107
-638,882	-149,215	-0,023	-0,001
-637,868	389,906	-0,087	0,130
-636,853	491,322	0,032	-0,054
-635,838	-38,120	-0,042	0,016
-634,824	293,537	0,058	-0,077
-633,809	506,234	0,014	0,023
-632,795	-200,000	-0,002	0,018
-631,780	-72,905	-0,100	-0,026
-630,765	-200,000	0,140	0,000
-629,751	-200,000	-0,028	-0,089
-628,736	-110,984	0,060	-0,009
-627,722	-8,092	0,059	0,029
-626,707	102,349	0,066	-0,056
-625,692	-166,745	0,152	0,004
-624,678	195,883	0,088	0,097
-623,663	-83,465	-0,089	0,020
-622,649	-22,441	-0,111	-0,048
-621,634	109,795	-0,108	-0,094
-620,619	31,339	-0,010	0,006
-619,605	710,833	-0,056	0,108
-618,590	233,508	-0,090	0,107
-617,576	-94,756	-0,072	0,014
-616,561	-132,364	-0,049	-0,005
-615,546	-39,699	0,076	0,028
-614,532	96,803	-0,133	-0,110
-613,517	622,444	-0,028	-0,050
-612,503	-17,360	-0,100	0,045
-611,488	3,328	0,070	-0,036
-610,474	46,413	-0,087	-0,058
-609,459	-42,843	-0,163	-0,059
-608,444	439,728	0,021	-0,034
-607,430	94,335	0,027	0,022
-606,415	-200,000	-0,016	-0,154
-605,401	800,000	-0,099	0,212
-604,386	-30,243	0,060	0,025
-603,371	41,670	-0,046	-0,030
-602,357	800,000	0,037	-0,104
-601,342	-33,139	-0,156	-0,062
-600,328	755,940	-0,122	-0,240
-599,313	170,623	-0,141	-0,146
-598,298	326,872	0,047	-0,065
-597,284	137,285	0,082	0,077
-596,269	622,907	-0,032	0,058
-595,255	85,522	-0,056	0,045
-594,240	88,180	0,024	-0,019
-593,225	-200,000	0,007	-0,163
-592,211	800,000	0,010	0,025
-591,196	36,592	-0,099	-0,063
-590,182	412,711	-0,078	-0,120
-589,167	65,593	0,048	-0,035
-588,152	623,536	-0,047	0,086
-587,138	270,965	-0,041	0,052
-586,123	-200,000	0,021	0,069
-585,109	-39,763	-0,047	0,018
-584,094	5,934	0,094	-0,050
-583,079	502,564	0,026	-0,044
-582,065	-62,880	-0,113	0,033
-581,050	79,037	0,028	-0,022
-580,036	-137,322	0,098	-0,008
-579,021	269,816	0,017	-0,021
-578,006	43,277	-0,083	0,054
-576,992	148,632	0,066	0,064
-575,977	-200,000	-0,015	0,091
-574,963	341,605	0,004	-0,005
-573,948	-200,000	0,015	-0,056
-572,934	-75,114	-0,006	-0,001
-571,919	54,027	-0,103	0,071
-570,904	-200,000	-0,009	-0,061
-569,890	800,000	0,050	-0,102
-568,875	-113,277	-0,035	0,005
-567,861	305,986	-0,043	-0,058
-566,846	-200,000	-0,001	0,127
-565,831	-200,000	0,018	0,100
-564,817	64,277	-0,074	0,053
-563,802	-200,000	-0,005	0,040
-562,788	-61,410	-0,123	-0,037
-561,773	-178,937	-0,081	0,001
-560,758	81,604	0,049	-0,038
-559,744	-200,000	0,016	-0,107
-558,729	197,694	0,037	-0,041
-557,715	-92,590	-0,117	0,023
-556,700	-200,000	-0,005	-0,043
-555,685	15,225	0,056	-0,032
-554,671	-155,257	-0,067	-0,003
-553,656	-25,730	0,103	0,044
-552,642	228,388	-0,044	0,052
-551,627	-200,000	-0,017	-0,059
-550,612	800,000	0,044	-0,136
-549,598	-160,290	-0,029	-0,001
-548,583	-50,806	0,085	0,029
-547,569	-123,403	0,159	-0,018
-546,554	-8,505	0,111	0,054
-545,539	339,773	0,041	-0,057
-544,525	-87,927	-0,097	-0,021
-543,510	-111,440	0,076	0,011
-542,496	-107,497	-0,055	-0,009
-541,481	800,000	0,032	-0,089
-540,466	385,495	-0,024	-0,036
-539,452	800,000	-0,093	-0,209
-538,437	-6,288	-0,162	0,079
-537,423	-6,389	0,085	-0,041
-536,408	173,855	-0,020	0,021
-535,393	-200,000	0,027	-0,094
-534,379	-8,896	-0,126	0,061
-533,364	-171,240	-0,100	0,002
-532,350	-200,000	0,017	0,081
-531,335	-200,000	-0,011	0,099
-530,321	131,445	-0,050	0,046
-529,306	-13,985	-0,102	-0,047
-528,291	228,162	0,052	-0,061
-527,277	67,397	0,016	-0,011
-526,262	184,742	0,061	-0,065
-525,248	601,036	-0,024	-0,043
-524,233	-47,479	0,174	0,060
-523,218	140,686	0,055	-0,053
-522,204	800,000	0,092	-0,188
-521,189	800,000	-0,013	-0,027
-520,175	264,141	-0,038	-0,048
-519,160	200,605	0,051	0,056
-518,145	12,870	0,045	-0,025
-517,131	-200,000	-0,003	-0,056
-516,116	-200,000	-0,068	0,000
-515,102	-175,612	-0,090	0,002
-514,087	-172,482	0,033	-0,001
-513,072	-160,615	-0,109	0,004
-512,058	5,361	0,168	-0,089
-511,043	20,714	0,089	0,051
-510,029	-23,644	-0,165	0,071
-509,014	306,585	-0,070	0,093
-507,999	81,195	0,167	-0,130
-506,985	115,825	-0,062	-0,054
-505,970	-200,000	-0,009	-0,043
-504,956	703,585	-0,028	-0,053
-503,941	-51,041	0,024	-0,008
-502,926	-133,766	0,060	0,005
-501,912	137,693	0,035	0,033
-500,897	800,000	-0,016	0,036
-499,883	800,000	0,062	0,154
-498,868	-84,617	0,085	-0,019
-497,853	135,828	0,008	0,008
-496,839	-112,264	-0,113	0,016
-495,824	-199,426	-0,036	0,000
-494,810	596,588	-0,061	-0,108
-493,795	684,866	-0,047	0,089
-492,781	38,303	-0,021	0,014
-491,766	800,000	-0,049	-0,125
-490,751	602,616	0,043	0,077
-489,737	800,000	0,026	0,076
-488,722	-170,018	0,031	-0,001
-487,708	107,712	0,026	0,022
-486,693	206,999	-0,025	0,028
-485,678	-200,000	-0,019	-0,088
-484,664	-200,000	0,016	-0,113
-483,649	-118,744	-0,109	0,014
-482,635	-98,197	0,058	0,011
-481,620	800,000	-0,023	-0,068
-480,605	-58,748	0,039	-0,012
-479,591	-200,000	-0,021	-0,074
-478,576	-200,000	0,015	-0,130
-477,562	800,000	0,017	-0,038
-476,547	789,841	0,036	-0,072
-475,532	-200,000	0,002	-0,062
-474,518	-86,107	0,133	-0,029
-473,503	-200,000	0,014	-0,083
-472,489	800,000	0,043	0,090
-471,474	-168,254	0,142	-0,004
-470,459	460,588	-0,024	0,038
-469,445	386,126	-0,082	0,122
-468,430	-200,000	0,017	0,088
-467,416	-74,143	0,104	-0,027
-466,401	485,409	0,093	0,153
-465,386	476,799	0,037	0,060
-464,372	-200,000	0,013	0,122
-463,357	-25,660	-0,047	0,020
-462,343	548,415	-0,057	-0,098
-461,328	177,293	0,049	-0,051
-460,313	134,449	0,040	0,037
-459,299	252,256	-0,115	-0,141
-458,284	800,000	-0,059	0,167
-457,270	370,116	0,049	0,071
-456,255	-54,939	-0,137	0,044
-455,241	800,000	0,030	-0,062
-454,226	800,000	-0,018	0,052
-453,211	-200,000	0,022	0,110
-452,197	-1,369	0,149	0,075
-451,182	91,608	0,098	0,079
-450,168	-200,000	-0,023	0,123
-449,153	226,286	-0,068	0,079
-448,138	274,179	-0,007	-0,009
-447,124	800,000	0,015	0,046
-446,109	800,000	0,065	0,130
-445,095	80,388	0,058	0,045
-444,080	-149,712	0,107	0,006
-443,065	-200,000	0,010	0,044
-442,051	121,340	-0,064	-0,058
-441,036	-200,000	0,014	-0,059
-440,022	-39,062	-0,172	0,065
-439,007	-129,896	0,083	0,008
-437,992	330,720	-0,041	-0,056
-436,978	800,000	-0,043	0,094
-435,963	3,601	-0,076	0,040
-434,949	79,555	-0,082	-0,063
-433,934	-200,000	-0,003	-0,060
-432,919	-21,327	-0,021	-0,009
-431,905	-140,642	0,035	0,003
-430,890	-122,095	0,211	0,025
-429,876	116,350	0,121	0,106
-428,861	-200,000	0,044	0,181
-427,846	166,576	0,088	0,089
-426,832	15,845	0,127	-0,072
-425,817	49,807	-0,079	0,053
-424,803	21,245	-0,115	-0,067
-423,788	800,000	0,073	0,156
-422,773	-68,901	0,097	-0,027
-421,759	-200,000	-0,020	0,180
-420,744	-200,000	0,015	0,101
-419,730	-200,000	-0,014	-0,119
-418,715	-200,000	0,028	-0,093
-417,701	338,775	0,032	-0,045
-416,686	-94,245	0,135	0,026
-415,671	-200,000	-0,017	0,096
-414,657	-171,736	-0,121	-0,003
-413,642	278,910	0,032	0,041
-412,628	75,698	-0,031	-0,024
-411,613	-154,054	-0,101	0,005
-410,598	-200,000	0,009	0,137
-409,584	-109,637	0,015	-0,002
-408,569	-90,040	0,043	-0,009
-407,555	110,101	0,039	0,033
-406,540	444,303	0,029	-0,046
-405,525	42,551	-0,060	0,039
-404,511	358,730	-0,040	-0,057
-403,496	-1,772	-0,042	0,021
-402,482	800,000	0,058	0,157
-401,467	800,000	-0,040	0,089
-400,452	72,939	0,076	0,057
-399,438	-200,000	-0,006	0,097
-398,423	439,024	-0,078	-0,122
-397,409	241,835	-0,044	-0,053
-396,394	26,854	0,065	-0,039
-395,379	-30,468	-0,075	0,030
-394,365	303,351	0,081	0,108
-393,350	-4,231	0,058	0,028
-392,336	3,818	-0,090	-0,047
-391,321	-200,000	0,022	-0,213
-390,306	119,033	0,062	-0,055
-389,292	800,000	0,020	-0,047
-388,277	-18,430	-0,134	-0,060
-387,263	-200,000	0,019	0,073
-386,248	-133,948	0,145	0,013
-385,233	-200,000	-0,006	-0,022
-384,219	-87,806	0,057	0,012
-383,204	-200,000	-0,121	-0,000
-382,190	414,333	0,054	0,082
-381,175	296,899	-0,042	-0,055
-380,160	302,980	-0,081	-0,108
-379,146	89,941	0,006	-0,005
-378,131	-141,063	0,071	0,005
-377,117	521,685	0,046	-0,078
-376,102	800,000	-0,038	0,077
-375,088	800,000	-0,030	-0,083
-374,073	800,000	-0,021	-0,054
-373,058	251,481	0,079	0,096
-372,044	800,000	-0,022	0,060
-371,029	-125,999	-0,185	0,020
-370,015	-200,000	0,023	0,087
-369,000	-4,384	-0,053	0,026
-367,985	-132,886	-0,084	-0,008
-366,971	21,377	0,100	-0,058
-365,956	-177,110	-0,057	0,001
-364,942	-200,000	0,008	0,072
-363,927	-136,742	0,147	-0,012
-362,912	-86,607	-0,100	-0,022
-361,898	362,076	0,028	0,041
-360,883	-200,000	0,014	-0,072
-359,869	-200,000	-0,049	-0,161
-358,854	281,490	-0,067	-0,085
-357,839	-43,058	0,040	-0,015
-356,825	254,922	0,084	-0,102
-355,810	317,334	0,035	0,048
-354,796	128,773	0,019	0,017
-353,781	58,108	-0,036	-0,025
-352,766	-2,906	-0,066	0,033
-351,752	-132,804	-0,065	-0,006
-350,737	-102,360	0,136	-0,023
-349,723	-200,000	-0,031	0,112
-348,708	-200,000	0,016	-0,148
-347,693	652,354	0,015	0,027
-346,679	-126,637	-0,123	0,013
-345,664	513,897	-0,072	-0,120
-344,650	800,000	-0,023	-0,054
-343,635	-149,518	0,154	0,009
-342,620	338,711	-0,060	0,084
-341,606	129,061	0,068	0,062
-340,591	229,152	-0,045	0,053
-339,577	92,424	0,037	0,030
-338,562	-155,962	0,049	-0,002
-337,548	-200,000	0,006	-0,099
-336,533	800,000	0,041	-0,097
-335,518	146,121	0,067	0,064
-334,504	-51,653	-0,081	0,027
-333,489	-200,000	0,005	0,132
-332,475	91,792	0,080	0,064
-331,460	800,000	-0,032	0,064
-330,445	-39,929	-0,097	0,036
-329,431	-200,000	-0,009	-0,061
-328,416	154,544	0,071	0,070
-327,402	-200,000	-0,011	0,071
-326,387	-200,000	0,033	-0,119
-325,372	-28,799	-0,019	0,008
-324,358	25,545	-0,042	-0,025
-323,343	-110,494	0,081	-0,012
-322,329	101,951	0,040	0,034
-321,314	800,000	0,053	0,159
-320,299	83,291	0,032	0,025
-319,285	799,815	0,055	-0,108
-318,270	104,794	-0,095	-0,080
-317,256	-7,786	-0,119	-0,057
-316,241	218,760	-0,072	0,083
-315,226	-2,255	0,106	0,053
-314,212	68,829	0,055	0,040
-313,197	-84,352	-0,025	-0,006
-312,183	180,187	-0,066	0,069
-311,168	108,957	0,037	-0,031
-310,153	-200,000	-0,038	-0,128
-309,139	-156,533	0,121	-0,005
-308,124	-34,157	-0,042	-0,016
-307,110	48,170	-0,050	-0,033
-306,095	-126,499	0,138	0,014
-305,080	98,041	-0,071	0,058
-304,066	232,880	0,075	-0,088
-303,051	-8,824	-0,075	-0,036
-302,037	-200,000	-0,031	0,127
-301,022	171,313	0,051	0,052
-300,008	-18,212	0,095	0,042
-298,993	103,344	-0,043	-0,036
-297,978	-115,540	-0,033	-0,004
-296,964	-200,000	0,013	-0,113
-295,949	21,206	0,014	0,008
-294,935	800,000	-0,005	-0,014
-293,920	15,540	0,121	0,067
-292,905	424,872	0,112	0,172
-291,891	-116,466	-0,198	0,026
-290,876	-200,000	0,006	0,101
-289,862	-200,000	-0,008	-0,108
-288,847	-200,000	-0,004	0,021
-287,832	-173,165	-0,097	-0,002
-286,818	-200,000	-0,003	-0,014
-285,803	-200,000	-0,013	0,086
-284,789	-1,644	0,152	0,076
-283,774	-200,000	0,018	-0,069
-282,759	800,000	0,020	-0,045
-281,745	800,000	-0,011	-0,022
-280,730	315,458	-0,077	-0,103
-279,716	-177,635	0,141	-0,002
-278,701	-200,000	0,004	-0,129
-277,686	-200,000	0,038	0,126
-276,672	103,070	-0,078	0,065
-275,657	195,647	0,049	0,053
-274,643	90,320	-0,058	-0,046
-273,628	310,088	-0,071	-0,095
-272,613	800,000	0,038	0,104
-271,599	-36,628	0,157	0,060
-270,584	279,043	0,046	0,058
-269,570	0,136	0,050	-0,025
-268,555	800,000	0,029	-0,059
-267,540	-111,320	-0,078	-0,011
-266,526	-200,000	0,002	-0,015
-265,511	120,605	-0,061	0,054
-264,497	-189,380	0,083	0,001
-263,482	-200,000	0,051	0,174
-262,467	109,524	-0,055	-0,047
-261,453	800,000	0,046	0,109
-260,438	-200,000	-0,002	0,039
-259,424	-133,736	-0,119	-0,010
-258,409	728,842	-0,053	-0,102
-257,395	2,759	0,060	0,031
-256,380	-21,241	0,147	-0,064
-255,365	645,111	0,032	0,059
-254,351	219,892	-0,023	-0,026
-253,336	800,000	-0,071	-0,174
-252,322	182,727	-0,179	-0,188
-251,307	-200,000	0,001	0,018
-250,292	-82,928	-0,060	-0,014
-249,278	-200,000	-0,007	-0,072
-248,263	-200,000	-0,019	0,155
-247,249	72,799	0,058	0,043
-246,234	190,903	0,037	0,039
-245,219	-200,000	-0,025	-0,103
-244,205	212,159	-0,003	-0,004
-243,190	20,098	0,100	0,057
-242,176	107,323	0,036	0,030
-241,161	-200,000	-0,006	-0,055
-240,146	-19,918	-0,105	0,046
-239,132	1,085	0,035	-0,018
-238,117	-200,000	0,020	0,071
-237,103	-72,962	-0,044	-0,011
-236,088	298,864	-0,065	0,086
-235,073	-200,000	0,021	0,077
-234,059	800,000	0,087	-0,208
-233,044	-200,000	-0,015	-0,065
-232,030	191,565	-0,083	0,089
-231,015	-200,000	-0,029	0,164
-230,000	-200,000	-0,017	-0,081
-228,986	423,025	0,082	0,126
-227,971	-162,710	0,089	0,003
-226,957	-140,400	-0,040	0,003
-225,942	159,010	0,138	0,136
-224,927	-200,000	0,007	0,049
-223,913	210,378	-0,032	0,035
-222,898	27,003	0,047	-0,028
-221,884	303,460	0,040	-0,053
-220,869	800,000	0,043	-0,093
-219,855	-59,800	0,171	0,052
-218,840	599,796	0,019	0,033
-217,825	-140,086	-0,025	0,002
-216,811	-200,000	-0,021	-0,072
-215,796	28,220	-0,107	-0,064
-214,782	214,636	0,028	0,032
-213,767	-200,000	0,013	0,109
-212,752	-16,280	0,116	0,052
-211,738	-200,000	-0,012	-0,071
-210,723	-199,652	0,058	0,000
-209,709	-46,315	-0,181	-0,063
-208,694	104,452	-0,118	-0,098
-207,679	-63,312	-0,175	0,051
-206,665	-200,000	0,034	0,110
-205,650	289,591	0,112	0,145
-204,636	4,114	-0,107	0,055
-203,621	-45,435	-0,040	-0,014
-202,606	16,051	-0,025	-0,014
-201,592	6,642	-0,083	-0,044
-200,577	126,830	-0,039	-0,035
-199,563	138,565	0,042	-0,039
-198,548	-148,508	0,155	0,009
-197,533	30,329	-0,032	-0,019
-196,519	70,263	0,078	-0,057
-195,504	-34,270	-0,212	-0,082
-194,490	0,685	-0,070	-0,035
-193,475	200,949	0,033	-0,036
-192,460	-159,414	-0,105	0,004
-191,446	-80,322	-0,114	-0,027
-190,431	800,000	0,018	-0,052
-189,417	128,355	-0,058	0,052
-188,402	254,350	0,038	-0,046
-187,387	197,068	-0,092	0,100
-186,373	371,727	-0,016	0,024
-185,358	800,000	-0,022	-0,056
-184,344	800,000	0,033	-0,097
-183,329	800,000	0,020	-0,053
-182,315	-200,000	0,033	0,147
-181,300	-200,000	0,030	0,162
-180,285	800,000	0,029	0,065
-179,271	111,554	0,032	-0,027
-178,256	116,004	0,083	-0,072
-177,242	15,271	0,038	-0,021
-176,227	-100,065	-0,138	-0,024
-175,212	-15,240	0,050	0,023
-174,198	800,000	0,030	0,073
-173,183	5,353	-0,117	-0,061
-172,169	73,560	0,056	-0,042
-171,154	60,590	0,078	-0,054
-170,139	-200,000	-0,002	0,156
-169,125	333,037	0,082	0,112
-168,110	317,463	0,064	0,086
-167,096	800,000	-0,048	0,127
-166,081	107,576	-0,013	0,011
-165,066	-200,000	-0,022	-0,084
-164,052	54,385	0,062	-0,042
-163,037	351,886	0,040	-0,056
-162,023	-146,449	0,048	0,003
-161,008	800,000	0,046	0,092
-159,993	165,388	0,058	-0,058
-158,979	-21,216	0,082	-0,035
-157,964	13,116	-0,061	0,034
-156,950	-85,357	-0,225	-0,049
-155,935	-56,505	0,143	0,045
-154,920	-120,961	0,176	-0,021
-153,906	-85,911	-0,052	0,011
-152,891	704,137	-0,046	-0,086
-151,877	586,281	0,024	-0,043
-150,862	-72,816	-0,076	0,020
-149,847	78,011	-0,037	-0,028
-148,833	-200,000	0,011	-0,108
-147,818	70,457	0,060	0,044
-146,804	160,649	0,045	-0,045
-145,789	352,404	0,067	-0,094
-144,775	42,417	-0,023	0,015
-143,760	468,081	-0,058	-0,093
-142,745	-200,000	-0,025	-0,141
-141,731	-18,144	0,153	0,068
-140,716	-107,344	0,031	0,005
-139,702	-53,422	0,054	-0,018
-138,687	85,339	0,088	-0,069
-137,672	373,093	-0,032	0,046
-136,658	-200,000	0,003	-0,082
-135,643	34,891	-0,069	0,043
-134,629	-24,213	0,090	-0,038
-133,614	-137,165	0,053	0,004
-132,599	390,099	0,109	0,160
-131,585	171,124	-0,018	0,018
-130,570	-200,000	0,011	-0,051
-129,556	288,263	-0,086	-0,111
-128,541	800,000	-0,032	-0,082
-127,526	-200,000	0,010	-0,060
-126,512	-92,111	-0,064	-0,013
-125,497	518,823	0,054	0,089
-124,483	480,938	0,062	0,100
-123,468	-165,359	0,110	-0,003
-122,453	-23,659	-0,018	-0,008
-121,439	54,753	-0,146	0,100
-120,424	-200,000	0,041	-0,174
-119,410	474,982	-0,046	-0,074
-118,395	800,000	-0,031	0,067
-117,380	36,395	-0,111	0,069
-116,366	-36,220	0,156	-0,059
-115,351	20,010	0,068	-0,038
-114,337	-4,932	-0,021	0,010
-113,322	800,000	0,051	0,136
-112,307	311,477	0,091	0,122
-111,293	117,826	-0,083	0,073
-110,278	-200,000	0,018	-0,079
-109,264	306,556	0,108	-0,143
-108,249	97,219	-0,088	-0,072
-107,234	-200,000	-0,045	-0,159
-106,220	522,787	0,022	-0,036
-105,205	-9,045	0,121	-0,057
-104,191	49,266	0,051	-0,034
-103,176	-200,000	-0,028	0,000
-102,162	-39,666	0,026	0,010
-101,147	-76,388	-0,015	0,004
-100,132	392,828	-0,066	-0,097
-99,118	-63,003	0,064	0,018
-98,103	800,000	-0,072	0,162
-97,089	259,713	0,017	0,021
-96,074	101,476	-0,059	0,048
-95,059	17,797	0,078	0,044
-94,045	-28,525	0,119	0,048
-93,030	-200,000	-0,009	-0,058
-92,016	-87,368	0,066	0,014
-91,001	366,712	0,038	0,055
-89,986	-200,000	-0,003	0,033
-88,972	-200,000	0,004	0,057
-87,957	33,860	0,087	-0,053
-86,943	335,682	-0,014	-0,020
-85,928	-123,543	-0,128	0,014
-84,913	181,548	0,051	-0,053
-83,899	-200,000	0,001	-0,061
-82,884	458,735	0,024	-0,038
-81,870	-166,221	-0,088	-0,003
-80,855	239,131	0,064	0,075
-79,840	90,780	-0,144	-0,114
-78,826	-200,000	-0,012	-0,167
-77,811	-200,000	0,023	0,118
-76,797	-182,691	0,137	0,002
-75,782	-109,202	0,078	-0,012
-74,767	800,000	0,061	0,153
-73,753	154,549	0,040	0,039
-72,738	44,078	-0,058	0,038
-71,724	-11,755	-0,107	-0,049
-70,709	74,970	0,020	-0,015
-69,694	-69,747	-0,124	-0,033
-68,680	71,456	-0,080	-0,059
-67,665	-200,000	-0,008	-0,118
-66,651	-70,843	0,061	-0,016
-65,636	-19,523	0,075	-0,033
-64,622	-91,655	0,088	-0,018
-63,607	-200,000	-0,007	-0,154
-62,592	800,000	0,077	0,156
-61,578	-200,000	0,019	-0,112
-60,563	800,000	0,049	-0,108
-59,549	-200,000	-0,016	0,082
-58,534	55,641	-2,038	-1,391
-57,519	483,457	-1,269	-2,044
-56,505	-200,000	-0,466	-4,508
-55,490	326,964	0,922	1,250
-54,476	800,000	5,519	12,008
-53,461	-200,000	21,857	340,758
-52,446	800,000	762,041	2313,653
-51,432	537,162	1658,742	2791,448
-50,417	70,185	1655,904	1205,516
-49,403	16,931	1530,097	852,940
-48,388	11,084	1454,083	782,343
-47,373	19,185	1445,962	816,741
-46,359	14,519	1434,838	788,286
-45,344	9,408	1431,115	761,916
-44,330	9,354	1429,101	760,552
-43,315	9,338	1427,150	759,408
-42,300	9,364	1425,332	758,537
-41,286	9,376	1424,254	757,988
-40,271	9,340	1422,908	757,072
-39,257	9,293	1422,070	756,375
-38,242	9,354	1420,721	755,912
-37,227	9,339	1419,781	755,314
-36,213	9,335	1418,314	754,486
-35,198	9,360	1417,000	753,875
-34,184	9,387	1416,045	753,460
-33,169	9,304	1414,922	752,445
-32,154	9,366	1413,750	752,083
-31,140	9,317	1412,498	751,156
-30,125	9,444	1411,183	751,023
-29,111	9,387	1410,180	750,193
-28,096	9,317	1409,231	749,330
-27,082	9,303	1407,827	748,488
-26,067	9,290	1406,880	747,894
-25,052	9,308	1406,015	747,487
-24,038	9,305	1404,963	746,887
-23,023	9,300	1404,085	746,368
-22,009	9,305	1402,814	745,682
-20,994	9,246	1402,049	744,974
-19,979	9,331	1400,980	744,771
-18,965	9,262	1400,043	743,921
-17,950	9,260	1398,992	743,324
-16,936	9,252	1398,134	742,801
-15,921	9,174	1397,366	742,003
-14,906	9,225	1396,368	741,680
-13,892	9,273	1395,334	741,323
-12,877	9,214	1394,733	740,702
-11,863	9,211	1393,890	740,210
-10,848	9,228	1392,590	739,569
-9,833	9,143	1392,001	738,834
-8,819	9,117	1391,245	738,282
-7,804	9,082	1390,397	737,643
-6,790	9,042	1389,301	736,848
-5,775	9,100	1388,077	736,438
-4,760	9,131	1387,030	735,992
-3,746	9,186	1386,048	735,697
-2,731	9,147	1385,347	735,114
-1,717	9,156	1384,280	734,563
-0,702	9,138	1382,484	733,498
0,313	13,103	1294,560	704,943
1,327	29,072	685,223	409,112
2,342	45,304	118,299	76,828
3,356	-0,815	16,677	8,305
4,371	8,855	3,662	1,942
5,386	-7,218	1,281	0,610
6,400	800,000	0,219	0,469
7,415	96,760	-0,145	-0,117
8,429	-22,236	-0,224	-0,095
9,444	225,523	-0,242	-0,276
10,459	13,450	-0,298	-0,163
11,473	-55,644	-0,271	-0,085
12,488	139,932	-0,171	-0,159
13,502	-47,041	-0,518	-0,177
14,517	64,722	-0,235	-0,167
15,531	225,054	-0,289	-0,330
16,546	-4,463	-0,391	-0,190
17,561	186,780	-0,246	-0,259
18,575	-70,276	-0,199	-0,053
19,590	75,075	-0,248	-0,184
20,604	59,760	-0,202	-0,140
21,619	13,507	-0,489	-0,267
22,634	41,448	-0,543	-0,346
23,648	163,730	-0,374	-0,371
24,663	57,759	-0,395	-0,272
25,677	-2,797	-0,283	-0,139
26,692	32,043	-0,378	-0,229
27,707	104,456	-0,334	-0,276
28,721	-8,530	-0,314	-0,148
29,736	174,414	-0,322	-0,328
30,750	140,508	-0,304	-0,282
31,765	8,624	-0,337	-0,178
32,780	76,645	-0,316	-0,235
33,794	67,542	-0,350	-0,251
34,809	50,897	-0,368	-0,245
35,823	76,386	-0,366	-0,273
36,838	540,904	-0,180	-0,302
37,853	6,014	-0,459	-0,238
38,867	145,185	-0,343	-0,323
39,882	122,703	-0,365	-0,321
40,896	741,903	-0,192	-0,364
41,911	-4,185	-0,378	-0,183
42,926	43,761	-0,353	-0,227
43,940	83,131	-0,370	-0,282
44,955	67,743	-0,373	-0,268
45,969	-17,659	-0,473	-0,208
46,984	-1,700	-0,469	-0,231
47,999	21,593	-0,352	-0,201
49,013	34,954	-0,397	-0,244
50,028	348,736	-0,159	-0,221
51,042	12,841	-0,311	-0,168
52,057	58,550	-0,389	-0,268
53,071	200,738	-0,341	-0,369
54,086	133,110	-0,313	-0,284
55,101	253,022	-0,192	-0,230
56,115	38,019	-0,397	-0,247
57,130	-85,806	-0,436	-0,094
58,144	-26,033	-0,363	-0,149
59,159	35,054	-0,380	-0,233
60,174	-16,926	-0,370	-0,163
61,188	384,224	-0,164	-0,237
62,203	38,348	-0,202	-0,126
63,217	37,569	-0,324	-0,201
64,232	31,694	-0,376	-0,226
65,247	18,599	-0,337	-0,189
66,261	230,111	-0,312	-0,358
67,276	-3,246	-0,413	-0,201
68,290	196,110	-0,296	-0,316
69,305	83,780	-0,379	-0,290
70,320	110,525	-0,299	-0,252
71,334	67,534	-0,232	-0,166
72,349	-9,706	-0,314	-0,146
73,363	89,127	-0,208	-0,162
74,378	77,019	-0,276	-0,205
75,393	119,006	-0,212	-0,183
76,407	-2,348	-0,250	-0,123
77,422	69,038	-0,313	-0,225
78,436	3,530	-0,338	-0,172
79,451	28,783	-0,409	-0,242
80,466	89,963	-0,307	-0,240
81,480	105,677	-0,359	-0,298
82,495	27,299	-0,406	-0,238
83,509	-21,547	-0,255	-0,108
84,524	-8,505	-0,312	-0,146
85,539	-21,394	-0,211	-0,090
86,553	58,401	-0,271	-0,186
87,568	296,177	-0,289	-0,372
88,582	-62,646	-0,304	-0,088
89,597	33,809	-0,276	-0,168
90,611	-5,338	-0,270	-0,129
91,626	-115,941	-0,252	-0,033
92,641	139,544	-0,278	-0,256
93,655	28,913	-0,271	-0,160
94,670	-53,305	-0,454	-0,145
95,684	-16,676	-0,281	-0,124
96,699	-15,407	-0,333	-0,148
97,714	32,977	-0,262	-0,158
98,728	656,850	-0,125	-0,225
99,743	-24,215	-0,220	-0,092
100,757	169,491	-0,285	-0,285
101,772	-39,241	-0,275	-0,100
102,787	800,000	-0,073	-0,189
103,801	147,749	-0,331	-0,312
104,816	91,830	-0,259	-0,204
105,830	302,698	-0,106	-0,137
106,845	178,753	-0,205	-0,209
107,860	-111,384	-0,306	-0,043
108,874	327,332	-0,193	-0,259
109,889	152,646	-0,296	-0,282
110,903	-37,982	-0,253	-0,093
111,918	130,114	-0,316	-0,282
112,933	-73,099	-0,232	-0,059
113,947	-8,136	-0,207	-0,097
114,962	24,276	-0,238	-0,137
115,976	78,037	-0,244	-0,182
116,991	234,266	-0,258	-0,298
118,006	36,647	-0,136	-0,084
119,020	120,545	-0,236	-0,205
120,035	61,572	-0,240	-0,166
121,049	370,596	-0,155	-0,220
122,064	208,204	-0,163	-0,178
123,079	251,984	-0,242	-0,288
124,093	181,578	-0,178	-0,183
125,108	80,562	-0,303	-0,228
126,122	413,195	-0,152	-0,226
127,137	41,341	-0,263	-0,166
128,151	259,489	-0,180	-0,217
129,166	-79,849	-0,298	0,069
130,181	-52,412	-0,250	-0,080
131,195	382,154	-0,210	-0,303
132,210	-15,065	-0,293	-0,130
133,224	73,722	-0,202	-0,148
134,239	-97,348	-0,337	-0,061
135,254	52,788	-0,132	-0,088
136,268	63,851	-0,240	-0,168
137,283	400,918	-0,203	-0,298
138,297	14,503	-0,330	-0,179
139,312	58,650	-0,336	-0,230
140,327	149,633	-0,193	-0,182
141,341	517,821	-0,139	-0,227
142,356	-15,193	-0,104	-0,046
143,370	77,142	-0,172	-0,127
144,385	135,742	-0,277	-0,251
145,400	99,571	-0,168	-0,135
146,414	86,452	-0,221	-0,170
147,429	297,572	-0,211	-0,271
148,443	-30,716	-0,264	-0,103
149,458	-27,507	-0,296	-0,119
150,473	-134,047	-0,252	-0,021
151,487	311,662	-0,160	-0,210
152,502	-24,432	-0,255	-0,105
153,516	289,586	-0,193	-0,245
154,531	122,747	-0,198	-0,172
155,546	332,781	-0,083	-0,112
156,560	686,806	-0,162	-0,296
157,575	800,000	-0,078	-0,235
158,589	0,085	-0,264	-0,130
159,604	29,802	-0,195	-0,115
160,619	-14,575	-0,281	-0,125
161,633	91,744	-0,248	-0,194
162,648	286,730	-0,210	-0,264
163,662	373,026	-0,186	-0,263
164,677	-71,355	-0,201	-0,052
165,692	234,152	-0,197	-0,226
166,706	94,062	-0,278	-0,219
167,721	293,915	-0,152	-0,193
168,735	6,449	-0,280	-0,144
169,750	708,966	-0,155	-0,285
170,764	800,000	-0,085	-0,214
171,779	86,997	-0,138	-0,106
172,794	-24,807	-0,210	-0,087
173,808	78,966	-0,284	-0,211
174,823	141,630	-0,376	-0,346
175,837	377,454	-0,180	-0,256
176,852	-77,813	-0,284	-0,068
177,867	187,312	-0,204	-0,212
178,881	385,834	-0,123	-0,177
179,896	199,107	-0,190	-0,203
180,910	107,243	-0,205	-0,169
181,925	133,741	-0,254	-0,228
182,940	328,648	-0,193	-0,258
183,954	37,065	-0,203	-0,125
184,969	102,729	-0,210	-0,170
185,983	68,533	-0,155	-0,110
186,998	-61,457	-0,142	-0,041
188,013	115,802	-0,283	-0,241
189,027	-38,937	-0,398	-0,145
190,042	106,184	-0,237	-0,195
191,056	415,615	-0,136	-0,202
192,071	229,458	-0,179	-0,203
193,086	800,000	-0,112	-0,250
194,100	53,018	-0,157	-0,104
195,115	182,065	-0,207	-0,212
196,129	800,000	-0,125	-0,263
197,144	253,430	-0,273	-0,323
198,159	149,683	-0,255	-0,240
199,173	115,116	-0,234	-0,198
200,188	70,039	-0,143	-0,102
201,202	-200,000	-0,018	-0,070
202,217	-136,602	-0,272	0,022
203,232	142,477	-0,246	-0,226
204,246	251,348	-0,163	-0,192
205,261	106,593	-0,152	-0,125
206,275	207,835	-0,172	-0,186
207,290	174,687	-0,126	-0,127
208,304	-1,418	-0,149	-0,072
209,319	277,569	-0,120	-0,148
210,334	800,000	-0,085	-0,254
211,348	100,534	-0,261	-0,209
212,363	303,080	-0,109	-0,140
213,377	282,981	-0,147	-0,183
214,392	166,353	-0,165	-0,162
215,407	-200,000	-0,189	-0,000
216,421	-124,260	-0,286	-0,031
217,436	211,132	-0,195	-0,212
218,450	12,004	-0,234	-0,124
219,465	378,810	-0,154	-0,218
220,480	18,790	-0,234	-0,130
221,494	800,000	-0,063	-0,152
222,509	-31,389	-0,159	0,062
223,523	-200,000	-0,079	-0,243
224,538	682,074	-0,081	-0,146
225,553	238,641	-0,227	-0,261
226,567	-36,524	-0,287	-0,106
227,582	308,354	-0,235	-0,305
228,596	144,138	-0,222	-0,205
229,611	31,224	-0,108	-0,064
230,626	151,813	-0,222	-0,210
231,640	178,350	-0,196	-0,198
232,655	-2,767	-0,294	-0,141
233,669	68,316	-0,274	-0,194
234,684	58,301	-0,083	-0,056
235,699	-200,000	-0,055	-0,202
236,713	-73,874	-0,146	-0,036
237,728	-154,878	-0,041	0,002
238,742	99,705	-0,179	-0,143
239,757	124,610	-0,218	-0,189
240,772	205,834	-0,219	-0,235
241,786	456,942	-0,160	-0,247
242,801	307,481	-0,157	-0,203
243,815	184,791	-0,094	-0,096
244,830	87,762	-0,180	-0,138
245,844	325,533	-0,096	-0,127
246,859	269,608	-0,153	-0,186
247,874	-122,994	-0,221	0,024
248,888	48,531	-0,285	-0,184
249,903	-200,000	-0,024	-0,223
250,917	22,559	-0,149	-0,084
251,932	-200,000	-0,081	-0,250
252,947	-73,401	-0,191	-0,048
253,961	224,591	-0,185	-0,206
254,976	55,059	-0,227	-0,151
255,990	279,637	-0,284	-0,350
257,005	-149,078	-0,186	-0,010
258,020	18,385	-0,231	-0,127
259,034	-107,877	-0,115	-0,017
260,049	123,138	-0,166	-0,143
261,063	207,313	-0,256	-0,276
262,078	763,462	-0,132	-0,248
263,093	42,844	-0,171	-0,108
264,107	800,000	-0,061	-0,165
265,122	28,300	-0,162	0,094
266,136	-200,000	-0,002	0,047
267,151	205,346	-0,085	-0,091
268,166	60,898	-0,148	-0,101
269,180	131,939	-0,204	-0,181
270,195	40,582	-0,260	-0,161
271,209	-74,174	-0,164	-0,041
272,224	-31,581	-0,085	0,033
273,239	432,489	-0,105	-0,158
274,253	-77,070	-0,232	-0,055
275,268	126,154	-0,161	-0,140
276,282	103,572	-0,249	-0,202
277,297	16,668	-0,239	-0,130
278,312	-10,670	-0,265	-0,120
279,326	176,817	-0,047	-0,047
280,341	473,492	-0,047	-0,073
281,355	-200,000	-0,029	-0,143
282,370	204,450	-0,186	-0,198
283,384	-36,516	-0,232	-0,085
284,399	23,108	-0,194	-0,109
285,414	67,678	-0,134	-0,094
286,428	136,371	-0,152	-0,136
287,443	226,071	-0,102	-0,114
288,457	800,000	-0,104	-0,302
289,472	84,349	-0,185	-0,139
290,487	-39,622	-0,206	-0,074
291,501	43,350	-0,144	-0,090
292,516	-61,554	-0,218	-0,063
293,530	-107,194	-0,150	-0,023
294,545	380,089	-0,130	-0,183
295,560	193,028	-0,076	-0,079
296,574	63,602	-0,191	-0,132
297,589	6,448	-0,172	-0,087
298,603	-34,669	-0,162	0,060
299,618	230,735	-0,149	-0,168
300,633	800,000	-0,060	-0,161
301,647	111,299	-0,172	-0,143
302,662	529,596	-0,065	-0,106
303,676	423,653	-0,091	-0,135
304,691	91,275	-0,227	-0,175
305,706	17,723	-0,151	-0,082
306,720	302,123	-0,062	-0,078
307,735	389,332	-0,125	-0,179
308,749	-200,000	-0,026	-0,162
309,764	17,974	-0,091	-0,050
310,779	67,774	-0,132	-0,092
311,793	259,264	-0,104	-0,123
312,808	99,167	-0,229	-0,181
313,822	44,350	-0,158	-0,100
314,837	-88,534	-0,159	0,032
315,852	51,296	-0,205	0,133
316,866	-17,750	-0,171	-0,073
317,881	-7,562	-0,166	-0,077
318,895	729,633	-0,119	-0,218
319,910	154,150	-0,133	-0,125
320,925	-49,053	-0,154	-0,050
321,939	237,769	-0,206	-0,234
322,954	768,931	-0,102	-0,192
323,968	73,996	-0,072	-0,052
324,983	-20,504	-0,260	-0,109
325,997	314,750	-0,143	-0,186
327,012	-200,000	-0,025	-0,173
328,027	150,358	-0,130	-0,121
329,041	96,180	-0,181	-0,142
330,056	-200,000	-0,033	-0,211
331,070	490,560	-0,094	-0,148
332,085	-29,548	0,054	-0,021
333,100	185,549	-0,067	-0,068
334,114	69,124	-0,119	-0,084
335,129	-200,000	-0,053	-0,244
336,143	127,081	-0,086	-0,075
337,158	-80,871	-0,174	-0,039
338,173	-0,079	-0,146	-0,071
339,187	135,343	-0,080	-0,071
340,202	74,360	-0,085	-0,061
341,216	357,286	-0,198	-0,271
342,231	128,109	-0,096	-0,084
343,246	223,038	-0,101	-0,111
344,260	-84,814	-0,147	-0,031
345,275	70,051	-0,171	-0,120
346,289	9,028	-0,183	-0,094
347,304	169,792	-0,075	-0,073
348,319	21,704	-0,266	-0,148
349,333	-29,226	-0,141	-0,055
350,348	-200,000	-0,049	-0,153
351,362	80,656	-0,161	-0,118
352,377	89,119	-0,083	-0,063
353,392	-44,700	-0,118	-0,040
354,406	242,713	-0,123	-0,141
355,421	208,004	1311,702	1403,090
356,435	160,031	1472,013	1403,539
