DTS Sentinel unit serial number:	SN410029Multiplexer serial number:	ORYXHardware model number:	OX2-SRSoftware version number:	ORYX F/W v4,00 Oryx Data Collector v3.7.2.0data status	okinstallation	B3 Nyhavnadifferential loss correction	single-endedforward channel	channel 1reverse channel	N/Adate	2023/12/03time	16:02:30forward acquisition time	300,00reverse acquisition time	0,00gamma	499,1914k internal	0,3197k external	0,3197temperature offset calibration	1,0000default loss term (dB/km)	0,3820temperature slope calibration	1,0000multiplexer offset coefficient	1,0000multiplexer slope coefficient	1,0000fibre end	0,00T internal ref (°C)	15,54T ext. ref 1 (°C)	0,03T ext. ref 2 (°C)	0,01length (m)	temperature (°C)	Stokes	anti-Stokes-744,400	147,027	-0,246	-0,241
-743,385	-200,000	0,057	0,192
-742,371	44,115	-0,218	-0,146
-741,356	-200,000	0,061	0,260
-740,342	30,584	-0,230	-0,143
-739,327	-200,000	-0,058	0,217
-738,312	423,748	-0,194	-0,304
-737,298	-200,000	0,097	0,365
-736,283	14,955	-0,273	-0,155
-735,269	-200,000	-0,032	0,344
-734,254	91,875	-0,170	-0,139
-733,239	-29,802	-0,262	0,108
-732,225	101,199	-0,137	-0,116
-731,210	219,991	0,108	0,126
-730,196	211,846	-0,017	0,020
-729,181	-200,000	-0,024	-0,089
-728,167	-200,000	-0,033	-0,218
-727,152	399,584	-0,041	-0,063
-726,137	119,675	-0,068	-0,061
-725,123	-200,000	0,047	-0,185
-724,108	-69,877	-0,237	-0,065
-723,094	800,000	-0,025	0,057
-722,079	-149,176	-0,132	0,008
-721,064	122,359	-0,106	0,097
-720,050	800,000	0,031	0,074
-719,035	-200,000	-0,005	-0,239
-718,021	-29,533	-0,029	-0,012
-717,006	-96,546	0,042	-0,008
-715,991	-200,000	-0,006	0,126
-714,977	397,680	0,001	-0,002
-713,962	-200,000	0,000	-0,065
-712,948	800,000	-0,054	0,130
-711,933	-39,625	-0,239	0,091
-710,918	800,000	-0,083	-0,172
-709,904	-76,056	-0,074	0,019
-708,889	-143,763	-0,013	-0,001
-707,875	800,000	0,018	-0,047
-706,860	291,426	0,078	-0,104
-705,845	34,146	-0,038	0,024
-704,831	-137,492	0,205	0,017
-703,816	-60,757	-0,080	-0,025
-702,802	-10,161	0,085	-0,041
-701,787	-147,226	-0,110	0,007
-700,772	800,000	-0,038	-0,082
-699,758	800,000	-0,019	-0,047
-698,743	800,000	0,013	0,037
-697,729	592,016	0,023	0,042
-696,714	-200,000	-0,023	0,096
-695,699	538,530	-0,063	0,109
-694,685	102,327	0,053	-0,045
-693,670	-122,250	-0,074	0,009
-692,656	256,264	0,029	-0,036
-691,641	-31,864	0,086	0,035
-690,627	-24,517	-0,212	0,091
-689,612	-153,391	-0,115	0,006
-688,597	-200,000	-0,014	0,050
-687,583	178,747	-0,061	0,065
-686,568	-200,000	-0,023	-0,140
-685,554	-200,000	0,011	0,055
-684,539	-49,812	-0,113	0,039
-683,524	478,577	-0,032	0,053
-682,510	-200,000	-0,005	0,044
-681,495	117,292	-0,086	-0,077
-680,481	547,294	0,019	0,034
-679,466	739,916	-0,043	-0,085
-678,451	-35,481	-0,108	-0,042
-677,437	174,074	-0,083	-0,088
-676,422	560,309	-0,080	0,140
-675,408	88,756	0,049	-0,040
-674,393	29,833	0,022	-0,013
-673,378	800,000	-0,056	-0,165
-672,364	584,418	-0,097	-0,174
-671,349	82,626	0,045	-0,035
-670,335	-200,000	0,006	-0,083
-669,320	-6,995	0,015	-0,007
-668,305	-43,852	-0,185	0,067
-667,291	-153,949	-0,053	0,003
-666,276	623,403	-0,055	0,100
-665,262	800,000	0,029	-0,072
-664,247	-127,686	-0,072	0,007
-663,232	-24,976	-0,084	-0,036
-662,218	-117,898	0,180	-0,023
-661,203	-77,278	0,083	-0,021
-660,189	-59,199	0,085	-0,026
-659,174	-113,506	-0,051	0,007
-658,159	-22,376	-0,123	0,054
-657,145	-200,000	0,018	0,070
-656,130	-71,501	-0,060	-0,016
-655,116	172,954	0,039	0,041
-654,101	-118,398	0,045	0,006
-653,086	800,000	-0,066	-0,163
-652,072	-200,000	0,002	-0,018
-651,057	-200,000	-0,006	-0,150
-650,043	-200,000	-0,003	-0,090
-649,028	-50,402	-0,070	-0,024
-648,014	-96,586	0,110	-0,021
-646,999	-132,535	-0,095	0,009
-645,984	-200,000	0,020	0,082
-644,970	-52,956	0,086	0,028
-643,955	-200,000	-0,006	-0,132
-642,941	304,581	-0,049	-0,067
-641,926	54,942	0,140	-0,098
-640,911	101,044	-0,012	-0,010
-639,897	-200,000	-0,003	0,078
-638,882	-200,000	-0,021	-0,084
-637,868	122,639	0,122	0,111
-636,853	-200,000	0,012	-0,092
-635,838	-200,000	0,009	-0,085
-634,824	778,213	0,031	-0,062
-633,809	789,620	0,086	-0,173
-632,795	7,673	-0,108	0,058
-631,780	-200,000	-0,001	0,073
-630,765	800,000	-0,031	-0,098
-629,751	58,504	-0,033	0,024
-628,736	-200,000	-0,051	-0,167
-627,722	-34,756	-0,012	0,005
-626,707	-200,000	0,014	0,051
-625,692	800,000	0,052	0,128
-624,678	800,000	-0,022	0,062
-623,663	362,812	0,046	0,067
-622,649	157,616	-0,096	-0,097
-621,634	647,863	-0,064	0,119
-620,619	361,098	0,078	0,114
-619,605	59,687	0,025	-0,018
-618,590	493,845	0,065	0,108
-617,576	-200,000	-0,006	0,031
-616,561	115,437	0,129	0,114
-615,546	-99,379	-0,120	0,022
-614,532	-65,952	0,092	0,026
-613,517	800,000	-0,045	-0,099
-612,503	800,000	-0,041	0,094
-611,488	248,509	0,197	0,242
-610,474	-200,000	0,020	0,176
-609,459	-99,741	0,121	0,022
-608,444	800,000	-0,028	0,088
-607,430	187,163	-0,031	-0,034
-606,415	800,000	0,081	-0,189
-605,401	229,980	-0,047	-0,056
-604,386	800,000	-0,037	-0,112
-603,371	430,442	0,018	0,029
-602,357	800,000	-0,026	-0,081
-601,342	-200,000	0,027	-0,180
-600,328	-200,000	-0,007	-0,075
-599,313	-148,667	-0,106	-0,006
-598,298	294,039	-0,066	-0,087
-597,284	-200,000	-0,039	0,127
-596,269	800,000	0,029	0,086
-595,255	800,000	-0,060	-0,133
-594,240	800,000	-0,043	-0,091
-593,225	-200,000	0,005	-0,050
-592,211	-48,270	-0,117	-0,041
-591,196	800,000	0,025	0,056
-590,182	-39,613	-0,087	-0,033
-589,167	-138,157	0,102	0,008
-588,152	-200,000	0,013	0,060
-587,138	92,134	0,103	0,084
-586,123	-200,000	-0,004	-0,045
-585,109	305,871	-0,067	-0,090
-584,094	368,611	-0,033	-0,048
-583,079	159,083	-0,152	-0,154
-582,065	87,155	0,051	0,041
-581,050	800,000	0,046	0,126
-580,036	788,384	0,086	0,171
-579,021	116,038	-0,126	0,112
-578,006	-118,126	-0,150	0,019
-576,992	-82,377	0,033	0,008
-575,977	800,000	-0,003	0,009
-574,963	-43,299	0,099	0,036
-573,948	-200,000	-0,033	0,118
-572,934	86,855	0,074	0,059
-571,919	-36,394	-0,132	0,051
-570,904	28,200	-0,031	0,019
-569,890	281,390	-0,100	-0,130
-568,875	-200,000	0,022	0,072
-567,861	-200,000	0,021	0,078
-566,846	266,177	-0,056	-0,071
-565,831	-76,795	-0,054	-0,014
-564,817	148,175	-0,015	-0,015
-563,802	6,010	-0,106	-0,057
-562,788	524,365	-0,055	-0,094
-561,773	-200,000	-0,019	0,118
-560,758	-200,000	0,006	0,084
-559,744	-75,379	0,280	0,072
-558,729	-200,000	-0,016	0,069
-557,715	-3,596	-0,118	-0,059
-556,700	-33,173	0,048	-0,019
-555,685	-200,000	-0,009	0,039
-554,671	161,637	0,070	-0,071
-553,656	-200,000	0,013	0,088
-552,642	153,303	0,031	-0,030
-551,627	-22,620	0,065	-0,028
-550,612	609,510	-0,051	-0,093
-549,598	800,000	-0,090	-0,186
-548,583	800,000	-0,057	-0,117
-547,569	176,963	0,055	0,058
-546,554	-30,444	0,085	0,035
-545,539	-200,000	-0,024	-0,088
-544,525	-164,602	0,081	-0,003
-543,510	9,279	-0,037	0,020
-542,496	-97,575	-0,155	-0,029
-541,481	-200,000	-0,022	-0,094
-540,466	695,699	-0,040	-0,075
-539,452	143,579	0,090	0,087
-538,437	68,867	0,116	0,086
-537,423	84,304	0,073	0,058
-536,408	573,652	0,006	-0,011
-535,393	-91,908	0,151	-0,031
-534,379	-34,327	-0,049	-0,019
-533,364	-200,000	-0,004	0,075
-532,350	342,822	0,015	-0,021
-531,335	97,053	0,101	-0,084
-530,321	-17,066	-0,048	0,022
-529,306	47,813	-0,093	0,063
-528,291	-200,000	-0,023	-0,120
-527,277	500,524	-0,039	0,065
-526,262	-99,147	0,035	0,006
-525,248	-200,000	-0,002	0,043
-524,233	-44,299	0,033	0,012
-523,218	153,077	0,074	0,073
-522,204	-166,007	-0,050	0,002
-521,189	249,730	-0,087	-0,107
-520,175	-148,513	-0,106	0,006
-519,160	-121,460	0,064	0,008
-518,145	-46,890	0,182	-0,064
-517,131	-200,000	0,013	-0,053
-516,116	-200,000	0,002	0,030
-515,102	-200,000	0,004	-0,136
-514,087	-93,740	-0,051	-0,010
-513,072	-7,869	-0,159	-0,077
-512,058	800,000	-0,028	-0,082
-511,043	-45,774	-0,053	0,019
-510,029	-200,000	0,055	0,259
-509,014	11,352	0,002	0,001
-507,999	-200,000	0,019	0,140
-506,985	55,074	0,073	-0,051
-505,970	-200,000	-0,023	0,088
-504,956	800,000	-0,053	0,158
-503,941	12,356	0,133	-0,074
-502,926	130,985	-0,104	-0,096
-501,912	-75,992	0,083	-0,021
-500,897	31,716	-0,063	0,039
-499,883	-100,620	-0,118	0,021
-498,868	-200,000	-0,003	-0,052
-497,853	51,243	-0,055	0,037
-496,839	-200,000	-0,023	0,141
-495,824	202,873	0,067	-0,075
-494,810	16,401	0,070	-0,040
-493,795	-200,000	-0,001	-0,061
-492,781	-24,521	0,113	-0,048
-491,766	-179,758	-0,128	0,002
-490,751	-200,000	-0,004	0,133
-489,737	-63,473	0,060	0,018
-488,722	800,000	-0,036	-0,089
-487,708	-130,836	0,050	0,005
-486,693	558,243	0,093	0,162
-485,678	20,143	0,066	0,038
-484,664	-89,726	-0,110	-0,023
-483,649	0,836	-0,134	-0,069
-482,635	780,060	0,014	-0,028
-481,620	-90,794	0,136	-0,028
-480,605	67,521	0,126	0,093
-479,591	93,279	-0,081	0,066
-478,576	49,765	-0,056	-0,038
-477,562	260,644	0,018	0,023
-476,547	800,000	-0,011	-0,023
-475,532	-166,315	-0,094	-0,003
-474,518	-84,304	-0,067	0,015
-473,503	-168,784	0,065	-0,002
-472,489	-174,273	0,295	0,006
-471,474	460,748	-0,040	0,064
-470,459	-132,125	-0,095	0,009
-469,445	225,692	0,063	0,073
-468,430	208,895	-0,017	0,019
-467,416	-108,450	0,082	0,013
-466,401	324,810	-0,008	-0,011
-465,386	218,551	0,025	-0,029
-464,372	280,258	-0,041	0,053
-463,357	-105,156	0,070	0,011
-462,343	164,031	0,024	-0,024
-461,328	800,000	0,041	-0,087
-460,313	9,632	0,106	0,058
-459,299	299,360	0,069	0,092
-458,284	732,619	0,069	0,133
-457,270	52,084	-0,079	0,054
-456,255	-104,030	-0,116	0,019
-455,241	253,018	0,027	0,033
-454,226	7,099	-0,129	-0,069
-453,211	38,875	0,046	0,029
-452,197	34,577	0,080	0,050
-451,182	-200,000	0,026	0,111
-450,168	-200,000	-0,006	0,098
-449,153	-200,000	0,004	-0,079
-448,138	509,063	0,019	-0,032
-447,124	346,059	0,118	-0,168
-446,109	-95,677	-0,149	-0,028
-445,095	-20,569	-0,040	-0,018
-444,080	273,040	0,030	0,039
-443,065	-200,000	-0,008	0,056
-442,051	-10,690	-0,071	-0,034
-441,036	-200,000	-0,010	-0,060
-440,022	173,149	0,066	-0,068
-439,007	57,586	-0,035	0,025
-437,992	-200,000	0,118	0,000
-436,978	174,390	-0,062	0,065
-435,963	135,842	-0,033	-0,031
-434,949	-200,000	-0,011	0,041
-433,934	800,000	-0,021	0,043
-432,919	238,203	-0,049	0,058
-431,905	-24,613	-0,056	-0,024
-430,890	127,805	0,070	0,064
-429,876	235,613	0,137	-0,163
-428,861	-200,000	-0,006	0,043
-427,846	338,444	-0,070	0,098
-426,832	18,467	-0,013	-0,007
-425,817	-116,126	-0,079	-0,010
-424,803	800,000	0,036	-0,090
-423,788	-200,000	0,031	-0,104
-422,773	-200,000	0,022	0,118
-421,759	-113,190	-0,022	-0,003
-420,744	-200,000	0,026	0,121
-419,730	-0,827	-0,015	-0,008
-418,715	268,987	0,072	-0,090
-417,701	-200,000	-0,004	-0,024
-416,686	-140,815	-0,053	-0,004
-415,671	13,469	0,101	0,056
-414,657	360,410	0,095	0,137
-413,642	800,000	-0,044	-0,088
-412,628	-200,000	0,008	-0,218
-411,613	53,725	-0,064	-0,044
-410,598	405,891	0,044	-0,067
-409,584	400,691	0,087	-0,131
-408,569	-200,000	0,001	0,147
-407,555	76,391	0,019	0,015
-406,540	-100,677	-0,028	0,005
-405,525	727,678	-0,015	-0,029
-404,511	-200,000	0,010	-0,069
-403,496	-10,272	0,014	-0,007
-402,482	-70,126	-0,047	-0,013
-401,467	35,057	-0,127	0,080
-400,452	57,502	-0,008	-0,005
-399,438	52,503	0,059	-0,040
-398,423	93,088	0,144	-0,117
-397,409	-200,000	0,024	-0,096
-396,394	800,000	-0,018	0,052
-395,379	800,000	-0,009	0,026
-394,365	634,926	-0,055	0,101
-393,350	-53,202	-0,038	0,012
-392,336	42,919	-0,113	-0,074
-391,321	-33,857	0,075	0,030
-390,306	-200,000	-0,023	-0,083
-389,292	2,465	-0,089	-0,046
-388,277	-17,112	-0,076	-0,034
-387,263	147,604	-0,100	0,097
-386,248	-200,000	0,000	-0,059
-385,233	168,122	0,089	0,091
-384,219	490,351	0,032	-0,054
-383,204	-200,000	-0,029	-0,116
-382,190	13,809	-0,126	0,070
-381,175	-200,000	0,026	-0,095
-380,160	800,000	0,010	-0,030
-379,146	179,995	0,059	0,062
-378,131	-94,904	-0,097	0,019
-377,117	67,245	-0,061	-0,044
-376,102	340,641	-0,022	0,031
-375,088	800,000	-0,041	-0,105
-374,073	-132,140	0,093	0,009
-373,058	-161,628	-0,038	0,001
-372,044	120,771	0,111	0,099
-371,029	-200,000	0,024	0,137
-370,015	128,571	0,030	0,027
-369,000	304,024	-0,053	0,071
-367,985	-200,000	0,005	-0,023
-366,971	-200,000	-0,010	0,060
-365,956	200,299	0,099	0,109
-364,942	-200,000	0,022	-0,124
-363,927	-98,775	0,100	0,018
-362,912	180,345	-0,092	-0,097
-361,898	-99,500	0,013	-0,002
-360,883	-200,000	-0,038	-0,144
-359,869	-200,000	-0,031	-0,107
-358,854	-200,000	-0,004	0,058
-357,839	-17,166	-0,094	-0,043
-356,825	25,799	0,044	-0,026
-355,810	-200,000	0,014	-0,046
-354,796	-142,321	-0,072	-0,005
-353,781	800,000	-0,033	-0,095
-352,766	59,014	0,092	-0,065
-351,752	800,000	0,012	0,028
-350,737	800,000	0,039	0,080
-349,723	-200,000	-0,026	0,136
-348,708	-200,000	-0,005	0,032
-347,693	800,000	0,042	-0,108
-346,679	-98,035	-0,120	-0,022
-345,664	-80,618	-0,162	0,038
-344,650	-200,000	-0,017	-0,126
-343,635	-158,819	0,161	0,006
-342,620	-83,184	0,143	0,033
-341,606	430,783	-0,024	0,037
-340,591	800,000	0,006	0,015
-339,577	-200,000	0,012	0,093
-338,562	384,144	0,065	-0,097
-337,548	-200,000	0,009	0,062
-336,533	-39,430	0,086	0,032
-335,518	193,355	0,024	0,026
-334,504	212,316	-0,033	0,038
-333,489	-200,000	-0,031	-0,109
-332,475	800,000	0,024	0,063
-331,460	-69,057	-0,140	-0,038
-330,445	43,373	0,028	-0,018
-329,431	800,000	0,069	-0,210
-328,416	-68,708	0,083	-0,023
-327,402	447,967	-0,045	-0,072
-326,387	-84,280	-0,054	0,012
-325,372	471,848	-0,076	-0,123
-324,358	57,556	-0,126	-0,088
-323,343	-200,000	0,006	0,049
-322,329	71,350	-0,066	-0,049
-321,314	-200,000	0,031	-0,110
-320,299	-164,402	0,196	-0,006
-319,285	800,000	-0,075	0,159
-318,270	-34,224	-0,059	0,023
-317,256	-10,360	-0,216	-0,102
-316,241	116,878	-0,031	-0,028
-315,226	-200,000	0,025	0,082
-314,212	-200,000	0,011	0,130
-313,197	257,525	0,020	0,025
-312,183	-200,000	-0,007	0,028
-311,168	800,000	-0,042	0,096
-310,153	109,488	-0,128	0,110
-309,139	800,000	-0,008	0,017
-308,124	22,245	0,024	0,014
-307,110	-91,324	-0,161	-0,033
-306,095	84,478	-0,086	0,067
-305,080	-103,001	0,085	-0,014
-304,066	84,230	-0,073	-0,057
-303,051	-200,000	0,013	0,051
-302,037	44,795	-0,050	-0,033
-301,022	800,000	0,004	-0,009
-300,008	-39,973	0,163	0,060
-298,993	217,421	-0,045	0,052
-297,978	168,813	-0,079	0,081
-296,964	14,837	0,042	0,023
-295,949	-126,318	0,053	-0,006
-294,935	-154,862	-0,093	-0,004
-293,920	-61,925	0,091	-0,027
-292,905	-3,921	0,078	0,039
-291,891	800,000	0,020	-0,064
-290,876	435,961	0,054	0,085
-289,862	110,604	-0,176	0,151
-288,847	-17,828	-0,074	-0,033
-287,832	159,926	-0,017	0,017
-286,818	609,856	0,049	-0,088
-285,803	-158,289	-0,023	0,001
-284,789	-200,000	-0,012	0,069
-283,774	-200,000	0,018	0,087
-282,759	63,049	0,137	0,098
-281,745	-200,000	-0,003	-0,096
-280,730	800,000	-0,038	-0,087
-279,716	315,438	0,033	0,044
-278,701	-127,615	-0,120	-0,012
-277,686	6,995	0,094	0,050
-276,672	64,894	0,098	0,071
-275,657	119,818	-0,036	0,032
-274,643	-104,962	-0,057	0,009
-273,628	-51,158	0,055	-0,018
-272,613	-200,000	-0,008	-0,044
-271,599	184,661	0,086	-0,091
-270,584	192,034	0,083	0,090
-269,570	-200,000	-0,000	0,116
-268,555	-89,943	-0,152	0,032
-267,540	-147,178	0,083	-0,005
-266,526	-98,781	0,032	-0,006
-265,511	-200,000	0,000	0,074
-264,497	-175,227	0,079	0,002
-263,482	308,006	0,035	-0,047
-262,467	45,308	-0,032	-0,021
-261,453	299,435	-0,093	-0,122
-260,438	154,441	0,070	-0,069
-259,424	249,218	-0,090	-0,109
-258,409	-79,726	0,067	0,016
-257,395	-200,000	0,014	-0,050
-256,380	148,814	-0,036	0,035
-255,365	-200,000	0,000	-0,026
-254,351	-24,735	-0,025	-0,010
-253,336	-62,818	-0,053	-0,015
-252,322	-107,323	-0,124	-0,019
-251,307	-200,000	0,001	-0,018
-250,292	-160,746	0,082	0,003
-249,278	800,000	-0,015	0,030
-248,263	282,858	0,063	0,080
-247,249	-73,314	0,075	-0,019
-246,234	129,313	-0,021	-0,019
-245,219	800,000	0,037	-0,109
-244,205	-200,000	-0,018	-0,209
-243,190	-157,993	0,070	0,003
-242,176	631,910	0,081	0,147
-241,161	625,125	-0,047	0,085
-240,146	321,778	0,032	-0,044
-239,132	-200,000	-0,022	-0,122
-238,117	-200,000	0,003	-0,132
-237,103	279,610	0,097	-0,124
-236,088	-200,000	-0,004	0,033
-235,073	45,402	0,012	-0,008
-234,059	519,036	-0,035	-0,059
-233,044	-200,000	0,025	0,156
-232,030	64,906	-0,031	-0,023
-231,015	14,800	0,107	-0,060
-230,000	15,348	0,003	-0,002
-228,986	-168,474	-0,068	0,002
-227,971	358,310	0,046	0,066
-226,957	-200,000	-0,004	0,089
-225,942	-200,000	-0,009	-0,039
-224,927	45,435	-0,071	0,047
-223,913	-74,508	0,071	-0,018
-222,898	563,518	0,052	-0,090
-221,884	81,568	0,087	-0,067
-220,869	250,389	-0,015	0,018
-219,855	-132,466	-0,106	-0,010
-218,840	-19,758	0,206	0,090
-217,825	163,634	-0,087	-0,087
-216,811	93,922	-0,109	-0,088
-215,796	167,498	-0,065	0,066
-214,782	627,487	-0,037	0,066
-213,767	422,935	0,051	-0,079
-212,752	119,636	0,074	0,066
-211,738	-200,000	-0,007	0,026
-210,723	-200,000	-0,043	-0,000
-209,709	-125,855	-0,192	0,020
-208,694	-200,000	-0,001	-0,058
-207,679	144,196	0,044	0,042
-206,665	-2,715	-0,087	0,043
-205,650	-73,579	0,101	0,026
-204,636	-46,898	0,097	-0,033
-203,621	-104,442	0,126	0,021
-202,606	32,812	-0,063	-0,039
-201,592	-10,589	-0,081	-0,038
-200,577	118,215	-0,125	-0,110
-199,563	134,183	0,018	0,017
-198,548	181,532	0,082	0,086
-197,533	-82,953	0,055	0,013
-196,519	-132,138	-0,070	-0,006
-195,504	121,092	-0,084	0,075
-194,490	220,108	-0,014	0,016
-193,475	-200,000	0,019	-0,086
-192,460	57,525	0,037	-0,026
-191,446	335,871	0,007	-0,010
-190,431	-200,000	0,012	0,038
-189,417	-71,560	-0,067	0,018
-188,402	-135,865	0,090	0,007
-187,387	48,413	-0,053	-0,035
-186,373	-200,000	-0,003	0,103
-185,358	-72,048	-0,124	0,033
-184,344	-60,129	-0,066	0,020
-183,329	-200,000	-0,021	-0,124
-182,315	-89,591	0,074	0,015
-181,300	-34,119	-0,025	-0,010
-180,285	800,000	-0,022	-0,047
-179,271	56,107	-0,083	-0,057
-178,256	-16,099	0,082	-0,037
-177,242	-200,000	-0,011	0,084
-176,227	88,484	-0,014	-0,011
-175,212	444,562	-0,086	-0,135
-174,198	800,000	0,052	0,122
-173,183	83,999	-0,050	0,039
-172,169	272,380	-0,029	0,037
-171,154	230,650	0,073	0,085
-170,139	-200,000	0,025	0,092
-169,125	-45,306	-0,012	0,004
-168,110	495,922	-0,041	-0,068
-167,096	-1,031	-0,043	-0,021
-166,081	-52,332	0,055	0,018
-165,066	-200,000	-0,006	0,079
-164,052	800,000	-0,023	-0,067
-163,037	-22,099	0,037	-0,016
-162,023	-49,102	0,086	-0,029
-161,008	-200,000	-0,010	0,062
-159,993	291,803	0,112	0,145
-158,979	-200,000	-0,020	-0,115
-157,964	-200,000	0,004	-0,035
-156,950	300,093	-0,099	-0,131
-155,935	558,056	0,064	0,110
-154,920	800,000	0,065	0,139
-153,906	-147,160	0,103	-0,006
-152,891	426,907	-0,078	-0,121
-151,877	800,000	-0,021	-0,057
-150,862	-81,502	-0,094	0,022
-149,847	100,980	-0,066	-0,055
-148,833	800,000	-0,015	-0,035
-147,818	800,000	-0,030	0,085
-146,804	49,460	0,089	0,060
-145,789	-200,000	0,005	0,097
-144,775	201,460	0,149	-0,163
-143,760	-199,076	-0,111	0,000
-142,745	-38,699	-0,189	-0,071
-141,731	800,000	0,043	-0,123
-140,716	800,000	0,035	0,072
-139,702	-163,140	0,190	-0,006
-138,687	-128,219	-0,051	-0,005
-137,672	-200,000	0,008	0,099
-136,658	147,330	-0,044	0,042
-135,643	-39,092	-0,071	-0,026
-134,629	-135,388	-0,022	-0,002
-133,614	91,883	-0,098	0,078
-132,599	121,245	-0,005	-0,004
-131,585	363,033	0,030	0,043
-130,570	800,000	0,039	-0,082
-129,556	-22,349	-0,068	-0,029
-128,541	460,948	0,076	0,121
-127,526	-73,182	-0,047	0,012
-126,512	532,995	0,072	0,121
-125,497	-64,771	0,057	0,016
-124,483	800,000	-0,008	0,022
-123,468	752,410	0,047	0,090
-122,453	747,473	-0,053	0,103
-121,439	800,000	0,021	0,047
-120,424	-80,317	0,030	-0,007
-119,410	-26,332	-0,103	0,043
-118,395	-140,497	0,129	-0,009
-117,380	472,638	0,057	-0,091
-116,366	800,000	-0,023	-0,070
-115,351	26,486	0,010	0,006
-114,337	625,352	-0,026	0,047
-113,322	800,000	0,051	-0,144
-112,307	94,444	0,064	0,052
-111,293	413,267	-0,054	0,082
-110,278	173,646	0,108	0,111
-109,264	343,798	-0,074	0,103
-108,249	-200,000	-0,021	0,165
-107,234	754,489	-0,042	-0,081
-106,220	-47,656	-0,118	0,040
-105,205	-105,865	-0,112	-0,018
-104,191	87,971	0,082	0,065
-103,176	26,499	0,156	0,093
-102,162	-200,000	-0,005	0,039
-101,147	-110,037	0,017	-0,003
-100,132	-159,921	-0,082	0,003
-99,118	-106,592	-0,116	0,018
-98,103	142,691	0,088	0,083
-97,089	-77,213	0,041	-0,010
-96,074	-0,684	-0,199	0,100
-95,059	-200,000	-0,034	0,197
-94,045	182,305	-0,110	-0,116
-93,030	116,220	-0,117	-0,102
-92,016	-149,850	-0,030	0,002
-91,001	-200,000	0,020	-0,144
-89,986	-113,197	0,130	0,018
-88,972	178,539	0,086	-0,090
-87,957	-200,000	0,036	0,146
-86,943	-37,847	-0,168	0,063
-85,928	425,724	-0,046	-0,071
-84,913	800,000	0,062	-0,131
-83,899	-200,000	0,000	0,100
-82,884	483,831	0,035	-0,057
-81,870	800,000	-0,003	0,008
-80,855	93,588	0,065	-0,052
-79,840	187,289	0,075	0,079
-78,826	458,616	0,003	-0,005
-77,811	-19,831	-0,132	-0,057
-76,797	-9,785	-0,053	0,025
-75,782	-152,746	-0,015	0,001
-74,767	106,169	-0,050	0,042
-73,753	-200,000	-0,004	-0,100
-72,738	25,368	0,079	-0,046
-71,724	-15,683	-0,179	0,081
-70,709	-200,000	0,015	0,130
-69,694	129,597	0,066	-0,060
-68,680	-200,000	0,015	-0,071
-67,665	-59,580	-0,074	0,022
-66,651	-200,000	0,000	-0,027
-65,636	173,589	0,085	-0,087
-64,622	-200,000	-0,043	-0,141
-63,607	187,222	-0,027	-0,029
-62,592	35,115	-0,059	0,036
-61,578	-56,381	-0,128	0,040
-60,563	134,062	0,044	0,040
-59,549	-200,000	-0,016	0,069
-58,534	-73,084	-1,537	-0,397
-57,519	357,035	-1,523	-2,159
-56,505	-200,000	-0,619	-4,541
-55,490	232,108	0,926	1,079
-54,476	800,000	4,635	11,053
-53,461	-200,000	18,022	286,479
-52,446	800,000	724,837	2231,356
-51,432	559,396	1640,016	2818,094
-50,417	80,257	1662,641	1267,195
-49,403	23,392	1536,540	893,176
-48,388	17,377	1459,863	819,506
-47,373	18,037	1449,854	817,030
-46,359	17,586	1440,391	809,511
-45,344	15,654	1435,552	797,548
-44,330	15,592	1433,566	796,115
-43,315	15,561	1431,987	795,058
-42,300	15,587	1430,457	794,303
-41,286	15,652	1429,200	793,883
-40,271	15,619	1427,668	792,840
-39,257	15,613	1426,698	792,245
-38,242	15,585	1425,396	791,357
-37,227	15,619	1424,242	790,848
-36,213	15,650	1422,628	790,066
-35,198	15,662	1421,559	789,495
-34,184	15,687	1420,590	789,043
-33,169	15,573	1419,610	787,933
-32,154	15,650	1418,512	787,653
-31,140	15,669	1417,090	786,924
-30,125	15,689	1415,883	786,313
-29,111	15,668	1414,612	785,479
-28,096	15,617	1413,654	784,678
-27,082	15,567	1412,598	783,824
-26,067	15,560	1411,372	783,081
-25,052	15,598	1410,385	782,678
-24,038	15,584	1409,377	782,023
-23,023	15,548	1408,481	781,326
-22,009	15,534	1407,404	780,631
-20,994	15,541	1406,353	780,051
-19,979	15,500	1405,555	779,385
-18,965	15,494	1404,604	778,802
-17,950	15,488	1403,751	778,267
-16,936	15,501	1402,712	777,721
-15,921	15,484	1401,480	776,928
-14,906	15,511	1400,567	776,515
-13,892	15,484	1399,721	775,894
-12,877	15,448	1398,786	775,173
-11,863	15,427	1397,814	774,508
-10,848	15,461	1397,029	774,199
-9,833	15,446	1395,873	773,460
-8,819	15,450	1394,802	772,852
-7,804	15,359	1393,974	771,944
-6,790	15,351	1393,330	771,519
-5,775	15,401	1392,007	770,990
-4,760	15,361	1391,180	770,313
-3,746	15,394	1390,574	770,101
-2,731	15,377	1389,575	769,439
-1,717	15,346	1388,694	768,778
-0,702	15,368	1386,802	767,800
0,313	19,181	1306,780	741,127
1,327	35,509	707,278	439,008
2,342	54,280	125,038	85,144
3,356	3,007	16,709	8,572
4,371	14,309	3,108	1,712
5,386	-44,190	0,521	0,184
6,400	-60,457	-0,037	0,011
7,415	122,490	-0,186	-0,165
8,429	143,525	-0,378	-0,356
9,444	150,162	-0,261	-0,251
10,459	30,139	-0,274	-0,165
11,473	-43,176	-0,341	-0,122
12,488	491,544	-0,145	-0,236
13,502	9,902	-0,393	-0,210
14,517	52,918	-0,332	-0,224
15,531	44,536	-0,366	-0,237
16,546	22,585	-0,334	-0,193
17,561	256,204	-0,254	-0,309
18,575	-154,499	-0,281	0,013
19,590	32,818	-0,296	-0,181
20,604	-51,936	-0,355	-0,116
21,619	149,983	-0,287	-0,275
22,634	50,489	-0,466	-0,311
23,648	105,472	-0,390	-0,326
24,663	31,411	-0,453	-0,274
25,677	65,974	-0,465	-0,333
26,692	120,408	-0,234	-0,205
27,707	-38,555	-0,369	-0,137
28,721	52,997	-0,367	-0,248
29,736	17,463	-0,519	-0,291
30,750	10,314	-0,446	-0,239
31,765	90,816	-0,375	-0,297
32,780	-22,855	-0,414	-0,176
33,794	140,265	-0,343	-0,320
34,809	104,627	-0,304	-0,253
35,823	67,032	-0,307	-0,221
36,838	117,661	-0,427	-0,371
37,853	129,369	-0,365	-0,330
38,867	278,994	-0,283	-0,358
39,882	10,687	-0,305	-0,164
40,896	108,614	-0,307	-0,259
41,911	32,202	-0,363	-0,220
42,926	83,114	-0,277	-0,212
43,940	293,407	-0,282	-0,364
44,955	25,502	-0,470	-0,275
45,969	290,725	-0,281	-0,362
46,984	51,700	-0,333	-0,223
47,999	-19,761	-0,422	-0,183
49,013	-16,371	-0,316	-0,141
50,028	156,106	-0,366	-0,356
51,042	34,724	-0,373	-0,230
52,057	241,073	-0,261	-0,308
53,071	160,155	-0,350	-0,345
54,086	28,345	-0,360	-0,214
55,101	15,467	-0,333	-0,184
56,115	31,410	-0,350	-0,211
57,130	53,848	-0,418	-0,283
58,144	12,140	-0,336	-0,182
59,159	76,112	-0,291	-0,217
60,174	73,087	-0,409	-0,301
61,188	-6,852	-0,401	-0,192
62,203	-23,467	-0,299	-0,126
63,217	33,804	-0,394	-0,241
64,232	70,297	-0,191	-0,139
65,247	-86,470	-0,299	-0,064
66,261	163,044	-0,390	-0,386
67,276	19,193	-0,406	-0,229
68,290	82,467	-0,398	-0,304
69,305	51,619	-0,282	-0,189
70,320	339,111	-0,164	-0,226
71,334	108,124	-0,294	-0,247
72,349	33,801	-0,301	-0,184
73,363	21,518	-0,389	-0,222
74,378	164,720	-0,177	-0,176
75,393	180,206	-0,237	-0,245
76,407	243,173	-0,231	-0,273
77,422	-47,464	-0,271	-0,092
78,436	70,768	-0,277	-0,202
79,451	251,926	-0,258	-0,310
80,466	-62,115	-0,342	-0,100
81,480	-61,202	-0,376	-0,111
82,495	0,694	-0,290	-0,145
83,509	38,059	-0,368	-0,230
84,524	72,346	-0,303	-0,222
85,539	-16,321	-0,250	-0,111
86,553	26,390	-0,295	-0,173
87,568	1,118	-0,277	-0,139
88,582	-79,535	-0,293	-0,069
89,597	70,365	-0,260	-0,188
90,611	-107,053	-0,232	-0,036
91,626	-135,968	-0,266	0,022
92,641	46,658	-0,252	-0,164
93,655	51,763	-0,285	-0,190
94,670	190,130	-0,334	-0,352
95,684	33,349	-0,321	-0,195
96,699	30,670	-0,402	-0,241
97,714	25,192	-0,241	-0,140
98,728	117,043	-0,218	-0,188
99,743	-39,637	-0,308	-0,113
100,757	71,214	-0,190	-0,139
101,772	85,058	-0,295	-0,227
102,787	107,273	-0,318	-0,265
103,801	101,242	-0,240	-0,196
104,816	-6,353	-0,263	-0,125
105,830	-58,830	-0,312	-0,094
106,845	535,572	-0,182	-0,305
107,860	-124,439	-0,226	-0,024
108,874	123,291	-0,210	-0,185
109,889	72,816	-0,296	-0,217
110,903	213,995	-0,293	-0,326
111,918	86,948	-0,220	-0,171
112,933	-44,023	-0,266	-0,093
113,947	123,387	-0,151	-0,133
114,962	174,966	-0,173	-0,175
115,976	-110,994	-0,275	-0,039
116,991	-37,761	-0,289	-0,107
118,006	41,942	-0,321	-0,204
119,020	140,730	-0,171	-0,158
120,035	70,163	-0,152	-0,110
121,049	220,585	-0,219	-0,247
122,064	37,194	-0,313	-0,194
123,079	-23,500	-0,319	-0,133
124,093	508,453	-0,134	-0,219
125,108	-38,005	-0,242	-0,090
126,122	124,131	-0,208	-0,183
127,137	47,757	-0,242	-0,158
128,151	-70,843	-0,300	-0,079
129,166	-38,380	-0,313	-0,115
130,181	168,674	-0,259	-0,258
131,195	70,611	-0,340	-0,246
132,210	266,183	-0,132	-0,162
133,224	20,675	-0,289	-0,164
134,239	111,922	-0,259	-0,219
135,254	134,137	-0,214	-0,194
136,268	67,289	-0,303	-0,216
137,283	57,836	-0,245	-0,167
138,297	-137,472	-0,198	-0,015
139,312	-89,082	-0,268	-0,055
140,327	44,804	-0,310	-0,200
141,341	32,588	-0,199	-0,120
142,356	206,854	-0,212	-0,232
143,370	9,013	-0,186	-0,098
144,385	-22,482	-0,279	-0,118
145,400	162,418	-0,286	-0,281
146,414	86,660	-0,321	-0,248
147,429	126,551	-0,209	-0,186
148,443	83,427	-0,234	-0,178
149,458	39,619	-0,242	-0,151
150,473	-73,229	-0,183	-0,047
151,487	152,849	-0,196	-0,188
152,502	-3,357	-0,264	-0,128
153,516	29,373	-0,283	-0,168
154,531	-39,808	-0,423	-0,154
155,546	741,093	-0,057	-0,107
156,560	253,170	-0,189	-0,226
157,575	59,279	-0,208	-0,143
158,589	118,949	-0,205	-0,177
159,604	-53,767	-0,277	-0,088
160,619	261,708	-0,216	-0,262
161,633	23,947	-0,274	-0,158
162,648	104,586	-0,187	-0,154
163,662	106,373	-0,246	-0,203
164,677	489,630	-0,102	-0,163
165,692	232,665	-0,169	-0,194
166,706	60,369	-0,216	-0,149
167,721	317,140	-0,102	-0,136
168,735	-14,823	-0,394	-0,176
169,750	356,972	-0,149	-0,208
170,764	65,642	-0,315	-0,222
171,779	-200,000	-0,085	-0,296
172,794	800,000	-0,050	-0,109
173,808	163,839	-0,196	-0,193
174,823	225,263	-0,249	-0,281
175,837	107,516	-0,329	-0,273
176,852	228,567	-0,171	-0,195
177,867	84,490	-0,219	-0,167
178,881	-200,000	-0,079	-0,256
179,896	55,022	-0,201	-0,136
180,910	74,197	-0,242	-0,177
181,925	800,000	-0,117	-0,237
182,940	276,319	-0,202	-0,251
183,954	101,472	-0,272	-0,221
184,969	-25,104	-0,164	-0,068
185,983	189,908	-0,103	-0,108
186,998	-145,443	-0,252	-0,016
188,013	95,256	-0,183	-0,145
189,027	-60,234	-0,188	-0,055
190,042	174,237	-0,235	-0,237
191,056	-119,824	-0,241	-0,029
192,071	508,679	-0,127	-0,207
193,086	106,916	-0,201	-0,167
194,100	83,510	-0,201	-0,153
195,115	45,587	-0,265	-0,170
196,129	-7,967	-0,258	-0,121
197,144	44,007	-0,244	-0,156
198,159	-38,255	-0,186	-0,068
199,173	-23,357	-0,197	-0,082
200,188	22,069	-0,239	-0,136
201,202	66,106	-0,202	-0,142
202,217	-118,672	-0,189	-0,023
203,232	47,171	-0,277	-0,179
204,246	41,016	-0,248	-0,156
205,261	-69,223	-0,209	-0,056
206,275	31,605	-0,220	-0,131
207,290	-144,919	-0,239	0,015
208,304	-62,490	-0,202	-0,058
209,319	141,397	-0,226	-0,209
210,334	400,029	-0,167	-0,244
211,348	115,213	-0,196	-0,166
212,363	27,456	-0,252	-0,147
213,377	63,771	-0,292	-0,204
214,392	590,004	-0,079	-0,135
215,407	800,000	-0,086	-0,210
216,421	800,000	-0,095	-0,251
217,436	401,408	-0,177	-0,260
218,450	13,124	-0,250	-0,134
219,465	18,202	-0,236	-0,131
220,480	135,267	-0,226	-0,204
221,494	-4,200	-0,185	-0,089
222,509	304,919	-0,078	-0,101
223,523	-162,970	-0,239	-0,008
224,538	-19,046	-0,261	-0,112
225,553	72,696	-0,286	-0,207
226,567	13,058	-0,243	-0,130
227,582	-52,372	-0,289	-0,092
228,596	279,893	-0,150	-0,186
229,611	33,276	-0,096	-0,058
230,626	568,624	-0,044	-0,075
231,640	-54,064	-0,275	-0,086
232,655	3,943	-0,259	-0,131
233,669	43,123	-0,302	-0,191
234,684	-133,480	-0,258	-0,022
235,699	88,150	-0,246	-0,189
236,713	-34,233	-0,195	-0,074
237,728	171,528	-0,190	-0,189
238,742	16,911	-0,329	-0,181
239,757	-106,267	-0,367	-0,056
240,772	181,721	-0,200	-0,204
241,786	242,311	-0,157	-0,182
242,801	70,535	-0,158	-0,113
243,815	-20,056	-0,139	-0,059
244,830	44,816	-0,122	-0,078
245,844	-71,333	-0,231	-0,060
246,859	45,790	-0,210	-0,135
247,874	-156,549	-0,108	-0,005
248,888	-25,075	-0,133	-0,054
249,903	-116,378	-0,206	-0,026
250,917	-165,821	-0,255	-0,007
251,932	342,541	-0,138	-0,188
252,947	26,778	-0,270	-0,156
253,961	260,840	-0,126	-0,152
254,976	110,527	-0,113	-0,094
255,990	16,234	-0,293	-0,160
257,005	189,203	-0,144	-0,149
258,020	458,912	-0,047	-0,073
259,034	-69,199	-0,153	-0,040
260,049	326,799	-0,095	-0,126
261,063	-35,922	-0,211	-0,079
262,078	154,457	-0,165	-0,157
263,093	12,537	-0,224	-0,119
264,107	-179,144	-0,252	-0,004
265,122	-106,539	-0,259	-0,040
266,136	32,748	-0,092	-0,055
267,151	-47,202	-0,185	-0,062
268,166	42,356	-0,052	-0,033
269,180	-137,570	-0,178	0,014
270,195	86,849	-0,190	-0,145
271,209	-33,150	-0,156	-0,059
272,224	14,837	-0,222	-0,120
273,239	-159,113	-0,214	-0,008
274,253	-110,150	-0,182	0,026
275,268	-31,960	-0,158	-0,061
276,282	73,217	-0,197	-0,142
277,297	-29,976	-0,295	-0,115
278,312	85,826	-0,139	-0,106
279,326	199,776	-0,100	-0,106
280,341	-98,596	-0,245	0,043
281,355	-16,292	-0,217	-0,095
282,370	458,549	-0,121	-0,187
283,384	193,492	-0,275	-0,288
284,399	91,445	-0,241	-0,187
285,414	117,624	-0,191	-0,162
286,428	191,915	-0,106	-0,110
287,443	38,223	-0,086	-0,053
288,457	-67,218	-0,129	-0,035
289,472	168,991	-0,096	-0,095
290,487	800,000	-0,071	-0,173
291,501	16,116	-0,153	-0,083
292,516	300,920	-0,192	-0,246
293,530	32,502	-0,072	-0,043
294,545	-200,000	-0,011	-0,035
295,560	-148,147	-0,087	0,005
296,574	82,095	-0,174	-0,130
297,589	-44,871	-0,155	-0,053
298,603	-52,666	-0,282	-0,089
299,618	17,687	-0,155	0,085
300,633	19,065	-0,127	-0,070
301,647	151,338	-0,174	-0,164
302,662	-200,000	-0,050	-0,162
303,676	363,000	-0,074	-0,102
304,691	-62,745	-0,179	-0,051
305,706	55,136	-0,150	-0,100
306,720	257,011	-0,132	-0,157
307,735	-111,490	-0,194	0,027
308,749	32,343	-0,194	-0,115
309,764	225,330	-0,129	-0,144
310,779	-115,847	-0,245	-0,031
311,793	52,727	-0,242	-0,159
312,808	59,810	-0,203	-0,138
313,822	-76,587	-0,239	-0,057
314,837	-159,074	-0,173	-0,007
315,852	216,199	-0,043	0,047
316,866	177,662	-0,039	-0,039
317,881	195,013	-0,044	-0,046
318,895	3,258	-0,102	-0,051
319,910	-102,519	-0,065	-0,011
320,925	-161,554	-0,240	-0,008
321,939	83,015	-0,142	-0,106
322,954	109,735	-0,098	-0,081
323,968	162,559	-0,147	-0,142
324,983	169,625	-0,157	-0,155
325,997	70,151	-0,122	0,087
327,012	800,000	-0,028	-0,072
328,027	-114,045	-0,313	-0,041
329,041	63,687	-0,220	-0,152
330,056	150,247	-0,172	-0,161
331,070	-119,285	-0,200	-0,024
332,085	582,873	-0,130	-0,220
333,100	-47,207	-0,193	-0,064
334,114	131,748	-0,211	-0,186
335,129	149,671	-0,164	-0,153
336,143	-56,644	-0,211	-0,064
337,158	38,241	-0,055	-0,034
338,173	146,027	-0,055	0,051
339,187	150,674	-0,098	-0,092
340,202	-119,306	-0,204	-0,024
341,216	800,000	-0,101	-0,240
342,231	-200,000	-0,013	-0,101
343,246	99,831	-0,094	-0,075
344,260	612,808	-0,083	-0,143
345,275	689,020	-0,070	-0,127
346,289	145,659	-0,140	-0,129
347,304	-28,140	-0,141	-0,056
348,319	123,380	-0,068	-0,059
349,333	218,864	-0,072	-0,080
350,348	240,730	-0,194	-0,223
351,362	179,255	-0,135	-0,136
352,377	17,500	-0,047	0,026
353,392	135,405	-0,093	-0,083
354,406	-24,771	-0,088	-0,036
355,421	210,453	1314,898	1420,156
356,435	162,015	1475,667	1420,673
