DTS Sentinel unit serial number:	SN410029Multiplexer serial number:	ORYXHardware model number:	OX2-SRSoftware version number:	ORYX F/W v4,00 Oryx Data Collector v3.7.2.0data status	okinstallation	B3 Nyhavnadifferential loss correction	single-endedforward channel	channel 1reverse channel	N/Adate	2023/12/02time	07:47:30forward acquisition time	300,00reverse acquisition time	0,00gamma	499,1914k internal	0,3194k external	0,3194temperature offset calibration	1,0000default loss term (dB/km)	0,3820temperature slope calibration	1,0000multiplexer offset coefficient	1,0000multiplexer slope coefficient	1,0000fibre end	0,00T internal ref (°C)	15,57T ext. ref 1 (°C)	0,33T ext. ref 2 (°C)	0,32length (m)	temperature (°C)	Stokes	anti-Stokes-744,400	136,211	-0,178	-0,169
-743,385	-200,000	0,016	0,282
-742,371	224,817	-0,150	-0,177
-741,356	-200,000	0,049	0,397
-740,342	-89,669	-0,151	-0,032
-739,327	313,231	0,229	0,314
-738,312	92,371	-0,161	-0,133
-737,298	-200,000	0,069	0,242
-736,283	-39,524	-0,267	-0,101
-735,269	458,721	0,144	0,234
-734,254	107,862	-0,225	-0,195
-733,239	-102,823	-0,216	0,037
-732,225	800,000	-0,103	-0,223
-731,210	-54,423	0,219	0,072
-730,196	-151,207	0,051	-0,003
-729,181	-200,000	0,005	-0,050
-728,167	567,739	0,032	-0,057
-727,152	800,000	-0,023	0,054
-726,137	800,000	-0,072	-0,168
-725,123	800,000	-0,023	0,056
-724,108	66,575	-0,019	-0,014
-723,094	29,744	-0,050	-0,031
-722,079	-100,289	-0,132	-0,024
-721,064	800,000	0,028	0,065
-720,050	-81,708	0,064	-0,015
-719,035	800,000	-0,024	0,052
-718,021	99,460	0,069	-0,058
-717,006	236,146	-0,085	-0,102
-715,991	-37,374	-0,098	-0,038
-714,977	800,000	-0,021	0,055
-713,962	-200,000	0,000	-0,019
-712,948	-82,928	-0,056	0,013
-711,933	-200,000	0,016	-0,148
-710,918	-70,357	0,061	0,017
-709,904	-20,063	0,084	-0,037
-708,889	800,000	-0,036	-0,089
-707,875	800,000	-0,045	-0,121
-706,860	5,405	0,112	-0,060
-705,845	56,451	0,029	0,020
-704,831	-84,638	0,162	-0,037
-703,816	118,869	-0,132	-0,119
-702,802	800,000	0,075	-0,188
-701,787	-1,757	-0,076	-0,039
-700,772	800,000	0,013	-0,029
-699,758	-189,163	-0,121	-0,001
-698,743	-97,786	0,108	-0,020
-697,729	38,682	-0,082	-0,053
-696,714	594,301	0,070	-0,127
-695,699	352,852	-0,068	-0,099
-694,685	-107,887	-0,129	-0,020
-693,670	-200,000	-0,011	0,109
-692,656	-20,630	0,062	-0,028
-691,641	-200,000	0,001	-0,035
-690,627	429,923	0,048	-0,075
-689,612	-200,000	-0,005	0,095
-688,597	-30,648	-0,076	0,031
-687,583	-200,000	-0,008	-0,158
-686,568	-97,764	0,147	0,027
-685,554	-200,000	0,007	0,031
-684,539	-102,453	0,116	0,020
-683,524	-131,290	-0,051	0,005
-682,510	-125,724	0,090	-0,010
-681,495	-200,000	-0,026	0,090
-680,481	152,441	0,078	-0,078
-679,466	-120,478	-0,177	0,022
-678,451	18,615	-0,086	-0,050
-677,437	231,015	-0,051	-0,061
-676,422	-95,066	0,122	-0,024
-675,408	359,625	-0,034	0,049
-674,393	-200,000	0,002	-0,046
-673,378	325,627	-0,114	-0,159
-672,364	-100,698	-0,152	0,027
-671,349	314,308	-0,087	-0,120
-670,335	-69,946	0,050	-0,014
-669,320	-89,707	0,050	0,011
-668,305	294,526	0,057	0,076
-667,291	-136,191	-0,060	0,005
-666,276	-96,895	-0,122	-0,023
-665,262	-15,911	0,104	0,048
-664,247	800,000	-0,021	-0,044
-663,232	187,452	0,036	0,039
-662,218	334,920	0,092	0,130
-661,203	-37,715	-0,062	-0,024
-660,189	-77,011	0,047	0,012
-659,174	-200,000	-0,012	-0,075
-658,159	75,682	-0,087	-0,067
-657,145	-200,000	-0,000	-0,023
-656,130	101,635	-0,105	-0,089
-655,116	800,000	-0,022	0,057
-654,101	477,842	0,015	-0,025
-653,086	138,664	-0,022	-0,021
-652,072	-200,000	-0,002	-0,041
-651,057	-200,000	-0,005	-0,056
-650,043	-200,000	-0,036	-0,169
-649,028	-200,000	0,022	-0,144
-648,014	-200,000	0,021	0,091
-646,999	-154,425	0,155	0,007
-645,984	-63,881	-0,162	0,048
-644,970	800,000	0,043	0,121
-643,955	-200,000	-0,002	-0,109
-642,941	40,640	-0,076	-0,050
-641,926	800,000	-0,040	-0,102
-640,911	-156,941	0,095	-0,004
-639,897	-200,000	0,011	0,056
-638,882	-105,473	-0,084	0,014
-637,868	45,275	0,025	0,017
-636,853	90,122	-0,092	-0,074
-635,838	121,438	-0,046	-0,042
-634,824	-1,505	0,032	-0,016
-633,809	88,205	0,056	-0,045
-632,795	-104,533	-0,103	-0,017
-631,780	332,824	-0,064	0,090
-630,765	72,859	-0,011	-0,008
-629,751	354,199	-0,051	0,074
-628,736	690,631	-0,012	0,024
-627,722	252,599	0,044	-0,055
-626,707	-200,000	0,001	-0,070
-625,692	800,000	-0,039	0,082
-624,678	83,753	0,034	-0,027
-623,663	800,000	-0,041	0,102
-622,649	279,078	-0,059	-0,077
-621,634	800,000	-0,040	-0,105
-620,619	-138,823	0,101	0,008
-619,605	-15,189	0,047	0,022
-618,590	-200,000	0,005	0,056
-617,576	-200,000	-0,007	0,115
-616,561	800,000	0,047	0,144
-615,546	-12,680	-0,155	0,073
-614,532	-26,103	-0,149	-0,063
-613,517	800,000	0,046	-0,107
-612,503	10,581	-0,120	0,066
-611,488	-200,000	-0,005	-0,150
-610,474	-25,353	0,109	0,047
-609,459	-7,617	-0,075	-0,037
-608,444	-200,000	0,009	0,076
-607,430	-80,420	-0,024	-0,006
-606,415	-46,765	0,051	-0,018
-605,401	-200,000	-0,003	-0,094
-604,386	98,575	0,042	0,035
-603,371	73,884	0,109	0,083
-602,357	118,580	-0,098	0,088
-601,342	-109,365	0,145	0,022
-600,328	-45,958	0,010	-0,004
-599,313	-19,372	-0,139	-0,062
-598,298	-22,028	-0,067	0,030
-597,284	-138,446	-0,060	-0,005
-596,269	137,519	-0,096	0,091
-595,255	214,474	0,036	-0,042
-594,240	-200,000	-0,005	-0,043
-593,225	-200,000	0,018	-0,144
-592,211	800,000	-0,029	-0,085
-591,196	-200,000	-0,028	-0,149
-590,182	800,000	0,048	-0,102
-589,167	-152,852	0,038	0,002
-588,152	314,306	-0,057	-0,079
-587,138	-200,000	-0,014	-0,056
-586,123	800,000	-0,012	0,034
-585,109	136,820	0,046	-0,044
-584,094	-105,943	-0,106	-0,017
-583,079	-43,355	-0,047	0,017
-582,065	409,303	0,064	-0,099
-581,050	110,220	0,113	0,099
-580,036	6,541	-0,078	0,042
-579,021	767,512	0,065	-0,129
-578,006	-11,256	-0,081	-0,038
-576,992	665,447	0,033	-0,063
-575,977	728,647	0,023	-0,045
-574,963	54,398	0,032	0,022
-573,948	-39,577	0,069	-0,026
-572,934	-49,457	-0,044	-0,015
-571,919	800,000	-0,067	-0,134
-570,904	328,130	-0,030	0,041
-569,890	-200,000	0,026	-0,270
-568,875	23,721	0,074	0,044
-567,861	-54,746	-0,093	0,030
-566,846	160,557	0,030	0,031
-565,831	800,000	0,043	0,113
-564,817	-78,929	0,040	0,010
-563,802	-200,000	-0,000	-0,063
-562,788	-8,330	-0,044	0,021
-561,773	-79,408	0,106	0,026
-560,758	800,000	0,045	0,123
-559,744	-200,000	0,009	0,077
-558,729	293,595	0,022	0,029
-557,715	800,000	-0,034	-0,080
-556,700	-200,000	-0,024	-0,145
-555,685	-108,245	-0,064	-0,010
-554,671	-83,176	0,035	-0,008
-553,656	10,912	0,054	-0,030
-552,642	-200,000	-0,012	0,155
-551,627	-138,399	-0,093	0,007
-550,612	126,696	0,081	0,075
-549,598	147,056	0,031	-0,030
-548,583	-40,605	-0,082	0,031
-547,569	-6,059	0,081	-0,040
-546,554	364,966	0,062	0,091
-545,539	38,463	0,128	-0,082
-544,525	94,304	0,052	0,043
-543,510	-200,000	0,003	-0,131
-542,496	9,025	-0,053	0,029
-541,481	-200,000	0,012	0,044
-540,466	-200,000	-0,005	0,063
-539,452	-8,060	0,086	0,042
-538,437	91,071	0,062	-0,050
-537,423	-92,780	-0,069	0,014
-536,408	-104,974	0,104	0,017
-535,393	-100,545	-0,141	-0,025
-534,379	-144,996	-0,309	-0,020
-533,364	317,763	-0,097	0,133
-532,350	73,180	0,056	-0,042
-531,335	27,400	-0,137	0,083
-530,321	-200,000	0,007	-0,075
-529,306	620,663	0,029	0,052
-528,291	-51,129	-0,059	0,020
-527,277	-95,153	0,027	-0,005
-526,262	-82,901	-0,152	-0,035
-525,248	-102,309	-0,046	-0,008
-524,233	-107,248	0,153	-0,024
-523,218	800,000	-0,014	0,042
-522,204	67,266	-0,067	0,049
-521,189	-200,000	0,016	-0,071
-520,175	-151,324	0,081	0,004
-519,160	251,631	0,036	-0,044
-518,145	157,156	-0,037	-0,037
-517,131	-8,167	0,099	0,048
-516,116	-47,386	-0,071	0,025
-515,102	176,397	-0,046	-0,048
-514,087	-81,893	0,051	0,012
-513,072	-158,955	-0,060	0,002
-512,058	39,808	0,093	-0,060
-511,043	286,463	-0,040	-0,053
-510,029	-118,440	0,056	-0,007
-509,014	-200,000	-0,012	0,072
-507,999	-187,180	0,113	-0,001
-506,985	-200,000	-0,013	-0,048
-505,970	73,763	-0,094	0,071
-504,956	-131,389	0,107	-0,010
-503,941	800,000	-0,009	0,019
-502,926	-16,965	0,084	0,038
-501,912	8,801	0,046	0,025
-500,897	-130,751	0,065	0,006
-499,883	-130,881	-0,023	0,002
-498,868	456,256	0,053	-0,085
-497,853	297,596	0,003	-0,004
-496,839	393,863	0,049	0,074
-495,824	-109,861	0,024	0,004
-494,810	34,251	0,021	-0,013
-493,795	800,000	-0,012	-0,026
-492,781	69,743	-0,087	-0,065
-491,766	76,039	-0,084	-0,064
-490,751	-200,000	-0,011	0,070
-489,737	-200,000	-0,016	-0,058
-488,722	-145,131	-0,034	0,002
-487,708	800,000	-0,009	0,029
-486,693	279,482	0,133	0,171
-485,678	800,000	-0,025	0,069
-484,664	197,097	0,063	-0,069
-483,649	-200,000	-0,005	-0,027
-482,635	-148,473	-0,010	0,001
-481,620	162,061	-0,140	-0,142
-480,605	-200,000	0,025	0,086
-479,591	33,295	0,038	-0,024
-478,576	242,383	0,015	-0,018
-477,562	-200,000	0,006	-0,142
-476,547	23,610	-0,202	-0,120
-475,532	800,000	-0,064	-0,194
-474,518	58,835	0,111	0,079
-473,503	-200,000	0,034	-0,208
-472,489	-122,766	-0,110	-0,013
-471,474	-86,335	0,083	-0,018
-470,459	-22,886	-0,196	-0,085
-469,445	-40,219	-0,023	0,009
-468,430	-48,889	-0,103	0,035
-467,416	-6,794	-0,148	0,072
-466,401	1,306	0,082	-0,043
-465,386	800,000	0,032	0,071
-464,372	86,648	0,031	-0,025
-463,357	396,684	-0,023	0,035
-462,343	-110,377	-0,059	0,009
-461,328	663,596	0,065	0,122
-460,313	800,000	-0,048	0,098
-459,299	62,642	0,096	0,069
-458,284	-139,297	-0,076	-0,006
-457,270	-200,000	-0,010	0,098
-456,255	340,239	0,017	0,024
-455,241	309,332	0,100	-0,135
-454,226	632,155	-0,078	0,143
-453,211	-14,577	-0,049	-0,023
-452,197	-200,000	0,020	0,215
-451,182	289,991	0,021	0,027
-450,168	-200,000	0,023	0,093
-449,153	215,863	-0,064	-0,073
-448,138	800,000	-0,063	-0,126
-447,124	-200,000	0,030	0,000
-446,109	-170,364	-0,111	-0,003
-445,095	-30,987	-0,061	0,025
-444,080	-200,000	-0,020	0,093
-443,065	-101,845	0,088	0,015
-442,051	139,932	-0,072	0,068
-441,036	37,359	-0,072	0,046
-440,022	-63,625	-0,084	0,025
-439,007	2,343	-0,103	0,053
-437,992	-200,000	-0,026	-0,110
-436,978	596,301	0,058	0,104
-435,963	-200,000	0,008	0,109
-434,949	-117,242	0,064	0,008
-433,934	437,444	-0,074	-0,117
-432,919	-200,000	0,010	-0,128
-431,905	800,000	0,020	0,052
-430,890	-9,631	0,064	-0,030
-429,876	-200,000	0,015	0,104
-428,861	597,193	-0,031	-0,056
-427,846	800,000	0,011	0,034
-426,832	-31,514	-0,076	0,031
-425,817	368,272	-0,091	-0,132
-424,803	64,643	0,055	0,040
-423,788	-200,000	-0,006	0,082
-422,773	-200,000	0,004	0,075
-421,759	310,306	0,047	0,064
-420,744	800,000	0,047	-0,121
-419,730	-34,600	-0,033	0,013
-418,715	257,273	-0,143	-0,177
-417,701	800,000	-0,030	0,082
-416,686	-44,100	0,080	0,029
-415,671	-14,577	0,201	-0,093
-414,657	-111,849	0,084	-0,012
-413,642	382,971	0,079	-0,118
-412,628	800,000	-0,033	-0,068
-411,613	10,367	-0,126	-0,069
-410,598	-200,000	-0,009	0,033
-409,584	800,000	0,020	0,041
-408,569	-121,308	0,153	-0,018
-407,555	-200,000	0,014	0,137
-406,540	193,444	0,121	-0,132
-405,525	119,329	-0,050	-0,044
-404,511	-200,000	0,005	-0,068
-403,496	-119,768	-0,123	-0,015
-402,482	397,135	0,050	0,076
-401,467	-200,000	0,008	0,054
-400,452	-82,266	-0,089	0,021
-399,438	800,000	0,037	0,105
-398,423	94,887	-0,089	0,073
-397,409	800,000	-0,059	-0,140
-396,394	-200,000	0,001	0,011
-395,379	331,226	0,037	-0,051
-394,365	-156,821	-0,167	-0,007
-393,350	2,793	0,127	0,066
-392,336	-67,995	0,135	0,038
-391,321	196,842	0,053	0,058
-390,306	55,013	-0,080	-0,055
-389,292	-200,000	0,008	-0,096
-388,277	-92,733	0,005	0,001
-387,263	800,000	0,070	-0,177
-386,248	93,901	0,122	0,099
-385,233	-40,301	0,064	0,024
-384,219	-13,247	-0,062	0,029
-383,204	800,000	-0,035	-0,092
-382,190	-46,148	0,074	-0,026
-381,175	22,913	-0,014	-0,008
-380,160	118,323	0,049	0,044
-379,146	800,000	0,053	0,136
-378,131	729,795	0,027	0,052
-377,117	-200,000	-0,019	0,100
-376,102	484,718	-0,014	0,023
-375,088	-200,000	0,025	-0,147
-374,073	800,000	-0,028	0,060
-373,058	-200,000	0,002	0,075
-372,044	-12,897	0,151	-0,071
-371,029	-28,847	-0,068	0,028
-370,015	181,986	-0,117	-0,124
-369,000	-200,000	0,007	0,073
-367,985	-130,578	0,149	-0,014
-366,971	22,657	-0,071	0,042
-365,956	197,194	-0,035	0,039
-364,942	359,010	-0,052	0,074
-363,927	-200,000	-0,017	0,148
-362,912	-122,692	0,084	-0,010
-361,898	-29,922	0,109	0,044
-360,883	-118,417	0,151	-0,019
-359,869	-173,088	-0,090	0,002
-358,854	800,000	0,028	0,063
-357,839	260,893	-0,014	0,017
-356,825	-66,176	0,085	-0,024
-355,810	36,060	0,132	0,083
-354,796	800,000	-0,012	0,035
-353,781	-113,792	0,084	0,012
-352,766	-37,156	-0,087	0,033
-351,752	635,985	0,077	-0,141
-350,737	-56,651	0,082	-0,026
-349,723	-8,240	0,095	-0,046
-348,708	316,143	0,086	0,117
-347,693	-123,965	-0,061	0,007
-346,679	-159,675	-0,040	0,002
-345,664	466,409	-0,066	0,106
-344,650	800,000	-0,051	-0,146
-343,635	-71,212	0,069	-0,018
-342,620	-115,596	-0,026	0,004
-341,606	800,000	-0,063	0,159
-340,591	800,000	-0,021	0,050
-339,577	800,000	-0,039	0,113
-338,562	336,031	-0,090	-0,126
-337,548	-163,997	-0,082	0,003
-336,533	106,964	-0,019	0,016
-335,518	285,369	0,110	0,143
-334,504	-200,000	0,008	0,052
-333,489	-200,000	-0,020	0,073
-332,475	-96,311	-0,120	-0,023
-331,460	-124,921	0,039	0,004
-330,445	-176,128	-0,114	0,002
-329,431	6,756	-0,066	-0,035
-328,416	166,116	0,050	-0,051
-327,402	-200,000	0,000	-0,031
-326,387	-64,458	0,059	-0,017
-325,372	177,124	-0,080	-0,083
-324,358	800,000	-0,021	-0,056
-323,343	263,730	-0,044	-0,055
-322,329	7,263	0,114	-0,061
-321,314	-200,000	0,003	0,046
-320,299	284,379	-0,027	0,035
-319,285	133,335	-0,062	-0,058
-318,270	-1,770	0,056	-0,028
-317,256	-95,507	-0,076	0,014
-316,241	800,000	-0,047	-0,128
-315,226	-78,128	-0,042	0,010
-314,212	800,000	0,038	-0,082
-313,197	-156,155	0,022	-0,001
-312,183	800,000	0,055	-0,149
-311,168	411,717	0,029	0,044
-310,153	-200,000	-0,042	0,142
-309,139	-200,000	0,005	0,048
-308,124	77,713	0,082	0,063
-307,110	800,000	0,014	0,043
-306,095	-200,000	0,001	0,127
-305,080	-151,987	0,118	0,006
-304,066	-200,000	0,012	0,069
-303,051	-77,654	-0,037	0,009
-302,037	800,000	-0,012	-0,030
-301,022	41,146	-0,147	-0,095
-300,008	-9,470	0,200	0,095
-298,993	165,240	0,094	0,095
-297,978	-200,000	-0,003	0,120
-296,964	-65,510	0,050	0,014
-295,949	-14,155	-0,068	0,031
-294,935	-49,447	0,048	-0,016
-293,920	800,000	0,030	-0,092
-292,905	-200,000	-0,008	0,117
-291,891	122,029	0,111	-0,100
-290,876	534,517	-0,037	-0,063
-289,862	537,488	-0,049	-0,084
-288,847	800,000	0,071	0,183
-287,832	403,478	-0,056	-0,084
-286,818	583,676	-0,053	0,094
-285,803	113,234	0,052	0,045
-284,789	-131,685	0,164	0,015
-283,774	706,418	0,021	-0,039
-282,759	-52,829	0,018	-0,006
-281,745	-70,846	0,083	0,022
-280,730	665,887	0,040	-0,074
-279,716	292,495	0,038	-0,050
-278,701	-200,000	0,011	-0,038
-277,686	-105,349	0,057	0,009
-276,672	-116,666	0,113	-0,015
-275,657	75,943	0,079	-0,060
-274,643	208,695	-0,054	0,061
-273,628	-200,000	-0,008	-0,075
-272,613	-200,000	0,007	-0,027
-271,599	-18,838	0,065	0,029
-270,584	-200,000	0,006	0,043
-269,570	629,828	0,040	0,072
-268,555	147,609	-0,070	0,068
-267,540	72,261	0,034	-0,025
-266,526	524,082	-0,007	0,012
-265,511	180,499	0,082	-0,086
-264,497	666,844	-0,053	0,098
-263,482	-14,123	-0,044	-0,020
-262,467	-16,337	-0,112	0,051
-261,453	-200,000	0,007	0,052
-260,438	51,765	0,140	-0,095
-259,424	-86,191	-0,097	-0,021
-258,409	-97,555	-0,117	-0,021
-257,395	14,196	-0,053	0,030
-256,380	800,000	-0,045	0,089
-255,365	58,846	-0,040	0,028
-254,351	-75,058	0,164	-0,042
-253,336	9,107	0,084	0,045
-252,322	-28,751	-0,137	0,056
-251,307	-69,288	-0,103	-0,028
-250,292	-25,333	-0,004	-0,002
-249,278	275,207	0,023	-0,029
-248,263	184,945	-0,090	-0,095
-247,249	-200,000	0,004	0,020
-246,234	800,000	-0,030	-0,082
-245,219	-30,536	-0,071	0,029
-244,205	-175,383	0,107	0,002
-243,190	13,661	-0,130	0,072
-242,176	-41,346	0,108	0,040
-241,161	800,000	0,041	0,118
-240,146	-136,152	-0,105	-0,009
-239,132	-200,000	-0,006	0,042
-238,117	138,441	0,033	0,031
-237,103	183,259	-0,073	-0,077
-236,088	234,874	0,051	-0,060
-235,073	450,129	0,103	0,163
-234,059	-200,000	0,024	-0,108
-233,044	336,802	-0,044	0,062
-232,030	417,241	-0,050	0,077
-231,015	22,979	-0,076	-0,044
-230,000	800,000	0,059	-0,118
-228,986	-200,000	0,020	0,092
-227,971	-200,000	-0,010	0,057
-226,957	800,000	0,056	0,147
-225,942	-74,915	-0,082	0,021
-224,927	157,883	-0,073	-0,073
-223,913	274,166	-0,100	-0,127
-222,898	-200,000	-0,007	-0,093
-221,884	-68,048	0,073	-0,020
-220,869	-143,706	0,134	0,009
-219,855	-93,475	-0,060	0,012
-218,840	200,545	0,056	0,062
-217,825	129,389	-0,101	0,092
-216,811	-200,000	-0,021	-0,130
-215,796	-200,000	-0,020	0,150
-214,782	-119,323	-0,069	-0,008
-213,767	78,629	-0,126	0,096
-212,752	-11,792	0,063	-0,030
-211,738	62,659	-0,062	-0,044
-210,723	619,896	-0,045	-0,081
-209,709	-24,461	0,107	0,045
-208,694	-200,000	0,010	-0,138
-207,679	379,474	0,025	-0,037
-206,665	13,432	-0,081	-0,045
-205,650	-200,000	-0,005	0,044
-204,636	-200,000	-0,035	0,143
-203,621	-102,888	-0,089	-0,015
-202,606	81,877	0,101	0,078
-201,592	-85,301	-0,128	-0,028
-200,577	73,511	-0,105	-0,079
-199,563	-66,968	0,126	-0,035
-198,548	-157,772	0,048	-0,002
-197,533	-200,000	0,016	-0,096
-196,519	-200,000	-0,034	0,143
-195,504	-200,000	-0,023	-0,151
-194,490	438,668	0,082	-0,128
-193,475	300,785	-0,070	-0,092
-192,460	-200,000	0,000	-0,036
-191,446	1,836	0,077	0,040
-190,431	800,000	0,016	0,043
-189,417	-200,000	-0,032	0,141
-188,402	-3,421	-0,093	-0,046
-187,387	58,950	0,104	-0,073
-186,373	-88,611	-0,089	-0,019
-185,358	406,846	-0,037	0,056
-184,344	286,840	0,050	0,064
-183,329	-81,960	0,128	0,030
-182,315	-200,000	-0,027	0,137
-181,300	314,695	-0,031	0,042
-180,285	194,404	0,107	0,116
-179,271	50,093	-0,018	0,012
-178,256	93,994	0,031	-0,025
-177,242	-200,000	0,012	0,044
-176,227	-200,000	0,011	0,176
-175,212	527,323	0,032	-0,053
-174,198	-98,207	0,088	-0,016
-173,183	252,039	-0,090	-0,110
-172,169	800,000	-0,016	-0,045
-171,154	0,775	0,031	0,016
-170,139	244,890	-0,012	-0,014
-169,125	9,704	0,051	-0,027
-168,110	203,383	0,034	0,037
-167,096	22,304	-0,168	-0,098
-166,081	386,156	0,064	-0,094
-165,066	-58,588	0,013	-0,004
-164,052	167,567	0,141	-0,142
-163,037	402,163	-0,102	-0,152
-162,023	794,718	-0,054	-0,107
-161,008	-200,000	0,008	-0,083
-159,993	-76,141	0,068	-0,017
-158,979	53,307	0,133	0,090
-157,964	224,781	-0,016	0,018
-156,950	336,978	-0,079	0,109
-155,935	238,997	0,087	-0,103
-154,920	89,208	0,032	-0,025
-153,906	-75,575	0,063	0,016
-152,891	-200,000	-0,009	-0,029
-151,877	666,669	-0,025	0,046
-150,862	800,000	0,050	0,139
-149,847	629,405	-0,034	-0,062
-148,833	454,904	-0,072	0,114
-147,818	-200,000	-0,007	-0,053
-146,804	21,165	-0,097	-0,056
-145,789	182,396	0,029	0,030
-144,775	-62,431	-0,084	-0,025
-143,760	69,555	-0,100	0,073
-142,745	-200,000	0,012	-0,088
-141,731	-47,000	0,075	0,026
-140,716	-200,000	-0,003	0,153
-139,702	362,887	0,063	0,091
-138,687	-100,227	0,099	0,017
-137,672	-0,834	-0,065	0,033
-136,658	-55,737	-0,093	-0,029
-135,643	800,000	-0,011	-0,025
-134,629	-16,477	-0,115	0,052
-133,614	-63,127	0,068	-0,020
-132,599	11,276	0,143	-0,078
-131,585	209,331	-0,019	0,021
-130,570	87,667	-0,074	0,059
-129,556	132,191	-0,085	-0,078
-128,541	322,959	0,073	-0,100
-127,526	-200,000	0,010	0,061
-126,512	-200,000	0,008	0,067
-125,497	-7,671	0,139	0,067
-124,483	800,000	-0,063	0,156
-123,468	277,752	-0,045	0,057
-122,453	226,143	-0,090	-0,104
-121,439	-200,000	0,024	-0,105
-120,424	800,000	-0,033	-0,083
-119,410	800,000	0,021	-0,060
-118,395	-200,000	0,028	0,115
-117,380	75,631	0,066	0,049
-116,366	173,075	-0,129	-0,133
-115,351	800,000	-0,051	-0,108
-114,337	-55,779	-0,080	-0,025
-113,322	-100,862	0,045	0,008
-112,307	-44,827	0,051	-0,018
-111,293	-200,000	-0,002	0,057
-110,278	262,397	0,097	0,120
-109,264	-84,795	-0,055	0,012
-108,249	-95,465	0,039	-0,007
-107,234	-200,000	-0,000	-0,182
-106,220	110,726	0,094	-0,081
-105,205	21,420	0,058	0,033
-104,191	217,908	0,075	0,085
-103,176	-200,000	0,055	0,217
-102,162	22,097	0,157	0,091
-101,147	-65,671	-0,030	0,009
-100,132	-61,176	-0,154	0,046
-99,118	-109,188	-0,070	0,010
-98,103	-23,421	0,130	-0,055
-97,089	-77,890	0,097	0,024
-96,074	800,000	-0,054	-0,127
-95,059	-200,000	0,012	0,081
-94,045	-200,000	-0,014	0,074
-93,030	51,692	-0,091	-0,061
-92,016	-200,000	-0,014	-0,060
-91,001	-5,597	0,100	0,049
-89,986	800,000	0,026	-0,063
-88,972	-60,233	0,146	0,044
-87,957	-200,000	-0,053	0,195
-86,943	-19,067	-0,078	-0,034
-85,928	-200,000	0,018	-0,106
-84,913	132,716	0,062	-0,056
-83,899	-169,633	-0,146	-0,004
-82,884	10,333	-0,032	-0,017
-81,870	800,000	0,074	0,171
-80,855	800,000	-0,039	0,100
-79,840	116,969	-0,029	0,025
-78,826	500,698	-0,075	-0,124
-77,811	39,998	-0,076	0,048
-76,797	-112,924	0,074	0,010
-75,782	430,070	0,058	0,089
-74,767	195,658	-0,126	0,136
-73,753	-123,506	0,211	-0,024
-72,738	2,140	0,034	0,017
-71,724	-200,000	0,015	0,082
-70,709	165,660	-0,101	0,102
-69,694	119,381	-0,107	0,094
-68,680	-200,000	0,029	0,000
-67,665	-36,682	-0,099	0,037
-66,651	286,392	0,040	0,051
-65,636	800,000	0,034	-0,078
-64,622	-60,571	-0,115	0,034
-63,607	-200,000	-0,027	-0,097
-62,592	74,927	0,056	0,042
-61,578	159,646	0,047	0,047
-60,563	-131,869	0,070	-0,006
-59,549	800,000	-0,068	0,190
-58,534	-83,565	-1,501	-0,338
-57,519	327,687	-1,537	-2,098
-56,505	-200,000	-0,495	-4,437
-55,490	106,009	0,895	0,751
-54,476	800,000	4,756	11,161
-53,461	-200,000	17,916	284,898
-52,446	800,000	723,631	2229,251
-51,432	561,858	1638,423	2822,247
-50,417	80,295	1661,404	1267,301
-49,403	23,451	1535,405	893,422
-48,388	17,381	1458,624	819,385
-47,373	18,080	1448,554	817,057
-46,359	17,621	1439,001	809,444
-45,344	15,699	1434,408	797,666
-44,330	15,622	1432,378	796,138
-43,315	15,619	1430,659	795,134
-42,300	15,618	1429,095	794,231
-41,286	15,696	1428,074	794,003
-40,271	15,664	1426,634	793,018
-39,257	15,650	1425,356	792,210
-38,242	15,716	1424,040	791,757
-37,227	15,679	1422,680	790,795
-36,213	15,704	1421,507	790,233
-35,198	15,671	1420,425	789,443
-34,184	15,691	1419,535	789,012
-33,169	15,637	1418,346	788,062
-32,154	15,666	1417,223	787,547
-31,140	15,695	1415,672	786,790
-30,125	15,712	1414,671	786,283
-29,111	15,684	1413,660	785,556
-28,096	15,664	1412,487	784,780
-27,082	15,626	1411,316	783,918
-26,067	15,574	1410,289	783,074
-25,052	15,583	1409,259	782,513
-24,038	15,605	1408,357	782,083
-23,023	15,584	1407,101	781,256
-22,009	15,590	1406,075	780,685
-20,994	15,496	1405,550	779,924
-19,979	15,520	1404,308	779,315
-18,965	15,521	1403,330	778,744
-17,950	15,506	1402,281	778,063
-16,936	15,521	1401,461	777,649
-15,921	15,509	1400,289	776,911
-14,906	15,465	1399,263	776,104
-13,892	15,519	1398,398	775,847
-12,877	15,548	1397,372	775,380
-11,863	15,512	1396,702	774,808
-10,848	15,470	1395,818	774,096
-9,833	15,456	1394,745	773,404
-8,819	15,465	1393,724	772,849
-7,804	15,388	1392,982	772,048
-6,790	15,432	1391,838	771,590
-5,775	15,416	1390,800	770,910
-4,760	15,371	1389,887	770,163
-3,746	15,381	1389,243	769,823
-2,731	15,435	1388,272	769,502
-1,717	15,389	1387,474	768,820
-0,702	15,372	1385,533	767,635
0,313	19,069	1305,926	740,658
1,327	35,269	706,964	438,559
2,342	54,101	125,163	85,216
3,356	4,231	16,635	8,608
4,371	7,407	3,019	1,594
5,386	-13,550	0,631	0,288
6,400	-200,000	0,021	-0,078
7,415	244,203	-0,150	-0,179
8,429	-58,946	-0,287	-0,087
9,444	203,999	-0,262	-0,288
10,459	3,596	-0,246	-0,127
11,473	176,781	-0,192	-0,198
12,488	-51,356	-0,404	-0,133
13,502	145,790	-0,272	-0,258
14,517	55,909	-0,366	-0,251
15,531	237,436	-0,309	-0,364
16,546	-30,375	-0,358	-0,143
17,561	180,917	-0,311	-0,324
18,575	-106,298	-0,276	-0,043
19,590	507,229	-0,168	-0,277
20,604	-8,397	-0,258	-0,122
21,619	102,153	-0,479	-0,396
22,634	152,908	-0,447	-0,433
23,648	115,425	-0,332	-0,287
24,663	209,446	-0,312	-0,347
25,677	12,540	-0,406	-0,221
26,692	68,657	-0,315	-0,228
27,707	-47,214	-0,279	-0,096
28,721	362,169	-0,298	-0,424
29,736	134,610	-0,320	-0,294
30,750	45,766	-0,423	-0,276
31,765	297,162	-0,223	-0,290
32,780	99,217	-0,356	-0,291
33,794	121,817	-0,353	-0,311
34,809	215,839	-0,310	-0,349
35,823	30,791	-0,410	-0,248
36,838	132,892	-0,309	-0,282
37,853	200,020	-0,371	-0,403
38,867	132,016	-0,399	-0,363
39,882	75,840	-0,332	-0,248
40,896	-39,635	-0,413	-0,152
41,911	269,661	-0,312	-0,389
42,926	21,173	-0,343	-0,196
43,940	29,032	-0,479	-0,286
44,955	252,705	-0,291	-0,351
45,969	800,000	-0,164	-0,376
46,984	48,384	-0,414	-0,273
47,999	123,544	-0,280	-0,248
49,013	83,234	-0,364	-0,279
50,028	88,759	-0,357	-0,280
51,042	386,352	-0,235	-0,343
52,057	234,532	-0,299	-0,349
53,071	58,592	-0,463	-0,321
54,086	71,337	-0,273	-0,200
55,101	116,673	-0,283	-0,245
56,115	69,644	-0,280	-0,203
57,130	145,208	-0,378	-0,357
58,144	-1,377	-0,419	-0,208
59,159	247,808	-0,313	-0,374
60,174	175,526	-0,291	-0,298
61,188	198,898	-0,274	-0,297
62,203	123,784	-0,337	-0,299
63,217	-20,423	-0,348	-0,150
64,232	-5,435	-0,449	-0,217
65,247	122,622	-0,254	-0,224
66,261	1,634	-0,457	-0,231
67,276	270,357	-0,308	-0,383
68,290	150,828	-0,247	-0,236
69,305	132,509	-0,311	-0,282
70,320	32,288	-0,318	-0,193
71,334	132,479	-0,284	-0,258
72,349	27,586	-0,258	-0,152
73,363	36,176	-0,314	-0,195
74,378	-58,502	-0,375	-0,114
75,393	138,098	-0,285	-0,264
76,407	163,954	-0,250	-0,248
77,422	8,043	-0,286	-0,151
78,436	8,342	-0,254	-0,134
79,451	-19,065	-0,367	-0,160
80,466	35,269	-0,343	-0,211
81,480	25,034	-0,396	-0,231
82,495	97,025	-0,241	-0,195
83,509	119,010	-0,306	-0,266
84,524	534,755	-0,134	-0,224
85,539	175,005	-0,251	-0,257
86,553	133,755	-0,277	-0,253
87,568	-5,490	-0,360	-0,173
88,582	115,869	-0,356	-0,306
89,597	-36,232	-0,341	-0,129
90,611	43,792	-0,391	-0,251
91,626	248,376	-0,220	-0,262
92,641	30,357	-0,139	-0,083
93,655	28,422	-0,369	-0,219
94,670	59,152	-0,348	-0,240
95,684	97,467	-0,306	-0,247
96,699	-69,597	-0,273	-0,073
97,714	2,328	-0,244	-0,123
98,728	800,000	-0,128	-0,291
99,743	47,012	-0,264	-0,172
100,757	103,177	-0,254	-0,209
101,772	51,987	-0,309	-0,207
102,787	90,784	-0,235	-0,185
103,801	-13,765	-0,204	-0,092
104,816	49,615	-0,182	-0,120
105,830	130,008	-0,295	-0,265
106,845	52,640	-0,187	-0,125
107,860	59,136	-0,207	-0,143
108,874	7,769	-0,343	-0,180
109,889	-37,789	-0,307	-0,114
110,903	112,707	-0,115	-0,098
111,918	129,333	-0,172	-0,154
112,933	-23,560	-0,245	-0,103
113,947	16,458	-0,258	-0,143
114,962	-59,505	-0,332	-0,100
115,976	20,437	-0,414	-0,234
116,991	103,884	-0,250	-0,206
118,006	-1,533	-0,270	-0,133
119,020	2,939	-0,353	-0,179
120,035	43,592	-0,266	-0,171
121,049	86,262	-0,240	-0,186
122,064	35,992	-0,228	-0,141
123,079	9,534	-0,174	-0,092
124,093	-76,483	-0,257	-0,063
125,108	-24,979	-0,414	-0,171
126,122	-63,990	-0,286	-0,081
127,137	42,997	-0,249	-0,159
128,151	26,838	-0,163	-0,096
129,166	-44,392	-0,267	-0,093
130,181	89,275	-0,168	-0,131
131,195	173,511	-0,205	-0,207
132,210	-54,787	-0,279	-0,088
133,224	-134,828	-0,222	-0,019
134,239	-59,292	-0,306	-0,092
135,254	313,846	-0,143	-0,190
136,268	45,771	-0,195	-0,126
137,283	114,876	-0,273	-0,233
138,297	71,620	-0,267	-0,194
139,312	-40,221	-0,261	-0,095
140,327	-23,726	-0,198	-0,083
141,341	-21,418	-0,275	-0,117
142,356	65,309	-0,195	-0,138
143,370	-99,781	-0,170	-0,030
144,385	273,090	-0,182	-0,225
145,400	102,232	-0,264	-0,215
146,414	215,300	-0,245	-0,272
147,429	800,000	-0,106	-0,218
148,443	-23,920	-0,311	-0,130
149,458	100,188	-0,274	-0,223
150,473	800,000	-0,107	-0,298
151,487	60,480	-0,219	-0,152
152,502	43,301	-0,315	-0,201
153,516	207,908	-0,202	-0,221
154,531	243,315	-0,189	-0,222
155,546	-60,948	-0,190	-0,056
156,560	269,522	-0,160	-0,196
157,575	273,824	-0,142	-0,176
158,589	-24,805	-0,183	-0,076
159,604	-29,276	-0,189	-0,075
160,619	75,932	-0,292	-0,216
161,633	-2,940	-0,331	-0,161
162,648	172,682	-0,264	-0,266
163,662	5,471	-0,333	-0,171
164,677	118,115	-0,229	-0,198
165,692	182,300	-0,079	-0,081
166,706	-7,779	-0,267	-0,126
167,721	169,574	-0,297	-0,297
168,735	25,041	-0,312	-0,180
169,750	9,341	-0,318	-0,167
170,764	100,963	-0,257	-0,209
171,779	-176,105	-0,222	-0,004
172,794	-67,096	-0,161	-0,044
173,808	-200,000	0,003	-0,161
174,823	388,719	-0,146	-0,211
175,837	116,845	-0,285	-0,244
176,852	725,796	-0,141	-0,264
177,867	77,122	-0,213	-0,158
178,881	-192,863	-0,185	0,001
179,896	104,761	-0,189	-0,155
180,910	267,482	-0,166	-0,203
181,925	0,731	-0,325	-0,162
182,940	304,895	-0,192	-0,250
183,954	311,588	-0,126	-0,166
184,969	-1,632	-0,230	-0,112
185,983	44,536	-0,144	-0,092
186,998	156,597	-0,142	-0,137
188,013	148,165	-0,172	-0,162
189,027	282,767	-0,224	-0,281
190,042	-84,121	-0,184	-0,040
191,056	318,831	-0,172	-0,227
192,071	665,358	-0,104	-0,188
193,086	50,650	-0,132	-0,087
194,100	-162,406	-0,204	-0,007
195,115	-39,601	-0,229	-0,083
196,129	656,963	-0,206	-0,371
197,144	274,996	-0,205	-0,254
198,159	97,387	-0,353	-0,282
199,173	306,595	-0,175	-0,228
200,188	22,401	-0,231	-0,131
201,202	231,215	-0,140	-0,161
202,217	51,735	-0,180	-0,119
203,232	800,000	-0,096	-0,241
204,246	124,113	-0,289	-0,253
205,261	73,470	-0,158	-0,115
206,275	31,525	-0,204	-0,122
207,290	-48,836	-0,152	-0,050
208,304	-2,271	-0,246	-0,120
209,319	-55,650	-0,208	-0,064
210,334	136,691	-0,160	-0,146
211,348	171,795	-0,181	-0,181
212,363	483,207	-0,142	-0,226
213,377	30,561	-0,152	-0,090
214,392	-76,503	-0,153	-0,037
215,407	7,486	-0,232	-0,120
216,421	-32,513	-0,160	-0,062
217,436	-49,954	-0,300	-0,098
218,450	134,073	-0,168	-0,152
219,465	190,659	-0,214	-0,224
220,480	417,353	-0,144	-0,215
221,494	800,000	-0,080	-0,178
222,509	95,196	-0,264	-0,209
223,523	-12,981	-0,159	-0,072
224,538	508,302	-0,163	-0,264
225,553	171,626	-0,175	-0,174
226,567	46,725	-0,239	-0,154
227,582	-92,634	-0,276	-0,053
228,596	800,000	-0,084	-0,243
229,611	-24,249	-0,240	-0,099
230,626	30,622	-0,308	-0,183
231,640	-56,292	-0,202	-0,062
232,655	262,433	-0,172	-0,208
233,669	156,527	-0,235	-0,225
234,684	-200,000	-0,050	-0,258
235,699	193,420	-0,188	-0,198
236,713	-54,661	-0,242	-0,076
237,728	99,643	-0,237	-0,190
238,742	34,918	-0,116	-0,071
239,757	435,762	-0,132	-0,200
240,772	-20,673	-0,213	-0,090
241,786	12,656	-0,237	-0,127
242,801	-156,436	-0,231	-0,010
243,815	27,486	-0,178	-0,104
244,830	40,122	-0,119	-0,074
245,844	460,981	-0,122	-0,190
246,859	108,920	-0,260	-0,216
247,874	168,600	-0,315	-0,312
248,888	108,075	-0,177	-0,147
249,903	42,364	-0,125	-0,079
250,917	129,442	-0,113	-0,100
251,932	145,588	-0,137	-0,128
252,947	-69,067	-0,155	-0,041
253,961	25,076	-0,266	-0,152
254,976	665,238	-0,112	-0,202
255,990	39,392	-0,142	-0,088
257,005	-123,122	-0,280	-0,031
258,020	421,559	-0,088	-0,132
259,034	-172,456	-0,076	-0,002
260,049	340,455	-0,108	-0,146
261,063	-200,000	-0,060	-0,192
262,078	-62,508	-0,224	-0,064
263,093	800,000	-0,139	-0,303
264,107	30,432	-0,121	-0,071
265,122	-27,211	-0,152	-0,061
266,136	-178,172	-0,247	-0,004
267,151	254,123	-0,110	-0,131
268,166	45,086	-0,199	-0,127
269,180	-82,465	-0,241	-0,054
270,195	611,968	-0,099	-0,173
271,209	-21,777	-0,148	0,062
272,224	-149,531	-0,141	0,008
273,239	25,781	-0,073	-0,042
274,253	214,348	-0,090	-0,099
275,268	97,875	-0,116	-0,093
276,282	72,661	-0,186	-0,134
277,297	756,895	-0,106	-0,199
278,312	-13,965	-0,131	-0,058
279,326	-63,978	-0,113	-0,032
280,341	457,771	-0,166	-0,257
281,355	-47,678	-0,111	-0,037
282,370	87,834	-0,142	-0,109
283,384	88,949	-0,266	-0,205
284,399	800,000	-0,109	-0,227
285,414	-129,862	-0,058	-0,005
286,428	151,071	-0,161	-0,151
287,443	118,304	-0,209	-0,179
288,457	-15,932	-0,171	-0,075
289,472	-200,000	0,025	-0,089
290,487	-200,000	-0,041	-0,192
291,501	-33,970	-0,214	-0,081
292,516	0,423	-0,218	-0,107
293,530	99,253	-0,178	-0,142
294,545	103,721	-0,146	-0,118
295,560	154,582	0,041	-0,039
296,574	-11,353	-0,134	-0,061
297,589	0,198	-0,166	-0,082
298,603	264,254	-0,157	-0,190
299,618	28,500	-0,175	-0,102
300,633	25,396	-0,284	-0,163
301,647	435,122	-0,177	-0,266
302,662	-145,605	-0,077	-0,005
303,676	-200,000	0,000	-0,272
304,691	800,000	-0,054	-0,115
305,706	-44,553	-0,110	0,038
306,720	-71,842	-0,285	-0,073
307,735	33,327	-0,144	-0,086
308,749	-68,859	-0,116	-0,031
309,764	647,396	-0,079	-0,140
310,779	255,274	-0,207	-0,245
311,793	800,000	-0,074	-0,179
312,808	-47,206	-0,145	-0,049
313,822	196,937	-0,080	-0,084
314,837	108,393	-0,031	-0,026
315,852	-132,800	-0,037	0,003
316,866	-37,512	-0,098	0,036
317,881	-9,728	-0,120	-0,055
318,895	-193,680	-0,085	-0,000
319,910	800,000	-0,040	0,089
320,925	456,077	-0,146	-0,223
321,939	-200,000	0,000	-0,156
322,954	-200,000	-0,031	-0,155
323,968	-200,000	-0,063	-0,193
324,983	567,409	-0,131	-0,220
325,997	101,846	-0,141	-0,113
327,012	510,228	-0,127	-0,205
328,027	-28,850	-0,147	-0,058
329,041	214,772	-0,107	-0,117
330,056	721,157	-0,078	-0,143
331,070	-37,165	-0,127	-0,047
332,085	-135,394	-0,128	-0,010
333,100	-200,000	-0,028	-0,105
334,114	182,584	-0,083	-0,084
335,129	120,307	-0,156	-0,134
336,143	-200,000	-0,018	-0,065
337,158	8,274	-0,169	-0,087
338,173	-28,470	-0,147	-0,058
339,187	-145,648	-0,113	-0,007
340,202	-15,298	-0,166	-0,073
341,216	-54,672	-0,141	-0,044
342,231	19,102	-0,106	-0,058
343,246	-101,025	-0,245	-0,041
344,260	76,014	-0,147	-0,107
345,275	-200,000	-0,043	-0,165
346,289	287,135	-0,081	-0,101
347,304	-34,784	-0,200	-0,075
348,319	449,922	-0,089	-0,135
349,333	-80,642	-0,207	-0,047
350,348	17,779	-0,164	-0,090
351,362	106,919	-0,178	-0,146
352,377	-200,000	0,008	-0,179
353,392	382,301	-0,121	-0,171
354,406	-200,000	-0,051	-0,188
355,421	209,543	1314,608	1418,039
356,435	161,279	1475,346	1418,565
