DTS Sentinel unit serial number:	SN410029Multiplexer serial number:	ORYXHardware model number:	OX2-SRSoftware version number:	ORYX F/W v4,00 Oryx Data Collector v3.7.2.0data status	okinstallation	B3 Nyhavnadifferential loss correction	single-endedforward channel	channel 1reverse channel	N/Adate	2023/11/29time	11:02:30forward acquisition time	300,00reverse acquisition time	0,00gamma	499,1914k internal	0,3211k external	0,3211temperature offset calibration	1,0000default loss term (dB/km)	0,3820temperature slope calibration	1,0000multiplexer offset coefficient	1,0000multiplexer slope coefficient	1,0000fibre end	0,00T internal ref (°C)	9,50T ext. ref 1 (°C)	-5,57T ext. ref 2 (°C)	-5,72length (m)	temperature (°C)	Stokes	anti-Stokes-744,400	190,440	-0,245	-0,267
-743,385	-200,000	-0,035	0,342
-742,371	396,370	-0,118	-0,179
-741,356	800,000	0,129	0,380
-740,342	93,961	-0,240	-0,197
-739,327	-200,000	-0,060	0,210
-738,312	800,000	-0,122	-0,344
-737,298	641,876	-0,068	0,127
-736,283	161,234	-0,246	-0,250
-735,269	-200,000	0,068	0,231
-734,254	222,932	-0,329	-0,385
-733,239	68,475	-0,169	0,125
-732,225	86,771	-0,212	-0,169
-731,210	800,000	0,015	0,048
-730,196	569,211	-0,057	-0,101
-729,181	-200,000	0,020	-0,076
-728,167	49,442	-0,201	-0,137
-727,152	148,822	-0,125	-0,122
-726,137	-127,800	-0,218	0,023
-725,123	-129,641	-0,031	0,003
-724,108	255,767	-0,083	-0,103
-723,094	-115,177	0,041	-0,006
-722,079	800,000	0,038	-0,119
-721,064	800,000	0,050	-0,121
-720,050	137,182	-0,070	-0,066
-719,035	-82,733	0,135	-0,031
-718,021	82,040	-0,141	-0,110
-717,006	-200,000	0,008	-0,044
-715,991	-200,000	0,013	-0,147
-714,977	-79,667	-0,211	-0,051
-713,962	-184,342	0,107	-0,001
-712,948	800,000	-0,034	-0,077
-711,933	-200,000	-0,012	0,095
-710,918	371,628	-0,012	-0,017
-709,904	-200,000	-0,053	-0,253
-708,889	-200,000	-0,021	-0,162
-707,875	-93,679	-0,086	-0,017
-706,860	-88,440	0,114	0,024
-705,845	-128,387	0,082	-0,008
-704,831	800,000	-0,047	-0,130
-703,816	702,668	-0,061	0,117
-702,802	-77,783	-0,130	-0,032
-701,787	26,917	-0,040	0,024
-700,772	64,167	-0,033	-0,024
-699,758	592,301	0,069	-0,124
-698,743	-200,000	0,008	0,052
-697,729	800,000	-0,029	-0,062
-696,714	-24,400	0,091	0,039
-695,699	394,015	-0,067	-0,101
-694,685	247,691	-0,057	-0,070
-693,670	-67,374	-0,067	-0,019
-692,656	-200,000	0,002	-0,122
-691,641	17,266	-0,159	0,091
-690,627	800,000	0,064	0,141
-689,612	-200,000	0,022	-0,193
-688,597	-200,000	0,048	-0,212
-687,583	33,212	-0,091	-0,057
-686,568	-96,063	-0,136	-0,026
-685,554	-200,000	0,024	0,084
-684,539	53,221	0,181	0,126
-683,524	-64,124	-0,142	0,042
-682,510	-200,000	0,004	-0,213
-681,495	-200,000	-0,023	0,168
-680,481	401,787	0,080	-0,122
-679,466	-52,429	-0,101	0,034
-678,451	106,931	0,059	0,050
-677,437	158,254	0,027	0,027
-676,422	75,469	-0,019	-0,015
-675,408	-122,246	-0,025	-0,003
-674,393	800,000	-0,025	-0,069
-673,378	-200,000	-0,024	-0,178
-672,364	-43,259	-0,040	-0,015
-671,349	114,771	-0,090	-0,079
-670,335	700,528	0,029	-0,056
-669,320	-200,000	0,007	0,034
-668,305	680,681	-0,037	0,069
-667,291	-8,640	-0,011	0,005
-666,276	4,353	0,063	0,033
-665,262	54,301	-0,117	-0,081
-664,247	-200,000	0,021	-0,091
-663,232	379,510	0,057	0,084
-662,218	-200,000	0,064	-0,000
-661,203	-66,190	0,021	0,006
-660,189	-200,000	0,033	0,138
-659,174	569,336	0,060	-0,105
-658,159	372,243	-0,063	-0,093
-657,145	-103,985	-0,181	0,030
-656,130	207,890	0,027	-0,031
-655,116	800,000	-0,034	0,103
-654,101	800,000	0,005	-0,015
-653,086	-96,836	-0,036	0,007
-652,072	110,133	-0,104	-0,090
-651,057	50,825	-0,073	0,050
-650,043	-47,882	-0,047	0,016
-649,028	-147,484	0,021	-0,001
-648,014	-200,000	-0,028	0,110
-646,999	705,819	-0,013	0,025
-645,984	800,000	0,022	-0,050
-644,970	427,699	-0,037	-0,058
-643,955	-200,000	0,004	0,053
-642,941	800,000	-0,093	-0,291
-641,926	-200,000	-0,003	0,057
-640,911	-200,000	-0,011	0,067
-639,897	-84,619	0,050	0,011
-638,882	800,000	0,033	-0,070
-637,868	71,249	-0,133	-0,099
-636,853	300,025	0,012	-0,016
-635,838	800,000	0,040	-0,118
-634,824	491,588	0,036	-0,059
-633,809	115,544	-0,092	0,082
-632,795	-200,000	0,011	-0,093
-631,780	-117,758	-0,019	0,002
-630,765	-192,904	-0,111	-0,001
-629,751	24,601	-0,179	0,107
-628,736	763,590	0,044	-0,086
-627,722	255,441	-0,120	-0,149
-626,707	93,980	-0,111	0,091
-625,692	739,720	0,012	-0,024
-624,678	-159,991	-0,091	-0,004
-623,663	120,995	-0,033	0,030
-622,649	174,948	-0,071	0,074
-621,634	27,435	0,083	-0,050
-620,619	-76,036	0,151	-0,038
-619,605	343,170	-0,054	-0,076
-618,590	-200,000	0,007	0,087
-617,576	507,143	-0,020	0,034
-616,561	800,000	0,018	0,036
-615,546	593,671	-0,078	-0,140
-614,532	-36,225	-0,140	0,054
-613,517	-46,929	0,026	0,009
-612,503	118,834	0,016	0,014
-611,488	-200,000	0,024	0,172
-610,474	-200,000	-0,009	-0,089
-609,459	46,898	0,089	-0,059
-608,444	-199,916	-0,139	-0,000
-607,430	-22,849	0,064	-0,028
-606,415	199,357	-0,095	-0,105
-605,401	-53,702	0,096	-0,031
-604,386	800,000	-0,030	0,061
-603,371	238,814	0,073	-0,088
-602,357	800,000	0,008	-0,025
-601,342	244,903	-0,063	-0,076
-600,328	-111,501	-0,103	0,015
-599,313	92,863	-0,075	-0,061
-598,298	208,778	-0,132	-0,150
-597,284	83,559	0,008	0,007
-596,269	800,000	-0,082	0,205
-595,255	-200,000	0,004	-0,031
-594,240	-200,000	0,004	-0,081
-593,225	-200,000	-0,004	-0,190
-592,211	353,984	0,040	-0,057
-591,196	50,537	0,022	-0,015
-590,182	13,454	-0,020	-0,011
-589,167	-200,000	-0,003	0,040
-588,152	-27,969	0,182	-0,076
-587,138	-200,000	0,022	-0,114
-586,123	32,819	-0,047	0,030
-585,109	-200,000	0,005	-0,082
-584,094	52,121	0,085	-0,058
-583,079	596,696	-0,027	-0,048
-582,065	28,470	-0,078	0,047
-581,050	-200,000	-0,009	0,101
-580,036	-95,332	-0,043	-0,008
-579,021	-130,358	0,015	0,001
-578,006	187,540	-0,030	-0,032
-576,992	-123,406	0,060	-0,007
-575,977	172,589	0,046	-0,047
-574,963	65,684	0,100	0,073
-573,948	77,495	0,112	0,085
-572,934	370,478	-0,064	0,093
-571,919	200,868	0,087	-0,096
-570,904	160,734	-0,085	-0,086
-569,890	94,752	0,067	-0,055
-568,875	-200,000	0,041	-0,137
-567,861	339,427	-0,051	-0,072
-566,846	24,684	0,146	0,087
-565,831	241,769	-0,022	0,027
-564,817	349,637	-0,042	-0,060
-563,802	131,960	-0,062	-0,058
-562,788	545,402	-0,039	-0,067
-561,773	-14,107	0,060	-0,028
-560,758	-200,000	-0,008	0,080
-559,744	25,503	-0,040	-0,024
-558,729	-200,000	-0,003	0,072
-557,715	-113,407	-0,048	0,007
-556,700	-200,000	0,004	-0,035
-555,685	422,865	0,055	-0,086
-554,671	96,594	-0,080	-0,066
-553,656	800,000	-0,026	-0,067
-552,642	-129,467	-0,145	-0,014
-551,627	281,391	-0,074	0,096
-550,612	-117,880	-0,119	0,015
-549,598	-200,000	-0,013	0,069
-548,583	-151,816	0,117	-0,006
-547,569	-200,000	0,020	0,069
-546,554	-110,464	0,104	0,015
-545,539	146,527	0,055	0,054
-544,525	-53,957	0,089	-0,029
-543,510	800,000	-0,008	-0,016
-542,496	164,693	-0,027	-0,027
-541,481	-200,000	-0,027	-0,161
-540,466	-18,749	-0,056	-0,025
-539,452	-28,794	0,163	-0,067
-538,437	220,344	0,089	-0,103
-537,423	580,572	0,077	0,136
-536,408	-24,453	-0,152	-0,065
-535,393	-200,000	-0,004	0,101
-534,379	-200,000	0,013	0,079
-533,364	525,638	-0,011	-0,019
-532,350	277,207	-0,114	0,146
-531,335	800,000	-0,022	0,065
-530,321	800,000	0,034	0,080
-529,306	-159,398	0,023	0,001
-528,291	-125,735	-0,059	-0,006
-527,277	162,563	0,023	0,023
-526,262	-147,638	-0,152	0,009
-525,248	38,441	0,056	0,036
-524,233	232,563	0,059	0,069
-523,218	35,879	0,010	-0,006
-522,204	-8,414	-0,157	-0,076
-521,189	65,938	0,079	-0,058
-520,175	-144,702	-0,087	-0,006
-519,160	35,069	0,052	0,033
-518,145	800,000	0,063	0,131
-517,131	-119,551	0,024	-0,003
-516,116	-99,586	0,102	-0,018
-515,102	24,992	-0,072	0,043
-514,087	-29,632	-0,176	-0,072
-513,072	-93,164	0,057	0,011
-512,058	241,045	-0,015	-0,019
-511,043	-156,311	-0,062	-0,003
-510,029	-200,000	0,020	0,090
-509,014	62,228	0,157	0,113
-507,999	-200,000	0,002	0,035
-506,985	-33,982	0,038	-0,015
-505,970	-200,000	0,000	-0,010
-504,956	440,016	-0,066	0,104
-503,941	417,283	-0,052	0,080
-502,926	800,000	0,030	0,090
-501,912	106,265	0,064	0,054
-500,897	-152,993	-0,146	0,007
-499,883	-200,000	-0,048	0,155
-498,868	-200,000	-0,017	-0,098
-497,853	152,204	-0,078	-0,076
-496,839	-122,177	-0,083	-0,010
-495,824	-200,000	0,001	-0,058
-494,810	30,976	-0,168	-0,103
-493,795	-120,143	0,051	-0,006
-492,781	157,260	0,036	0,036
-491,766	800,000	-0,078	-0,193
-490,751	28,161	0,051	0,031
-489,737	800,000	0,047	-0,095
-488,722	175,042	0,056	-0,058
-487,708	-200,000	-0,038	0,124
-486,693	-200,000	0,006	0,065
-485,678	137,804	-0,033	-0,031
-484,664	-59,972	-0,130	0,039
-483,649	-169,210	-0,061	0,002
-482,635	66,104	-0,105	-0,076
-481,620	-200,000	0,030	0,141
-480,605	-60,450	0,068	0,021
-479,591	-200,000	0,019	0,112
-478,576	-35,972	-0,113	0,043
-477,562	-110,149	-0,071	-0,011
-476,547	83,015	0,009	-0,007
-475,532	-128,141	-0,051	0,005
-474,518	384,095	-0,019	0,028
-473,503	107,392	-0,056	0,048
-472,489	179,207	0,045	-0,047
-471,474	22,259	-0,044	0,025
-470,459	632,113	-0,022	0,041
-469,445	-103,958	-0,107	-0,018
-468,430	58,450	0,141	-0,099
-467,416	82,666	0,066	0,052
-466,401	555,407	0,068	0,118
-465,386	73,946	0,125	0,094
-464,372	-180,596	-0,139	-0,002
-463,357	-200,000	-0,005	-0,059
-462,343	24,255	-0,023	0,014
-461,328	54,501	0,053	0,036
-460,313	-77,056	-0,069	-0,017
-459,299	-136,670	0,164	0,013
-458,284	800,000	-0,027	0,062
-457,270	-32,663	0,101	0,040
-456,255	-99,608	-0,132	0,024
-455,241	25,785	-0,083	-0,049
-454,226	494,241	0,038	-0,063
-453,211	-200,000	0,005	0,102
-452,197	510,002	-0,041	0,069
-451,182	736,512	-0,059	0,113
-450,168	-200,000	-0,035	-0,116
-449,153	-200,000	0,025	-0,108
-448,138	676,237	0,052	0,097
-447,124	56,223	-0,066	-0,046
-446,109	36,425	0,093	-0,059
-445,095	46,216	0,158	0,105
-444,080	800,000	0,006	0,016
-443,065	405,693	0,045	0,068
-442,051	202,453	0,078	-0,087
-441,036	789,720	-0,036	-0,072
-440,022	-120,055	0,057	-0,007
-439,007	-200,000	-0,042	-0,185
-437,992	241,247	0,068	0,081
-436,978	-46,260	-0,063	0,022
-435,963	218,411	-0,085	0,098
-434,949	-200,000	-0,017	0,082
-433,934	58,846	-0,045	-0,032
-432,919	101,337	-0,059	-0,049
-431,905	452,241	0,023	-0,037
-430,890	122,823	0,059	0,053
-429,876	373,731	-0,030	0,044
-428,861	39,978	0,031	0,020
-427,846	-18,024	0,157	-0,070
-426,832	-200,000	-0,013	-0,071
-425,817	388,359	-0,017	0,026
-424,803	-200,000	-0,016	-0,111
-423,788	-64,890	0,155	-0,045
-422,773	267,414	0,085	0,106
-421,759	162,641	0,039	-0,039
-420,744	1,075	0,167	0,085
-419,730	298,722	-0,023	0,030
-418,715	170,180	-0,081	-0,084
-417,701	214,189	0,038	-0,043
-416,686	-11,040	0,044	0,021
-415,671	800,000	0,054	-0,120
-414,657	-36,452	0,127	-0,049
-413,642	-200,000	0,023	0,132
-412,628	-200,000	0,003	-0,080
-411,613	712,411	0,023	-0,044
-410,598	-148,279	0,122	0,007
-409,584	123,714	-0,057	-0,051
-408,569	-200,000	-0,015	0,074
-407,555	800,000	-0,001	0,003
-406,540	-200,000	0,012	-0,086
-405,525	800,000	0,005	0,012
-404,511	181,219	-0,171	-0,180
-403,496	-161,762	-0,068	0,002
-402,482	183,520	0,024	0,026
-401,467	86,695	-0,057	0,045
-400,452	-200,000	-0,012	0,113
-399,438	200,330	-0,083	-0,091
-398,423	468,130	0,074	0,119
-397,409	68,414	-0,147	-0,108
-396,394	-200,000	-0,001	-0,074
-395,379	800,000	0,049	-0,147
-394,365	169,247	0,095	0,097
-393,350	-132,927	0,035	-0,003
-392,336	215,613	0,005	0,005
-391,321	-85,444	0,015	0,003
-390,306	-200,000	-0,035	-0,170
-389,292	107,919	-0,079	0,067
-388,277	53,312	0,087	-0,060
-387,263	189,681	0,010	-0,011
-386,248	-112,288	0,046	0,007
-385,233	-200,000	0,013	0,113
-384,219	800,000	-0,038	-0,114
-383,204	19,131	-0,096	-0,055
-382,190	395,288	0,054	0,080
-381,175	-200,000	0,002	-0,087
-380,160	203,153	0,091	-0,101
-379,146	-200,000	0,016	0,054
-378,131	374,344	-0,026	0,038
-377,117	304,796	-0,039	0,051
-376,102	29,317	-0,136	-0,083
-375,088	-48,584	-0,151	0,052
-374,073	301,406	0,025	-0,033
-373,058	800,000	0,027	0,062
-372,044	-68,955	0,178	0,049
-371,029	-48,805	-0,129	0,044
-370,015	800,000	-0,022	-0,053
-369,000	34,463	-0,066	0,041
-367,985	-200,000	0,016	0,051
-366,971	800,000	-0,024	0,056
-365,956	-18,569	0,008	-0,003
-364,942	800,000	-0,011	0,028
-363,927	173,840	0,005	-0,006
-362,912	92,425	0,093	0,074
-361,898	800,000	-0,023	0,069
-360,883	21,887	0,133	-0,077
-359,869	-118,115	-0,142	-0,018
-358,854	64,549	0,116	0,083
-357,839	-0,302	0,017	0,009
-356,825	610,981	-0,008	0,013
-355,810	-124,056	0,156	0,017
-354,796	522,005	0,040	-0,067
-353,781	-92,833	-0,062	-0,012
-352,766	489,889	-0,034	0,057
-351,752	-200,000	-0,015	0,061
-350,737	-62,387	0,191	0,056
-349,723	76,161	0,119	0,090
-348,708	58,847	0,016	0,011
-347,693	486,550	0,018	-0,029
-346,679	424,237	-0,080	-0,123
-345,664	-44,880	0,036	0,013
-344,650	-200,000	-0,015	0,063
-343,635	800,000	0,011	0,031
-342,620	257,409	0,144	0,177
-341,606	800,000	-0,014	0,036
-340,591	-148,816	0,081	-0,005
-339,577	800,000	0,026	0,081
-338,562	-99,242	-0,055	-0,010
-337,548	366,436	0,064	-0,093
-336,533	264,313	-0,026	-0,032
-335,518	26,131	0,113	0,067
-334,504	54,000	0,066	0,045
-333,489	310,904	0,052	0,070
-332,475	308,947	0,055	-0,074
-331,460	-200,000	0,019	0,155
-330,445	122,229	0,006	-0,005
-329,431	88,334	-0,040	0,032
-328,416	-200,000	-0,017	0,085
-327,402	-200,000	0,006	-0,067
-326,387	800,000	0,043	-0,086
-325,372	57,356	-0,019	-0,013
-324,358	-121,245	-0,159	-0,019
-323,343	-162,543	-0,073	-0,003
-322,329	8,682	-0,161	0,086
-321,314	-200,000	0,005	-0,053
-320,299	-200,000	0,012	-0,052
-319,285	97,531	-0,109	-0,089
-318,270	122,412	0,083	-0,074
-317,256	-90,773	-0,100	-0,020
-316,241	-48,571	0,066	0,023
-315,226	-34,061	0,157	0,061
-314,212	-0,994	0,067	-0,034
-313,197	-6,585	-0,100	0,048
-312,183	229,492	-0,089	0,103
-311,168	504,729	-0,045	0,074
-310,153	47,639	0,085	-0,057
-309,139	116,048	-0,097	-0,084
-308,124	800,000	0,010	0,024
-307,110	-200,000	0,033	0,126
-306,095	-54,521	0,066	-0,021
-305,080	-200,000	0,017	-0,146
-304,066	170,659	0,045	0,046
-303,051	-169,574	0,056	-0,001
-302,037	800,000	-0,045	-0,139
-301,022	583,659	-0,117	-0,205
-300,008	566,712	0,080	0,139
-298,993	199,312	0,050	0,054
-297,978	-200,000	0,035	0,198
-296,964	800,000	0,069	0,159
-295,949	-154,882	-0,043	0,002
-294,935	-200,000	-0,011	0,063
-293,920	-70,203	-0,047	-0,013
-292,905	113,902	-0,095	0,082
-291,891	800,000	-0,020	0,049
-290,876	-131,162	-0,116	-0,011
-289,862	36,628	-0,136	-0,085
-288,847	-200,000	0,018	-0,083
-287,832	34,466	0,111	0,069
-286,818	-3,642	0,074	-0,036
-285,803	128,454	-0,030	0,027
-284,789	67,823	-0,097	0,071
-283,774	-90,666	-0,116	0,024
-282,759	-200,000	0,034	-0,114
-281,745	308,782	-0,061	-0,081
-280,730	-44,137	-0,033	-0,012
-279,716	-200,000	-0,005	-0,079
-278,701	-168,023	0,102	0,003
-277,686	-200,000	0,035	0,109
-276,672	-200,000	-0,025	0,085
-275,657	800,000	-0,004	-0,008
-274,643	800,000	0,017	-0,034
-273,628	10,300	0,107	0,058
-272,613	-200,000	0,016	0,128
-271,599	-200,000	0,018	0,081
-270,584	-76,701	0,029	-0,007
-269,570	329,870	0,129	0,177
-268,555	-38,316	-0,036	0,014
-267,540	800,000	-0,040	-0,090
-266,526	31,966	-0,047	0,029
-265,511	53,498	-0,099	0,067
-264,497	-148,653	0,091	-0,005
-263,482	800,000	-0,053	0,113
-262,467	-200,000	0,001	-0,041
-261,453	-200,000	0,012	0,096
-260,438	43,844	0,114	-0,074
-259,424	-51,188	-0,110	0,036
-258,409	-28,300	-0,069	-0,028
-257,395	2,594	0,053	-0,027
-256,380	-200,000	-0,007	0,139
-255,365	800,000	0,042	0,094
-254,351	-21,730	0,067	0,029
-253,336	-69,274	-0,159	-0,043
-252,322	-188,436	-0,109	0,001
-251,307	-38,399	0,040	-0,015
-250,292	-200,000	-0,015	-0,050
-249,278	-200,000	-0,011	-0,208
-248,263	-105,048	0,131	0,021
-247,249	27,937	-0,079	-0,047
-246,234	664,268	-0,049	0,090
-245,219	21,442	-0,050	-0,029
-244,205	-200,000	-0,012	-0,079
-243,190	-91,087	0,084	-0,017
-242,176	-153,644	-0,113	-0,005
-241,161	253,960	0,109	0,133
-240,146	-190,638	-0,150	-0,001
-239,132	-200,000	0,006	-0,050
-238,117	-200,000	0,031	-0,106
-237,103	-30,249	0,140	-0,056
-236,088	448,462	-0,038	0,059
-235,073	-141,534	0,069	-0,005
-234,059	52,641	0,035	0,024
-233,044	-140,974	0,026	0,002
-232,030	212,767	-0,031	-0,034
-231,015	-116,764	-0,175	-0,023
-230,000	-67,918	-0,200	-0,055
-228,986	-200,000	0,025	-0,099
-227,971	-62,685	0,041	-0,012
-226,957	-4,951	0,016	0,008
-225,942	-200,000	-0,001	0,102
-224,927	-200,000	0,022	0,083
-223,913	-141,993	-0,058	0,004
-222,898	-180,273	0,093	-0,001
-221,884	188,408	0,009	0,009
-220,869	424,005	-0,046	0,070
-219,855	-18,847	0,142	0,063
-218,840	800,000	0,027	0,082
-217,825	-57,691	-0,138	-0,043
-216,811	-200,000	-0,030	-0,148
-215,796	24,704	0,104	0,061
-214,782	415,882	-0,074	0,113
-213,767	96,232	0,096	-0,078
-212,752	22,075	0,133	-0,077
-211,738	19,378	-0,049	-0,028
-210,723	800,000	0,014	-0,037
-209,709	800,000	-0,042	0,091
-208,694	-116,347	0,054	0,007
-207,679	285,006	0,034	-0,044
-206,665	800,000	0,021	-0,051
-205,650	-69,861	0,137	0,037
-204,636	-26,404	0,048	0,020
-203,621	192,591	0,043	0,046
-202,606	-200,000	0,036	0,163
-201,592	542,015	0,019	0,033
-200,577	310,605	-0,013	0,017
-199,563	800,000	0,008	-0,020
-198,548	800,000	0,044	-0,132
-197,533	-200,000	0,000	0,148
-196,519	-45,177	-0,041	0,015
-195,504	204,805	-0,063	-0,070
-194,490	800,000	-0,064	0,130
-193,475	42,720	0,038	0,025
-192,460	-55,147	-0,045	0,014
-191,446	-10,067	0,104	0,049
-190,431	800,000	-0,027	0,068
-189,417	800,000	-0,031	-0,063
-188,402	-200,000	0,007	-0,227
-187,387	-28,871	-0,082	0,033
-186,373	97,147	-0,105	0,086
-185,358	-90,373	0,014	-0,003
-184,344	83,839	0,094	0,073
-183,329	800,000	0,047	0,095
-182,315	4,588	-0,078	-0,041
-181,300	282,793	0,133	-0,170
-180,285	-72,451	-0,077	-0,020
-179,271	-114,293	-0,057	0,008
-178,256	166,682	0,050	-0,050
-177,242	-200,000	-0,012	0,065
-176,227	-110,751	0,048	-0,007
-175,212	238,622	0,013	0,016
-174,198	-21,464	-0,079	-0,034
-173,183	331,841	-0,036	-0,049
-172,169	-156,197	0,090	0,004
-171,154	-200,000	0,020	-0,068
-170,139	550,048	0,090	0,154
-169,125	80,260	-0,104	0,079
-168,110	57,984	-0,047	0,033
-167,096	133,466	0,084	-0,077
-166,081	-200,000	-0,027	-0,113
-165,066	-200,000	0,017	-0,147
-164,052	-200,000	-0,054	-0,170
-163,037	800,000	-0,011	-0,029
-162,023	15,955	0,142	-0,079
-161,008	172,960	0,040	0,041
-159,993	9,391	0,118	-0,063
-158,979	800,000	-0,028	-0,085
-157,964	-200,000	0,042	-0,133
-156,950	224,094	0,029	-0,034
-155,935	-61,151	0,076	-0,023
-154,920	-164,132	0,147	0,005
-153,906	-200,000	-0,010	0,089
-152,891	800,000	0,035	0,088
-151,877	-119,497	-0,186	0,023
-150,862	-41,617	-0,085	0,031
-149,847	482,261	0,029	-0,046
-148,833	-0,099	0,123	-0,062
-147,818	-200,000	0,007	0,090
-146,804	56,842	0,015	0,010
-145,789	-143,307	0,030	-0,002
-144,775	437,750	0,071	-0,110
-143,760	-133,287	0,116	-0,010
-142,745	-200,000	0,008	0,026
-141,731	-45,452	-0,048	0,017
-140,716	800,000	0,031	0,096
-139,702	-200,000	-0,012	0,072
-138,687	-166,874	-0,043	-0,001
-137,672	60,844	0,070	-0,049
-136,658	385,094	-0,051	-0,074
-135,643	47,598	-0,070	0,046
-134,629	28,431	0,091	0,054
-133,614	-87,183	0,115	-0,024
-132,599	16,355	0,114	-0,064
-131,585	-136,692	0,103	0,008
-130,570	-1,205	-0,102	-0,051
-129,556	800,000	-0,043	-0,123
-128,541	243,648	-0,018	-0,022
-127,526	-117,017	0,111	0,014
-126,512	-167,142	-0,104	-0,003
-125,497	432,851	0,079	-0,122
-124,483	-200,000	-0,021	-0,169
-123,468	-200,000	0,021	-0,109
-122,453	98,937	0,047	-0,039
-121,439	-46,916	-0,075	-0,026
-120,424	-200,000	-0,031	-0,107
-119,410	530,207	0,059	0,099
-118,395	22,535	0,045	-0,026
-117,380	204,714	-0,048	-0,053
-116,366	-112,816	0,047	0,007
-115,351	-156,228	0,066	-0,003
-114,337	18,525	-0,131	-0,074
-113,322	800,000	0,041	-0,124
-112,307	800,000	0,054	0,116
-111,293	-200,000	0,046	0,189
-110,278	72,404	0,089	0,066
-109,264	800,000	0,018	0,046
-108,249	800,000	-0,028	0,080
-107,234	60,554	-0,224	-0,157
-106,220	225,386	-0,057	0,065
-105,205	18,525	0,087	-0,049
-104,191	394,599	0,026	-0,038
-103,176	800,000	0,025	-0,070
-102,162	-200,000	-0,002	-0,129
-101,147	230,769	-0,053	-0,061
-100,132	-163,469	-0,083	-0,003
-99,118	377,315	0,014	0,021
-98,103	800,000	0,031	0,093
-97,089	-200,000	0,001	0,020
-96,074	-189,699	0,065	0,001
-95,059	121,087	0,069	-0,061
-94,045	-129,436	-0,213	0,021
-93,030	228,820	0,108	-0,124
-92,016	-70,531	-0,202	-0,054
-91,001	40,342	0,046	-0,029
-89,986	800,000	0,017	0,035
-88,972	-88,555	0,101	0,021
-87,957	44,530	0,097	-0,063
-86,943	-89,097	-0,182	-0,038
-85,928	-200,000	-0,016	-0,084
-84,913	194,786	-0,035	0,038
-83,899	-57,476	-0,132	0,041
-82,884	-200,000	0,003	0,018
-81,870	-98,527	0,022	-0,004
-80,855	-133,557	0,190	-0,017
-79,840	-117,728	-0,055	-0,007
-78,826	800,000	0,016	-0,048
-77,811	72,447	0,062	-0,045
-76,797	169,169	0,097	-0,098
-75,782	-200,000	0,001	-0,007
-74,767	-47,688	0,034	-0,012
-73,753	800,000	-0,018	0,036
-72,738	-3,315	0,081	-0,040
-71,724	-93,809	0,168	-0,032
-70,709	-200,000	-0,017	-0,136
-69,694	392,179	-0,069	0,102
-68,680	735,982	-0,028	0,053
-67,665	-200,000	-0,005	0,107
-66,651	-200,000	-0,026	0,137
-65,636	-200,000	0,031	-0,113
-64,622	-44,693	-0,065	-0,023
-63,607	-47,282	0,074	0,025
-62,592	-200,000	-0,023	-0,123
-61,578	-196,325	0,086	0,000
-60,563	-200,000	-0,022	0,102
-59,549	-172,744	-0,136	-0,003
-58,534	55,104	-1,966	-1,339
-57,519	517,230	-1,177	-1,950
-56,505	-200,000	-0,288	-4,310
-55,490	594,498	0,845	1,482
-54,476	800,000	5,114	11,477
-53,461	-200,000	21,781	344,566
-52,446	800,000	763,505	2348,507
-51,432	548,704	1662,384	2821,337
-50,417	71,627	1658,396	1214,460
-49,403	17,289	1531,648	855,452
-48,388	11,270	1455,613	783,913
-47,373	19,463	1447,259	818,640
-46,359	14,862	1436,287	790,562
-45,344	9,638	1431,964	763,314
-44,330	9,576	1430,294	762,101
-43,315	9,509	1428,626	760,861
-42,300	9,572	1426,799	760,156
-41,286	9,571	1425,412	759,382
-40,271	9,513	1424,146	758,405
-39,257	9,549	1423,028	757,947
-38,242	9,555	1422,158	757,483
-37,227	9,565	1420,893	756,825
-36,213	9,606	1419,493	756,246
-35,198	9,624	1418,312	755,671
-34,184	9,601	1417,439	755,067
-33,169	9,545	1415,942	753,977
-32,154	9,595	1414,879	753,613
-31,140	9,568	1413,746	752,853
-30,125	9,595	1412,719	752,407
-29,111	9,611	1411,356	751,722
-28,096	9,595	1410,303	751,056
-27,082	9,545	1408,929	750,062
-26,067	9,509	1408,020	749,380
-25,052	9,510	1407,099	748,865
-24,038	9,540	1406,203	748,498
-23,023	9,528	1405,297	747,929
-22,009	9,540	1404,145	747,342
-20,994	9,564	1403,031	746,834
-19,979	9,528	1402,179	746,182
-18,965	9,556	1401,209	745,768
-17,950	9,504	1400,250	744,983
-16,936	9,464	1399,502	744,372
-15,921	9,397	1398,656	743,580
-14,906	9,450	1397,684	743,279
-13,892	9,503	1396,384	742,804
-12,877	9,421	1395,896	742,135
-11,863	9,446	1394,985	741,739
-10,848	9,418	1393,955	741,031
-9,833	9,401	1393,097	740,468
-8,819	9,360	1392,420	739,888
-7,804	9,326	1391,434	739,177
-6,790	9,327	1390,370	738,590
-5,775	9,304	1389,381	737,925
-4,760	9,351	1388,490	737,640
-3,746	9,388	1387,310	737,155
-2,731	9,388	1386,488	736,690
-1,717	9,363	1385,450	735,995
-0,702	9,321	1384,005	735,002
0,313	13,370	1296,279	706,893
1,327	29,449	686,989	410,933
2,342	45,652	118,573	77,123
3,356	2,065	16,493	8,370
4,371	15,104	3,583	1,974
5,386	44,750	1,059	0,686
6,400	667,053	0,358	0,655
7,415	-56,524	-0,180	-0,056
8,429	-85,712	-0,317	-0,069
9,444	-40,203	-0,447	-0,163
10,459	-6,802	-0,450	-0,215
11,473	-46,260	-0,320	-0,110
12,488	-154,749	-0,213	0,010
13,502	13,718	-0,321	-0,175
14,517	193,467	-0,241	-0,257
15,531	27,049	-0,354	-0,209
16,546	216,829	-0,253	-0,284
17,561	307,854	-0,255	-0,335
18,575	-56,063	-0,193	-0,060
19,590	100,740	-0,235	-0,192
20,604	-176,388	-0,311	0,006
21,619	237,511	-0,367	-0,430
22,634	274,806	-0,348	-0,435
23,648	123,182	-0,530	-0,468
24,663	191,071	-0,321	-0,340
25,677	-36,691	-0,450	-0,169
26,692	374,873	-0,228	-0,328
27,707	-131,990	-0,366	-0,033
28,721	214,491	-0,292	-0,326
29,736	29,889	-0,436	-0,261
30,750	96,249	-0,455	-0,366
31,765	113,961	-0,333	-0,285
32,780	122,350	-0,275	-0,242
33,794	210,295	-0,333	-0,368
34,809	123,722	-0,301	-0,266
35,823	-16,320	-0,313	-0,139
36,838	-9,584	-0,426	-0,199
37,853	249,277	-0,307	-0,366
38,867	50,140	-0,297	-0,196
39,882	38,708	-0,363	-0,227
40,896	11,674	-0,325	-0,175
41,911	103,471	-0,327	-0,270
42,926	56,195	-0,389	-0,265
43,940	289,867	-0,343	-0,438
44,955	105,441	-0,434	-0,360
45,969	-14,753	-0,392	-0,176
46,984	37,287	-0,296	-0,184
47,999	12,541	-0,237	-0,128
49,013	26,815	-0,291	-0,171
50,028	130,367	-0,316	-0,284
51,042	-4,280	-0,329	-0,159
52,057	158,808	-0,247	-0,241
53,071	34,972	-0,334	-0,205
54,086	16,686	-0,420	-0,233
55,101	30,905	-0,410	-0,246
56,115	95,983	-0,338	-0,271
57,130	-27,978	-0,364	-0,147
58,144	-64,046	-0,380	-0,108
59,159	-93,187	-0,420	-0,081
60,174	48,736	-0,298	-0,195
61,188	-61,775	-0,406	-0,119
62,203	53,517	-0,287	-0,193
63,217	-50,572	-0,402	-0,132
64,232	-31,993	-0,524	-0,205
65,247	19,003	-0,336	-0,188
66,261	80,487	-0,411	-0,310
67,276	4,267	-0,346	-0,177
68,290	93,410	-0,307	-0,244
69,305	52,362	-0,305	-0,204
70,320	-0,404	-0,321	-0,159
71,334	-3,931	-0,274	-0,133
72,349	-54,395	-0,359	-0,113
73,363	66,215	-0,284	-0,202
74,378	65,549	-0,253	-0,179
75,393	20,516	-0,335	-0,190
76,407	70,185	-0,282	-0,204
77,422	78,678	-0,277	-0,208
78,436	43,752	-0,223	-0,143
79,451	-163,784	-0,434	-0,014
80,466	21,231	-0,281	-0,160
81,480	-19,928	-0,257	-0,111
82,495	80,593	-0,212	-0,160
83,509	-74,373	-0,385	-0,097
84,524	61,108	-0,326	-0,227
85,539	134,713	-0,318	-0,289
86,553	12,177	-0,335	-0,180
87,568	-104,421	-0,216	-0,035
88,582	66,205	-0,407	-0,289
89,597	124,059	-0,235	-0,206
90,611	-63,941	-0,354	-0,101
91,626	105,355	-0,305	-0,252
92,641	18,912	-0,269	-0,150
93,655	-11,825	-0,287	-0,131
94,670	-133,350	-0,231	-0,020
95,684	-38,267	-0,397	-0,146
96,699	200,829	-0,209	-0,225
97,714	489,014	-0,158	-0,254
98,728	-3,638	-0,279	-0,135
99,743	438,009	-0,156	-0,238
100,757	179,349	-0,190	-0,194
101,772	27,182	-0,280	-0,164
102,787	97,611	-0,270	-0,217
103,801	33,009	-0,237	-0,143
104,816	334,083	-0,084	-0,114
105,830	141,790	-0,323	-0,299
106,845	165,674	-0,143	-0,141
107,860	35,469	-0,210	-0,129
108,874	800,000	-0,079	-0,172
109,889	163,770	-0,205	-0,201
110,903	222,707	-0,238	-0,268
111,918	82,641	-0,251	-0,190
112,933	-150,697	-0,401	-0,021
113,947	-61,942	-0,184	-0,053
114,962	229,904	-0,235	-0,268
115,976	28,023	-0,331	-0,195
116,991	37,775	-0,277	-0,172
118,006	430,320	-0,159	-0,241
119,020	-7,229	-0,376	-0,177
120,035	8,952	-0,167	-0,088
121,049	-12,758	-0,263	-0,119
122,064	321,430	-0,190	-0,253
123,079	371,211	-0,145	-0,205
124,093	265,526	-0,183	-0,223
125,108	131,936	-0,253	-0,227
126,122	16,837	-0,260	-0,143
127,137	385,788	-0,129	-0,186
128,151	97,202	-0,228	-0,182
129,166	387,545	-0,129	-0,187
130,181	117,234	-0,099	-0,085
131,195	123,937	-0,319	-0,280
132,210	-70,416	-0,234	-0,062
133,224	325,028	-0,190	-0,254
134,239	-25,278	-0,208	-0,086
135,254	50,248	-0,089	-0,058
136,268	38,444	-0,165	-0,103
137,283	138,446	-0,207	-0,190
138,297	125,617	-0,234	-0,206
139,312	125,652	-0,294	-0,258
140,327	68,038	-0,285	-0,203
141,341	-23,379	-0,235	-0,098
142,356	71,915	-0,263	-0,190
143,370	83,153	-0,167	-0,127
144,385	36,367	-0,206	-0,126
145,400	-43,998	-0,179	-0,062
146,414	21,602	-0,248	-0,140
147,429	-11,215	-0,352	-0,161
148,443	177,222	-0,281	-0,285
149,458	-36,453	-0,200	-0,074
150,473	106,996	-0,231	-0,191
151,487	-57,975	-0,274	-0,083
152,502	56,414	-0,340	-0,230
153,516	-53,041	-0,291	-0,093
154,531	58,944	-0,228	-0,156
155,546	-45,822	-0,338	-0,115
156,560	-42,642	-0,327	-0,115
157,575	114,431	-0,113	-0,095
158,589	6,345	-0,278	-0,143
159,604	1,045	-0,295	-0,147
160,619	533,967	-0,174	-0,288
161,633	323,770	-0,177	-0,236
162,648	52,303	-0,353	-0,234
163,662	800,000	-0,114	-0,233
164,677	-49,930	-0,199	-0,065
165,692	59,176	-0,203	-0,139
166,706	-46,446	-0,320	-0,109
167,721	-51,103	-0,310	-0,101
168,735	113,871	-0,245	-0,207
169,750	-37,536	-0,238	-0,088
170,764	-69,362	-0,318	-0,084
171,779	-19,198	-0,059	-0,026
172,794	230,444	-0,142	-0,162
173,808	132,430	-0,136	-0,122
174,823	201,093	-0,191	-0,205
175,837	84,474	-0,158	-0,120
176,852	149,450	-0,206	-0,194
177,867	74,140	-0,169	-0,123
178,881	-19,668	-0,263	-0,113
179,896	-143,722	-0,158	0,010
180,910	349,555	-0,206	-0,283
181,925	-32,504	-0,242	-0,093
182,940	85,424	-0,160	-0,122
183,954	50,785	-0,290	-0,191
184,969	141,910	-0,343	-0,316
185,983	-126,311	-0,275	-0,028
186,998	-25,028	-0,156	-0,064
188,013	20,846	-0,157	-0,088
189,027	118,852	-0,203	-0,174
190,042	-18,214	-0,238	-0,103
191,056	206,456	-0,193	-0,209
192,071	-106,936	-0,182	-0,028
193,086	338,976	-0,209	-0,283
194,100	562,524	-0,104	-0,175
195,115	-59,777	-0,216	-0,064
196,129	35,774	-0,193	-0,117
197,144	129,098	-0,197	-0,175
198,159	22,025	-0,306	-0,173
199,173	-24,133	-0,216	-0,089
200,188	41,794	-0,168	-0,105
201,202	265,637	-0,188	-0,228
202,217	80,752	-0,124	-0,092
203,232	-96,247	-0,184	-0,033
204,246	312,472	-0,221	-0,288
205,261	141,269	-0,226	-0,207
206,275	543,401	-0,140	-0,233
207,290	166,764	-0,257	-0,252
208,304	127,943	-0,130	-0,115
209,319	244,752	-0,094	-0,110
210,334	-39,492	-0,201	-0,073
211,348	291,550	-0,142	-0,180
212,363	63,943	-0,173	-0,121
213,377	-1,776	-0,212	-0,103
214,392	-145,165	-0,247	-0,015
215,407	466,884	-0,158	-0,247
216,421	50,978	-0,230	-0,150
217,436	309,865	-0,192	-0,249
218,450	33,220	-0,307	-0,184
219,465	47,399	-0,194	-0,125
220,480	185,003	-0,210	-0,215
221,494	119,932	-0,185	-0,159
222,509	-175,647	-0,152	0,003
223,523	-117,145	-0,076	-0,009
224,538	-4,201	-0,214	-0,102
225,553	271,666	-0,214	-0,262
226,567	134,604	-0,168	-0,151
227,582	164,155	-0,144	-0,140
228,596	-31,680	-0,144	-0,055
229,611	800,000	-0,079	-0,199
230,626	45,388	-0,184	-0,117
231,640	213,024	-0,157	-0,172
232,655	-200,000	0,005	-0,129
233,669	341,540	-0,144	-0,195
234,684	221,065	-0,223	-0,248
235,699	213,694	-0,101	-0,110
236,713	-43,588	-0,248	-0,086
237,728	12,745	-0,247	-0,131
238,742	-38,547	-0,155	-0,056
239,757	54,115	-0,244	-0,162
240,772	260,038	-0,159	-0,190
241,786	800,000	-0,094	-0,192
242,801	800,000	-0,097	-0,232
243,815	298,288	-0,153	-0,194
244,830	66,763	-0,171	-0,120
245,844	-40,352	-0,206	-0,074
246,859	128,399	-0,198	-0,174
247,874	618,896	-0,081	-0,140
248,888	169,559	-0,145	-0,143
249,903	800,000	-0,031	-0,072
250,917	-99,609	-0,227	-0,039
251,932	-200,000	-0,004	0,054
252,947	35,995	-0,100	-0,061
253,961	-113,051	-0,211	-0,028
254,976	-21,336	-0,168	-0,070
255,990	522,306	-0,129	-0,209
257,005	19,797	-0,178	0,099
258,020	-2,763	-0,192	-0,092
259,034	91,580	-0,115	-0,089
260,049	146,708	-0,092	-0,085
261,063	-161,395	-0,220	-0,008
262,078	84,853	-0,173	-0,130
263,093	232,007	-0,187	-0,212
264,107	-133,507	-0,220	0,019
265,122	289,022	-0,112	-0,140
266,136	65,607	-0,153	-0,106
267,151	73,944	-0,181	-0,131
268,166	39,863	-0,206	-0,127
269,180	155,519	-0,197	-0,187
270,195	-50,465	-0,139	-0,045
271,209	109,103	-0,164	-0,135
272,224	227,796	-0,164	-0,184
273,239	-155,552	-0,209	-0,009
274,253	399,341	-0,094	-0,136
275,268	-9,259	-0,220	-0,101
276,282	432,915	-0,117	-0,176
277,297	124,887	-0,112	-0,097
278,312	108,094	-0,136	-0,112
279,326	217,256	-0,165	-0,182
280,341	692,505	-0,096	-0,173
281,355	-200,000	-0,013	-0,186
282,370	-2,378	-0,214	-0,103
283,384	69,346	-0,249	-0,176
284,399	74,587	-0,275	-0,199
285,414	-119,042	-0,223	-0,027
286,428	-200,000	-0,020	-0,170
287,443	43,597	-0,176	-0,111
288,457	137,223	-0,175	-0,158
289,472	305,959	-0,115	-0,148
290,487	-18,160	-0,231	-0,099
291,501	103,217	-0,117	-0,094
292,516	15,680	-0,166	-0,089
293,530	12,858	-0,213	-0,113
294,545	651,466	-0,013	0,023
295,560	415,244	-0,092	-0,135
296,574	-65,807	-0,152	-0,042
297,589	34,327	-0,282	-0,169
298,603	12,769	-0,228	-0,121
299,618	800,000	-0,092	-0,196
300,633	-151,858	-0,152	-0,008
301,647	60,469	-0,154	-0,105
302,662	170,259	-0,046	-0,045
303,676	-55,705	-0,036	0,011
304,691	-200,000	-0,044	-0,184
305,706	55,365	-0,196	-0,130
306,720	117,780	-0,199	-0,168
307,735	227,965	-0,101	-0,113
308,749	210,664	-0,114	-0,123
309,764	-200,000	-0,012	-0,153
310,779	-48,787	-0,154	-0,050
311,793	17,962	-0,185	-0,101
312,808	-55,560	-0,177	-0,054
313,822	21,743	-0,096	-0,053
314,837	141,234	-0,120	-0,109
315,852	-8,975	-0,190	-0,087
316,866	-200,000	0,011	-0,146
317,881	-200,000	-0,055	-0,177
318,895	-200,000	-0,024	-0,093
319,910	-32,023	-0,189	-0,072
320,925	-146,319	-0,291	-0,017
321,939	-45,817	-0,055	0,018
322,954	69,206	-0,147	-0,103
323,968	124,719	-0,082	-0,071
324,983	-3,323	-0,160	-0,076
325,997	301,961	-0,084	-0,106
327,012	262,603	-0,131	-0,156
328,027	597,585	-0,114	-0,195
329,041	377,261	-0,084	-0,117
330,056	282,005	-0,162	-0,199
331,070	121,320	-0,070	0,059
332,085	-179,682	-0,080	0,001
333,100	-48,775	-0,219	0,072
334,114	59,339	-0,077	-0,052
335,129	83,177	-0,195	-0,145
336,143	78,899	-0,137	-0,100
337,158	375,697	-0,061	-0,086
338,173	646,850	-0,095	-0,167
339,187	-91,746	-0,193	-0,037
340,202	130,005	-0,079	-0,069
341,216	-139,573	-0,164	-0,012
342,231	-170,942	-0,164	0,004
343,246	800,000	0,023	0,062
344,260	-119,239	-0,148	-0,017
345,275	307,202	-0,077	-0,098
346,289	574,253	-0,053	-0,089
347,304	31,641	-0,097	-0,057
348,319	-61,953	-0,167	-0,047
349,333	-200,000	0,014	-0,074
350,348	706,498	-0,146	-0,266
351,362	610,994	-0,123	-0,211
352,377	-32,155	-0,083	0,032
353,392	372,249	-0,061	-0,085
354,406	281,999	-0,088	-0,108
355,421	207,818	1305,558	1395,688
356,435	159,886	1465,124	1396,158
