DTS Sentinel unit serial number:	SN410029Multiplexer serial number:	ORYXHardware model number:	OX2-SRSoftware version number:	ORYX F/W v4,00 Oryx Data Collector v3.7.2.0data status	okinstallation	B3 Nyhavnadifferential loss correction	single-endedforward channel	channel 1reverse channel	N/Adate	2023/11/30time	02:17:30forward acquisition time	300,00reverse acquisition time	0,00gamma	499,1914k internal	0,3210k external	0,3210temperature offset calibration	1,0000default loss term (dB/km)	0,3820temperature slope calibration	1,0000multiplexer offset coefficient	1,0000multiplexer slope coefficient	1,0000fibre end	0,00T internal ref (°C)	10,46T ext. ref 1 (°C)	-5,20T ext. ref 2 (°C)	-5,33length (m)	temperature (°C)	Stokes	anti-Stokes-744,400	13,932	-0,275	-0,155
-743,385	-200,000	-0,059	0,274
-742,371	75,909	-0,164	-0,126
-741,356	683,849	0,225	0,428
-740,342	122,225	-0,205	-0,186
-739,327	-200,000	-0,064	0,410
-738,312	12,780	-0,271	-0,151
-737,298	-200,000	-0,065	0,317
-736,283	-200,000	-0,066	-0,217
-735,269	-200,000	-0,020	0,213
-734,254	311,775	-0,133	-0,182
-733,239	-124,100	-0,254	0,029
-732,225	-200,000	-0,035	-0,227
-731,210	289,736	0,070	0,093
-730,196	-200,000	-0,012	0,065
-729,181	439,698	-0,025	-0,040
-728,167	-16,760	-0,165	0,075
-727,152	-193,617	-0,069	-0,000
-726,137	800,000	-0,007	-0,017
-725,123	117,137	-0,091	-0,081
-724,108	249,963	-0,036	-0,044
-723,094	800,000	-0,061	-0,153
-722,079	-52,846	-0,074	0,025
-721,064	-122,143	-0,128	0,015
-720,050	71,345	-0,057	0,043
-719,035	117,813	-0,120	0,107
-718,021	-200,000	-0,004	-0,216
-717,006	-121,523	-0,019	0,002
-715,991	113,872	-0,136	-0,119
-714,977	467,354	0,053	-0,086
-713,962	-82,328	0,244	-0,057
-712,948	109,588	0,079	0,069
-711,933	-73,596	0,092	0,024
-710,918	-200,000	0,007	-0,068
-709,904	82,786	-0,084	-0,066
-708,889	486,338	0,014	-0,023
-707,875	-200,000	0,022	-0,175
-706,860	-54,181	-0,161	-0,053
-705,845	28,247	-0,074	0,045
-704,831	800,000	0,033	-0,092
-703,816	-56,452	-0,090	-0,029
-702,802	800,000	-0,047	0,108
-701,787	-200,000	-0,024	-0,193
-700,772	750,169	-0,041	-0,081
-699,758	-200,000	-0,011	-0,044
-698,743	44,952	-0,051	-0,034
-697,729	149,259	-0,059	-0,058
-696,714	-157,429	0,069	0,003
-695,699	-200,000	-0,050	-0,177
-694,685	-153,795	-0,086	-0,004
-693,670	57,604	-0,017	-0,012
-692,656	-200,000	0,009	-0,102
-691,641	-34,757	0,057	-0,022
-690,627	-65,743	0,131	0,038
-689,612	-72,938	0,063	-0,017
-688,597	-67,833	-0,053	-0,015
-687,583	580,309	-0,057	-0,101
-686,568	73,861	-0,143	-0,108
-685,554	-200,000	0,014	-0,118
-684,539	193,105	-0,126	-0,138
-683,524	141,879	-0,058	-0,056
-682,510	123,598	0,068	0,062
-681,495	-6,364	-0,137	-0,067
-680,481	693,735	0,029	-0,055
-679,466	414,591	-0,065	-0,100
-678,451	-200,000	-0,000	0,023
-677,437	548,612	-0,035	-0,061
-676,422	-200,000	-0,010	-0,122
-675,408	-79,580	0,100	0,024
-674,393	1,854	-0,072	-0,037
-673,378	21,121	-0,070	0,041
-672,364	386,801	0,036	0,054
-671,349	157,770	-0,052	-0,052
-670,335	-77,021	-0,132	0,033
-669,320	358,907	0,119	0,172
-668,305	-114,979	0,047	0,006
-667,291	194,079	-0,077	0,085
-666,276	-200,000	-0,004	-0,064
-665,262	-18,078	0,014	0,006
-664,247	800,000	0,064	-0,164
-663,232	-177,687	0,177	-0,003
-662,218	-136,960	0,083	-0,007
-661,203	439,162	0,030	0,048
-660,189	385,950	-0,022	-0,033
-659,174	-63,361	-0,105	-0,031
-658,159	52,111	-0,106	-0,073
-657,145	-200,000	0,011	-0,047
-656,130	115,421	-0,103	0,091
-655,116	-31,146	-0,041	-0,017
-654,101	-57,649	0,079	-0,025
-653,086	-200,000	-0,001	0,083
-652,072	-200,000	-0,024	0,101
-651,057	-4,929	-0,080	-0,040
-650,043	800,000	0,052	0,143
-649,028	291,345	-0,063	0,083
-648,014	140,196	-0,091	0,086
-646,999	800,000	-0,028	0,056
-645,984	-105,401	-0,032	0,005
-644,970	-34,390	-0,158	0,062
-643,955	-46,746	-0,069	-0,024
-642,941	-4,820	0,018	-0,009
-641,926	-87,298	-0,041	-0,009
-640,911	-53,582	0,112	0,037
-639,897	-200,000	-0,008	0,027
-638,882	-155,305	0,049	0,002
-637,868	476,884	0,019	0,031
-636,853	114,789	-0,052	-0,046
-635,838	-200,000	-0,033	-0,126
-634,824	-200,000	-0,006	0,143
-633,809	-126,188	0,101	-0,011
-632,795	424,249	-0,024	-0,037
-631,780	-87,080	-0,090	0,020
-630,765	373,852	-0,015	0,022
-629,751	-1,768	-0,060	0,030
-628,736	102,470	-0,018	-0,015
-627,722	-200,000	-0,010	-0,096
-626,707	-200,000	-0,005	0,028
-625,692	-200,000	0,024	0,115
-624,678	800,000	-0,012	0,039
-623,663	-37,366	0,090	0,035
-622,649	781,760	0,020	0,039
-621,634	72,191	0,069	0,052
-620,619	800,000	-0,047	-0,098
-619,605	123,290	0,096	0,087
-618,590	742,707	0,040	-0,078
-617,576	53,986	0,069	-0,048
-616,561	498,898	0,023	-0,039
-615,546	-200,000	0,022	0,114
-614,532	-200,000	0,008	-0,101
-613,517	55,246	-0,036	-0,025
-612,503	-200,000	0,023	0,127
-611,488	402,943	-0,056	0,085
-610,474	71,185	-0,037	0,027
-609,459	-81,702	0,138	0,032
-608,444	19,557	-0,187	0,108
-607,430	-200,000	-0,000	0,028
-606,415	800,000	0,038	-0,108
-605,401	576,653	0,044	-0,078
-604,386	648,218	0,005	-0,009
-603,371	609,933	-0,013	0,023
-602,357	188,160	-0,119	0,128
-601,342	-200,000	0,013	0,048
-600,328	206,909	-0,035	0,040
-599,313	-200,000	-0,028	0,098
-598,298	-79,045	0,053	-0,013
-597,284	-71,248	0,034	-0,009
-596,269	149,642	0,059	-0,058
-595,255	-49,223	-0,025	-0,009
-594,240	-200,000	-0,001	0,011
-593,225	-200,000	-0,030	-0,132
-592,211	454,366	-0,043	0,069
-591,196	144,429	0,138	0,133
-590,182	136,678	-0,075	-0,071
-589,167	-200,000	0,040	0,189
-588,152	-76,807	-0,069	0,017
-587,138	-57,649	0,105	-0,033
-586,123	142,158	-0,104	0,100
-585,109	43,142	-0,118	-0,077
-584,094	-110,101	-0,086	0,013
-583,079	800,000	0,031	0,088
-582,065	42,326	0,075	-0,049
-581,050	153,660	-0,038	-0,037
-580,036	522,064	0,041	0,070
-579,021	-63,747	0,069	0,020
-578,006	-200,000	0,016	-0,059
-576,992	196,886	0,022	-0,025
-575,977	627,424	0,042	-0,076
-574,963	162,362	0,037	-0,037
-573,948	225,000	0,060	-0,070
-572,934	177,661	0,061	0,065
-571,919	-200,000	0,002	0,018
-570,904	59,758	-0,064	-0,046
-569,890	-161,510	-0,163	-0,006
-568,875	-149,816	-0,045	0,003
-567,861	78,369	-0,063	-0,049
-566,846	-45,161	0,066	0,023
-565,831	-40,424	-0,058	0,022
-564,817	476,867	-0,023	0,038
-563,802	-79,409	0,061	0,015
-562,788	144,680	-0,126	-0,121
-561,773	-200,000	0,003	0,070
-560,758	261,606	0,036	-0,045
-559,744	714,088	-0,075	0,145
-558,729	-200,000	0,006	0,034
-557,715	132,198	0,026	0,024
-556,700	-17,764	-0,154	-0,070
-555,685	800,000	-0,018	-0,040
-554,671	51,938	-0,100	0,068
-553,656	-200,000	-0,000	0,041
-552,642	-200,000	-0,023	0,079
-551,627	-200,000	-0,004	0,035
-550,612	250,307	-0,035	-0,043
-549,598	800,000	-0,052	-0,116
-548,583	-200,000	0,007	-0,087
-547,569	-200,000	0,021	-0,106
-546,554	457,659	0,142	0,229
-545,539	-200,000	-0,001	0,086
-544,525	238,846	-0,066	0,080
-543,510	-57,467	0,086	-0,027
-542,496	212,048	-0,020	-0,022
-541,481	462,600	0,035	0,056
-540,466	8,367	-0,157	-0,085
-539,452	-13,719	0,168	0,078
-538,437	61,937	-0,074	0,053
-537,423	800,000	0,024	0,052
-536,408	96,593	-0,078	-0,065
-535,393	199,083	-0,067	-0,074
-534,379	800,000	-0,068	0,176
-533,364	367,604	0,064	-0,094
-532,350	-97,456	0,112	-0,021
-531,335	-200,000	-0,007	0,101
-530,321	37,466	0,083	0,053
-529,306	196,824	-0,049	0,054
-528,291	362,250	-0,100	-0,145
-527,277	-166,934	-0,134	0,004
-526,262	-147,065	-0,083	-0,005
-525,248	-118,703	0,133	0,017
-524,233	-200,000	0,005	0,078
-523,218	-20,285	-0,067	-0,030
-522,204	19,914	-0,084	0,049
-521,189	5,345	-0,038	-0,020
-520,175	800,000	-0,043	-0,089
-519,160	92,385	-0,130	-0,105
-518,145	-200,000	0,002	0,155
-517,131	-78,048	0,136	0,033
-516,116	800,000	0,041	0,109
-515,102	-124,707	0,058	0,006
-514,087	-157,861	0,103	-0,004
-513,072	-61,176	0,034	0,010
-512,058	193,760	-0,059	0,065
-511,043	7,082	0,053	-0,028
-510,029	-200,000	0,009	-0,119
-509,014	692,702	0,077	0,146
-507,999	800,000	-0,026	0,062
-506,985	103,223	-0,072	0,061
-505,970	62,171	-0,069	-0,049
-504,956	109,437	-0,051	0,044
-503,941	260,490	0,080	-0,099
-502,926	-200,000	-0,013	0,042
-501,912	102,003	0,017	0,014
-500,897	559,818	0,024	-0,041
-499,883	-200,000	0,011	-0,118
-498,868	-200,000	0,028	-0,173
-497,853	-20,038	0,057	0,025
-496,839	-200,000	0,041	0,146
-495,824	-200,000	-0,026	0,096
-494,810	-83,647	0,075	0,017
-493,795	-200,000	0,007	0,054
-492,781	62,330	0,027	0,019
-491,766	486,319	-0,044	-0,073
-490,751	51,152	-0,078	-0,053
-489,737	-200,000	0,037	0,137
-488,722	668,035	-0,020	0,038
-487,708	56,853	0,071	0,049
-486,693	-200,000	0,007	-0,116
-485,678	-200,000	-0,035	0,157
-484,664	131,410	-0,080	0,074
-483,649	-116,938	-0,145	-0,019
-482,635	-81,750	0,151	-0,035
-481,620	800,000	-0,041	-0,110
-480,605	66,202	0,111	-0,080
-479,591	-200,000	-0,011	0,065
-478,576	-136,520	0,107	-0,009
-477,562	236,293	0,056	-0,067
-476,547	-27,497	-0,036	0,015
-475,532	77,209	-0,049	0,038
-474,518	181,530	-0,054	-0,057
-473,503	54,025	0,068	-0,047
-472,489	800,000	0,048	-0,146
-471,474	440,282	-0,049	0,077
-470,459	-200,000	-0,014	-0,084
-469,445	800,000	0,045	-0,135
-468,430	-154,153	0,023	-0,001
-467,416	625,873	0,055	0,100
-466,401	-95,425	0,094	0,018
-465,386	23,392	0,120	0,071
-464,372	-96,424	-0,053	-0,010
-463,357	125,234	0,044	0,040
-462,343	-200,000	-0,042	-0,182
-461,328	800,000	0,021	-0,055
-460,313	68,647	-0,017	0,013
-459,299	305,278	-0,006	0,009
-458,284	184,954	0,019	0,021
-457,270	18,843	-0,105	-0,060
-456,255	348,485	0,103	-0,147
-455,241	800,000	-0,043	-0,121
-454,226	-200,000	-0,002	0,010
-453,211	-200,000	0,003	0,051
-452,197	451,325	0,039	0,061
-451,182	800,000	0,023	0,067
-450,168	800,000	-0,042	0,109
-449,153	-73,635	0,062	-0,016
-448,138	-200,000	0,025	-0,131
-447,124	326,269	0,049	-0,067
-446,109	-74,840	-0,082	-0,021
-445,095	460,460	0,043	0,068
-444,080	-132,843	-0,074	-0,007
-443,065	-94,593	0,061	-0,012
-442,051	800,000	0,036	-0,083
-441,036	-169,234	-0,103	-0,003
-440,022	-200,000	0,023	-0,105
-439,007	187,366	0,050	-0,054
-437,992	114,443	0,034	0,030
-436,978	458,900	0,026	-0,042
-435,963	-21,284	0,113	0,049
-434,949	24,224	0,034	-0,020
-433,934	-74,134	-0,150	0,039
-432,919	565,842	-0,048	-0,084
-431,905	-32,996	-0,168	0,066
-430,890	-89,974	0,085	0,018
-429,876	512,114	-0,068	0,113
-428,861	91,055	-0,115	0,093
-427,846	-18,152	-0,108	0,048
-426,832	-200,000	-0,003	-0,099
-425,817	800,000	-0,066	-0,193
-424,803	74,601	0,052	-0,039
-423,788	673,812	-0,058	-0,108
-422,773	800,000	0,024	-0,056
-421,759	-0,494	0,029	0,014
-420,744	540,171	0,039	-0,067
-419,730	800,000	-0,030	-0,072
-418,715	-200,000	-0,010	-0,041
-417,701	-122,964	-0,072	-0,008
-416,686	9,228	-0,057	-0,031
-415,671	247,964	0,063	0,076
-414,657	261,343	-0,078	-0,097
-413,642	-200,000	0,001	0,054
-412,628	-200,000	0,019	0,062
-411,613	105,347	-0,087	-0,074
-410,598	-200,000	-0,004	-0,048
-409,584	9,600	-0,081	-0,044
-408,569	525,110	0,059	0,100
-407,555	-200,000	-0,005	0,207
-406,540	-96,918	0,086	-0,016
-405,525	19,216	-0,099	0,057
-404,511	85,274	-0,037	-0,029
-403,496	-19,788	0,021	-0,009
-402,482	7,805	0,068	-0,036
-401,467	-200,000	0,012	0,090
-400,452	361,078	0,019	-0,027
-399,438	5,625	0,110	0,058
-398,423	-40,490	-0,107	-0,040
-397,409	140,464	0,042	0,040
-396,394	-194,866	-0,184	0,001
-395,379	46,971	0,113	-0,075
-394,365	-93,923	-0,087	0,017
-393,350	85,470	0,137	0,108
-392,336	413,749	-0,086	-0,132
-391,321	326,118	-0,010	0,014
-390,306	800,000	0,002	0,004
-389,292	-200,000	0,018	0,072
-388,277	-200,000	0,000	-0,108
-387,263	-126,742	0,064	-0,007
-386,248	130,393	0,023	0,021
-385,233	215,215	0,074	0,084
-384,219	-200,000	0,028	0,153
-383,204	800,000	0,039	0,093
-382,190	-200,000	0,001	-0,136
-381,175	800,000	-0,057	-0,156
-380,160	800,000	0,051	0,125
-379,146	-49,611	0,105	-0,035
-378,131	800,000	-0,021	-0,063
-377,117	800,000	0,065	0,182
-376,102	74,538	0,054	-0,041
-375,088	-71,288	0,112	0,030
-374,073	67,301	-0,120	-0,088
-373,058	-40,271	-0,079	-0,029
-372,044	-64,803	0,096	0,028
-371,029	-41,790	0,131	-0,048
-370,015	331,524	0,016	-0,022
-369,000	340,091	0,036	-0,050
-367,985	-200,000	0,009	-0,121
-366,971	580,737	-0,021	0,037
-365,956	87,857	0,133	0,105
-364,942	-28,457	-0,097	0,040
-363,927	-30,499	0,104	0,042
-362,912	323,119	-0,015	0,021
-361,898	-164,839	0,025	0,001
-360,883	-124,882	-0,165	0,018
-359,869	-200,000	-0,027	-0,117
-358,854	-32,050	0,034	-0,014
-357,839	-200,000	-0,006	-0,064
-356,825	-200,000	0,012	0,153
-355,810	-3,451	-0,044	0,022
-354,796	-200,000	-0,005	0,064
-353,781	791,624	-0,029	-0,058
-352,766	-182,993	0,070	-0,001
-351,752	-91,176	0,181	-0,037
-350,737	55,859	0,077	-0,053
-349,723	142,340	0,080	-0,076
-348,708	-200,000	-0,009	-0,066
-347,693	94,086	0,059	-0,048
-346,679	139,442	-0,065	-0,061
-345,664	800,000	0,040	-0,100
-344,650	471,893	0,102	0,165
-343,635	165,164	-0,070	0,071
-342,620	5,403	0,097	0,051
-341,606	-200,000	-0,011	0,135
-340,591	800,000	-0,041	-0,109
-339,577	-200,000	0,022	-0,159
-338,562	-135,787	0,078	0,006
-337,548	6,511	-0,120	0,064
-336,533	-200,000	0,004	-0,077
-335,518	7,517	-0,051	-0,027
-334,504	-200,000	0,009	-0,036
-333,489	-152,492	-0,157	0,008
-332,475	75,648	-0,106	-0,080
-331,460	80,995	0,063	-0,049
-330,445	-56,081	0,103	0,033
-329,431	800,000	0,006	-0,013
-328,416	-152,087	0,061	-0,003
-327,402	-200,000	0,018	0,149
-326,387	-200,000	0,010	0,060
-325,372	-11,856	0,120	0,056
-324,358	796,121	-0,159	-0,314
-323,343	-16,368	0,045	-0,021
-322,329	-87,313	0,076	-0,016
-321,314	-146,644	0,117	-0,007
-320,299	307,060	-0,075	-0,101
-319,285	-7,133	0,074	-0,036
-318,270	37,696	-0,058	-0,037
-317,256	-111,047	-0,139	-0,020
-316,241	487,275	0,055	0,090
-315,226	-200,000	-0,019	0,114
-314,212	217,110	0,043	0,049
-313,197	309,912	-0,029	-0,038
-312,183	-100,003	-0,209	0,037
-311,168	-200,000	0,036	-0,177
-310,153	380,283	0,019	0,028
-309,139	-200,000	-0,009	0,137
-308,124	-167,945	0,126	-0,003
-307,110	-12,750	0,057	-0,027
-306,095	-102,144	-0,118	-0,020
-305,080	-22,201	-0,014	-0,006
-304,066	800,000	-0,067	0,149
-303,051	404,159	-0,073	-0,110
-302,037	-200,000	0,010	0,109
-301,022	800,000	0,037	0,094
-300,008	-200,000	-0,015	-0,058
-298,993	222,172	-0,026	0,030
-297,978	-200,000	0,002	0,063
-296,964	421,220	0,046	-0,071
-295,949	574,375	-0,035	-0,061
-294,935	-11,242	-0,063	-0,029
-293,920	-86,314	0,123	-0,027
-292,905	800,000	-0,002	0,006
-291,891	679,672	0,086	-0,160
-290,876	226,933	0,112	-0,129
-289,862	-39,729	-0,156	-0,058
-288,847	-155,730	-0,087	0,004
-287,832	800,000	-0,037	0,106
-286,818	44,755	0,144	-0,094
-285,803	165,451	0,065	-0,065
-284,789	-200,000	-0,013	-0,052
-283,774	36,749	0,025	-0,016
-282,759	800,000	-0,024	0,051
-281,745	-200,000	-0,008	-0,082
-280,730	-31,456	-0,036	0,014
-279,716	151,134	0,058	0,056
-278,701	-114,182	-0,121	-0,017
-277,686	187,003	0,149	0,158
-276,672	165,721	-0,080	0,081
-275,657	-200,000	-0,032	-0,110
-274,643	111,786	0,019	0,016
-273,628	-200,000	0,006	0,030
-272,613	800,000	-0,033	0,070
-271,599	509,978	-0,035	-0,059
-270,584	188,362	0,024	-0,026
-269,570	398,965	-0,040	-0,060
-268,555	-81,865	0,126	0,029
-267,540	-43,972	-0,209	-0,074
-266,526	-85,105	-0,036	-0,008
-265,511	-155,266	-0,074	-0,003
-264,497	-116,008	0,146	-0,019
-263,482	800,000	0,017	-0,037
-262,467	39,520	-0,084	-0,053
-261,453	436,882	0,096	0,149
-260,438	-200,000	0,007	0,112
-259,424	-158,041	-0,166	-0,007
-258,409	11,953	0,070	0,038
-257,395	543,519	0,032	-0,055
-256,380	-200,000	-0,003	0,082
-255,365	72,449	-0,044	0,032
-254,351	-34,815	-0,104	0,040
-253,336	800,000	0,051	0,106
-252,322	338,426	-0,042	-0,059
-251,307	800,000	-0,003	0,007
-250,292	552,730	-0,089	0,152
-249,278	-149,380	0,060	0,003
-248,263	153,736	0,096	0,094
-247,249	77,098	-0,062	-0,047
-246,234	-179,212	-0,180	-0,003
-245,219	-200,000	-0,018	0,069
-244,205	-133,758	-0,134	0,012
-243,190	-200,000	0,059	-0,000
-242,176	-200,000	-0,045	0,193
-241,161	-200,000	0,004	-0,056
-240,146	800,000	0,044	0,114
-239,132	-9,419	0,047	0,022
-238,117	-200,000	0,024	-0,195
-237,103	-200,000	0,021	-0,167
-236,088	800,000	-0,060	-0,182
-235,073	81,763	0,034	-0,026
-234,059	-133,950	0,032	-0,003
-233,044	-200,000	-0,011	0,083
-232,030	-200,000	0,016	0,066
-231,015	800,000	-0,044	-0,133
-230,000	-200,000	-0,025	-0,096
-228,986	751,309	-0,055	-0,106
-227,971	-83,397	0,052	-0,012
-226,957	-69,017	0,125	0,034
-225,942	209,035	-0,047	0,053
-224,927	55,775	0,071	0,049
-223,913	33,435	-0,145	-0,089
-222,898	-200,000	0,022	-0,111
-221,884	142,426	-0,091	-0,086
-220,869	800,000	0,037	-0,116
-219,855	-185,502	0,104	0,001
-218,840	-15,962	0,093	0,042
-217,825	-123,629	-0,027	0,003
-216,811	165,105	-0,108	-0,108
-215,796	420,899	-0,009	-0,014
-214,782	-200,000	0,024	-0,091
-213,767	-81,956	-0,031	-0,007
-212,752	-200,000	0,019	0,147
-211,738	459,738	-0,027	0,044
-210,723	-200,000	-0,005	-0,034
-209,709	-200,000	0,013	0,083
-208,694	-31,580	0,048	-0,019
-207,679	-200,000	0,008	0,045
-206,665	-167,587	0,129	-0,004
-205,650	675,094	-0,026	-0,049
-204,636	-41,959	-0,123	-0,044
-203,621	-200,000	-0,002	0,049
-202,606	-200,000	-0,028	0,103
-201,592	156,064	-0,048	0,047
-200,577	226,769	-0,025	-0,028
-199,563	-64,223	-0,080	0,023
-198,548	156,849	0,091	0,090
-197,533	394,105	0,095	0,140
-196,519	-200,000	0,015	0,084
-195,504	-200,000	0,016	0,070
-194,490	-200,000	-0,019	-0,086
-193,475	262,894	0,043	-0,053
-192,460	190,225	-0,036	-0,038
-191,446	219,849	0,121	-0,137
-190,431	800,000	-0,038	0,103
-189,417	-73,769	-0,061	-0,016
-188,402	-179,195	0,063	0,001
-187,387	439,031	-0,062	0,096
-186,373	543,168	-0,031	-0,052
-185,358	752,903	0,043	-0,082
-184,344	-178,045	-0,046	-0,001
-183,329	-200,000	-0,004	-0,078
-182,315	498,448	-0,010	-0,017
-181,300	661,092	0,039	0,071
-180,285	800,000	-0,036	-0,102
-179,271	-49,707	-0,092	-0,031
-178,256	36,946	0,076	0,048
-177,242	181,321	0,052	0,054
-176,227	107,525	0,026	0,022
-175,212	-200,000	-0,001	-0,018
-174,198	179,573	0,054	-0,056
-173,183	-200,000	0,013	-0,123
-172,169	-28,800	-0,073	0,030
-171,154	-14,034	0,160	-0,073
-170,139	646,881	-0,043	-0,079
-169,125	-200,000	-0,021	0,071
-168,110	-200,000	0,014	0,086
-167,096	111,270	0,086	-0,073
-166,081	800,000	-0,038	-0,120
-165,066	-56,413	0,073	-0,023
-164,052	-200,000	-0,020	0,120
-163,037	484,111	0,020	-0,033
-162,023	800,000	0,016	0,047
-161,008	-200,000	0,021	-0,073
-159,993	800,000	0,054	-0,122
-158,979	-200,000	-0,012	-0,087
-157,964	263,460	-0,038	0,047
-156,950	-14,784	0,133	0,060
-155,935	222,013	0,049	0,056
-154,920	112,538	-0,049	0,042
-153,906	-200,000	0,035	0,156
-152,891	-200,000	-0,005	0,053
-151,877	204,450	-0,048	-0,052
-150,862	-98,421	-0,047	-0,008
-149,847	-44,991	0,028	-0,010
-148,833	58,213	-0,110	-0,076
-147,818	117,915	0,123	0,107
-146,804	-112,917	-0,152	-0,021
-145,789	-77,874	0,128	0,031
-144,775	-109,477	-0,090	-0,013
-143,760	-74,699	-0,105	0,027
-142,745	-79,421	-0,134	0,032
-141,731	800,000	-0,043	-0,105
-140,716	41,550	-0,093	-0,060
-139,702	408,174	0,069	-0,104
-138,687	-56,027	-0,123	0,039
-137,672	261,168	0,074	-0,091
-136,658	-200,000	0,014	-0,073
-135,643	4,864	0,089	-0,046
-134,629	-10,183	-0,126	-0,059
-133,614	612,804	0,010	-0,018
-132,599	-200,000	-0,015	0,064
-131,585	-89,934	-0,092	-0,019
-130,570	-200,000	0,023	-0,121
-129,556	131,927	0,039	-0,036
-128,541	364,703	-0,050	-0,071
-127,526	1,819	0,048	-0,024
-126,512	800,000	0,036	0,080
-125,497	81,038	0,051	0,039
-124,483	17,783	0,039	0,022
-123,468	-99,189	0,090	-0,016
-122,453	-5,580	0,045	-0,022
-121,439	800,000	-0,050	-0,103
-120,424	-200,000	0,018	0,117
-119,410	-200,000	-0,003	-0,095
-118,395	-200,000	0,017	0,068
-117,380	-200,000	-0,024	0,080
-116,366	108,415	-0,105	-0,089
-115,351	48,818	-0,064	0,042
-114,337	-200,000	0,056	0,177
-113,322	-3,911	0,012	0,006
-112,307	-89,095	0,060	0,013
-111,293	267,601	-0,070	0,087
-110,278	-56,099	-0,076	0,024
-109,264	350,677	-0,048	0,068
-108,249	74,612	-0,082	-0,061
-107,234	-97,381	0,084	-0,015
-106,220	800,000	0,024	-0,072
-105,205	260,779	0,073	-0,090
-104,191	-99,078	-0,178	0,032
-103,176	-17,646	0,121	0,054
-102,162	37,784	-0,023	-0,015
-101,147	-38,174	-0,064	0,024
-100,132	485,215	-0,058	-0,093
-99,118	10,508	-0,057	-0,031
-98,103	-200,000	0,035	0,161
-97,089	439,250	-0,073	0,113
-96,074	211,776	0,049	0,054
-95,059	-152,781	0,026	0,001
-94,045	-67,324	0,112	-0,031
-93,030	131,600	-0,073	0,066
-92,016	-200,000	0,019	-0,096
-91,001	66,932	0,013	0,010
-89,986	-55,747	0,029	-0,009
-88,972	161,057	0,013	0,013
-87,957	800,000	-0,029	0,075
-86,943	800,000	-0,042	0,104
-85,928	49,355	-0,085	-0,056
-84,913	-8,935	0,108	0,051
-83,899	499,743	-0,024	-0,039
-82,884	-116,747	0,087	-0,011
-81,870	-144,080	0,048	0,003
-80,855	-200,000	-0,001	0,023
-79,840	-13,181	0,178	0,082
-78,826	-74,558	-0,092	0,023
-77,811	800,000	-0,091	-0,182
-76,797	-200,000	-0,014	0,083
-75,782	39,432	0,074	0,047
-74,767	-146,868	0,097	-0,006
-73,753	-173,857	0,112	0,002
-72,738	-9,668	-0,057	-0,027
-71,724	-200,000	-0,006	-0,085
-70,709	800,000	-0,011	-0,027
-69,694	-90,049	-0,202	-0,041
-68,680	-9,147	0,013	-0,006
-67,665	-99,465	0,093	0,016
-66,651	-200,000	-0,024	0,156
-65,636	-200,000	0,014	0,098
-64,622	116,795	0,120	-0,104
-63,607	-200,000	0,001	-0,010
-62,592	557,307	-0,062	0,105
-61,578	-10,920	-0,145	0,067
-60,563	-200,000	-0,005	-0,042
-59,549	-42,254	0,073	0,026
-58,534	37,177	-2,134	-1,332
-57,519	613,884	-1,054	-1,871
-56,505	-200,000	-0,225	-4,255
-55,490	377,731	0,997	1,444
-54,476	800,000	5,052	11,182
-53,461	-200,000	21,074	337,074
-52,446	800,000	758,410	2344,310
-51,432	554,759	1662,155	2835,018
-50,417	73,556	1662,902	1228,264
-49,403	18,325	1536,464	863,860
-48,388	12,267	1459,710	791,375
-47,373	19,323	1450,438	820,207
-46,359	15,662	1439,705	796,681
-45,344	10,546	1435,701	770,053
-44,330	10,508	1433,602	768,715
-43,315	10,491	1431,793	767,635
-42,300	10,517	1430,007	766,770
-41,286	10,545	1428,718	766,182
-40,271	10,446	1427,767	765,167
-39,257	10,481	1426,418	764,582
-38,242	10,555	1425,219	764,260
-37,227	10,551	1424,160	763,645
-36,213	10,516	1422,837	762,740
-35,198	10,519	1421,874	762,205
-34,184	10,593	1420,919	762,013
-33,169	10,509	1419,506	760,831
-32,154	10,562	1418,569	760,547
-31,140	10,566	1417,379	759,895
-30,125	10,610	1416,187	759,434
-29,111	10,618	1415,014	758,813
-28,096	10,557	1413,815	757,853
-27,082	10,495	1412,703	756,934
-26,067	10,483	1411,653	756,289
-25,052	10,554	1410,623	756,041
-24,038	10,488	1409,831	755,273
-23,023	10,511	1408,531	754,654
-22,009	10,495	1407,711	754,110
-20,994	10,494	1406,610	753,485
-19,979	10,446	1405,838	752,819
-18,965	10,508	1404,739	752,490
-17,950	10,476	1403,735	751,775
-16,936	10,424	1403,192	751,209
-15,921	10,386	1402,170	750,455
-14,906	10,354	1401,237	749,778
-13,892	10,444	1399,955	749,482
-12,877	10,404	1399,473	749,008
-11,863	10,331	1398,789	748,271
-10,848	10,337	1397,823	747,755
-9,833	10,339	1396,815	747,192
-8,819	10,317	1395,957	746,602
-7,804	10,305	1395,051	746,034
-6,790	10,321	1393,923	745,475
-5,775	10,316	1392,871	744,860
-4,760	10,330	1391,981	744,417
-3,746	10,327	1391,128	743,918
-2,731	10,334	1390,285	743,472
-1,717	10,295	1389,424	742,799
-0,702	10,286	1387,680	741,799
0,313	14,341	1300,303	713,650
1,327	30,481	691,188	415,991
2,342	47,424	119,697	78,572
3,356	1,632	16,482	8,345
4,371	0,876	3,506	1,766
5,386	-6,378	0,986	0,473
6,400	-200,000	0,175	0,722
7,415	-77,309	-0,240	-0,059
8,429	50,845	-0,198	-0,132
9,444	122,250	-0,244	-0,215
10,459	-39,833	-0,227	-0,083
11,473	-30,238	-0,148	-0,059
12,488	131,088	-0,262	-0,237
13,502	-84,692	-0,391	-0,086
14,517	654,864	-0,117	-0,212
15,531	118,774	-0,298	-0,260
16,546	11,501	-0,345	-0,186
17,561	114,314	-0,348	-0,299
18,575	99,064	-0,193	-0,157
19,590	354,695	-0,202	-0,284
20,604	-74,795	-0,297	-0,075
21,619	354,309	-0,322	-0,451
22,634	218,484	-0,346	-0,389
23,648	35,273	-0,491	-0,303
24,663	39,626	-0,466	-0,294
25,677	-200,000	-0,058	-0,268
26,692	45,043	-0,306	-0,198
27,707	206,927	-0,216	-0,237
28,721	-34,030	-0,455	-0,175
29,736	-69,248	-0,383	-0,103
30,750	21,868	-0,539	-0,309
31,765	101,272	-0,380	-0,311
32,780	101,432	-0,305	-0,250
33,794	19,201	-0,353	-0,199
34,809	39,516	-0,309	-0,195
35,823	15,195	-0,298	-0,164
36,838	32,012	-0,355	-0,215
37,853	184,640	-0,339	-0,353
38,867	28,436	-0,342	-0,203
39,882	72,493	-0,374	-0,274
40,896	61,952	-0,403	-0,282
41,911	6,150	-0,431	-0,224
42,926	195,310	-0,239	-0,256
43,940	9,517	-0,447	-0,237
44,955	112,826	-0,284	-0,242
45,969	80,720	-0,277	-0,210
46,984	136,521	-0,313	-0,287
47,999	36,902	-0,267	-0,166
49,013	-43,393	-0,317	-0,112
50,028	-45,517	-0,425	-0,147
51,042	225,944	-0,306	-0,349
52,057	207,345	-0,362	-0,397
53,071	149,468	-0,290	-0,276
54,086	72,102	-0,331	-0,242
55,101	154,946	-0,261	-0,253
56,115	292,611	-0,274	-0,351
57,130	-77,959	-0,422	-0,101
58,144	-51,801	-0,413	-0,134
59,159	-90,212	-0,420	-0,085
60,174	136,474	-0,318	-0,291
61,188	141,239	-0,262	-0,243
62,203	112,249	-0,411	-0,349
63,217	49,944	-0,379	-0,251
64,232	46,186	-0,285	-0,185
65,247	72,665	-0,449	-0,328
66,261	6,693	-0,325	-0,169
67,276	-39,368	-0,257	-0,094
68,290	-64,983	-0,368	-0,104
69,305	311,049	-0,241	-0,317
70,320	4,413	-0,255	-0,131
71,334	26,715	-0,351	-0,206
72,349	77,175	-0,247	-0,184
73,363	190,709	-0,279	-0,294
74,378	161,095	-0,394	-0,387
75,393	145,056	-0,326	-0,305
76,407	-110,785	-0,322	-0,046
77,422	209,951	-0,223	-0,245
78,436	33,249	-0,304	-0,185
79,451	-31,006	-0,382	-0,150
80,466	-31,444	-0,310	-0,122
81,480	53,305	-0,318	-0,213
82,495	-57,536	-0,354	-0,108
83,509	330,578	-0,152	-0,205
84,524	100,447	-0,250	-0,203
85,539	44,723	-0,426	-0,274
86,553	-20,196	-0,387	-0,166
87,568	800,000	-0,147	-0,298
88,582	121,170	-0,225	-0,196
89,597	287,636	-0,165	-0,209
90,611	340,264	-0,292	-0,400
91,626	350,797	-0,152	-0,211
92,641	75,679	-0,246	-0,182
93,655	164,983	-0,277	-0,274
94,670	138,142	-0,200	-0,183
95,684	-51,211	-0,324	-0,106
96,699	172,078	-0,257	-0,259
97,714	87,895	-0,228	-0,177
98,728	544,689	-0,152	-0,254
99,743	-64,449	-0,294	-0,083
100,757	-0,532	-0,269	-0,133
101,772	-54,305	-0,291	-0,092
102,787	-1,453	-0,269	-0,133
103,801	180,131	-0,289	-0,296
104,816	-13,688	-0,323	-0,145
105,830	800,000	-0,119	-0,236
106,845	350,445	-0,199	-0,275
107,860	177,283	-0,257	-0,262
108,874	118,711	-0,255	-0,220
109,889	-15,916	-0,271	-0,120
110,903	57,836	-0,238	-0,163
111,918	464,337	-0,264	-0,414
112,933	81,725	-0,275	-0,207
113,947	-7,670	-0,324	-0,152
114,962	69,434	-0,320	-0,230
115,976	164,905	-0,176	-0,173
116,991	-26,264	-0,332	-0,136
118,006	108,654	-0,280	-0,234
119,020	54,509	-0,251	-0,169
120,035	81,927	-0,170	-0,128
121,049	40,516	-0,203	-0,128
122,064	3,188	-0,337	-0,170
123,079	-126,057	-0,260	-0,027
124,093	-28,976	-0,312	-0,124
125,108	110,107	-0,177	-0,148
126,122	23,039	-0,348	-0,199
127,137	-51,251	-0,343	-0,112
128,151	375,150	-0,173	-0,246
129,166	224,595	-0,169	-0,191
130,181	-127,385	-0,184	0,018
131,195	301,556	-0,220	-0,285
132,210	383,515	-0,197	-0,283
133,224	323,613	-0,276	-0,368
134,239	800,000	-0,059	-0,151
135,254	174,653	-0,147	-0,148
136,268	155,841	-0,239	-0,230
137,283	214,336	-0,204	-0,225
138,297	215,331	-0,270	-0,299
139,312	72,456	-0,366	-0,266
140,327	-26,996	-0,280	-0,114
141,341	425,579	-0,187	-0,281
142,356	-120,711	-0,396	-0,046
143,370	258,667	-0,141	-0,170
144,385	109,372	-0,196	-0,164
145,400	-51,332	-0,266	-0,086
146,414	418,484	-0,208	-0,312
147,429	-54,976	-0,168	-0,053
148,443	-60,088	-0,165	-0,049
149,458	-22,583	-0,225	-0,094
150,473	79,290	-0,148	-0,110
151,487	-108,292	-0,300	-0,045
152,502	330,296	-0,232	-0,312
153,516	125,485	-0,262	-0,230
154,531	233,877	-0,258	-0,296
155,546	-59,663	-0,311	-0,092
156,560	412,179	-0,114	-0,169
157,575	-12,461	-0,284	-0,129
158,589	55,604	-0,250	-0,168
159,604	196,024	-0,225	-0,238
160,619	108,025	-0,304	-0,252
161,633	274,115	-0,194	-0,240
162,648	75,293	-0,125	-0,091
163,662	102,860	-0,220	-0,179
164,677	165,009	-0,195	-0,192
165,692	-172,204	-0,218	0,005
166,706	-15,451	-0,359	-0,159
167,721	83,380	-0,291	-0,221
168,735	60,357	-0,261	-0,179
169,750	120,816	-0,216	-0,186
170,764	18,962	-0,356	-0,198
171,779	800,000	-0,078	-0,187
172,794	-67,967	-0,137	-0,037
173,808	194,775	-0,288	-0,304
174,823	315,635	-0,162	-0,212
175,837	146,555	-0,340	-0,317
176,852	92,517	-0,287	-0,225
177,867	0,946	-0,213	-0,106
178,881	116,416	-0,232	-0,198
179,896	-35,289	-0,274	-0,103
180,910	180,466	-0,210	-0,214
181,925	217,456	-0,163	-0,180
182,940	-3,027	-0,165	-0,079
183,954	-89,063	-0,255	0,052
184,969	246,419	-0,158	-0,186
185,983	592,073	-0,083	-0,143
186,998	800,000	-0,142	-0,299
188,013	77,521	-0,286	-0,211
189,027	103,558	-0,206	-0,167
190,042	143,527	-0,202	-0,187
191,056	5,812	-0,267	-0,137
192,071	14,008	-0,251	-0,135
193,086	-5,572	-0,206	-0,098
194,100	-65,914	-0,167	-0,046
195,115	61,926	-0,222	-0,153
196,129	7,307	-0,277	-0,143
197,144	102,274	-0,273	-0,221
198,159	304,586	-0,160	-0,206
199,173	132,380	-0,215	-0,192
200,188	74,370	-0,282	-0,206
201,202	112,571	-0,180	-0,151
202,217	162,987	-0,146	-0,142
203,232	-63,649	-0,198	-0,056
204,246	-79,130	-0,227	-0,053
205,261	7,890	-0,217	-0,112
206,275	435,472	-0,150	-0,227
207,290	192,116	-0,141	-0,148
208,304	119,177	-0,091	-0,078
209,319	-60,601	-0,310	-0,091
210,334	77,787	-0,162	-0,120
211,348	130,030	-0,238	-0,211
212,363	-94,297	-0,193	-0,036
213,377	56,042	-0,135	-0,091
214,392	64,095	-0,159	-0,110
215,407	209,147	-0,142	-0,154
216,421	746,527	-0,087	-0,163
217,436	342,266	-0,128	-0,174
218,450	-42,451	-0,354	-0,124
219,465	-2,936	-0,185	-0,089
220,480	102,788	-0,188	-0,152
221,494	772,943	-0,151	-0,287
222,509	1,914	-0,170	-0,085
223,523	-45,620	-0,228	-0,078
224,538	215,196	-0,153	-0,168
225,553	140,974	-0,183	-0,167
226,567	800,000	-0,103	-0,276
227,582	222,037	-0,148	-0,165
228,596	800,000	-0,070	-0,159
229,611	153,342	-0,184	-0,174
230,626	-3,247	-0,120	-0,058
231,640	800,000	-0,024	-0,053
232,655	24,682	-0,214	-0,122
233,669	151,380	-0,108	-0,102
234,684	189,548	-0,180	-0,187
235,699	800,000	-0,062	-0,160
236,713	250,621	-0,173	-0,204
237,728	800,000	-0,025	-0,067
238,742	-59,885	-0,143	-0,042
239,757	318,663	-0,163	-0,214
240,772	290,149	-0,097	-0,121
241,786	195,399	-0,216	-0,227
242,801	-64,126	-0,197	-0,055
243,815	380,822	-0,161	-0,230
244,830	64,345	-0,186	-0,129
245,844	52,892	-0,195	-0,129
246,859	-21,083	-0,181	-0,076
247,874	-44,111	-0,319	-0,110
248,888	64,522	-0,227	-0,158
249,903	47,487	-0,193	-0,124
250,917	185,844	-0,098	-0,100
251,932	328,698	-0,046	-0,061
252,947	756,994	-0,097	-0,181
253,961	111,245	-0,202	-0,168
254,976	-101,620	-0,243	-0,040
255,990	183,282	-0,215	-0,219
257,005	143,503	-0,147	-0,135
258,020	-60,882	-0,184	-0,053
259,034	329,708	-0,109	-0,145
260,049	89,909	-0,195	-0,150
261,063	192,728	-0,100	-0,104
262,078	-46,411	-0,171	-0,058
263,093	67,816	-0,213	-0,150
264,107	-200,000	-0,004	-0,163
265,122	800,000	-0,043	-0,092
266,136	190,082	-0,120	-0,125
267,151	121,088	-0,159	-0,136
268,166	141,014	-0,151	-0,137
269,180	800,000	-0,102	-0,263
270,195	82,839	-0,051	-0,038
271,209	176,158	-0,206	-0,206
272,224	168,316	-0,193	-0,189
273,239	127,559	-0,133	-0,116
274,253	-65,421	-0,222	-0,061
275,268	-152,147	-0,258	0,013
276,282	241,795	-0,164	-0,189
277,297	92,071	-0,223	-0,172
278,312	800,000	-0,069	-0,194
279,326	206,355	-0,192	-0,206
280,341	49,408	-0,157	-0,102
281,355	-200,000	0,020	-0,136
282,370	143,404	-0,139	-0,127
283,384	-200,000	0,003	-0,165
284,399	-97,663	-0,231	-0,041
285,414	800,000	-0,153	-0,309
286,428	81,704	-0,125	-0,093
287,443	81,766	-0,148	-0,110
288,457	424,254	-0,082	-0,122
289,472	-200,000	-0,141	-0,000
290,487	-80,098	-0,196	0,045
291,501	-137,101	-0,353	-0,027
292,516	30,411	-0,147	-0,086
293,530	94,260	-0,058	-0,045
294,545	669,133	-0,129	-0,231
295,560	-74,459	-0,113	0,028
296,574	-38,056	-0,079	0,029
297,589	292,083	-0,131	-0,164
298,603	474,065	-0,101	-0,157
299,618	-21,715	-0,183	-0,076
300,633	-56,882	-0,339	-0,102
301,647	335,182	-0,047	0,063
302,662	800,000	-0,025	-0,069
303,676	-3,429	-0,127	0,060
304,691	21,023	-0,145	-0,080
305,706	360,721	-0,121	-0,167
306,720	-184,425	-0,108	0,001
307,735	80,441	-0,222	-0,164
308,749	-200,000	0,001	-0,126
309,764	-82,497	-0,141	-0,031
310,779	10,988	-0,055	-0,029
311,793	-193,779	-0,157	0,001
312,808	298,973	-0,128	-0,162
313,822	-24,754	-0,197	-0,080
314,837	201,255	-0,226	-0,239
315,852	518,098	-0,085	-0,137
316,866	4,868	-0,157	-0,079
317,881	60,400	-0,200	-0,136
318,895	210,461	-0,118	-0,127
319,910	601,349	-0,096	-0,164
320,925	-134,251	-0,114	-0,010
321,939	-131,103	-0,248	-0,022
322,954	108,538	-0,115	-0,094
323,968	-108,688	-0,148	-0,021
324,983	-54,208	-0,109	-0,034
325,997	-92,302	-0,163	0,031
327,012	316,506	-0,095	-0,123
328,027	-100,207	-0,194	0,033
329,041	186,125	-0,147	-0,150
330,056	101,691	-0,103	-0,082
331,070	-94,277	-0,080	0,015
332,085	-63,718	-0,091	0,025
333,100	-62,074	-0,112	-0,032
334,114	230,821	-0,095	-0,106
335,129	140,420	-0,140	-0,126
336,143	-111,565	-0,171	-0,024
337,158	346,599	-0,127	-0,171
338,173	258,983	-0,140	-0,165
339,187	-200,000	-0,003	-0,071
340,202	800,000	-0,046	-0,105
341,216	424,728	-0,101	-0,149
342,231	800,000	-0,106	-0,301
343,246	-83,094	-0,212	-0,046
344,260	503,354	-0,042	-0,066
345,275	-81,234	-0,071	-0,016
346,289	800,000	-0,076	-0,173
347,304	34,562	-0,169	-0,101
348,319	-15,796	-0,159	-0,069
349,333	-89,392	-0,289	-0,058
350,348	39,613	-0,072	0,044
351,362	39,653	-0,149	-0,091
352,377	307,613	-0,093	-0,119
353,392	-200,000	0,043	-0,153
354,406	-150,034	-0,087	0,005
355,421	206,386	1310,538	1397,420
356,435	158,727	1470,720	1397,907
