DTS Sentinel unit serial number:	SN410029Multiplexer serial number:	ORYXHardware model number:	OX2-SRSoftware version number:	ORYX F/W v4,00 Oryx Data Collector v3.7.2.0data status	okinstallation	B3 Nyhavnadifferential loss correction	single-endedforward channel	channel 1reverse channel	N/Adate	2023/12/01time	03:57:30forward acquisition time	300,00reverse acquisition time	0,00gamma	499,1914k internal	0,3212k external	0,3212temperature offset calibration	1,0000default loss term (dB/km)	0,3820temperature slope calibration	1,0000multiplexer offset coefficient	1,0000multiplexer slope coefficient	1,0000fibre end	0,00T internal ref (°C)	8,18T ext. ref 1 (°C)	-7,00T ext. ref 2 (°C)	-7,13length (m)	temperature (°C)	Stokes	anti-Stokes-744,400	21,865	-0,305	-0,180
-743,385	-200,000	-0,026	0,118
-742,371	206,328	-0,125	-0,142
-741,356	-200,000	0,042	0,244
-740,342	185,048	-0,207	-0,223
-739,327	-200,000	-0,064	0,355
-738,312	800,000	-0,179	-0,363
-737,298	-200,000	-0,008	0,177
-736,283	150,546	-0,217	-0,214
-735,269	-200,000	-0,014	0,304
-734,254	56,379	-0,273	-0,192
-733,239	-134,037	-0,095	0,008
-732,225	-200,000	-0,051	-0,201
-731,210	18,783	0,115	0,067
-730,196	-173,758	0,018	-0,000
-729,181	-200,000	0,028	0,128
-728,167	800,000	0,077	-0,186
-727,152	-89,685	0,085	-0,018
-726,137	233,350	-0,118	-0,141
-725,123	396,377	-0,098	-0,149
-724,108	-71,623	-0,219	-0,059
-723,094	-200,000	-0,025	-0,199
-722,079	800,000	-0,065	-0,154
-721,064	-73,854	-0,065	-0,017
-720,050	-37,467	-0,126	-0,049
-719,035	73,478	-0,101	0,077
-718,021	142,749	0,097	-0,093
-717,006	513,216	-0,064	0,108
-715,991	362,703	-0,110	-0,161
-714,977	-135,138	-0,095	-0,008
-713,962	-200,000	-0,011	-0,098
-712,948	800,000	0,006	-0,015
-711,933	62,270	-0,068	0,049
-710,918	-83,253	-0,106	-0,024
-709,904	-161,902	0,065	0,002
-708,889	266,911	-0,122	-0,155
-707,875	-200,000	-0,047	0,183
-706,860	-135,434	-0,082	-0,007
-705,845	-200,000	-0,056	-0,182
-704,831	173,295	0,033	0,034
-703,816	-46,151	-0,086	-0,031
-702,802	-135,074	0,185	0,016
-701,787	251,006	-0,057	-0,071
-700,772	-68,372	0,035	-0,010
-699,758	-200,000	0,002	-0,022
-698,743	-39,990	-0,061	-0,023
-697,729	-200,000	0,027	-0,119
-696,714	98,467	0,063	-0,053
-695,699	-139,776	0,053	-0,004
-694,685	-200,000	-0,005	-0,077
-693,670	800,000	-0,082	-0,175
-692,656	-132,234	-0,176	-0,016
-691,641	-34,177	0,035	0,014
-690,627	-200,000	-0,014	-0,079
-689,612	501,974	-0,028	0,046
-688,597	800,000	0,017	-0,038
-687,583	-200,000	-0,032	-0,126
-686,568	-108,471	-0,087	-0,013
-685,554	242,006	0,083	0,101
-684,539	-200,000	0,004	0,064
-683,524	292,009	0,107	-0,141
-682,510	312,401	-0,118	0,161
-681,495	-200,000	-0,001	0,140
-680,481	-200,000	-0,020	-0,106
-679,466	625,854	0,119	-0,217
-678,451	800,000	0,026	-0,075
-677,437	214,356	-0,076	0,087
-676,422	-133,435	0,032	0,003
-675,408	134,730	0,020	-0,019
-674,393	-200,000	-0,006	0,097
-673,378	-200,000	-0,020	-0,078
-672,364	53,112	-0,024	0,016
-671,349	-29,207	-0,097	-0,040
-670,335	-130,145	0,023	0,002
-669,320	-112,014	-0,056	-0,008
-668,305	800,000	0,021	0,058
-667,291	-81,770	-0,032	0,008
-666,276	-200,000	-0,028	-0,120
-665,262	168,527	0,073	-0,075
-664,247	-22,594	-0,079	0,034
-663,232	193,155	0,019	-0,021
-662,218	-200,000	0,034	0,151
-661,203	-200,000	0,007	0,215
-660,189	-200,000	0,006	-0,100
-659,174	-116,094	0,059	0,008
-658,159	-105,800	-0,032	-0,005
-657,145	-70,685	-0,138	0,037
-656,130	800,000	0,015	0,034
-655,116	-200,000	0,018	0,153
-654,101	800,000	0,034	0,081
-653,086	11,353	-0,081	0,045
-652,072	608,658	0,042	-0,076
-651,057	800,000	-0,060	-0,165
-650,043	-83,879	-0,161	0,037
-649,028	336,350	-0,053	-0,075
-648,014	240,966	0,064	0,077
-646,999	-69,856	-0,071	-0,019
-645,984	-157,405	0,060	0,003
-644,970	-48,236	-0,059	-0,020
-643,955	800,000	-0,016	-0,045
-642,941	-200,000	0,020	-0,107
-641,926	206,033	0,090	-0,101
-640,911	800,000	-0,006	0,016
-639,897	800,000	-0,046	0,096
-638,882	-200,000	0,086	0,000
-637,868	-44,916	0,115	0,041
-636,853	-200,000	0,017	-0,220
-635,838	-200,000	-0,014	0,061
-634,824	-200,000	0,009	-0,048
-633,809	3,777	-0,020	0,010
-632,795	4,299	0,073	-0,039
-631,780	-200,000	0,019	-0,092
-630,765	-200,000	0,002	-0,019
-629,751	36,084	-0,151	-0,096
-628,736	7,439	-0,097	-0,052
-627,722	0,403	0,063	0,032
-626,707	101,711	0,068	-0,058
-625,692	-42,797	0,212	0,077
-624,678	205,226	0,047	-0,053
-623,663	27,422	-0,068	0,041
-622,649	-52,046	-0,092	-0,031
-621,634	206,325	-0,082	0,092
-620,619	-154,420	0,047	0,002
-619,605	105,017	0,116	-0,099
-618,590	160,245	-0,027	0,027
-617,576	-123,959	-0,026	-0,003
-616,561	-38,602	-0,035	0,013
-615,546	85,372	-0,044	0,035
-614,532	550,428	0,022	-0,038
-613,517	-127,438	-0,078	0,008
-612,503	-134,777	-0,101	0,009
-611,488	732,602	-0,039	0,075
-610,474	800,000	0,072	0,207
-609,459	164,359	-0,054	-0,055
-608,444	800,000	0,013	0,028
-607,430	6,004	0,070	-0,037
-606,415	-200,000	-0,026	-0,156
-605,401	-56,158	-0,031	0,010
-604,386	800,000	0,015	-0,039
-603,371	71,099	-0,059	-0,044
-602,357	-82,798	0,044	0,010
-601,342	-200,000	-0,007	-0,137
-600,328	-21,300	-0,030	0,013
-599,313	-79,425	0,150	0,036
-598,298	123,495	-0,061	0,055
-597,284	-200,000	-0,005	-0,039
-596,269	-46,613	0,200	0,070
-595,255	-200,000	0,025	-0,164
-594,240	122,987	-0,015	-0,013
-593,225	-171,911	0,054	0,001
-592,211	647,538	0,029	-0,053
-591,196	-200,000	0,011	0,044
-590,182	800,000	-0,014	-0,030
-589,167	800,000	0,014	-0,031
-588,152	-187,045	-0,016	-0,000
-587,138	479,969	-0,043	0,070
-586,123	-178,872	0,159	-0,003
-585,109	-200,000	-0,041	-0,142
-584,094	96,639	0,046	-0,038
-583,079	800,000	-0,056	0,116
-582,065	77,379	0,085	0,065
-581,050	-190,991	-0,110	-0,001
-580,036	-200,000	-0,002	0,009
-579,021	454,605	-0,048	0,076
-578,006	-41,355	-0,030	-0,011
-576,992	800,000	-0,032	-0,097
-575,977	-102,453	0,121	0,021
-574,963	-42,710	-0,052	-0,019
-573,948	173,324	0,045	-0,047
-572,934	-200,000	-0,003	-0,051
-571,919	72,368	-0,171	-0,128
-570,904	-200,000	0,052	-0,000
-569,890	61,369	0,018	0,013
-568,875	61,899	0,089	0,064
-567,861	800,000	0,008	0,018
-566,846	-72,376	-0,122	0,032
-565,831	254,601	-0,115	-0,142
-564,817	-200,000	0,009	-0,136
-563,802	662,159	-0,054	-0,101
-562,788	249,493	-0,091	-0,111
-561,773	10,985	0,164	0,090
-560,758	204,873	0,094	0,105
-559,744	-200,000	-0,007	0,097
-558,729	223,785	-0,061	0,070
-557,715	30,304	-0,088	-0,054
-556,700	18,936	-0,165	0,095
-555,685	182,861	0,083	0,088
-554,671	191,218	0,075	-0,081
-553,656	-200,000	-0,003	0,041
-552,642	800,000	0,017	0,035
-551,627	800,000	0,051	0,160
-550,612	87,242	0,099	-0,079
-549,598	-24,864	-0,158	-0,067
-548,583	69,971	-0,099	-0,073
-547,569	800,000	0,026	-0,072
-546,554	800,000	0,034	-0,085
-545,539	-200,000	0,007	-0,072
-544,525	800,000	-0,043	0,089
-543,510	-152,460	-0,016	-0,001
-542,496	-200,000	0,009	0,112
-541,481	150,369	-0,067	0,066
-540,466	-65,975	-0,140	0,040
-539,452	369,821	0,093	-0,136
-538,437	431,512	0,048	0,076
-537,423	-200,000	-0,017	-0,070
-536,408	-200,000	-0,005	0,068
-535,393	40,260	-0,026	-0,017
-534,379	189,200	-0,052	-0,056
-533,364	212,384	0,007	-0,008
-532,350	-60,582	0,150	0,045
-531,335	-200,000	0,004	0,055
-530,321	341,454	-0,029	0,041
-529,306	-146,139	0,065	-0,004
-528,291	-200,000	0,001	0,088
-527,277	-200,000	-0,015	-0,097
-526,262	37,767	-0,012	0,008
-525,248	350,908	0,076	0,109
-524,233	-86,037	-0,033	-0,007
-523,218	5,042	0,150	0,079
-522,204	800,000	-0,034	0,104
-521,189	182,876	-0,020	-0,021
-520,175	-23,387	-0,090	-0,039
-519,160	-200,000	-0,002	-0,092
-518,145	-71,596	0,072	-0,019
-517,131	177,602	-0,058	0,060
-516,116	339,903	-0,082	0,115
-515,102	-200,000	-0,021	-0,085
-514,087	-57,867	-0,074	-0,023
-513,072	125,111	-0,105	-0,095
-512,058	426,421	-0,053	-0,082
-511,043	-139,149	0,104	0,008
-510,029	800,000	0,042	0,100
-509,014	800,000	-0,046	-0,110
-507,999	51,407	0,098	0,067
-506,985	34,050	-0,048	0,030
-505,970	-32,068	-0,120	0,048
-504,956	24,339	-0,091	-0,054
-503,941	686,180	0,038	-0,072
-502,926	158,306	0,051	0,051
-501,912	-104,316	-0,107	-0,018
-500,897	92,442	0,021	-0,017
-499,883	-111,947	-0,127	-0,018
-498,868	-200,000	-0,013	-0,135
-497,853	-71,923	0,018	0,005
-496,839	800,000	-0,041	-0,106
-495,824	416,646	0,021	0,033
-494,810	-13,706	-0,137	0,064
-493,795	-200,000	0,025	0,100
-492,781	-200,000	-0,006	0,074
-491,766	-200,000	0,012	-0,038
-490,751	152,155	0,030	-0,029
-489,737	800,000	0,033	-0,071
-488,722	-200,000	-0,043	0,216
-487,708	-200,000	0,006	0,133
-486,693	397,596	-0,085	-0,128
-485,678	-200,000	-0,013	-0,097
-484,664	-19,825	0,132	-0,058
-483,649	288,119	0,070	0,092
-482,635	82,843	-0,096	-0,075
-481,620	-18,311	0,036	-0,016
-480,605	800,000	0,073	0,150
-479,591	800,000	0,067	0,191
-478,576	-120,116	-0,060	-0,007
-477,562	-200,000	-0,026	0,100
-476,547	-200,000	-0,006	-0,039
-475,532	800,000	0,050	0,145
-474,518	-123,922	-0,022	0,002
-473,503	94,474	0,098	0,079
-472,489	168,782	-0,063	0,065
-471,474	288,827	-0,041	0,053
-470,459	44,552	0,072	0,047
-469,445	257,710	-0,040	0,049
-468,430	-200,000	0,022	-0,080
-467,416	17,453	0,090	-0,051
-466,401	572,574	0,036	0,063
-465,386	292,477	0,041	0,054
-464,372	-23,228	-0,083	0,036
-463,357	-64,389	-0,070	0,020
-462,343	211,476	-0,075	0,084
-461,328	-136,316	-0,140	-0,011
-460,313	800,000	-0,027	0,068
-459,299	-74,898	0,142	0,036
-458,284	-101,305	0,130	-0,023
-457,270	-2,800	0,017	-0,008
-456,255	-132,265	-0,115	0,011
-455,241	-200,000	0,011	-0,139
-454,226	-200,000	0,007	-0,038
-453,211	16,108	-0,075	0,042
-452,197	368,031	0,101	0,147
-451,182	-128,610	0,085	-0,008
-450,168	-200,000	-0,000	-0,023
-449,153	-200,000	0,018	-0,063
-448,138	-200,000	-0,004	0,037
-447,124	-112,289	0,026	0,004
-446,109	64,249	-0,127	0,092
-445,095	530,852	0,025	0,042
-444,080	38,396	-0,033	0,021
-443,065	211,945	-0,076	-0,086
-442,051	-158,648	0,127	0,005
-441,036	125,934	-0,035	-0,031
-440,022	327,043	-0,082	-0,113
-439,007	167,639	0,019	0,020
-437,992	-142,454	0,088	0,006
-436,978	224,279	-0,064	0,074
-435,963	-41,654	0,033	0,012
-434,949	264,595	-0,009	0,011
-433,934	-200,000	0,001	-0,028
-432,919	16,854	-0,127	-0,072
-431,905	800,000	0,020	0,053
-430,890	225,412	0,158	0,184
-429,876	-200,000	0,008	-0,035
-428,861	666,580	0,026	0,048
-427,846	174,078	-0,063	0,065
-426,832	285,967	-0,009	0,012
-425,817	-200,000	0,003	-0,106
-424,803	-115,618	0,139	-0,019
-423,788	775,975	-0,022	0,043
-422,773	-140,819	0,082	-0,006
-421,759	-107,975	-0,023	-0,004
-420,744	-200,000	0,002	-0,016
-419,730	130,587	-0,102	-0,093
-418,715	-200,000	0,013	0,047
-417,701	201,594	0,078	-0,086
-416,686	173,828	0,083	-0,086
-415,671	800,000	0,031	0,092
-414,657	-200,000	-0,023	0,080
-413,642	229,452	0,057	0,067
-412,628	16,205	0,069	0,039
-411,613	-115,384	0,041	-0,005
-410,598	339,959	-0,078	-0,109
-409,584	393,924	-0,048	-0,071
-408,569	50,011	-0,049	0,033
-407,555	-200,000	0,005	0,022
-406,540	108,235	-0,072	-0,061
-405,525	-79,526	0,148	-0,035
-404,511	-80,949	-0,098	-0,023
-403,496	-34,887	0,062	-0,024
-402,482	425,431	-0,039	-0,060
-401,467	800,000	0,046	0,100
-400,452	131,430	-0,054	0,050
-399,438	800,000	-0,049	0,123
-398,423	800,000	-0,022	0,063
-397,409	199,144	-0,085	0,093
-396,394	150,648	0,092	-0,089
-395,379	-200,000	-0,029	0,094
-394,365	29,512	0,026	-0,016
-393,350	-16,127	0,088	0,040
-392,336	51,563	0,028	-0,019
-391,321	-153,012	-0,138	-0,007
-390,306	734,755	-0,016	0,030
-389,292	-13,774	-0,058	-0,027
-388,277	-82,415	-0,102	-0,023
-387,263	190,796	0,008	0,008
-386,248	687,039	0,027	-0,050
-385,233	-200,000	0,023	0,120
-384,219	-137,855	0,271	-0,021
-383,204	429,271	-0,054	-0,084
-382,190	800,000	-0,064	-0,144
-381,175	-200,000	-0,002	-0,027
-380,160	-200,000	-0,028	-0,161
-379,146	-15,137	-0,044	0,020
-378,131	145,085	0,068	-0,065
-377,117	800,000	0,022	-0,048
-376,102	800,000	0,014	-0,031
-375,088	-200,000	0,030	-0,153
-374,073	800,000	0,091	-0,258
-373,058	-145,436	-0,168	0,011
-372,044	393,378	0,077	0,115
-371,029	-200,000	0,038	0,131
-370,015	800,000	0,039	0,120
-369,000	-23,084	-0,084	0,036
-367,985	377,963	0,025	0,037
-366,971	-80,646	0,202	-0,048
-365,956	6,045	-0,086	-0,046
-364,942	-44,544	0,042	-0,015
-363,927	620,365	-0,004	-0,007
-362,912	16,595	0,048	0,027
-361,898	211,510	-0,103	-0,116
-360,883	-89,525	-0,134	-0,028
-359,869	229,172	0,079	0,092
-358,854	332,912	0,081	0,112
-357,839	-102,997	0,029	-0,005
-356,825	-1,783	0,188	-0,094
-355,810	800,000	-0,025	0,050
-354,796	800,000	-0,024	0,069
-353,781	437,381	-0,046	-0,072
-352,766	373,842	0,058	-0,085
-351,752	-200,000	0,004	-0,103
-350,737	-39,604	0,134	-0,050
-349,723	-200,000	-0,040	0,165
-348,708	-200,000	0,006	0,044
-347,693	9,862	-0,054	-0,029
-346,679	390,207	0,014	0,021
-345,664	-200,000	-0,002	0,026
-344,650	-68,586	-0,029	-0,008
-343,635	0,961	0,070	-0,036
-342,620	800,000	-0,053	0,127
-341,606	415,704	-0,030	0,046
-340,591	-200,000	-0,013	-0,100
-339,577	390,171	-0,050	-0,074
-338,562	-113,082	0,087	0,012
-337,548	145,316	0,062	0,059
-336,533	636,224	-0,073	0,133
-335,518	421,758	0,086	0,132
-334,504	800,000	-0,026	-0,064
-333,489	-7,034	-0,024	0,012
-332,475	425,455	-0,057	0,088
-331,460	235,159	-0,037	0,044
-330,445	800,000	0,032	0,077
-329,431	-200,000	-0,045	0,152
-328,416	-78,754	-0,067	-0,016
-327,402	-9,234	0,086	0,041
-326,387	800,000	-0,107	0,255
-325,372	-200,000	0,008	-0,117
-324,358	-5,570	-0,094	-0,046
-323,343	800,000	0,018	0,040
-322,329	800,000	0,037	-0,104
-321,314	188,810	0,043	-0,046
-320,299	-200,000	-0,002	0,041
-319,285	-200,000	-0,006	0,127
-318,270	-200,000	-0,018	-0,123
-317,256	86,187	0,070	-0,055
-316,241	800,000	0,041	-0,100
-315,226	-56,163	0,131	0,041
-314,212	80,421	-0,071	-0,054
-313,197	104,416	0,129	-0,108
-312,183	57,053	0,077	0,054
-311,168	-87,066	-0,017	0,004
-310,153	800,000	-0,014	0,029
-309,139	500,602	-0,097	-0,160
-308,124	800,000	0,033	0,101
-307,110	228,210	-0,036	0,042
-306,095	-200,000	0,023	0,087
-305,080	264,186	-0,099	0,123
-304,066	-108,753	-0,073	-0,011
-303,051	138,992	0,075	-0,070
-302,037	88,246	-0,012	-0,010
-301,022	209,820	0,046	0,051
-300,008	-98,235	0,083	0,015
-298,993	-118,138	0,135	0,017
-297,978	-120,225	0,092	0,011
-296,964	-200,000	-0,002	0,052
-295,949	245,146	0,084	-0,101
-294,935	-23,331	-0,145	-0,062
-293,920	-200,000	-0,005	-0,031
-292,905	135,290	-0,044	-0,041
-291,891	82,174	0,008	-0,006
-290,876	-146,964	-0,109	-0,007
-289,862	-200,000	-0,025	0,119
-288,847	111,978	0,109	-0,094
-287,832	-133,120	-0,055	0,005
-286,818	-2,798	0,069	0,034
-285,803	800,000	-0,016	0,050
-284,789	-96,785	-0,097	-0,018
-283,774	25,409	0,067	0,039
-282,759	622,478	-0,032	0,058
-281,745	800,000	0,046	-0,107
-280,730	632,187	-0,034	-0,061
-279,716	-200,000	0,018	0,102
-278,701	255,423	0,070	0,086
-277,686	-200,000	0,013	0,089
-276,672	245,647	-0,107	-0,128
-275,657	684,434	0,037	0,068
-274,643	-33,826	0,037	-0,015
-273,628	262,628	-0,038	-0,048
-272,613	-103,282	-0,052	-0,009
-271,599	-77,328	0,133	-0,033
-270,584	178,455	0,101	0,105
-269,570	112,176	0,081	-0,070
-268,555	57,876	-0,154	-0,107
-267,540	-56,711	0,033	-0,010
-266,526	23,755	0,032	-0,019
-265,511	800,000	0,021	-0,044
-264,497	-152,525	-0,051	0,003
-263,482	-200,000	-0,017	-0,130
-262,467	800,000	0,044	-0,097
-261,453	-28,025	0,018	-0,007
-260,438	106,839	-0,076	-0,064
-259,424	-76,870	-0,078	-0,019
-258,409	91,914	0,081	-0,065
-257,395	185,705	0,016	-0,017
-256,380	65,942	0,023	0,017
-255,365	13,846	0,105	0,058
-254,351	-116,338	0,054	-0,007
-253,336	399,167	-0,053	-0,080
-252,322	189,815	-0,077	-0,083
-251,307	-200,000	-0,046	-0,169
-250,292	-114,443	-0,109	-0,015
-249,278	-146,125	0,092	0,006
-248,263	86,108	0,119	-0,093
-247,249	207,159	0,067	0,075
-246,234	626,052	0,022	0,039
-245,219	15,135	0,034	-0,019
-244,205	800,000	-0,089	-0,217
-243,190	-200,000	-0,030	0,134
-242,176	86,951	0,090	-0,070
-241,161	580,160	-0,019	0,033
-240,146	457,587	-0,072	0,114
-239,132	-142,104	-0,038	0,003
-238,117	206,890	-0,025	-0,028
-237,103	8,005	-0,117	-0,062
-236,088	150,527	0,012	-0,011
-235,073	-4,209	-0,171	0,084
-234,059	-200,000	-0,017	0,092
-233,044	237,262	-0,080	0,095
-232,030	-56,190	0,133	-0,042
-231,015	-200,000	0,016	0,101
-230,000	800,000	-0,014	0,044
-228,986	-144,837	-0,058	0,004
-227,971	314,102	0,086	-0,115
-226,957	-153,906	-0,062	-0,003
-225,942	210,631	0,158	0,176
-224,927	487,721	-0,046	0,076
-223,913	-200,000	-0,003	-0,010
-222,898	-35,215	-0,096	-0,037
-221,884	-73,829	0,107	-0,027
-220,869	383,288	0,024	-0,035
-219,855	5,747	0,023	0,012
-218,840	-127,787	0,061	0,006
-217,825	-8,344	-0,006	0,003
-216,811	800,000	-0,030	0,060
-215,796	92,960	-0,086	-0,069
-214,782	800,000	0,055	-0,167
-213,767	-200,000	0,043	0,160
-212,752	92,480	0,049	0,039
-211,738	-102,140	-0,074	0,012
-210,723	34,005	-0,055	0,034
-209,709	44,223	0,022	-0,014
-208,694	-34,766	0,045	-0,017
-207,679	250,427	-0,101	-0,122
-206,665	-50,955	0,063	0,021
-205,650	-48,931	-0,064	-0,022
-204,636	-151,372	0,063	-0,003
-203,621	800,000	-0,070	0,148
-202,606	163,045	-0,017	0,017
-201,592	160,343	-0,117	0,116
-200,577	800,000	0,046	0,109
-199,563	800,000	0,037	0,074
-198,548	-147,229	0,117	-0,007
-197,533	-13,518	-0,022	0,010
-196,519	270,448	-0,106	0,132
-195,504	-200,000	-0,005	-0,085
-194,490	-200,000	-0,007	-0,067
-193,475	-42,017	-0,094	0,034
-192,460	-200,000	0,005	0,035
-191,446	-146,629	-0,124	-0,008
-190,431	-200,000	0,013	-0,054
-189,417	-65,635	-0,079	-0,022
-188,402	-65,566	-0,224	-0,063
-187,387	-200,000	-0,000	-0,074
-186,373	-55,689	-0,035	-0,011
-185,358	623,302	-0,020	-0,035
-184,344	13,953	0,028	0,015
-183,329	-200,000	-0,025	-0,107
-182,315	-11,328	-0,155	-0,072
-181,300	420,327	0,096	-0,146
-180,285	-138,324	0,057	-0,004
-179,271	-107,438	0,085	-0,013
-178,256	216,855	0,016	-0,018
-177,242	374,807	0,063	0,092
-176,227	-138,670	0,091	-0,007
-175,212	265,614	0,091	0,112
-174,198	-79,275	-0,202	-0,048
-173,183	-200,000	-0,004	-0,064
-172,169	-5,058	-0,097	0,047
-171,154	-200,000	0,002	-0,056
-170,139	-200,000	0,009	-0,047
-169,125	129,974	0,063	0,058
-168,110	4,405	-0,054	-0,028
-167,096	124,880	-0,087	-0,078
-166,081	-200,000	0,003	0,032
-165,066	64,685	-0,089	0,064
-164,052	112,350	0,038	0,033
-163,037	-42,633	0,122	0,044
-162,023	-200,000	0,005	-0,063
-161,008	122,585	-0,070	0,062
-159,993	44,812	0,126	-0,082
-158,979	40,422	-0,042	0,027
-157,964	239,566	-0,043	0,050
-156,950	457,669	-0,038	-0,059
-155,935	-55,597	0,200	0,063
-154,920	800,000	-0,032	-0,063
-153,906	64,330	-0,107	0,076
-152,891	-38,675	0,095	0,035
-151,877	-82,483	-0,088	0,020
-150,862	-91,732	-0,124	-0,025
-149,847	-200,000	0,029	0,102
-148,833	184,955	0,085	-0,089
-147,818	69,499	0,116	-0,085
-146,804	23,421	-0,086	0,050
-145,789	207,573	0,121	0,134
-144,775	-200,000	-0,008	-0,124
-143,760	565,425	0,089	-0,153
-142,745	-123,834	-0,052	0,006
-141,731	229,633	-0,055	0,064
-140,716	-99,995	-0,098	-0,017
-139,702	-200,000	0,036	0,162
-138,687	-138,594	-0,056	-0,004
-137,672	249,367	-0,078	-0,093
-136,658	326,174	-0,063	-0,085
-135,643	340,547	0,032	0,044
-134,629	292,025	0,130	-0,168
-133,614	-51,389	0,095	0,031
-132,599	121,154	0,137	0,120
-131,585	-98,734	0,031	0,005
-130,570	12,703	0,089	0,048
-129,556	800,000	0,086	-0,197
-128,541	800,000	0,029	0,081
-127,526	800,000	0,039	0,091
-126,512	-200,000	0,003	0,058
-125,497	-55,112	-0,091	-0,029
-124,483	-200,000	0,013	-0,203
-123,468	353,262	-0,033	-0,046
-122,453	34,057	0,050	-0,031
-121,439	-33,369	-0,073	-0,028
-120,424	42,122	0,025	-0,016
-119,410	-200,000	-0,001	0,020
-118,395	-200,000	-0,023	0,177
-117,380	-69,000	-0,143	-0,039
-116,366	-200,000	0,012	0,085
-115,351	-44,100	-0,074	0,026
-114,337	312,421	-0,034	-0,045
-113,322	800,000	-0,009	0,026
-112,307	-200,000	0,003	-0,114
-111,293	263,884	0,092	0,113
-110,278	118,567	0,023	0,020
-109,264	-3,152	-0,106	0,052
-108,249	266,101	0,044	0,055
-107,234	-131,788	-0,113	-0,010
-106,220	401,878	-0,084	-0,125
-105,205	-200,000	-0,001	-0,073
-104,191	800,000	0,041	-0,086
-103,176	800,000	0,026	0,081
-102,162	227,696	-0,050	0,057
-101,147	1,070	-0,050	-0,025
-100,132	-29,354	-0,109	-0,044
-99,118	-104,482	-0,041	-0,007
-98,103	-178,034	0,049	-0,001
-97,089	-200,000	0,000	-0,022
-96,074	-95,728	0,040	-0,008
-95,059	189,867	-0,087	0,093
-94,045	-2,717	-0,079	-0,039
-93,030	460,264	-0,042	-0,067
-92,016	-200,000	0,002	0,114
-91,001	171,699	0,024	0,024
-89,986	-200,000	0,013	0,122
-88,972	-30,842	-0,048	-0,019
-87,957	180,732	0,069	0,071
-86,943	-181,423	-0,020	-0,000
-85,928	-71,262	-0,015	0,004
-84,913	42,616	0,095	-0,061
-83,899	83,108	-0,112	-0,086
-82,884	-200,000	0,014	-0,051
-81,870	492,595	-0,052	0,085
-80,855	9,563	0,070	0,037
-79,840	124,339	0,045	-0,040
-78,826	60,426	0,023	0,016
-77,811	709,436	-0,075	-0,141
-76,797	314,187	-0,056	0,075
-75,782	36,676	0,052	-0,032
-74,767	-80,608	-0,054	0,013
-73,753	-200,000	0,009	0,111
-72,738	-66,553	0,080	-0,022
-71,724	-171,494	0,045	-0,001
-70,709	-200,000	0,003	-0,066
-69,694	531,143	0,080	-0,134
-68,680	-5,545	0,069	-0,033
-67,665	48,750	0,150	0,099
-66,651	-20,149	0,059	-0,026
-65,636	112,366	-0,050	0,043
-64,622	-70,082	-0,106	0,028
-63,607	13,428	-0,113	-0,062
-62,592	-65,577	-0,020	-0,006
-61,578	-200,000	-0,005	-0,037
-60,563	800,000	-0,044	0,104
-59,549	-18,714	0,047	-0,021
-58,534	52,090	-2,308	-1,549
-57,519	519,094	-1,076	-1,786
-56,505	-200,000	-0,370	-4,495
-55,490	383,405	0,949	1,382
-54,476	800,000	5,345	11,801
-53,461	-200,000	22,446	346,909
-52,446	800,000	756,935	2299,503
-51,432	535,852	1644,659	2763,693
-50,417	68,469	1643,524	1187,241
-49,403	15,851	1520,836	841,947
-48,388	10,057	1446,411	772,913
-47,373	19,242	1438,959	812,675
-46,359	13,559	1427,538	779,367
-45,344	8,364	1423,494	752,557
-44,330	8,318	1421,616	751,314
-43,315	8,242	1419,922	750,033
-42,300	8,291	1418,091	749,262
-41,286	8,346	1416,730	748,776
-40,271	8,300	1415,549	747,906
-39,257	8,253	1414,563	747,130
-38,242	8,320	1413,303	746,755
-37,227	8,281	1412,261	745,991
-36,213	8,293	1410,867	745,278
-35,198	8,287	1409,772	744,642
-34,184	8,305	1408,583	744,069
-33,169	8,199	1407,613	743,032
-32,154	8,299	1406,356	742,805
-31,140	8,276	1405,216	742,067
-30,125	8,302	1404,029	741,532
-29,111	8,285	1402,802	740,776
-28,096	8,271	1401,629	740,062
-27,082	8,193	1400,456	739,051
-26,067	8,188	1399,370	738,423
-25,052	8,237	1398,241	738,028
-24,038	8,207	1397,313	737,368
-23,023	8,185	1396,396	736,752
-22,009	8,204	1395,361	736,264
-20,994	8,204	1394,320	735,685
-19,979	8,167	1393,452	735,029
-18,965	8,197	1392,605	734,691
-17,950	8,144	1391,579	733,875
-16,936	8,157	1390,664	733,425
-15,921	8,073	1389,897	732,601
-14,906	8,086	1389,040	732,180
-13,892	8,142	1387,862	731,791
-12,877	8,152	1387,114	731,413
-11,863	8,142	1386,370	730,945
-10,848	8,122	1385,214	730,212
-9,833	8,082	1384,406	729,575
-8,819	8,047	1383,578	728,948
-7,804	8,049	1382,694	728,464
-6,790	8,033	1381,490	727,725
-5,775	8,019	1380,737	727,235
-4,760	8,069	1379,835	726,963
-3,746	8,073	1378,730	726,369
-2,731	8,054	1377,669	725,695
-1,717	8,076	1376,928	725,378
-0,702	8,075	1375,217	724,440
0,313	12,103	1285,711	695,532
1,327	27,969	677,896	402,110
2,342	43,780	116,638	75,145
3,356	-1,441	16,641	8,248
4,371	-1,650	3,833	1,897
5,386	0,328	1,383	0,694
6,400	800,000	0,313	0,651
7,415	-44,838	-0,115	-0,040
8,429	-38,831	-0,313	-0,116
9,444	-75,009	-0,359	-0,090
10,459	62,882	-0,281	-0,198
11,473	-15,473	-0,225	-0,101
12,488	155,670	-0,275	-0,267
13,502	119,714	-0,247	-0,216
14,517	-5,583	-0,440	-0,212
15,531	90,589	-0,328	-0,259
16,546	22,171	-0,417	-0,239
17,561	195,918	-0,281	-0,301
18,575	-121,695	-0,276	-0,032
19,590	167,060	-0,266	-0,266
20,604	-69,473	-0,252	-0,068
21,619	59,598	-0,476	-0,330
22,634	72,911	-0,360	-0,264
23,648	51,591	-0,393	-0,262
24,663	596,109	-0,287	-0,502
25,677	-18,708	-0,378	-0,165
26,692	50,390	-0,292	-0,194
27,707	73,669	-0,327	-0,241
28,721	79,891	-0,260	-0,197
29,736	146,660	-0,390	-0,369
30,750	180,724	-0,374	-0,386
31,765	30,414	-0,339	-0,203
32,780	14,276	-0,394	-0,215
33,794	-35,921	-0,382	-0,144
34,809	57,160	-0,266	-0,182
35,823	-52,237	-0,474	-0,153
36,838	120,976	-0,358	-0,313
37,853	148,806	-0,358	-0,340
38,867	469,576	-0,237	-0,375
39,882	-30,881	-0,273	-0,108
40,896	29,403	-0,422	-0,252
41,911	242,583	-0,243	-0,286
42,926	107,612	-0,300	-0,251
43,940	117,411	-0,356	-0,307
44,955	159,083	-0,358	-0,350
45,969	57,575	-0,386	-0,265
46,984	220,909	-0,231	-0,261
47,999	97,716	-0,258	-0,208
49,013	143,923	-0,337	-0,316
50,028	265,493	-0,196	-0,240
51,042	128,022	-0,281	-0,251
52,057	-20,561	-0,424	-0,182
53,071	129,130	-0,322	-0,288
54,086	163,163	-0,211	-0,208
55,101	-0,525	-0,356	-0,177
56,115	103,852	-0,290	-0,239
57,130	158,070	-0,216	-0,211
58,144	39,402	-0,494	-0,310
59,159	58,258	-0,439	-0,302
60,174	114,612	-0,277	-0,237
61,188	-12,898	-0,352	-0,160
62,203	32,249	-0,395	-0,239
63,217	52,264	-0,266	-0,178
64,232	-59,718	-0,322	-0,096
65,247	115,474	-0,241	-0,207
66,261	126,509	-0,442	-0,392
67,276	78,391	-0,267	-0,200
68,290	26,562	-0,336	-0,196
69,305	28,316	-0,207	-0,122
70,320	-4,963	-0,322	-0,155
71,334	563,872	-0,168	-0,286
72,349	-40,962	-0,463	-0,167
73,363	222,544	-0,201	-0,227
74,378	107,077	-0,322	-0,268
75,393	42,052	-0,236	-0,150
76,407	-49,599	-0,329	-0,109
77,422	7,622	-0,301	-0,157
78,436	72,548	-0,264	-0,193
79,451	-200,000	-0,265	0,000
80,466	-57,642	-0,341	-0,104
81,480	29,020	-0,378	-0,224
82,495	68,730	-0,239	-0,172
83,509	-19,770	-0,327	-0,141
84,524	26,050	-0,319	-0,186
85,539	-88,571	-0,243	-0,050
86,553	-125,914	-0,317	-0,033
87,568	1,401	-0,391	-0,196
88,582	87,750	-0,236	-0,183
89,597	-16,279	-0,363	-0,161
90,611	408,167	-0,168	-0,249
91,626	120,276	-0,156	-0,136
92,641	1,100	-0,329	-0,164
93,655	122,886	-0,323	-0,282
94,670	800,000	-0,099	-0,239
95,684	146,807	-0,310	-0,292
96,699	250,557	-0,214	-0,254
97,714	122,147	-0,295	-0,257
98,728	65,040	-0,212	-0,149
99,743	-35,618	-0,228	-0,086
100,757	33,701	-0,163	-0,099
101,772	120,660	-0,234	-0,203
102,787	-89,831	-0,292	-0,059
103,801	59,836	-0,291	-0,200
104,816	67,443	-0,193	-0,137
105,830	-11,140	-0,280	-0,128
106,845	16,956	-0,228	-0,126
107,860	167,073	-0,226	-0,225
108,874	11,598	-0,276	-0,148
109,889	778,448	-0,210	-0,403
110,903	760,840	-0,155	-0,295
111,918	173,052	-0,274	-0,276
112,933	128,066	-0,169	-0,151
113,947	-57,871	-0,246	-0,075
114,962	160,659	-0,207	-0,202
115,976	-31,628	-0,323	-0,126
116,991	51,667	-0,295	-0,195
118,006	69,618	-0,336	-0,241
119,020	-35,403	-0,314	-0,118
120,035	-130,389	-0,137	0,013
121,049	138,380	-0,165	-0,151
122,064	-172,765	-0,250	-0,005
123,079	-98,305	-0,257	-0,046
124,093	245,157	-0,229	-0,270
125,108	21,612	-0,284	-0,161
126,122	-44,815	-0,264	-0,091
127,137	11,025	-0,219	-0,116
128,151	70,607	-0,235	-0,169
129,166	46,469	-0,168	-0,108
130,181	88,676	-0,252	-0,195
131,195	144,421	-0,255	-0,238
132,210	58,383	-0,333	-0,228
133,224	61,246	-0,239	-0,165
134,239	176,365	-0,302	-0,306
135,254	28,576	-0,164	-0,097
136,268	-15,220	-0,337	-0,150
137,283	177,170	-0,143	-0,146
138,297	-51,483	-0,332	-0,107
139,312	-11,771	-0,308	-0,140
140,327	18,699	-0,289	-0,161
141,341	109,635	-0,200	-0,167
142,356	80,151	-0,153	-0,115
143,370	2,681	-0,244	-0,123
144,385	375,784	-0,196	-0,279
145,400	19,184	-0,210	-0,117
146,414	196,608	-0,272	-0,289
147,429	83,894	-0,338	-0,257
148,443	199,122	-0,140	-0,149
149,458	-49,297	-0,269	-0,089
150,473	-10,060	-0,251	-0,116
151,487	-1,642	-0,277	-0,135
152,502	447,890	-0,229	-0,352
153,516	207,247	-0,295	-0,321
154,531	346,642	-0,219	-0,300
155,546	27,625	-0,342	-0,200
156,560	-109,648	-0,269	0,039
157,575	316,190	-0,137	-0,180
158,589	-70,765	-0,326	-0,085
159,604	-61,848	-0,232	-0,067
160,619	61,913	-0,349	-0,241
161,633	347,756	-0,186	-0,255
162,648	-112,355	-0,091	-0,013
163,662	800,000	-0,079	-0,181
164,677	-177,555	-0,303	-0,005
165,692	233,942	-0,202	-0,232
166,706	800,000	-0,136	-0,278
167,721	81,117	-0,278	-0,208
168,735	800,000	-0,147	-0,288
169,750	334,745	-0,137	-0,185
170,764	-50,783	-0,303	-0,099
171,779	-137,373	-0,225	0,017
172,794	136,689	-0,131	-0,119
173,808	6,806	-0,147	-0,076
174,823	-107,652	-0,253	-0,038
175,837	59,790	-0,294	-0,201
176,852	108,692	-0,245	-0,203
177,867	14,753	-0,253	-0,137
178,881	87,959	-0,233	-0,179
179,896	-43,476	-0,263	-0,092
180,910	181,379	-0,149	-0,152
181,925	232,336	-0,146	-0,166
182,940	132,811	-0,233	-0,208
183,954	240,876	-0,118	-0,137
184,969	419,500	-0,115	-0,171
185,983	304,619	-0,196	-0,254
186,998	-138,075	-0,239	-0,018
188,013	68,087	-0,145	-0,103
189,027	-76,946	-0,157	-0,038
190,042	252,086	-0,216	-0,255
191,056	380,667	-0,088	-0,125
192,071	251,118	-0,167	-0,198
193,086	-0,908	-0,161	0,079
194,100	717,495	-0,042	-0,079
195,115	93,632	-0,257	-0,202
196,129	151,849	-0,243	-0,230
197,144	3,796	-0,265	-0,134
198,159	78,036	-0,227	-0,168
199,173	505,734	-0,148	-0,239
200,188	-43,032	-0,140	-0,049
201,202	209,892	-0,085	-0,092
202,217	125,863	-0,224	-0,196
203,232	800,000	-0,115	-0,247
204,246	-57,450	-0,234	-0,071
205,261	800,000	-0,072	-0,194
206,275	-144,131	-0,162	-0,010
207,290	95,720	-0,184	-0,145
208,304	205,708	-0,135	-0,145
209,319	-42,781	-0,262	-0,092
210,334	800,000	-0,091	-0,239
211,348	135,804	-0,249	-0,224
212,363	45,263	-0,314	-0,200
213,377	63,772	-0,267	-0,185
214,392	31,425	-0,177	-0,105
215,407	-22,546	-0,165	-0,069
216,421	-97,655	-0,235	-0,042
217,436	61,316	-0,130	-0,089
218,450	45,635	-0,229	-0,146
219,465	-120,984	-0,261	-0,030
220,480	212,122	-0,238	-0,259
221,494	-200,000	0,012	-0,042
222,509	-163,527	-0,116	0,004
223,523	-11,094	-0,237	-0,108
224,538	222,934	-0,189	-0,211
225,553	-0,476	-0,241	-0,118
226,567	-6,477	-0,231	-0,108
227,582	8,183	-0,193	-0,100
228,596	5,321	-0,244	-0,124
229,611	68,908	-0,147	-0,104
230,626	404,172	-0,117	-0,171
231,640	70,952	-0,075	-0,054
232,655	-137,744	-0,269	0,021
233,669	170,203	-0,185	-0,183
234,684	3,549	-0,235	-0,118
235,699	-200,000	-0,031	-0,119
236,713	-200,000	-0,008	-0,116
237,728	-109,786	-0,219	-0,031
238,742	313,130	-0,160	-0,208
239,757	-80,807	-0,111	-0,025
240,772	-165,505	-0,254	-0,008
241,786	-20,508	-0,303	-0,128
242,801	85,965	-0,141	-0,107
243,815	159,064	-0,099	-0,095
244,830	-59,041	-0,136	-0,040
245,844	260,223	-0,169	-0,201
246,859	-45,919	-0,230	-0,078
247,874	160,293	-0,166	-0,160
248,888	-50,221	-0,201	-0,065
249,903	800,000	-0,080	-0,188
250,917	-200,000	-0,021	-0,113
251,932	-200,000	-0,236	-0,001
252,947	-18,636	-0,172	-0,074
253,961	-11,201	-0,208	-0,094
254,976	89,235	-0,131	-0,100
255,990	-78,941	-0,247	0,058
257,005	-30,064	-0,203	-0,079
258,020	147,686	-0,132	-0,123
259,034	153,773	-0,149	-0,141
260,049	81,651	-0,121	-0,090
261,063	27,382	-0,265	-0,153
262,078	290,180	-0,248	-0,312
263,093	299,411	-0,156	-0,199
264,107	135,722	-0,201	-0,181
265,122	800,000	-0,084	-0,198
266,136	329,074	-0,142	-0,189
267,151	-95,126	-0,180	-0,033
268,166	-200,000	-0,047	-0,219
269,180	381,220	-0,132	-0,187
270,195	-57,614	-0,162	-0,049
271,209	560,119	-0,145	-0,242
272,224	-26,684	-0,166	-0,067
273,239	379,433	-0,127	-0,180
274,253	85,728	-0,180	-0,136
275,268	82,553	-0,103	-0,077
276,282	299,854	-0,190	-0,241
277,297	38,029	-0,179	-0,109
278,312	27,653	-0,154	-0,089
279,326	609,763	-0,096	-0,165
280,341	-200,000	0,002	-0,133
281,355	146,710	-0,122	-0,113
282,370	161,591	-0,110	-0,106
283,384	402,665	-0,203	-0,294
284,399	-21,066	-0,131	-0,055
285,414	202,631	-0,117	-0,124
286,428	173,434	-0,147	-0,146
287,443	800,000	-0,026	-0,069
288,457	105,731	-0,116	-0,095
289,472	78,598	-0,121	-0,089
290,487	285,097	-0,143	-0,178
291,501	87,392	-0,182	-0,138
292,516	-67,640	-0,158	0,042
293,530	168,474	-0,184	-0,181
294,545	-28,700	-0,147	-0,058
295,560	-112,806	-0,113	-0,015
296,574	37,541	-0,173	-0,105
297,589	-4,947	-0,159	-0,075
298,603	-29,727	-0,146	-0,057
299,618	-55,249	-0,145	-0,044
300,633	109,231	-0,149	-0,122
301,647	-143,726	-0,227	-0,015
302,662	45,174	-0,119	-0,075
303,676	61,829	-0,187	-0,127
304,691	292,247	-0,122	-0,153
305,706	382,266	-0,095	-0,134
306,720	-133,340	-0,099	0,008
307,735	2,671	-0,175	-0,087
308,749	230,423	-0,194	-0,218
309,764	601,105	0,051	-0,087
310,779	71,270	-0,159	-0,113
311,793	-200,000	-0,019	-0,063
312,808	229,459	-0,170	-0,190
313,822	187,809	-0,211	-0,216
314,837	-96,974	-0,156	0,028
315,852	-57,570	-0,279	-0,083
316,866	388,662	-0,049	-0,069
317,881	678,894	-0,088	-0,158
318,895	282,816	-0,105	-0,129
319,910	364,412	-0,137	-0,190
320,925	-200,000	-0,024	-0,102
321,939	336,216	-0,068	0,090
322,954	-26,132	-0,118	-0,047
323,968	-200,000	-0,016	-0,077
324,983	-10,477	-0,147	-0,066
325,997	363,988	-0,139	-0,193
327,012	38,134	-0,230	-0,140
328,027	-50,900	-0,182	-0,058
329,041	303,947	-0,080	-0,101
330,056	490,811	-0,010	-0,015
331,070	323,925	-0,114	-0,149
332,085	800,000	-0,048	-0,108
333,100	-200,000	-0,103	0,000
334,114	79,739	-0,155	-0,114
335,129	169,281	-0,118	-0,116
336,143	-2,665	-0,223	-0,106
337,158	-60,530	-0,208	-0,060
338,173	-39,462	-0,169	0,060
339,187	103,759	-0,126	-0,101
340,202	-100,810	-0,110	-0,018
341,216	-100,149	-0,149	-0,025
342,231	257,928	-0,099	-0,117
343,246	397,034	-0,111	-0,159
344,260	224,054	-0,074	-0,081
345,275	20,492	-0,076	-0,042
346,289	-114,667	-0,176	-0,023
347,304	-125,474	-0,125	0,013
348,319	-104,497	-0,129	-0,020
349,333	-156,711	-0,111	0,005
350,348	93,715	-0,102	-0,079
351,362	727,415	-0,047	-0,086
352,377	800,000	-0,008	0,018
353,392	0,607	-0,128	-0,062
354,406	-28,584	-0,218	-0,085
355,421	205,473	1312,749	1395,872
356,435	157,978	1473,182	1396,309
