DTS Sentinel unit serial number:	SN410029Multiplexer serial number:	ORYXHardware model number:	OX2-SRSoftware version number:	ORYX F/W v4,00 Oryx Data Collector v3.7.2.0data status	okinstallation	B3 Nyhavnadifferential loss correction	single-endedforward channel	channel 1reverse channel	N/Adate	2023/12/02time	00:47:30forward acquisition time	300,00reverse acquisition time	0,00gamma	499,1914k internal	0,3196k external	0,3196temperature offset calibration	1,0000default loss term (dB/km)	0,3820temperature slope calibration	1,0000multiplexer offset coefficient	1,0000multiplexer slope coefficient	1,0000fibre end	0,00T internal ref (°C)	16,30T ext. ref 1 (°C)	1,85T ext. ref 2 (°C)	1,84length (m)	temperature (°C)	Stokes	anti-Stokes-744,400	753,678	-0,235	-0,465
-743,385	-200,000	0,019	0,360
-742,371	765,517	-0,073	-0,146
-741,356	-200,000	0,002	0,419
-740,342	-17,681	-0,272	-0,124
-739,327	-200,000	0,023	0,279
-738,312	126,741	-0,327	-0,302
-737,298	800,000	0,084	0,225
-736,283	32,292	-0,247	-0,155
-735,269	-200,000	0,012	0,285
-734,254	394,925	-0,202	-0,307
-733,239	132,428	-0,105	0,099
-732,225	351,917	-0,130	-0,188
-731,210	363,244	0,114	0,167
-730,196	800,000	0,050	-0,120
-729,181	-200,000	0,006	-0,125
-728,167	-200,000	0,013	-0,176
-727,152	800,000	-0,059	-0,138
-726,137	800,000	0,070	-0,164
-725,123	-200,000	0,019	-0,088
-724,108	26,107	-0,105	-0,063
-723,094	213,474	-0,095	-0,110
-722,079	-121,388	-0,159	-0,019
-721,064	-91,468	0,055	0,011
-720,050	-100,621	-0,112	-0,020
-719,035	-200,000	-0,024	-0,095
-718,021	-200,000	-0,013	0,066
-717,006	800,000	-0,001	0,004
-715,991	-156,948	-0,111	0,005
-714,977	-186,371	-0,079	0,001
-713,962	-35,762	-0,047	-0,019
-712,948	800,000	-0,024	-0,063
-711,933	-197,415	-0,149	0,001
-710,918	-40,183	-0,053	-0,020
-709,904	-113,850	-0,066	0,009
-708,889	-200,000	-0,018	-0,128
-707,875	720,016	-0,029	0,056
-706,860	233,493	-0,055	-0,065
-705,845	199,534	-0,061	-0,068
-704,831	195,161	0,024	0,026
-703,816	-200,000	-0,014	0,051
-702,802	212,804	-0,041	0,047
-701,787	171,695	-0,168	-0,175
-700,772	800,000	0,051	-0,128
-699,758	-125,851	-0,092	-0,010
-698,743	105,681	0,049	0,042
-697,729	-15,428	0,204	0,094
-696,714	-43,542	-0,110	-0,040
-695,699	9,715	-0,096	-0,053
-694,685	-147,901	-0,111	-0,007
-693,670	-200,000	-0,006	0,026
-692,656	471,357	0,082	-0,134
-691,641	-26,419	0,134	0,057
-690,627	362,974	0,099	0,145
-689,612	800,000	0,007	0,016
-688,597	-200,000	-0,003	0,017
-687,583	-61,006	-0,076	0,023
-686,568	800,000	-0,054	0,173
-685,554	-94,152	-0,103	0,020
-684,539	258,354	0,088	0,110
-683,524	295,866	-0,016	0,021
-682,510	-53,058	0,130	-0,043
-681,495	446,169	0,056	0,090
-680,481	-200,000	-0,008	0,173
-679,466	282,521	-0,060	0,078
-678,451	-26,055	-0,055	0,023
-677,437	69,269	0,049	0,037
-676,422	559,866	-0,048	-0,084
-675,408	341,265	0,002	0,002
-674,393	61,224	-0,040	-0,029
-673,378	-200,000	0,013	0,067
-672,364	68,242	-0,129	0,096
-671,349	-143,415	-0,035	-0,002
-670,335	-200,000	0,019	0,097
-669,320	41,788	0,105	0,069
-668,305	-200,000	-0,009	0,053
-667,291	-28,756	-0,143	0,059
-666,276	209,697	0,051	-0,058
-665,262	-200,000	-0,022	0,079
-664,247	-200,000	0,024	0,080
-663,232	-136,596	-0,194	0,016
-662,218	-200,000	0,017	0,163
-661,203	396,479	-0,069	-0,105
-660,189	734,653	0,011	0,021
-659,174	800,000	-0,033	0,071
-658,159	-200,000	0,030	-0,119
-657,145	-84,200	-0,062	0,014
-656,130	692,435	-0,060	-0,115
-655,116	348,310	0,058	0,083
-654,101	188,284	-0,045	0,049
-653,086	731,983	-0,095	0,184
-652,072	-200,000	0,003	-0,015
-651,057	800,000	0,101	-0,222
-650,043	-200,000	-0,027	-0,136
-649,028	-200,000	0,018	0,078
-648,014	44,218	0,137	-0,091
-646,999	5,077	-0,102	0,054
-645,984	800,000	-0,034	0,094
-644,970	-200,000	-0,042	-0,170
-643,955	800,000	0,017	-0,038
-642,941	-200,000	-0,019	-0,085
-641,926	-189,031	-0,082	0,001
-640,911	-200,000	-0,006	0,040
-639,897	677,557	0,056	0,106
-638,882	442,400	0,071	0,114
-637,868	289,308	-0,068	0,090
-636,853	-200,000	0,006	-0,186
-635,838	-57,856	0,025	0,008
-634,824	674,387	0,047	-0,090
-633,809	342,232	-0,101	0,144
-632,795	45,838	0,037	-0,025
-631,780	-1,452	0,071	-0,036
-630,765	800,000	0,058	-0,135
-629,751	-200,000	0,028	-0,119
-628,736	-200,000	-0,008	-0,156
-627,722	-200,000	0,009	-0,081
-626,707	-200,000	0,007	0,034
-625,692	-200,000	0,005	0,055
-624,678	81,076	0,019	0,015
-623,663	327,384	0,040	0,056
-622,649	81,787	-0,079	0,062
-621,634	146,019	0,038	-0,037
-620,619	176,945	0,027	-0,029
-619,605	-200,000	0,027	-0,099
-618,590	-9,385	0,037	-0,018
-617,576	-146,725	0,052	-0,003
-616,561	800,000	0,060	0,132
-615,546	800,000	0,024	0,059
-614,532	124,123	-0,130	0,118
-613,517	144,953	-0,016	-0,015
-612,503	140,709	-0,078	-0,074
-611,488	-94,623	0,052	-0,010
-610,474	95,886	-0,019	0,016
-609,459	777,535	0,037	0,073
-608,444	-200,000	0,027	-0,128
-607,430	64,049	-0,067	-0,049
-606,415	158,298	0,056	-0,056
-605,401	507,874	-0,086	-0,145
-604,386	-200,000	-0,007	-0,037
-603,371	-200,000	0,017	0,131
-602,357	800,000	-0,046	0,134
-601,342	-34,361	-0,047	0,018
-600,328	-200,000	-0,051	-0,189
-599,313	14,990	-0,054	-0,030
-598,298	110,302	0,023	-0,020
-597,284	139,837	0,097	0,093
-596,269	215,667	0,049	0,056
-595,255	215,457	0,011	-0,013
-594,240	47,091	-0,029	0,020
-593,225	-200,000	0,008	-0,100
-592,211	-8,291	-0,095	-0,046
-591,196	-53,322	0,179	-0,059
-590,182	-117,054	0,069	-0,009
-589,167	-34,093	0,148	-0,058
-588,152	800,000	0,030	0,079
-587,138	-200,000	0,000	0,093
-586,123	-200,000	-0,013	0,155
-585,109	-166,437	-0,151	0,004
-584,094	731,816	-0,042	-0,082
-583,079	-200,000	0,003	-0,050
-582,065	-200,000	-0,029	0,185
-581,050	-200,000	0,030	-0,129
-580,036	-200,000	-0,002	-0,067
-579,021	70,637	-0,134	0,101
-578,006	78,936	-0,030	-0,023
-576,992	636,825	0,027	-0,050
-575,977	544,159	0,095	-0,165
-574,963	-88,025	-0,032	0,007
-573,948	447,320	0,046	0,073
-572,934	32,860	-0,092	-0,058
-571,919	-200,000	0,011	-0,106
-570,904	-101,707	-0,087	-0,015
-569,890	-27,242	-0,041	0,017
-568,875	800,000	-0,049	0,157
-567,861	800,000	0,076	-0,197
-566,846	56,308	0,121	0,085
-565,831	153,606	-0,055	-0,055
-564,817	550,573	-0,060	-0,105
-563,802	114,974	-0,134	0,119
-562,788	-12,063	-0,050	0,024
-561,773	800,000	0,069	-0,140
-560,758	356,040	0,051	-0,074
-559,744	-200,000	0,006	0,081
-558,729	17,334	-0,097	-0,055
-557,715	267,788	0,056	0,071
-556,700	581,858	-0,041	-0,073
-555,685	-200,000	0,001	-0,034
-554,671	-149,990	-0,050	-0,003
-553,656	-4,396	-0,031	0,016
-552,642	-37,560	-0,201	-0,077
-551,627	800,000	-0,060	0,122
-550,612	-118,433	-0,137	-0,017
-549,598	37,461	-0,074	0,047
-548,583	-200,000	-0,014	0,055
-547,569	143,652	-0,039	-0,038
-546,554	30,205	-0,040	0,025
-545,539	158,533	-0,045	-0,045
-544,525	58,752	0,027	0,019
-543,510	-140,791	-0,096	0,007
-542,496	131,002	-0,044	-0,041
-541,481	-200,000	-0,000	-0,036
-540,466	563,041	-0,011	0,019
-539,452	659,407	0,011	0,021
-538,437	-200,000	0,043	0,191
-537,423	102,787	0,047	0,040
-536,408	-200,000	0,019	-0,072
-535,393	800,000	-0,055	-0,132
-534,379	-53,002	-0,029	-0,009
-533,364	90,827	-0,066	-0,053
-532,350	-200,000	0,027	-0,104
-531,335	393,764	-0,034	0,051
-530,321	-110,379	-0,068	0,010
-529,306	143,211	0,044	0,043
-528,291	-155,186	-0,197	-0,009
-527,277	-4,425	-0,046	0,023
-526,262	-119,818	-0,057	0,007
-525,248	613,328	-0,043	0,078
-524,233	125,774	0,108	0,099
-523,218	93,767	0,115	-0,094
-522,204	-113,404	-0,050	0,007
-521,189	256,344	-0,046	0,058
-520,175	-200,000	-0,018	-0,088
-519,160	800,000	-0,024	0,072
-518,145	-47,925	0,059	0,021
-517,131	-200,000	-0,003	0,035
-516,116	-200,000	0,001	0,098
-515,102	-200,000	-0,004	-0,017
-514,087	-114,250	0,072	0,010
-513,072	-84,005	-0,067	0,015
-512,058	-127,925	-0,032	0,003
-511,043	-62,072	0,069	-0,021
-510,029	-200,000	-0,014	0,113
-509,014	800,000	0,018	0,039
-507,999	-95,417	0,031	-0,006
-506,985	-6,148	0,079	0,039
-505,970	-200,000	-0,016	-0,066
-504,956	-95,412	-0,010	-0,002
-503,941	-200,000	-0,054	0,222
-502,926	-200,000	-0,022	-0,087
-501,912	272,732	0,062	0,079
-500,897	-200,000	0,021	0,194
-499,883	-77,905	-0,030	0,007
-498,868	102,527	-0,071	0,060
-497,853	90,805	0,044	-0,036
-496,839	-200,000	-0,022	0,000
-495,824	-116,390	0,097	-0,013
-494,810	-200,000	-0,026	-0,093
-493,795	192,010	0,055	0,060
-492,781	-200,000	0,040	0,186
-491,766	-161,322	-0,043	-0,002
-490,751	-177,888	0,103	0,002
-489,737	-10,585	-0,047	0,022
-488,722	-159,788	0,105	-0,004
-487,708	-132,345	0,077	0,007
-486,693	653,766	0,033	-0,062
-485,678	800,000	-0,018	-0,042
-484,664	-114,080	-0,221	0,030
-483,649	21,528	-0,100	0,059
-482,635	-52,269	0,017	0,006
-481,620	51,345	0,122	-0,084
-480,605	-20,999	0,086	-0,038
-479,591	573,299	0,029	-0,051
-478,576	516,424	-0,034	0,057
-477,562	800,000	-0,080	-0,187
-476,547	-41,720	-0,080	-0,029
-475,532	16,290	-0,034	0,019
-474,518	-152,745	-0,054	0,003
-473,503	-126,978	0,074	-0,008
-472,489	-117,214	0,128	-0,017
-471,474	-61,717	0,080	0,024
-470,459	800,000	-0,007	0,015
-469,445	315,362	0,050	-0,068
-468,430	11,401	0,065	-0,036
-467,416	303,551	-0,074	-0,100
-466,401	-162,031	-0,036	-0,001
-465,386	-200,000	-0,026	0,163
-464,372	142,658	0,020	0,019
-463,357	318,655	0,039	0,053
-462,343	-160,648	-0,189	-0,007
-461,328	559,906	-0,028	-0,048
-460,313	350,836	-0,091	-0,130
-459,299	-200,000	-0,023	0,101
-458,284	308,444	0,019	0,026
-457,270	58,707	0,067	-0,047
-456,255	-200,000	0,008	0,026
-455,241	247,057	0,051	-0,062
-454,226	495,980	0,044	0,072
-453,211	-32,016	0,021	0,009
-452,197	343,950	-0,023	-0,033
-451,182	38,059	0,044	0,028
-450,168	-34,743	-0,060	-0,024
-449,153	-94,525	0,101	-0,020
-448,138	279,373	0,018	-0,023
-447,124	-200,000	0,003	0,023
-446,109	800,000	0,028	-0,063
-445,095	25,544	0,036	0,021
-444,080	253,320	-0,021	0,026
-443,065	471,133	0,016	0,027
-442,051	-200,000	0,002	0,037
-441,036	-200,000	-0,008	-0,028
-440,022	800,000	0,037	-0,081
-439,007	-200,000	-0,001	-0,097
-437,992	181,066	0,020	-0,021
-436,978	-200,000	0,026	0,108
-435,963	267,897	0,085	0,107
-434,949	547,427	-0,053	0,092
-433,934	-57,972	-0,089	0,028
-432,919	-124,040	-0,134	0,015
-431,905	59,759	0,046	-0,033
-430,890	760,399	0,075	0,147
-429,876	167,347	0,081	0,083
-428,861	712,641	-0,012	-0,023
-427,846	-200,000	0,007	-0,061
-426,832	-200,000	0,033	0,107
-425,817	-87,040	-0,114	0,025
-424,803	480,583	-0,028	-0,046
-423,788	800,000	0,032	0,095
-422,773	-47,941	-0,063	0,022
-421,759	-36,102	0,057	0,022
-420,744	54,424	0,123	0,085
-419,730	-91,696	-0,056	0,011
-418,715	-66,951	0,064	0,018
-417,701	277,400	-0,063	0,080
-416,686	295,840	-0,070	-0,092
-415,671	494,064	0,027	-0,044
-414,657	20,905	0,107	-0,062
-413,642	-112,799	-0,078	0,011
-412,628	-121,764	-0,038	-0,004
-411,613	-117,790	-0,104	-0,013
-410,598	-6,205	-0,095	-0,047
-409,584	37,251	0,121	-0,077
-408,569	32,326	0,093	-0,058
-407,555	-200,000	0,024	0,105
-406,540	-30,451	0,096	0,039
-405,525	-200,000	-0,010	-0,042
-404,511	-102,046	0,012	-0,002
-403,496	-120,503	-0,099	0,012
-402,482	661,558	-0,058	0,107
-401,467	-3,978	0,111	0,055
-400,452	96,284	0,128	0,105
-399,438	-200,000	-0,010	0,033
-398,423	-200,000	0,005	-0,024
-397,409	-139,866	-0,053	-0,004
-396,394	-200,000	0,002	-0,016
-395,379	509,175	-0,072	0,121
-394,365	250,687	0,030	0,036
-393,350	-200,000	-0,002	0,092
-392,336	-136,531	-0,085	-0,007
-391,321	-167,744	0,035	0,001
-390,306	-150,620	-0,147	0,008
-389,292	643,452	-0,089	-0,163
-388,277	-200,000	0,011	-0,077
-387,263	424,463	0,069	-0,108
-386,248	-90,246	0,022	0,005
-385,233	94,268	0,076	0,062
-384,219	-200,000	-0,019	0,079
-383,204	800,000	-0,061	-0,134
-382,190	162,746	-0,103	-0,104
-381,175	-37,731	-0,092	0,035
-380,160	800,000	0,059	-0,132
-379,146	-136,622	0,104	0,009
-378,131	-23,936	0,121	0,052
-377,117	177,008	0,026	0,028
-376,102	800,000	-0,034	-0,099
-375,088	256,281	-0,090	-0,111
-374,073	-2,434	-0,066	0,033
-373,058	129,410	0,040	0,037
-372,044	37,583	0,035	-0,023
-371,029	-50,697	0,063	-0,021
-370,015	8,656	-0,100	0,054
-369,000	-41,680	-0,032	-0,012
-367,985	-137,901	-0,094	-0,007
-366,971	-91,739	-0,108	-0,022
-365,956	-147,987	0,097	-0,006
-364,942	-112,027	-0,135	0,019
-363,927	-123,329	0,068	0,008
-362,912	279,781	-0,032	0,041
-361,898	-200,000	-0,017	-0,119
-360,883	-118,259	-0,158	0,020
-359,869	293,587	0,089	0,117
-358,854	-66,811	0,086	0,024
-357,839	-146,132	-0,051	0,003
-356,825	-125,839	0,143	0,015
-355,810	800,000	-0,044	-0,097
-354,796	-21,208	0,118	-0,051
-353,781	-106,205	-0,132	0,021
-352,766	711,206	-0,047	-0,090
-351,752	7,535	0,107	-0,057
-350,737	-200,000	-0,001	-0,024
-349,723	50,490	-0,056	-0,038
-348,708	-90,832	0,056	-0,011
-347,693	-200,000	0,001	-0,003
-346,679	-200,000	-0,042	-0,271
-345,664	-200,000	-0,011	-0,050
-344,650	14,187	0,128	0,071
-343,635	-85,358	-0,107	-0,024
-342,620	20,685	0,067	0,039
-341,606	-168,925	-0,072	-0,002
-340,591	232,191	-0,044	-0,052
-339,577	-200,000	0,042	-0,138
-338,562	-200,000	-0,021	-0,080
-337,548	-124,125	0,080	0,009
-336,533	14,734	0,021	-0,012
-335,518	30,006	0,073	-0,045
-334,504	413,455	0,106	0,162
-333,489	-12,618	-0,098	0,046
-332,475	-104,560	0,118	-0,019
-331,460	-200,000	-0,009	0,054
-330,445	800,000	-0,032	-0,094
-329,431	75,463	0,132	0,099
-328,416	309,920	0,095	0,127
-327,402	0,855	0,059	0,030
-326,387	284,359	0,021	0,027
-325,372	96,550	-0,070	0,057
-324,358	576,152	-0,018	0,031
-323,343	-200,000	0,023	-0,109
-322,329	800,000	0,043	0,093
-321,314	14,056	0,044	0,024
-320,299	387,396	0,052	-0,078
-319,285	800,000	0,030	0,064
-318,270	-200,000	-0,007	0,038
-317,256	66,388	-0,088	-0,064
-316,241	422,738	0,065	-0,100
-315,226	800,000	0,045	-0,111
-314,212	-200,000	-0,019	0,097
-313,197	157,141	0,094	0,094
-312,183	124,333	0,062	-0,056
-311,168	-200,000	0,008	-0,174
-310,153	-2,078	-0,096	-0,048
-309,139	60,521	-0,176	-0,124
-308,124	800,000	0,038	0,104
-307,110	800,000	0,033	0,096
-306,095	-114,161	0,119	0,016
-305,080	-44,151	-0,075	0,027
-304,066	-117,283	0,099	0,013
-303,051	-149,750	0,143	0,008
-302,037	167,903	-0,071	-0,072
-301,022	800,000	-0,043	0,126
-300,008	609,290	0,066	0,118
-298,993	144,267	-0,055	0,053
-297,978	800,000	-0,040	0,110
-296,964	-135,488	-0,008	-0,001
-295,949	800,000	0,043	0,088
-294,935	20,448	-0,043	0,025
-293,920	125,482	-0,052	0,047
-292,905	347,428	-0,048	-0,068
-291,891	-200,000	0,045	0,146
-290,876	-200,000	0,005	0,059
-289,862	155,106	0,021	-0,021
-288,847	408,972	-0,059	0,090
-287,832	-53,105	-0,154	-0,050
-286,818	2,316	0,064	0,033
-285,803	-78,836	0,073	0,018
-284,789	-17,953	-0,031	-0,014
-283,774	689,484	-0,010	-0,020
-282,759	800,000	-0,029	-0,078
-281,745	-200,000	0,017	-0,084
-280,730	-121,403	0,053	-0,006
-279,716	313,635	-0,075	-0,102
-278,701	-44,345	0,194	-0,069
-277,686	489,097	0,076	0,125
-276,672	800,000	-0,030	-0,094
-275,657	703,411	0,087	0,165
-274,643	-200,000	-0,011	-0,088
-273,628	800,000	-0,102	-0,220
-272,613	-200,000	-0,009	-0,066
-271,599	-200,000	0,030	-0,143
-270,584	34,316	0,134	-0,084
-269,570	58,263	0,025	-0,017
-268,555	10,654	0,082	0,045
-267,540	253,804	-0,071	-0,086
-266,526	-200,000	-0,028	-0,172
-265,511	12,132	-0,045	-0,025
-264,497	-64,792	-0,050	0,014
-263,482	734,505	-0,041	0,079
-262,467	-200,000	-0,028	0,113
-261,453	668,511	0,020	-0,036
-260,438	-20,417	-0,050	0,022
-259,424	133,246	-0,047	-0,044
-258,409	-200,000	0,005	0,038
-257,395	144,544	0,052	0,050
-256,380	-115,452	-0,019	0,003
-255,365	13,336	-0,062	-0,034
-254,351	800,000	0,024	-0,060
-253,336	124,300	-0,037	-0,033
-252,322	61,590	-0,087	-0,062
-251,307	323,400	-0,008	0,011
-250,292	-8,013	0,003	0,001
-249,278	-30,254	-0,011	-0,005
-248,263	800,000	0,077	0,172
-247,249	800,000	0,029	-0,067
-246,234	3,224	0,098	-0,051
-245,219	51,583	0,024	0,016
-244,205	-113,496	0,171	-0,024
-243,190	800,000	-0,060	-0,122
-242,176	-200,000	-0,005	0,138
-241,161	75,613	0,030	-0,022
-240,146	800,000	-0,025	-0,063
-239,132	-165,195	-0,059	-0,002
-238,117	-200,000	-0,101	-0,000
-237,103	153,196	-0,099	-0,097
-236,088	54,251	0,105	-0,072
-235,073	62,520	-0,025	-0,017
-234,059	-129,252	0,094	0,009
-233,044	-200,000	0,007	-0,073
-232,030	800,000	-0,091	-0,183
-231,015	-82,974	-0,126	-0,029
-230,000	187,377	-0,017	-0,018
-228,986	196,868	0,097	-0,106
-227,971	87,420	0,057	0,045
-226,957	-200,000	-0,034	0,137
-225,942	7,373	-0,136	-0,072
-224,927	-23,050	0,062	-0,026
-223,913	-60,480	-0,035	-0,011
-222,898	-200,000	0,005	-0,078
-221,884	-146,615	0,058	-0,004
-220,869	800,000	0,013	0,038
-219,855	800,000	-0,061	0,151
-218,840	-200,000	-0,009	0,135
-217,825	-131,411	-0,082	-0,008
-216,811	-160,553	0,041	0,002
-215,796	-3,645	-0,115	0,057
-214,782	-200,000	-0,003	0,029
-213,767	68,107	-0,038	-0,028
-212,752	-62,676	0,037	-0,011
-211,738	-200,000	-0,020	-0,123
-210,723	-30,158	-0,052	-0,021
-209,709	-36,589	0,064	-0,025
-208,694	-200,000	-0,020	-0,093
-207,679	-200,000	-0,011	-0,076
-206,665	-200,000	-0,020	0,129
-205,650	-187,640	-0,054	-0,000
-204,636	457,453	0,083	0,132
-203,621	800,000	-0,058	0,140
-202,606	-200,000	-0,005	-0,049
-201,592	418,775	-0,062	-0,095
-200,577	-117,325	0,100	-0,013
-199,563	800,000	0,040	0,120
-198,548	101,773	0,137	-0,114
-197,533	-200,000	0,015	0,122
-196,519	-97,784	-0,112	-0,021
-195,504	-200,000	0,000	0,091
-194,490	21,014	-0,008	0,005
-193,475	438,634	-0,053	-0,083
-192,460	78,722	0,066	0,050
-191,446	180,712	0,073	0,077
-190,431	181,633	0,041	0,044
-189,417	-81,540	0,045	0,011
-188,402	-72,283	-0,060	0,016
-187,387	800,000	-0,013	-0,042
-186,373	-128,334	0,063	0,006
-185,358	58,618	0,087	0,061
-184,344	-26,013	0,084	-0,035
-183,329	6,877	-0,070	0,037
-182,315	156,019	-0,078	0,077
-181,300	-190,730	0,125	-0,001
-180,285	-76,335	0,098	0,024
-179,271	-122,066	0,097	0,011
-178,256	703,398	-0,084	0,159
-177,242	45,567	0,043	0,028
-176,227	-67,084	0,169	0,047
-175,212	-57,376	-0,142	-0,044
-174,198	313,656	0,044	-0,059
-173,183	-46,396	0,099	0,034
-172,169	-200,000	-0,019	-0,120
-171,154	328,461	-0,037	0,050
-170,139	213,869	-0,082	0,093
-169,125	-65,726	0,047	0,013
-168,110	356,858	0,035	0,050
-167,096	431,057	-0,020	-0,032
-166,081	798,465	0,035	0,069
-165,066	-121,466	-0,118	-0,014
-164,052	181,108	-0,026	-0,028
-163,037	157,870	-0,014	0,013
-162,023	-170,773	-0,014	0,000
-161,008	-174,745	0,041	-0,001
-159,993	-200,000	-0,001	0,091
-158,979	254,554	0,079	-0,096
-157,964	168,299	-0,154	0,156
-156,950	-200,000	0,007	-0,026
-155,935	216,710	0,067	-0,077
-154,920	64,700	0,073	0,052
-153,906	12,091	0,072	0,039
-152,891	800,000	-0,030	0,092
-151,877	239,742	-0,020	-0,024
-150,862	137,951	0,054	0,051
-149,847	-200,000	-0,018	-0,118
-148,833	42,237	0,130	-0,084
-147,818	24,110	0,160	0,094
-146,804	-24,052	0,083	-0,035
-145,789	33,470	0,118	0,073
-144,775	-200,000	0,001	-0,052
-143,760	-200,000	-0,027	-0,088
-142,745	130,797	-0,058	-0,053
-141,731	-45,380	0,080	0,028
-140,716	467,308	0,082	0,132
-139,702	800,000	-0,020	0,058
-138,687	290,893	0,041	0,053
-137,672	298,365	-0,099	-0,129
-136,658	-15,215	-0,027	-0,012
-135,643	800,000	-0,045	-0,106
-134,629	800,000	-0,024	-0,074
-133,614	759,846	0,030	0,058
-132,599	-147,238	0,063	-0,004
-131,585	800,000	-0,028	-0,063
-130,570	800,000	-0,032	0,073
-129,556	298,735	-0,068	-0,090
-128,541	-200,000	0,002	-0,167
-127,526	23,001	0,055	0,032
-126,512	-14,915	0,006	0,003
-125,497	-200,000	0,030	-0,147
-124,483	-200,000	-0,005	-0,099
-123,468	15,490	-0,073	0,041
-122,453	800,000	0,015	0,030
-121,439	644,252	-0,034	-0,061
-120,424	55,516	-0,088	-0,061
-119,410	65,620	0,043	0,031
-118,395	-86,880	0,034	0,007
-117,380	-73,600	-0,139	0,036
-116,366	-135,317	0,090	-0,008
-115,351	418,273	-0,033	-0,051
-114,337	218,195	-0,031	-0,035
-113,322	-164,990	-0,170	-0,005
-112,307	-100,072	0,147	-0,026
-111,293	-200,000	-0,014	0,053
-110,278	9,620	-0,134	0,072
-109,264	-200,000	0,004	-0,043
-108,249	160,934	0,007	-0,007
-107,234	164,821	0,038	0,038
-106,220	78,082	-0,059	-0,045
-105,205	27,561	-0,062	0,037
-104,191	800,000	-0,013	0,029
-103,176	-200,000	-0,001	0,003
-102,162	-200,000	-0,002	-0,109
-101,147	800,000	-0,010	0,028
-100,132	-200,000	-0,010	-0,052
-99,118	23,996	0,139	-0,081
-98,103	-200,000	0,008	-0,031
-97,089	-200,000	0,017	0,133
-96,074	260,353	-0,065	0,080
-95,059	800,000	-0,038	0,085
-94,045	-88,058	0,072	-0,015
-93,030	-200,000	0,012	-0,099
-92,016	63,768	-0,101	0,072
-91,001	-143,990	-0,036	0,002
-89,986	-200,000	-0,021	-0,080
-88,972	-200,000	0,015	0,063
-87,957	-72,409	0,092	0,024
-86,943	127,088	0,076	0,068
-85,928	-152,925	0,049	0,002
-84,913	-50,839	-0,087	-0,029
-83,899	-59,434	0,046	-0,014
-82,884	39,908	-0,037	-0,024
-81,870	-138,145	-0,095	0,007
-80,855	-60,212	0,062	0,019
-79,840	-200,000	0,017	0,111
-78,826	191,416	0,087	0,093
-77,811	-200,000	0,004	-0,076
-76,797	-60,291	0,090	0,027
-75,782	-157,664	0,165	0,007
-74,767	-111,410	0,122	0,017
-73,753	352,274	0,075	0,106
-72,738	23,930	-0,098	-0,057
-71,724	-200,000	-0,006	-0,057
-70,709	301,831	0,081	-0,107
-69,694	-200,000	0,035	0,112
-68,680	-200,000	0,028	0,106
-67,665	-98,930	-0,233	-0,042
-66,651	800,000	0,014	-0,038
-65,636	-33,615	-0,061	0,024
-64,622	-200,000	0,026	0,119
-63,607	40,077	0,057	0,036
-62,592	-23,109	-0,086	0,037
-61,578	-200,000	0,024	0,102
-60,563	309,992	0,032	-0,043
-59,549	800,000	-0,052	0,110
-58,534	-66,468	-1,377	-0,385
-57,519	367,599	-1,507	-2,165
-56,505	-200,000	-0,474	-4,332
-55,490	100,741	0,873	0,719
-54,476	800,000	4,758	11,224
-53,461	-200,000	17,411	274,264
-52,446	800,000	718,178	2196,644
-51,432	554,079	1632,060	2794,366
-50,417	81,092	1656,735	1267,238
-49,403	24,114	1530,932	893,798
-48,388	18,130	1454,146	820,143
-47,373	18,350	1443,603	815,221
-46,359	18,069	1434,300	808,598
-45,344	16,458	1429,462	798,192
-44,330	16,372	1427,646	796,737
-43,315	16,361	1426,206	795,850
-42,300	16,371	1424,448	794,886
-41,286	16,400	1423,334	794,369
-40,271	16,397	1421,912	793,527
-39,257	16,374	1420,599	792,655
-38,242	16,432	1419,332	792,189
-37,227	16,421	1418,204	791,479
-36,213	16,414	1416,675	790,562
-35,198	16,373	1415,722	789,806
-34,184	16,399	1414,802	789,381
-33,169	16,336	1413,555	788,357
-32,154	16,442	1412,394	788,179
-31,140	16,422	1411,035	787,295
-30,125	16,451	1409,959	786,800
-29,111	16,442	1408,751	786,051
-28,096	16,337	1407,968	785,091
-27,082	16,318	1406,624	784,223
-26,067	16,351	1405,543	783,743
-25,052	16,363	1404,426	783,147
-24,038	16,309	1403,405	782,291
-23,023	16,310	1402,486	781,753
-22,009	16,296	1401,413	781,062
-20,994	16,237	1400,479	780,232
-19,979	16,228	1399,627	779,685
-18,965	16,284	1398,430	779,251
-17,950	16,267	1397,666	778,714
-16,936	16,238	1396,673	777,993
-15,921	16,238	1395,589	777,359
-14,906	16,219	1394,666	776,727
-13,892	16,246	1393,579	776,217
-12,877	16,238	1392,788	775,706
-11,863	16,213	1391,792	775,008
-10,848	16,217	1391,036	774,571
-9,833	16,217	1389,983	773,954
-8,819	16,176	1389,086	773,238
-7,804	16,131	1388,138	772,470
-6,790	16,168	1387,123	772,048
-5,775	16,128	1386,188	771,313
-4,760	16,106	1385,368	770,722
-3,746	16,068	1384,468	770,017
-2,731	16,113	1383,912	769,883
-1,717	16,076	1382,678	768,995
-0,702	16,106	1380,766	768,042
0,313	20,014	1302,406	742,434
1,327	36,605	707,596	441,841
2,342	56,165	125,656	86,337
3,356	3,707	16,697	8,608
4,371	5,981	3,154	1,650
5,386	-120,308	0,490	0,058
6,400	219,851	0,086	0,098
7,415	-101,002	-0,398	-0,069
8,429	85,883	-0,246	-0,191
9,444	73,517	-0,300	-0,222
10,459	234,580	-0,276	-0,323
11,473	-70,186	-0,403	-0,108
12,488	-56,404	-0,355	-0,111
13,502	-19,229	-0,349	-0,153
14,517	16,154	-0,314	-0,175
15,531	17,149	-0,440	-0,247
16,546	186,599	-0,292	-0,308
17,561	41,813	-0,407	-0,261
18,575	-106,279	-0,142	-0,022
19,590	100,320	-0,172	-0,141
20,604	496,296	-0,194	-0,317
21,619	150,238	-0,353	-0,339
22,634	102,836	-0,422	-0,349
23,648	227,731	-0,340	-0,392
24,663	113,003	-0,529	-0,453
25,677	150,367	-0,286	-0,274
26,692	66,869	-0,337	-0,242
27,707	137,385	-0,331	-0,306
28,721	-27,571	-0,308	-0,126
29,736	108,828	-0,381	-0,322
30,750	54,825	-0,475	-0,324
31,765	73,692	-0,426	-0,315
32,780	174,345	-0,286	-0,292
33,794	-7,663	-0,344	-0,164
34,809	-67,462	-0,520	-0,143
35,823	489,701	-0,236	-0,383
36,838	51,806	-0,339	-0,228
37,853	-31,532	-0,431	-0,170
38,867	92,523	-0,354	-0,282
39,882	180,669	-0,375	-0,389
40,896	-59,316	-0,267	-0,081
41,911	56,900	-0,407	-0,279
42,926	122,882	-0,423	-0,374
43,940	65,032	-0,339	-0,242
44,955	285,007	-0,348	-0,444
45,969	42,507	-0,359	-0,230
46,984	309,684	-0,207	-0,274
47,999	671,958	-0,187	-0,344
49,013	-74,069	-0,501	-0,127
50,028	70,158	-0,264	-0,192
51,042	307,202	-0,214	-0,283
52,057	112,976	-0,331	-0,283
53,071	117,663	-0,356	-0,309
54,086	41,037	-0,309	-0,197
55,101	60,084	-0,368	-0,257
56,115	22,709	-0,374	-0,215
57,130	172,076	-0,276	-0,280
58,144	56,711	-0,437	-0,300
59,159	1,132	-0,503	-0,254
60,174	96,284	-0,358	-0,288
61,188	-62,350	-0,523	-0,152
62,203	-5,022	-0,222	-0,107
63,217	80,348	-0,276	-0,210
64,232	130,718	-0,246	-0,222
65,247	12,759	-0,276	-0,150
66,261	153,906	-0,259	-0,250
67,276	-63,625	-0,478	-0,137
68,290	0,043	-0,468	-0,234
69,305	50,366	-0,245	-0,163
70,320	68,809	-0,222	-0,161
71,334	294,642	-0,190	-0,245
72,349	-19,662	-0,373	-0,162
73,363	32,382	-0,384	-0,233
74,378	20,237	-0,324	-0,184
75,393	70,317	-0,427	-0,310
76,407	281,704	-0,216	-0,273
77,422	277,286	-0,224	-0,281
78,436	96,872	-0,246	-0,199
79,451	119,599	-0,269	-0,234
80,466	49,359	-0,421	-0,278
81,480	49,094	-0,310	-0,205
82,495	158,666	-0,274	-0,268
83,509	50,302	-0,218	-0,145
84,524	469,356	-0,193	-0,305
85,539	115,067	-0,272	-0,234
86,553	-33,143	-0,309	-0,120
87,568	67,357	-0,331	-0,237
88,582	9,627	-0,371	-0,197
89,597	230,695	-0,227	-0,261
90,611	130,986	-0,210	-0,190
91,626	123,901	-0,244	-0,215
92,641	-30,241	-0,212	-0,084
93,655	40,752	-0,309	-0,195
94,670	147,880	-0,290	-0,275
95,684	145,822	-0,223	-0,210
96,699	115,216	-0,247	-0,212
97,714	-59,208	-0,249	-0,075
98,728	-50,542	-0,278	-0,092
99,743	535,640	-0,125	-0,209
100,757	63,499	-0,299	-0,210
101,772	17,087	-0,307	-0,171
102,787	242,331	-0,198	-0,234
103,801	133,138	-0,389	-0,353
104,816	217,422	-0,221	-0,248
105,830	170,733	-0,259	-0,261
106,845	52,281	-0,280	-0,187
107,860	208,307	-0,200	-0,219
108,874	13,786	-0,315	-0,172
109,889	-91,637	-0,307	-0,061
110,903	82,587	-0,262	-0,199
111,918	68,672	-0,284	-0,204
112,933	172,632	-0,130	-0,131
113,947	16,579	-0,251	-0,139
114,962	20,660	-0,365	-0,207
115,976	175,312	-0,203	-0,206
116,991	219,326	-0,307	-0,345
118,006	89,331	-0,195	-0,152
119,020	24,225	-0,267	-0,154
120,035	88,580	-0,187	-0,146
121,049	218,893	-0,203	-0,228
122,064	82,907	-0,275	-0,209
123,079	384,840	-0,162	-0,234
124,093	-81,122	-0,208	-0,048
125,108	266,252	-0,208	-0,256
126,122	109,381	-0,186	-0,156
127,137	-23,423	-0,409	-0,172
128,151	548,817	-0,133	-0,225
129,166	-22,366	-0,250	-0,106
130,181	260,155	-0,172	-0,209
131,195	1,015	-0,337	-0,169
132,210	-62,646	-0,318	-0,092
133,224	230,504	-0,230	-0,264
134,239	28,814	-0,317	-0,188
135,254	255,140	-0,177	-0,213
136,268	-22,374	-0,397	-0,168
137,283	-166,357	-0,365	-0,011
138,297	66,927	-0,299	-0,213
139,312	184,999	-0,221	-0,230
140,327	56,092	-0,189	-0,128
141,341	98,841	-0,224	-0,181
142,356	9,281	-0,209	-0,110
143,370	78,027	-0,241	-0,180
144,385	-85,311	-0,256	-0,055
145,400	158,982	-0,223	-0,217
146,414	260,358	-0,278	-0,336
147,429	554,986	-0,185	-0,313
148,443	-20,953	-0,317	-0,135
149,458	-21,832	-0,302	-0,128
150,473	-153,010	-0,292	-0,014
151,487	-33,474	-0,248	-0,095
152,502	106,975	-0,141	-0,117
153,516	224,633	-0,227	-0,257
154,531	66,627	-0,323	-0,230
155,546	800,000	-0,070	-0,195
156,560	44,377	-0,203	-0,130
157,575	82,759	-0,241	-0,183
158,589	98,854	-0,323	-0,261
159,604	86,177	-0,258	-0,198
160,619	55,447	-0,211	-0,143
161,633	119,099	-0,293	-0,253
162,648	366,133	-0,117	-0,165
163,662	43,073	-0,261	-0,166
164,677	127,587	-0,187	-0,166
165,692	68,746	-0,204	-0,146
166,706	1,895	-0,204	-0,103
167,721	-18,478	-0,348	-0,151
168,735	196,317	-0,211	-0,224
169,750	-106,797	-0,259	-0,040
170,764	198,093	-0,178	-0,190
171,779	50,448	-0,218	-0,144
172,794	213,761	-0,194	-0,214
173,808	46,244	-0,242	-0,156
174,823	-17,414	-0,312	-0,136
175,837	-88,385	-0,258	-0,053
176,852	56,850	-0,309	-0,210
177,867	427,044	-0,186	-0,281
178,881	-200,000	-0,068	-0,298
179,896	498,585	-0,107	-0,172
180,910	29,089	-0,261	-0,154
181,925	192,800	-0,246	-0,260
182,940	175,008	-0,217	-0,220
183,954	800,000	-0,103	-0,262
184,969	328,157	-0,137	-0,183
185,983	464,382	-0,092	-0,144
186,998	-34,910	-0,163	-0,062
188,013	75,622	-0,199	-0,146
189,027	36,322	-0,362	-0,222
190,042	50,823	-0,286	-0,189
191,056	193,261	-0,164	-0,173
192,071	31,257	-0,133	-0,079
193,086	320,129	-0,149	-0,197
194,100	-103,147	-0,244	-0,040
195,115	800,000	-0,127	-0,261
196,129	312,106	-0,216	-0,283
197,144	11,527	-0,266	-0,142
198,159	167,087	-0,213	-0,211
199,173	136,032	-0,222	-0,202
200,188	-7,342	-0,205	-0,096
201,202	76,527	-0,350	-0,258
202,217	227,297	-0,208	-0,236
203,232	229,710	-0,250	-0,285
204,246	51,246	-0,266	-0,175
205,261	-15,321	-0,293	-0,130
206,275	-147,037	-0,207	-0,012
207,290	-11,828	-0,174	-0,079
208,304	11,018	-0,139	-0,074
209,319	550,422	-0,140	-0,234
210,334	-50,074	-0,086	-0,028
211,348	-71,672	-0,313	-0,081
212,363	403,674	-0,111	-0,163
213,377	138,806	-0,279	-0,255
214,392	800,000	-0,074	-0,154
215,407	-200,000	-0,064	-0,240
216,421	-50,175	-0,252	-0,083
217,436	173,024	-0,150	-0,151
218,450	32,825	-0,260	-0,156
219,465	187,631	-0,244	-0,254
220,480	-200,000	-0,033	-0,165
221,494	800,000	-0,055	-0,143
222,509	201,010	-0,192	-0,206
223,523	-174,771	-0,141	0,003
224,538	342,382	-0,090	-0,122
225,553	-4,070	-0,192	-0,092
226,567	55,537	-0,197	-0,133
227,582	589,403	-0,155	-0,266
228,596	212,976	-0,124	-0,136
229,611	-166,639	-0,229	-0,006
230,626	173,041	-0,166	-0,167
231,640	57,281	-0,189	-0,128
232,655	659,134	-0,164	-0,294
233,669	194,077	-0,197	-0,208
234,684	222,031	-0,142	-0,159
235,699	800,000	-0,089	-0,205
236,713	85,508	-0,153	-0,117
237,728	268,449	-0,179	-0,218
238,742	-16,979	-0,158	-0,069
239,757	-46,508	-0,119	-0,040
240,772	-78,916	-0,170	-0,040
241,786	-2,041	-0,254	-0,124
242,801	-179,018	-0,224	-0,003
243,815	-13,063	-0,197	-0,089
244,830	60,276	0,087	-0,060
245,844	136,599	-0,177	-0,160
246,859	-63,166	-0,280	-0,080
247,874	183,874	-0,148	-0,152
248,888	119,332	-0,272	-0,234
249,903	209,755	-0,203	-0,221
250,917	800,000	-0,134	-0,301
251,932	-47,677	-0,195	-0,065
252,947	-128,558	-0,257	-0,025
253,961	93,864	-0,187	-0,147
254,976	136,319	-0,195	-0,176
255,990	291,809	-0,135	-0,171
257,005	118,057	-0,057	-0,049
258,020	216,870	-0,115	-0,127
259,034	-32,049	-0,193	-0,074
260,049	6,761	-0,126	-0,065
261,063	177,517	-0,181	-0,183
262,078	32,232	-0,292	-0,174
263,093	193,264	-0,246	-0,258
264,107	392,108	-0,087	-0,126
265,122	-81,341	-0,166	-0,038
266,136	-41,256	-0,121	-0,043
267,151	531,554	-0,108	-0,178
268,166	92,457	-0,238	-0,186
269,180	22,293	-0,306	-0,173
270,195	-200,000	-0,034	-0,116
271,209	126,557	-0,185	-0,162
272,224	-55,244	-0,251	-0,078
273,239	-78,899	-0,218	-0,051
274,253	257,868	-0,103	-0,123
275,268	161,011	-0,183	-0,177
276,282	260,535	-0,197	-0,237
277,297	-74,323	-0,247	-0,061
278,312	600,920	-0,176	-0,303
279,326	-200,000	-0,021	-0,156
280,341	767,657	-0,131	-0,248
281,355	475,124	-0,128	-0,200
282,370	-167,618	-0,157	0,004
283,384	-90,785	-0,182	-0,036
284,399	-48,777	-0,134	-0,044
285,414	247,309	-0,147	-0,172
286,428	-108,091	-0,226	-0,034
287,443	445,396	-0,057	-0,088
288,457	21,707	-0,230	-0,129
289,472	105,466	-0,099	-0,081
290,487	217,818	-0,187	-0,206
291,501	-86,760	-0,178	-0,037
292,516	698,726	-0,143	-0,260
293,530	568,828	-0,119	-0,201
294,545	800,000	-0,073	-0,211
295,560	395,142	-0,117	-0,170
296,574	173,390	-0,080	-0,080
297,589	741,804	-0,069	-0,129
298,603	451,175	-0,082	-0,125
299,618	-38,058	-0,217	-0,079
300,633	-5,089	-0,264	-0,125
301,647	-200,000	-0,042	-0,211
302,662	331,570	-0,122	-0,162
303,676	228,654	-0,188	-0,212
304,691	800,000	-0,082	-0,162
305,706	173,276	-0,154	-0,153
306,720	485,725	-0,100	-0,158
307,735	800,000	-0,059	-0,157
308,749	-25,499	-0,158	0,064
309,764	138,809	-0,070	-0,064
310,779	-159,486	-0,109	0,004
311,793	12,034	-0,184	-0,097
312,808	153,118	-0,138	-0,130
313,822	527,742	-0,048	-0,078
314,837	230,458	-0,173	-0,195
315,852	94,980	-0,152	-0,119
316,866	323,238	-0,122	-0,160
317,881	-92,341	-0,168	-0,032
318,895	219,558	-0,068	-0,075
319,910	800,000	-0,047	-0,110
320,925	83,818	-0,150	-0,113
321,939	184,991	-0,132	-0,135
322,954	0,338	-0,083	-0,041
323,968	225,282	-0,108	-0,121
324,983	241,633	-0,053	-0,061
325,997	66,581	-0,102	-0,071
327,012	164,735	-0,054	-0,053
328,027	26,982	-0,153	-0,088
329,041	-57,226	-0,130	0,039
330,056	800,000	0,044	-0,108
331,070	143,121	-0,184	-0,168
332,085	-50,766	-0,191	-0,062
333,100	-143,620	-0,162	-0,010
334,114	800,000	-0,054	-0,143
335,129	377,298	-0,139	-0,197
336,143	457,486	-0,132	-0,202
337,158	753,940	-0,056	-0,105
338,173	80,774	-0,056	-0,042
339,187	116,111	-0,087	-0,073
340,202	-12,252	-0,162	-0,072
341,216	-200,000	0,006	-0,224
342,231	134,529	-0,104	-0,093
343,246	175,448	-0,143	-0,143
344,260	25,400	-0,196	-0,111
345,275	800,000	-0,028	-0,071
346,289	-89,244	-0,068	-0,014
347,304	-104,210	-0,098	0,015
348,319	549,554	-0,058	-0,095
349,333	800,000	-0,102	-0,236
350,348	210,113	-0,146	-0,158
351,362	800,000	-0,041	-0,113
352,377	-200,000	0,001	-0,126
353,392	96,172	-0,156	-0,122
354,406	-143,986	0,031	0,002
355,421	208,952	1313,025	1413,953
356,435	160,804	1473,570	1414,489
