DTS Sentinel unit serial number:	SN410029Multiplexer serial number:	ORYXHardware model number:	OX2-SRSoftware version number:	ORYX F/W v4,00 Oryx Data Collector v3.7.2.0data status	okinstallation	B3 Nyhavnadifferential loss correction	single-endedforward channel	channel 1reverse channel	N/Adate	2023/11/29time	15:57:30forward acquisition time	300,00reverse acquisition time	0,00gamma	499,1914k internal	0,3209k external	0,3209temperature offset calibration	1,0000default loss term (dB/km)	0,3820temperature slope calibration	1,0000multiplexer offset coefficient	1,0000multiplexer slope coefficient	1,0000fibre end	0,00T internal ref (°C)	11,40T ext. ref 1 (°C)	-3,34T ext. ref 2 (°C)	-3,49length (m)	temperature (°C)	Stokes	anti-Stokes-744,400	479,854	-0,179	-0,296
-743,385	800,000	-0,123	0,304
-742,371	-6,893	-0,253	-0,125
-741,356	-200,000	0,001	0,386
-740,342	93,682	-0,163	-0,134
-739,327	737,609	-0,151	0,294
-738,312	238,432	-0,150	-0,181
-737,298	-200,000	-0,006	0,175
-736,283	107,372	-0,222	-0,192
-735,269	-200,000	0,025	0,304
-734,254	37,793	-0,287	-0,185
-733,239	-174,558	-0,209	-0,004
-732,225	39,848	-0,164	-0,107
-731,210	12,247	0,123	0,069
-730,196	-200,000	-0,012	0,065
-729,181	800,000	-0,016	-0,035
-728,167	-130,727	-0,061	-0,006
-727,152	-123,223	-0,083	0,009
-726,137	-131,149	-0,148	0,014
-725,123	-200,000	-0,002	-0,060
-724,108	800,000	-0,092	-0,213
-723,094	278,315	-0,022	-0,029
-722,079	-200,000	0,025	-0,098
-721,064	196,901	0,044	-0,048
-720,050	30,835	-0,045	0,028
-719,035	331,613	-0,043	-0,060
-718,021	-176,510	0,041	-0,001
-717,006	75,123	-0,183	-0,139
-715,991	-24,122	-0,052	-0,022
-714,977	99,226	-0,111	-0,093
-713,962	-200,000	-0,004	-0,077
-712,948	186,305	-0,082	-0,088
-711,933	-182,207	0,106	-0,001
-710,918	216,332	-0,033	0,038
-709,904	-99,076	-0,145	-0,026
-708,889	-142,825	-0,101	-0,007
-707,875	177,528	-0,078	0,082
-706,860	82,538	0,014	-0,011
-705,845	-200,000	-0,010	0,154
-704,831	46,376	0,068	-0,045
-703,816	-173,305	-0,055	-0,001
-702,802	-130,418	-0,105	0,010
-701,787	800,000	-0,106	-0,242
-700,772	213,911	-0,038	0,044
-699,758	-70,209	-0,093	0,025
-698,743	-200,000	0,007	0,076
-697,729	22,485	-0,084	-0,049
-696,714	800,000	0,009	-0,023
-695,699	35,780	-0,139	-0,088
-694,685	-200,000	-0,007	-0,042
-693,670	-70,830	-0,102	-0,028
-692,656	-200,000	-0,011	-0,068
-691,641	333,905	-0,050	-0,070
-690,627	800,000	0,006	0,019
-689,612	448,078	0,024	-0,038
-688,597	219,843	-0,022	0,026
-687,583	-51,899	-0,197	-0,066
-686,568	671,151	-0,053	-0,099
-685,554	-200,000	0,003	0,029
-684,539	-107,608	0,105	0,017
-683,524	3,152	-0,081	0,042
-682,510	-109,820	-0,167	0,025
-681,495	800,000	0,040	0,100
-680,481	118,200	-0,124	-0,111
-679,466	-106,950	-0,112	0,018
-678,451	-200,000	-0,006	-0,033
-677,437	478,251	0,033	-0,055
-676,422	-17,758	-0,034	-0,015
-675,408	617,476	-0,038	0,069
-674,393	-190,325	0,072	-0,001
-673,378	800,000	0,015	-0,042
-672,364	367,291	-0,062	-0,091
-671,349	217,557	-0,113	-0,130
-670,335	-200,000	-0,017	-0,176
-669,320	98,789	-0,080	-0,067
-668,305	800,000	-0,004	0,009
-667,291	-28,512	-0,136	-0,056
-666,276	359,285	0,008	0,012
-665,262	71,575	-0,030	0,023
-664,247	800,000	-0,056	-0,141
-663,232	-65,832	0,043	0,012
-662,218	75,773	-0,111	-0,085
-661,203	-159,681	0,102	-0,004
-660,189	-200,000	-0,007	0,027
-659,174	-200,000	-0,000	0,062
-658,159	365,009	-0,032	-0,046
-657,145	244,237	-0,112	-0,137
-656,130	-134,094	-0,028	0,002
-655,116	206,706	0,097	0,110
-654,101	12,364	0,127	-0,070
-653,086	-178,727	-0,033	-0,001
-652,072	673,230	-0,037	-0,069
-651,057	29,624	-0,043	-0,026
-650,043	-78,009	0,120	-0,030
-649,028	52,589	-0,079	-0,054
-648,014	193,522	-0,033	-0,036
-646,999	-200,000	0,032	0,164
-645,984	-153,824	-0,031	-0,002
-644,970	264,879	-0,030	0,038
-643,955	508,076	-0,062	-0,105
-642,941	800,000	0,024	-0,048
-641,926	-200,000	-0,028	-0,093
-640,911	39,299	-0,070	0,045
-639,897	130,718	0,126	0,116
-638,882	800,000	-0,034	0,088
-637,868	603,698	-0,032	0,057
-636,853	81,179	-0,095	-0,074
-635,838	800,000	-0,076	0,187
-634,824	355,988	0,053	0,076
-633,809	-200,000	-0,012	0,062
-632,795	-78,490	-0,119	0,029
-631,780	170,310	0,071	0,074
-630,765	-62,990	0,039	-0,012
-629,751	196,630	-0,018	-0,020
-628,736	-44,365	-0,084	0,030
-627,722	68,443	-0,036	0,027
-626,707	488,100	0,036	-0,060
-625,692	75,702	-0,059	0,045
-624,678	194,731	0,046	0,050
-623,663	-200,000	0,000	0,077
-622,649	800,000	0,015	0,047
-621,634	295,166	-0,045	-0,060
-620,619	59,974	0,016	-0,011
-619,605	538,127	-0,087	-0,149
-618,590	-200,000	0,026	-0,113
-617,576	-169,041	-0,073	0,002
-616,561	-100,562	-0,165	0,029
-615,546	101,877	0,046	-0,039
-614,532	100,165	-0,115	-0,096
-613,517	800,000	0,035	0,104
-612,503	-31,475	-0,120	-0,048
-611,488	-140,764	0,076	0,006
-610,474	-200,000	0,026	0,150
-609,459	8,264	0,057	-0,031
-608,444	267,523	0,105	-0,132
-607,430	-7,960	-0,125	-0,060
-606,415	-67,947	-0,045	-0,013
-605,401	800,000	-0,024	-0,071
-604,386	-79,264	0,021	0,005
-603,371	-200,000	0,003	0,084
-602,357	772,235	0,047	0,093
-601,342	188,154	-0,112	0,121
-600,328	227,474	0,066	-0,077
-599,313	-200,000	-0,001	-0,119
-598,298	-200,000	-0,019	0,206
-597,284	-200,000	0,009	0,035
-596,269	200,083	-0,093	0,103
-595,255	-200,000	0,029	0,155
-594,240	-60,892	0,076	0,023
-593,225	-19,351	-0,043	0,019
-592,211	-115,894	-0,109	-0,014
-591,196	800,000	0,045	-0,094
-590,182	405,402	0,046	0,070
-589,167	-58,166	-0,047	-0,015
-588,152	-103,858	0,150	0,025
-587,138	67,279	-0,102	0,075
-586,123	-200,000	0,006	-0,044
-585,109	-200,000	-0,045	-0,147
-584,094	-200,000	0,007	0,036
-583,079	490,748	0,049	0,081
-582,065	276,795	0,002	-0,003
-581,050	-48,010	0,061	0,021
-580,036	-200,000	-0,016	-0,173
-579,021	-200,000	-0,014	-0,224
-578,006	328,843	-0,102	-0,141
-576,992	124,851	0,053	0,048
-575,977	82,399	0,104	-0,081
-574,963	-141,539	0,163	-0,012
-573,948	-200,000	0,020	0,093
-572,934	-200,000	-0,003	0,110
-571,919	-159,320	-0,136	0,005
-570,904	800,000	-0,036	-0,087
-569,890	-200,000	-0,010	-0,273
-568,875	-200,000	0,021	-0,090
-567,861	-89,779	0,203	-0,042
-566,846	-180,782	0,091	-0,001
-565,831	364,086	0,033	-0,048
-564,817	-49,190	0,010	0,004
-563,802	-200,000	-0,008	-0,102
-562,788	-40,373	0,115	-0,043
-561,773	755,897	-0,057	0,112
-560,758	25,449	0,024	-0,015
-559,744	-62,065	0,094	-0,028
-558,729	-115,161	0,211	-0,029
-557,715	-96,423	-0,130	-0,025
-556,700	-103,787	0,141	0,024
-555,685	800,000	0,034	-0,089
-554,671	-200,000	-0,007	-0,126
-553,656	-71,225	0,033	-0,009
-552,642	-98,081	0,038	-0,007
-551,627	-118,702	-0,112	0,014
-550,612	437,062	-0,039	0,061
-549,598	-200,000	-0,027	-0,219
-548,583	-84,080	-0,051	-0,011
-547,569	383,314	0,085	0,126
-546,554	53,083	0,051	0,035
-545,539	-200,000	-0,002	0,146
-544,525	84,792	0,044	0,035
-543,510	-158,176	-0,081	0,003
-542,496	-200,000	0,007	-0,144
-541,481	757,335	-0,070	-0,137
-540,466	678,375	0,070	-0,131
-539,452	111,772	0,042	-0,036
-538,437	453,363	-0,057	-0,091
-537,423	-154,115	-0,083	-0,004
-536,408	154,810	-0,082	0,082
-535,393	-200,000	0,009	0,066
-534,379	-200,000	0,001	-0,057
-533,364	584,123	-0,044	0,078
-532,350	-57,431	-0,040	0,012
-531,335	-200,000	0,026	0,091
-530,321	800,000	-0,040	0,086
-529,306	-106,086	-0,114	0,018
-528,291	-200,000	-0,007	0,025
-527,277	-200,000	0,015	-0,105
-526,262	354,284	-0,022	-0,032
-525,248	621,934	-0,073	0,133
-524,233	-200,000	-0,005	0,052
-523,218	800,000	0,017	0,046
-522,204	-200,000	-0,018	-0,069
-521,189	-200,000	0,003	-0,079
-520,175	235,005	-0,038	0,046
-519,160	354,380	0,035	-0,050
-518,145	294,156	-0,023	-0,030
-517,131	-89,116	0,081	-0,017
-516,116	-200,000	0,003	0,140
-515,102	33,087	0,057	-0,035
-514,087	-26,413	-0,031	-0,013
-513,072	139,197	-0,086	-0,082
-512,058	-200,000	0,004	-0,066
-511,043	-134,879	0,172	-0,015
-510,029	800,000	0,028	0,085
-509,014	-35,830	0,142	0,055
-507,999	-200,000	0,015	-0,131
-506,985	-200,000	0,000	0,009
-505,970	-165,259	-0,199	-0,006
-504,956	588,746	0,060	-0,107
-503,941	800,000	0,050	-0,107
-502,926	-84,062	0,111	0,025
-501,912	660,149	-0,012	-0,022
-500,897	-200,000	-0,023	0,076
-499,883	164,303	-0,026	-0,026
-498,868	-200,000	0,017	-0,065
-497,853	-20,134	-0,059	-0,026
-496,839	-124,158	-0,054	-0,006
-495,824	-200,000	-0,007	0,165
-494,810	115,016	0,084	0,073
-493,795	99,565	-0,056	0,046
-492,781	-159,035	0,092	0,004
-491,766	800,000	-0,038	-0,121
-490,751	-200,000	0,001	-0,055
-489,737	-44,636	0,157	0,056
-488,722	-109,236	0,039	-0,006
-487,708	-200,000	0,015	0,060
-486,693	-18,890	0,155	0,069
-485,678	-200,000	-0,040	0,161
-484,664	19,309	0,047	-0,027
-483,649	-200,000	-0,007	-0,042
-482,635	800,000	0,021	-0,041
-481,620	374,119	0,027	-0,040
-480,605	217,079	0,063	0,072
-479,591	567,755	0,069	0,122
-478,576	14,302	-0,021	-0,012
-477,562	273,821	0,082	-0,104
-476,547	22,426	-0,087	0,051
-475,532	-125,097	0,110	-0,012
-474,518	800,000	0,039	-0,114
-473,503	-72,479	0,041	0,011
-472,489	-30,468	-0,031	-0,013
-471,474	-87,394	-0,032	0,007
-470,459	720,006	-0,037	-0,071
-469,445	-200,000	0,027	0,117
-468,430	663,389	-0,056	-0,105
-467,416	800,000	0,008	0,023
-466,401	800,000	-0,026	0,059
-465,386	-200,000	0,031	-0,117
-464,372	-200,000	0,010	0,120
-463,357	-93,659	-0,049	-0,010
-462,343	-200,000	0,011	0,069
-461,328	-200,000	0,012	0,047
-460,313	-81,669	0,048	-0,011
-459,299	204,427	0,114	-0,127
-458,284	-200,000	0,014	-0,070
-457,270	70,920	0,048	0,036
-456,255	144,460	-0,052	0,050
-455,241	22,492	-0,100	-0,058
-454,226	431,902	0,017	0,026
-453,211	-122,700	-0,087	-0,010
-452,197	351,332	0,085	-0,121
-451,182	800,000	-0,049	0,111
-450,168	4,117	0,033	-0,017
-449,153	-200,000	0,001	-0,113
-448,138	-200,000	0,006	-0,107
-447,124	-105,245	-0,081	-0,013
-446,109	-200,000	-0,014	-0,066
-445,095	-127,170	0,144	-0,015
-444,080	3,950	-0,045	0,024
-443,065	716,093	0,083	-0,158
-442,051	-200,000	-0,005	0,017
-441,036	90,571	-0,046	0,037
-440,022	-103,925	-0,115	-0,019
-439,007	5,225	-0,091	0,048
-437,992	11,646	0,098	0,054
-436,978	-127,518	0,011	0,001
-435,963	-102,177	-0,106	0,018
-434,949	328,258	0,036	-0,050
-433,934	-200,000	-0,014	-0,065
-432,919	-7,515	0,051	-0,025
-431,905	-123,253	0,094	0,011
-430,890	-95,937	0,053	0,010
-429,876	-125,997	0,040	0,004
-428,861	-49,795	-0,184	-0,062
-427,846	103,534	0,020	0,017
-426,832	800,000	0,027	-0,076
-425,817	123,163	-0,055	-0,049
-424,803	-200,000	-0,016	-0,092
-423,788	64,969	-0,074	-0,053
-422,773	-200,000	0,004	0,020
-421,759	-161,538	-0,063	0,002
-420,744	82,079	-0,038	0,029
-419,730	547,828	-0,011	-0,019
-418,715	-72,030	0,018	-0,005
-417,701	-27,298	-0,101	-0,042
-416,686	328,144	0,081	0,111
-415,671	2,824	-0,023	-0,012
-414,657	708,529	0,045	0,086
-413,642	800,000	0,033	0,072
-412,628	-109,682	0,112	-0,017
-411,613	-31,730	-0,169	0,067
-410,598	-44,289	-0,004	-0,001
-409,584	-200,000	0,005	0,146
-408,569	191,025	-0,045	0,049
-407,555	83,926	0,086	-0,067
-406,540	-200,000	0,008	-0,042
-405,525	800,000	-0,036	-0,081
-404,511	800,000	-0,054	0,111
-403,496	20,017	-0,064	-0,037
-402,482	-80,782	-0,198	-0,047
-401,467	-2,859	0,096	0,048
-400,452	-200,000	0,018	0,090
-399,438	-200,000	0,004	-0,064
-398,423	408,070	-0,048	-0,073
-397,409	-23,439	-0,068	0,029
-396,394	-63,911	-0,150	-0,044
-395,379	-200,000	-0,004	0,013
-394,365	-200,000	-0,002	0,091
-393,350	-44,803	-0,131	-0,047
-392,336	4,800	-0,031	0,016
-391,321	800,000	-0,031	0,098
-390,306	30,997	-0,077	-0,047
-389,292	113,695	-0,060	0,052
-388,277	-82,760	0,039	-0,009
-387,263	-200,000	-0,003	0,061
-386,248	248,616	-0,074	-0,089
-385,233	-49,734	-0,073	-0,025
-384,219	800,000	-0,020	-0,051
-383,204	-200,000	0,029	-0,156
-382,190	248,392	-0,124	-0,150
-381,175	-200,000	0,005	-0,130
-380,160	319,877	0,073	0,099
-379,146	-200,000	0,013	-0,077
-378,131	-7,209	0,184	0,089
-377,117	-200,000	0,002	0,103
-376,102	493,322	-0,090	0,149
-375,088	-154,468	0,039	-0,002
-374,073	-112,574	-0,075	-0,011
-373,058	169,884	-0,055	0,057
-372,044	300,944	0,051	0,068
-371,029	65,732	0,102	0,074
-370,015	65,384	-0,013	0,009
-369,000	-109,612	-0,049	0,007
-367,985	786,178	-0,021	-0,041
-366,971	12,118	0,060	0,033
-365,956	-75,274	0,029	0,007
-364,942	-200,000	-0,003	-0,027
-363,927	-37,146	0,055	0,021
-362,912	-29,433	0,108	0,044
-361,898	86,295	-0,077	-0,061
-360,883	156,152	-0,025	0,025
-359,869	800,000	-0,077	0,184
-358,854	-200,000	-0,008	0,116
-357,839	-163,179	-0,080	0,003
-356,825	19,544	0,163	0,093
-355,810	-200,000	0,018	0,139
-354,796	32,295	-0,033	-0,020
-353,781	112,627	-0,052	0,045
-352,766	-200,000	0,033	-0,126
-351,752	-163,967	-0,053	-0,002
-350,737	527,316	0,062	-0,105
-349,723	-200,000	0,013	0,215
-348,708	-200,000	-0,013	0,130
-347,693	88,738	0,066	-0,052
-346,679	-78,863	0,054	-0,013
-345,664	-200,000	-0,004	0,062
-344,650	717,714	-0,044	0,083
-343,635	800,000	0,014	0,031
-342,620	281,692	0,049	0,062
-341,606	-200,000	0,006	0,133
-340,591	-58,168	-0,014	0,004
-339,577	56,114	0,040	-0,027
-338,562	-200,000	-0,006	0,035
-337,548	-141,781	0,184	0,013
-336,533	232,375	0,049	0,058
-335,518	-200,000	0,017	0,078
-334,504	528,342	0,075	0,127
-333,489	-200,000	-0,028	0,172
-332,475	92,282	-0,038	-0,030
-331,460	17,153	0,063	0,036
-330,445	800,000	0,033	-0,072
-329,431	300,303	0,046	0,061
-328,416	-200,000	0,011	-0,159
-327,402	800,000	0,042	0,098
-326,387	127,011	0,088	0,080
-325,372	514,433	0,028	-0,046
-324,358	59,588	-0,062	-0,044
-323,343	800,000	0,009	-0,026
-322,329	531,034	-0,090	0,152
-321,314	-200,000	-0,030	0,115
-320,299	127,862	0,100	-0,091
-319,285	-200,000	-0,028	-0,111
-318,270	-200,000	-0,026	-0,089
-317,256	-200,000	-0,026	-0,087
-316,241	-200,000	-0,003	0,096
-315,226	-200,000	-0,018	-0,067
-314,212	-53,655	0,192	-0,062
-313,197	-53,031	0,126	0,041
-312,183	303,119	-0,032	-0,042
-311,168	91,144	-0,047	-0,038
-310,153	-40,871	-0,105	0,039
-309,139	-200,000	0,001	-0,027
-308,124	7,065	0,051	0,027
-307,110	-200,000	-0,019	0,081
-306,095	-200,000	0,021	0,136
-305,080	8,300	0,073	-0,039
-304,066	628,629	-0,007	-0,012
-303,051	-200,000	0,009	-0,080
-302,037	-86,652	0,215	-0,047
-301,022	-200,000	-0,047	-0,177
-300,008	-200,000	0,003	-0,059
-298,993	16,542	-0,135	-0,076
-297,978	-200,000	-0,008	0,109
-296,964	-162,121	0,083	-0,003
-295,949	800,000	-0,016	-0,051
-294,935	119,685	0,085	-0,075
-293,920	188,783	-0,035	-0,037
-292,905	-200,000	-0,009	-0,082
-291,891	-60,686	-0,028	0,009
-290,876	-200,000	0,033	0,129
-289,862	800,000	-0,029	-0,070
-288,847	93,215	-0,031	0,025
-287,832	-200,000	-0,010	0,036
-286,818	14,475	0,152	-0,084
-285,803	21,267	0,021	0,012
-284,789	233,575	0,083	0,098
-283,774	354,175	-0,033	-0,046
-282,759	-29,666	0,019	-0,008
-281,745	190,998	0,023	0,024
-280,730	702,009	-0,074	0,140
-279,716	-93,046	0,064	0,013
-278,701	-40,111	0,167	0,062
-277,686	-200,000	-0,034	0,132
-276,672	-44,135	-0,094	-0,034
-275,657	-34,112	0,076	-0,030
-274,643	-143,574	0,034	0,002
-273,628	-29,040	-0,128	-0,052
-272,613	800,000	-0,014	-0,040
-271,599	37,673	0,074	-0,047
-270,584	-122,244	-0,122	-0,014
-269,570	-200,000	0,016	0,094
-268,555	191,247	-0,095	-0,102
-267,540	-200,000	0,010	-0,123
-266,526	-200,000	-0,009	-0,061
-265,511	-1,960	0,082	0,041
-264,497	-200,000	0,025	0,090
-263,482	-140,931	-0,030	-0,002
-262,467	-43,747	0,120	0,043
-261,453	-57,555	-0,038	-0,012
-260,438	-3,529	-0,091	0,045
-259,424	-81,347	0,063	-0,015
-258,409	1,069	-0,060	0,030
-257,395	753,850	0,062	0,120
-256,380	-177,497	-0,032	-0,001
-255,365	-2,121	0,110	-0,055
-254,351	88,972	0,036	0,028
-253,336	-17,495	-0,136	-0,061
-252,322	800,000	-0,055	-0,144
-251,307	800,000	-0,058	0,174
-250,292	-200,000	0,046	-0,165
-249,278	50,350	-0,036	0,024
-248,263	95,213	0,062	-0,050
-247,249	391,281	-0,070	0,104
-246,234	-200,000	0,016	0,078
-245,219	148,343	0,080	-0,077
-244,205	-200,000	0,034	-0,109
-243,190	692,750	0,051	-0,095
-242,176	61,207	-0,049	0,034
-241,161	-138,420	0,049	-0,004
-240,146	-66,932	0,046	0,013
-239,132	800,000	-0,012	-0,024
-238,117	-200,000	0,020	-0,236
-237,103	437,682	-0,021	0,032
-236,088	165,117	0,017	0,017
-235,073	211,124	-0,097	-0,109
-234,059	-200,000	0,033	0,119
-233,044	7,771	0,143	0,076
-232,030	631,763	0,054	0,098
-231,015	800,000	-0,040	0,097
-230,000	-26,150	0,036	0,015
-228,986	59,237	0,152	-0,107
-227,971	-75,030	0,198	-0,050
-226,957	267,264	-0,029	-0,036
-225,942	-37,317	0,053	-0,020
-224,927	15,395	-0,061	0,034
-223,913	208,763	-0,083	-0,092
-222,898	272,315	-0,060	-0,075
-221,884	800,000	0,050	-0,103
-220,869	-152,612	0,119	-0,006
-219,855	-128,705	0,068	0,007
-218,840	-108,522	0,048	-0,007
-217,825	-200,000	0,003	-0,083
-216,811	31,035	-0,115	-0,070
-215,796	800,000	-0,032	-0,087
-214,782	45,835	-0,116	-0,076
-213,767	65,458	0,074	0,053
-212,752	800,000	0,051	0,136
-211,738	100,368	0,029	-0,024
-210,723	-52,059	0,094	-0,031
-209,709	182,683	-0,104	-0,109
-208,694	486,859	-0,105	0,171
-207,679	800,000	0,010	0,028
-206,665	-36,382	-0,156	0,059
-205,650	419,490	0,023	-0,035
-204,636	178,862	0,080	-0,083
-203,621	153,919	-0,051	0,049
-202,606	-133,167	0,076	0,007
-201,592	-13,697	-0,079	-0,036
-200,577	800,000	-0,088	-0,222
-199,563	800,000	-0,024	0,060
-198,548	-8,788	-0,049	0,023
-197,533	131,558	-0,021	0,019
-196,519	198,138	-0,093	0,101
-195,504	-90,845	-0,059	0,012
-194,490	-200,000	-0,015	-0,060
-193,475	-65,693	-0,139	-0,039
-192,460	-200,000	0,020	0,145
-191,446	49,817	-0,012	-0,008
-190,431	16,741	-0,018	-0,010
-189,417	-22,818	0,029	-0,012
-188,402	243,680	-0,065	-0,078
-187,387	29,498	-0,165	0,099
-186,373	-52,061	-0,058	0,019
-185,358	-200,000	-0,011	0,148
-184,344	-200,000	-0,003	0,066
-183,329	475,101	0,059	0,095
-182,315	-200,000	-0,039	0,219
-181,300	-200,000	0,017	0,057
-180,285	-78,225	0,043	-0,010
-179,271	-200,000	0,015	-0,063
-178,256	-200,000	-0,009	-0,042
-177,242	112,985	0,066	0,056
-176,227	-200,000	0,140	-0,000
-175,212	-200,000	0,029	0,110
-174,198	540,905	0,017	-0,029
-173,183	-200,000	0,006	-0,059
-172,169	-57,355	0,089	0,027
-171,154	-66,501	0,073	-0,020
-170,139	800,000	-0,041	0,084
-169,125	800,000	0,019	-0,060
-168,110	-113,903	0,083	0,011
-167,096	81,222	0,088	0,067
-166,081	-150,863	-0,065	0,003
-165,066	-68,817	-0,085	-0,023
-164,052	451,972	-0,020	0,031
-163,037	104,450	-0,039	0,032
-162,023	-47,731	0,043	-0,015
-161,008	-94,940	-0,071	-0,014
-159,993	800,000	-0,035	0,107
-158,979	221,892	-0,061	-0,070
-157,964	392,196	-0,118	-0,175
-156,950	-83,161	-0,091	-0,021
-155,935	-70,885	-0,039	0,010
-154,920	527,585	-0,028	-0,047
-153,906	1,864	-0,151	-0,077
-152,891	800,000	-0,018	-0,052
-151,877	19,768	-0,041	0,023
-150,862	287,713	-0,086	0,110
-149,847	-200,000	-0,011	-0,049
-148,833	81,782	0,083	-0,064
-147,818	800,000	0,013	0,038
-146,804	278,435	0,033	0,042
-145,789	357,782	0,159	0,226
-144,775	800,000	-0,066	0,191
-143,760	-200,000	0,019	-0,099
-142,745	-36,853	-0,074	-0,028
-141,731	12,529	-0,114	0,062
-140,716	155,112	0,035	-0,034
-139,702	800,000	0,025	-0,067
-138,687	800,000	0,078	0,225
-137,672	800,000	0,007	0,020
-136,658	4,872	-0,058	0,030
-135,643	113,592	-0,033	-0,028
-134,629	800,000	-0,053	-0,104
-133,614	-200,000	-0,037	0,135
-132,599	-200,000	0,015	-0,061
-131,585	189,408	-0,048	0,051
-130,570	-116,135	-0,097	-0,013
-129,556	448,927	0,029	-0,045
-128,541	-200,000	0,008	-0,102
-127,526	18,273	0,069	0,039
-126,512	542,937	-0,027	-0,046
-125,497	270,533	0,099	0,124
-124,483	-200,000	-0,039	0,165
-123,468	101,699	-0,065	0,054
-122,453	-200,000	-0,033	0,125
-121,439	26,489	0,026	0,016
-120,424	84,639	-0,045	-0,035
-119,410	-200,000	0,001	-0,012
-118,395	323,674	-0,052	0,071
-117,380	521,684	-0,069	0,115
-116,366	60,785	-0,021	-0,014
-115,351	-200,000	0,005	-0,033
-114,337	527,091	-0,053	-0,089
-113,322	56,591	-0,018	-0,012
-112,307	148,050	-0,072	-0,069
-111,293	120,666	0,030	-0,027
-110,278	-200,000	-0,022	0,106
-109,264	120,789	0,052	0,046
-108,249	-58,520	-0,118	0,036
-107,234	-200,000	0,005	-0,148
-106,220	-200,000	-0,004	0,076
-105,205	-163,376	0,098	-0,003
-104,191	-200,000	-0,042	0,180
-103,176	232,695	-0,095	-0,111
-102,162	-128,437	0,083	0,008
-101,147	800,000	0,017	0,041
-100,132	-200,000	0,020	-0,126
-99,118	-200,000	-0,001	0,037
-98,103	91,368	-0,065	-0,052
-97,089	-200,000	0,000	0,046
-96,074	-200,000	0,030	0,123
-95,059	800,000	0,082	0,172
-94,045	-104,738	-0,083	0,013
-93,030	486,741	-0,056	-0,090
-92,016	-200,000	-0,002	0,155
-91,001	-65,654	0,147	0,041
-89,986	800,000	-0,031	0,068
-88,972	766,990	0,069	0,133
-87,957	-200,000	0,002	0,027
-86,943	-189,754	0,055	0,000
-85,928	-26,285	-0,185	-0,076
-84,913	-58,703	0,074	0,023
-83,899	-200,000	0,017	-0,124
-82,884	-131,715	0,032	-0,003
-81,870	-200,000	-0,016	0,128
-80,855	-166,493	-0,030	0,001
-79,840	-52,858	-0,098	0,032
-78,826	-200,000	0,003	0,078
-77,811	-66,033	-0,025	-0,007
-76,797	-200,000	-0,006	0,092
-75,782	15,439	0,193	-0,107
-74,767	-200,000	-0,017	0,106
-73,753	-200,000	-0,017	-0,114
-72,738	59,625	0,094	0,065
-71,724	619,228	-0,067	-0,120
-70,709	184,359	-0,081	-0,085
-69,694	-200,000	0,008	-0,139
-68,680	-108,087	0,117	-0,018
-67,665	800,000	-0,014	-0,040
-66,651	800,000	-0,026	0,073
-65,636	145,965	0,017	0,016
-64,622	17,681	-0,128	0,071
-63,607	665,667	0,014	0,025
-62,592	554,456	0,027	-0,047
-61,578	200,490	-0,136	-0,147
-60,563	327,824	0,110	0,149
-59,549	-200,000	0,017	0,088
-58,534	17,845	-1,988	-1,115
-57,519	433,609	-1,327	-2,041
-56,505	-200,000	-0,183	-4,424
-55,490	393,088	0,787	1,160
-54,476	800,000	5,279	11,366
-53,461	-200,000	20,515	327,287
-52,446	800,000	752,034	2310,943
-51,432	549,994	1657,626	2817,537
-50,417	73,983	1663,656	1231,040
-49,403	19,223	1536,884	868,680
-48,388	13,216	1459,334	795,799
-47,373	18,744	1449,789	817,095
-46,359	16,142	1439,308	798,773
-45,344	11,501	1434,924	774,220
-44,330	11,387	1433,153	772,691
-43,315	11,419	1431,361	771,847
-42,300	11,443	1429,526	770,938
-41,286	11,459	1428,194	770,265
-40,271	11,420	1426,849	769,326
-39,257	11,425	1425,794	768,748
-38,242	11,465	1424,662	768,298
-37,227	11,482	1423,376	767,655
-36,213	11,431	1422,098	766,693
-35,198	11,466	1421,151	766,317
-34,184	11,515	1420,107	765,953
-33,169	11,448	1418,653	764,827
-32,154	11,489	1417,700	764,474
-31,140	11,526	1416,334	763,880
-30,125	11,549	1415,337	763,421
-29,111	11,524	1414,123	762,618
-28,096	11,510	1412,921	761,872
-27,082	11,438	1411,847	760,927
-26,067	11,406	1411,052	760,316
-25,052	11,463	1409,728	759,841
-24,038	11,444	1408,901	759,278
-23,023	11,422	1407,733	758,512
-22,009	11,399	1406,865	757,908
-20,994	11,385	1405,915	757,301
-19,979	11,404	1404,871	756,799
-18,965	11,379	1403,943	756,150
-17,950	11,404	1403,244	755,863
-16,936	11,375	1402,525	755,311
-15,921	11,339	1401,160	754,378
-14,906	11,331	1400,485	753,945
-13,892	11,390	1399,353	753,582
-12,877	11,326	1398,656	752,878
-11,863	11,345	1397,746	752,448
-10,848	11,321	1396,920	751,859
-9,833	11,318	1395,929	751,282
-8,819	11,229	1395,087	750,387
-7,804	11,190	1394,424	749,821
-6,790	11,245	1393,270	749,425
-5,775	11,259	1392,095	748,828
-4,760	11,267	1391,126	748,315
-3,746	11,249	1390,389	747,807
-2,731	11,232	1389,405	747,168
-1,717	11,184	1388,725	746,554
-0,702	11,195	1386,678	745,474
0,313	15,181	1301,816	718,130
1,327	31,555	694,733	420,569
2,342	48,802	120,825	79,846
3,356	1,411	16,530	8,358
4,371	-4,050	3,425	1,669
5,386	-10,181	0,662	0,309
6,400	-200,000	0,139	0,470
7,415	-139,482	-0,335	0,025
8,429	5,992	-0,396	-0,206
9,444	161,819	-0,284	-0,281
10,459	-59,414	-0,431	-0,130
11,473	20,474	-0,264	-0,150
12,488	106,105	-0,185	-0,154
13,502	-45,008	-0,265	-0,092
14,517	-10,336	-0,352	-0,164
15,531	89,278	-0,386	-0,303
16,546	117,581	-0,261	-0,226
17,561	54,124	-0,461	-0,312
18,575	-173,469	-0,145	-0,003
19,590	348,781	-0,224	-0,313
20,604	238,327	-0,203	-0,238
21,619	254,681	-0,368	-0,445
22,634	45,426	-0,390	-0,253
23,648	47,772	-0,451	-0,296
24,663	-14,327	-0,496	-0,224
25,677	90,835	-0,359	-0,283
26,692	89,081	-0,364	-0,286
27,707	31,826	-0,362	-0,219
28,721	-16,053	-0,467	-0,208
29,736	167,763	-0,303	-0,303
30,750	-3,098	-0,488	-0,239
31,765	152,674	-0,395	-0,380
32,780	386,534	-0,236	-0,344
33,794	23,591	-0,361	-0,209
34,809	18,302	-0,357	-0,200
35,823	39,463	-0,417	-0,262
36,838	-68,650	-0,481	-0,130
37,853	253,905	-0,351	-0,422
38,867	99,048	-0,423	-0,343
39,882	23,885	-0,398	-0,230
40,896	-12,958	-0,221	-0,101
41,911	264,096	-0,321	-0,393
42,926	83,675	-0,317	-0,243
43,940	253,337	-0,317	-0,381
44,955	133,503	-0,367	-0,333
45,969	122,000	-0,413	-0,362
46,984	302,012	-0,204	-0,266
47,999	-39,999	-0,252	-0,092
49,013	365,640	-0,182	-0,259
50,028	-51,030	-0,371	-0,122
51,042	435,689	-0,212	-0,325
52,057	82,051	-0,312	-0,237
53,071	178,750	-0,278	-0,285
54,086	78,873	-0,370	-0,278
55,101	-35,484	-0,527	-0,200
56,115	158,104	-0,284	-0,276
57,130	-133,851	-0,275	0,024
58,144	267,748	-0,257	-0,316
59,159	88,859	-0,394	-0,307
60,174	110,390	-0,349	-0,294
61,188	-11,048	-0,457	-0,211
62,203	125,496	-0,264	-0,234
63,217	-83,103	-0,478	-0,107
64,232	-33,682	-0,387	-0,149
65,247	23,714	-0,341	-0,197
66,261	127,836	-0,251	-0,224
67,276	267,716	-0,328	-0,404
68,290	-12,094	-0,345	-0,158
69,305	197,319	-0,295	-0,317
70,320	-27,515	-0,418	-0,170
71,334	57,714	-0,304	-0,208
72,349	-49,595	-0,361	-0,120
73,363	113,123	-0,245	-0,208
74,378	128,272	-0,271	-0,242
75,393	106,896	-0,309	-0,257
76,407	43,673	-0,328	-0,210
77,422	10,079	-0,130	-0,069
78,436	88,754	-0,235	-0,183
79,451	-79,061	-0,357	-0,084
80,466	-11,741	-0,254	-0,116
81,480	-136,988	-0,295	-0,023
82,495	126,392	-0,198	-0,176
83,509	800,000	-0,126	-0,323
84,524	269,045	-0,228	-0,281
85,539	318,625	-0,141	-0,187
86,553	204,111	-0,199	-0,216
87,568	47,812	-0,243	-0,158
88,582	196,033	-0,190	-0,202
89,597	55,324	-0,290	-0,196
90,611	172,641	-0,217	-0,218
91,626	-74,352	-0,281	-0,070
92,641	108,997	-0,192	-0,161
93,655	-10,138	-0,363	-0,168
94,670	107,400	-0,245	-0,204
95,684	147,063	-0,258	-0,243
96,699	380,353	-0,304	-0,437
97,714	42,853	-0,253	-0,161
98,728	215,020	-0,191	-0,212
99,743	121,805	-0,202	-0,176
100,757	230,146	-0,229	-0,263
101,772	458,481	-0,207	-0,323
102,787	-16,229	-0,326	-0,144
103,801	366,561	-0,162	-0,229
104,816	800,000	-0,124	-0,287
105,830	120,218	-0,125	-0,109
106,845	173,452	-0,127	-0,128
107,860	-13,746	-0,262	-0,118
108,874	7,301	-0,294	-0,153
109,889	-55,079	-0,440	-0,138
110,903	-66,667	-0,342	-0,094
111,918	54,159	-0,249	-0,167
112,933	43,541	-0,275	-0,176
113,947	0,896	-0,230	-0,115
114,962	124,977	-0,279	-0,246
115,976	205,071	-0,161	-0,175
116,991	-91,174	-0,336	-0,067
118,006	89,998	-0,286	-0,223
119,020	22,075	-0,183	-0,104
120,035	86,224	-0,195	-0,150
121,049	-108,953	-0,228	0,034
122,064	132,016	-0,182	-0,164
123,079	-39,701	-0,352	-0,128
124,093	48,898	-0,188	-0,123
125,108	33,279	-0,337	-0,203
126,122	48,327	-0,242	-0,158
127,137	-12,018	-0,226	-0,103
128,151	598,608	-0,121	-0,210
129,166	-16,698	-0,177	-0,078
130,181	19,736	-0,342	-0,192
131,195	65,686	-0,267	-0,189
132,210	-28,245	-0,275	-0,110
133,224	15,698	-0,089	-0,049
134,239	-35,348	-0,289	-0,109
135,254	114,738	-0,224	-0,191
136,268	43,674	-0,231	-0,147
137,283	79,488	-0,319	-0,238
138,297	-97,505	-0,316	-0,057
139,312	28,377	-0,201	-0,118
140,327	-37,453	-0,353	-0,131
141,341	95,392	-0,185	-0,147
142,356	-165,903	-0,288	-0,008
143,370	-178,768	-0,201	0,003
144,385	-39,704	-0,228	-0,083
145,400	-104,761	-0,394	-0,063
146,414	32,000	-0,221	-0,132
147,429	-86,663	-0,375	-0,079
148,443	74,724	-0,257	-0,188
149,458	-105,829	-0,163	-0,025
150,473	18,457	-0,253	-0,140
151,487	-3,651	-0,248	-0,120
152,502	-7,648	-0,294	-0,138
153,516	226,837	-0,277	-0,314
154,531	76,235	-0,173	-0,127
155,546	32,383	-0,331	-0,199
156,560	8,568	-0,204	-0,107
157,575	77,677	-0,274	-0,203
158,589	14,965	-0,279	-0,152
159,604	9,592	-0,346	-0,182
160,619	165,119	-0,286	-0,281
161,633	251,307	-0,176	-0,209
162,648	-19,502	-0,235	-0,101
163,662	7,292	-0,076	-0,039
164,677	800,000	-0,074	-0,157
165,692	72,513	-0,278	-0,201
166,706	176,184	-0,201	-0,203
167,721	96,916	-0,234	-0,186
168,735	69,508	-0,280	-0,200
169,750	114,778	-0,160	-0,136
170,764	16,165	-0,251	-0,137
171,779	-67,325	-0,288	-0,078
172,794	93,762	-0,111	-0,087
173,808	159,508	-0,246	-0,238
174,823	107,538	-0,253	-0,209
175,837	-31,637	-0,173	-0,067
176,852	84,543	-0,222	-0,169
177,867	525,528	-0,097	-0,159
178,881	119,925	-0,220	-0,190
179,896	584,107	-0,125	-0,213
180,910	-18,725	-0,176	-0,076
181,925	358,076	-0,166	-0,231
182,940	266,492	-0,214	-0,260
183,954	35,788	-0,211	-0,129
184,969	23,846	-0,247	-0,141
185,983	91,511	-0,168	-0,131
186,998	176,914	-0,121	-0,122
188,013	18,296	-0,341	-0,188
189,027	43,700	-0,206	-0,130
190,042	152,200	-0,221	-0,210
191,056	140,734	-0,290	-0,266
192,071	81,967	-0,184	-0,138
193,086	773,592	-0,083	-0,157
194,100	-140,409	-0,171	-0,012
195,115	91,068	-0,174	-0,135
196,129	370,073	-0,162	-0,229
197,144	5,098	-0,227	-0,115
198,159	193,627	-0,162	-0,170
199,173	400,079	-0,052	-0,075
200,188	13,043	-0,164	-0,087
201,202	140,909	-0,150	-0,138
202,217	-128,187	-0,143	-0,014
203,232	-70,076	-0,313	-0,082
204,246	-33,960	-0,437	-0,166
205,261	31,252	-0,183	-0,109
206,275	3,502	-0,157	-0,079
207,290	-55,908	-0,187	-0,057
208,304	-44,029	-0,129	0,045
209,319	29,864	-0,290	-0,171
210,334	-98,091	-0,275	-0,049
211,348	359,824	-0,233	-0,325
212,363	86,187	-0,246	-0,187
213,377	-112,200	-0,270	-0,037
214,392	12,786	-0,166	-0,088
215,407	-74,016	-0,068	-0,017
216,421	234,175	-0,218	-0,249
217,436	219,827	-0,212	-0,236
218,450	-122,999	-0,235	-0,026
219,465	23,603	-0,259	-0,147
220,480	326,983	-0,162	-0,215
221,494	-103,583	-0,088	0,014
222,509	91,820	-0,277	-0,215
223,523	77,272	-0,255	-0,187
224,538	5,538	-0,112	-0,057
225,553	250,392	-0,186	-0,219
226,567	580,751	-0,110	-0,187
227,582	137,577	-0,279	-0,253
228,596	-114,109	-0,152	-0,020
229,611	-108,610	-0,112	0,017
230,626	-65,050	-0,212	-0,059
231,640	45,965	-0,210	-0,134
232,655	29,493	-0,239	-0,140
233,669	113,529	-0,209	-0,175
234,684	79,441	-0,195	-0,145
235,699	-40,572	-0,327	-0,117
236,713	231,776	-0,142	-0,162
237,728	327,739	-0,151	-0,200
238,742	198,966	-0,120	-0,127
239,757	800,000	-0,131	-0,283
240,772	170,059	-0,232	-0,229
241,786	587,060	-0,090	-0,154
242,801	73,249	-0,117	-0,084
243,815	-50,494	-0,245	-0,079
244,830	47,446	-0,166	-0,106
245,844	63,946	-0,265	-0,183
246,859	29,315	-0,156	-0,091
247,874	-99,717	-0,216	-0,037
248,888	132,788	-0,169	-0,150
249,903	67,841	-0,242	-0,171
250,917	67,693	-0,117	-0,083
251,932	-127,498	-0,204	0,020
252,947	-70,872	-0,187	-0,048
253,961	-0,983	-0,169	-0,082
254,976	233,502	-0,203	-0,231
255,990	-25,145	-0,297	-0,121
257,005	800,000	-0,069	-0,153
258,020	-112,892	-0,145	-0,020
259,034	35,650	-0,203	-0,123
260,049	-176,840	-0,063	0,001
261,063	-149,539	-0,183	-0,010
262,078	-53,431	-0,208	-0,065
263,093	32,356	-0,228	-0,136
264,107	154,421	-0,141	-0,134
265,122	-200,000	-0,012	-0,125
266,136	95,459	-0,176	-0,138
267,151	245,349	-0,123	-0,143
268,166	324,203	-0,162	-0,214
269,180	146,099	-0,179	-0,165
270,195	26,089	-0,283	-0,162
271,209	66,465	-0,159	-0,111
272,224	27,933	-0,212	-0,123
273,239	19,313	-0,029	-0,016
274,253	94,444	-0,149	-0,117
275,268	543,889	-0,136	-0,225
276,282	30,549	-0,258	-0,152
277,297	415,806	-0,205	-0,302
278,312	464,437	-0,120	-0,185
279,326	141,152	-0,130	-0,118
280,341	219,646	-0,119	-0,131
281,355	-42,969	-0,136	0,047
282,370	-87,065	-0,166	0,034
283,384	800,000	-0,068	-0,198
284,399	21,897	-0,144	-0,081
285,414	46,699	-0,123	-0,079
286,428	124,836	-0,195	-0,169
287,443	-200,000	-0,009	-0,043
288,457	205,450	-0,151	-0,162
289,472	-31,397	-0,144	-0,055
290,487	428,940	-0,215	-0,320
291,501	-17,361	-0,251	-0,108
292,516	-37,785	-0,200	-0,073
293,530	256,913	-0,093	-0,110
294,545	-24,548	-0,194	-0,079
295,560	7,816	-0,142	-0,073
296,574	-9,748	-0,170	-0,078
297,589	-125,327	-0,138	-0,014
298,603	387,432	-0,097	-0,139
299,618	220,725	-0,177	-0,196
300,633	24,263	-0,167	-0,095
301,647	85,176	-0,078	-0,059
302,662	-80,674	-0,220	-0,050
303,676	800,000	-0,089	-0,193
304,691	-35,925	-0,152	-0,056
305,706	345,827	-0,095	-0,128
306,720	23,946	-0,221	-0,125
307,735	215,815	-0,139	-0,152
308,749	424,386	-0,154	-0,229
309,764	800,000	-0,084	-0,184
310,779	-200,000	-0,025	-0,157
311,793	-49,920	-0,253	-0,082
312,808	-111,118	-0,144	-0,020
313,822	-13,420	-0,135	-0,060
314,837	-157,714	-0,097	-0,004
315,852	-35,749	-0,203	0,075
316,866	105,366	-0,174	-0,141
317,881	-107,300	-0,096	-0,014
318,895	237,519	-0,094	-0,107
319,910	108,112	-0,126	-0,103
320,925	186,162	-0,145	-0,148
321,939	800,000	-0,049	-0,147
322,954	-77,637	-0,203	-0,048
323,968	57,806	-0,077	0,052
324,983	-141,041	-0,186	-0,013
325,997	-47,032	-0,090	0,030
327,012	49,868	-0,221	-0,142
328,027	753,264	-0,127	-0,237
329,041	70,502	-0,194	-0,137
330,056	-21,895	-0,150	-0,062
331,070	134,279	-0,136	-0,121
332,085	10,910	-0,239	-0,125
333,100	106,076	-0,171	-0,139
334,114	22,534	-0,162	-0,091
335,129	276,137	-0,199	-0,243
336,143	-46,624	-0,241	-0,081
337,158	-118,320	-0,074	-0,009
338,173	187,082	-0,125	-0,127
339,187	-21,523	-0,097	0,041
340,202	-106,904	-0,112	-0,017
341,216	-91,290	-0,177	-0,034
342,231	-109,587	-0,134	0,019
343,246	-200,000	-0,039	-0,184
344,260	268,188	-0,103	-0,124
345,275	-33,749	-0,183	0,069
346,289	220,411	-0,173	-0,190
347,304	-179,821	-0,052	-0,001
348,319	181,325	-0,147	-0,148
349,333	800,000	-0,022	-0,053
350,348	-200,000	-0,057	-0,175
351,362	409,142	-0,096	-0,139
352,377	-173,879	-0,082	-0,002
353,392	161,959	-0,092	-0,088
354,406	-200,000	-0,048	-0,196
355,421	207,619	1309,624	1400,224
356,435	159,724	1469,712	1400,719
