DTS Sentinel unit serial number:	SN410029Multiplexer serial number:	ORYXHardware model number:	OX2-SRSoftware version number:	ORYX F/W v4,00 Oryx Data Collector v3.7.2.0data status	okinstallation	B3 Nyhavnadifferential loss correction	single-endedforward channel	channel 1reverse channel	N/Adate	2023/11/29time	08:42:30forward acquisition time	300,00reverse acquisition time	0,00gamma	499,1914k internal	0,3212k external	0,3212temperature offset calibration	1,0000default loss term (dB/km)	0,3820temperature slope calibration	1,0000multiplexer offset coefficient	1,0000multiplexer slope coefficient	1,0000fibre end	0,00T internal ref (°C)	8,93T ext. ref 1 (°C)	-5,82T ext. ref 2 (°C)	-5,92length (m)	temperature (°C)	Stokes	anti-Stokes-744,400	800,000	-0,115	-0,334
-743,385	-200,000	0,029	0,299
-742,371	434,628	-0,044	-0,069
-741,356	800,000	0,156	0,321
-740,342	85,593	-0,245	-0,195
-739,327	-200,000	0,041	0,236
-738,312	154,268	-0,268	-0,266
-737,298	-200,000	-0,006	0,191
-736,283	236,604	-0,196	-0,235
-735,269	-200,000	0,030	0,260
-734,254	405,008	-0,147	-0,225
-733,239	-84,266	-0,177	0,040
-732,225	782,760	-0,138	-0,275
-731,210	18,914	0,081	0,047
-730,196	16,536	-0,087	-0,049
-729,181	-27,405	-0,185	-0,077
-728,167	119,388	-0,064	-0,057
-727,152	-200,000	-0,001	0,024
-726,137	-200,000	0,020	-0,126
-725,123	55,925	-0,118	-0,082
-724,108	236,869	-0,102	0,123
-723,094	-37,055	-0,158	-0,061
-722,079	-187,116	-0,165	-0,002
-721,064	-121,122	-0,071	-0,009
-720,050	-59,809	0,017	-0,005
-719,035	-200,000	-0,030	-0,133
-718,021	64,124	-0,086	-0,063
-717,006	-82,051	-0,057	-0,013
-715,991	-200,000	-0,060	-0,224
-714,977	-56,912	-0,079	-0,025
-713,962	-200,000	0,003	0,029
-712,948	-200,000	-0,010	-0,059
-711,933	636,361	-0,020	-0,037
-710,918	800,000	0,037	-0,084
-709,904	-200,000	-0,018	-0,088
-708,889	31,140	-0,078	-0,048
-707,875	-70,789	-0,090	0,025
-706,860	-200,000	-0,028	-0,092
-705,845	118,257	-0,124	-0,110
-704,831	293,001	-0,062	-0,082
-703,816	-2,274	-0,043	-0,022
-702,802	184,849	-0,062	0,066
-701,787	4,976	-0,035	-0,018
-700,772	138,687	0,014	-0,013
-699,758	-200,000	-0,021	0,114
-698,743	-1,027	0,135	-0,069
-697,729	-200,000	0,002	-0,177
-696,714	-25,486	0,088	0,037
-695,699	-85,416	-0,085	0,019
-694,685	-2,874	0,064	-0,032
-693,670	176,006	0,145	-0,152
-692,656	188,834	-0,044	0,048
-691,641	800,000	-0,009	-0,030
-690,627	-168,426	-0,128	0,003
-689,612	148,013	0,029	-0,028
-688,597	-8,926	-0,019	-0,009
-687,583	307,275	-0,036	-0,049
-686,568	102,628	0,107	0,091
-685,554	8,384	-0,155	-0,084
-684,539	-200,000	0,045	0,201
-683,524	327,806	0,068	-0,094
-682,510	232,039	-0,055	0,065
-681,495	554,154	-0,043	0,075
-680,481	1,264	0,146	0,076
-679,466	800,000	-0,037	-0,101
-678,451	354,551	0,103	-0,148
-677,437	-200,000	-0,001	-0,149
-676,422	-200,000	-0,012	0,076
-675,408	-19,041	-0,118	-0,053
-674,393	193,148	-0,058	0,063
-673,378	-200,000	0,024	-0,097
-672,364	-37,455	-0,077	0,030
-671,349	43,285	0,079	-0,052
-670,335	651,867	0,034	0,064
-669,320	88,394	0,120	-0,096
-668,305	-108,229	0,120	-0,019
-667,291	34,006	-0,057	0,036
-666,276	113,953	-0,097	-0,085
-665,262	-200,000	-0,010	-0,133
-664,247	-97,560	0,090	-0,017
-663,232	345,070	0,046	0,066
-662,218	-119,384	-0,061	-0,008
-661,203	70,641	-0,036	-0,027
-660,189	-200,000	-0,000	0,058
-659,174	-28,410	-0,141	0,059
-658,159	6,462	-0,121	0,065
-657,145	-200,000	-0,026	-0,188
-656,130	113,311	-0,032	-0,028
-655,116	441,904	0,101	0,161
-654,101	396,073	0,088	0,133
-653,086	-200,000	0,014	-0,105
-652,072	-104,683	-0,176	0,029
-651,057	-145,983	-0,142	-0,009
-650,043	-200,000	-0,027	-0,141
-649,028	-200,000	-0,001	-0,040
-648,014	21,606	0,031	0,018
-646,999	151,254	-0,050	0,049
-645,984	800,000	0,034	0,080
-644,970	-200,000	-0,017	0,121
-643,955	-176,228	-0,170	0,003
-642,941	162,460	0,053	-0,054
-641,926	161,388	0,047	-0,048
-640,911	-49,295	-0,118	0,040
-639,897	22,228	0,116	0,068
-638,882	-66,124	-0,141	0,040
-637,868	179,842	-0,057	-0,060
-636,853	-200,000	-0,038	-0,122
-635,838	40,429	-0,184	0,119
-634,824	106,635	0,049	-0,042
-633,809	-97,922	0,119	-0,022
-632,795	-200,000	-0,017	-0,129
-631,780	-170,927	-0,130	0,003
-630,765	547,141	-0,057	0,098
-629,751	-200,000	-0,040	-0,171
-628,736	173,820	-0,098	-0,102
-627,722	-200,000	0,025	-0,166
-626,707	-200,000	-0,012	0,143
-625,692	-5,365	0,131	0,065
-624,678	221,198	-0,093	-0,108
-623,663	-40,633	-0,039	0,015
-622,649	64,771	0,003	0,002
-621,634	-115,692	0,046	0,006
-620,619	-155,121	0,076	-0,004
-619,605	87,043	0,057	0,046
-618,590	666,931	0,016	0,030
-617,576	-132,474	-0,094	0,009
-616,561	-200,000	0,007	-0,097
-615,546	800,000	0,024	-0,059
-614,532	-161,575	-0,062	-0,002
-613,517	-200,000	0,010	-0,044
-612,503	24,713	-0,117	-0,070
-611,488	-54,616	0,186	0,060
-610,474	-200,000	-0,044	0,148
-609,459	-90,613	0,036	-0,007
-608,444	-200,000	-0,003	-0,076
-607,430	498,635	-0,052	-0,086
-606,415	-114,168	0,041	-0,006
-605,401	769,880	-0,054	-0,106
-604,386	300,349	-0,066	0,087
-603,371	800,000	0,007	0,014
-602,357	21,841	-0,064	-0,037
-601,342	342,029	-0,104	-0,147
-600,328	194,066	-0,068	-0,075
-599,313	24,743	-0,043	0,025
-598,298	-200,000	0,034	0,123
-597,284	421,757	-0,071	0,111
-596,269	136,118	0,114	0,108
-595,255	124,086	0,108	0,097
-594,240	250,255	0,018	-0,021
-593,225	800,000	-0,031	-0,098
-592,211	300,843	0,037	0,049
-591,196	17,557	-0,119	0,068
-590,182	-200,000	0,020	0,124
-589,167	-59,361	0,118	0,036
-588,152	304,120	-0,087	0,116
-587,138	800,000	0,062	-0,181
-586,123	-39,400	-0,109	0,041
-585,109	800,000	0,008	-0,023
-584,094	-200,000	0,002	-0,023
-583,079	-103,372	-0,107	-0,018
-582,065	-200,000	0,038	0,123
-581,050	-107,092	0,077	-0,012
-580,036	565,667	0,005	0,009
-579,021	354,478	0,020	0,028
-578,006	87,609	0,033	0,026
-576,992	596,486	0,018	-0,033
-575,977	-78,453	0,161	-0,040
-574,963	48,872	-0,044	0,030
-573,948	-86,631	-0,111	0,024
-572,934	800,000	-0,019	0,055
-571,919	-93,025	-0,057	-0,011
-570,904	111,169	-0,060	0,052
-569,890	-142,333	0,050	0,003
-568,875	142,159	-0,132	0,127
-567,861	-183,592	-0,091	0,001
-566,846	665,943	-0,040	0,075
-565,831	-200,000	0,009	-0,046
-564,817	-200,000	0,012	-0,086
-563,802	800,000	-0,067	-0,141
-562,788	-89,882	-0,108	-0,022
-561,773	17,022	0,042	-0,024
-560,758	133,086	0,048	-0,045
-559,744	-200,000	0,029	0,100
-558,729	-72,479	0,085	0,022
-557,715	-12,737	-0,067	0,031
-556,700	-51,843	-0,117	-0,039
-555,685	70,203	0,041	0,030
-554,671	-16,864	-0,071	0,032
-553,656	16,988	-0,079	-0,045
-552,642	-77,579	0,101	0,025
-551,627	-97,213	-0,042	-0,008
-550,612	-97,852	0,101	-0,019
-549,598	-200,000	-0,023	-0,091
-548,583	1,395	-0,031	-0,016
-547,569	-200,000	0,004	-0,116
-546,554	-59,695	0,172	0,053
-545,539	200,909	-0,028	0,031
-544,525	-121,787	-0,042	-0,005
-543,510	506,060	-0,055	-0,093
-542,496	391,016	0,085	-0,127
-541,481	-3,892	-0,108	0,054
-540,466	-101,723	0,051	-0,009
-539,452	800,000	0,056	0,147
-538,437	-200,000	0,054	0,204
-537,423	-157,234	0,020	-0,001
-536,408	-157,862	-0,018	0,001
-535,393	66,537	0,020	0,015
-534,379	40,571	-0,059	-0,038
-533,364	18,008	-0,016	0,009
-532,350	407,691	0,056	0,085
-531,335	-200,000	-0,012	-0,055
-530,321	-119,281	-0,064	-0,008
-529,306	-111,959	0,146	0,021
-528,291	-115,547	-0,150	0,020
-527,277	-146,848	-0,136	-0,008
-526,262	669,854	-0,095	0,178
-525,248	-26,869	0,051	-0,021
-524,233	171,997	0,118	0,122
-523,218	-27,463	0,017	0,007
-522,204	139,946	-0,043	0,040
-521,189	-66,275	-0,106	-0,030
-520,175	451,072	-0,096	-0,153
-519,160	456,446	0,034	-0,054
-518,145	-66,324	0,038	-0,011
-517,131	244,016	0,034	0,041
-516,116	336,559	0,053	0,073
-515,102	800,000	-0,021	0,054
-514,087	36,903	0,025	-0,016
-513,072	269,710	0,077	-0,097
-512,058	408,363	-0,056	-0,085
-511,043	-115,636	0,110	0,015
-510,029	-200,000	-0,025	-0,095
-509,014	119,966	0,143	0,128
-507,999	-98,446	-0,112	0,020
-506,985	-128,073	-0,131	0,013
-505,970	-200,000	-0,026	-0,102
-504,956	-19,602	0,065	-0,029
-503,941	-122,062	-0,145	-0,017
-502,926	-200,000	0,017	0,068
-501,912	44,688	0,009	-0,006
-500,897	-200,000	0,000	-0,075
-499,883	-92,921	0,009	0,002
-498,868	-1,812	0,052	-0,026
-497,853	56,340	0,141	0,098
-496,839	86,701	0,077	-0,061
-495,824	510,408	0,051	-0,086
-494,810	-200,000	-0,010	-0,140
-493,795	-137,499	0,142	0,011
-492,781	-81,049	-0,064	-0,015
-491,766	-200,000	-0,007	0,150
-490,751	-200,000	-0,017	0,156
-489,737	-2,761	0,019	0,010
-488,722	-112,361	0,134	0,019
-487,708	-90,840	-0,065	0,013
-486,693	299,416	0,052	0,068
-485,678	83,546	-0,114	0,089
-484,664	800,000	0,047	-0,128
-483,649	71,427	-0,122	0,091
-482,635	800,000	0,039	-0,088
-481,620	72,063	0,076	-0,057
-480,605	-31,944	-0,122	-0,049
-479,591	-149,874	0,066	-0,004
-478,576	-27,588	-0,100	0,041
-477,562	252,354	0,060	0,073
-476,547	-12,125	0,067	0,031
-475,532	-44,784	-0,121	-0,043
-474,518	16,879	-0,045	-0,026
-473,503	-90,917	0,105	0,022
-472,489	137,070	-0,101	-0,094
-471,474	794,380	-0,036	0,071
-470,459	-188,467	0,097	-0,001
-469,445	103,216	0,141	0,118
-468,430	-121,863	-0,070	-0,008
-467,416	274,943	-0,026	0,033
-466,401	-1,191	0,067	0,034
-465,386	-200,000	0,001	0,049
-464,372	345,903	0,055	0,078
-463,357	-200,000	-0,019	0,123
-462,343	-165,668	-0,121	0,004
-461,328	-200,000	0,012	-0,072
-460,313	155,339	0,127	0,125
-459,299	-200,000	0,002	0,083
-458,284	-200,000	0,009	-0,067
-457,270	-31,450	-0,103	-0,041
-456,255	-12,474	-0,183	-0,085
-455,241	297,079	-0,021	0,028
-454,226	-200,000	0,001	-0,066
-453,211	263,553	-0,007	-0,008
-452,197	74,048	0,137	-0,103
-451,182	-44,437	-0,090	0,032
-450,168	527,849	-0,028	0,048
-449,153	-26,862	-0,092	-0,038
-448,138	-200,000	0,024	-0,077
-447,124	-57,000	-0,201	-0,063
-446,109	-153,352	-0,071	0,003
-445,095	127,873	0,104	0,095
-444,080	-200,000	0,014	0,072
-443,065	800,000	0,033	0,101
-442,051	598,259	-0,045	-0,081
-441,036	-200,000	-0,003	0,068
-440,022	-120,394	0,023	-0,003
-439,007	-95,875	0,080	-0,015
-437,992	420,667	0,011	-0,017
-436,978	-19,385	0,036	0,016
-435,963	73,308	-0,069	0,051
-434,949	-200,000	0,022	0,127
-433,934	-200,000	-0,012	-0,040
-432,919	203,086	0,059	-0,066
-431,905	-139,361	-0,075	-0,006
-430,890	45,907	-0,041	0,027
-429,876	-85,615	0,033	-0,007
-428,861	52,573	0,076	-0,052
-427,846	-200,000	0,038	-0,135
-426,832	314,714	-0,041	-0,056
-425,817	-27,927	-0,029	-0,012
-424,803	800,000	-0,015	0,040
-423,788	29,173	0,123	0,074
-422,773	800,000	0,028	0,066
-421,759	-200,000	0,049	0,185
-420,744	283,909	0,034	0,043
-419,730	24,566	0,086	-0,051
-418,715	325,806	0,077	-0,106
-417,701	2,947	0,111	-0,058
-416,686	800,000	-0,051	-0,122
-415,671	-55,996	0,008	0,003
-414,657	73,831	0,074	-0,055
-413,642	800,000	-0,017	0,033
-412,628	-200,000	-0,052	-0,211
-411,613	273,898	-0,088	-0,112
-410,598	184,003	0,095	-0,100
-409,584	7,727	-0,117	-0,062
-408,569	-88,900	0,120	-0,025
-407,555	51,651	0,138	-0,094
-406,540	376,410	-0,076	-0,111
-405,525	232,046	0,052	0,061
-404,511	-57,493	-0,135	-0,042
-403,496	800,000	0,010	0,023
-402,482	-69,595	0,104	0,028
-401,467	198,846	0,057	0,063
-400,452	-24,532	-0,069	0,029
-399,438	438,207	-0,032	-0,049
-398,423	-108,691	-0,070	0,011
-397,409	-39,647	-0,025	-0,009
-396,394	-200,000	-0,036	-0,120
-395,379	184,227	0,061	-0,064
-394,365	-200,000	-0,003	0,051
-393,350	19,320	0,091	-0,052
-392,336	-200,000	-0,022	0,111
-391,321	-61,072	-0,053	-0,016
-390,306	-41,739	-0,024	-0,009
-389,292	60,560	-0,181	-0,128
-388,277	-11,606	0,153	-0,071
-387,263	-200,000	-0,024	0,125
-386,248	27,945	-0,105	0,063
-385,233	-173,187	-0,049	-0,001
-384,219	-144,470	0,110	0,007
-383,204	-67,266	-0,085	0,024
-382,190	-43,173	-0,122	0,044
-381,175	-64,865	0,097	-0,028
-380,160	-1,010	-0,021	0,010
-379,146	800,000	0,032	0,083
-378,131	4,618	-0,041	0,022
-377,117	-79,357	-0,126	-0,030
-376,102	58,625	0,033	-0,023
-375,088	-89,145	-0,033	-0,007
-374,073	87,075	-0,039	-0,031
-373,058	172,806	0,127	0,131
-372,044	-124,852	0,221	0,024
-371,029	-200,000	-0,052	0,180
-370,015	330,611	0,118	0,162
-369,000	412,249	0,056	-0,085
-367,985	198,812	-0,028	-0,031
-366,971	-200,000	0,005	0,043
-365,956	280,079	0,042	-0,054
-364,942	-200,000	0,011	0,040
-363,927	376,710	-0,034	-0,050
-362,912	-200,000	0,016	0,083
-361,898	-200,000	0,014	-0,089
-360,883	800,000	-0,040	0,080
-359,869	-0,588	-0,184	-0,093
-358,854	-126,971	0,100	0,010
-357,839	656,096	0,039	0,072
-356,825	-17,830	0,105	0,047
-355,810	0,534	0,075	0,038
-354,796	-94,972	0,085	0,016
-353,781	-200,000	0,027	-0,129
-352,766	266,473	-0,031	0,039
-351,752	10,416	0,099	0,054
-350,737	800,000	0,021	0,044
-349,723	800,000	0,040	0,080
-348,708	29,907	-0,080	-0,048
-347,693	-200,000	0,004	0,087
-346,679	-152,876	-0,045	-0,002
-345,664	42,689	-0,134	0,087
-344,650	-114,614	0,037	-0,005
-343,635	2,439	0,073	0,037
-342,620	584,319	0,058	0,102
-341,606	-105,097	-0,090	-0,015
-340,591	-200,000	0,011	-0,096
-339,577	144,120	0,087	-0,083
-338,562	-200,000	-0,044	-0,152
-337,548	-200,000	0,008	-0,059
-336,533	-200,000	0,006	0,030
-335,518	526,487	-0,027	0,046
-334,504	35,401	0,078	0,049
-333,489	396,615	-0,076	-0,114
-332,475	-200,000	-0,001	0,089
-331,460	800,000	-0,039	-0,106
-330,445	-200,000	0,012	0,068
-329,431	-166,179	0,103	0,003
-328,416	-200,000	0,024	0,090
-327,402	449,449	-0,086	-0,136
-326,387	-45,266	-0,038	0,013
-325,372	530,000	-0,038	-0,064
-324,358	641,948	-0,101	-0,185
-323,343	116,663	0,105	-0,092
-322,329	618,140	-0,061	-0,109
-321,314	-20,849	0,178	0,078
-320,299	-1,990	0,073	0,037
-319,285	340,456	0,101	0,141
-318,270	466,418	-0,069	0,110
-317,256	-122,674	-0,079	0,009
-316,241	-71,876	0,127	0,033
-315,226	-200,000	0,015	-0,060
-314,212	435,764	-0,104	0,161
-313,197	-29,635	-0,081	0,033
-312,183	182,125	0,044	-0,046
-311,168	385,618	-0,101	0,149
-310,153	-200,000	0,019	-0,116
-309,139	800,000	-0,005	-0,014
-308,124	311,852	-0,079	0,106
-307,110	-131,116	0,087	-0,008
-306,095	109,180	0,096	0,082
-305,080	43,322	-0,072	0,047
-304,066	68,309	-0,055	0,040
-303,051	-200,000	-0,002	-0,029
-302,037	24,720	-0,091	-0,053
-301,022	156,208	0,041	-0,041
-300,008	197,162	0,044	-0,047
-298,993	137,762	-0,076	-0,071
-297,978	-93,297	0,071	0,014
-296,964	34,031	0,064	-0,039
-295,949	272,132	0,049	-0,062
-294,935	-82,973	0,176	-0,040
-293,920	78,055	0,068	-0,051
-292,905	-98,502	0,178	0,032
-291,891	-152,870	-0,047	-0,002
-290,876	-119,183	0,078	-0,010
-289,862	-52,279	0,053	-0,017
-288,847	214,169	-0,055	0,062
-287,832	800,000	-0,032	-0,100
-286,818	167,659	-0,051	-0,051
-285,803	-111,399	0,069	0,010
-284,789	516,405	0,053	-0,088
-283,774	-200,000	-0,054	0,183
-282,759	800,000	-0,017	0,038
-281,745	404,911	0,022	-0,032
-280,730	-146,891	-0,147	-0,009
-279,716	66,224	0,052	0,037
-278,701	-166,623	-0,145	-0,004
-277,686	592,787	-0,034	0,061
-276,672	-200,000	0,012	-0,072
-275,657	151,147	-0,070	-0,067
-274,643	-200,000	-0,020	-0,082
-273,628	34,178	-0,110	-0,068
-272,613	366,270	0,080	0,116
-271,599	-90,830	-0,140	-0,028
-270,584	-200,000	0,012	-0,049
-269,570	-200,000	-0,038	-0,165
-268,555	-200,000	-0,028	-0,126
-267,540	800,000	-0,024	0,068
-266,526	161,693	-0,093	-0,092
-265,511	-200,000	-0,039	-0,126
-264,497	-41,081	-0,119	0,044
-263,482	704,330	0,057	0,108
-262,467	562,926	-0,013	-0,022
-261,453	-127,023	-0,042	0,004
-260,438	800,000	0,031	-0,080
-259,424	-32,813	0,097	-0,038
-258,409	65,113	0,025	-0,018
-257,395	-200,000	-0,003	-0,060
-256,380	-66,905	-0,071	-0,020
-255,365	-200,000	0,036	0,132
-254,351	344,059	-0,015	-0,021
-253,336	-200,000	0,038	-0,150
-252,322	295,191	0,036	-0,047
-251,307	-200,000	-0,008	-0,050
-250,292	-200,000	-0,001	0,185
-249,278	133,693	0,191	0,176
-248,263	-105,050	0,117	-0,019
-247,249	800,000	-0,054	-0,123
-246,234	800,000	0,036	-0,073
-245,219	165,208	-0,042	-0,043
-244,205	71,478	0,066	-0,049
-243,190	-41,002	0,052	0,019
-242,176	-200,000	0,005	-0,079
-241,161	795,659	-0,032	-0,064
-240,146	-68,177	-0,044	0,012
-239,132	670,079	-0,006	0,011
-238,117	-200,000	0,011	0,067
-237,103	49,705	-0,074	-0,049
-236,088	-200,000	0,008	0,030
-235,073	175,531	0,037	-0,038
-234,059	162,739	-0,051	-0,051
-233,044	325,365	0,056	0,076
-232,030	-0,370	0,052	0,026
-231,015	34,042	-0,102	0,063
-230,000	-108,454	-0,069	-0,010
-228,986	-200,000	-0,004	-0,048
-227,971	21,078	0,116	-0,067
-226,957	800,000	-0,047	0,094
-225,942	-74,443	0,071	0,018
-224,927	800,000	-0,056	-0,164
-223,913	239,914	-0,093	-0,110
-222,898	-200,000	0,007	-0,101
-221,884	-108,287	-0,255	-0,039
-220,869	-200,000	-0,047	0,153
-219,855	800,000	-0,032	0,098
-218,840	-114,362	0,185	0,025
-217,825	42,179	0,041	0,026
-216,811	534,965	0,016	0,028
-215,796	682,203	-0,032	-0,059
-214,782	193,031	-0,067	-0,072
-213,767	-72,407	-0,032	-0,008
-212,752	46,878	0,159	0,104
-211,738	166,022	-0,100	0,101
-210,723	-40,552	-0,094	-0,034
-209,709	45,876	0,125	-0,082
-208,694	-200,000	0,000	0,047
-207,679	-200,000	-0,005	0,116
-206,665	356,034	0,020	0,028
-205,650	203,448	0,117	0,129
-204,636	-200,000	0,059	0,296
-203,621	0,060	0,040	0,020
-202,606	-129,518	0,161	0,016
-201,592	556,965	-0,030	0,052
-200,577	30,896	0,011	-0,007
-199,563	-34,862	0,068	-0,026
-198,548	95,449	-0,039	-0,032
-197,533	19,765	0,158	0,090
-196,519	-37,392	0,006	-0,002
-195,504	46,329	0,068	0,045
-194,490	-57,866	-0,114	-0,035
-193,475	227,995	-0,033	-0,038
-192,460	335,682	0,020	0,028
-191,446	9,613	0,122	-0,066
-190,431	-200,000	0,043	0,214
-189,417	490,828	0,054	0,087
-188,402	-200,000	0,035	-0,180
-187,387	-112,537	-0,046	-0,006
-186,373	800,000	-0,047	-0,147
-185,358	-200,000	-0,017	-0,093
-184,344	-21,095	0,053	-0,023
-183,329	-14,965	0,098	-0,044
-182,315	280,035	0,077	-0,097
-181,300	-32,985	-0,015	0,006
-180,285	800,000	-0,023	-0,058
-179,271	-182,945	-0,130	-0,002
-178,256	168,058	0,084	-0,085
-177,242	-33,598	0,026	0,010
-176,227	-89,208	0,072	0,015
-175,212	10,321	-0,101	-0,054
-174,198	210,001	-0,078	0,087
-173,183	321,919	0,053	-0,072
-172,169	-77,803	-0,159	0,039
-171,154	-75,034	-0,069	0,017
-170,139	47,026	0,034	-0,022
-169,125	-200,000	0,017	0,135
-168,110	-200,000	-0,001	0,054
-167,096	58,224	0,023	0,016
-166,081	800,000	-0,019	-0,047
-165,066	606,422	-0,034	-0,061
-164,052	-118,607	0,135	0,017
-163,037	-200,000	0,022	0,078
-162,023	45,636	0,029	0,019
-161,008	192,971	0,091	0,098
-159,993	-200,000	-0,001	-0,049
-158,979	-76,414	-0,134	0,033
-157,964	163,444	0,049	-0,048
-156,950	-200,000	-0,027	-0,090
-155,935	800,000	-0,010	0,027
-154,920	800,000	-0,047	0,115
-153,906	-200,000	0,004	-0,024
-152,891	474,471	-0,014	0,022
-151,877	-200,000	-0,004	-0,033
-150,862	-87,782	-0,099	-0,021
-149,847	-141,147	-0,197	-0,014
-148,833	-64,587	-0,042	0,012
-147,818	54,634	0,081	0,056
-146,804	225,788	-0,050	0,058
-145,789	157,115	-0,070	-0,069
-144,775	568,990	-0,021	0,036
-143,760	489,951	0,038	0,062
-142,745	224,015	-0,062	0,071
-141,731	157,632	0,063	0,061
-140,716	300,246	0,086	0,112
-139,702	-200,000	-0,019	0,075
-138,687	169,780	0,093	0,094
-137,672	-36,414	-0,061	-0,023
-136,658	-36,179	-0,057	0,022
-135,643	15,228	-0,126	-0,070
-134,629	800,000	0,049	0,099
-133,614	-120,833	0,054	0,006
-132,599	21,539	0,087	0,050
-131,585	-105,783	-0,138	-0,022
-130,570	-114,083	0,092	-0,013
-129,556	-120,979	-0,101	0,012
-128,541	-89,552	0,091	0,019
-127,526	105,090	0,102	-0,085
-126,512	-46,451	-0,168	0,058
-125,497	-200,000	-0,013	-0,085
-124,483	234,375	0,031	-0,036
-123,468	447,480	-0,048	-0,074
-122,453	800,000	0,064	-0,169
-121,439	73,566	-0,094	-0,070
-120,424	800,000	-0,013	0,041
-119,410	800,000	-0,050	0,104
-118,395	146,168	0,092	0,088
-117,380	-8,218	-0,039	-0,018
-116,366	800,000	-0,036	-0,108
-115,351	-50,359	-0,079	-0,026
-114,337	81,459	0,053	-0,041
-113,322	-62,721	0,073	0,021
-112,307	110,713	-0,118	0,101
-111,293	-200,000	-0,025	0,108
-110,278	-100,051	0,199	0,035
-109,264	800,000	0,046	0,105
-108,249	800,000	0,012	0,039
-107,234	-153,480	0,136	-0,007
-106,220	117,448	-0,039	-0,034
-105,205	-106,990	0,059	0,009
-104,191	795,846	0,051	0,099
-103,176	800,000	0,029	0,062
-102,162	11,542	0,071	0,038
-101,147	-22,070	-0,001	0,000
-100,132	56,599	0,088	-0,060
-99,118	-200,000	-0,009	-0,069
-98,103	362,439	-0,079	-0,112
-97,089	94,721	-0,037	-0,030
-96,074	-200,000	0,034	0,158
-95,059	184,319	0,023	0,024
-94,045	-110,681	-0,079	0,011
-93,030	-132,678	-0,149	0,013
-92,016	800,000	0,022	-0,065
-91,001	-200,000	-0,009	0,042
-89,986	106,490	-0,055	0,046
-88,972	-50,853	-0,061	0,020
-87,957	-200,000	-0,007	-0,029
-86,943	-200,000	-0,005	0,072
-85,928	29,696	0,031	0,018
-84,913	-93,570	-0,100	-0,019
-83,899	-200,000	0,048	0,177
-82,884	-34,630	-0,099	-0,038
-81,870	12,811	0,082	0,045
-80,855	31,974	-0,034	0,021
-79,840	57,642	-0,079	-0,054
-78,826	-51,360	-0,009	0,003
-77,811	-7,159	-0,095	-0,046
-76,797	249,051	0,082	-0,098
-75,782	-176,674	-0,079	-0,001
-74,767	199,668	-0,057	0,061
-73,753	800,000	-0,025	0,052
-72,738	595,760	0,084	0,147
-71,724	222,479	-0,090	-0,103
-70,709	214,883	-0,130	-0,145
-69,694	800,000	0,049	0,119
-68,680	800,000	0,021	0,055
-67,665	141,129	-0,114	0,107
-66,651	-85,292	0,037	-0,008
-65,636	-200,000	0,020	0,168
-64,622	-107,750	0,049	0,007
-63,607	-99,957	-0,115	0,020
-62,592	-200,000	-0,008	-0,084
-61,578	-151,255	0,096	0,005
-60,563	-200,000	-0,004	0,125
-59,549	228,551	0,083	0,096
-58,534	63,817	-2,066	-1,463
-57,519	432,410	-1,153	-1,771
-56,505	-200,000	-0,439	-4,272
-55,490	484,232	0,918	1,480
-54,476	800,000	5,176	11,451
-53,461	-200,000	21,939	337,306
-52,446	800,000	758,909	2295,048
-51,432	533,111	1652,760	2771,721
-50,417	69,226	1650,359	1196,135
-49,403	16,551	1525,557	848,164
-48,388	10,755	1449,753	778,128
-47,373	19,001	1441,846	813,227
-46,359	14,139	1430,633	783,874
-45,344	9,071	1426,676	757,657
-44,330	9,029	1424,718	756,389
-43,315	8,990	1422,977	755,252
-42,300	9,014	1421,229	754,406
-41,286	9,078	1419,811	753,925
-40,271	8,953	1418,649	752,690
-39,257	8,990	1417,722	752,342
-38,242	8,999	1416,571	751,743
-37,227	9,039	1415,316	751,235
-36,213	9,043	1413,943	750,499
-35,198	9,044	1412,579	749,747
-34,184	9,025	1412,086	749,368
-33,169	8,962	1410,616	748,262
-32,154	9,024	1409,537	747,952
-31,140	8,981	1408,268	747,045
-30,125	9,045	1406,929	746,605
-29,111	9,014	1406,038	745,960
-28,096	9,011	1404,911	745,315
-27,082	8,976	1403,506	744,378
-26,067	8,902	1402,652	743,552
-25,052	8,991	1401,502	743,325
-24,038	8,998	1400,558	742,827
-23,023	8,944	1399,769	742,132
-22,009	8,946	1398,499	741,435
-20,994	8,977	1397,296	740,913
-19,979	8,947	1396,681	740,417
-18,965	8,929	1395,861	739,872
-17,950	8,898	1394,740	739,102
-16,936	8,894	1394,030	738,680
-15,921	8,832	1392,884	737,758
-14,906	8,866	1391,911	737,369
-13,892	8,881	1391,113	736,987
-12,877	8,887	1390,375	736,592
-11,863	8,823	1389,699	735,909
-10,848	8,867	1388,523	735,461
-9,833	8,810	1387,610	734,686
-8,819	8,804	1386,729	734,161
-7,804	8,735	1385,842	733,347
-6,790	8,783	1384,728	732,948
-5,775	8,820	1383,429	732,402
-4,760	8,790	1382,838	731,923
-3,746	8,804	1381,803	731,407
-2,731	8,792	1381,032	730,917
-1,717	8,783	1380,197	730,406
-0,702	8,774	1378,615	729,499
0,313	12,814	1290,126	701,024
1,327	28,735	682,318	406,471
2,342	44,564	117,346	75,902
3,356	-2,189	16,529	8,152
4,371	-10,609	3,826	1,779
5,386	-14,582	1,216	0,549
6,400	-200,000	0,183	0,719
7,415	-115,976	-0,134	0,017
8,429	-65,181	-0,301	-0,085
9,444	-4,895	-0,396	-0,192
10,459	-53,442	-0,248	-0,080
11,473	229,262	-0,260	-0,300
12,488	174,001	-0,335	-0,342
13,502	-86,680	-0,437	-0,094
14,517	10,937	-0,313	-0,168
15,531	80,864	-0,365	-0,277
16,546	-34,116	-0,442	-0,170
17,561	0,489	-0,509	-0,255
18,575	236,384	-0,147	-0,171
19,590	97,735	-0,257	-0,208
20,604	38,257	-0,292	-0,183
21,619	184,498	-0,387	-0,404
22,634	132,544	-0,382	-0,347
23,648	114,905	-0,379	-0,325
24,663	67,468	-0,282	-0,202
25,677	-12,688	-0,334	-0,153
26,692	-3,793	-0,368	-0,179
27,707	-40,806	-0,498	-0,180
28,721	8,546	-0,315	-0,166
29,736	-38,102	-0,421	-0,156
30,750	130,812	-0,391	-0,353
31,765	-49,751	-0,359	-0,119
32,780	272,571	-0,261	-0,325
33,794	-41,015	-0,523	-0,189
34,809	132,322	-0,353	-0,320
35,823	-53,071	-0,455	-0,146
36,838	78,276	-0,383	-0,287
37,853	132,093	-0,367	-0,333
38,867	53,657	-0,380	-0,256
39,882	130,738	-0,260	-0,234
40,896	130,861	-0,339	-0,306
41,911	64,976	-0,415	-0,294
42,926	157,421	-0,416	-0,405
43,940	-61,580	-0,397	-0,116
44,955	529,755	-0,165	-0,274
45,969	16,743	-0,395	-0,219
46,984	53,725	-0,333	-0,224
47,999	785,268	-0,161	-0,311
49,013	81,569	-0,194	-0,147
50,028	65,344	-0,311	-0,220
51,042	-28,813	-0,428	-0,172
52,057	241,690	-0,298	-0,350
53,071	-37,423	-0,398	-0,148
54,086	2,114	-0,288	-0,146
55,101	76,893	-0,323	-0,240
56,115	105,468	-0,256	-0,212
57,130	-12,976	-0,432	-0,196
58,144	47,045	-0,447	-0,292
59,159	-30,526	-0,467	-0,185
60,174	17,572	-0,451	-0,251
61,188	68,822	-0,369	-0,265
62,203	-25,225	-0,365	-0,151
63,217	59,055	-0,337	-0,232
64,232	20,062	-0,387	-0,218
65,247	347,086	-0,259	-0,358
66,261	129,953	-0,318	-0,285
67,276	103,970	-0,347	-0,286
68,290	75,567	-0,318	-0,235
69,305	443,328	-0,193	-0,298
70,320	-4,587	-0,317	-0,153
71,334	43,201	-0,230	-0,147
72,349	-122,434	-0,280	-0,032
73,363	32,311	-0,397	-0,239
74,378	82,060	-0,361	-0,274
75,393	296,686	-0,190	-0,244
76,407	104,926	-0,343	-0,283
77,422	36,930	-0,353	-0,218
78,436	-138,488	-0,256	-0,019
79,451	134,608	-0,276	-0,251
80,466	76,434	-0,229	-0,169
81,480	30,724	-0,293	-0,175
82,495	87,713	-0,319	-0,247
83,509	47,794	-0,279	-0,182
84,524	-26,628	-0,356	-0,145
85,539	183,070	-0,184	-0,191
86,553	-102,539	-0,276	-0,046
87,568	-51,265	-0,340	-0,111
88,582	-12,628	-0,273	-0,124
89,597	12,443	-0,303	-0,163
90,611	88,381	-0,313	-0,243
91,626	19,596	-0,230	-0,129
92,641	-75,935	-0,259	-0,064
93,655	-84,256	-0,320	-0,070
94,670	81,031	-0,147	-0,111
95,684	115,596	-0,283	-0,242
96,699	56,595	-0,341	-0,232
97,714	-33,773	-0,253	-0,097
98,728	-18,307	-0,255	-0,111
99,743	150,858	-0,169	-0,161
100,757	204,699	-0,133	-0,144
101,772	235,648	-0,207	-0,239
102,787	55,198	-0,384	-0,259
103,801	-80,191	-0,334	-0,078
104,816	-31,247	-0,215	-0,084
105,830	145,589	-0,281	-0,263
106,845	-26,403	-0,237	-0,097
107,860	-24,998	-0,133	-0,055
108,874	-73,249	-0,291	-0,074
109,889	-45,770	-0,294	-0,101
110,903	45,577	-0,232	-0,149
111,918	25,636	-0,314	-0,182
112,933	369,276	-0,189	-0,268
113,947	42,839	-0,220	-0,140
114,962	13,328	-0,236	-0,127
115,976	800,000	-0,084	-0,210
116,991	23,019	-0,297	-0,170
118,006	236,695	-0,271	-0,313
119,020	295,105	-0,214	-0,274
120,035	22,404	-0,346	-0,197
121,049	-56,413	-0,299	-0,092
122,064	99,644	-0,177	-0,143
123,079	-134,996	-0,245	0,020
124,093	27,625	-0,215	-0,126
125,108	-24,158	-0,351	-0,145
126,122	-15,245	-0,307	-0,136
127,137	37,012	-0,295	-0,182
128,151	47,226	-0,262	-0,170
129,166	315,395	-0,110	-0,145
130,181	95,643	-0,205	-0,163
131,195	-11,909	-0,338	-0,154
132,210	4,332	-0,229	-0,116
133,224	35,723	-0,364	-0,222
134,239	-44,693	-0,202	-0,070
135,254	-106,504	-0,142	-0,022
136,268	182,020	-0,170	-0,174
137,283	247,784	-0,221	-0,260
138,297	160,211	-0,286	-0,278
139,312	137,539	-0,246	-0,224
140,327	293,337	-0,158	-0,201
141,341	-0,346	-0,268	-0,132
142,356	-26,439	-0,175	-0,071
143,370	-12,219	-0,212	-0,096
144,385	9,997	-0,305	-0,161
145,400	131,317	-0,285	-0,255
146,414	267,005	-0,211	-0,257
147,429	-42,144	-0,270	-0,096
148,443	93,812	-0,296	-0,233
149,458	-0,940	-0,129	-0,063
150,473	35,400	-0,280	-0,170
151,487	54,270	-0,191	-0,128
152,502	-51,923	-0,196	-0,063
153,516	49,000	-0,261	-0,170
154,531	54,186	-0,262	-0,175
155,546	131,337	-0,176	-0,157
156,560	75,659	-0,225	-0,165
157,575	-20,945	-0,310	-0,132
158,589	124,652	-0,167	-0,146
159,604	133,530	-0,238	-0,214
160,619	26,774	-0,287	-0,166
161,633	3,698	-0,300	-0,152
162,648	683,584	-0,163	-0,297
163,662	373,473	-0,113	-0,161
164,677	-162,321	-0,263	-0,009
165,692	245,867	-0,150	-0,176
166,706	183,630	-0,248	-0,255
167,721	103,918	-0,279	-0,228
168,735	29,880	-0,286	-0,169
169,750	77,858	-0,191	-0,141
170,764	194,671	-0,218	-0,231
171,779	25,101	-0,267	-0,153
172,794	111,250	-0,219	-0,183
173,808	176,601	-0,241	-0,244
174,823	40,342	-0,342	-0,213
175,837	54,839	-0,162	-0,109
176,852	61,443	-0,270	-0,186
177,867	558,758	-0,074	-0,124
178,881	190,248	-0,180	-0,188
179,896	137,794	-0,178	-0,162
180,910	26,676	-0,183	-0,106
181,925	64,611	-0,208	-0,145
182,940	167,346	-0,247	-0,243
183,954	108,013	-0,043	-0,035
184,969	-3,799	-0,135	-0,065
185,983	360,555	-0,102	-0,142
186,998	-92,545	-0,229	0,044
188,013	184,918	-0,179	-0,184
189,027	23,759	-0,239	-0,136
190,042	114,416	-0,251	-0,212
191,056	245,949	-0,233	-0,273
192,071	-131,168	-0,257	-0,023
193,086	132,558	-0,136	-0,122
194,100	-144,886	-0,118	0,007
195,115	291,696	-0,149	-0,188
196,129	83,712	-0,147	-0,111
197,144	-149,431	-0,235	-0,013
198,159	-200,000	-0,079	-0,323
199,173	126,552	-0,175	-0,154
200,188	-122,834	-0,121	-0,013
201,202	232,591	-0,198	-0,226
202,217	-5,434	-0,211	-0,100
203,232	-30,930	-0,195	-0,076
204,246	-55,614	-0,160	-0,049
205,261	-32,540	-0,237	-0,091
206,275	739,935	-0,095	-0,178
207,290	800,000	-0,117	-0,266
208,304	800,000	-0,048	-0,142
209,319	-82,024	-0,146	-0,033
210,334	83,392	-0,164	-0,124
211,348	115,663	-0,180	-0,152
212,363	124,652	-0,124	-0,108
213,377	34,500	-0,241	-0,145
214,392	37,140	-0,251	-0,153
215,407	61,613	-0,110	-0,076
216,421	-102,904	-0,200	-0,033
217,436	95,012	-0,164	-0,129
218,450	221,616	-0,227	-0,253
219,465	182,346	-0,270	-0,275
220,480	103,960	-0,183	-0,149
221,494	167,285	-0,101	-0,099
222,509	-200,000	0,005	-0,047
223,523	-18,905	-0,240	-0,103
224,538	39,833	-0,207	-0,128
225,553	166,853	-0,131	-0,129
226,567	646,622	-0,065	-0,115
227,582	270,448	-0,137	-0,167
228,596	-78,081	-0,203	-0,048
229,611	18,776	-0,170	-0,094
230,626	187,639	-0,123	-0,127
231,640	-184,721	-0,208	-0,002
232,655	800,000	-0,091	-0,242
233,669	95,370	-0,242	-0,191
234,684	251,166	-0,119	-0,140
235,699	111,909	-0,168	-0,140
236,713	-28,723	-0,257	-0,101
237,728	800,000	-0,060	-0,177
238,742	-97,768	-0,099	-0,018
239,757	24,799	-0,186	-0,106
240,772	92,825	-0,153	-0,119
241,786	800,000	-0,070	-0,184
242,801	44,790	-0,038	-0,024
243,815	-135,155	-0,184	-0,015
244,830	165,739	-0,112	0,109
245,844	3,861	-0,190	-0,095
246,859	425,343	-0,103	-0,153
247,874	-166,214	-0,216	0,006
248,888	293,218	-0,157	-0,198
249,903	29,278	-0,286	-0,167
250,917	82,605	-0,081	-0,061
251,932	-140,239	-0,188	0,013
252,947	-81,399	-0,264	-0,059
253,961	-104,615	-0,249	-0,039
254,976	-23,096	-0,279	-0,115
255,990	324,721	-0,131	-0,173
257,005	365,821	-0,164	-0,228
258,020	-200,000	-0,045	-0,191
259,034	-52,161	-0,172	-0,055
260,049	-6,381	-0,239	-0,112
261,063	8,481	-0,139	0,072
262,078	-200,000	0,014	-0,197
263,093	9,273	-0,227	-0,118
264,107	-54,797	-0,191	-0,059
265,122	-125,057	-0,188	-0,020
266,136	34,668	-0,095	-0,057
267,151	-8,039	-0,202	-0,093
268,166	-115,333	-0,227	-0,029
269,180	-133,226	-0,240	-0,021
270,195	18,256	-0,206	-0,113
271,209	317,187	-0,183	-0,238
272,224	184,954	-0,047	-0,048
273,239	104,452	-0,145	-0,117
274,253	-62,721	-0,299	-0,085
275,268	92,562	-0,184	-0,143
276,282	96,178	-0,199	-0,156
277,297	192,045	-0,182	-0,189
278,312	284,806	-0,128	-0,159
279,326	292,286	-0,127	-0,160
280,341	800,000	-0,072	-0,210
281,355	384,888	-0,093	-0,132
282,370	212,460	-0,163	-0,178
283,384	58,487	-0,156	-0,105
284,399	163,329	-0,242	-0,234
285,414	256,408	-0,118	-0,139
286,428	118,718	-0,127	-0,108
287,443	-98,999	-0,149	0,026
288,457	96,934	-0,186	-0,147
289,472	-155,591	-0,203	-0,009
290,487	83,599	-0,275	-0,206
291,501	408,988	-0,159	-0,233
292,516	-22,566	-0,163	-0,067
293,530	424,323	-0,120	-0,178
294,545	-200,000	-0,002	-0,083
295,560	262,123	-0,118	-0,141
296,574	110,294	-0,175	-0,145
297,589	69,224	-0,244	-0,173
298,603	161,582	-0,119	-0,115
299,618	-56,473	-0,214	-0,065
300,633	-200,000	-0,054	-0,216
301,647	-63,755	-0,141	-0,039
302,662	226,944	-0,121	-0,135
303,676	141,095	-0,095	-0,086
304,691	-6,019	-0,171	-0,080
305,706	25,455	-0,224	-0,127
306,720	735,524	-0,023	0,043
307,735	27,694	-0,074	0,042
308,749	70,122	-0,147	-0,104
309,764	-126,210	-0,074	-0,008
310,779	-59,357	-0,124	0,036
311,793	-73,830	-0,146	-0,036
312,808	-200,000	-0,024	-0,184
313,822	22,446	-0,126	-0,071
314,837	556,907	-0,060	-0,100
315,852	166,504	-0,099	-0,097
316,866	-200,000	0,029	-0,098
317,881	-69,385	-0,138	-0,036
318,895	273,454	-0,111	-0,135
319,910	20,156	-0,187	-0,103
320,925	800,000	-0,095	-0,181
321,939	-200,000	-0,038	-0,142
322,954	677,290	-0,148	-0,264
323,968	57,048	0,075	-0,050
324,983	-57,106	-0,134	-0,040
325,997	-200,000	0,008	-0,089
327,012	19,527	-0,169	-0,093
328,027	254,945	-0,105	-0,123
329,041	800,000	-0,075	-0,155
330,056	-109,545	-0,224	0,032
331,070	107,578	-0,195	0,159
332,085	-97,166	-0,106	0,019
333,100	128,725	-0,074	-0,065
334,114	44,800	-0,117	-0,074
335,129	800,000	-0,026	-0,065
336,143	152,012	-0,181	-0,169
337,158	456,156	-0,108	-0,165
338,173	-60,485	-0,124	-0,036
339,187	401,642	0,024	0,034
340,202	-200,000	-0,228	-0,000
341,216	410,079	-0,078	-0,113
342,231	278,090	-0,056	-0,068
343,246	-200,000	-0,034	-0,203
344,260	-200,000	0,014	-0,050
345,275	-8,455	-0,086	0,040
346,289	122,169	-0,112	-0,095
347,304	279,421	-0,147	-0,180
348,319	800,000	-0,080	-0,213
349,333	-200,000	0,008	-0,176
350,348	86,957	-0,102	-0,077
351,362	2,782	-0,165	-0,081
352,377	219,805	-0,127	-0,139
353,392	33,412	-0,020	-0,012
354,406	-77,399	-0,172	0,041
355,421	209,107	1303,881	1397,502
356,435	160,931	1463,248	1397,982
