DTS Sentinel unit serial number:	SN410029Multiplexer serial number:	ORYXHardware model number:	OX2-SRSoftware version number:	ORYX F/W v4,00 Oryx Data Collector v3.7.2.0data status	okinstallation	B3 Nyhavnadifferential loss correction	single-endedforward channel	channel 1reverse channel	N/Adate	2023/12/03time	14:27:30forward acquisition time	300,00reverse acquisition time	0,00gamma	499,1914k internal	0,3197k external	0,3197temperature offset calibration	1,0000default loss term (dB/km)	0,3820temperature slope calibration	1,0000multiplexer offset coefficient	1,0000multiplexer slope coefficient	1,0000fibre end	0,00T internal ref (°C)	15,82T ext. ref 1 (°C)	1,37T ext. ref 2 (°C)	1,39length (m)	temperature (°C)	Stokes	anti-Stokes-744,400	76,523	-0,190	-0,147
-743,385	-200,000	0,009	0,360
-742,371	204,223	-0,133	-0,150
-741,356	-200,000	0,065	0,269
-740,342	210,932	-0,164	-0,188
-739,327	-200,000	-0,046	0,376
-738,312	310,922	-0,196	-0,267
-737,298	-200,000	0,012	0,225
-736,283	-200,000	0,056	-0,356
-735,269	365,163	0,143	0,210
-734,254	65,255	-0,237	-0,174
-733,239	233,641	-0,168	0,201
-732,225	800,000	-0,115	-0,263
-731,210	-100,024	0,172	0,031
-730,196	-200,000	-0,020	-0,118
-729,181	800,000	-0,029	0,076
-728,167	-1,535	0,022	-0,011
-727,152	-172,210	0,138	-0,003
-726,137	14,353	-0,043	-0,024
-725,123	-151,550	-0,045	0,002
-724,108	-167,041	-0,100	0,003
-723,094	-200,000	0,044	-0,166
-722,079	-200,000	-0,019	-0,137
-721,064	-200,000	0,016	-0,058
-720,050	-200,000	0,001	-0,008
-719,035	-93,709	0,144	-0,029
-718,021	-135,491	-0,082	0,007
-717,006	-200,000	0,001	-0,035
-715,991	-104,543	-0,147	0,024
-714,977	6,008	-0,062	0,033
-713,962	-114,493	-0,039	0,005
-712,948	147,204	-0,068	0,067
-711,933	-200,000	-0,011	-0,132
-710,918	-85,458	-0,137	0,031
-709,904	-200,000	-0,036	-0,200
-708,889	305,000	-0,103	-0,139
-707,875	-163,692	-0,229	-0,008
-706,860	-168,528	-0,023	0,001
-705,845	-86,123	0,063	-0,014
-704,831	800,000	0,061	0,140
-703,816	-200,000	0,003	0,032
-702,802	174,918	-0,025	-0,026
-701,787	121,595	-0,075	-0,068
-700,772	-148,360	-0,081	-0,005
-699,758	119,723	-0,101	0,091
-698,743	58,955	0,099	0,071
-697,729	251,743	0,065	0,080
-696,714	-20,634	-0,113	0,050
-695,699	722,380	-0,053	-0,103
-694,685	102,075	-0,034	-0,029
-693,670	-84,450	-0,042	0,010
-692,656	231,925	0,064	-0,076
-691,641	-200,000	0,005	0,038
-690,627	-200,000	-0,096	0,000
-689,612	14,210	0,061	-0,035
-688,597	-200,000	-0,018	-0,112
-687,583	800,000	-0,079	-0,192
-686,568	0,036	-0,190	-0,098
-685,554	226,236	-0,097	-0,114
-684,539	-200,000	0,001	-0,010
-683,524	128,340	0,030	-0,027
-682,510	341,240	0,062	-0,088
-681,495	-200,000	-0,008	-0,129
-680,481	239,713	-0,054	-0,066
-679,466	800,000	0,050	-0,116
-678,451	262,993	-0,025	-0,032
-677,437	-200,000	-0,002	0,116
-676,422	-14,042	0,043	0,020
-675,408	332,159	-0,021	0,030
-674,393	-200,000	0,000	-0,134
-673,378	516,284	0,054	-0,092
-672,364	34,823	-0,075	-0,048
-671,349	585,484	-0,053	-0,096
-670,335	-148,892	-0,086	0,005
-669,320	-77,929	0,128	0,032
-668,305	800,000	0,040	0,114
-667,291	324,553	-0,047	-0,065
-666,276	800,000	0,056	-0,131
-665,262	-145,706	-0,174	0,011
-664,247	228,449	-0,033	-0,040
-663,232	-11,114	0,177	-0,084
-662,218	-25,871	-0,041	-0,018
-661,203	147,228	0,079	-0,077
-660,189	166,814	-0,072	-0,074
-659,174	187,857	-0,116	-0,126
-658,159	48,311	-0,021	0,015
-657,145	-200,000	0,008	-0,071
-656,130	227,377	-0,034	0,041
-655,116	800,000	-0,032	-0,077
-654,101	266,719	0,121	0,154
-653,086	521,790	-0,040	0,068
-652,072	9,651	-0,190	0,104
-651,057	193,499	-0,106	-0,117
-650,043	-200,000	0,007	0,122
-649,028	70,678	0,038	0,029
-648,014	143,307	-0,019	0,018
-646,999	-200,000	0,024	0,150
-645,984	20,756	0,023	-0,013
-644,970	456,845	-0,035	0,056
-643,955	-55,588	-0,115	-0,037
-642,941	-33,571	-0,020	0,008
-641,926	624,090	-0,058	-0,107
-640,911	-200,000	-0,108	-0,000
-639,897	-200,000	0,035	0,175
-638,882	800,000	-0,022	0,068
-637,868	-35,394	-0,056	-0,022
-636,853	-94,494	-0,108	0,021
-635,838	800,000	-0,030	0,071
-634,824	-53,707	-0,010	-0,003
-633,809	-122,807	-0,133	0,015
-632,795	-125,555	0,093	0,010
-631,780	-200,000	-0,001	-0,101
-630,765	800,000	-0,024	-0,056
-629,751	691,370	-0,065	-0,124
-628,736	215,481	0,103	-0,119
-627,722	-200,000	0,016	-0,206
-626,707	513,105	0,050	-0,086
-625,692	-200,000	0,007	0,041
-624,678	-171,635	-0,124	0,003
-623,663	24,109	-0,034	-0,020
-622,649	-125,207	-0,056	0,006
-621,634	-147,900	-0,144	-0,009
-620,619	-200,000	0,008	0,052
-619,605	-200,000	-0,002	0,097
-618,590	390,029	0,034	-0,051
-617,576	-200,000	-0,001	0,067
-616,561	252,661	-0,105	0,129
-615,546	800,000	-0,044	0,127
-614,532	72,452	-0,085	0,064
-613,517	-22,395	0,035	0,015
-612,503	-200,000	0,007	0,066
-611,488	0,040	-0,028	-0,014
-610,474	-200,000	0,028	0,000
-609,459	-200,000	0,019	-0,081
-608,444	-137,194	-0,043	-0,003
-607,430	-160,762	-0,049	-0,002
-606,415	521,823	-0,042	0,072
-605,401	800,000	0,017	-0,044
-604,386	800,000	0,030	-0,095
-603,371	-200,000	-0,002	0,042
-602,357	-134,269	0,066	-0,006
-601,342	800,000	0,063	-0,152
-600,328	253,573	-0,054	0,067
-599,313	139,887	-0,095	-0,090
-598,298	800,000	0,049	0,140
-597,284	-110,146	0,134	0,020
-596,269	200,077	-0,035	0,039
-595,255	-98,462	-0,028	0,005
-594,240	-200,000	-0,046	0,203
-593,225	-200,000	0,010	0,066
-592,211	277,171	-0,026	-0,034
-591,196	800,000	-0,064	-0,129
-590,182	17,121	-0,074	0,042
-589,167	155,587	-0,032	-0,032
-588,152	-200,000	0,008	-0,056
-587,138	-67,512	-0,041	-0,012
-586,123	-200,000	-0,013	0,139
-585,109	229,414	-0,045	-0,053
-584,094	757,167	0,038	0,075
-583,079	-200,000	-0,024	-0,174
-582,065	-200,000	0,001	-0,077
-581,050	-52,648	0,043	0,014
-580,036	-200,000	-0,019	0,207
-579,021	-143,121	0,031	0,002
-578,006	-167,789	-0,116	-0,003
-576,992	-200,000	-0,033	-0,114
-575,977	109,392	-0,036	-0,031
-574,963	-106,849	-0,086	-0,014
-573,948	800,000	0,035	-0,084
-572,934	-45,871	0,119	-0,042
-571,919	-121,954	-0,157	0,018
-570,904	-200,000	0,030	0,185
-569,890	-160,077	-0,134	0,005
-568,875	-200,000	-0,007	0,096
-567,861	-72,976	0,085	0,022
-566,846	-107,221	0,019	-0,003
-565,831	-200,000	-0,018	0,117
-564,817	-15,160	-0,020	0,009
-563,802	800,000	-0,043	-0,100
-562,788	60,840	0,095	0,068
-561,773	14,048	-0,112	0,063
-560,758	-200,000	-0,011	-0,152
-559,744	102,268	-0,004	0,003
-558,729	-200,000	-0,002	0,156
-557,715	47,893	-0,043	0,029
-556,700	625,353	0,038	-0,069
-555,685	-30,363	-0,115	-0,047
-554,671	-103,367	-0,101	0,017
-553,656	-19,889	0,042	-0,019
-552,642	408,965	0,061	0,093
-551,627	-200,000	-0,007	-0,152
-550,612	-200,000	-0,011	-0,051
-549,598	800,000	-0,047	0,134
-548,583	315,727	0,017	-0,023
-547,569	-68,585	-0,111	-0,031
-546,554	-74,567	0,060	-0,015
-545,539	-89,696	0,093	-0,020
-544,525	-7,351	-0,064	-0,031
-543,510	-165,524	0,133	0,004
-542,496	-26,062	-0,085	0,036
-541,481	775,974	-0,065	-0,128
-540,466	213,047	-0,072	0,082
-539,452	68,883	0,031	-0,023
-538,437	-77,282	0,198	-0,049
-537,423	134,574	0,089	-0,083
-536,408	800,000	0,032	0,072
-535,393	-200,000	-0,028	-0,187
-534,379	-200,000	0,021	-0,144
-533,364	-120,294	-0,073	-0,009
-532,350	800,000	-0,032	0,102
-531,335	22,800	0,087	-0,051
-530,321	-200,000	0,000	0,247
-529,306	-3,813	0,055	-0,027
-528,291	-37,008	-0,051	-0,019
-527,277	82,090	-0,131	-0,103
-526,262	-167,413	0,114	0,003
-525,248	205,373	0,025	-0,028
-524,233	178,987	0,078	0,082
-523,218	103,881	-0,061	0,052
-522,204	181,154	-0,021	-0,023
-521,189	-91,398	0,102	0,021
-520,175	136,024	-0,045	-0,043
-519,160	486,998	-0,102	-0,169
-518,145	43,250	-0,014	-0,009
-517,131	-85,954	0,118	0,026
-516,116	97,271	0,100	0,083
-515,102	451,125	-0,075	0,120
-514,087	-200,000	0,003	-0,066
-513,072	-119,858	-0,011	-0,001
-512,058	597,321	-0,089	-0,159
-511,043	800,000	0,031	-0,090
-510,029	-200,000	0,024	0,090
-509,014	286,937	0,085	-0,111
-507,999	-118,692	-0,107	-0,014
-506,985	233,049	0,073	-0,087
-505,970	800,000	-0,044	-0,110
-504,956	36,561	0,107	-0,068
-503,941	130,374	-0,032	-0,030
-502,926	800,000	-0,004	-0,008
-501,912	552,881	0,076	0,133
-500,897	527,484	0,073	0,124
-499,883	800,000	-0,040	0,081
-498,868	-200,000	0,033	-0,124
-497,853	-3,180	0,075	0,038
-496,839	-200,000	-0,015	-0,094
-495,824	800,000	-0,064	0,141
-494,810	-200,000	0,001	-0,048
-493,795	-65,053	-0,024	0,007
-492,781	245,498	0,092	0,112
-491,766	23,632	-0,031	0,018
-490,751	39,935	-0,094	0,061
-489,737	227,592	0,070	0,083
-488,722	-18,658	0,037	0,017
-487,708	-200,000	0,003	-0,121
-486,693	-87,185	0,124	0,027
-485,678	800,000	-0,056	0,146
-484,664	-163,115	-0,073	0,002
-483,649	-200,000	-0,013	0,054
-482,635	800,000	0,037	-0,100
-481,620	-200,000	0,031	-0,112
-480,605	-53,828	0,046	-0,015
-479,591	800,000	0,022	-0,050
-478,576	-58,614	-0,128	-0,040
-477,562	15,231	-0,163	-0,092
-476,547	224,242	-0,062	-0,072
-475,532	-142,728	-0,154	0,011
-474,518	23,038	-0,044	0,026
-473,503	-200,000	-0,027	0,101
-472,489	-200,000	-0,005	0,123
-471,474	800,000	0,019	-0,040
-470,459	318,270	0,062	-0,085
-469,445	39,368	-0,068	0,044
-468,430	-0,427	0,165	-0,084
-467,416	513,051	0,032	-0,054
-466,401	311,795	0,077	0,104
-465,386	-200,000	-0,012	0,120
-464,372	-200,000	0,019	-0,066
-463,357	-37,264	0,024	0,009
-462,343	422,105	0,028	0,043
-461,328	-200,000	0,014	0,046
-460,313	-102,056	0,196	-0,034
-459,299	49,610	-0,051	0,035
-458,284	-200,000	0,030	0,139
-457,270	-30,363	-0,034	0,014
-456,255	336,681	-0,075	0,106
-455,241	-99,263	0,113	-0,020
-454,226	-200,000	-0,004	-0,029
-453,211	82,268	-0,041	0,032
-452,197	-200,000	-0,010	0,060
-451,182	231,427	-0,064	0,076
-450,168	-200,000	0,010	0,087
-449,153	-200,000	-0,004	0,041
-448,138	-200,000	-0,003	-0,056
-447,124	-200,000	-0,014	0,045
-446,109	800,000	0,024	0,074
-445,095	-200,000	0,028	-0,094
-444,080	-139,282	-0,115	-0,009
-443,065	530,205	-0,026	0,045
-442,051	-200,000	-0,014	-0,055
-441,036	-101,794	-0,121	0,021
-440,022	800,000	-0,053	-0,163
-439,007	95,849	-0,062	-0,051
-437,992	-30,109	0,133	0,054
-436,978	74,822	0,060	0,046
-435,963	-175,677	-0,051	0,001
-434,949	36,344	0,087	0,055
-433,934	-200,000	0,024	-0,092
-432,919	-73,160	-0,128	0,033
-431,905	41,017	0,092	-0,060
-430,890	435,977	-0,017	0,026
-429,876	-200,000	0,007	0,109
-428,861	393,644	0,035	0,052
-427,846	-142,059	-0,189	-0,013
-426,832	-96,366	-0,053	-0,010
-425,817	-152,812	0,114	-0,006
-424,803	-200,000	-0,007	-0,154
-423,788	800,000	0,055	-0,143
-422,773	578,039	0,019	-0,034
-421,759	-51,140	0,064	0,021
-420,744	-200,000	-0,001	0,009
-419,730	235,319	0,049	-0,058
-418,715	414,146	-0,044	-0,067
-417,701	10,633	-0,087	0,048
-416,686	38,086	0,126	-0,080
-415,671	723,349	-0,007	0,013
-414,657	22,685	0,060	-0,035
-413,642	-50,452	-0,164	0,055
-412,628	1,729	-0,108	-0,056
-411,613	-200,000	0,003	-0,082
-410,598	-48,938	0,076	-0,026
-409,584	-200,000	-0,016	0,114
-408,569	4,258	0,088	0,046
-407,555	1,267	0,134	0,069
-406,540	-63,950	-0,044	0,013
-405,525	68,897	-0,033	0,024
-404,511	-124,837	-0,171	0,019
-403,496	-200,000	-0,011	-0,062
-402,482	28,272	-0,059	-0,035
-401,467	368,503	0,015	0,022
-400,452	82,619	0,089	0,069
-399,438	-69,422	-0,145	-0,040
-398,423	-200,000	-0,003	-0,063
-397,409	-21,970	-0,084	-0,036
-396,394	96,163	-0,050	-0,041
-395,379	311,050	0,051	-0,069
-394,365	-78,713	-0,046	-0,011
-393,350	277,319	-0,049	0,063
-392,336	125,197	0,088	0,080
-391,321	2,605	-0,126	-0,065
-390,306	386,936	-0,091	-0,135
-389,292	229,383	-0,046	-0,054
-388,277	-200,000	0,004	0,038
-387,263	171,082	-0,104	0,107
-386,248	-35,105	0,091	-0,035
-385,233	-24,536	-0,074	0,031
-384,219	800,000	0,058	0,150
-383,204	231,480	-0,048	-0,057
-382,190	800,000	-0,058	-0,180
-381,175	772,712	-0,026	0,051
-380,160	120,658	-0,022	-0,019
-379,146	174,544	0,037	0,038
-378,131	59,475	-0,110	0,078
-377,117	166,669	0,002	0,002
-376,102	-200,000	0,008	-0,068
-375,088	217,118	0,055	0,063
-374,073	800,000	0,039	-0,112
-373,058	800,000	0,014	-0,038
-372,044	-114,716	0,104	-0,014
-371,029	-129,208	0,051	-0,005
-370,015	-200,000	0,000	-0,017
-369,000	40,744	0,054	-0,035
-367,985	242,733	-0,087	-0,105
-366,971	-200,000	0,017	-0,080
-365,956	800,000	0,038	-0,119
-364,942	-200,000	-0,004	-0,075
-363,927	55,452	0,131	0,091
-362,912	317,232	-0,062	-0,084
-361,898	800,000	0,038	0,118
-360,883	800,000	0,001	0,003
-359,869	-200,000	-0,005	-0,050
-358,854	7,541	0,030	-0,016
-357,839	-47,735	0,113	-0,039
-356,825	-122,481	0,106	0,012
-355,810	800,000	0,004	-0,010
-354,796	-29,874	-0,103	-0,042
-353,781	259,310	0,043	-0,054
-352,766	251,968	-0,020	0,025
-351,752	-134,216	-0,066	0,006
-350,737	-15,877	0,044	0,020
-349,723	613,811	-0,042	0,076
-348,708	-41,610	0,103	-0,038
-347,693	124,234	0,076	0,068
-346,679	-200,000	-0,021	-0,081
-345,664	490,361	-0,032	-0,052
-344,650	800,000	0,017	-0,042
-343,635	34,276	-0,020	0,012
-342,620	-0,999	-0,053	0,027
-341,606	62,127	-0,021	0,015
-340,591	201,549	-0,098	0,108
-339,577	-200,000	0,006	0,081
-338,562	-43,056	-0,099	0,036
-337,548	-22,340	-0,041	-0,018
-336,533	-73,743	0,052	0,013
-335,518	-104,641	0,054	-0,009
-334,504	73,906	0,061	0,046
-333,489	800,000	0,044	-0,091
-332,475	-89,852	-0,101	0,021
-331,460	-33,709	-0,111	0,044
-330,445	126,320	0,093	-0,084
-329,431	286,455	0,085	-0,110
-328,416	10,113	0,112	0,061
-327,402	800,000	0,123	0,338
-326,387	-25,811	0,101	-0,043
-325,372	-200,000	0,031	0,131
-324,358	-50,693	-0,077	0,026
-323,343	-200,000	-0,002	-0,096
-322,329	133,326	-0,040	0,037
-321,314	130,899	0,055	0,051
-320,299	-200,000	-0,011	0,109
-319,285	-200,000	-0,013	-0,063
-318,270	291,921	-0,069	-0,090
-317,256	469,243	-0,067	-0,108
-316,241	800,000	0,058	-0,176
-315,226	347,682	-0,046	-0,065
-314,212	-67,069	0,055	-0,015
-313,197	86,325	0,154	0,121
-312,183	-23,101	0,033	0,014
-311,168	800,000	-0,006	-0,017
-310,153	41,577	-0,073	-0,047
-309,139	-123,539	0,147	0,017
-308,124	181,507	0,090	0,095
-307,110	-32,235	0,150	0,060
-306,095	800,000	0,013	-0,027
-305,080	-145,808	0,095	0,006
-304,066	-86,077	0,065	-0,014
-303,051	800,000	-0,051	-0,122
-302,037	-200,000	-0,002	-0,031
-301,022	52,464	-0,032	0,022
-300,008	-176,065	-0,047	-0,001
-298,993	411,046	0,115	0,175
-297,978	-96,613	-0,094	0,017
-296,964	-200,000	0,027	-0,114
-295,949	-200,000	-0,017	0,058
-294,935	-41,748	0,041	0,015
-293,920	-164,453	0,054	0,002
-292,905	300,998	0,074	0,098
-291,891	-125,983	-0,044	-0,005
-290,876	295,013	0,008	0,011
-289,862	-200,000	0,015	0,048
-288,847	106,670	-0,105	-0,089
-287,832	-200,000	-0,029	-0,109
-286,818	26,638	0,089	-0,053
-285,803	-114,596	-0,057	-0,008
-284,789	800,000	-0,032	0,093
-283,774	242,234	0,035	-0,041
-282,759	-200,000	0,024	-0,130
-281,745	182,503	-0,090	0,095
-280,730	800,000	-0,025	-0,070
-279,716	-27,709	-0,018	0,007
-278,701	98,064	0,048	0,040
-277,686	-23,896	0,163	0,069
-276,672	800,000	0,023	-0,066
-275,657	-79,451	-0,019	-0,005
-274,643	440,386	0,011	0,017
-273,628	800,000	0,062	-0,179
-272,613	-10,357	-0,112	-0,053
-271,599	-200,000	0,010	0,041
-270,584	-58,044	-0,067	-0,021
-269,570	-14,840	0,042	0,019
-268,555	-200,000	0,002	-0,014
-267,540	-58,266	-0,102	0,032
-266,526	-117,417	-0,166	0,021
-265,511	-84,344	0,192	0,043
-264,497	150,139	-0,083	0,081
-263,482	55,880	0,065	-0,045
-262,467	-200,000	-0,015	0,125
-261,453	-200,000	-0,019	0,081
-260,438	87,642	-0,064	0,051
-259,424	781,241	0,050	0,098
-258,409	224,698	-0,053	-0,061
-257,395	-200,000	-0,005	0,047
-256,380	-200,000	0,030	0,106
-255,365	-18,789	0,057	0,025
-254,351	-114,870	-0,090	0,012
-253,336	120,945	-0,096	-0,086
-252,322	49,324	0,010	-0,007
-251,307	-67,322	-0,079	0,022
-250,292	-137,193	0,125	-0,010
-249,278	-200,000	0,003	-0,031
-248,263	800,000	0,008	0,021
-247,249	-130,327	0,118	0,011
-246,234	54,357	0,045	-0,031
-245,219	173,802	-0,096	0,099
-244,205	110,100	-0,087	-0,074
-243,190	-112,750	0,042	-0,006
-242,176	-111,127	0,096	-0,014
-241,161	-59,960	0,132	-0,040
-240,146	293,593	0,074	0,096
-239,132	-200,000	-0,006	-0,032
-238,117	167,779	0,061	-0,062
-237,103	-124,724	-0,095	-0,010
-236,088	-200,000	0,005	-0,028
-235,073	229,545	-0,071	0,083
-234,059	93,205	0,111	0,089
-233,044	800,000	-0,023	0,062
-232,030	90,513	-0,061	-0,049
-231,015	480,956	0,086	-0,140
-230,000	800,000	-0,080	-0,182
-228,986	-200,000	0,002	0,047
-227,971	6,615	0,088	-0,046
-226,957	-200,000	-0,015	0,075
-225,942	-200,000	0,034	0,117
-224,927	-200,000	0,002	0,111
-223,913	800,000	0,006	0,013
-222,898	-99,899	-0,102	-0,018
-221,884	66,569	-0,056	-0,040
-220,869	-200,000	-0,032	0,139
-219,855	112,173	0,037	0,032
-218,840	-200,000	-0,013	0,067
-217,825	357,917	0,028	0,040
-216,811	-42,392	-0,054	-0,019
-215,796	203,169	-0,101	-0,111
-214,782	-200,000	-0,002	0,050
-213,767	230,439	-0,074	0,086
-212,752	155,344	0,040	0,040
-211,738	-35,287	0,165	0,064
-210,723	-200,000	0,008	-0,077
-209,709	-155,613	0,039	-0,002
-208,694	800,000	-0,013	0,034
-207,679	-200,000	0,024	-0,135
-206,665	311,720	0,076	-0,102
-205,650	44,670	0,156	0,102
-204,636	-36,246	-0,005	0,002
-203,621	800,000	0,014	0,039
-202,606	-200,000	0,020	0,090
-201,592	-200,000	0,011	-0,068
-200,577	159,176	-0,085	-0,085
-199,563	66,517	0,022	0,016
-198,548	800,000	-0,020	0,059
-197,533	152,643	0,140	0,137
-196,519	-17,123	-0,035	-0,016
-195,504	-90,392	-0,133	0,027
-194,490	287,496	0,034	0,044
-193,475	-200,000	0,039	-0,133
-192,460	515,656	-0,022	0,036
-191,446	-102,213	0,107	-0,018
-190,431	130,986	0,129	0,118
-189,417	800,000	0,060	0,183
-188,402	-200,000	0,024	-0,092
-187,387	800,000	0,024	-0,054
-186,373	10,902	0,050	-0,027
-185,358	68,257	-0,080	0,058
-184,344	356,155	0,028	-0,039
-183,329	800,000	0,017	0,040
-182,315	800,000	0,025	0,050
-181,300	-200,000	-0,024	0,234
-180,285	-200,000	-0,020	-0,190
-179,271	-200,000	-0,006	-0,132
-178,256	-58,795	0,026	-0,008
-177,242	92,445	-0,054	0,044
-176,227	800,000	-0,052	0,116
-175,212	-156,337	0,096	-0,004
-174,198	-200,000	0,005	-0,038
-173,183	615,007	-0,042	-0,076
-172,169	66,335	-0,053	0,038
-171,154	597,693	0,024	0,042
-170,139	-200,000	0,017	-0,095
-169,125	396,498	-0,012	0,018
-168,110	331,021	0,037	-0,051
-167,096	-200,000	-0,009	-0,062
-166,081	-121,917	0,150	-0,017
-165,066	430,432	-0,042	-0,065
-164,052	-190,940	0,058	0,000
-163,037	-72,416	-0,113	-0,029
-162,023	378,595	-0,018	-0,027
-161,008	305,153	0,079	-0,105
-159,993	-112,209	0,062	0,009
-158,979	386,294	0,056	-0,083
-157,964	123,153	-0,093	-0,083
-156,950	-69,876	-0,041	0,011
-155,935	-102,668	0,113	-0,019
-154,920	-125,312	-0,161	-0,017
-153,906	-81,142	0,109	-0,025
-152,891	-157,777	0,088	0,004
-151,877	-69,041	-0,111	-0,030
-150,862	8,776	-0,057	-0,030
-149,847	-92,128	0,005	-0,001
-148,833	-200,000	-0,014	-0,083
-147,818	31,620	-0,056	-0,034
-146,804	-6,954	0,165	0,079
-145,789	-116,815	-0,118	-0,015
-144,775	210,890	-0,049	0,055
-143,760	449,139	0,072	-0,114
-142,745	100,498	0,050	0,041
-141,731	-102,567	-0,034	-0,006
-140,716	-35,752	0,060	0,023
-139,702	-125,983	0,066	0,007
-138,687	-200,000	0,009	0,030
-137,672	-91,880	0,060	-0,012
-136,658	-200,000	-0,046	-0,145
-135,643	800,000	0,044	-0,088
-134,629	-122,059	0,083	-0,010
-133,614	441,006	0,045	0,070
-132,599	-51,105	0,048	0,016
-131,585	-200,000	-0,055	0,256
-130,570	393,460	-0,051	0,076
-129,556	800,000	0,022	-0,054
-128,541	-200,000	-0,011	-0,124
-127,526	-67,055	0,074	0,021
-126,512	800,000	0,027	-0,079
-125,497	800,000	0,051	-0,108
-124,483	286,215	0,096	0,124
-123,468	-20,096	-0,030	-0,013
-122,453	199,515	-0,043	-0,047
-121,439	66,648	-0,105	-0,076
-120,424	-200,000	0,006	0,051
-119,410	800,000	0,031	-0,064
-118,395	654,094	-0,043	-0,078
-117,380	-200,000	0,013	0,095
-116,366	-200,000	-0,031	0,134
-115,351	-10,542	0,008	-0,004
-114,337	370,466	-0,090	-0,131
-113,322	394,377	-0,070	0,103
-112,307	-200,000	0,002	-0,046
-111,293	243,693	-0,061	-0,073
-110,278	188,404	0,085	0,090
-109,264	-200,000	0,014	-0,056
-108,249	-5,916	-0,054	-0,026
-107,234	-171,188	-0,092	0,002
-106,220	551,671	0,066	-0,112
-105,205	-200,000	0,067	-0,000
-104,191	-200,000	-0,044	0,145
-103,176	-168,707	0,045	0,001
-102,162	-101,496	-0,098	0,017
-101,147	-200,000	-0,023	0,115
-100,132	-200,000	0,009	0,102
-99,118	-116,124	0,091	-0,012
-98,103	-200,000	-0,005	0,073
-97,089	-64,988	0,091	0,026
-96,074	585,724	0,024	0,042
-95,059	13,739	0,072	0,040
-94,045	489,710	0,057	0,092
-93,030	282,699	0,056	-0,071
-92,016	-129,411	0,131	0,013
-91,001	230,727	0,064	0,074
-89,986	800,000	0,043	0,101
-88,972	800,000	0,018	0,054
-87,957	573,675	0,023	-0,040
-86,943	800,000	-0,006	-0,018
-85,928	-200,000	-0,002	-0,072
-84,913	800,000	0,032	-0,064
-83,899	-200,000	0,008	-0,042
-82,884	-200,000	0,025	0,118
-81,870	-190,654	-0,090	-0,001
-80,855	-90,456	0,102	0,021
-79,840	-200,000	-0,044	0,161
-78,826	800,000	-0,060	-0,132
-77,811	-200,000	-0,012	-0,110
-76,797	-1,697	0,011	-0,005
-75,782	-200,000	-0,029	0,129
-74,767	-59,976	0,083	-0,025
-73,753	64,723	-0,057	0,041
-72,738	-200,000	0,003	0,052
-71,724	717,698	0,094	-0,178
-70,709	94,414	-0,114	-0,092
-69,694	-200,000	-0,021	0,087
-68,680	-5,435	-0,042	0,021
-67,665	-200,000	0,011	0,048
-66,651	-193,074	0,072	-0,000
-65,636	-33,633	-0,078	-0,031
-64,622	-200,000	0,013	-0,134
-63,607	175,180	-0,078	-0,080
-62,592	-200,000	0,030	-0,120
-61,578	91,297	0,080	0,064
-60,563	800,000	0,051	0,143
-59,549	425,164	0,030	0,046
-58,534	-86,574	-1,470	-0,317
-57,519	505,592	-1,348	-2,222
-56,505	-200,000	-0,489	-4,519
-55,490	134,635	1,009	0,928
-54,476	800,000	4,633	10,870
-53,461	-200,000	17,672	283,119
-52,446	800,000	720,612	2229,263
-51,432	563,556	1635,702	2818,514
-50,417	81,122	1659,507	1268,928
-49,403	23,710	1533,518	892,852
-48,388	17,655	1456,870	819,009
-47,373	18,168	1446,315	815,505
-46,359	17,771	1436,872	808,253
-45,344	15,947	1432,274	796,960
-44,330	15,875	1430,238	795,455
-43,315	15,847	1428,663	794,413
-42,300	15,874	1426,913	793,538
-41,286	15,961	1425,896	793,353
-40,271	15,884	1424,412	792,133
-39,257	15,876	1423,360	791,475
-38,242	15,907	1421,873	790,768
-37,227	15,971	1420,349	790,189
-36,213	15,960	1419,195	789,463
-35,198	15,967	1418,021	788,811
-34,184	15,927	1417,114	788,090
-33,169	15,842	1416,147	787,118
-32,154	15,909	1415,003	786,765
-31,140	15,949	1413,638	786,165
-30,125	15,934	1412,647	785,514
-29,111	15,912	1411,602	784,799
-28,096	15,926	1410,265	784,088
-27,082	15,850	1409,169	783,094
-26,067	15,853	1407,966	782,404
-25,052	15,859	1407,036	781,887
-24,038	15,835	1405,999	781,168
-23,023	15,791	1405,090	780,424
-22,009	15,813	1404,073	779,931
-20,994	15,780	1403,161	779,241
-19,979	15,809	1402,215	778,818
-18,965	15,790	1401,084	778,072
-17,950	15,790	1400,195	777,550
-16,936	15,823	1399,315	777,183
-15,921	15,770	1398,005	776,176
-14,906	15,744	1396,968	775,447
-13,892	15,756	1396,364	775,138
-12,877	15,775	1395,291	774,599
-11,863	15,752	1394,463	774,002
-10,848	15,720	1393,361	773,215
-9,833	15,725	1392,505	772,731
-8,819	15,680	1391,689	772,040
-7,804	15,662	1390,733	771,396
-6,790	15,667	1389,715	770,823
-5,775	15,651	1388,704	770,159
-4,760	15,602	1387,914	769,463
-3,746	15,624	1387,143	769,107
-2,731	15,625	1386,245	768,582
-1,717	15,619	1385,244	767,971
-0,702	15,594	1383,581	766,901
0,313	19,470	1304,181	740,754
1,327	35,811	707,152	439,538
2,342	54,999	125,512	85,735
3,356	2,664	16,662	8,527
4,371	5,145	2,965	1,542
5,386	3,293	0,458	0,235
6,400	-5,176	0,116	0,056
7,415	-19,272	-0,258	-0,113
8,429	127,594	-0,332	-0,299
9,444	145,044	-0,299	-0,283
10,459	-34,251	-0,325	-0,125
11,473	-0,665	-0,216	-0,108
12,488	58,405	-0,298	-0,206
13,502	-168,655	-0,308	-0,008
14,517	-37,595	-0,366	-0,137
15,531	98,029	-0,320	-0,260
16,546	77,961	-0,438	-0,330
17,561	46,809	-0,351	-0,230
18,575	-139,489	-0,216	-0,016
19,590	253,600	-0,283	-0,343
20,604	60,899	-0,235	-0,164
21,619	106,512	-0,318	-0,266
22,634	128,705	-0,383	-0,345
23,648	9,469	-0,401	-0,214
24,663	89,302	-0,369	-0,291
25,677	144,794	-0,294	-0,278
26,692	-113,601	-0,352	-0,048
27,707	91,830	-0,313	-0,249
28,721	329,196	-0,305	-0,416
29,736	143,002	-0,389	-0,366
30,750	63,687	-0,413	-0,293
31,765	74,397	-0,498	-0,369
32,780	212,405	-0,254	-0,283
33,794	170,246	-0,197	-0,199
34,809	122,721	-0,329	-0,291
35,823	98,460	-0,304	-0,248
36,838	78,805	-0,396	-0,299
37,853	114,504	-0,391	-0,337
38,867	68,147	-0,396	-0,286
39,882	164,750	-0,408	-0,407
40,896	49,890	-0,243	-0,161
41,911	-39,871	-0,306	-0,112
42,926	289,789	-0,265	-0,340
43,940	128,785	-0,312	-0,280
44,955	476,506	-0,237	-0,379
45,969	145,650	-0,374	-0,354
46,984	37,109	-0,427	-0,266
47,999	-23,080	-0,333	-0,141
49,013	139,253	-0,397	-0,369
50,028	93,535	-0,334	-0,267
51,042	82,148	-0,356	-0,272
52,057	146,538	-0,238	-0,226
53,071	16,948	-0,373	-0,208
54,086	-4,749	-0,459	-0,222
55,101	123,862	-0,357	-0,316
56,115	35,088	-0,383	-0,236
57,130	62,846	-0,284	-0,200
58,144	28,556	-0,310	-0,184
59,159	14,291	-0,410	-0,225
60,174	114,653	-0,397	-0,341
61,188	130,540	-0,338	-0,305
62,203	-4,718	-0,385	-0,187
63,217	75,382	-0,329	-0,245
64,232	142,070	-0,292	-0,273
65,247	-29,744	-0,493	-0,197
66,261	79,425	-0,337	-0,254
67,276	120,632	-0,383	-0,335
68,290	51,399	-0,245	-0,164
69,305	37,195	-0,386	-0,240
70,320	132,417	-0,231	-0,210
71,334	141,355	-0,296	-0,276
72,349	202,195	-0,265	-0,288
73,363	23,658	-0,411	-0,237
74,378	2,724	-0,300	-0,152
75,393	-54,610	-0,335	-0,106
76,407	-35,856	-0,242	-0,092
77,422	65,719	-0,283	-0,202
78,436	34,255	-0,293	-0,180
79,451	-52,240	-0,274	-0,089
80,466	272,945	-0,254	-0,316
81,480	274,641	-0,298	-0,372
82,495	17,903	-0,221	-0,123
83,509	107,226	-0,306	-0,255
84,524	150,983	-0,215	-0,206
85,539	-38,013	-0,242	-0,090
86,553	86,499	-0,228	-0,176
87,568	126,772	-0,231	-0,205
88,582	37,814	-0,388	-0,242
89,597	-43,370	-0,336	-0,119
90,611	-20,228	-0,365	-0,157
91,626	211,996	-0,239	-0,265
92,641	61,186	-0,270	-0,188
93,655	49,090	-0,401	-0,264
94,670	-112,490	-0,359	-0,050
95,684	188,592	-0,263	-0,276
96,699	173,415	-0,260	-0,264
97,714	106,229	-0,208	-0,173
98,728	58,820	-0,116	-0,080
99,743	-9,837	-0,242	-0,113
100,757	-135,974	-0,279	-0,023
101,772	-8,046	-0,265	-0,125
102,787	91,572	-0,246	-0,194
103,801	94,379	-0,394	-0,314
104,816	-4,388	-0,344	-0,166
105,830	129,714	-0,246	-0,221
106,845	-110,517	-0,243	-0,035
107,860	-41,690	-0,317	-0,114
108,874	163,790	-0,202	-0,200
109,889	51,707	-0,300	-0,200
110,903	-24,939	-0,317	-0,131
111,918	446,161	-0,212	-0,328
112,933	48,713	-0,290	-0,190
113,947	107,343	-0,181	-0,151
114,962	-42,013	-0,251	-0,090
115,976	67,175	-0,308	-0,220
116,991	-43,018	-0,274	-0,097
118,006	53,645	-0,295	-0,198
119,020	81,210	-0,316	-0,239
120,035	-47,606	-0,271	-0,092
121,049	-142,227	-0,239	-0,016
122,064	-22,548	-0,313	-0,132
123,079	-48,078	-0,407	-0,137
124,093	209,598	-0,178	-0,196
125,108	-2,647	-0,284	-0,139
126,122	-14,630	-0,097	-0,044
127,137	144,363	-0,256	-0,239
128,151	321,259	-0,242	-0,323
129,166	219,663	-0,220	-0,247
130,181	800,000	-0,093	-0,264
131,195	131,131	-0,258	-0,232
132,210	46,834	-0,297	-0,193
133,224	722,146	-0,149	-0,279
134,239	-2,777	-0,295	-0,144
135,254	46,552	-0,272	-0,176
136,268	69,754	-0,167	-0,120
137,283	124,098	-0,274	-0,241
138,297	128,403	-0,210	-0,188
139,312	41,534	-0,341	-0,215
140,327	-13,542	-0,319	-0,144
141,341	158,185	-0,220	-0,213
142,356	201,488	-0,142	-0,153
143,370	333,253	-0,148	-0,201
144,385	13,469	-0,307	-0,166
145,400	13,918	-0,354	-0,192
146,414	-34,769	-0,305	-0,116
147,429	386,151	-0,207	-0,299
148,443	363,804	-0,136	-0,192
149,458	133,815	-0,223	-0,202
150,473	31,318	-0,255	-0,153
151,487	-71,856	-0,174	-0,045
152,502	86,354	-0,183	-0,141
153,516	150,677	-0,282	-0,268
154,531	-35,234	-0,378	-0,143
155,546	10,364	-0,305	-0,162
156,560	164,665	-0,226	-0,223
157,575	81,142	-0,197	-0,149
158,589	156,998	-0,231	-0,223
159,604	71,639	-0,162	-0,117
160,619	71,309	-0,303	-0,219
161,633	117,242	-0,196	-0,168
162,648	95,250	-0,243	-0,193
163,662	43,961	-0,206	-0,132
164,677	249,742	-0,127	-0,151
165,692	696,698	-0,113	-0,208
166,706	-35,489	-0,375	-0,142
167,721	2,002	-0,278	-0,139
168,735	308,327	-0,146	-0,191
169,750	-18,086	-0,339	-0,148
170,764	-36,505	-0,305	-0,114
171,779	391,800	-0,149	-0,217
172,794	800,000	-0,120	-0,286
173,808	-65,184	-0,185	0,052
174,823	123,528	-0,218	-0,191
175,837	236,786	-0,164	-0,190
176,852	284,053	-0,184	-0,231
177,867	-143,651	-0,225	-0,015
178,881	266,144	-0,155	-0,189
179,896	71,193	-0,227	-0,164
180,910	19,377	-0,203	-0,113
181,925	30,572	-0,294	-0,175
182,940	800,000	-0,150	-0,312
183,954	117,820	-0,189	-0,162
184,969	291,841	-0,215	-0,273
185,983	99,912	-0,158	-0,128
186,998	103,342	-0,234	-0,191
188,013	3,740	-0,210	-0,106
189,027	162,693	-0,239	-0,234
190,042	-64,062	-0,349	-0,098
191,056	160,073	-0,192	-0,187
192,071	110,841	-0,195	-0,164
193,086	71,771	-0,268	-0,194
194,100	42,509	-0,321	-0,203
195,115	147,616	-0,181	-0,170
196,129	-87,936	-0,228	0,047
197,144	153,040	-0,299	-0,285
198,159	151,029	-0,181	-0,172
199,173	800,000	-0,074	-0,200
200,188	133,701	-0,178	-0,160
201,202	214,634	-0,187	-0,207
202,217	-107,714	-0,305	0,046
203,232	-38,951	-0,222	-0,081
204,246	59,215	-0,208	-0,142
205,261	-17,985	-0,305	-0,132
206,275	34,627	-0,266	-0,162
207,290	800,000	-0,070	-0,184
208,304	565,435	-0,083	-0,141
209,319	122,206	-0,190	-0,165
210,334	-125,556	-0,164	-0,017
211,348	536,840	-0,116	-0,193
212,363	98,853	-0,180	-0,145
213,377	31,968	-0,141	-0,084
214,392	613,259	-0,124	-0,217
215,407	288,371	-0,112	-0,142
216,421	-71,689	-0,140	-0,036
217,436	108,035	-0,194	-0,161
218,450	45,226	-0,205	-0,131
219,465	16,528	-0,128	-0,070
220,480	68,625	-0,258	-0,184
221,494	121,924	-0,259	-0,225
222,509	295,964	-0,146	-0,187
223,523	51,374	-0,155	-0,102
224,538	800,000	-0,098	-0,226
225,553	7,595	-0,269	-0,139
226,567	14,426	-0,202	-0,109
227,582	48,243	-0,126	-0,082
228,596	-22,830	-0,170	-0,071
229,611	652,059	-0,037	-0,066
230,626	50,317	-0,201	-0,131
231,640	188,890	-0,177	-0,184
232,655	163,430	-0,157	-0,153
233,669	563,404	-0,142	-0,239
234,684	502,488	-0,063	-0,101
235,699	-200,000	-0,028	-0,168
236,713	-6,182	-0,118	-0,056
237,728	10,721	-0,122	-0,065
238,742	800,000	-0,074	-0,211
239,757	63,408	-0,228	-0,159
240,772	8,982	-0,283	-0,148
241,786	112,182	-0,185	-0,155
242,801	242,748	-0,185	-0,216
243,815	800,000	-0,040	-0,087
244,830	632,516	-0,117	-0,207
245,844	25,166	-0,267	-0,153
246,859	41,746	-0,195	-0,122
247,874	-13,525	-0,253	-0,113
248,888	-121,917	-0,250	-0,028
249,903	145,324	-0,182	-0,169
250,917	-27,652	-0,163	-0,065
251,932	711,969	-0,108	-0,199
252,947	574,155	-0,107	-0,181
253,961	-69,580	-0,237	-0,063
254,976	53,078	-0,284	-0,188
255,990	-3,199	-0,125	-0,060
257,005	-11,550	-0,198	-0,090
258,020	45,860	-0,190	-0,121
259,034	-74,800	-0,085	0,021
260,049	126,527	-0,152	-0,134
261,063	800,000	-0,070	-0,168
262,078	595,784	-0,139	-0,240
263,093	535,831	-0,163	-0,269
264,107	71,895	-0,177	-0,127
265,122	345,292	-0,109	-0,148
266,136	-35,114	-0,276	-0,104
267,151	-103,586	-0,051	-0,008
268,166	28,994	-0,173	-0,101
269,180	123,553	-0,153	-0,133
270,195	-28,538	-0,126	-0,050
271,209	180,594	-0,131	-0,133
272,224	-39,386	-0,286	-0,103
273,239	-155,742	-0,139	-0,006
274,253	121,206	-0,108	-0,093
275,268	82,929	-0,083	-0,063
276,282	-22,709	-0,238	-0,099
277,297	485,397	-0,179	-0,283
278,312	332,846	-0,136	-0,182
279,326	-59,864	-0,202	-0,059
280,341	431,262	-0,169	-0,254
281,355	-32,898	-0,315	-0,120
282,370	52,536	-0,189	-0,125
283,384	115,589	-0,146	-0,124
284,399	280,140	-0,075	-0,093
285,414	-55,988	-0,273	-0,084
286,428	129,643	-0,093	-0,082
287,443	175,061	-0,148	-0,149
288,457	-5,125	-0,207	-0,098
289,472	32,361	-0,158	-0,094
290,487	-41,567	-0,194	-0,068
291,501	3,251	-0,268	-0,134
292,516	800,000	-0,124	-0,325
293,530	792,203	-0,121	-0,230
294,545	800,000	-0,075	-0,204
295,560	-200,000	0,028	-0,115
296,574	158,525	-0,077	-0,074
297,589	52,374	-0,228	-0,150
298,603	52,764	-0,201	-0,132
299,618	-78,138	-0,196	0,046
300,633	148,749	-0,109	-0,102
301,647	800,000	-0,044	-0,092
302,662	-200,000	0,003	-0,052
303,676	113,407	-0,135	-0,113
304,691	2,991	-0,323	-0,161
305,706	34,201	-0,295	-0,177
306,720	-8,029	-0,193	-0,090
307,735	91,002	-0,113	-0,088
308,749	800,000	-0,098	-0,205
309,764	255,103	-0,139	-0,164
310,779	211,838	-0,149	-0,162
311,793	95,293	-0,213	-0,167
312,808	490,661	-0,140	-0,221
313,822	616,487	-0,140	-0,243
314,837	512,772	-0,186	-0,300
315,852	-45,589	-0,061	-0,021
316,866	69,148	-0,213	-0,151
317,881	800,000	-0,016	-0,046
318,895	193,274	-0,168	-0,175
319,910	-37,996	-0,207	-0,075
320,925	328,494	-0,175	-0,232
321,939	127,712	-0,038	-0,033
322,954	-65,616	-0,230	-0,063
323,968	-200,000	-0,019	-0,087
324,983	-37,293	-0,182	0,067
325,997	-74,511	-0,135	0,033
327,012	800,000	-0,062	-0,178
328,027	800,000	-0,091	-0,221
329,041	218,164	-0,118	-0,130
330,056	218,805	-0,144	-0,159
331,070	-200,000	-0,033	-0,184
332,085	321,870	0,022	0,029
333,100	-19,578	-0,135	-0,057
334,114	182,032	-0,050	-0,051
335,129	-120,644	-0,175	-0,020
336,143	-200,000	-0,045	-0,201
337,158	-141,410	-0,156	0,011
338,173	800,000	-0,044	-0,117
339,187	-32,658	-0,113	-0,043
340,202	-83,753	-0,148	0,032
341,216	800,000	-0,083	-0,203
342,231	125,420	-0,202	-0,175
343,246	141,770	-0,213	-0,194
344,260	800,000	-0,064	-0,174
345,275	-200,000	-0,003	-0,217
346,289	-99,663	-0,217	-0,037
347,304	579,056	-0,149	-0,251
348,319	111,615	-0,101	-0,083
349,333	39,741	-0,134	0,083
350,348	107,262	-0,145	-0,119
351,362	223,921	-0,116	-0,128
352,377	78,745	-0,060	-0,044
353,392	-200,000	0,001	-0,152
354,406	800,000	-0,057	-0,168
355,421	209,873	1314,347	1417,522
356,435	161,544	1475,055	1418,040
