DTS Sentinel unit serial number:	SN410029Multiplexer serial number:	ORYXHardware model number:	OX2-SRSoftware version number:	ORYX F/W v4,00 Oryx Data Collector v3.7.2.0data status	okinstallation	B3 Nyhavnadifferential loss correction	single-endedforward channel	channel 1reverse channel	N/Adate	2023/12/04time	19:42:30forward acquisition time	300,00reverse acquisition time	0,00gamma	499,1914k internal	0,3200k external	0,3200temperature offset calibration	1,0000default loss term (dB/km)	0,3820temperature slope calibration	1,0000multiplexer offset coefficient	1,0000multiplexer slope coefficient	1,0000fibre end	0,00T internal ref (°C)	14,57T ext. ref 1 (°C)	-0,65T ext. ref 2 (°C)	-0,67length (m)	temperature (°C)	Stokes	anti-Stokes-744,400	302,059	-0,164	-0,221
-743,385	-200,000	0,035	0,385
-742,371	60,283	-0,237	-0,170
-741,356	800,000	0,110	0,307
-740,342	38,739	-0,223	-0,144
-739,327	-200,000	-0,035	0,171
-738,312	-14,749	-0,295	-0,137
-737,298	-200,000	0,004	0,293
-736,283	49,909	-0,327	-0,224
-735,269	-200,000	0,010	0,376
-734,254	324,747	-0,160	-0,222
-733,239	-9,624	-0,177	0,085
-732,225	-200,000	-0,009	-0,203
-731,210	296,696	-0,099	0,132
-730,196	209,864	0,037	-0,042
-729,181	-109,734	-0,062	-0,009
-728,167	228,726	0,048	-0,057
-727,152	-33,774	-0,036	0,014
-726,137	-53,233	0,122	0,040
-725,123	-129,852	0,102	0,010
-724,108	146,498	-0,068	-0,066
-723,094	-200,000	-0,021	-0,145
-722,079	101,276	-0,092	0,078
-721,064	800,000	-0,009	0,028
-720,050	195,600	0,071	0,078
-719,035	-45,051	-0,145	-0,052
-718,021	-162,911	0,156	-0,005
-717,006	-179,785	-0,053	0,001
-715,991	-99,813	-0,065	-0,012
-714,977	326,476	-0,108	-0,151
-713,962	589,585	-0,072	0,130
-712,948	455,313	0,032	0,051
-711,933	-96,394	-0,050	-0,010
-710,918	-163,514	-0,024	0,001
-709,904	246,657	-0,067	-0,082
-708,889	800,000	0,013	0,030
-707,875	-24,021	-0,106	-0,046
-706,860	194,912	-0,057	0,063
-705,845	552,428	-0,068	-0,119
-704,831	-32,359	0,165	0,067
-703,816	-49,915	-0,108	0,037
-702,802	121,583	-0,121	-0,110
-701,787	800,000	0,045	-0,117
-700,772	9,479	0,019	-0,010
-699,758	43,625	0,132	-0,087
-698,743	647,378	0,034	-0,064
-697,729	-200,000	0,008	0,038
-696,714	-84,802	0,049	0,011
-695,699	113,859	-0,134	0,118
-694,685	800,000	-0,073	-0,166
-693,670	-39,460	0,017	-0,006
-692,656	-123,354	0,149	-0,017
-691,641	-200,000	0,009	0,216
-690,627	362,124	0,090	0,132
-689,612	-200,000	-0,011	-0,058
-688,597	497,975	-0,048	-0,081
-687,583	-124,058	-0,129	0,015
-686,568	-54,279	-0,099	-0,033
-685,554	71,379	0,127	-0,095
-684,539	-164,567	-0,119	-0,004
-683,524	-30,472	-0,135	0,055
-682,510	-128,172	0,085	-0,009
-681,495	800,000	-0,093	0,189
-680,481	-28,076	0,058	0,024
-679,466	-28,043	-0,047	-0,020
-678,451	800,000	-0,039	0,084
-677,437	-200,000	0,017	-0,121
-676,422	-118,421	0,099	0,013
-675,408	800,000	0,054	0,158
-674,393	48,585	0,016	0,011
-673,378	452,634	0,011	0,018
-672,364	243,741	0,025	0,031
-671,349	800,000	0,040	-0,100
-670,335	-200,000	-0,003	-0,042
-669,320	194,450	0,005	0,005
-668,305	358,368	0,065	0,094
-667,291	-89,940	0,035	0,007
-666,276	-64,327	-0,108	0,032
-665,262	120,923	-0,080	-0,072
-664,247	800,000	-0,068	-0,193
-663,232	800,000	-0,038	-0,092
-662,218	42,257	0,151	0,100
-661,203	172,177	0,049	-0,051
-660,189	79,635	0,051	0,040
-659,174	-200,000	0,022	-0,115
-658,159	392,820	0,079	-0,119
-657,145	265,757	-0,074	-0,093
-656,130	-4,100	0,055	-0,027
-655,116	-6,189	0,021	0,010
-654,101	800,000	-0,034	0,069
-653,086	-111,800	-0,109	0,016
-652,072	-65,463	-0,201	0,058
-651,057	-72,717	0,021	-0,006
-650,043	-200,000	-0,031	-0,128
-649,028	30,663	-0,082	-0,051
-648,014	292,482	-0,077	0,101
-646,999	198,001	-0,088	-0,098
-645,984	-17,644	-0,038	0,017
-644,970	15,131	-0,027	-0,015
-643,955	-126,808	-0,038	-0,004
-642,941	800,000	-0,054	-0,164
-641,926	309,209	0,018	-0,024
-640,911	29,989	-0,100	-0,061
-639,897	570,414	-0,060	-0,107
-638,882	-93,591	-0,056	0,011
-637,868	-105,058	-0,031	-0,005
-636,853	-15,618	0,132	0,061
-635,838	747,273	0,045	-0,089
-634,824	-200,000	0,001	0,033
-633,809	9,347	0,140	0,077
-632,795	491,285	-0,046	-0,077
-631,780	-90,613	0,049	-0,010
-630,765	-154,007	-0,114	-0,006
-629,751	-1,676	-0,066	0,034
-628,736	378,023	-0,026	0,039
-627,722	-200,000	0,004	0,124
-626,707	800,000	-0,022	0,061
-625,692	-127,277	0,131	-0,014
-624,678	-200,000	0,023	0,107
-623,663	456,300	0,020	0,032
-622,649	-19,298	0,091	0,041
-621,634	-176,380	-0,103	-0,002
-620,619	-200,000	0,008	-0,116
-619,605	-64,174	0,086	0,025
-618,590	259,272	0,042	0,053
-617,576	-200,000	0,008	-0,076
-616,561	-0,205	-0,059	-0,030
-615,546	565,324	-0,049	-0,087
-614,532	83,496	-0,093	-0,073
-613,517	119,314	-0,057	0,051
-612,503	-14,025	-0,120	0,056
-611,488	16,733	0,080	-0,045
-610,474	-133,941	-0,073	-0,006
-609,459	-115,392	-0,116	0,016
-608,444	-11,836	-0,100	0,047
-607,430	800,000	-0,069	-0,180
-606,415	-119,417	-0,041	0,005
-605,401	49,032	-0,043	0,029
-604,386	-200,000	-0,008	0,087
-603,371	-14,452	-0,017	-0,008
-602,357	23,382	-0,039	0,023
-601,342	373,057	0,014	-0,020
-600,328	311,592	-0,068	-0,093
-599,313	-124,614	-0,168	0,019
-598,298	300,847	0,067	-0,089
-597,284	-129,827	-0,012	0,001
-596,269	-111,043	-0,099	0,015
-595,255	166,681	-0,036	0,037
-594,240	-200,000	0,008	0,033
-593,225	-34,673	-0,095	0,038
-592,211	-148,826	-0,099	0,006
-591,196	46,968	-0,040	0,027
-590,182	100,099	-0,035	0,029
-589,167	39,305	-0,060	-0,039
-588,152	688,221	-0,070	0,133
-587,138	800,000	-0,005	0,014
-586,123	608,450	-0,059	-0,106
-585,109	716,298	0,033	0,064
-584,094	290,107	-0,082	-0,108
-583,079	-41,860	0,129	0,048
-582,065	-200,000	-0,011	0,073
-581,050	649,917	0,012	-0,022
-580,036	18,373	0,072	-0,042
-579,021	-200,000	-0,001	-0,009
-578,006	-37,767	-0,077	0,030
-576,992	-200,000	-0,014	0,096
-575,977	419,083	0,039	-0,060
-574,963	-200,000	-0,025	0,102
-573,948	-200,000	0,013	-0,065
-572,934	-200,000	0,085	0,000
-571,919	-200,000	0,006	-0,068
-570,904	434,960	0,055	0,087
-569,890	61,387	-0,028	-0,020
-568,875	800,000	0,067	-0,166
-567,861	271,184	0,018	0,023
-566,846	-100,677	0,157	0,028
-565,831	-131,363	-0,058	0,005
-564,817	-121,769	-0,004	-0,000
-563,802	-101,544	0,067	-0,012
-562,788	16,069	-0,051	-0,029
-561,773	106,773	0,061	-0,053
-560,758	-121,621	0,018	0,002
-559,744	800,000	0,032	-0,066
-558,729	451,098	0,052	0,083
-557,715	-81,996	-0,071	0,017
-556,700	-31,203	0,092	-0,037
-555,685	-0,995	-0,082	0,042
-554,671	69,165	-0,054	-0,040
-553,656	104,544	0,041	0,035
-552,642	-200,000	-0,004	-0,070
-551,627	193,491	0,024	-0,026
-550,612	71,274	-0,029	0,022
-549,598	26,974	-0,087	-0,052
-548,583	509,396	-0,087	-0,147
-547,569	55,365	-0,073	0,051
-546,554	800,000	0,034	-0,077
-545,539	800,000	0,012	0,030
-544,525	-116,830	-0,038	0,005
-543,510	-105,945	0,127	0,020
-542,496	-55,096	-0,114	-0,037
-541,481	-178,167	0,098	-0,002
-540,466	800,000	-0,069	-0,189
-539,452	125,303	0,037	0,033
-538,437	800,000	0,020	-0,050
-537,423	31,330	0,081	0,050
-536,408	-86,451	0,039	0,009
-535,393	-21,289	-0,064	0,028
-534,379	-76,462	0,072	-0,018
-533,364	102,275	0,099	-0,084
-532,350	772,376	0,061	0,121
-531,335	330,426	-0,084	0,117
-530,321	-200,000	0,027	-0,162
-529,306	-200,000	0,042	-0,220
-528,291	254,151	-0,178	-0,219
-527,277	-200,000	0,020	-0,074
-526,262	-20,679	0,151	-0,067
-525,248	-82,427	0,068	-0,016
-524,233	0,855	0,124	0,064
-523,218	-29,849	0,072	0,029
-522,204	267,234	0,019	-0,024
-521,189	-115,436	-0,062	-0,008
-520,175	-200,000	-0,012	-0,082
-519,160	-200,000	-0,003	-0,229
-518,145	800,000	-0,028	0,084
-517,131	139,863	0,091	0,086
-516,116	53,432	-0,095	-0,065
-515,102	-58,441	0,151	-0,047
-514,087	175,867	-0,011	0,012
-513,072	-200,000	0,003	-0,092
-512,058	430,467	-0,058	0,090
-511,043	-39,528	0,057	0,021
-510,029	-200,000	0,041	0,136
-509,014	698,779	-0,057	0,108
-507,999	-67,231	-0,057	-0,016
-506,985	490,616	0,048	-0,079
-505,970	800,000	0,036	-0,078
-504,956	158,227	-0,089	0,089
-503,941	-200,000	-0,014	-0,116
-502,926	-200,000	0,012	0,059
-501,912	-43,708	0,102	0,037
-500,897	784,051	0,020	0,040
-499,883	116,829	-0,057	-0,050
-498,868	-200,000	0,024	-0,085
-497,853	230,050	0,055	-0,065
-496,839	-104,160	0,107	-0,018
-495,824	800,000	-0,048	0,113
-494,810	-176,061	-0,053	-0,001
-493,795	800,000	-0,061	0,129
-492,781	-97,787	0,109	-0,020
-491,766	329,066	-0,088	-0,122
-490,751	-200,000	0,003	-0,024
-489,737	-138,135	-0,024	-0,002
-488,722	-200,000	-0,005	-0,015
-487,708	-140,496	0,094	-0,007
-486,693	800,000	0,035	-0,072
-485,678	-200,000	0,002	-0,025
-484,664	22,062	-0,118	-0,069
-483,649	-200,000	-0,017	0,098
-482,635	259,266	-0,066	0,082
-481,620	800,000	0,011	0,028
-480,605	39,240	0,156	-0,100
-479,591	630,454	0,031	0,056
-478,576	-24,167	-0,115	0,049
-477,562	-39,797	0,091	0,034
-476,547	-186,014	0,041	0,000
-475,532	-29,204	-0,097	0,040
-474,518	105,016	0,156	-0,133
-473,503	800,000	-0,026	0,071
-472,489	390,752	-0,033	0,049
-471,474	245,844	-0,071	-0,087
-470,459	800,000	-0,006	-0,014
-469,445	48,967	0,025	0,017
-468,430	-200,000	0,010	0,046
-467,416	-200,000	0,001	0,064
-466,401	79,288	0,067	0,051
-465,386	429,558	-0,081	0,126
-464,372	-200,000	0,071	-0,000
-463,357	40,420	0,053	-0,034
-462,343	252,267	-0,042	-0,052
-461,328	800,000	0,026	-0,062
-460,313	-160,182	-0,042	0,002
-459,299	-200,000	0,007	-0,062
-458,284	-18,894	0,084	0,038
-457,270	382,886	0,039	0,058
-456,255	800,000	-0,019	0,043
-455,241	800,000	0,026	-0,073
-454,226	674,059	-0,078	-0,146
-453,211	-32,071	0,062	0,025
-452,197	-86,196	0,127	0,028
-451,182	800,000	0,032	0,082
-450,168	166,852	-0,074	-0,076
-449,153	-200,000	0,001	0,013
-448,138	800,000	-0,075	0,158
-447,124	330,633	-0,021	0,029
-446,109	-137,339	-0,086	0,007
-445,095	559,242	0,058	0,101
-444,080	133,013	0,011	0,011
-443,065	-200,000	-0,026	-0,144
-442,051	-115,700	0,021	0,003
-441,036	306,935	-0,100	-0,134
-440,022	318,138	0,075	-0,102
-439,007	-86,679	-0,073	0,016
-437,992	-200,000	-0,009	-0,063
-436,978	25,248	0,026	0,015
-435,963	377,277	-0,019	-0,028
-434,949	74,439	0,145	-0,110
-433,934	-200,000	-0,009	-0,041
-432,919	25,374	-0,038	-0,023
-431,905	-200,000	-0,001	-0,017
-430,890	-200,000	-0,007	-0,117
-429,876	36,914	0,167	-0,106
-428,861	242,341	-0,023	0,027
-427,846	17,649	-0,086	-0,049
-426,832	-200,000	-0,009	-0,034
-425,817	-25,503	0,122	0,051
-424,803	67,057	0,080	0,059
-423,788	-200,000	-0,010	0,131
-422,773	484,176	0,109	0,178
-421,759	227,935	0,103	0,121
-420,744	-200,000	-0,019	0,068
-419,730	556,818	-0,035	0,061
-418,715	299,388	0,092	-0,122
-417,701	74,796	0,162	0,122
-416,686	800,000	-0,054	0,121
-415,671	153,956	0,026	0,026
-414,657	68,565	0,021	-0,016
-413,642	-200,000	0,000	-0,041
-412,628	769,970	0,032	-0,062
-411,613	-75,092	-0,124	0,032
-410,598	-200,000	-0,001	0,019
-409,584	90,653	0,044	0,035
-408,569	800,000	-0,012	-0,035
-407,555	-123,146	0,064	0,007
-406,540	-200,000	0,013	0,159
-405,525	-200,000	0,004	0,081
-404,511	47,764	0,071	-0,048
-403,496	17,961	-0,171	-0,098
-402,482	35,147	-0,091	-0,057
-401,467	156,985	0,070	0,069
-400,452	800,000	-0,052	0,112
-399,438	-200,000	0,037	-0,132
-398,423	594,842	-0,064	-0,114
-397,409	-44,406	-0,213	0,076
-396,394	-72,052	0,118	-0,031
-395,379	-31,700	0,143	-0,057
-394,365	500,879	0,023	-0,037
-393,350	-41,989	-0,034	0,012
-392,336	800,000	-0,047	0,099
-391,321	275,780	-0,035	0,045
-390,306	4,318	-0,113	-0,059
-389,292	-118,545	-0,091	-0,011
-388,277	133,458	0,081	0,075
-387,263	381,497	0,046	-0,068
-386,248	-200,000	-0,030	0,226
-385,233	-77,429	0,017	0,004
-384,219	-200,000	0,006	0,055
-383,204	78,058	-0,005	0,004
-382,190	-200,000	0,018	0,064
-381,175	-23,081	0,153	-0,066
-380,160	48,557	0,031	-0,021
-379,146	-200,000	-0,001	-0,061
-378,131	90,694	0,132	0,106
-377,117	-5,013	-0,012	0,006
-376,102	-200,000	0,018	-0,059
-375,088	-200,000	-0,006	-0,098
-374,073	-133,071	-0,135	-0,012
-373,058	157,484	0,056	0,056
-372,044	109,801	-0,041	0,035
-371,029	-17,054	-0,044	0,020
-370,015	-56,967	-0,030	-0,010
-369,000	266,989	-0,093	-0,117
-367,985	800,000	0,042	-0,098
-366,971	24,798	-0,013	-0,007
-365,956	800,000	0,030	0,074
-364,942	148,688	0,113	-0,110
-363,927	-104,174	0,023	-0,004
-362,912	-200,000	-0,004	-0,052
-361,898	-173,808	-0,049	0,001
-360,883	-200,000	0,049	-0,196
-359,869	-200,000	-0,019	-0,142
-358,854	448,918	-0,028	-0,044
-357,839	38,396	0,040	-0,025
-356,825	229,794	-0,055	0,065
-355,810	-200,000	0,032	-0,125
-354,796	741,978	-0,053	-0,103
-353,781	-13,971	0,070	-0,032
-352,766	-19,857	-0,066	0,029
-351,752	-129,282	0,076	0,007
-350,737	77,785	0,082	0,062
-349,723	-200,000	0,006	0,128
-348,708	-200,000	-0,034	-0,109
-347,693	182,406	0,013	0,014
-346,679	800,000	0,046	0,101
-345,664	-7,654	0,051	0,025
-344,650	-200,000	-0,025	0,140
-343,635	-200,000	0,041	-0,141
-342,620	100,573	-0,105	0,087
-341,606	105,821	0,095	0,081
-340,591	-180,390	-0,075	-0,001
-339,577	-5,384	-0,036	0,018
-338,562	-3,278	-0,126	-0,063
-337,548	214,484	-0,052	-0,059
-336,533	-200,000	-0,026	0,102
-335,518	800,000	0,011	0,023
-334,504	-103,642	-0,050	-0,008
-333,489	325,248	-0,119	0,163
-332,475	113,348	0,046	0,040
-331,460	-200,000	-0,219	0,000
-330,445	-200,000	0,004	-0,096
-329,431	572,664	0,095	0,167
-328,416	800,000	0,056	0,127
-327,402	-53,701	0,082	0,027
-326,387	-144,583	-0,118	0,008
-325,372	-200,000	0,005	0,067
-324,358	172,862	0,033	-0,034
-323,343	97,301	-0,059	0,049
-322,329	-75,406	0,043	-0,011
-321,314	800,000	-0,006	0,013
-320,299	-200,000	0,010	0,090
-319,285	160,854	0,084	-0,084
-318,270	293,386	0,015	-0,020
-317,256	53,232	-0,159	-0,109
-316,241	-149,104	-0,092	-0,005
-315,226	26,834	0,142	0,085
-314,212	-10,175	0,046	0,022
-313,197	-200,000	-0,009	0,058
-312,183	120,916	0,024	0,021
-311,168	-25,115	-0,211	-0,089
-310,153	-133,688	-0,103	0,009
-309,139	126,053	-0,101	0,091
-308,124	103,924	0,060	-0,051
-307,110	800,000	0,022	0,070
-306,095	402,680	0,060	0,091
-305,080	-84,446	-0,132	-0,030
-304,066	-140,033	-0,099	0,007
-303,051	-43,509	-0,163	-0,059
-302,037	-1,452	0,035	-0,017
-301,022	-29,184	0,062	-0,025
-300,008	397,312	-0,077	0,116
-298,993	-200,000	-0,005	0,064
-297,978	-123,138	0,114	-0,013
-296,964	36,638	-0,050	-0,031
-295,949	800,000	-0,055	0,112
-294,935	-48,792	-0,101	0,034
-293,920	-200,000	-0,032	0,126
-292,905	16,616	-0,005	-0,003
-291,891	582,607	-0,086	-0,151
-290,876	777,161	0,021	0,041
-289,862	146,036	-0,007	0,007
-288,847	800,000	-0,011	-0,023
-287,832	-39,438	0,108	0,040
-286,818	263,770	-0,077	-0,096
-285,803	112,684	0,113	0,097
-284,789	84,194	0,143	0,111
-283,774	-200,000	0,017	0,082
-282,759	271,328	0,021	0,026
-281,745	-200,000	-0,045	-0,142
-280,730	-79,830	0,067	0,016
-279,716	19,920	-0,065	-0,037
-278,701	13,938	-0,122	-0,068
-277,686	-10,634	-0,072	-0,034
-276,672	-23,256	0,163	-0,070
-275,657	328,115	-0,027	0,037
-274,643	800,000	0,038	-0,108
-273,628	800,000	-0,047	-0,095
-272,613	800,000	-0,050	0,100
-271,599	-102,473	0,091	0,015
-270,584	-200,000	-0,003	-0,038
-269,570	9,061	-0,068	0,036
-268,555	-21,078	-0,118	0,051
-267,540	-151,005	-0,094	-0,005
-266,526	-82,739	0,083	-0,019
-265,511	-200,000	0,014	-0,110
-264,497	40,697	0,126	0,081
-263,482	-200,000	0,003	-0,014
-262,467	-200,000	0,015	0,050
-261,453	-155,363	0,060	-0,003
-260,438	465,011	0,093	-0,150
-259,424	111,292	0,029	0,025
-258,409	-84,561	0,055	0,012
-257,395	-164,354	0,087	0,003
-256,380	-123,376	0,032	0,004
-255,365	-200,000	-0,037	0,215
-254,351	-83,967	0,122	-0,027
-253,336	-200,000	0,004	-0,075
-252,322	4,026	0,020	0,010
-251,307	274,349	0,029	-0,037
-250,292	-30,199	0,028	-0,011
-249,278	800,000	0,036	-0,097
-248,263	-200,000	0,001	-0,018
-247,249	-55,553	-0,107	-0,034
-246,234	82,187	-0,036	-0,028
-245,219	89,294	0,113	0,090
-244,205	279,902	-0,054	-0,069
-243,190	-200,000	0,001	0,119
-242,176	-200,000	0,014	0,110
-241,161	-200,000	0,006	0,077
-240,146	800,000	0,069	0,188
-239,132	-0,103	-0,073	0,037
-238,117	-200,000	0,010	-0,125
-237,103	-200,000	-0,025	-0,097
-236,088	-72,244	-0,077	-0,020
-235,073	-200,000	0,007	-0,079
-234,059	111,946	0,096	-0,083
-233,044	149,394	-0,171	0,165
-232,030	81,536	0,049	0,038
-231,015	124,867	-0,093	0,084
-230,000	-200,000	0,031	-0,131
-228,986	-147,722	0,070	0,004
-227,971	738,453	0,056	0,107
-226,957	-69,276	0,088	0,024
-225,942	-136,439	0,071	-0,006
-224,927	-200,000	-0,009	0,030
-223,913	-49,543	0,109	0,037
-222,898	283,213	0,043	-0,055
-221,884	11,263	0,034	0,018
-220,869	800,000	0,044	0,126
-219,855	-200,000	-0,019	0,088
-218,840	-200,000	0,005	0,015
-217,825	506,577	-0,067	0,111
-216,811	-69,619	-0,035	-0,009
-215,796	-200,000	0,003	0,041
-214,782	252,214	-0,086	0,105
-213,767	800,000	-0,035	0,071
-212,752	-200,000	0,027	-0,093
-211,738	-42,099	0,056	-0,020
-210,723	142,472	0,092	0,087
-209,709	-200,000	0,016	-0,069
-208,694	765,805	-0,038	0,074
-207,679	225,139	-0,079	0,092
-206,665	-73,882	0,087	0,022
-205,650	-76,332	0,138	-0,034
-204,636	381,298	-0,102	0,150
-203,621	0,956	-0,044	0,023
-202,606	118,357	0,045	0,040
-201,592	123,088	-0,042	-0,038
-200,577	-200,000	0,023	-0,126
-199,563	-162,376	0,110	0,004
-198,548	338,781	-0,041	0,057
-197,533	-200,000	0,003	0,168
-196,519	409,485	0,047	0,071
-195,504	476,378	-0,137	-0,221
-194,490	406,886	-0,039	-0,059
-193,475	800,000	-0,046	-0,117
-192,460	-200,000	0,003	-0,042
-191,446	58,812	-0,135	0,094
-190,431	53,820	0,129	0,088
-189,417	-125,009	-0,094	0,010
-188,402	-200,000	-0,012	-0,076
-187,387	632,294	0,068	0,122
-186,373	151,961	-0,062	-0,060
-185,358	394,464	0,037	-0,055
-184,344	171,224	0,106	0,108
-183,329	800,000	0,008	0,019
-182,315	246,393	0,040	0,048
-181,300	75,579	-0,079	-0,059
-180,285	233,146	0,076	-0,089
-179,271	35,673	-0,060	-0,038
-178,256	243,224	0,093	0,112
-177,242	800,000	-0,018	-0,037
-176,227	-200,000	0,003	0,024
-175,212	-200,000	-0,011	-0,039
-174,198	397,177	0,035	0,053
-173,183	-200,000	-0,036	-0,180
-172,169	-200,000	-0,035	-0,199
-171,154	678,579	-0,033	0,062
-170,139	127,783	0,054	0,048
-169,125	351,525	0,064	0,091
-168,110	-200,000	0,000	0,051
-167,096	119,771	-0,059	0,052
-166,081	-200,000	0,009	-0,084
-165,066	-200,000	-0,011	-0,059
-164,052	800,000	0,049	-0,100
-163,037	65,076	-0,036	-0,026
-162,023	86,851	0,089	0,070
-161,008	-42,690	0,073	0,026
-159,993	-35,613	0,070	0,027
-158,979	-99,582	-0,153	0,027
-157,964	-82,304	0,034	-0,008
-156,950	-200,000	-0,002	-0,078
-155,935	230,156	0,041	0,048
-154,920	315,671	0,082	-0,111
-153,906	62,162	-0,022	0,016
-152,891	150,311	0,022	-0,021
-151,877	-176,624	0,109	0,002
-150,862	-18,423	0,058	-0,026
-149,847	-200,000	-0,002	-0,108
-148,833	-200,000	0,009	0,065
-147,818	-93,317	0,086	0,017
-146,804	-19,208	-0,044	-0,019
-145,789	292,596	0,065	0,084
-144,775	-157,117	0,118	0,005
-143,760	364,605	-0,062	0,090
-142,745	82,514	-0,117	0,091
-141,731	219,471	-0,083	0,094
-140,716	-200,000	0,003	-0,020
-139,702	-200,000	-0,008	0,039
-138,687	316,539	-0,063	0,084
-137,672	187,508	-0,040	-0,042
-136,658	302,534	-0,113	-0,149
-135,643	800,000	0,047	-0,098
-134,629	511,179	0,050	-0,082
-133,614	155,523	0,104	0,102
-132,599	-200,000	-0,010	0,081
-131,585	22,866	0,099	0,057
-130,570	163,618	0,041	0,041
-129,556	11,196	-0,048	-0,026
-128,541	-102,449	0,072	-0,012
-127,526	800,000	0,029	0,062
-126,512	800,000	-0,038	0,105
-125,497	37,589	0,107	0,067
-124,483	466,083	0,070	0,111
-123,468	36,574	-0,087	-0,054
-122,453	586,295	0,076	0,133
-121,439	-200,000	-0,021	0,095
-120,424	800,000	0,060	0,137
-119,410	-50,747	0,099	-0,033
-118,395	-80,984	0,090	-0,021
-117,380	606,485	0,053	0,094
-116,366	-200,000	-0,023	-0,142
-115,351	-200,000	0,011	-0,057
-114,337	-13,595	-0,049	-0,023
-113,322	735,910	-0,026	0,049
-112,307	-136,473	0,056	0,005
-111,293	199,950	0,014	-0,015
-110,278	755,856	0,026	-0,051
-109,264	-200,000	-0,001	0,035
-108,249	-200,000	-0,008	0,046
-107,234	-114,720	-0,081	-0,011
-106,220	800,000	-0,048	-0,124
-105,205	543,871	0,021	0,036
-104,191	0,363	0,104	-0,053
-103,176	447,448	-0,048	0,076
-102,162	0,624	-0,123	0,062
-101,147	-200,000	0,006	0,025
-100,132	34,624	-0,118	-0,073
-99,118	-200,000	0,002	-0,052
-98,103	65,735	0,041	-0,029
-97,089	-200,000	0,023	0,093
-96,074	-200,000	0,023	0,130
-95,059	150,314	-0,019	-0,018
-94,045	-200,000	0,004	0,092
-93,030	-48,787	-0,139	-0,047
-92,016	-200,000	0,033	-0,108
-91,001	-53,002	-0,103	0,033
-89,986	87,745	-0,054	0,042
-88,972	133,284	0,037	0,034
-87,957	-163,814	-0,128	-0,004
-86,943	468,374	0,095	0,151
-85,928	74,888	0,068	-0,050
-84,913	-200,000	-0,007	0,171
-83,899	-200,000	-0,008	0,050
-82,884	381,524	0,037	0,054
-81,870	-9,917	-0,118	0,055
-80,855	800,000	0,070	0,205
-79,840	42,501	0,105	-0,068
-78,826	-30,320	-0,119	-0,048
-77,811	800,000	0,012	-0,026
-76,797	-55,051	-0,087	0,028
-75,782	-82,852	0,032	-0,007
-74,767	104,253	0,080	0,066
-73,753	-200,000	0,007	0,034
-72,738	-200,000	0,017	0,098
-71,724	239,934	0,066	-0,078
-70,709	181,715	-0,045	-0,047
-69,694	130,728	-0,132	-0,120
-68,680	-4,530	0,162	0,079
-67,665	-54,165	0,068	0,022
-66,651	138,664	0,054	0,050
-65,636	87,491	-0,020	-0,016
-64,622	-200,000	-0,012	-0,090
-63,607	800,000	-0,030	-0,065
-62,592	800,000	-0,009	0,026
-61,578	-200,000	0,027	0,114
-60,563	-154,890	0,070	0,003
-59,549	800,000	-0,140	0,332
-58,534	-51,537	-1,530	-0,503
-57,519	390,057	-1,440	-2,121
-56,505	-200,000	-0,522	-4,550
-55,490	163,480	0,989	0,986
-54,476	800,000	5,008	11,350
-53,461	-200,000	18,467	296,662
-52,446	800,000	731,123	2255,283
-51,432	558,440	1647,502	2825,881
-50,417	78,908	1668,213	1263,185
-49,403	22,461	1541,242	890,188
-48,388	16,466	1464,286	816,656
-47,373	17,787	1454,408	817,488
-46,359	17,060	1444,649	808,486
-45,344	14,684	1440,017	794,500
-44,330	14,623	1438,117	793,132
-43,315	14,656	1436,249	792,227
-42,300	14,639	1434,906	791,373
-41,286	14,673	1433,627	790,798
-40,271	14,614	1432,139	789,662
-39,257	14,636	1431,149	789,193
-38,242	14,686	1429,669	788,581
-37,227	14,725	1428,323	787,993
-36,213	14,681	1427,267	787,169
-35,198	14,675	1426,117	786,476
-34,184	14,708	1424,991	785,982
-33,169	14,677	1423,636	785,057
-32,154	14,691	1422,697	784,572
-31,140	14,710	1421,360	783,892
-30,125	14,679	1420,326	783,147
-29,111	14,686	1419,231	782,543
-28,096	14,665	1418,042	781,761
-27,082	14,588	1417,215	780,908
-26,067	14,604	1415,885	780,222
-25,052	14,604	1414,894	779,645
-24,038	14,583	1413,983	779,014
-23,023	14,568	1412,842	778,284
-22,009	14,555	1411,976	777,716
-20,994	14,584	1410,919	777,236
-19,979	14,535	1410,146	776,550
-18,965	14,529	1408,893	775,802
-17,950	14,498	1408,297	775,296
-16,936	14,556	1407,160	774,911
-15,921	14,470	1406,189	773,944
-14,906	14,488	1405,249	773,482
-13,892	14,493	1404,406	773,007
-12,877	14,503	1403,462	772,505
-11,863	14,507	1402,452	771,937
-10,848	14,497	1401,683	771,435
-9,833	14,489	1400,875	770,923
-8,819	14,415	1399,939	770,033
-7,804	14,407	1399,124	769,519
-6,790	14,390	1397,899	768,735
-5,775	14,392	1396,842	768,132
-4,760	14,429	1395,991	767,805
-3,746	14,406	1395,245	767,261
-2,731	14,385	1394,423	766,681
-1,717	14,403	1393,367	766,149
-0,702	14,392	1391,736	765,172
0,313	18,198	1309,946	737,841
1,327	34,522	706,135	435,550
2,342	52,929	124,310	84,022
3,356	3,501	16,544	8,506
4,371	20,911	3,129	1,790
5,386	-86,298	0,529	0,114
6,400	273,834	0,162	0,203
7,415	100,504	-0,163	-0,134
8,429	215,019	-0,203	-0,228
9,444	231,136	-0,337	-0,391
10,459	241,001	-0,223	-0,263
11,473	50,321	-0,275	-0,184
12,488	26,847	-0,328	-0,194
13,502	98,229	-0,211	-0,172
14,517	25,513	-0,244	-0,143
15,531	58,422	-0,357	-0,247
16,546	10,802	-0,454	-0,244
17,561	127,594	-0,271	-0,243
18,575	445,132	-0,157	-0,245
19,590	699,825	-0,195	-0,364
20,604	58,337	-0,340	-0,235
21,619	34,349	-0,475	-0,292
22,634	88,282	-0,303	-0,238
23,648	72,724	-0,460	-0,339
24,663	112,400	-0,301	-0,257
25,677	107,163	-0,243	-0,204
26,692	-23,665	-0,388	-0,163
27,707	121,495	-0,265	-0,233
28,721	96,728	-0,385	-0,312
29,736	104,700	-0,413	-0,343
30,750	50,813	-0,486	-0,324
31,765	58,498	-0,289	-0,200
32,780	140,630	-0,412	-0,385
33,794	249,739	-0,317	-0,380
34,809	17,182	-0,366	-0,205
35,823	208,935	-0,306	-0,338
36,838	148,202	-0,370	-0,353
37,853	175,286	-0,282	-0,289
38,867	-42,604	-0,417	-0,149
39,882	-80,365	-0,478	-0,112
40,896	49,620	-0,339	-0,225
41,911	-17,539	-0,361	-0,160
42,926	47,262	-0,339	-0,222
43,940	34,849	-0,390	-0,240
44,955	19,009	-0,453	-0,255
45,969	273,872	-0,347	-0,434
46,984	-67,728	-0,512	-0,140
47,999	186,159	-0,296	-0,311
49,013	-31,932	-0,350	-0,137
50,028	73,647	-0,300	-0,221
51,042	-2,609	-0,383	-0,188
52,057	390,964	-0,303	-0,444
53,071	237,425	-0,269	-0,315
54,086	348,750	-0,286	-0,398
55,101	387,038	-0,210	-0,307
56,115	97,566	-0,191	-0,154
57,130	55,435	-0,338	-0,230
58,144	67,901	-0,369	-0,266
59,159	192,814	-0,342	-0,364
60,174	325,181	-0,221	-0,298
61,188	184,082	-0,342	-0,357
62,203	-93,179	-0,232	-0,045
63,217	56,187	-0,327	-0,223
64,232	-13,833	-0,332	-0,151
65,247	119,831	-0,348	-0,304
66,261	65,009	-0,399	-0,283
67,276	476,523	-0,211	-0,337
68,290	100,635	-0,317	-0,259
69,305	-25,925	-0,360	-0,148
70,320	-42,376	-0,289	-0,103
71,334	-129,480	-0,328	-0,032
72,349	25,013	-0,353	-0,206
73,363	1,249	-0,230	-0,116
74,378	6,439	-0,461	-0,240
75,393	-8,854	-0,384	-0,180
76,407	-57,438	-0,394	-0,121
77,422	-53,137	-0,356	-0,114
78,436	29,032	-0,298	-0,177
79,451	-18,604	-0,362	-0,158
80,466	193,767	-0,201	-0,214
81,480	-27,796	-0,505	-0,205
82,495	32,605	-0,188	-0,114
83,509	178,037	-0,183	-0,188
84,524	647,656	-0,110	-0,199
85,539	-171,067	-0,305	0,007
86,553	12,916	-0,184	-0,100
87,568	243,092	-0,309	-0,364
88,582	276,184	-0,174	-0,218
89,597	800,000	-0,131	-0,277
90,611	151,250	-0,255	-0,244
91,626	-28,498	-0,337	-0,136
92,641	222,455	-0,208	-0,236
93,655	18,637	-0,348	-0,195
94,670	88,375	-0,294	-0,229
95,684	149,473	-0,278	-0,264
96,699	236,349	-0,278	-0,324
97,714	65,983	-0,348	-0,247
98,728	32,453	-0,213	-0,129
99,743	30,279	-0,272	-0,163
100,757	246,647	-0,216	-0,256
101,772	212,991	-0,296	-0,329
102,787	-52,074	-0,275	-0,089
103,801	96,175	-0,302	-0,242
104,816	60,918	-0,301	-0,209
105,830	-54,322	-0,251	-0,079
106,845	485,857	-0,152	-0,244
107,860	-10,028	-0,214	-0,099
108,874	15,037	-0,296	-0,162
109,889	145,816	-0,259	-0,243
110,903	71,269	-0,232	-0,168
111,918	497,946	-0,212	-0,344
112,933	800,000	-0,065	-0,138
113,947	21,583	-0,194	-0,110
114,962	-11,915	-0,247	-0,113
115,976	-18,756	-0,351	-0,153
116,991	-100,682	-0,286	-0,049
118,006	26,396	-0,146	-0,086
119,020	559,700	-0,112	-0,190
120,035	9,093	-0,316	-0,167
121,049	21,190	-0,232	-0,132
122,064	-22,781	-0,321	-0,135
123,079	111,518	-0,194	-0,164
124,093	263,000	-0,192	-0,233
125,108	24,366	-0,335	-0,193
126,122	82,037	-0,293	-0,222
127,137	-52,399	-0,340	-0,110
128,151	394,386	-0,192	-0,281
129,166	300,816	-0,185	-0,239
130,181	84,997	-0,211	-0,162
131,195	8,298	-0,247	-0,129
132,210	256,267	-0,149	-0,179
133,224	114,579	-0,332	-0,283
134,239	568,111	-0,154	-0,262
135,254	-26,928	-0,234	-0,095
136,268	-93,171	-0,330	-0,064
137,283	-124,692	-0,222	0,024
138,297	49,014	-0,166	-0,109
139,312	309,793	-0,200	-0,262
140,327	112,276	-0,288	-0,243
141,341	224,908	-0,185	-0,210
142,356	800,000	-0,157	-0,309
143,370	75,009	-0,234	-0,172
144,385	176,865	-0,207	-0,211
145,400	81,800	-0,275	-0,208
146,414	91,491	-0,303	-0,238
147,429	268,644	-0,191	-0,234
148,443	104,204	-0,259	-0,212
149,458	19,735	-0,196	-0,110
150,473	-13,387	-0,260	-0,117
151,487	466,817	-0,136	-0,214
152,502	142,032	-0,189	-0,175
153,516	-27,435	-0,256	-0,103
154,531	-2,787	-0,423	-0,206
155,546	338,400	-0,187	-0,255
156,560	-23,579	-0,259	-0,108
157,575	389,599	-0,154	-0,223
158,589	185,228	-0,272	-0,282
159,604	-43,400	-0,339	-0,119
160,619	435,200	-0,222	-0,338
161,633	200,657	-0,266	-0,286
162,648	262,260	-0,170	-0,206
163,662	-75,815	-0,206	-0,050
164,677	-183,594	-0,184	0,002
165,692	87,508	-0,171	-0,132
166,706	9,891	-0,292	-0,154
167,721	311,880	-0,132	-0,174
168,735	800,000	-0,097	-0,233
169,750	117,706	-0,221	-0,190
170,764	800,000	-0,120	-0,235
171,779	-111,010	-0,295	-0,042
172,794	-48,464	-0,158	-0,053
173,808	425,838	-0,166	-0,251
174,823	201,441	-0,141	-0,151
175,837	35,591	-0,264	-0,161
176,852	339,843	-0,175	-0,239
177,867	455,684	-0,142	-0,220
178,881	-43,785	-0,251	-0,088
179,896	365,117	-0,147	-0,206
180,910	63,114	-0,152	-0,106
181,925	-13,916	-0,265	-0,119
182,940	-184,344	-0,127	-0,001
183,954	111,659	-0,281	-0,236
184,969	-72,283	-0,138	-0,035
185,983	-47,134	-0,318	-0,107
186,998	45,256	-0,194	-0,125
188,013	-34,004	-0,197	-0,075
189,027	153,527	-0,243	-0,232
190,042	613,018	-0,114	-0,200
191,056	-24,128	-0,222	-0,092
192,071	-32,339	-0,146	-0,056
193,086	114,937	-0,175	-0,149
194,100	56,136	-0,052	-0,035
195,115	-25,224	-0,366	-0,150
196,129	121,287	-0,166	-0,144
197,144	-22,392	-0,218	-0,092
198,159	478,129	-0,116	-0,184
199,173	-8,733	-0,170	-0,079
200,188	272,856	-0,135	-0,166
201,202	528,638	-0,130	-0,214
202,217	189,026	-0,186	-0,194
203,232	66,873	-0,180	-0,128
204,246	105,921	-0,232	-0,190
205,261	-58,141	-0,262	-0,079
206,275	597,324	-0,084	-0,145
207,290	168,904	-0,148	-0,147
208,304	-67,079	-0,145	0,039
209,319	-87,429	-0,158	-0,033
210,334	720,410	-0,102	-0,189
211,348	316,505	-0,168	-0,220
212,363	-161,210	-0,120	-0,004
213,377	644,545	-0,128	-0,227
214,392	41,586	-0,117	-0,074
215,407	174,669	-0,173	-0,174
216,421	253,290	-0,130	-0,154
217,436	192,141	-0,148	-0,156
218,450	121,176	-0,146	-0,126
219,465	657,878	-0,115	-0,205
220,480	527,133	-0,115	-0,189
221,494	225,003	-0,195	-0,219
222,509	-37,910	-0,210	-0,077
223,523	33,808	-0,202	-0,122
224,538	66,810	-0,104	-0,073
225,553	-114,836	-0,078	-0,010
226,567	-111,658	-0,073	-0,010
227,582	130,105	-0,249	-0,221
228,596	161,257	-0,144	-0,140
229,611	-76,650	-0,290	-0,070
230,626	269,131	-0,120	-0,146
231,640	12,188	-0,262	-0,140
232,655	13,481	-0,203	-0,109
233,669	169,317	-0,213	-0,211
234,684	53,613	-0,239	-0,159
235,699	665,820	-0,123	-0,221
236,713	-96,755	-0,184	-0,033
237,728	22,006	-0,184	-0,104
238,742	19,680	-0,205	-0,114
239,757	344,981	-0,125	-0,170
240,772	58,032	-0,249	-0,169
241,786	239,802	-0,153	-0,177
242,801	296,055	-0,189	-0,240
243,815	-200,000	-0,060	-0,217
244,830	29,686	-0,161	-0,095
245,844	-200,000	-0,053	-0,170
246,859	257,730	-0,125	-0,149
247,874	365,544	-0,143	-0,201
248,888	78,617	-0,301	-0,222
249,903	144,270	-0,281	-0,260
250,917	800,000	-0,111	-0,214
251,932	1,098	-0,194	0,096
252,947	-90,086	-0,046	0,009
253,961	387,742	-0,129	-0,186
254,976	-36,717	-0,314	-0,116
255,990	102,089	-0,135	-0,109
257,005	-54,364	-0,209	-0,065
258,020	-42,657	-0,237	-0,083
259,034	140,372	-0,095	-0,087
260,049	117,045	-0,067	-0,057
261,063	-39,647	-0,176	-0,064
262,078	800,000	-0,147	-0,405
263,093	230,570	-0,278	-0,315
264,107	13,284	-0,256	-0,137
265,122	-65,943	-0,194	-0,053
266,136	25,233	-0,086	-0,049
267,151	7,265	-0,110	-0,057
268,166	310,175	-0,128	-0,167
269,180	-85,540	-0,224	-0,048
270,195	-41,879	-0,270	-0,095
271,209	800,000	-0,101	-0,207
272,224	121,711	-0,227	-0,195
273,239	637,485	-0,063	-0,112
274,253	138,475	-0,145	-0,131
275,268	83,135	-0,218	-0,164
276,282	-24,383	-0,196	-0,080
277,297	189,119	-0,048	-0,050
278,312	-200,000	-0,042	-0,201
279,326	-200,000	-0,056	-0,172
280,341	16,131	-0,356	-0,193
281,355	-62,342	-0,254	-0,073
282,370	75,713	-0,140	-0,102
283,384	19,658	-0,161	-0,089
284,399	81,038	-0,150	-0,112
285,414	27,749	-0,216	-0,125
286,428	-25,126	-0,162	-0,066
287,443	-200,000	-0,026	-0,118
288,457	259,750	-0,128	-0,153
289,472	35,445	-0,178	-0,107
290,487	-152,045	-0,181	0,009
291,501	145,491	-0,141	-0,130
292,516	135,726	-0,129	-0,116
293,530	157,217	-0,142	-0,135
294,545	-140,908	-0,074	0,005
295,560	-34,287	-0,178	-0,067
296,574	22,832	-0,105	-0,059
297,589	21,602	-0,156	-0,088
298,603	71,132	-0,201	-0,143
299,618	470,990	-0,138	-0,215
300,633	-73,048	-0,072	0,018
301,647	-200,000	-0,046	-0,168
302,662	-109,410	-0,143	0,021
303,676	69,774	-0,127	-0,090
304,691	39,269	-0,153	-0,094
305,706	720,136	-0,094	-0,173
306,720	41,353	-0,176	-0,109
307,735	5,038	-0,166	-0,084
308,749	546,495	-0,101	-0,167
309,764	800,000	-0,024	-0,063
310,779	-148,838	-0,124	-0,007
311,793	134,658	-0,116	-0,104
312,808	-11,134	-0,193	-0,087
313,822	23,277	-0,168	-0,095
314,837	76,725	-0,165	-0,121
315,852	3,388	-0,118	-0,059
316,866	31,152	-0,096	-0,057
317,881	177,414	-0,148	-0,149
318,895	156,813	-0,122	-0,116
319,910	-1,799	-0,260	-0,126
320,925	-200,000	-0,035	-0,147
321,939	736,647	-0,105	-0,194
322,954	678,136	-0,103	-0,185
323,968	-51,205	-0,005	0,001
324,983	-200,000	-0,056	-0,192
325,997	455,262	-0,131	-0,200
327,012	230,697	-0,158	-0,178
328,027	502,804	-0,123	-0,196
329,041	168,025	-0,222	-0,218
330,056	96,035	-0,063	-0,049
331,070	-33,230	-0,089	-0,034
332,085	350,061	-0,089	-0,121
333,100	-56,240	-0,198	-0,060
334,114	15,133	-0,117	-0,063
335,129	3,485	-0,282	-0,141
336,143	-200,000	0,003	-0,154
337,158	182,399	-0,095	-0,096
338,173	160,762	-0,104	-0,100
339,187	-200,000	-0,002	-0,028
340,202	-17,949	-0,152	-0,065
341,216	-109,100	-0,178	-0,026
342,231	-200,000	-0,015	-0,166
343,246	-36,032	-0,149	-0,055
344,260	8,896	-0,154	-0,080
345,275	-39,685	-0,114	-0,041
346,289	108,647	-0,095	0,078
347,304	149,726	-0,138	-0,129
348,319	107,614	-0,101	-0,082
349,333	102,835	-0,222	-0,178
350,348	136,686	-0,125	-0,112
351,362	-82,864	-0,156	-0,034
352,377	-21,767	-0,090	-0,038
353,392	36,526	-0,086	-0,052
354,406	-102,342	-0,094	0,015
355,421	208,335	1316,403	1413,775
356,435	160,296	1477,340	1414,263
