DTS Sentinel unit serial number:	SN410029Multiplexer serial number:	ORYXHardware model number:	OX2-SRSoftware version number:	ORYX F/W v4,00 Oryx Data Collector v3.7.2.0data status	okinstallation	B3 Nyhavnadifferential loss correction	single-endedforward channel	channel 1reverse channel	N/Adate	2023/12/05time	06:07:30forward acquisition time	300,00reverse acquisition time	0,00gamma	499,1914k internal	0,3200k external	0,3200temperature offset calibration	1,0000default loss term (dB/km)	0,3820temperature slope calibration	1,0000multiplexer offset coefficient	1,0000multiplexer slope coefficient	1,0000fibre end	0,00T internal ref (°C)	13,97T ext. ref 1 (°C)	-1,05T ext. ref 2 (°C)	-1,08length (m)	temperature (°C)	Stokes	anti-Stokes-744,400	161,314	-0,200	-0,204
-743,385	-200,000	-0,021	0,226
-742,371	800,000	-0,107	-0,253
-741,356	-200,000	-0,047	0,320
-740,342	263,707	-0,230	-0,291
-739,327	-200,000	0,058	0,336
-738,312	273,903	-0,161	-0,207
-737,298	-200,000	0,012	0,062
-736,283	61,324	-0,135	-0,097
-735,269	-200,000	-0,007	0,256
-734,254	765,101	-0,147	-0,291
-733,239	-139,944	-0,146	-0,011
-732,225	-200,000	-0,066	-0,269
-731,210	800,000	0,055	0,153
-730,196	-147,270	-0,103	0,006
-729,181	-130,346	-0,159	0,015
-728,167	-200,000	0,018	-0,059
-727,152	6,938	-0,069	0,037
-726,137	-75,746	-0,059	0,015
-725,123	-200,000	0,007	-0,122
-724,108	-100,781	-0,128	0,023
-723,094	374,153	-0,127	0,188
-722,079	-89,650	-0,080	-0,017
-721,064	-5,625	0,022	-0,011
-720,050	23,888	-0,117	0,070
-719,035	166,836	-0,061	0,063
-718,021	123,065	-0,022	-0,020
-717,006	16,270	-0,064	-0,037
-715,991	39,067	-0,081	-0,053
-714,977	-39,422	-0,121	-0,046
-713,962	-200,000	0,007	0,045
-712,948	-200,000	0,012	-0,055
-711,933	-119,366	-0,146	0,018
-710,918	99,829	-0,092	0,077
-709,904	460,094	-0,054	0,088
-708,889	47,771	-0,081	-0,055
-707,875	291,712	-0,092	-0,122
-706,860	-2,887	-0,094	-0,047
-705,845	-87,339	0,062	0,014
-704,831	800,000	0,057	0,179
-703,816	592,077	-0,060	0,108
-702,802	800,000	0,016	0,044
-701,787	620,264	-0,013	0,024
-700,772	800,000	0,011	0,030
-699,758	-100,253	0,115	-0,021
-698,743	-200,000	-0,001	0,182
-697,729	271,426	-0,121	0,155
-696,714	96,097	-0,063	0,053
-695,699	-97,014	0,063	0,012
-694,685	-200,000	-0,037	-0,163
-693,670	-200,000	0,023	-0,167
-692,656	800,000	-0,035	-0,081
-691,641	364,611	0,031	-0,045
-690,627	-200,000	0,002	0,069
-689,612	46,112	-0,077	0,051
-688,597	-200,000	0,013	-0,090
-687,583	-192,567	-0,035	-0,000
-686,568	800,000	-0,027	-0,069
-685,554	16,507	0,030	0,017
-684,539	800,000	-0,024	0,075
-683,524	-35,550	0,039	-0,015
-682,510	-115,780	-0,063	0,008
-681,495	-67,809	-0,078	0,022
-680,481	-200,000	-0,008	-0,145
-679,466	800,000	-0,025	-0,074
-678,451	-41,912	0,062	0,023
-677,437	-200,000	-0,006	-0,150
-676,422	26,130	0,021	-0,013
-675,408	54,226	-0,068	0,047
-674,393	-18,542	-0,057	-0,026
-673,378	-200,000	0,042	-0,135
-672,364	35,199	-0,077	0,049
-671,349	-200,000	0,040	-0,196
-670,335	501,510	-0,070	-0,118
-669,320	545,643	0,040	0,070
-668,305	800,000	-0,019	0,044
-667,291	92,398	-0,054	0,044
-666,276	-33,888	-0,137	0,055
-665,262	-200,000	-0,013	0,067
-664,247	-200,000	0,000	0,055
-663,232	800,000	-0,017	0,051
-662,218	298,140	-0,035	-0,047
-661,203	-200,000	0,011	-0,061
-660,189	-200,000	-0,017	-0,067
-659,174	-200,000	0,025	-0,103
-658,159	-200,000	-0,045	-0,225
-657,145	41,402	-0,032	0,021
-656,130	-200,000	0,001	0,033
-655,116	82,584	0,021	0,017
-654,101	-200,000	-0,033	0,160
-653,086	634,490	0,063	0,117
-652,072	215,434	-0,032	0,037
-651,057	-37,149	0,142	-0,055
-650,043	163,042	0,034	-0,035
-649,028	133,280	-0,081	-0,076
-648,014	-200,000	0,007	-0,024
-646,999	-3,415	0,048	0,024
-645,984	192,105	-0,013	0,014
-644,970	189,938	-0,058	0,063
-643,955	-200,000	0,001	0,041
-642,941	414,466	-0,040	-0,061
-641,926	-125,069	-0,043	-0,005
-640,911	-200,000	0,007	-0,141
-639,897	-28,633	0,050	0,021
-638,882	800,000	-0,048	0,151
-637,868	-10,697	0,113	-0,054
-636,853	800,000	-0,052	-0,122
-635,838	-200,000	-0,003	-0,140
-634,824	-200,000	0,009	-0,154
-633,809	131,795	-0,038	0,036
-632,795	-200,000	-0,014	0,111
-631,780	-185,769	0,106	0,001
-630,765	-200,000	0,006	-0,146
-629,751	15,914	-0,076	0,043
-628,736	-5,580	0,070	0,035
-627,722	-110,999	-0,034	-0,005
-626,707	92,497	0,065	-0,053
-625,692	606,635	-0,007	0,013
-624,678	186,516	-0,040	0,043
-623,663	315,513	-0,051	0,070
-622,649	-143,108	-0,064	0,004
-621,634	21,192	-0,135	-0,079
-620,619	122,524	-0,031	-0,028
-619,605	800,000	0,057	-0,164
-618,590	-182,988	0,026	-0,000
-617,576	-200,000	-0,021	0,112
-616,561	-111,613	-0,114	0,017
-615,546	73,512	-0,127	-0,096
-614,532	-200,000	-0,013	-0,127
-613,517	-200,000	-0,005	-0,158
-612,503	800,000	0,027	0,063
-611,488	143,517	-0,065	-0,063
-610,474	-12,390	0,059	0,028
-609,459	43,429	-0,086	0,057
-608,444	-200,000	0,014	0,063
-607,430	-92,128	-0,105	-0,021
-606,415	28,958	0,065	-0,040
-605,401	189,717	-0,040	-0,044
-604,386	254,033	0,043	0,053
-603,371	328,381	-0,049	-0,068
-602,357	138,530	-0,077	-0,073
-601,342	-47,033	-0,124	0,044
-600,328	546,966	-0,090	-0,157
-599,313	-145,384	-0,076	0,005
-598,298	-177,353	-0,142	0,002
-597,284	-200,000	-0,015	0,084
-596,269	-113,452	-0,023	-0,003
-595,255	-184,754	0,093	-0,001
-594,240	-32,287	0,019	-0,008
-593,225	800,000	-0,014	-0,032
-592,211	-148,174	-0,072	-0,004
-591,196	800,000	-0,056	-0,133
-590,182	-8,188	0,099	-0,048
-589,167	206,723	-0,021	-0,023
-588,152	583,374	-0,049	0,088
-587,138	272,130	0,056	0,071
-586,123	-54,925	0,041	0,013
-585,109	93,633	0,047	0,038
-584,094	-48,317	-0,135	-0,047
-583,079	-155,206	0,099	-0,005
-582,065	-133,590	0,038	-0,003
-581,050	81,681	-0,043	-0,034
-580,036	-148,553	0,050	0,003
-579,021	-200,000	-0,013	-0,105
-578,006	579,203	-0,010	0,018
-576,992	584,148	-0,074	0,132
-575,977	177,163	-0,070	-0,074
-574,963	27,394	0,062	0,038
-573,948	-200,000	-0,035	0,180
-572,934	-22,063	0,069	0,030
-571,919	-200,000	0,007	-0,060
-570,904	238,887	-0,073	-0,088
-569,890	34,353	-0,124	-0,078
-568,875	-101,136	0,041	0,007
-567,861	-200,000	-0,008	0,084
-566,846	155,308	-0,125	0,124
-565,831	743,169	0,008	-0,016
-564,817	484,837	-0,051	-0,084
-563,802	-200,000	0,030	-0,138
-562,788	-200,000	0,019	-0,080
-561,773	800,000	-0,069	-0,188
-560,758	183,814	0,102	0,109
-559,744	95,285	0,054	0,045
-558,729	-200,000	0,003	0,115
-557,715	313,814	-0,059	-0,081
-556,700	-31,432	0,021	0,009
-555,685	-200,000	-0,008	-0,069
-554,671	-200,000	0,016	0,070
-553,656	234,160	0,065	0,077
-552,642	-200,000	0,012	-0,120
-551,627	-200,000	-0,045	0,203
-550,612	-200,000	0,004	0,031
-549,598	197,506	0,121	-0,133
-548,583	534,488	0,028	0,049
-547,569	113,246	-0,054	0,048
-546,554	278,343	0,098	0,127
-545,539	-146,650	0,037	-0,002
-544,525	-200,000	-0,001	0,088
-543,510	-50,149	-0,096	0,032
-542,496	-154,899	-0,068	0,003
-541,481	0,101	-0,081	0,042
-540,466	-27,333	0,104	0,043
-539,452	18,200	0,042	0,024
-538,437	707,354	-0,040	0,076
-537,423	161,287	-0,115	-0,117
-536,408	-200,000	-0,014	0,073
-535,393	505,111	-0,138	0,232
-534,379	800,000	0,024	-0,067
-533,364	800,000	-0,060	-0,148
-532,350	299,414	-0,033	-0,043
-531,335	289,148	-0,066	-0,087
-530,321	126,708	0,091	0,083
-529,306	531,099	0,088	0,151
-528,291	45,183	-0,032	0,022
-527,277	800,000	-0,041	-0,126
-526,262	-200,000	-0,015	0,054
-525,248	-94,780	0,170	0,033
-524,233	-29,796	0,060	0,025
-523,218	800,000	-0,046	0,118
-522,204	-76,890	-0,040	-0,010
-521,189	-29,502	0,083	-0,034
-520,175	-200,000	-0,029	-0,098
-519,160	30,816	0,054	-0,033
-518,145	149,731	0,054	-0,053
-517,131	310,603	-0,048	0,065
-516,116	199,701	-0,058	0,064
-515,102	800,000	0,040	-0,119
-514,087	800,000	0,050	-0,101
-513,072	-200,000	-0,001	0,188
-512,058	23,616	-0,111	0,065
-511,043	-5,466	-0,159	-0,079
-510,029	28,082	-0,059	0,036
-509,014	499,694	0,044	0,074
-507,999	-69,661	0,072	0,020
-506,985	96,285	0,035	0,029
-505,970	-200,000	0,007	-0,047
-504,956	121,794	-0,087	-0,078
-503,941	171,128	0,050	-0,052
-502,926	-92,657	0,109	0,022
-501,912	800,000	-0,012	-0,032
-500,897	476,960	-0,073	-0,120
-499,883	207,029	0,035	-0,040
-498,868	115,974	0,016	-0,014
-497,853	-200,000	0,001	0,067
-496,839	196,036	-0,057	0,062
-495,824	-125,267	-0,084	-0,009
-494,810	-200,000	-0,002	0,028
-493,795	13,868	0,124	0,069
-492,781	57,030	-0,039	0,027
-491,766	272,808	0,068	-0,087
-490,751	-102,703	-0,165	-0,028
-489,737	-200,000	-0,000	0,011
-488,722	125,264	0,109	0,099
-487,708	-25,613	-0,161	0,068
-486,693	-200,000	-0,010	0,065
-485,678	-200,000	0,040	0,141
-484,664	-145,747	-0,106	0,007
-483,649	-200,000	0,002	-0,088
-482,635	21,687	-0,076	0,044
-481,620	-173,837	0,043	0,001
-480,605	-123,821	0,097	0,011
-479,591	4,796	0,092	0,049
-478,576	-45,079	0,090	0,032
-477,562	-10,386	-0,093	-0,044
-476,547	800,000	0,047	-0,134
-475,532	-37,995	-0,119	0,045
-474,518	-168,697	0,089	0,002
-473,503	-141,074	-0,081	-0,006
-472,489	-200,000	0,030	0,135
-471,474	159,417	-0,102	0,102
-470,459	5,081	0,088	0,047
-469,445	-200,000	0,036	-0,200
-468,430	475,184	-0,009	0,015
-467,416	-200,000	-0,007	0,037
-466,401	2,498	0,096	0,050
-465,386	223,099	0,045	-0,053
-464,372	74,029	0,089	-0,067
-463,357	-8,937	0,034	-0,016
-462,343	249,046	0,066	-0,081
-461,328	-200,000	0,005	-0,121
-460,313	-9,822	0,130	-0,062
-459,299	-12,469	0,079	0,037
-458,284	777,034	0,059	0,116
-457,270	800,000	0,009	0,021
-456,255	-200,000	-0,018	-0,100
-455,241	183,533	0,131	-0,139
-454,226	29,944	-0,159	-0,097
-453,211	-200,000	0,015	-0,051
-452,197	145,714	-0,029	-0,028
-451,182	731,538	-0,043	0,084
-450,168	712,203	-0,040	-0,077
-449,153	-56,603	0,079	-0,025
-448,138	-159,850	-0,126	-0,005
-447,124	-200,000	0,010	-0,043
-446,109	-2,183	0,085	-0,043
-445,095	-107,592	0,037	-0,006
-444,080	144,440	0,149	0,143
-443,065	235,463	0,042	-0,049
-442,051	-97,529	0,115	0,021
-441,036	71,143	-0,068	0,050
-440,022	407,183	0,059	-0,090
-439,007	-200,000	-0,028	-0,144
-437,992	-4,700	-0,089	-0,044
-436,978	-200,000	-0,018	0,090
-435,963	-200,000	-0,022	-0,075
-434,949	137,403	-0,091	0,086
-433,934	393,906	0,029	0,043
-432,919	29,358	0,006	0,004
-431,905	-200,000	-0,003	0,028
-430,890	-0,969	0,054	0,028
-429,876	99,204	0,129	0,107
-428,861	72,003	-0,049	0,036
-427,846	-24,642	-0,101	0,043
-426,832	113,023	-0,082	-0,071
-425,817	-196,981	0,050	-0,000
-424,803	-47,342	0,051	0,018
-423,788	-44,569	0,107	-0,038
-422,773	-0,614	-0,098	0,050
-421,759	-200,000	0,000	-0,124
-420,744	-129,825	0,147	-0,014
-419,730	-78,053	-0,073	-0,018
-418,715	-100,211	-0,160	0,028
-417,701	50,157	-0,086	-0,058
-416,686	-200,000	0,000	0,015
-415,671	4,506	-0,124	0,065
-414,657	-120,206	0,081	-0,010
-413,642	60,849	0,125	-0,089
-412,628	390,956	0,076	-0,114
-411,613	152,090	0,050	-0,049
-410,598	260,550	0,042	-0,052
-409,584	600,067	0,089	-0,159
-408,569	211,137	-0,028	0,032
-407,555	-200,000	-0,023	0,084
-406,540	-200,000	-0,013	-0,091
-405,525	-182,308	0,082	0,001
-404,511	361,434	0,024	0,035
-403,496	107,495	0,052	0,044
-402,482	-138,868	-0,127	0,010
-401,467	19,581	-0,138	-0,080
-400,452	9,060	0,105	-0,057
-399,438	-140,113	0,083	0,006
-398,423	321,524	-0,068	0,093
-397,409	215,681	0,024	0,028
-396,394	-138,884	-0,123	-0,009
-395,379	-61,749	0,165	0,049
-394,365	236,293	-0,005	-0,006
-393,350	495,119	-0,008	-0,014
-392,336	-159,518	0,136	0,005
-391,321	-46,773	-0,057	0,020
-390,306	-4,728	-0,152	-0,075
-389,292	467,720	0,088	-0,143
-388,277	283,315	-0,050	-0,065
-387,263	-118,346	0,055	0,007
-386,248	44,497	0,014	-0,009
-385,233	800,000	0,033	0,086
-384,219	-200,000	-0,014	0,049
-383,204	93,881	0,046	-0,037
-382,190	-200,000	-0,015	0,137
-381,175	-200,000	-0,000	0,034
-380,160	-31,035	0,138	0,056
-379,146	249,886	0,047	0,057
-378,131	-92,181	0,060	0,012
-377,117	463,225	0,066	0,106
-376,102	115,551	0,068	0,059
-375,088	-200,000	0,007	-0,118
-374,073	-111,906	0,073	0,011
-373,058	-200,000	0,012	-0,049
-372,044	689,856	-0,034	-0,064
-371,029	-3,510	-0,052	0,026
-370,015	-200,000	0,000	0,057
-369,000	6,751	0,079	-0,042
-367,985	319,484	-0,065	-0,089
-366,971	-200,000	0,020	-0,085
-365,956	-32,929	0,077	0,030
-364,942	800,000	0,046	0,136
-363,927	117,807	-0,081	0,071
-362,912	104,542	-0,118	0,100
-361,898	-200,000	-0,026	0,139
-360,883	-52,728	-0,072	-0,024
-359,869	270,617	0,099	-0,125
-358,854	323,018	-0,057	-0,079
-357,839	164,586	0,091	0,092
-356,825	800,000	-0,072	0,220
-355,810	-104,414	0,064	-0,010
-354,796	-65,990	0,062	-0,018
-353,781	-200,000	-0,022	-0,117
-352,766	800,000	0,014	-0,033
-351,752	800,000	0,076	-0,241
-350,737	222,356	-0,073	-0,085
-349,723	30,356	0,068	0,042
-348,708	101,391	0,015	0,013
-347,693	-200,000	-0,035	-0,158
-346,679	-200,000	-0,006	0,021
-345,664	800,000	-0,029	-0,089
-344,650	173,768	0,055	-0,057
-343,635	13,824	-0,057	0,032
-342,620	-60,545	-0,091	0,028
-341,606	391,160	0,043	-0,064
-340,591	319,117	0,050	-0,069
-339,577	163,448	-0,071	0,071
-338,562	800,000	0,067	0,171
-337,548	-200,000	-0,003	0,024
-336,533	79,800	0,070	0,054
-335,518	-200,000	0,000	-0,013
-334,504	406,890	-0,145	0,220
-333,489	-200,000	0,006	-0,020
-332,475	129,851	0,022	0,021
-331,460	-200,000	0,010	0,117
-330,445	-200,000	-0,006	-0,080
-329,431	-184,491	-0,092	-0,001
-328,416	198,764	0,051	0,055
-327,402	216,636	0,040	0,045
-326,387	-19,602	-0,196	0,087
-325,372	-200,000	-0,010	-0,104
-324,358	-200,000	0,016	-0,075
-323,343	-63,779	-0,127	0,037
-322,329	800,000	0,016	0,044
-321,314	149,340	-0,062	-0,060
-320,299	164,385	0,066	-0,066
-319,285	33,509	-0,026	-0,016
-318,270	-200,000	-0,004	-0,016
-317,256	-200,000	-0,033	-0,147
-316,241	-18,417	0,143	-0,063
-315,226	-144,159	0,171	0,011
-314,212	-200,000	0,012	0,176
-313,197	-75,173	-0,154	-0,039
-312,183	143,265	0,084	-0,080
-311,168	164,381	-0,052	-0,053
-310,153	-200,000	-0,030	0,105
-309,139	-113,323	0,151	-0,021
-308,124	59,251	-0,165	0,116
-307,110	-77,129	0,055	0,014
-306,095	-54,191	0,072	0,023
-305,080	-173,018	-0,042	0,001
-304,066	-200,000	0,008	-0,051
-303,051	167,123	0,067	-0,069
-302,037	800,000	-0,023	-0,051
-301,022	-200,000	-0,001	0,126
-300,008	-148,996	0,141	-0,008
-298,993	223,908	-0,036	-0,042
-297,978	56,064	-0,060	0,041
-296,964	278,567	-0,048	-0,061
-295,949	800,000	-0,079	-0,229
-294,935	-49,454	-0,031	-0,010
-293,920	24,555	-0,151	-0,089
-292,905	0,220	0,039	0,020
-291,891	46,226	-0,062	0,041
-290,876	-129,086	0,092	0,009
-289,862	800,000	0,027	0,072
-288,847	649,203	-0,063	0,115
-287,832	-200,000	-0,014	-0,114
-286,818	-56,131	0,153	-0,048
-285,803	44,477	0,051	0,033
-284,789	-200,000	0,018	0,086
-283,774	-141,386	0,110	0,008
-282,759	435,169	0,007	0,011
-281,745	-175,958	-0,034	0,001
-280,730	265,814	-0,037	0,047
-279,716	800,000	-0,041	-0,091
-278,701	-98,815	0,096	0,017
-277,686	35,864	-0,139	-0,087
-276,672	800,000	0,045	0,140
-275,657	202,140	-0,054	0,059
-274,643	800,000	-0,023	-0,053
-273,628	800,000	-0,033	-0,083
-272,613	-86,339	-0,054	-0,012
-271,599	111,221	-0,084	-0,072
-270,584	323,297	0,026	-0,035
-269,570	65,917	0,071	0,051
-268,555	800,000	-0,023	0,068
-267,540	-102,976	-0,046	0,008
-266,526	35,538	0,056	-0,035
-265,511	-200,000	-0,021	0,070
-264,497	800,000	0,044	0,127
-263,482	-200,000	-0,009	0,152
-262,467	-64,221	0,238	0,069
-261,453	571,687	-0,116	0,203
-260,438	-200,000	-0,006	0,052
-259,424	-81,618	0,163	-0,038
-258,409	800,000	-0,024	-0,054
-257,395	-200,000	-0,022	0,150
-256,380	-49,906	0,086	0,029
-255,365	-200,000	0,030	-0,102
-254,351	-55,732	-0,085	-0,027
-253,336	17,095	-0,110	0,062
-252,322	-200,000	-0,004	-0,059
-251,307	-200,000	0,022	-0,094
-250,292	800,000	0,031	-0,083
-249,278	601,525	0,090	-0,160
-248,263	-11,148	0,197	0,092
-247,249	800,000	-0,012	-0,026
-246,234	800,000	0,052	-0,109
-245,219	67,405	-0,090	-0,065
-244,205	183,588	0,048	0,050
-243,190	115,959	0,017	0,014
-242,176	-200,000	0,005	-0,042
-241,161	109,140	0,019	0,017
-240,146	-7,832	0,078	0,037
-239,132	299,334	0,038	0,051
-238,117	111,730	-0,025	-0,022
-237,103	-14,076	0,139	-0,064
-236,088	524,097	-0,018	-0,031
-235,073	-90,528	0,047	0,010
-234,059	366,806	0,061	0,088
-233,044	619,563	-0,034	-0,061
-232,030	336,518	-0,074	0,103
-231,015	137,818	-0,060	0,056
-230,000	-189,199	-0,096	0,001
-228,986	-43,227	0,118	-0,042
-227,971	-200,000	-0,018	-0,093
-226,957	110,997	0,034	-0,029
-225,942	44,537	0,129	-0,084
-224,927	354,859	0,094	0,133
-223,913	-81,581	-0,228	-0,053
-222,898	149,497	-0,091	-0,087
-221,884	76,999	-0,118	-0,089
-220,869	-151,244	-0,052	-0,003
-219,855	-33,113	-0,100	-0,039
-218,840	-200,000	0,053	0,228
-217,825	-74,174	-0,157	0,040
-216,811	39,805	-0,116	-0,074
-215,796	109,282	-0,135	-0,115
-214,782	-200,000	0,013	-0,086
-213,767	-144,495	0,071	-0,005
-212,752	-200,000	-0,024	0,115
-211,738	-28,006	0,085	0,035
-210,723	-200,000	0,019	0,093
-209,709	-113,234	-0,050	-0,007
-208,694	-200,000	-0,008	0,149
-207,679	486,384	-0,012	-0,020
-206,665	-49,377	0,136	0,046
-205,650	-200,000	-0,017	0,123
-204,636	800,000	-0,039	-0,109
-203,621	-200,000	0,034	-0,132
-202,606	-200,000	-0,012	0,144
-201,592	-200,000	0,010	0,060
-200,577	800,000	-0,023	0,056
-199,563	-126,018	-0,133	-0,014
-198,548	1,990	0,122	-0,062
-197,533	599,399	0,066	0,117
-196,519	-32,503	-0,128	-0,051
-195,504	-79,198	-0,130	-0,031
-194,490	-200,000	-0,010	-0,066
-193,475	-125,421	-0,067	-0,007
-192,460	-104,457	0,058	-0,010
-191,446	19,603	0,112	-0,064
-190,431	174,888	0,040	0,041
-189,417	-186,473	0,105	-0,001
-188,402	70,466	-0,025	-0,018
-187,387	336,524	0,078	0,108
-186,373	184,216	0,030	0,032
-185,358	-57,070	-0,052	0,016
-184,344	800,000	-0,039	0,090
-183,329	-114,460	0,029	0,004
-182,315	800,000	-0,026	-0,061
-181,300	-81,312	-0,055	-0,013
-180,285	310,804	-0,050	0,066
-179,271	-35,756	0,079	0,030
-178,256	-43,942	-0,103	-0,037
-177,242	800,000	0,008	-0,019
-176,227	-200,000	0,006	0,113
-175,212	800,000	-0,038	0,113
-174,198	60,006	0,136	-0,095
-173,183	307,194	0,105	-0,140
-172,169	800,000	-0,029	-0,073
-171,154	-86,283	-0,090	0,019
-170,139	-200,000	-0,022	0,070
-169,125	-186,288	0,090	0,001
-168,110	-6,952	0,028	0,013
-167,096	513,356	0,063	0,105
-166,081	287,947	0,011	0,015
-165,066	-193,051	-0,111	0,001
-164,052	-143,836	-0,165	-0,011
-163,037	122,568	0,134	0,119
-162,023	-145,326	0,227	-0,014
-161,008	730,316	0,044	0,084
-159,993	-200,000	-0,002	0,010
-158,979	267,348	0,039	-0,049
-157,964	-200,000	0,010	0,031
-156,950	109,729	-0,066	-0,056
-155,935	40,810	0,041	0,026
-154,920	-200,000	0,003	0,144
-153,906	-200,000	0,010	-0,048
-152,891	416,860	-0,072	0,110
-151,877	1,110	0,057	-0,029
-150,862	-200,000	-0,012	-0,055
-149,847	528,793	-0,036	-0,060
-148,833	-62,500	0,070	0,021
-147,818	-29,388	0,102	0,041
-146,804	302,971	0,061	0,080
-145,789	-200,000	-0,000	0,066
-144,775	-200,000	-0,054	0,173
-143,760	-200,000	0,014	-0,054
-142,745	800,000	-0,041	-0,126
-141,731	-200,000	-0,031	-0,102
-140,716	-200,000	0,019	-0,123
-139,702	211,020	0,080	0,089
-138,687	-155,620	0,085	0,004
-137,672	-67,800	-0,066	0,018
-136,658	-120,408	-0,181	-0,022
-135,643	390,733	0,066	0,098
-134,629	-112,859	-0,171	-0,024
-133,614	-200,000	-0,001	0,082
-132,599	-124,556	-0,081	0,009
-131,585	-200,000	-0,010	0,075
-130,570	-160,593	0,092	-0,003
-129,556	-29,073	-0,078	0,032
-128,541	334,815	-0,094	-0,130
-127,526	51,227	0,044	-0,029
-126,512	-31,131	0,056	0,022
-125,497	-61,402	0,064	-0,019
-124,483	128,485	-0,073	-0,066
-123,468	-13,351	-0,085	-0,039
-122,453	314,612	0,102	-0,137
-121,439	-200,000	-0,021	-0,079
-120,424	-200,000	0,003	-0,095
-119,410	48,779	-0,020	-0,013
-118,395	-52,425	0,046	0,015
-117,380	-63,412	0,038	0,011
-116,366	510,767	0,055	-0,092
-115,351	221,941	-0,068	0,078
-114,337	114,279	0,062	-0,054
-113,322	-200,000	-0,019	0,094
-112,307	-200,000	0,012	0,082
-111,293	800,000	0,007	0,019
-110,278	216,123	0,123	0,139
-109,264	-3,348	0,117	-0,058
-108,249	207,145	-0,023	-0,026
-107,234	-80,784	0,123	0,029
-106,220	503,490	-0,021	0,035
-105,205	562,057	-0,116	-0,200
-104,191	460,135	0,016	-0,025
-103,176	-200,000	0,008	0,243
-102,162	-200,000	0,027	-0,166
-101,147	800,000	0,021	-0,064
-100,132	800,000	-0,047	-0,110
-99,118	-81,237	0,067	0,016
-98,103	46,448	-0,061	-0,040
-97,089	-86,457	-0,077	-0,017
-96,074	-1,686	0,154	0,077
-95,059	49,064	0,070	0,046
-94,045	-71,653	-0,151	-0,040
-93,030	-171,579	-0,141	-0,003
-92,016	-200,000	0,019	-0,181
-91,001	-30,240	0,057	-0,023
-89,986	-25,463	-0,074	-0,031
-88,972	800,000	0,040	0,086
-87,957	-171,378	-0,113	0,003
-86,943	92,590	-0,097	-0,078
-85,928	-86,871	-0,060	0,013
-84,913	95,431	-0,035	-0,028
-83,899	433,692	0,031	0,048
-82,884	-163,807	0,173	-0,006
-81,870	-38,025	-0,086	0,032
-80,855	5,212	0,131	0,068
-79,840	121,812	-0,119	0,106
-78,826	800,000	-0,074	0,202
-77,811	-33,637	-0,130	-0,050
-76,797	-200,000	-0,041	-0,223
-75,782	57,615	0,029	-0,020
-74,767	437,842	-0,049	0,076
-73,753	-200,000	0,022	-0,135
-72,738	215,661	0,053	0,060
-71,724	77,420	-0,021	0,016
-70,709	-133,878	0,025	-0,002
-69,694	-200,000	0,039	-0,136
-68,680	224,815	0,157	-0,180
-67,665	-38,481	-0,049	0,018
-66,651	64,087	0,123	0,088
-65,636	-138,870	0,056	0,004
-64,622	667,622	-0,057	0,105
-63,607	380,382	0,043	-0,062
-62,592	-104,074	-0,160	-0,026
-61,578	-200,000	0,002	0,060
-60,563	800,000	0,057	0,115
-59,549	-167,885	-0,014	-0,000
-58,534	-26,070	-1,601	-0,664
-57,519	386,722	-1,360	-1,995
-56,505	-200,000	-0,574	-4,737
-55,490	188,731	0,994	1,054
-54,476	800,000	4,844	11,597
-53,461	-200,000	18,969	309,261
-52,446	-200,000	738,112	2310,720
-51,432	572,103	1654,310	2864,990
-50,417	79,080	1670,994	1266,060
-49,403	21,966	1543,805	889,073
-48,388	15,829	1466,364	814,648
-47,373	17,745	1456,452	818,367
-46,359	16,860	1446,409	808,446
-45,344	14,097	1442,209	792,832
-44,330	14,016	1440,226	791,323
-43,315	14,017	1438,301	790,236
-42,300	14,055	1436,852	789,589
-41,286	14,050	1435,491	788,788
-40,271	14,037	1434,237	788,005
-39,257	13,997	1432,957	787,082
-38,242	14,082	1431,588	786,702
-37,227	14,075	1430,501	786,040
-36,213	14,068	1429,342	785,340
-35,198	14,084	1427,803	784,537
-34,184	14,132	1427,099	784,349
-33,169	14,038	1425,974	783,251
-32,154	14,095	1424,654	782,766
-31,140	14,072	1423,396	781,932
-30,125	14,058	1422,401	781,289
-29,111	14,084	1421,117	780,678
-28,096	14,075	1419,989	779,985
-27,082	14,019	1418,900	779,093
-26,067	14,020	1417,700	778,404
-25,052	14,009	1416,796	777,827
-24,038	13,999	1415,852	777,231
-23,023	13,986	1414,885	776,608
-22,009	13,924	1413,982	775,793
-20,994	13,947	1412,909	775,278
-19,979	13,916	1412,217	774,721
-18,965	13,952	1411,083	774,237
-17,950	13,903	1410,225	773,509
-16,936	13,899	1409,280	772,940
-15,921	13,909	1408,119	772,317
-14,906	13,927	1407,265	771,905
-13,892	13,917	1406,303	771,298
-12,877	13,902	1405,428	770,719
-11,863	13,884	1404,531	770,114
-10,848	13,896	1403,674	769,669
-9,833	13,845	1402,923	768,989
-8,819	13,836	1401,886	768,347
-7,804	13,820	1401,100	767,812
-6,790	13,786	1400,125	767,087
-5,775	13,816	1398,863	766,507
-4,760	13,843	1397,903	766,073
-3,746	13,803	1397,241	765,497
-2,731	13,823	1396,337	765,065
-1,717	13,781	1395,519	764,390
-0,702	13,768	1393,638	763,267
0,313	17,642	1311,350	736,154
1,327	33,954	705,753	433,973
2,342	52,202	124,065	83,563
3,356	2,979	16,700	8,556
4,371	15,606	3,057	1,695
5,386	-31,407	0,604	0,239
6,400	262,090	0,127	0,156
7,415	-43,006	-0,238	-0,085
8,429	116,221	-0,264	-0,228
9,444	135,986	-0,273	-0,252
10,459	105,338	-0,301	-0,251
11,473	104,916	-0,203	-0,169
12,488	-99,165	-0,386	-0,068
13,502	-68,767	-0,308	-0,084
14,517	225,556	-0,289	-0,332
15,531	82,781	-0,390	-0,300
16,546	142,641	-0,371	-0,349
17,561	232,788	-0,238	-0,276
18,575	5,348	-0,177	-0,092
19,590	87,258	-0,257	-0,201
20,604	97,857	-0,196	-0,159
21,619	57,246	-0,506	-0,348
22,634	25,591	-0,398	-0,234
23,648	96,831	-0,408	-0,330
24,663	60,616	-0,387	-0,270
25,677	1,287	-0,358	-0,181
26,692	120,483	-0,291	-0,255
27,707	7,618	-0,436	-0,230
28,721	113,664	-0,300	-0,257
29,736	224,573	-0,287	-0,328
30,750	-9,310	-0,518	-0,243
31,765	101,978	-0,374	-0,308
32,780	136,276	-0,299	-0,275
33,794	61,764	-0,495	-0,347
34,809	34,205	-0,358	-0,220
35,823	34,042	-0,426	-0,261
36,838	46,638	-0,563	-0,368
37,853	84,652	-0,362	-0,280
38,867	161,500	-0,372	-0,367
39,882	-16,094	-0,527	-0,235
40,896	158,682	-0,292	-0,286
41,911	-7,537	-0,295	-0,140
42,926	52,510	-0,348	-0,234
43,940	-44,373	-0,456	-0,160
44,955	89,684	-0,326	-0,256
45,969	90,628	-0,404	-0,319
46,984	14,410	-0,362	-0,198
47,999	19,094	-0,411	-0,232
49,013	289,269	-0,222	-0,284
50,028	237,040	-0,268	-0,313
51,042	96,480	-0,249	-0,201
52,057	41,966	-0,316	-0,202
53,071	94,211	-0,267	-0,214
54,086	71,243	-0,341	-0,249
55,101	0,607	-0,422	-0,212
56,115	146,898	-0,391	-0,371
57,130	215,540	-0,227	-0,254
58,144	-37,398	-0,390	-0,146
59,159	6,363	-0,367	-0,191
60,174	137,145	-0,397	-0,366
61,188	511,325	-0,213	-0,351
62,203	-34,530	-0,378	-0,145
63,217	126,266	-0,309	-0,275
64,232	10,380	-0,339	-0,181
65,247	-29,715	-0,454	-0,181
66,261	-21,880	-0,432	-0,184
67,276	170,358	-0,298	-0,300
68,290	129,085	-0,373	-0,335
69,305	15,332	-0,284	-0,156
70,320	50,487	-0,319	-0,212
71,334	-159,170	-0,294	-0,011
72,349	16,748	-0,296	-0,164
73,363	66,832	-0,368	-0,263
74,378	53,798	-0,307	-0,207
75,393	364,488	-0,229	-0,325
76,407	271,792	-0,195	-0,242
77,422	69,694	-0,170	-0,123
78,436	54,161	-0,289	-0,195
79,451	-23,956	-0,390	-0,163
80,466	116,546	-0,331	-0,285
81,480	47,222	-0,364	-0,238
82,495	55,268	-0,338	-0,229
83,509	-4,875	-0,331	-0,160
84,524	59,203	-0,258	-0,178
85,539	-106,265	-0,291	-0,045
86,553	-85,511	-0,326	-0,071
87,568	112,178	-0,318	-0,270
88,582	23,378	-0,394	-0,227
89,597	165,691	-0,205	-0,204
90,611	23,837	-0,315	-0,182
91,626	188,391	-0,259	-0,272
92,641	286,020	-0,198	-0,251
93,655	101,018	-0,210	-0,172
94,670	-104,107	-0,284	-0,046
95,684	141,293	-0,221	-0,205
96,699	231,434	-0,267	-0,308
97,714	22,863	-0,331	-0,190
98,728	78,363	-0,260	-0,194
99,743	237,011	-0,152	-0,177
100,757	38,566	-0,360	-0,225
101,772	201,142	-0,192	-0,208
102,787	155,736	-0,243	-0,235
103,801	375,179	-0,169	-0,242
104,816	-84,227	-0,306	0,067
105,830	-132,693	-0,318	-0,028
106,845	-114,048	-0,119	-0,016
107,860	-35,369	-0,239	-0,091
108,874	-88,581	-0,396	-0,082
109,889	51,570	-0,332	-0,221
110,903	197,623	-0,169	-0,181
111,918	49,762	-0,185	-0,122
112,933	42,024	-0,272	-0,173
113,947	-5,147	-0,295	-0,141
114,962	-46,673	-0,266	-0,091
115,976	334,312	-0,201	-0,273
116,991	190,624	-0,282	-0,297
118,006	89,942	-0,234	-0,183
119,020	20,375	-0,344	-0,194
120,035	383,361	-0,081	-0,117
121,049	-59,666	-0,301	-0,090
122,064	-18,046	-0,293	-0,128
123,079	-52,881	-0,242	-0,077
124,093	250,384	-0,257	-0,306
125,108	171,201	-0,184	-0,185
126,122	-31,319	-0,366	-0,144
127,137	-57,966	-0,278	-0,084
128,151	72,432	-0,275	-0,200
129,166	-24,353	-0,259	-0,108
130,181	63,763	-0,156	-0,110
131,195	77,303	-0,221	-0,165
132,210	-46,048	-0,336	-0,115
133,224	5,960	-0,313	-0,162
134,239	-51,331	-0,254	-0,083
135,254	101,849	-0,213	-0,173
136,268	-130,916	-0,249	-0,023
137,283	-125,685	-0,307	-0,032
138,297	61,146	-0,329	-0,228
139,312	129,116	-0,254	-0,226
140,327	438,456	-0,201	-0,307
141,341	-99,146	-0,228	-0,040
142,356	-24,179	-0,271	-0,113
143,370	110,623	-0,250	-0,210
144,385	800,000	-0,216	-0,445
145,400	143,904	-0,262	-0,244
146,414	99,474	-0,295	-0,239
147,429	106,032	-0,262	-0,217
148,443	-28,407	-0,222	-0,089
149,458	-9,948	-0,268	-0,124
150,473	22,426	-0,298	-0,170
151,487	16,003	-0,257	-0,141
152,502	106,507	-0,200	-0,165
153,516	-3,200	-0,319	-0,155
154,531	3,429	-0,287	-0,146
155,546	73,760	-0,247	-0,180
156,560	583,917	-0,101	-0,173
157,575	162,207	-0,210	-0,206
158,589	-200,000	-0,068	-0,322
159,604	-41,320	-0,284	-0,102
160,619	147,875	-0,151	-0,142
161,633	374,521	-0,240	-0,342
162,648	188,400	-0,283	-0,296
163,662	101,882	-0,308	-0,251
164,677	147,974	-0,197	-0,186
165,692	-106,171	-0,177	-0,027
166,706	46,619	-0,264	-0,170
167,721	52,666	-0,293	-0,195
168,735	65,909	-0,298	-0,211
169,750	173,683	-0,228	-0,230
170,764	-23,826	-0,239	-0,099
171,779	442,774	-0,190	-0,292
172,794	-134,914	-0,282	-0,023
173,808	13,274	-0,257	-0,138
174,823	102,558	-0,306	-0,249
175,837	49,666	-0,293	-0,192
176,852	800,000	-0,067	-0,140
177,867	85,214	-0,233	-0,178
178,881	647,277	-0,122	-0,218
179,896	800,000	-0,094	-0,183
180,910	292,791	-0,128	-0,163
181,925	213,944	-0,196	-0,216
182,940	322,863	-0,201	-0,267
183,954	44,095	-0,261	-0,166
184,969	-42,399	-0,202	-0,071
185,983	183,953	-0,129	-0,134
186,998	45,467	-0,174	-0,111
188,013	80,215	-0,242	-0,181
189,027	-39,078	-0,311	-0,113
190,042	385,274	-0,192	-0,276
191,056	201,629	-0,223	-0,239
192,071	721,489	-0,130	-0,242
193,086	41,664	-0,214	-0,134
194,100	116,248	-0,196	-0,167
195,115	-56,710	-0,302	-0,092
196,129	-118,302	-0,181	-0,022
197,144	44,482	-0,374	-0,239
198,159	800,000	-0,098	-0,226
199,173	-11,623	-0,227	-0,103
200,188	-53,333	-0,333	-0,106
201,202	340,585	-0,138	-0,188
202,217	-77,657	-0,296	-0,071
203,232	99,834	-0,312	-0,251
204,246	-61,574	-0,253	-0,073
205,261	94,778	-0,271	-0,214
206,275	116,317	-0,290	-0,247
207,290	9,277	-0,244	-0,128
208,304	266,926	-0,097	-0,118
209,319	-62,780	-0,125	-0,036
210,334	631,452	-0,104	-0,183
211,348	-50,141	-0,352	-0,115
212,363	183,648	-0,149	-0,153
213,377	396,769	-0,140	-0,204
214,392	45,744	-0,140	-0,089
215,407	-49,748	-0,168	-0,055
216,421	152,333	-0,188	-0,178
217,436	-106,150	-0,173	-0,027
218,450	225,103	-0,171	-0,193
219,465	296,738	-0,243	-0,310
220,480	112,097	-0,153	-0,128
221,494	4,721	-0,124	-0,063
222,509	-95,104	-0,171	-0,032
223,523	119,903	-0,063	-0,054
224,538	71,929	-0,151	-0,109
225,553	207,693	-0,182	-0,197
226,567	84,502	-0,206	-0,156
227,582	107,577	-0,240	-0,198
228,596	25,104	-0,251	-0,144
229,611	417,306	-0,154	-0,230
230,626	178,648	-0,127	-0,129
231,640	192,261	-0,144	-0,151
232,655	184,799	-0,168	-0,172
233,669	123,130	-0,253	-0,220
234,684	179,377	-0,116	-0,118
235,699	282,928	-0,157	-0,196
236,713	-85,528	-0,229	0,049
237,728	-138,246	-0,149	-0,011
238,742	104,357	-0,165	-0,134
239,757	184,036	-0,166	-0,171
240,772	112,041	-0,222	-0,186
241,786	28,586	-0,265	-0,155
242,801	-67,053	-0,190	-0,052
243,815	-61,286	-0,145	-0,042
244,830	-25,262	-0,225	0,092
245,844	-184,440	-0,215	0,002
246,859	-36,035	-0,181	-0,067
247,874	-200,000	-0,025	-0,219
248,888	48,964	-0,199	-0,129
249,903	475,409	-0,115	-0,180
250,917	150,688	-0,130	-0,123
251,932	800,000	-0,118	-0,245
252,947	-39,493	-0,181	-0,065
253,961	192,107	-0,179	-0,188
254,976	324,882	-0,257	-0,341
255,990	-104,954	-0,218	-0,034
257,005	14,744	-0,235	-0,127
258,020	743,161	-0,049	-0,092
259,034	145,888	-0,199	-0,184
260,049	24,837	-0,129	-0,074
261,063	-165,804	-0,245	0,007
262,078	283,998	-0,148	-0,184
263,093	25,392	-0,143	-0,082
264,107	372,090	-0,120	-0,169
265,122	-21,668	-0,277	-0,116
266,136	800,000	-0,122	-0,251
267,151	-96,495	-0,156	-0,028
268,166	86,863	-0,100	-0,076
269,180	-74,125	-0,163	-0,041
270,195	315,659	-0,068	-0,089
271,209	105,827	-0,158	-0,130
272,224	304,442	-0,169	-0,218
273,239	655,275	0,015	0,026
274,253	155,159	-0,122	-0,116
275,268	-49,025	-0,257	-0,085
276,282	222,192	-0,209	-0,233
277,297	277,903	-0,219	-0,270
278,312	290,583	-0,223	-0,281
279,326	-87,557	-0,214	-0,044
280,341	-30,910	-0,074	-0,029
281,355	165,904	-0,216	-0,212
282,370	800,000	-0,047	-0,122
283,384	746,666	-0,064	-0,119
284,399	202,647	-0,246	-0,263
285,414	444,801	-0,164	-0,249
286,428	223,610	-0,162	-0,180
287,443	116,384	-0,154	-0,130
288,457	13,792	-0,073	0,039
289,472	191,904	-0,183	-0,190
290,487	143,816	-0,136	-0,125
291,501	-34,852	-0,230	-0,086
292,516	-70,898	-0,180	0,047
293,530	800,000	-0,094	-0,214
294,545	175,609	-0,131	-0,131
295,560	-32,107	-0,101	-0,039
296,574	-19,039	-0,171	-0,073
297,589	47,668	-0,218	-0,140
298,603	-133,685	-0,165	-0,014
299,618	-33,118	-0,172	-0,065
300,633	-1,194	-0,207	-0,101
301,647	184,621	-0,165	-0,169
302,662	238,623	-0,040	-0,046
303,676	31,952	-0,131	-0,078
304,691	85,725	-0,185	-0,140
305,706	39,182	-0,151	-0,093
306,720	-115,243	-0,153	-0,020
307,735	1,985	-0,106	-0,053
308,749	-200,000	-0,029	-0,135
309,764	70,794	-0,065	-0,046
310,779	-76,721	-0,142	0,034
311,793	-75,391	-0,085	0,021
312,808	-7,891	-0,196	-0,091
313,822	117,154	-0,174	-0,147
314,837	63,140	-0,116	-0,080
315,852	-150,093	-0,133	-0,007
316,866	144,780	-0,089	-0,082
317,881	233,939	-0,111	-0,126
318,895	132,432	-0,200	-0,177
319,910	149,409	-0,126	-0,117
320,925	4,752	-0,183	-0,092
321,939	48,832	-0,236	-0,152
322,954	-158,803	-0,137	-0,005
323,968	249,573	-0,141	-0,165
324,983	15,958	-0,086	-0,047
325,997	134,137	-0,199	-0,178
327,012	708,320	-0,094	-0,172
328,027	-66,026	-0,101	-0,027
329,041	-88,213	-0,064	-0,013
330,056	85,866	-0,158	-0,120
331,070	-32,777	-0,116	0,044
332,085	-13,001	-0,187	-0,083
333,100	232,808	-0,124	-0,140
334,114	105,710	-0,182	-0,148
335,129	-105,820	-0,126	0,019
336,143	257,815	-0,098	-0,116
337,158	-86,422	-0,112	-0,023
338,173	800,000	-0,109	-0,243
339,187	19,889	-0,122	-0,067
340,202	-104,249	-0,083	-0,013
341,216	58,710	-0,221	-0,149
342,231	417,121	-0,087	-0,128
343,246	-55,852	-0,172	-0,052
344,260	800,000	-0,042	-0,086
345,275	-5,730	-0,142	-0,067
346,289	65,810	-0,107	-0,074
347,304	-123,906	-0,188	-0,020
348,319	127,539	-0,139	-0,121
349,333	382,878	-0,116	-0,164
350,348	462,076	-0,140	-0,215
351,362	-32,940	-0,145	-0,055
352,377	401,684	-0,070	-0,101
353,392	314,854	-0,118	-0,154
354,406	26,163	-0,074	-0,042
355,421	210,174	1313,029	1415,610
356,435	161,787	1473,540	1416,088
