DTS Sentinel unit serial number:	SN410029Multiplexer serial number:	ORYXHardware model number:	OX2-SRSoftware version number:	ORYX F/W v4,00 Oryx Data Collector v3.7.2.0data status	okinstallation	B3 Nyhavnadifferential loss correction	single-endedforward channel	channel 1reverse channel	N/Adate	2023/11/29time	18:37:30forward acquisition time	300,00reverse acquisition time	0,00gamma	499,1914k internal	0,3210k external	0,3210temperature offset calibration	1,0000default loss term (dB/km)	0,3820temperature slope calibration	1,0000multiplexer offset coefficient	1,0000multiplexer slope coefficient	1,0000fibre end	0,00T internal ref (°C)	11,11T ext. ref 1 (°C)	-4,09T ext. ref 2 (°C)	-4,22length (m)	temperature (°C)	Stokes	anti-Stokes-744,400	119,133	-0,211	-0,189
-743,385	800,000	0,119	0,308
-742,371	579,464	-0,116	-0,206
-741,356	-200,000	0,026	0,203
-740,342	182,586	-0,113	-0,121
-739,327	800,000	-0,083	0,185
-738,312	734,188	-0,123	-0,240
-737,298	-200,000	0,016	0,182
-736,283	352,207	-0,149	-0,214
-735,269	-200,000	0,019	0,213
-734,254	15,019	-0,234	-0,132
-733,239	192,720	-0,041	-0,045
-732,225	-200,000	-0,065	-0,330
-731,210	-200,000	0,028	0,141
-730,196	36,458	-0,044	-0,028
-729,181	-200,000	-0,001	-0,150
-728,167	-154,595	-0,048	0,002
-727,152	356,166	-0,014	-0,021
-726,137	-200,000	0,011	-0,036
-725,123	-99,634	-0,189	-0,034
-724,108	-1,778	-0,024	0,012
-723,094	-57,713	-0,015	0,005
-722,079	93,924	-0,030	-0,025
-721,064	-113,536	-0,126	0,018
-720,050	7,907	0,052	-0,028
-719,035	-174,901	-0,129	0,003
-718,021	117,149	-0,044	0,040
-717,006	280,188	-0,021	0,027
-715,991	-46,890	-0,060	0,021
-714,977	290,008	0,071	-0,093
-713,962	-126,879	-0,075	-0,008
-712,948	30,813	0,057	0,035
-711,933	-200,000	-0,009	0,071
-710,918	47,137	-0,100	-0,067
-709,904	9,011	-0,053	0,029
-708,889	800,000	-0,038	-0,111
-707,875	595,537	0,036	0,064
-706,860	-200,000	-0,004	0,070
-705,845	117,115	-0,112	0,100
-704,831	800,000	-0,048	0,105
-703,816	-26,620	0,109	-0,046
-702,802	-99,311	-0,183	-0,033
-701,787	-200,000	-0,008	-0,111
-700,772	800,000	-0,076	-0,166
-699,758	481,719	0,012	-0,020
-698,743	443,178	0,029	-0,045
-697,729	59,863	0,076	-0,054
-696,714	-200,000	-0,012	-0,098
-695,699	303,347	-0,034	-0,046
-694,685	-3,798	0,113	-0,057
-693,670	-200,000	-0,018	-0,081
-692,656	51,829	-0,032	-0,022
-691,641	-200,000	-0,008	0,198
-690,627	-200,000	-0,005	-0,032
-689,612	-200,000	0,008	0,050
-688,597	800,000	-0,049	-0,100
-687,583	-8,012	0,125	-0,061
-686,568	10,674	0,033	-0,018
-685,554	295,214	-0,039	-0,052
-684,539	-200,000	0,000	0,105
-683,524	-50,816	0,114	0,038
-682,510	-200,000	-0,017	-0,055
-681,495	-200,000	-0,011	-0,095
-680,481	800,000	-0,028	-0,064
-679,466	-200,000	0,006	-0,080
-678,451	-200,000	0,020	0,095
-677,437	709,689	-0,074	-0,142
-676,422	72,898	0,031	-0,023
-675,408	-200,000	0,029	0,196
-674,393	-66,590	0,146	-0,042
-673,378	11,902	-0,029	-0,016
-672,364	197,618	0,083	0,091
-671,349	-200,000	-0,021	-0,188
-670,335	-64,260	-0,040	-0,012
-669,320	-200,000	-0,007	0,047
-668,305	800,000	-0,054	0,141
-667,291	58,896	-0,110	-0,078
-666,276	116,211	-0,063	-0,056
-665,262	17,421	-0,116	-0,066
-664,247	-200,000	-0,018	-0,161
-663,232	-71,858	-0,106	-0,028
-662,218	-200,000	0,078	0,000
-661,203	8,901	0,177	0,096
-660,189	-65,007	-0,128	0,037
-659,174	-200,000	-0,002	0,050
-658,159	322,814	0,067	-0,093
-657,145	-84,607	0,134	-0,030
-656,130	800,000	0,021	-0,060
-655,116	343,467	0,035	0,050
-654,101	-160,328	-0,117	-0,004
-653,086	-200,000	-0,002	-0,020
-652,072	-200,000	-0,005	-0,101
-651,057	326,880	-0,056	0,077
-650,043	49,711	-0,080	0,054
-649,028	192,764	-0,060	0,066
-648,014	361,014	-0,041	0,059
-646,999	347,262	0,046	0,065
-645,984	800,000	-0,036	0,072
-644,970	800,000	-0,085	-0,184
-643,955	-7,054	-0,067	0,033
-642,941	177,803	-0,055	-0,058
-641,926	477,118	-0,080	-0,132
-640,911	800,000	0,013	-0,031
-639,897	-200,000	0,003	0,114
-638,882	-200,000	-0,012	0,051
-637,868	-143,838	-0,064	0,004
-636,853	-143,106	-0,054	-0,004
-635,838	-194,361	-0,139	-0,001
-634,824	-36,463	-0,056	0,021
-633,809	-165,596	0,075	-0,002
-632,795	324,856	0,010	-0,013
-631,780	148,189	-0,008	0,007
-630,765	51,863	0,090	0,061
-629,751	363,206	-0,109	0,159
-628,736	-200,000	0,009	-0,120
-627,722	330,316	0,041	-0,058
-626,707	-200,000	-0,019	-0,103
-625,692	-200,000	0,042	0,136
-624,678	98,812	-0,040	0,033
-623,663	-200,000	-0,029	0,120
-622,649	171,580	-0,046	-0,048
-621,634	44,007	0,077	-0,051
-620,619	68,418	-0,104	-0,077
-619,605	-200,000	-0,000	0,207
-618,590	-97,527	0,119	0,022
-617,576	-49,893	-0,117	0,040
-616,561	457,903	0,053	0,086
-615,546	301,475	0,022	0,030
-614,532	-166,862	-0,133	0,004
-613,517	393,201	-0,043	-0,064
-612,503	138,849	-0,090	-0,086
-611,488	-200,000	-0,006	-0,137
-610,474	-46,456	-0,006	-0,002
-609,459	-63,166	-0,161	-0,048
-608,444	280,301	-0,081	-0,104
-607,430	201,628	-0,067	-0,074
-606,415	568,487	-0,040	0,070
-605,401	-116,422	-0,037	-0,005
-604,386	-98,337	0,039	0,007
-603,371	56,827	0,043	0,030
-602,357	-138,318	0,043	0,003
-601,342	-53,565	-0,095	0,031
-600,328	288,212	-0,029	0,037
-599,313	58,478	0,028	-0,020
-598,298	-55,548	-0,160	-0,051
-597,284	-200,000	-0,007	-0,052
-596,269	456,774	-0,022	0,035
-595,255	12,867	-0,067	-0,037
-594,240	-200,000	0,003	-0,067
-593,225	59,754	0,082	-0,058
-592,211	-153,856	-0,143	-0,007
-591,196	15,273	-0,093	0,052
-590,182	116,583	0,066	-0,059
-589,167	-144,372	0,141	-0,009
-588,152	475,515	-0,045	0,073
-587,138	-102,015	-0,046	-0,008
-586,123	800,000	0,022	-0,059
-585,109	-36,965	-0,076	0,029
-584,094	99,905	0,056	0,047
-583,079	-200,000	-0,014	0,148
-582,065	-200,000	-0,014	-0,097
-581,050	249,595	-0,021	0,025
-580,036	-96,522	0,028	-0,005
-579,021	-200,000	0,013	-0,230
-578,006	800,000	-0,027	-0,055
-576,992	26,526	-0,088	0,053
-575,977	83,525	-0,067	0,052
-574,963	800,000	0,027	-0,060
-573,948	-177,762	0,063	0,001
-572,934	-169,187	-0,100	-0,003
-571,919	-73,403	-0,207	-0,054
-570,904	-200,000	0,014	-0,086
-569,890	76,038	0,069	-0,052
-568,875	-200,000	-0,001	0,055
-567,861	-97,031	0,061	0,011
-566,846	49,461	0,042	-0,028
-565,831	800,000	0,070	0,152
-564,817	54,485	0,118	-0,082
-563,802	-200,000	-0,003	-0,021
-562,788	117,488	-0,077	0,069
-561,773	-59,829	0,008	0,002
-560,758	404,588	0,070	0,106
-559,744	-200,000	-0,035	-0,114
-558,729	-18,781	-0,045	0,020
-557,715	191,790	-0,042	0,046
-556,700	-200,000	-0,041	0,141
-555,685	-51,399	-0,072	0,024
-554,671	31,479	-0,026	0,016
-553,656	-50,428	0,092	0,031
-552,642	4,807	0,106	-0,056
-551,627	637,496	-0,053	0,098
-550,612	19,636	-0,165	0,095
-549,598	-140,362	0,093	-0,007
-548,583	-200,000	-0,005	-0,041
-547,569	-86,134	-0,102	0,022
-546,554	800,000	0,061	0,125
-545,539	-57,954	0,100	0,031
-544,525	10,110	-0,050	-0,027
-543,510	-200,000	-0,009	-0,089
-542,496	-200,000	0,005	-0,082
-541,481	358,346	0,013	-0,019
-540,466	237,558	-0,061	-0,072
-539,452	-200,000	-0,011	0,107
-538,437	33,252	0,052	0,032
-537,423	102,238	0,069	0,058
-536,408	-127,132	0,075	-0,008
-535,393	16,943	-0,137	-0,078
-534,379	-200,000	-0,017	-0,113
-533,364	800,000	0,060	-0,147
-532,350	800,000	0,008	0,020
-531,335	800,000	0,049	0,150
-530,321	58,366	0,097	-0,068
-529,306	-200,000	-0,031	-0,105
-528,291	-200,000	-0,016	-0,120
-527,277	-81,766	-0,062	-0,014
-526,262	800,000	0,061	-0,133
-525,248	800,000	-0,034	-0,100
-524,233	142,385	0,034	-0,033
-523,218	-200,000	0,018	0,173
-522,204	-106,966	-0,125	-0,020
-521,189	338,752	-0,065	-0,091
-520,175	44,602	-0,059	-0,039
-519,160	-200,000	0,016	-0,079
-518,145	188,491	-0,062	-0,066
-517,131	6,474	0,174	0,093
-516,116	-200,000	0,002	0,040
-515,102	47,518	0,071	0,048
-514,087	70,566	-0,061	-0,046
-513,072	109,793	-0,088	0,076
-512,058	-19,093	0,096	0,043
-511,043	-20,866	-0,137	0,060
-510,029	62,671	0,099	-0,071
-509,014	530,995	-0,022	0,038
-507,999	101,799	-0,011	0,009
-506,985	-200,000	-0,002	-0,020
-505,970	-6,312	0,057	-0,028
-504,956	800,000	-0,020	0,053
-503,941	-20,769	0,067	-0,030
-502,926	348,784	0,054	-0,077
-501,912	-200,000	0,032	0,185
-500,897	26,113	0,059	-0,035
-499,883	800,000	0,058	-0,176
-498,868	15,239	0,065	-0,036
-497,853	800,000	-0,023	-0,052
-496,839	-200,000	-0,034	-0,185
-495,824	529,872	0,033	0,056
-494,810	-200,000	-0,021	0,146
-493,795	226,687	0,079	-0,093
-492,781	-200,000	-0,016	-0,105
-491,766	800,000	-0,011	-0,026
-490,751	-200,000	0,015	0,105
-489,737	-37,272	0,045	-0,017
-488,722	800,000	-0,019	0,051
-487,708	-74,393	0,128	-0,033
-486,693	-200,000	0,055	-0,188
-485,678	-200,000	0,025	-0,081
-484,664	73,449	-0,071	0,053
-483,649	93,797	-0,117	-0,095
-482,635	556,529	-0,103	0,178
-481,620	-200,000	0,012	-0,097
-480,605	800,000	0,050	0,118
-479,591	-58,055	0,059	0,018
-478,576	165,686	-0,106	-0,108
-477,562	-80,243	-0,098	-0,023
-476,547	-65,294	0,075	-0,022
-475,532	38,955	-0,068	0,043
-474,518	134,650	0,028	-0,026
-473,503	800,000	0,056	0,135
-472,489	800,000	0,050	0,144
-471,474	17,330	0,034	0,019
-470,459	-74,773	-0,148	-0,038
-469,445	800,000	-0,024	-0,066
-468,430	-200,000	-0,029	-0,096
-467,416	-28,888	0,073	-0,030
-466,401	-200,000	0,014	0,075
-465,386	136,591	0,044	0,041
-464,372	-84,632	-0,102	-0,023
-463,357	209,621	-0,015	0,017
-462,343	86,392	-0,006	0,005
-461,328	482,124	0,081	-0,132
-460,313	-129,680	0,157	-0,015
-459,299	612,348	-0,048	0,086
-458,284	353,393	0,107	-0,152
-457,270	-200,000	0,000	0,089
-456,255	5,965	0,030	-0,016
-455,241	172,692	0,052	0,054
-454,226	69,796	-0,094	0,069
-453,211	-200,000	-0,008	0,079
-452,197	-200,000	-0,044	0,153
-451,182	46,994	0,096	-0,064
-450,168	-200,000	-0,017	-0,231
-449,153	91,874	0,078	-0,063
-448,138	224,507	0,055	-0,064
-447,124	279,986	-0,047	-0,060
-446,109	-200,000	0,044	-0,146
-445,095	-200,000	-0,009	-0,037
-444,080	800,000	-0,033	0,071
-443,065	-200,000	0,001	0,033
-442,051	4,550	-0,088	0,046
-441,036	800,000	-0,041	0,090
-440,022	-31,033	0,060	-0,024
-439,007	552,874	-0,066	0,114
-437,992	-200,000	-0,011	0,079
-436,978	123,519	0,015	0,013
-435,963	-143,407	0,080	0,005
-434,949	-24,373	0,105	0,045
-433,934	-200,000	-0,004	-0,119
-432,919	359,476	0,019	-0,027
-431,905	-200,000	-0,006	0,121
-430,890	800,000	-0,024	0,071
-429,876	-99,741	0,118	-0,021
-428,861	100,113	0,078	0,065
-427,846	442,464	0,015	-0,024
-426,832	800,000	0,041	-0,107
-425,817	-138,953	-0,122	0,009
-424,803	58,072	0,087	-0,061
-423,788	-101,698	0,167	0,029
-422,773	-200,000	-0,002	0,017
-421,759	-43,722	0,094	0,034
-420,744	-146,422	0,102	-0,006
-419,730	-129,987	-0,115	-0,011
-418,715	47,267	-0,097	-0,065
-417,701	144,266	0,066	-0,064
-416,686	-50,967	-0,118	-0,039
-415,671	-200,000	-0,012	0,077
-414,657	-200,000	-0,009	0,047
-413,642	457,949	-0,046	0,074
-412,628	-106,851	0,062	-0,010
-411,613	-200,000	0,018	-0,083
-410,598	15,864	-0,049	0,027
-409,584	45,044	0,038	-0,025
-408,569	-3,191	0,107	0,053
-407,555	800,000	-0,020	0,062
-406,540	478,855	-0,011	-0,017
-405,525	-32,765	-0,121	0,048
-404,511	-200,000	-0,005	-0,125
-403,496	-200,000	0,007	0,022
-402,482	800,000	-0,012	-0,031
-401,467	-70,001	0,168	0,045
-400,452	-72,879	0,032	-0,008
-399,438	-200,000	-0,003	-0,162
-398,423	17,955	-0,052	-0,030
-397,409	-200,000	-0,002	0,038
-396,394	124,859	-0,135	-0,122
-395,379	-192,541	0,135	-0,001
-394,365	-123,397	-0,221	0,025
-393,350	-200,000	0,015	0,063
-392,336	-200,000	0,090	0,000
-391,321	-200,000	0,009	-0,115
-390,306	800,000	0,036	-0,089
-389,292	800,000	0,047	0,148
-388,277	-170,420	0,109	0,003
-387,263	190,577	-0,083	0,090
-386,248	110,311	-0,139	0,120
-385,233	800,000	0,034	-0,071
-384,219	800,000	-0,045	0,097
-383,204	37,911	0,047	-0,030
-382,190	51,513	0,090	-0,061
-381,175	-166,099	-0,171	-0,005
-380,160	-200,000	0,012	0,140
-379,146	-200,000	0,002	0,074
-378,131	89,122	0,067	-0,054
-377,117	73,537	-0,077	0,057
-376,102	-200,000	-0,022	-0,095
-375,088	-200,000	-0,017	-0,077
-374,073	-34,097	0,131	-0,051
-373,058	115,684	0,058	-0,051
-372,044	-200,000	-0,008	0,105
-371,029	-200,000	-0,017	0,178
-370,015	-0,579	0,077	0,039
-369,000	-200,000	0,005	-0,066
-367,985	-38,839	-0,134	-0,050
-366,971	-50,241	-0,074	0,025
-365,956	23,648	0,071	0,042
-364,942	-200,000	0,010	0,040
-363,927	-105,572	0,058	0,009
-362,912	-138,346	-0,124	-0,010
-361,898	387,859	0,025	-0,037
-360,883	680,325	0,007	0,014
-359,869	-45,222	-0,093	0,033
-358,854	167,547	0,021	-0,021
-357,839	28,411	0,039	-0,024
-356,825	-106,957	0,164	-0,026
-355,810	-146,550	-0,112	-0,007
-354,796	122,577	0,077	-0,069
-353,781	-200,000	0,007	-0,043
-352,766	146,163	0,063	-0,060
-351,752	689,171	0,044	0,083
-350,737	22,579	0,031	-0,018
-349,723	191,548	0,072	-0,078
-348,708	442,963	-0,060	0,094
-347,693	-200,000	-0,031	0,105
-346,679	40,158	-0,090	0,058
-345,664	704,140	0,119	-0,225
-344,650	166,104	-0,036	-0,036
-343,635	-200,000	-0,025	0,117
-342,620	800,000	-0,029	0,064
-341,606	-200,000	-0,005	0,052
-340,591	29,618	0,160	0,097
-339,577	-200,000	0,023	-0,091
-338,562	-117,532	-0,099	-0,013
-337,548	-200,000	-0,046	0,161
-336,533	-200,000	-0,009	-0,056
-335,518	-32,537	0,206	0,082
-334,504	-200,000	-0,016	-0,075
-333,489	56,505	0,025	0,017
-332,475	110,992	-0,121	0,104
-331,460	114,161	0,049	-0,042
-330,445	37,158	-0,040	-0,025
-329,431	133,429	0,063	0,058
-328,416	800,000	0,088	0,194
-327,402	-1,968	0,046	-0,023
-326,387	-27,397	0,144	-0,059
-325,372	-148,167	-0,073	-0,004
-324,358	800,000	-0,039	-0,082
-323,343	352,837	-0,043	-0,061
-322,329	386,005	-0,074	0,110
-321,314	-200,000	-0,039	-0,130
-320,299	150,159	-0,049	0,047
-319,285	-200,000	0,027	0,137
-318,270	-200,000	-0,026	-0,091
-317,256	288,089	0,003	0,003
-316,241	-200,000	0,003	-0,035
-315,226	-200,000	0,012	0,060
-314,212	800,000	-0,019	-0,060
-313,197	-154,971	0,163	0,008
-312,183	-138,735	-0,048	0,004
-311,168	-149,914	-0,038	-0,002
-310,153	44,804	0,086	-0,056
-309,139	-200,000	0,031	-0,136
-308,124	-104,706	0,067	0,011
-307,110	-48,410	0,199	-0,068
-306,095	-200,000	0,030	-0,105
-305,080	14,796	-0,110	-0,061
-304,066	401,338	0,010	-0,016
-303,051	163,229	-0,107	-0,107
-302,037	17,037	0,045	0,025
-301,022	542,367	-0,011	0,020
-300,008	-12,889	0,069	0,032
-298,993	-200,000	0,054	0,233
-297,978	-41,576	-0,024	-0,009
-296,964	-66,026	-0,096	-0,027
-295,949	-75,191	0,022	-0,006
-294,935	-9,637	0,059	-0,028
-293,920	-83,458	0,039	-0,009
-292,905	242,118	0,077	0,092
-291,891	684,111	-0,022	0,042
-290,876	-69,048	-0,071	-0,019
-289,862	-113,793	-0,076	-0,010
-288,847	800,000	-0,042	-0,096
-287,832	620,093	0,049	-0,089
-286,818	91,062	0,088	0,071
-285,803	37,169	-0,021	0,013
-284,789	-200,000	0,009	0,056
-283,774	-32,966	-0,064	-0,025
-282,759	63,615	0,057	-0,041
-281,745	-200,000	0,010	-0,081
-280,730	424,173	-0,091	-0,141
-279,716	147,301	0,063	-0,061
-278,701	-81,522	0,065	-0,015
-277,686	-69,242	0,144	0,039
-276,672	-200,000	-0,016	0,120
-275,657	362,136	0,047	-0,068
-274,643	-17,351	0,056	0,025
-273,628	800,000	-0,025	-0,056
-272,613	800,000	0,025	-0,062
-271,599	-200,000	-0,001	-0,097
-270,584	653,966	0,029	0,053
-269,570	-200,000	0,014	0,052
-268,555	22,191	-0,055	0,032
-267,540	295,561	-0,074	-0,096
-266,526	67,520	-0,051	-0,037
-265,511	-101,145	0,112	0,019
-264,497	728,073	0,025	0,048
-263,482	401,097	0,049	0,073
-262,467	170,902	-0,027	0,027
-261,453	-200,000	0,008	0,045
-260,438	-100,491	-0,025	0,004
-259,424	59,340	-0,043	-0,030
-258,409	-104,233	0,076	-0,012
-257,395	87,211	0,098	-0,077
-256,380	193,235	-0,045	0,048
-255,365	202,888	0,098	0,108
-254,351	-61,915	-0,100	-0,030
-253,336	-200,000	-0,012	-0,076
-252,322	-65,002	-0,137	0,039
-251,307	800,000	-0,047	-0,114
-250,292	-200,000	-0,006	0,062
-249,278	-200,000	0,002	0,054
-248,263	-42,355	0,085	0,031
-247,249	214,050	0,023	-0,026
-246,234	223,175	0,030	-0,035
-245,219	77,147	-0,073	0,055
-244,205	-58,538	-0,097	0,030
-243,190	-23,181	0,057	-0,024
-242,176	-83,069	0,063	-0,014
-241,161	361,027	0,074	0,106
-240,146	800,000	-0,022	0,050
-239,132	800,000	-0,024	-0,049
-238,117	-200,000	-0,003	-0,023
-237,103	11,826	0,090	-0,049
-236,088	637,886	0,014	0,026
-235,073	800,000	0,034	-0,072
-234,059	145,456	-0,083	-0,079
-233,044	27,829	-0,169	0,101
-232,030	349,982	0,007	-0,009
-231,015	506,958	-0,046	0,077
-230,000	-132,028	0,108	0,010
-228,986	-200,000	0,004	-0,025
-227,971	800,000	0,090	0,183
-226,957	800,000	0,065	0,146
-225,942	240,363	0,128	0,151
-224,927	240,963	0,108	-0,128
-223,913	612,566	-0,070	-0,125
-222,898	124,684	-0,061	-0,054
-221,884	-200,000	0,010	0,103
-220,869	800,000	0,024	0,049
-219,855	-200,000	0,013	-0,108
-218,840	-88,395	0,145	-0,031
-217,825	130,389	0,075	-0,068
-216,811	-30,900	0,061	0,024
-215,796	119,589	-0,134	-0,118
-214,782	-200,000	0,001	0,017
-213,767	-200,000	-0,009	0,060
-212,752	27,250	0,066	0,039
-211,738	317,593	-0,093	0,125
-210,723	323,072	0,078	0,106
-209,709	-66,903	-0,114	-0,032
-208,694	-200,000	-0,009	-0,143
-207,679	394,967	0,026	-0,039
-206,665	-9,311	-0,018	-0,008
-205,650	168,447	0,036	0,037
-204,636	252,187	-0,041	-0,050
-203,621	-200,000	-0,027	-0,108
-202,606	800,000	0,036	-0,077
-201,592	800,000	-0,053	-0,157
-200,577	66,266	0,061	0,044
-199,563	-20,077	-0,136	0,059
-198,548	-200,000	-0,018	0,134
-197,533	-200,000	-0,007	-0,025
-196,519	449,020	-0,080	0,126
-195,504	500,860	-0,069	0,114
-194,490	72,912	-0,038	-0,028
-193,475	-200,000	0,056	-0,234
-192,460	213,481	-0,002	0,002
-191,446	-112,172	0,202	-0,029
-190,431	408,194	0,061	0,092
-189,417	-156,874	-0,047	0,002
-188,402	800,000	0,018	0,052
-187,387	-22,948	-0,053	0,023
-186,373	599,119	0,063	0,112
-185,358	-126,460	0,107	-0,011
-184,344	51,751	-0,023	0,015
-183,329	-107,634	0,014	0,002
-182,315	653,709	-0,024	-0,044
-181,300	800,000	-0,015	-0,042
-180,285	-200,000	-0,021	-0,079
-179,271	-54,721	-0,062	0,020
-178,256	-67,456	-0,103	-0,029
-177,242	106,821	-0,064	0,054
-176,227	308,967	0,085	0,113
-175,212	-33,607	-0,032	0,013
-174,198	316,079	0,056	0,075
-173,183	215,486	-0,046	-0,052
-172,169	44,566	-0,095	-0,062
-171,154	367,761	0,077	0,110
-170,139	-15,835	-0,046	0,021
-169,125	-200,000	-0,011	0,135
-168,110	6,791	0,074	0,039
-167,096	-3,609	-0,131	0,065
-166,081	41,835	-0,034	0,022
-165,066	288,640	-0,056	0,072
-164,052	208,394	-0,098	-0,109
-163,037	34,322	0,093	-0,057
-162,023	521,322	-0,036	0,060
-161,008	-200,000	-0,008	-0,039
-159,993	-200,000	-0,034	0,223
-158,979	-200,000	-0,003	0,045
-157,964	-200,000	-0,004	-0,092
-156,950	0,429	-0,057	-0,029
-155,935	35,776	0,035	0,022
-154,920	-200,000	-0,022	0,124
-153,906	-115,933	-0,076	0,010
-152,891	-56,983	0,059	-0,018
-151,877	-138,695	-0,090	0,007
-150,862	344,605	-0,040	0,056
-149,847	43,229	-0,128	-0,083
-148,833	26,872	0,059	-0,035
-147,818	653,699	0,050	0,090
-146,804	222,456	-0,098	-0,112
-145,789	86,049	-0,063	-0,049
-144,775	800,000	0,032	-0,084
-143,760	202,698	-0,118	-0,130
-142,745	360,475	0,067	0,096
-141,731	800,000	0,050	0,126
-140,716	-104,794	0,036	-0,006
-139,702	533,595	0,054	0,092
-138,687	52,919	-0,073	0,049
-137,672	-11,865	0,084	0,039
-136,658	555,137	0,058	-0,100
-135,643	186,382	-0,084	-0,088
-134,629	182,802	0,065	-0,068
-133,614	-90,705	0,091	-0,018
-132,599	-61,695	0,243	-0,072
-131,585	800,000	-0,053	0,111
-130,570	-200,000	0,016	-0,085
-129,556	154,121	-0,012	0,012
-128,541	394,429	0,055	0,081
-127,526	695,745	-0,045	0,084
-126,512	-135,603	0,055	-0,005
-125,497	152,916	-0,138	0,134
-124,483	-103,812	0,092	-0,015
-123,468	-29,819	0,142	0,057
-122,453	184,930	-0,109	-0,115
-121,439	83,535	0,070	0,054
-120,424	199,766	-0,021	-0,022
-119,410	60,375	0,061	-0,043
-118,395	82,031	0,020	0,016
-117,380	316,691	0,025	0,034
-116,366	-39,494	-0,169	-0,062
-115,351	-37,099	0,024	-0,009
-114,337	-100,024	-0,104	0,018
-113,322	-61,546	0,099	0,029
-112,307	-84,177	-0,045	-0,010
-111,293	-107,411	0,009	-0,001
-110,278	670,279	0,082	-0,151
-109,264	121,236	0,014	0,012
-108,249	800,000	-0,032	-0,076
-107,234	-65,197	0,053	-0,015
-106,220	-148,729	-0,083	-0,005
-105,205	-31,074	0,203	-0,081
-104,191	-19,291	0,159	0,070
-103,176	164,786	0,099	-0,098
-102,162	-200,000	0,002	-0,025
-101,147	43,210	-0,013	-0,008
-100,132	346,600	-0,054	-0,076
-99,118	235,912	-0,047	0,055
-98,103	-20,131	0,116	-0,050
-97,089	800,000	0,066	0,129
-96,074	-60,780	0,119	0,035
-95,059	800,000	0,013	-0,027
-94,045	-200,000	-0,014	0,112
-93,030	134,480	-0,008	-0,007
-92,016	692,759	0,035	-0,065
-91,001	4,100	0,014	0,007
-89,986	108,299	0,114	-0,096
-88,972	304,496	0,034	0,045
-87,957	334,883	0,031	-0,043
-86,943	-20,430	-0,019	0,008
-85,928	-146,334	-0,093	0,006
-84,913	-17,439	0,046	-0,021
-83,899	800,000	-0,042	0,127
-82,884	116,339	-0,056	0,048
-81,870	-200,000	0,030	0,097
-80,855	357,647	0,025	0,035
-79,840	291,681	0,030	-0,038
-78,826	-129,654	0,134	-0,013
-77,811	792,708	-0,042	0,083
-76,797	-200,000	-0,009	0,059
-75,782	-39,039	0,050	0,018
-74,767	-3,439	0,039	0,019
-73,753	686,665	0,024	-0,044
-72,738	-200,000	0,009	0,075
-71,724	460,265	0,031	-0,049
-70,709	-73,380	0,061	-0,016
-69,694	630,780	-0,060	-0,107
-68,680	185,549	0,109	-0,115
-67,665	-94,693	0,097	-0,018
-66,651	141,705	0,078	0,073
-65,636	-143,650	0,183	0,012
-64,622	686,979	-0,047	-0,087
-63,607	-89,754	-0,042	-0,009
-62,592	-200,000	0,017	-0,123
-61,578	800,000	0,041	-0,096
-60,563	-200,000	-0,019	0,139
-59,549	5,471	-0,098	0,051
-58,534	46,167	-1,903	-1,243
-57,519	568,926	-1,217	-2,098
-56,505	-200,000	-0,402	-4,342
-55,490	748,274	0,782	1,495
-54,476	800,000	5,116	11,066
-53,461	-200,000	20,776	329,833
-52,446	800,000	755,836	2321,339
-51,432	550,689	1661,469	2825,452
-50,417	73,767	1664,673	1230,660
-49,403	18,967	1537,678	867,812
-48,388	12,963	1460,475	795,174
-47,373	19,098	1451,082	819,503
-46,359	16,078	1440,555	799,142
-45,344	11,193	1436,336	773,493
-44,330	11,177	1434,475	772,383
-43,315	11,112	1432,730	771,102
-42,300	11,120	1430,937	770,146
-41,286	11,202	1429,423	769,689
-40,271	11,162	1428,175	768,797
-39,257	11,136	1427,153	768,093
-38,242	11,154	1425,884	767,464
-37,227	11,194	1424,755	767,016
-36,213	11,198	1423,692	766,434
-35,198	11,231	1422,633	765,988
-34,184	11,221	1421,571	765,337
-33,169	11,195	1420,097	764,392
-32,154	11,260	1418,980	764,068
-31,140	11,199	1417,913	763,176
-30,125	11,264	1416,739	762,819
-29,111	11,239	1415,766	762,146
-28,096	11,233	1414,642	761,484
-27,082	11,173	1413,348	760,473
-26,067	11,150	1412,354	759,804
-25,052	11,174	1411,417	759,379
-24,038	11,140	1410,423	758,657
-23,023	11,127	1409,477	758,056
-22,009	11,188	1408,221	757,636
-20,994	11,095	1407,458	756,761
-19,979	11,114	1406,486	756,298
-18,965	11,078	1405,620	755,634
-17,950	11,108	1404,422	755,098
-16,936	11,050	1403,858	754,495
-15,921	11,027	1402,813	753,798
-14,906	11,050	1401,877	753,373
-13,892	11,040	1400,910	752,776
-12,877	11,074	1400,014	752,423
-11,863	11,054	1399,307	751,917
-10,848	11,067	1398,059	751,278
-9,833	11,000	1397,424	750,594
-8,819	10,937	1396,642	749,853
-7,804	10,964	1395,629	749,406
-6,790	10,937	1394,703	748,756
-5,775	10,900	1393,758	748,045
-4,760	10,967	1392,728	747,774
-3,746	10,972	1391,705	747,217
-2,731	10,975	1390,948	746,797
-1,717	10,916	1390,138	746,058
-0,702	10,957	1388,203	745,177
0,313	14,920	1301,859	717,008
1,327	31,124	693,425	418,794
2,342	47,811	120,421	79,197
3,356	1,331	16,475	8,326
4,371	-1,666	3,331	1,650
5,386	30,086	0,908	0,545
6,400	566,740	0,190	0,327
7,415	413,701	-0,077	-0,116
8,429	-91,345	-0,314	0,063
9,444	16,723	-0,375	-0,209
10,459	42,274	-0,225	-0,144
11,473	161,552	-0,207	-0,205
12,488	107,153	-0,281	-0,235
13,502	83,319	-0,201	-0,154
14,517	800,000	-0,152	-0,317
15,531	-55,165	-0,250	-0,079
16,546	-116,971	-0,341	-0,043
17,561	176,348	-0,218	-0,224
18,575	-12,903	-0,229	-0,105
19,590	800,000	-0,136	-0,340
20,604	-74,053	-0,167	-0,042
21,619	39,960	-0,513	-0,324
22,634	108,488	-0,485	-0,408
23,648	68,511	-0,333	-0,240
24,663	58,971	-0,361	-0,250
25,677	45,024	-0,371	-0,240
26,692	101,941	-0,277	-0,227
27,707	80,106	-0,403	-0,305
28,721	246,967	-0,318	-0,379
29,736	98,115	-0,390	-0,316
30,750	303,491	-0,254	-0,332
31,765	95,196	-0,264	-0,211
32,780	-10,663	-0,487	-0,226
33,794	53,470	-0,309	-0,208
34,809	-21,416	-0,382	-0,163
35,823	-4,433	-0,351	-0,170
36,838	213,513	-0,350	-0,390
37,853	12,666	-0,528	-0,286
38,867	204,668	-0,373	-0,408
39,882	48,736	-0,307	-0,202
40,896	-0,381	-0,183	-0,091
41,911	52,222	-0,325	-0,218
42,926	5,384	-0,475	-0,246
43,940	227,049	-0,331	-0,379
44,955	425,884	-0,194	-0,294
45,969	127,774	-0,422	-0,377
46,984	-28,202	-0,395	-0,160
47,999	-0,505	-0,292	-0,145
49,013	128,439	-0,372	-0,333
50,028	37,443	-0,270	-0,168
51,042	40,201	-0,462	-0,292
52,057	11,595	-0,411	-0,221
53,071	-33,687	-0,285	-0,110
54,086	16,347	-0,388	-0,214
55,101	140,774	-0,244	-0,227
56,115	4,784	-0,289	-0,149
57,130	-20,658	-0,341	-0,146
58,144	88,369	-0,334	-0,260
59,159	88,560	-0,478	-0,373
60,174	105,160	-0,370	-0,307
61,188	1,140	-0,429	-0,215
62,203	146,776	-0,201	-0,190
63,217	-12,576	-0,265	-0,121
64,232	81,238	-0,277	-0,210
65,247	166,776	-0,312	-0,311
66,261	91,846	-0,357	-0,282
67,276	151,009	-0,293	-0,280
68,290	151,550	-0,275	-0,263
69,305	103,511	-0,297	-0,244
70,320	-6,523	-0,354	-0,169
71,334	72,151	-0,307	-0,224
72,349	37,561	-0,314	-0,195
73,363	37,519	-0,375	-0,233
74,378	93,046	-0,363	-0,288
75,393	48,736	-0,273	-0,179
76,407	-7,243	-0,397	-0,188
77,422	618,037	-0,089	-0,157
78,436	-42,093	-0,243	-0,087
79,451	63,443	-0,225	-0,158
80,466	67,237	-0,276	-0,197
81,480	301,723	-0,258	-0,335
82,495	50,156	-0,243	-0,161
83,509	-68,189	-0,193	-0,052
84,524	-25,995	-0,382	-0,157
85,539	77,504	-0,287	-0,214
86,553	250,672	-0,247	-0,295
87,568	180,881	-0,384	-0,396
88,582	0,208	-0,336	-0,167
89,597	401,885	-0,195	-0,288
90,611	70,814	-0,234	-0,169
91,626	-20,677	-0,248	-0,106
92,641	-44,109	-0,245	-0,086
93,655	16,530	-0,244	-0,134
94,670	-16,559	-0,300	-0,133
95,684	60,430	-0,229	-0,158
96,699	114,138	-0,200	-0,171
97,714	-71,824	-0,264	-0,068
98,728	-43,051	-0,277	-0,098
99,743	219,548	-0,228	-0,256
100,757	89,172	-0,265	-0,207
101,772	34,401	-0,276	-0,168
102,787	-18,008	-0,365	-0,159
103,801	78,331	-0,312	-0,233
104,816	-178,221	-0,247	0,004
105,830	289,535	-0,175	-0,223
106,845	54,729	-0,217	-0,146
107,860	37,233	-0,227	-0,140
108,874	355,824	-0,158	-0,221
109,889	-31,635	-0,328	-0,128
110,903	104,276	-0,250	-0,205
111,918	-34,910	-0,307	-0,116
112,933	68,717	-0,207	-0,148
113,947	88,396	-0,250	-0,194
114,962	-41,024	-0,259	-0,093
115,976	141,838	-0,189	-0,175
116,991	164,049	-0,321	-0,316
118,006	-48,450	-0,386	-0,129
119,020	-38,122	-0,260	-0,096
120,035	92,507	-0,311	-0,245
121,049	187,546	-0,164	-0,171
122,064	99,768	-0,207	-0,167
123,079	92,134	-0,305	-0,240
124,093	6,362	-0,334	-0,172
125,108	-44,363	-0,290	-0,101
126,122	47,325	-0,215	-0,140
127,137	45,514	-0,190	-0,122
128,151	16,817	-0,242	-0,133
129,166	42,092	-0,249	-0,157
130,181	22,553	-0,156	-0,089
131,195	17,071	-0,230	-0,127
132,210	142,570	-0,173	-0,161
133,224	232,488	-0,203	-0,232
134,239	-51,500	-0,390	-0,126
135,254	93,355	-0,105	-0,083
136,268	-4,157	-0,340	-0,164
137,283	-130,429	-0,292	-0,027
138,297	20,075	-0,266	-0,149
139,312	-2,472	-0,290	-0,141
140,327	-1,520	-0,301	-0,147
141,341	435,862	-0,135	-0,206
142,356	693,420	-0,112	-0,206
143,370	267,002	-0,172	-0,211
144,385	-20,888	-0,371	-0,158
145,400	-5,449	-0,337	-0,160
146,414	118,435	-0,207	-0,178
147,429	4,078	-0,164	-0,084
148,443	35,786	-0,371	-0,227
149,458	68,225	-0,262	-0,187
150,473	-135,170	-0,173	0,014
151,487	230,956	-0,157	-0,180
152,502	83,695	-0,270	-0,205
153,516	756,119	-0,177	-0,334
154,531	130,932	-0,196	-0,175
155,546	211,803	-0,214	-0,235
156,560	646,457	-0,140	-0,251
157,575	-29,873	-0,257	-0,101
158,589	132,750	-0,167	-0,150
159,604	17,382	-0,283	-0,156
160,619	191,505	-0,185	-0,195
161,633	255,921	-0,114	-0,136
162,648	43,481	-0,309	-0,196
163,662	-44,738	-0,131	-0,045
164,677	-2,010	-0,249	-0,121
165,692	154,573	-0,180	-0,172
166,706	220,339	-0,207	-0,231
167,721	95,831	-0,190	-0,151
168,735	68,788	-0,276	-0,197
169,750	117,794	-0,227	-0,194
170,764	-9,513	-0,236	-0,109
171,779	-39,378	-0,052	-0,019
172,794	82,412	-0,213	-0,161
173,808	140,197	-0,214	-0,196
174,823	224,576	-0,207	-0,233
175,837	271,856	-0,196	-0,241
176,852	88,326	-0,203	-0,156
177,867	-32,655	-0,268	-0,103
178,881	-200,000	-0,016	-0,068
179,896	-92,834	-0,254	-0,049
180,910	-13,565	-0,238	-0,107
181,925	106,027	-0,258	-0,212
182,940	26,883	-0,148	-0,086
183,954	102,292	-0,215	-0,174
184,969	267,750	-0,188	-0,229
185,983	116,189	-0,188	-0,160
186,998	84,542	-0,186	-0,141
188,013	-8,220	-0,180	0,084
189,027	76,272	-0,255	-0,187
190,042	79,841	-0,288	-0,215
191,056	63,815	-0,271	-0,189
192,071	285,635	-0,181	-0,227
193,086	139,655	-0,175	-0,160
194,100	69,756	-0,236	-0,169
195,115	800,000	-0,070	-0,206
196,129	137,616	-0,201	-0,183
197,144	55,836	-0,244	-0,164
198,159	50,828	-0,174	-0,114
199,173	-5,004	-0,239	-0,113
200,188	13,383	-0,219	-0,117
201,202	115,160	-0,187	-0,158
202,217	250,646	-0,083	-0,098
203,232	71,137	-0,258	-0,185
204,246	-57,827	-0,315	-0,095
205,261	114,885	-0,209	-0,176
206,275	19,222	-0,202	-0,112
207,290	178,254	-0,084	-0,085
208,304	-84,768	-0,286	-0,062
209,319	27,498	-0,253	-0,147
210,334	24,590	-0,186	-0,106
211,348	90,292	-0,157	-0,122
212,363	90,868	-0,206	-0,160
213,377	192,900	-0,159	-0,166
214,392	31,720	-0,161	-0,096
215,407	-119,140	-0,112	-0,013
216,421	800,000	-0,081	-0,204
217,436	347,726	-0,145	-0,198
218,450	-5,520	-0,269	-0,127
219,465	281,821	-0,140	-0,174
220,480	-200,000	-0,067	-0,221
221,494	-127,858	-0,192	-0,019
222,509	21,181	-0,048	0,027
223,523	-29,209	-0,161	-0,064
224,538	-114,918	-0,175	-0,023
225,553	-11,869	-0,181	-0,082
226,567	634,105	-0,146	-0,256
227,582	246,673	-0,169	-0,198
228,596	281,165	-0,147	-0,182
229,611	37,749	-0,205	-0,125
230,626	-28,414	0,067	-0,026
231,640	-112,934	-0,223	-0,030
232,655	577,347	-0,114	-0,194
233,669	-2,832	-0,190	-0,091
234,684	-87,780	-0,175	-0,036
235,699	-144,261	-0,243	-0,015
236,713	457,502	-0,153	-0,235
237,728	15,495	-0,104	-0,056
238,742	97,888	-0,259	-0,206
239,757	202,673	-0,168	-0,179
240,772	53,051	-0,208	-0,138
241,786	42,125	-0,305	-0,191
242,801	-7,346	-0,148	-0,069
243,815	179,590	-0,054	0,054
244,830	-83,512	-0,206	-0,045
245,844	-184,566	-0,100	-0,001
246,859	464,804	-0,128	-0,198
247,874	167,474	-0,170	-0,167
248,888	463,361	-0,186	-0,287
249,903	67,390	-0,061	-0,043
250,917	83,329	-0,203	-0,152
251,932	-42,946	-0,106	0,037
252,947	-73,319	-0,263	-0,066
253,961	454,118	-0,128	-0,196
254,976	188,228	-0,295	-0,304
255,990	92,646	-0,229	-0,178
257,005	57,974	-0,141	-0,095
258,020	-91,283	-0,220	0,043
259,034	-35,200	-0,062	-0,023
260,049	-141,797	-0,269	0,018
261,063	130,412	-0,203	-0,180
262,078	792,971	-0,124	-0,237
263,093	320,527	-0,238	-0,313
264,107	128,327	-0,166	-0,145
265,122	-200,000	-0,042	-0,155
266,136	-153,269	-0,119	-0,006
267,151	-200,000	-0,017	-0,139
268,166	11,523	-0,160	-0,084
269,180	53,327	-0,321	-0,212
270,195	-96,062	-0,107	0,019
271,209	-21,535	-0,158	-0,066
272,224	-200,000	-0,054	-0,290
273,239	-30,145	-0,056	0,022
274,253	90,718	-0,201	-0,155
275,268	127,238	-0,258	-0,226
276,282	29,859	-0,131	-0,077
277,297	117,113	-0,218	-0,184
278,312	198,820	-0,229	-0,241
279,326	35,698	-0,076	-0,046
280,341	94,954	-0,094	-0,074
281,355	-64,964	-0,120	0,033
282,370	-101,699	-0,129	-0,021
283,384	196,951	-0,252	-0,265
284,399	603,828	-0,101	-0,173
285,414	246,737	-0,189	-0,220
286,428	176,538	-0,059	-0,059
287,443	-92,837	0,060	-0,011
288,457	326,712	-0,082	-0,109
289,472	800,000	-0,060	-0,137
290,487	162,326	-0,166	-0,160
291,501	147,609	-0,193	-0,179
292,516	133,272	-0,131	-0,117
293,530	114,487	-0,138	-0,116
294,545	-129,360	-0,057	-0,005
295,560	-51,431	-0,046	0,015
296,574	118,535	-0,272	-0,231
297,589	800,000	-0,061	-0,171
298,603	-9,262	-0,087	-0,040
299,618	92,444	-0,259	-0,201
300,633	-34,683	-0,171	-0,064
301,647	-200,000	-0,049	-0,214
302,662	529,149	-0,122	-0,199
303,676	-117,095	-0,193	-0,024
304,691	348,081	-0,149	-0,203
305,706	374,021	-0,173	-0,242
306,720	-19,686	-0,156	-0,066
307,735	151,502	-0,189	-0,177
308,749	-17,593	-0,137	-0,059
309,764	167,701	-0,205	-0,200
310,779	205,108	-0,143	-0,153
311,793	94,769	-0,236	-0,184
312,808	56,039	-0,245	-0,163
313,822	-200,000	-0,027	-0,147
314,837	78,983	-0,141	-0,103
315,852	-77,717	-0,240	-0,057
316,866	370,457	-0,011	0,016
317,881	30,532	-0,093	0,054
318,895	-177,533	-0,099	-0,002
319,910	278,107	-0,107	-0,132
320,925	88,175	-0,155	-0,118
321,939	175,378	-0,140	-0,140
322,954	800,000	-0,028	-0,057
323,968	217,218	-0,079	-0,087
324,983	236,255	-0,068	-0,077
325,997	-11,401	-0,087	-0,039
327,012	-23,678	-0,228	-0,094
328,027	200,908	-0,121	-0,128
329,041	200,876	-0,138	-0,146
330,056	209,227	-0,177	-0,191
331,070	-200,000	-0,025	0,151
332,085	-107,322	-0,158	-0,024
333,100	65,531	-0,065	-0,045
334,114	161,212	-0,133	-0,128
335,129	-8,592	-0,164	-0,075
336,143	800,000	-0,082	-0,160
337,158	97,816	-0,132	-0,104
338,173	-75,710	-0,117	-0,028
339,187	331,785	-0,144	-0,190
340,202	-200,000	0,015	-0,147
341,216	800,000	-0,088	-0,188
342,231	-114,275	-0,129	-0,017
343,246	364,837	-0,134	-0,185
344,260	-107,378	-0,075	-0,011
345,275	-200,000	-0,025	-0,172
346,289	-100,241	-0,237	0,040
347,304	60,304	-0,164	-0,111
348,319	564,131	-0,017	-0,029
349,333	-200,000	-0,053	-0,162
350,348	-181,745	-0,103	-0,001
351,362	800,000	-0,055	-0,113
352,377	-200,000	-0,019	-0,075
353,392	-97,406	-0,204	-0,036
354,406	800,000	-0,064	-0,135
355,421	206,868	1309,060	1397,320
356,435	159,119	1469,064	1397,812
