DTS Sentinel unit serial number:	SN410029Multiplexer serial number:	ORYXHardware model number:	OX2-SRSoftware version number:	ORYX F/W v4,00 Oryx Data Collector v3.7.2.0data status	okinstallation	B3 Nyhavnadifferential loss correction	single-endedforward channel	channel 1reverse channel	N/Adate	2023/12/04time	06:17:30forward acquisition time	300,00reverse acquisition time	0,00gamma	499,1914k internal	0,3206k external	0,3206temperature offset calibration	1,0000default loss term (dB/km)	0,3820temperature slope calibration	1,0000multiplexer offset coefficient	1,0000multiplexer slope coefficient	1,0000fibre end	0,00T internal ref (°C)	12,03T ext. ref 1 (°C)	-2,91T ext. ref 2 (°C)	-2,93length (m)	temperature (°C)	Stokes	anti-Stokes-744,400	284,308	-0,138	-0,181
-743,385	800,000	0,061	0,179
-742,371	133,397	-0,187	-0,176
-741,356	-200,000	-0,068	0,261
-740,342	800,000	-0,139	-0,320
-739,327	800,000	-0,115	0,352
-738,312	-6,602	-0,152	-0,075
-737,298	800,000	-0,086	0,203
-736,283	441,111	-0,170	-0,272
-735,269	-200,000	-0,052	0,202
-734,254	745,500	-0,181	-0,356
-733,239	-118,708	-0,143	0,018
-732,225	800,000	-0,144	-0,290
-731,210	800,000	0,065	0,206
-730,196	0,215	-0,102	0,053
-729,181	-200,000	0,002	0,008
-728,167	207,988	-0,052	0,059
-727,152	540,518	-0,072	0,124
-726,137	800,000	0,002	0,006
-725,123	17,274	0,028	0,016
-724,108	-200,000	-0,058	-0,190
-723,094	27,518	-0,063	-0,038
-722,079	-109,406	0,067	0,010
-721,064	70,722	-0,069	-0,051
-720,050	-48,071	-0,062	-0,022
-719,035	43,227	-0,078	-0,052
-718,021	-200,000	-0,021	-0,090
-717,006	-200,000	0,044	0,152
-715,991	96,737	0,076	0,063
-714,977	-200,000	0,003	-0,097
-713,962	4,951	0,083	-0,044
-712,948	-105,639	-0,055	-0,009
-711,933	124,652	-0,038	-0,035
-710,918	800,000	0,018	0,053
-709,904	-200,000	-0,042	-0,145
-708,889	65,090	-0,084	-0,062
-707,875	543,121	-0,083	0,144
-706,860	-200,000	-0,018	-0,097
-705,845	23,783	0,119	0,071
-704,831	-14,160	0,019	-0,009
-703,816	-200,000	0,005	-0,137
-702,802	-135,149	0,112	0,010
-701,787	800,000	0,007	-0,021
-700,772	254,518	-0,095	0,118
-699,758	-102,865	-0,132	0,023
-698,743	-200,000	0,003	0,134
-697,729	-170,871	-0,058	-0,001
-696,714	-39,788	-0,053	-0,020
-695,699	386,186	-0,073	0,110
-694,685	-17,263	0,011	-0,005
-693,670	-118,308	-0,150	0,019
-692,656	192,566	0,090	0,099
-691,641	249,005	-0,062	-0,076
-690,627	800,000	0,054	0,135
-689,612	800,000	-0,020	0,044
-688,597	-43,021	-0,077	0,028
-687,583	418,407	0,070	-0,108
-686,568	-97,946	-0,131	0,024
-685,554	-117,550	-0,159	0,021
-684,539	800,000	-0,054	-0,160
-683,524	-200,000	-0,017	-0,115
-682,510	-200,000	-0,001	-0,033
-681,495	571,959	0,008	-0,014
-680,481	800,000	-0,007	-0,019
-679,466	208,006	-0,034	-0,038
-678,451	597,736	0,040	-0,073
-677,437	-146,370	0,066	-0,004
-676,422	800,000	-0,034	0,105
-675,408	-78,282	-0,123	0,030
-674,393	-119,927	0,042	0,005
-673,378	424,431	0,025	-0,039
-672,364	-25,280	-0,095	0,041
-671,349	-76,897	-0,118	-0,030
-670,335	-200,000	0,025	0,082
-669,320	128,431	0,084	-0,078
-668,305	-60,240	-0,130	0,040
-667,291	-146,560	0,068	-0,004
-666,276	280,447	-0,057	-0,074
-665,262	-3,687	-0,020	0,010
-664,247	-121,620	0,150	0,018
-663,232	95,271	-0,017	-0,014
-662,218	-200,000	0,006	0,024
-661,203	-25,073	-0,127	-0,054
-660,189	-200,000	-0,005	-0,020
-659,174	800,000	-0,059	-0,125
-658,159	690,758	0,063	-0,119
-657,145	97,168	-0,075	-0,062
-656,130	-200,000	-0,003	-0,014
-655,116	177,974	0,119	0,125
-654,101	212,581	-0,087	0,099
-653,086	-150,799	0,058	0,003
-652,072	800,000	-0,036	-0,096
-651,057	3,836	-0,161	-0,085
-650,043	-95,009	-0,119	-0,023
-649,028	83,189	0,021	0,016
-648,014	-102,437	0,034	0,006
-646,999	335,751	-0,023	-0,033
-645,984	104,828	0,127	-0,108
-644,970	-200,000	-0,006	-0,070
-643,955	800,000	-0,004	-0,008
-642,941	401,282	-0,058	-0,089
-641,926	348,653	-0,008	-0,011
-640,911	800,000	0,034	0,078
-639,897	-200,000	-0,013	-0,131
-638,882	-179,376	0,076	0,001
-637,868	150,055	-0,065	0,064
-636,853	-63,193	-0,105	0,031
-635,838	-200,000	-0,010	-0,135
-634,824	596,968	-0,072	-0,129
-633,809	-78,375	0,159	-0,039
-632,795	800,000	0,046	0,127
-631,780	800,000	0,013	0,032
-630,765	800,000	-0,055	-0,123
-629,751	309,260	0,048	-0,065
-628,736	-200,000	0,018	-0,115
-627,722	-81,230	-0,108	-0,026
-626,707	-200,000	-0,012	-0,049
-625,692	-200,000	0,031	-0,189
-624,678	64,274	-0,027	0,020
-623,663	-95,747	-0,100	-0,019
-622,649	-200,000	0,005	-0,082
-621,634	800,000	-0,056	-0,119
-620,619	-175,988	0,081	0,002
-619,605	-200,000	-0,016	0,059
-618,590	-200,000	-0,001	0,031
-617,576	-179,365	-0,155	0,002
-616,561	54,509	0,030	-0,021
-615,546	257,051	-0,127	-0,159
-614,532	-60,553	-0,064	-0,019
-613,517	-20,110	-0,130	-0,058
-612,503	-45,642	-0,090	0,032
-611,488	164,782	0,009	0,009
-610,474	216,703	0,113	0,130
-609,459	-83,326	-0,032	-0,007
-608,444	-42,366	-0,099	-0,036
-607,430	491,030	-0,057	0,095
-606,415	-47,168	0,150	0,052
-605,401	-152,594	-0,077	0,004
-604,386	144,950	0,195	0,188
-603,371	704,940	-0,050	0,095
-602,357	-200,000	0,005	0,103
-601,342	-142,576	0,042	0,003
-600,328	8,405	-0,057	-0,031
-599,313	28,682	-0,003	0,002
-598,298	49,502	-0,090	-0,061
-597,284	-140,156	0,010	-0,001
-596,269	-200,000	0,009	0,067
-595,255	246,419	-0,077	-0,094
-594,240	-38,284	-0,182	0,069
-593,225	800,000	-0,031	0,066
-592,211	-40,227	0,045	0,017
-591,196	164,882	-0,127	-0,129
-590,182	-69,753	0,072	-0,020
-589,167	-83,078	-0,047	-0,011
-588,152	99,902	-0,030	0,025
-587,138	351,735	-0,079	0,114
-586,123	9,435	-0,063	-0,035
-585,109	656,878	-0,028	-0,053
-584,094	-200,000	0,003	0,028
-583,079	86,562	0,058	0,046
-582,065	-200,000	-0,029	0,114
-581,050	93,374	-0,055	0,045
-580,036	118,785	0,166	0,148
-579,021	-200,000	-0,018	0,093
-578,006	-200,000	0,015	-0,072
-576,992	-200,000	-0,016	0,113
-575,977	214,924	-0,082	-0,094
-574,963	-200,000	-0,021	0,080
-573,948	149,276	0,059	0,058
-572,934	-200,000	-0,023	0,078
-571,919	100,848	-0,066	0,055
-570,904	2,041	-0,118	-0,061
-569,890	-200,000	-0,010	0,044
-568,875	-84,857	-0,080	0,018
-567,861	-176,835	0,018	-0,000
-566,846	-200,000	0,013	-0,080
-565,831	145,862	-0,104	0,101
-564,817	-200,000	-0,009	-0,093
-563,802	9,832	-0,067	0,037
-562,788	70,801	0,083	0,062
-561,773	555,620	-0,025	0,044
-560,758	-200,000	0,013	0,185
-559,744	800,000	0,054	-0,113
-558,729	-115,535	0,096	0,013
-557,715	172,913	0,053	0,055
-556,700	-200,000	-0,021	-0,088
-555,685	524,400	0,074	-0,126
-554,671	-200,000	0,001	0,021
-553,656	81,013	-0,095	0,074
-552,642	800,000	-0,039	0,112
-551,627	443,569	0,141	0,224
-550,612	800,000	-0,017	-0,044
-549,598	539,016	-0,080	-0,137
-548,583	-144,012	-0,111	-0,007
-547,569	-200,000	0,021	-0,131
-546,554	-114,990	0,107	-0,014
-545,539	2,830	0,080	-0,041
-544,525	395,254	0,031	-0,047
-543,510	800,000	-0,016	0,038
-542,496	164,764	-0,094	-0,096
-541,481	800,000	-0,014	0,036
-540,466	-120,029	0,052	0,006
-539,452	747,438	0,026	-0,052
-538,437	474,619	0,074	0,122
-537,423	-7,337	-0,085	0,041
-536,408	114,971	-0,137	0,120
-535,393	-27,828	0,120	-0,050
-534,379	800,000	-0,009	-0,020
-533,364	25,805	0,048	-0,029
-532,350	450,471	-0,068	0,108
-531,335	-64,976	0,123	0,035
-530,321	115,965	0,145	-0,128
-529,306	46,621	-0,046	0,031
-528,291	-68,681	-0,096	-0,027
-527,277	-200,000	-0,008	-0,071
-526,262	-35,773	-0,063	0,024
-525,248	487,960	0,012	-0,020
-524,233	28,616	-0,028	0,017
-523,218	800,000	-0,032	-0,067
-522,204	393,327	-0,026	0,039
-521,189	374,263	0,036	-0,052
-520,175	580,355	-0,033	0,058
-519,160	318,716	-0,031	-0,042
-518,145	9,236	-0,176	0,096
-517,131	800,000	0,031	0,084
-516,116	93,414	0,086	0,070
-515,102	715,898	0,054	-0,105
-514,087	-200,000	-0,003	-0,074
-513,072	-200,000	-0,046	-0,182
-512,058	247,709	0,033	-0,040
-511,043	-43,872	0,072	-0,026
-510,029	247,288	0,143	0,174
-509,014	-200,000	0,016	0,075
-507,999	506,783	0,062	0,103
-506,985	-195,685	0,021	0,000
-505,970	-193,483	-0,084	-0,001
-504,956	98,389	0,056	0,046
-503,941	800,000	0,064	0,184
-502,926	193,956	-0,050	-0,055
-501,912	-200,000	-0,002	0,128
-500,897	-200,000	0,009	0,036
-499,883	170,283	0,066	0,068
-498,868	66,941	-0,030	0,022
-497,853	202,362	0,090	-0,100
-496,839	-0,224	-0,068	0,035
-495,824	172,511	-0,054	0,056
-494,810	8,725	-0,050	0,027
-493,795	-200,000	0,002	0,047
-492,781	-47,583	-0,179	0,062
-491,766	-44,201	-0,130	-0,047
-490,751	-200,000	-0,016	-0,083
-489,737	-25,673	-0,037	0,016
-488,722	11,757	0,042	-0,023
-487,708	800,000	-0,076	0,209
-486,693	-120,200	0,118	-0,014
-485,678	37,246	-0,068	-0,043
-484,664	-200,000	0,016	-0,089
-483,649	800,000	-0,040	-0,084
-482,635	211,268	0,066	0,074
-481,620	-56,577	0,178	0,057
-480,605	207,355	0,126	0,141
-479,591	-200,000	-0,033	-0,116
-478,576	54,534	-0,059	-0,041
-477,562	-200,000	-0,005	-0,142
-476,547	-200,000	-0,008	-0,069
-475,532	69,771	0,029	0,022
-474,518	779,525	-0,047	0,093
-473,503	9,677	-0,015	-0,008
-472,489	-123,540	-0,089	-0,010
-471,474	-56,989	0,183	0,058
-470,459	42,369	-0,086	-0,056
-469,445	6,825	-0,055	-0,029
-468,430	57,751	0,074	-0,052
-467,416	-70,332	0,039	-0,011
-466,401	121,437	0,115	0,103
-465,386	154,525	0,054	0,053
-464,372	-130,631	0,127	-0,012
-463,357	19,838	-0,105	-0,061
-462,343	116,643	-0,112	-0,099
-461,328	197,214	-0,090	-0,099
-460,313	-111,994	-0,157	-0,022
-459,299	800,000	0,020	0,040
-458,284	800,000	0,043	0,093
-457,270	428,286	-0,009	0,014
-456,255	800,000	-0,047	-0,109
-455,241	776,197	-0,011	-0,022
-454,226	10,972	-0,130	-0,071
-453,211	-200,000	-0,023	-0,089
-452,197	31,588	0,160	-0,098
-451,182	-200,000	0,003	0,016
-450,168	-82,074	-0,073	0,017
-449,153	134,548	0,120	-0,112
-448,138	406,809	0,047	-0,071
-447,124	53,542	-0,067	-0,046
-446,109	-131,945	0,063	-0,006
-445,095	-200,000	0,028	0,098
-444,080	-67,745	0,157	-0,044
-443,065	-200,000	0,007	0,169
-442,051	536,729	-0,044	0,076
-441,036	-26,903	0,096	0,040
-440,022	782,566	-0,008	-0,016
-439,007	-200,000	-0,044	-0,151
-437,992	-134,738	0,166	0,014
-436,978	-200,000	0,046	0,209
-435,963	-36,826	0,034	-0,013
-434,949	131,789	0,046	0,042
-433,934	-45,133	-0,110	-0,039
-432,919	800,000	-0,029	-0,059
-431,905	-200,000	0,002	0,112
-430,890	316,303	0,061	0,083
-429,876	-65,657	0,104	0,030
-428,861	234,233	0,076	-0,090
-427,846	421,643	0,015	-0,023
-426,832	144,906	-0,058	-0,056
-425,817	-119,803	0,036	0,004
-424,803	-117,420	-0,053	-0,007
-423,788	-200,000	0,009	0,029
-422,773	800,000	-0,026	-0,065
-421,759	-200,000	0,014	0,087
-420,744	131,935	0,038	-0,035
-419,730	-17,425	-0,156	-0,070
-418,715	618,504	0,026	-0,048
-417,701	-200,000	-0,003	-0,060
-416,686	800,000	0,070	-0,139
-415,671	-200,000	0,010	-0,167
-414,657	-200,000	0,016	-0,081
-413,642	-200,000	-0,025	0,114
-412,628	-78,183	0,109	-0,027
-411,613	800,000	0,036	0,074
-410,598	800,000	-0,016	0,042
-409,584	-41,887	-0,062	0,023
-408,569	445,654	0,011	0,017
-407,555	-200,000	0,023	-0,098
-406,540	-200,000	0,008	-0,074
-405,525	109,981	-0,052	-0,045
-404,511	800,000	0,041	-0,119
-403,496	800,000	0,036	-0,102
-402,482	-9,411	0,142	-0,068
-401,467	-200,000	-0,008	-0,071
-400,452	-200,000	0,013	0,077
-399,438	-24,055	0,078	0,033
-398,423	216,873	-0,107	-0,123
-397,409	-200,000	0,028	-0,244
-396,394	-200,000	0,023	-0,080
-395,379	-200,000	0,019	-0,115
-394,365	113,738	0,078	-0,067
-393,350	33,958	-0,063	0,039
-392,336	160,500	0,018	-0,018
-391,321	24,175	0,080	0,047
-390,306	-200,000	-0,009	-0,116
-389,292	-200,000	-0,131	-0,000
-388,277	55,499	0,100	0,069
-387,263	370,283	0,079	0,115
-386,248	-200,000	0,015	0,183
-385,233	-45,307	0,047	0,017
-384,219	208,013	0,057	-0,063
-383,204	-105,582	0,020	0,003
-382,190	23,161	-0,116	-0,068
-381,175	382,855	0,018	-0,027
-380,160	-200,000	0,011	0,227
-379,146	-200,000	-0,044	0,158
-378,131	-31,724	-0,029	-0,011
-377,117	-200,000	0,009	0,050
-376,102	150,471	0,017	0,017
-375,088	44,141	0,029	-0,019
-374,073	339,073	-0,015	-0,021
-373,058	40,509	0,115	-0,074
-372,044	-200,000	-0,002	-0,094
-371,029	-144,888	0,055	0,004
-370,015	-164,244	-0,032	-0,001
-369,000	-200,000	-0,010	-0,095
-367,985	-123,096	-0,053	0,006
-366,971	260,587	0,051	0,064
-365,956	310,855	0,102	0,137
-364,942	800,000	-0,005	-0,012
-363,927	-138,969	0,147	0,011
-362,912	-200,000	0,025	0,192
-361,898	190,735	0,014	-0,015
-360,883	701,147	-0,041	-0,078
-359,869	-166,721	-0,029	-0,001
-358,854	800,000	0,025	-0,061
-357,839	-200,000	0,010	0,080
-356,825	-110,603	0,130	0,019
-355,810	165,660	0,049	0,049
-354,796	6,909	-0,044	-0,023
-353,781	-200,000	-0,037	-0,140
-352,766	800,000	-0,033	-0,082
-351,752	53,963	0,103	0,071
-350,737	-200,000	0,019	0,173
-349,723	-200,000	-0,016	0,158
-348,708	-62,995	-0,078	0,023
-347,693	34,826	-0,065	0,041
-346,679	800,000	0,038	-0,083
-345,664	-200,000	-0,002	-0,063
-344,650	80,766	-0,038	0,029
-343,635	576,554	0,058	-0,101
-342,620	-200,000	-0,015	0,115
-341,606	-85,985	0,020	-0,004
-340,591	800,000	0,015	0,042
-339,577	73,034	0,053	-0,039
-338,562	800,000	-0,043	0,094
-337,548	219,420	0,084	-0,096
-336,533	-3,699	0,134	-0,066
-335,518	299,317	0,032	-0,043
-334,504	-200,000	-0,021	-0,080
-333,489	-200,000	0,008	0,035
-332,475	-200,000	-0,027	-0,123
-331,460	3,661	-0,033	-0,017
-330,445	-200,000	0,009	0,082
-329,431	-200,000	0,000	-0,071
-328,416	382,745	0,039	0,057
-327,402	62,434	-0,071	-0,051
-326,387	-85,252	-0,055	-0,012
-325,372	69,061	-0,079	-0,058
-324,358	-200,000	0,015	-0,181
-323,343	61,361	-0,065	-0,046
-322,329	130,640	-0,056	-0,051
-321,314	-68,575	0,113	-0,031
-320,299	-186,478	0,120	-0,001
-319,285	52,027	-0,142	0,096
-318,270	265,807	-0,009	0,011
-317,256	482,392	-0,024	0,039
-316,241	458,677	0,024	-0,038
-315,226	-127,213	-0,072	-0,007
-314,212	141,344	-0,096	0,091
-313,197	-129,272	0,162	-0,016
-312,183	-175,774	0,086	0,002
-311,168	-65,658	-0,180	-0,051
-310,153	-200,000	-0,023	-0,094
-309,139	22,142	-0,061	0,036
-308,124	124,087	0,058	0,052
-307,110	308,602	-0,016	0,022
-306,095	251,670	-0,032	0,039
-305,080	-200,000	-0,023	0,106
-304,066	162,976	-0,111	0,111
-303,051	-73,718	-0,059	-0,015
-302,037	4,746	0,055	-0,029
-301,022	392,111	-0,030	0,044
-300,008	800,000	0,013	0,039
-298,993	31,856	0,111	0,068
-297,978	-90,282	-0,107	0,022
-296,964	800,000	0,044	0,094
-295,949	302,495	-0,102	-0,134
-294,935	-63,154	-0,067	0,020
-293,920	39,899	0,080	0,051
-292,905	-131,552	0,155	-0,014
-291,891	800,000	0,017	0,044
-290,876	-131,070	-0,038	-0,004
-289,862	800,000	-0,066	-0,164
-288,847	-200,000	-0,046	-0,151
-287,832	-138,329	-0,107	-0,008
-286,818	800,000	0,024	0,068
-285,803	624,335	-0,068	0,123
-284,789	-200,000	0,003	-0,051
-283,774	104,013	-0,074	0,062
-282,759	98,335	-0,035	0,029
-281,745	800,000	0,070	0,141
-280,730	719,887	0,006	-0,012
-279,716	-8,467	-0,088	-0,042
-278,701	-200,000	0,019	0,089
-277,686	-200,000	-0,016	0,101
-276,672	-80,918	0,016	-0,004
-275,657	-200,000	0,023	0,106
-274,643	-200,000	-0,003	-0,154
-273,628	-152,440	-0,178	-0,009
-272,613	-0,349	0,074	0,038
-271,599	90,847	-0,124	0,099
-270,584	708,529	0,027	-0,051
-269,570	-17,117	-0,117	-0,052
-268,555	-200,000	0,014	-0,052
-267,540	132,040	0,043	-0,039
-266,526	54,253	-0,131	-0,090
-265,511	164,123	0,054	-0,054
-264,497	-200,000	-0,003	-0,083
-263,482	-12,890	0,164	0,076
-262,467	181,331	-0,072	0,076
-261,453	261,180	-0,020	0,025
-260,438	-200,000	-0,053	0,000
-259,424	-66,139	-0,100	-0,028
-258,409	-200,000	-0,006	-0,042
-257,395	27,136	-0,030	0,018
-256,380	-42,003	0,056	-0,020
-255,365	-179,791	0,158	0,002
-254,351	-200,000	-0,011	-0,045
-253,336	-200,000	-0,024	-0,097
-252,322	-96,013	-0,204	0,038
-251,307	260,033	0,040	-0,049
-250,292	-200,000	-0,007	0,102
-249,278	23,165	0,022	-0,013
-248,263	242,567	0,062	0,075
-247,249	257,099	0,129	0,158
-246,234	128,940	-0,026	-0,023
-245,219	-0,038	-0,131	-0,066
-244,205	800,000	0,026	0,057
-243,190	261,410	-0,043	0,053
-242,176	-78,317	0,201	0,049
-241,161	192,498	-0,062	0,066
-240,146	-200,000	0,021	0,088
-239,132	-39,390	0,070	0,026
-238,117	216,332	0,064	-0,072
-237,103	28,825	-0,042	-0,025
-236,088	-42,655	0,109	0,039
-235,073	405,519	-0,030	-0,046
-234,059	387,248	-0,055	0,082
-233,044	-39,394	0,091	0,034
-232,030	727,179	-0,039	0,075
-231,015	278,041	-0,072	-0,091
-230,000	130,116	-0,084	-0,076
-228,986	-200,000	-0,003	0,041
-227,971	742,604	-0,014	-0,027
-226,957	263,521	0,107	-0,132
-225,942	-88,920	-0,024	0,005
-224,927	-200,000	0,021	-0,067
-223,913	-64,773	0,075	0,021
-222,898	-123,683	0,215	-0,024
-221,884	3,806	-0,141	0,073
-220,869	-130,253	0,080	-0,008
-219,855	-200,000	0,006	0,108
-218,840	43,538	0,092	-0,060
-217,825	341,844	-0,018	-0,025
-216,811	-200,000	-0,019	-0,076
-215,796	-200,000	0,017	-0,177
-214,782	-24,195	0,067	-0,028
-213,767	267,517	-0,085	0,107
-212,752	150,995	0,070	0,067
-211,738	304,291	0,069	0,091
-210,723	-200,000	0,011	0,105
-209,709	710,825	-0,040	0,076
-208,694	165,720	-0,024	-0,025
-207,679	21,551	-0,063	-0,036
-206,665	800,000	-0,049	0,131
-205,650	-77,888	0,048	0,012
-204,636	169,102	-0,004	0,004
-203,621	192,716	0,086	0,092
-202,606	95,547	-0,027	0,021
-201,592	-200,000	-0,044	-0,143
-200,577	800,000	-0,059	-0,172
-199,563	23,941	-0,092	0,054
-198,548	133,495	-0,076	0,070
-197,533	-55,471	0,062	-0,020
-196,519	-200,000	0,034	0,131
-195,504	-200,000	0,017	-0,128
-194,490	-200,000	0,006	-0,067
-193,475	284,304	-0,037	-0,047
-192,460	800,000	-0,058	-0,119
-191,446	800,000	0,032	0,099
-190,431	-67,628	-0,025	-0,007
-189,417	135,699	0,045	0,042
-188,402	-200,000	-0,028	0,115
-187,387	800,000	0,004	-0,012
-186,373	142,890	-0,048	-0,045
-185,358	85,831	0,048	-0,037
-184,344	-7,979	-0,011	-0,005
-183,329	-31,652	0,035	0,014
-182,315	-200,000	0,005	0,091
-181,300	506,704	0,079	-0,131
-180,285	17,027	-0,130	-0,073
-179,271	800,000	-0,045	-0,093
-178,256	-159,954	0,085	0,003
-177,242	172,210	0,075	0,077
-176,227	257,507	-0,024	-0,030
-175,212	-148,399	-0,054	-0,003
-174,198	623,663	-0,067	0,121
-173,183	30,877	0,078	-0,047
-172,169	-32,572	-0,193	0,076
-171,154	46,663	0,049	0,032
-170,139	107,663	0,060	0,051
-169,125	800,000	0,026	-0,059
-168,110	800,000	-0,005	-0,010
-167,096	800,000	0,035	-0,105
-166,081	6,301	0,131	-0,069
-165,066	19,000	0,024	-0,013
-164,052	35,272	-0,077	-0,048
-163,037	76,255	0,173	0,130
-162,023	9,070	0,008	0,005
-161,008	-200,000	-0,018	0,118
-159,993	123,869	-0,064	-0,057
-158,979	-200,000	-0,004	-0,102
-157,964	-13,196	-0,051	-0,023
-156,950	-12,233	-0,062	0,029
-155,935	139,402	-0,047	0,044
-154,920	346,409	0,070	0,098
-153,906	-200,000	-0,023	0,097
-152,891	-177,849	0,171	0,003
-151,877	204,216	0,110	0,122
-150,862	81,314	-0,038	-0,029
-149,847	-200,000	0,002	-0,062
-148,833	-200,000	-0,007	-0,043
-147,818	37,693	0,152	-0,096
-146,804	800,000	0,019	0,052
-145,789	742,372	-0,024	0,047
-144,775	31,700	-0,081	0,049
-143,760	91,792	0,084	-0,067
-142,745	-200,000	-0,035	-0,136
-141,731	-104,898	-0,090	-0,014
-140,716	187,621	-0,068	0,072
-139,702	665,310	0,041	0,076
-138,687	228,180	0,027	0,032
-137,672	673,265	-0,080	-0,148
-136,658	-5,846	-0,103	0,050
-135,643	209,165	0,046	-0,051
-134,629	120,326	-0,064	-0,056
-133,614	-76,454	0,081	0,020
-132,599	347,795	-0,065	0,092
-131,585	-121,466	0,092	0,011
-130,570	783,623	-0,050	-0,097
-129,556	800,000	0,029	-0,079
-128,541	-194,507	0,073	-0,000
-127,526	292,992	-0,013	-0,017
-126,512	236,680	0,057	-0,066
-125,497	-200,000	-0,003	0,029
-124,483	-200,000	0,013	0,134
-123,468	659,455	-0,044	-0,080
-122,453	-40,595	-0,152	0,056
-121,439	-200,000	0,004	0,048
-120,424	-139,201	-0,122	0,009
-119,410	800,000	-0,039	-0,076
-118,395	800,000	0,041	0,113
-117,380	-166,944	-0,053	-0,002
-116,366	309,764	-0,027	-0,036
-115,351	16,021	-0,166	0,092
-114,337	-81,745	0,061	-0,014
-113,322	-25,581	0,103	-0,043
-112,307	-136,236	0,138	0,011
-111,293	132,846	-0,097	0,089
-110,278	-57,469	-0,184	0,057
-109,264	85,044	-0,074	-0,057
-108,249	-200,000	0,008	-0,059
-107,234	114,084	0,039	-0,034
-106,220	-155,634	-0,106	-0,005
-105,205	-141,356	-0,177	0,013
-104,191	-183,687	-0,107	-0,001
-103,176	-77,437	0,062	0,015
-102,162	-122,825	0,120	-0,014
-101,147	102,380	-0,158	-0,131
-100,132	-200,000	-0,002	-0,063
-99,118	198,370	0,101	0,110
-98,103	-200,000	0,015	0,108
-97,089	23,369	-0,027	-0,016
-96,074	297,608	0,036	0,047
-95,059	-200,000	-0,027	0,146
-94,045	52,831	-0,132	-0,089
-93,030	-161,087	-0,116	-0,004
-92,016	-200,000	-0,016	-0,172
-91,001	-200,000	-0,028	-0,182
-89,986	3,355	-0,075	0,038
-88,972	-200,000	-0,008	0,069
-87,957	-200,000	-0,021	-0,134
-86,943	-41,503	-0,141	0,051
-85,928	-200,000	0,024	-0,155
-84,913	-200,000	-0,002	0,035
-83,899	-200,000	0,004	-0,024
-82,884	95,918	0,043	0,034
-81,870	-200,000	0,004	0,039
-80,855	132,002	0,029	-0,026
-79,840	38,533	-0,058	-0,037
-78,826	140,964	0,051	-0,048
-77,811	-200,000	0,018	-0,073
-76,797	800,000	0,031	-0,066
-75,782	-200,000	0,001	-0,004
-74,767	-155,065	0,069	-0,003
-73,753	347,324	-0,055	0,077
-72,738	-200,000	0,016	0,158
-71,724	30,826	-0,092	0,056
-70,709	-200,000	-0,046	0,177
-69,694	-24,794	-0,073	0,031
-68,680	-75,525	0,064	-0,016
-67,665	-48,527	0,030	0,010
-66,651	412,389	-0,039	0,060
-65,636	800,000	-0,039	0,090
-64,622	1,697	-0,114	0,058
-63,607	587,891	-0,049	0,085
-62,592	199,243	-0,073	0,079
-61,578	-149,645	0,076	-0,004
-60,563	-200,000	-0,018	0,142
-59,549	-200,000	0,084	0,272
-58,534	-14,380	-1,662	-0,754
-57,519	407,802	-1,345	-2,018
-56,505	-200,000	-0,603	-4,724
-55,490	299,941	1,032	1,348
-54,476	800,000	4,943	11,016
-53,461	-200,000	20,019	323,244
-52,446	800,000	752,164	2310,826
-51,432	549,341	1663,070	2828,911
-50,417	74,828	1671,635	1242,798
-49,403	19,896	1544,704	877,612
-48,388	13,878	1467,182	804,291
-47,373	18,350	1457,379	820,487
-46,359	16,285	1447,079	804,763
-45,344	12,131	1442,443	782,259
-44,330	12,066	1440,496	780,859
-43,315	12,073	1439,000	780,051
-42,300	12,107	1437,113	779,162
-41,286	12,082	1435,993	778,402
-40,271	12,042	1434,662	777,461
-39,257	12,070	1433,281	776,815
-38,242	12,126	1432,018	776,365
-37,227	12,120	1430,925	775,714
-36,213	12,084	1429,703	774,848
-35,198	12,076	1428,419	774,085
-34,184	12,167	1427,279	773,869
-33,169	12,098	1425,991	772,810
-32,154	12,142	1424,910	772,405
-31,140	12,148	1423,930	771,871
-30,125	12,135	1422,631	771,075
-29,111	12,095	1421,620	770,307
-28,096	12,152	1420,315	769,835
-27,082	12,074	1419,266	768,872
-26,067	12,035	1418,197	768,074
-25,052	12,101	1417,081	767,753
-24,038	12,054	1416,064	766,948
-23,023	12,059	1415,114	766,430
-22,009	12,109	1413,939	765,996
-20,994	12,074	1413,025	765,306
-19,979	12,023	1412,378	764,688
-18,965	12,053	1411,294	764,211
-17,950	12,000	1410,532	763,518
-16,936	12,012	1409,582	763,031
-15,921	11,939	1408,628	762,142
-14,906	11,963	1407,689	761,714
-13,892	11,966	1406,669	761,148
-12,877	11,903	1405,992	760,458
-11,863	11,982	1404,817	760,158
-10,848	11,988	1403,921	759,673
-9,833	11,901	1403,041	758,763
-8,819	11,874	1402,389	758,252
-7,804	11,829	1401,554	757,560
-6,790	11,852	1400,621	757,133
-5,775	11,892	1399,374	756,617
-4,760	11,884	1398,373	756,007
-3,746	11,873	1397,487	755,449
-2,731	11,887	1396,619	755,012
-1,717	11,835	1395,724	754,257
-0,702	11,834	1394,042	753,315
0,313	15,868	1308,911	725,912
1,327	32,312	699,698	425,822
2,342	49,764	121,952	81,064
3,356	3,283	16,457	8,434
4,371	2,787	3,277	1,674
5,386	5,050	0,625	0,324
6,400	800,000	0,168	0,371
7,415	-65,945	-0,269	-0,075
8,429	228,123	-0,229	-0,264
9,444	63,126	-0,310	-0,219
10,459	-108,656	-0,362	-0,054
11,473	361,403	-0,203	-0,288
12,488	-22,903	-0,249	-0,106
13,502	51,187	-0,257	-0,172
14,517	67,383	-0,272	-0,196
15,531	107,503	-0,318	-0,267
16,546	265,763	-0,348	-0,429
17,561	100,119	-0,456	-0,373
18,575	-97,745	-0,119	0,021
19,590	-70,268	-0,218	-0,058
20,604	-124,342	-0,291	-0,032
21,619	18,382	-0,465	-0,261
22,634	318,169	-0,343	-0,460
23,648	124,551	-0,419	-0,371
24,663	-31,127	-0,292	-0,115
25,677	-19,982	-0,443	-0,192
26,692	16,596	-0,371	-0,206
27,707	59,451	-0,247	-0,171
28,721	-6,163	-0,454	-0,218
29,736	68,003	-0,373	-0,268
30,750	136,170	-0,338	-0,310
31,765	155,876	-0,237	-0,230
32,780	20,919	-0,408	-0,232
33,794	78,166	-0,334	-0,251
34,809	64,554	-0,270	-0,192
35,823	7,684	-0,324	-0,170
36,838	7,345	-0,464	-0,243
37,853	159,130	-0,314	-0,308
38,867	320,522	-0,289	-0,388
39,882	135,830	-0,316	-0,290
40,896	90,795	-0,369	-0,291
41,911	34,856	-0,423	-0,260
42,926	95,009	-0,310	-0,248
43,940	265,092	-0,307	-0,378
44,955	104,916	-0,343	-0,285
45,969	138,941	-0,409	-0,379
46,984	220,617	-0,223	-0,252
47,999	92,957	-0,376	-0,299
49,013	84,259	-0,358	-0,275
50,028	165,116	-0,242	-0,240
51,042	44,120	-0,268	-0,173
52,057	58,779	-0,372	-0,257
53,071	64,339	-0,419	-0,296
54,086	208,959	-0,290	-0,320
55,101	-67,643	-0,418	-0,114
56,115	-124,275	-0,221	-0,024
57,130	15,267	-0,336	-0,185
58,144	79,850	-0,375	-0,283
59,159	-10,358	-0,418	-0,194
60,174	146,560	-0,242	-0,229
61,188	112,669	-0,346	-0,294
62,203	-82,548	-0,350	-0,079
63,217	42,608	-0,347	-0,221
64,232	48,207	-0,362	-0,237
65,247	-25,793	-0,341	-0,141
66,261	8,686	-0,234	-0,123
67,276	-54,878	-0,401	-0,126
68,290	-78,095	-0,316	-0,076
69,305	-3,938	-0,251	-0,122
70,320	-23,910	-0,269	-0,113
71,334	56,269	-0,299	-0,203
72,349	89,708	-0,316	-0,247
73,363	39,099	-0,327	-0,205
74,378	40,117	-0,412	-0,259
75,393	-15,937	-0,271	-0,121
76,407	-194,509	-0,233	-0,001
77,422	78,961	-0,398	-0,299
78,436	-49,734	-0,330	-0,109
79,451	-47,150	-0,322	-0,110
80,466	-14,707	-0,322	-0,145
81,480	-1,775	-0,320	-0,157
82,495	35,400	-0,269	-0,165
83,509	31,215	-0,247	-0,148
84,524	-3,396	-0,236	-0,115
85,539	-134,986	-0,220	-0,018
86,553	258,284	-0,136	-0,165
87,568	46,733	-0,303	-0,197
88,582	-1,325	-0,359	-0,177
89,597	131,534	-0,245	-0,221
90,611	196,569	-0,244	-0,261
91,626	-125,130	-0,241	-0,026
92,641	-45,531	-0,215	-0,074
93,655	-51,378	-0,309	-0,101
94,670	63,582	-0,336	-0,236
95,684	85,513	-0,332	-0,256
96,699	352,477	-0,224	-0,312
97,714	183,753	-0,196	-0,203
98,728	-102,919	-0,147	-0,024
99,743	-7,588	-0,211	-0,100
100,757	249,239	-0,126	-0,150
101,772	-24,172	-0,346	-0,144
102,787	158,349	-0,283	-0,275
103,801	177,737	-0,253	-0,258
104,816	129,538	-0,284	-0,254
105,830	-11,119	-0,425	-0,195
106,845	82,987	-0,291	-0,221
107,860	16,413	-0,268	-0,148
108,874	137,052	-0,189	-0,173
109,889	143,838	-0,211	-0,196
110,903	-6,816	-0,358	-0,170
111,918	72,519	-0,179	-0,130
112,933	-111,501	-0,307	0,043
113,947	-200,000	-0,047	-0,284
114,962	98,974	-0,242	-0,195
115,976	97,226	-0,275	-0,221
116,991	125,650	-0,210	-0,186
118,006	-41,310	-0,226	-0,081
119,020	202,262	-0,236	-0,255
120,035	296,334	-0,194	-0,249
121,049	64,197	-0,241	-0,169
122,064	800,000	-0,110	-0,246
123,079	190,550	-0,188	-0,197
124,093	165,914	-0,215	-0,212
125,108	39,985	-0,323	-0,202
126,122	60,752	-0,157	-0,109
127,137	136,221	-0,357	-0,325
128,151	-59,598	-0,256	-0,076
129,166	466,890	-0,117	-0,183
130,181	14,600	-0,232	-0,126
131,195	-51,124	-0,245	-0,080
132,210	72,016	-0,304	-0,221
133,224	-117,635	-0,353	-0,044
134,239	35,098	-0,264	-0,161
135,254	477,076	-0,100	-0,159
136,268	288,324	-0,182	-0,231
137,283	61,370	-0,199	-0,138
138,297	29,469	-0,295	-0,175
139,312	-26,212	-0,109	-0,044
140,327	8,517	-0,278	-0,146
141,341	-31,887	-0,205	-0,080
142,356	-126,397	-0,291	0,030
143,370	107,591	-0,141	-0,117
144,385	241,616	-0,125	-0,147
145,400	-122,996	-0,334	-0,037
146,414	156,936	-0,252	-0,243
147,429	59,559	-0,254	-0,175
148,443	200,028	-0,139	-0,149
149,458	4,052	-0,161	-0,082
150,473	-80,673	-0,332	-0,076
151,487	-158,859	-0,190	-0,007
152,502	-75,172	-0,171	-0,042
153,516	-9,883	-0,243	-0,112
154,531	-95,829	-0,168	-0,031
155,546	138,895	-0,254	-0,233
156,560	-115,358	-0,229	-0,030
157,575	-145,125	-0,252	-0,016
158,589	-92,761	-0,277	-0,053
159,604	-29,768	-0,166	-0,066
160,619	55,926	-0,306	-0,206
161,633	73,328	-0,348	-0,253
162,648	126,022	-0,220	-0,194
163,662	235,532	-0,168	-0,193
164,677	207,350	-0,206	-0,224
165,692	115,853	-0,198	-0,169
166,706	285,151	-0,205	-0,258
167,721	-73,192	-0,304	-0,077
168,735	-28,415	-0,306	-0,122
169,750	-104,976	-0,322	-0,051
170,764	53,759	-0,200	-0,134
171,779	144,529	-0,131	-0,122
172,794	-22,786	-0,199	-0,083
173,808	361,912	-0,086	-0,121
174,823	62,971	-0,273	-0,190
175,837	432,059	-0,130	-0,197
176,852	125,968	-0,188	-0,165
177,867	127,483	-0,230	-0,203
178,881	62,531	-0,273	-0,189
179,896	-74,836	-0,162	0,040
180,910	-17,744	-0,150	-0,065
181,925	250,609	-0,149	-0,177
182,940	310,592	-0,181	-0,236
183,954	461,281	-0,187	-0,292
184,969	-79,160	-0,212	-0,050
185,983	-77,265	-0,174	-0,042
186,998	-199,267	-0,242	-0,001
188,013	-30,084	-0,210	-0,083
189,027	-173,021	-0,211	0,004
190,042	-142,032	-0,244	-0,017
191,056	437,338	-0,157	-0,239
192,071	-200,000	0,001	-0,130
193,086	144,886	-0,171	-0,159
194,100	556,886	-0,114	-0,191
195,115	27,177	-0,292	-0,170
196,129	63,383	-0,212	-0,148
197,144	98,377	-0,258	-0,206
198,159	279,598	-0,105	-0,130
199,173	39,579	-0,181	-0,112
200,188	-177,269	-0,208	0,003
201,202	-29,134	-0,217	-0,086
202,217	252,946	-0,136	-0,161
203,232	-110,772	-0,176	-0,025
204,246	89,194	-0,287	-0,222
205,261	394,378	-0,121	-0,175
206,275	-136,284	-0,168	0,013
207,290	-86,944	-0,199	-0,042
208,304	195,035	-0,099	-0,105
209,319	-34,817	-0,167	-0,063
210,334	107,725	-0,208	-0,171
211,348	628,170	-0,175	-0,309
212,363	397,686	-0,147	-0,214
213,377	182,720	-0,178	-0,182
214,392	60,904	-0,167	-0,115
215,407	-64,828	-0,160	-0,045
216,421	46,270	-0,161	-0,103
217,436	59,472	-0,215	-0,147
218,450	20,772	-0,201	-0,112
219,465	-21,904	-0,201	-0,084
220,480	-200,000	-0,038	-0,172
221,494	-200,000	-0,040	-0,129
222,509	-39,640	-0,199	-0,072
223,523	200,470	-0,163	-0,174
224,538	76,808	-0,187	-0,138
225,553	-200,000	-0,042	-0,236
226,567	800,000	-0,119	-0,246
227,582	253,685	-0,156	-0,185
228,596	37,934	-0,108	-0,066
229,611	800,000	-0,129	-0,258
230,626	-11,745	-0,159	-0,072
231,640	-126,994	-0,240	-0,024
232,655	398,233	-0,097	-0,141
233,669	800,000	-0,086	-0,182
234,684	75,033	-0,238	-0,173
235,699	73,063	-0,154	-0,112
236,713	-200,000	-0,008	-0,176
237,728	-16,307	-0,200	-0,087
238,742	100,959	-0,193	-0,155
239,757	145,682	-0,148	-0,138
240,772	288,785	-0,214	-0,269
241,786	304,524	-0,130	-0,167
242,801	559,903	-0,125	-0,210
243,815	8,978	-0,152	-0,079
244,830	-21,150	-0,135	-0,057
245,844	28,896	-0,214	-0,125
246,859	61,365	-0,247	-0,170
247,874	5,131	-0,189	-0,096
248,888	-44,758	-0,196	-0,067
249,903	174,060	-0,088	-0,088
250,917	800,000	-0,048	-0,101
251,932	0,883	-0,154	-0,076
252,947	42,633	-0,139	-0,088
253,961	543,523	-0,106	-0,175
254,976	445,353	-0,120	-0,182
255,990	442,971	-0,151	-0,229
257,005	-48,417	-0,225	-0,074
258,020	119,318	-0,155	-0,132
259,034	-126,668	-0,254	-0,026
260,049	326,476	-0,200	-0,265
261,063	56,572	-0,237	-0,159
262,078	-77,400	-0,102	-0,024
263,093	55,808	-0,167	-0,112
264,107	-200,000	-0,018	-0,068
265,122	-61,641	-0,249	-0,072
266,136	71,591	-0,098	0,070
267,151	461,032	-0,080	-0,123
268,166	219,834	-0,150	-0,166
269,180	30,030	-0,173	-0,102
270,195	-76,791	-0,271	-0,065
271,209	9,785	-0,215	-0,112
272,224	222,683	-0,092	-0,102
273,239	261,630	-0,076	0,091
274,253	102,668	-0,285	-0,230
275,268	498,712	-0,050	-0,081
276,282	45,837	-0,308	-0,196
277,297	25,228	-0,258	-0,147
278,312	115,381	-0,221	-0,186
279,326	-112,929	-0,184	0,025
280,341	260,308	-0,131	-0,157
281,355	-187,524	-0,153	-0,001
282,370	86,680	-0,237	-0,180
283,384	-89,533	-0,216	-0,043
284,399	-71,157	-0,225	-0,058
285,414	-67,523	-0,241	-0,065
286,428	800,000	-0,066	-0,131
287,443	-34,128	-0,137	0,052
288,457	-70,647	-0,230	-0,060
289,472	-132,639	-0,227	0,020
290,487	800,000	-0,046	-0,103
291,501	-115,230	-0,216	-0,028
292,516	-82,187	-0,200	-0,044
293,530	132,588	-0,071	-0,063
294,545	-69,642	-0,135	-0,035
295,560	41,875	-0,112	0,070
296,574	255,959	-0,075	0,089
297,589	-92,884	-0,074	0,014
298,603	-200,000	-0,058	-0,217
299,618	132,661	-0,170	-0,151
300,633	66,499	-0,228	-0,160
301,647	64,685	-0,098	-0,068
302,662	78,508	-0,078	-0,057
303,676	122,271	-0,040	-0,034
304,691	105,511	-0,214	-0,174
305,706	205,249	-0,140	-0,150
306,720	186,658	-0,117	-0,120
307,735	422,128	-0,046	0,069
308,749	-58,474	-0,128	-0,038
309,764	-31,770	-0,111	-0,043
310,779	274,377	-0,072	-0,087
311,793	-200,000	-0,001	-0,164
312,808	618,685	-0,122	-0,211
313,822	-110,889	-0,094	0,013
314,837	84,246	-0,128	-0,096
315,852	-95,249	-0,106	-0,019
316,866	-127,932	-0,111	-0,011
317,881	14,882	-0,140	-0,075
318,895	43,140	-0,185	-0,116
319,910	14,794	-0,193	-0,103
320,925	-29,984	-0,133	-0,052
321,939	8,093	-0,216	-0,111
322,954	-0,506	-0,157	-0,076
323,968	35,632	-0,133	-0,080
324,983	61,101	-0,078	-0,053
325,997	-200,000	-0,013	-0,066
327,012	-19,403	-0,166	-0,070
328,027	-134,626	-0,192	-0,016
329,041	-200,000	-0,087	-0,281
330,056	-116,746	-0,129	-0,016
331,070	158,773	-0,065	-0,062
332,085	166,563	-0,079	-0,077
333,100	304,013	-0,063	-0,081
334,114	390,982	-0,085	-0,122
335,129	800,000	-0,159	-0,335
336,143	-200,000	-0,018	-0,187
337,158	-0,163	-0,068	-0,033
338,173	-116,946	-0,220	-0,027
339,187	800,000	-0,135	-0,288
340,202	-21,180	-0,213	-0,089
341,216	175,185	-0,161	-0,160
342,231	-70,317	-0,170	-0,044
343,246	186,280	-0,164	-0,167
344,260	-13,470	-0,185	0,082
345,275	0,167	-0,190	-0,092
346,289	257,595	0,053	0,063
347,304	-96,839	-0,071	-0,013
348,319	800,000	-0,034	-0,083
349,333	169,266	-0,082	-0,080
350,348	800,000	0,044	-0,106
351,362	140,800	-0,165	-0,150
352,377	-115,301	-0,189	-0,024
353,392	199,194	-0,115	-0,121
354,406	-115,072	-0,139	0,018
355,421	208,787	1317,581	1414,023
356,435	160,664	1478,645	1414,500
