DTS Sentinel unit serial number:	SN410029Multiplexer serial number:	ORYXHardware model number:	OX2-SRSoftware version number:	ORYX F/W v4,00 Oryx Data Collector v3.7.2.0data status	okinstallation	B3 Nyhavnadifferential loss correction	single-endedforward channel	channel 1reverse channel	N/Adate	2023/12/03time	00:52:30forward acquisition time	300,00reverse acquisition time	0,00gamma	499,1914k internal	0,3201k external	0,3201temperature offset calibration	1,0000default loss term (dB/km)	0,3820temperature slope calibration	1,0000multiplexer offset coefficient	1,0000multiplexer slope coefficient	1,0000fibre end	0,00T internal ref (°C)	13,32T ext. ref 1 (°C)	-1,65T ext. ref 2 (°C)	-1,66length (m)	temperature (°C)	Stokes	anti-Stokes-744,400	64,504	-0,210	-0,154
-743,385	-200,000	0,047	0,263
-742,371	609,897	-0,165	-0,301
-741,356	-200,000	-0,040	0,260
-740,342	358,877	-0,163	-0,238
-739,327	-200,000	-0,007	0,333
-738,312	37,791	-0,259	-0,167
-737,298	-200,000	-0,042	0,228
-736,283	-93,719	-0,187	0,037
-735,269	-200,000	-0,054	0,234
-734,254	518,866	-0,148	-0,253
-733,239	13,279	-0,102	-0,058
-732,225	150,605	-0,212	-0,210
-731,210	800,000	0,047	0,095
-730,196	-200,000	-0,001	-0,243
-729,181	800,000	-0,059	-0,163
-728,167	-200,000	0,007	-0,101
-727,152	-200,000	-0,010	-0,068
-726,137	12,266	-0,126	-0,071
-725,123	581,515	-0,041	-0,074
-724,108	266,481	-0,131	-0,167
-723,094	250,008	-0,062	-0,077
-722,079	-200,000	-0,000	-0,138
-721,064	-200,000	-0,001	0,045
-720,050	-50,273	0,037	0,012
-719,035	800,000	-0,026	-0,071
-718,021	-200,000	0,006	-0,174
-717,006	131,200	-0,193	0,180
-715,991	800,000	-0,034	-0,087
-714,977	-200,000	-0,053	-0,179
-713,962	23,233	0,039	-0,023
-712,948	-93,085	0,060	-0,012
-711,933	15,914	-0,106	0,060
-710,918	41,562	0,080	0,053
-709,904	-70,224	-0,098	0,027
-708,889	-46,743	-0,081	0,029
-707,875	-200,000	-0,062	-0,249
-706,860	-122,632	0,147	-0,017
-705,845	-200,000	0,008	-0,049
-704,831	800,000	-0,048	-0,102
-703,816	-200,000	0,010	-0,101
-702,802	-200,000	-0,022	-0,109
-701,787	-200,000	-0,006	0,025
-700,772	160,347	-0,042	-0,042
-699,758	-66,563	0,148	-0,042
-698,743	-147,535	0,079	-0,005
-697,729	477,818	-0,040	-0,066
-696,714	-97,472	-0,074	0,014
-695,699	800,000	0,006	0,018
-694,685	-200,000	-0,054	-0,245
-693,670	-200,000	-0,016	-0,105
-692,656	53,795	-0,104	-0,073
-691,641	207,140	0,100	0,113
-690,627	336,575	0,030	0,043
-689,612	-200,000	-0,001	0,171
-688,597	-200,000	0,011	-0,083
-687,583	-200,000	-0,010	-0,075
-686,568	800,000	-0,063	-0,128
-685,554	-142,447	-0,050	-0,003
-684,539	140,789	-0,053	0,051
-683,524	-121,604	0,117	0,014
-682,510	-3,913	-0,044	-0,022
-681,495	800,000	0,019	-0,059
-680,481	-23,842	-0,040	-0,017
-679,466	8,628	-0,094	-0,051
-678,451	112,476	0,005	-0,005
-677,437	353,996	-0,053	-0,077
-676,422	305,008	0,031	-0,042
-675,408	-200,000	-0,019	0,140
-674,393	-200,000	-0,001	-0,050
-673,378	35,634	-0,128	-0,082
-672,364	228,153	0,069	-0,082
-671,349	74,058	-0,088	0,067
-670,335	-200,000	-0,001	-0,015
-669,320	-110,543	0,177	-0,026
-668,305	270,866	-0,056	-0,071
-667,291	-78,883	0,049	0,012
-666,276	142,124	-0,028	-0,027
-665,262	123,103	-0,213	-0,194
-664,247	749,117	0,025	-0,049
-663,232	11,778	0,066	0,037
-662,218	-200,000	-0,005	-0,095
-661,203	-200,000	-0,001	0,059
-660,189	-200,000	0,029	0,102
-659,174	-90,520	-0,153	0,032
-658,159	-200,000	-0,027	-0,155
-657,145	164,773	-0,041	-0,042
-656,130	114,493	0,123	-0,108
-655,116	-200,000	-0,010	-0,080
-654,101	-179,719	0,098	0,001
-653,086	358,197	0,050	-0,073
-652,072	224,410	-0,041	0,048
-651,057	-200,000	-0,012	-0,059
-650,043	-192,535	-0,117	-0,001
-649,028	308,823	-0,103	-0,140
-648,014	560,019	0,076	0,134
-646,999	97,412	0,081	0,068
-645,984	-19,878	-0,081	0,036
-644,970	-68,066	-0,155	-0,043
-643,955	268,035	-0,059	-0,074
-642,941	-200,000	-0,006	-0,038
-641,926	46,192	-0,136	-0,091
-640,911	785,499	0,044	0,088
-639,897	-99,956	-0,097	-0,017
-638,882	-101,182	-0,051	0,009
-637,868	-78,380	-0,041	0,010
-636,853	-43,580	-0,185	0,067
-635,838	-12,612	0,061	-0,029
-634,824	-107,315	0,031	0,005
-633,809	-200,000	0,021	-0,073
-632,795	-34,260	0,064	-0,025
-631,780	-56,279	-0,015	-0,005
-630,765	-25,408	-0,160	0,068
-629,751	173,531	-0,097	-0,102
-628,736	-83,390	-0,183	0,042
-627,722	-200,000	-0,034	-0,169
-626,707	-81,627	0,107	0,025
-625,692	212,120	0,070	0,080
-624,678	299,867	0,131	0,175
-623,663	73,670	0,032	0,024
-622,649	-200,000	0,024	-0,099
-621,634	400,631	-0,011	-0,016
-620,619	-160,511	0,067	0,003
-619,605	397,046	-0,080	-0,121
-618,590	-13,534	0,066	0,031
-617,576	-200,000	-0,027	0,099
-616,561	336,705	-0,058	0,082
-615,546	-200,000	-0,005	0,019
-614,532	-200,000	-0,051	-0,168
-613,517	230,472	0,071	-0,085
-612,503	315,874	0,061	-0,083
-611,488	-20,576	-0,112	-0,049
-610,474	800,000	0,027	0,064
-609,459	-182,648	0,051	-0,001
-608,444	-200,000	-0,009	0,124
-607,430	-200,000	-0,187	-0,000
-606,415	302,368	-0,076	-0,102
-605,401	800,000	0,056	-0,140
-604,386	148,010	-0,068	-0,067
-603,371	800,000	-0,008	0,017
-602,357	135,332	-0,049	0,046
-601,342	488,161	-0,047	0,078
-600,328	-200,000	0,034	-0,201
-599,313	-200,000	-0,006	0,057
-598,298	-200,000	-0,018	0,058
-597,284	314,729	-0,044	-0,060
-596,269	-140,360	-0,030	0,002
-595,255	-200,000	0,002	0,022
-594,240	-200,000	-0,005	0,041
-593,225	-200,000	-0,112	-0,000
-592,211	-200,000	-0,017	-0,066
-591,196	-200,000	-0,023	-0,137
-590,182	-32,494	0,064	0,026
-589,167	-200,000	-0,003	0,058
-588,152	136,104	-0,018	0,017
-587,138	327,178	-0,074	0,103
-586,123	63,583	0,063	-0,046
-585,109	330,941	-0,043	-0,060
-584,094	195,934	0,078	-0,085
-583,079	800,000	-0,005	0,014
-582,065	800,000	-0,032	0,093
-581,050	800,000	-0,039	-0,107
-580,036	0,649	-0,092	-0,048
-579,021	469,060	0,006	0,009
-578,006	-200,000	-0,022	-0,071
-576,992	-200,000	0,006	0,092
-575,977	90,516	0,065	0,053
-574,963	-44,129	0,064	0,023
-573,948	11,096	-0,068	0,037
-572,934	-200,000	-0,015	0,064
-571,919	800,000	-0,022	0,061
-570,904	-132,037	0,056	0,005
-569,890	800,000	-0,062	-0,149
-568,875	-200,000	-0,025	0,086
-567,861	92,945	0,095	0,077
-566,846	13,289	0,033	-0,019
-565,831	-200,000	0,024	0,106
-564,817	283,246	0,038	-0,050
-563,802	-200,000	-0,006	-0,095
-562,788	31,736	-0,018	-0,011
-561,773	-45,762	0,072	0,026
-560,758	800,000	0,025	0,051
-559,744	-200,000	0,011	-0,047
-558,729	-200,000	-0,009	0,122
-557,715	-108,645	-0,111	-0,017
-556,700	-200,000	0,002	-0,118
-555,685	-200,000	-0,016	-0,139
-554,671	800,000	-0,103	0,213
-553,656	-67,002	-0,049	-0,014
-552,642	76,679	0,040	-0,030
-551,627	-179,015	0,029	-0,000
-550,612	-173,505	-0,116	0,002
-549,598	33,207	-0,075	-0,047
-548,583	800,000	-0,072	-0,163
-547,569	800,000	-0,027	-0,075
-546,554	55,462	0,164	-0,115
-545,539	-50,465	0,103	-0,035
-544,525	-186,217	0,170	-0,002
-543,510	80,767	-0,091	0,071
-542,496	621,883	-0,045	-0,081
-541,481	137,710	0,066	-0,062
-540,466	560,175	-0,078	0,137
-539,452	-200,000	0,028	0,108
-538,437	429,015	0,036	-0,056
-537,423	229,060	0,055	0,065
-536,408	-32,667	-0,068	-0,027
-535,393	652,116	-0,074	0,137
-534,379	281,238	-0,059	0,076
-533,364	-9,238	0,061	-0,029
-532,350	36,450	0,090	-0,057
-531,335	-200,000	-0,013	0,188
-530,321	-53,124	0,163	-0,054
-529,306	-109,390	-0,131	-0,020
-528,291	-200,000	0,036	-0,217
-527,277	347,526	-0,044	-0,063
-526,262	209,303	-0,004	-0,005
-525,248	-200,000	0,003	0,032
-524,233	800,000	-0,027	0,060
-523,218	90,527	0,103	0,083
-522,204	55,198	-0,114	0,079
-521,189	180,526	-0,089	-0,094
-520,175	-200,000	0,003	-0,018
-519,160	152,216	0,058	-0,057
-518,145	800,000	-0,029	0,064
-517,131	42,365	0,125	0,082
-516,116	15,699	-0,100	-0,056
-515,102	68,254	-0,098	0,072
-514,087	515,137	-0,059	0,099
-513,072	35,730	-0,039	0,025
-512,058	51,412	0,069	0,047
-511,043	-200,000	-0,009	0,037
-510,029	380,642	0,059	0,087
-509,014	171,780	0,075	0,077
-507,999	800,000	0,046	0,095
-506,985	-200,000	0,055	-0,174
-505,970	28,223	-0,060	0,036
-504,956	-60,828	-0,081	0,025
-503,941	-200,000	0,017	0,142
-502,926	-80,688	-0,022	-0,005
-501,912	800,000	0,027	-0,063
-500,897	-200,000	0,000	-0,062
-499,883	-131,468	0,054	-0,005
-498,868	-200,000	-0,005	-0,157
-497,853	-33,173	0,069	-0,027
-496,839	-200,000	-0,135	-0,000
-495,824	683,518	-0,047	0,088
-494,810	-71,581	0,147	0,039
-493,795	-35,561	-0,091	0,035
-492,781	70,238	0,107	0,080
-491,766	81,324	-0,010	-0,007
-490,751	-200,000	0,011	-0,164
-489,737	48,184	0,095	0,064
-488,722	201,507	-0,079	-0,088
-487,708	20,165	0,048	0,028
-486,693	99,083	0,164	0,136
-485,678	394,177	-0,083	0,126
-484,664	-119,719	-0,097	0,012
-483,649	44,256	0,079	0,052
-482,635	698,683	-0,107	-0,204
-481,620	140,395	0,040	0,038
-480,605	127,707	0,108	0,099
-479,591	-200,000	0,007	0,154
-478,576	800,000	-0,034	0,080
-477,562	2,925	-0,118	0,061
-476,547	150,595	-0,063	0,062
-475,532	-200,000	0,002	-0,136
-474,518	81,001	0,077	0,060
-473,503	-87,662	-0,113	0,024
-472,489	-13,294	-0,096	0,045
-471,474	800,000	-0,044	0,090
-470,459	-200,000	0,034	0,113
-469,445	61,118	-0,124	-0,088
-468,430	-200,000	-0,010	-0,041
-467,416	-79,659	0,089	-0,021
-466,401	-200,000	0,012	0,070
-465,386	-97,912	0,109	-0,020
-464,372	-200,000	-0,008	0,070
-463,357	-18,562	-0,085	-0,038
-462,343	66,991	-0,182	0,133
-461,328	-56,149	0,033	-0,010
-460,313	-200,000	0,014	0,074
-459,299	-21,895	-0,045	-0,020
-458,284	-200,000	-0,008	0,176
-457,270	87,807	0,081	0,065
-456,255	-200,000	-0,011	-0,037
-455,241	-136,603	-0,030	0,002
-454,226	41,058	-0,129	-0,084
-453,211	800,000	0,040	0,080
-452,197	190,049	0,105	-0,114
-451,182	102,060	-0,075	0,063
-450,168	32,044	-0,031	0,019
-449,153	595,660	-0,032	-0,058
-448,138	42,850	0,063	0,041
-447,124	-200,000	-0,014	0,078
-446,109	-83,694	-0,206	0,047
-445,095	57,526	0,022	0,016
-444,080	-39,222	0,149	0,056
-443,065	38,212	0,016	0,010
-442,051	-200,000	-0,004	0,176
-441,036	-200,000	-0,054	-0,180
-440,022	-200,000	-0,012	-0,042
-439,007	800,000	0,035	-0,079
-437,992	-159,490	0,061	-0,002
-436,978	800,000	0,088	0,179
-435,963	-169,008	-0,108	-0,003
-434,949	-200,000	0,022	0,137
-433,934	433,598	-0,054	0,084
-432,919	-41,508	-0,157	-0,058
-431,905	4,758	-0,031	0,016
-430,890	-33,847	0,149	0,059
-429,876	-200,000	0,013	0,045
-428,861	-82,370	0,088	0,020
-427,846	-200,000	-0,018	-0,073
-426,832	82,491	-0,078	-0,061
-425,817	-200,000	-0,008	-0,085
-424,803	800,000	0,037	-0,101
-423,788	144,952	0,056	-0,054
-422,773	800,000	0,047	-0,101
-421,759	-35,355	0,076	-0,029
-420,744	-8,715	0,127	-0,061
-419,730	-44,838	-0,096	-0,034
-418,715	330,946	-0,087	-0,120
-417,701	556,496	0,022	-0,039
-416,686	800,000	-0,031	0,066
-415,671	800,000	0,028	0,069
-414,657	106,313	-0,027	-0,023
-413,642	-200,000	0,027	0,095
-412,628	-21,893	-0,078	-0,034
-411,613	-200,000	-0,011	0,072
-410,598	-127,184	0,093	0,010
-409,584	-98,871	0,132	0,024
-408,569	-200,000	-0,005	-0,056
-407,555	-200,000	0,003	0,170
-406,540	800,000	-0,058	-0,139
-405,525	152,410	-0,039	-0,038
-404,511	-27,513	-0,116	-0,048
-403,496	-71,555	0,053	0,014
-402,482	610,256	0,039	-0,069
-401,467	-52,435	0,095	0,031
-400,452	-28,174	0,186	0,077
-399,438	-200,000	0,008	0,084
-398,423	-200,000	-0,019	-0,155
-397,409	-84,208	-0,095	-0,022
-396,394	-60,803	0,137	-0,041
-395,379	58,772	0,056	-0,040
-394,365	598,017	0,015	-0,026
-393,350	304,692	-0,113	0,151
-392,336	-119,951	0,169	-0,021
-391,321	-200,000	0,002	0,028
-390,306	90,360	0,050	-0,040
-389,292	-127,507	0,081	-0,008
-388,277	800,000	0,028	0,070
-387,263	385,302	0,109	0,161
-386,248	196,946	-0,072	0,078
-385,233	26,201	0,110	0,066
-384,219	128,099	0,099	-0,090
-383,204	-200,000	-0,003	-0,182
-382,190	-200,000	-0,035	-0,129
-381,175	518,834	-0,043	0,072
-380,160	800,000	-0,062	0,132
-379,146	741,602	0,045	0,087
-378,131	359,784	0,026	0,037
-377,117	121,210	-0,098	-0,087
-376,102	-79,284	0,165	-0,040
-375,088	26,314	-0,060	-0,036
-374,073	-200,000	-0,055	-0,180
-373,058	81,938	0,080	-0,062
-372,044	800,000	0,014	-0,042
-371,029	-200,000	0,012	0,057
-370,015	71,916	-0,074	0,055
-369,000	30,732	-0,045	0,028
-367,985	5,910	0,084	-0,044
-366,971	176,277	-0,080	-0,083
-365,956	-200,000	0,000	0,013
-364,942	-84,435	-0,054	0,012
-363,927	-200,000	0,008	0,082
-362,912	800,000	-0,024	-0,050
-361,898	-111,594	-0,046	0,007
-360,883	800,000	-0,031	-0,080
-359,869	-200,000	0,001	-0,019
-358,854	288,071	0,068	0,089
-357,839	87,628	0,076	-0,060
-356,825	256,474	-0,055	0,068
-355,810	-200,000	0,022	0,121
-354,796	-200,000	-0,014	0,085
-353,781	-95,609	-0,119	0,023
-352,766	-103,414	0,178	0,030
-351,752	-174,393	0,074	0,001
-350,737	34,566	0,024	-0,015
-349,723	800,000	0,067	0,149
-348,708	208,128	-0,125	0,140
-347,693	800,000	-0,045	-0,104
-346,679	443,852	-0,035	-0,056
-345,664	-17,147	-0,055	-0,025
-344,650	132,458	0,133	-0,123
-343,635	449,610	-0,047	-0,074
-342,620	-54,849	0,047	-0,015
-341,606	130,766	0,148	0,135
-340,591	800,000	0,038	-0,082
-339,577	128,470	-0,033	0,030
-338,562	-200,000	0,011	-0,126
-337,548	800,000	-0,015	-0,040
-336,533	10,447	0,050	0,027
-335,518	38,928	-0,011	-0,007
-334,504	365,438	0,026	-0,037
-333,489	573,352	-0,087	-0,152
-332,475	7,937	-0,070	-0,037
-331,460	-200,000	0,004	-0,061
-330,445	-200,000	0,013	-0,053
-329,431	-154,113	0,104	-0,005
-328,416	-5,370	0,032	-0,016
-327,402	-200,000	0,003	0,079
-326,387	800,000	-0,016	0,035
-325,372	-1,574	0,063	-0,032
-324,358	16,430	0,044	-0,025
-323,343	-200,000	-0,003	-0,056
-322,329	-200,000	-0,022	-0,095
-321,314	181,439	0,046	0,048
-320,299	-200,000	-0,032	0,121
-319,285	270,205	-0,055	-0,070
-318,270	497,415	-0,042	-0,069
-317,256	-200,000	0,017	0,058
-316,241	754,724	0,034	-0,067
-315,226	-71,145	0,097	0,026
-314,212	-80,777	0,062	-0,015
-313,197	-200,000	-0,049	0,159
-312,183	799,797	0,089	-0,176
-311,168	68,040	0,067	-0,049
-310,153	209,911	0,037	0,041
-309,139	-108,935	-0,087	-0,013
-308,124	15,664	0,038	0,021
-307,110	-200,000	0,016	0,081
-306,095	-63,133	0,081	0,024
-305,080	162,959	-0,022	0,022
-304,066	83,382	-0,010	-0,008
-303,051	173,464	-0,121	-0,125
-302,037	378,470	-0,052	-0,076
-301,022	259,572	-0,050	0,062
-300,008	800,000	-0,018	0,043
-298,993	-200,000	0,011	0,046
-297,978	-27,049	0,082	0,034
-296,964	-70,372	-0,083	-0,022
-295,949	-27,658	-0,040	-0,016
-294,935	-46,132	-0,131	-0,046
-293,920	8,005	-0,118	0,063
-292,905	-200,000	-0,024	0,102
-291,891	-132,274	0,049	-0,004
-290,876	295,235	-0,015	-0,019
-289,862	296,175	0,042	-0,055
-288,847	-200,000	-0,007	0,098
-287,832	-200,000	-0,005	0,053
-286,818	800,000	0,056	-0,147
-285,803	38,677	0,072	-0,046
-284,789	232,294	-0,097	-0,113
-283,774	42,632	0,072	0,047
-282,759	-125,054	-0,105	-0,011
-281,745	-43,151	0,117	0,042
-280,730	518,510	-0,019	0,032
-279,716	800,000	0,031	-0,096
-278,701	-118,413	-0,126	0,016
-277,686	-15,189	0,054	0,024
-276,672	-47,622	-0,142	0,049
-275,657	-200,000	0,040	0,144
-274,643	-56,205	-0,042	-0,013
-273,628	800,000	-0,074	-0,187
-272,613	14,453	-0,036	0,020
-271,599	-200,000	0,006	0,134
-270,584	115,198	0,083	-0,072
-269,570	-200,000	0,005	0,102
-268,555	-48,857	-0,146	0,050
-267,540	16,494	-0,035	-0,020
-266,526	756,720	0,028	-0,054
-265,511	162,101	-0,099	-0,099
-264,497	-200,000	0,007	-0,035
-263,482	124,984	-0,037	0,033
-262,467	800,000	0,086	0,183
-261,453	-130,699	-0,079	-0,007
-260,438	-200,000	-0,003	-0,084
-259,424	800,000	0,040	-0,095
-258,409	347,795	0,088	0,124
-257,395	106,095	0,123	-0,104
-256,380	27,205	0,111	0,066
-255,365	206,399	0,100	0,111
-254,351	414,018	-0,040	-0,061
-253,336	-200,000	0,006	-0,019
-252,322	-42,922	0,124	-0,045
-251,307	294,241	0,062	0,081
-250,292	-4,722	-0,089	-0,044
-249,278	-75,695	0,042	0,011
-248,263	787,423	0,083	0,164
-247,249	103,409	-0,089	-0,075
-246,234	-78,629	0,129	-0,031
-245,219	800,000	-0,044	-0,092
-244,205	418,495	0,073	-0,112
-243,190	-131,685	0,037	-0,003
-242,176	1,410	-0,174	0,089
-241,161	6,709	0,068	0,036
-240,146	10,408	-0,034	-0,019
-239,132	142,730	-0,114	-0,108
-238,117	503,191	0,054	-0,089
-237,103	-22,521	-0,122	-0,052
-236,088	-101,668	0,045	-0,008
-235,073	-200,000	0,011	0,050
-234,059	-19,693	0,088	0,039
-233,044	75,892	0,049	0,037
-232,030	619,589	-0,012	-0,022
-231,015	-200,000	-0,004	-0,019
-230,000	800,000	-0,024	-0,063
-228,986	-123,960	-0,190	0,021
-227,971	-78,338	0,047	-0,011
-226,957	-200,000	0,055	-0,193
-225,942	572,146	0,075	0,132
-224,927	372,384	-0,029	-0,042
-223,913	337,076	-0,104	0,144
-222,898	800,000	-0,057	-0,165
-221,884	60,136	-0,105	-0,074
-220,869	800,000	0,025	-0,077
-219,855	-68,954	0,106	0,029
-218,840	-200,000	0,031	-0,104
-217,825	800,000	0,081	-0,163
-216,811	-177,948	0,115	0,002
-215,796	142,955	-0,058	0,055
-214,782	172,342	0,049	-0,050
-213,767	-114,973	0,043	0,006
-212,752	420,204	-0,003	-0,004
-211,738	-200,000	0,007	0,069
-210,723	649,429	-0,016	0,029
-209,709	-95,331	-0,090	0,017
-208,694	118,380	-0,138	0,121
-207,679	3,019	0,097	0,050
-206,665	-91,280	-0,147	-0,030
-205,650	-200,000	-0,069	-0,221
-204,636	800,000	0,040	0,089
-203,621	151,023	0,092	0,089
-202,606	186,935	0,046	-0,049
-201,592	90,862	0,020	0,016
-200,577	571,874	0,086	-0,151
-199,563	-200,000	-0,010	-0,074
-198,548	-64,257	-0,015	-0,004
-197,533	-34,808	-0,037	0,014
-196,519	391,005	0,008	0,012
-195,504	120,397	-0,077	-0,068
-194,490	-23,186	0,079	-0,034
-193,475	-200,000	0,003	0,024
-192,460	-151,526	-0,086	-0,004
-191,446	61,052	0,160	0,113
-190,431	-26,903	-0,071	-0,030
-189,417	32,773	-0,027	-0,016
-188,402	800,000	-0,094	0,202
-187,387	-3,803	0,052	0,026
-186,373	184,464	-0,034	0,036
-185,358	-200,000	-0,015	-0,075
-184,344	-84,557	-0,076	0,017
-183,329	153,311	0,110	-0,107
-182,315	-200,000	0,044	0,161
-181,300	-200,000	-0,016	-0,082
-180,285	-111,313	0,058	0,008
-179,271	107,473	0,083	0,070
-178,256	690,244	0,068	-0,127
-177,242	-128,422	0,172	0,017
-176,227	216,718	0,070	0,079
-175,212	-200,000	-0,074	0,276
-174,198	800,000	-0,003	0,008
-173,183	34,984	0,060	-0,037
-172,169	-200,000	-0,044	-0,145
-171,154	-7,194	-0,088	-0,042
-170,139	-66,459	0,112	0,031
-169,125	-84,668	0,046	-0,010
-168,110	-200,000	-0,034	-0,110
-167,096	-200,000	0,003	0,090
-166,081	-200,000	-0,008	0,054
-165,066	-200,000	-0,035	-0,113
-164,052	-82,645	-0,127	-0,029
-163,037	15,541	0,178	0,099
-162,023	-108,043	0,085	0,013
-161,008	-58,807	0,042	0,013
-159,993	82,760	0,077	-0,060
-158,979	-200,000	-0,033	-0,125
-157,964	-200,000	0,034	-0,160
-156,950	-200,000	0,000	0,114
-155,935	-200,000	-0,007	-0,030
-154,920	-95,345	-0,072	-0,014
-153,906	800,000	0,048	0,132
-152,891	-200,000	-0,020	0,114
-151,877	-59,776	0,157	-0,047
-150,862	222,550	-0,087	-0,100
-149,847	800,000	-0,041	-0,104
-148,833	-200,000	0,007	-0,064
-147,818	-200,000	0,030	0,153
-146,804	-51,049	0,015	-0,005
-145,789	-200,000	0,017	-0,145
-144,775	-176,042	-0,071	-0,001
-143,760	-200,000	-0,028	0,099
-142,745	574,353	0,049	-0,086
-141,731	-71,449	0,055	-0,015
-140,716	422,546	0,037	-0,057
-139,702	800,000	0,051	0,112
-138,687	-200,000	-0,004	0,067
-137,672	497,964	-0,068	-0,112
-136,658	-104,847	-0,163	0,026
-135,643	-2,764	0,088	0,044
-134,629	-31,229	0,058	-0,023
-133,614	64,716	-0,028	0,020
-132,599	464,854	0,032	0,051
-131,585	-58,521	-0,094	-0,029
-130,570	142,052	0,047	-0,044
-129,556	16,430	0,040	-0,022
-128,541	57,669	0,065	-0,045
-127,526	180,760	-0,048	0,050
-126,512	5,440	-0,070	0,036
-125,497	800,000	0,053	0,164
-124,483	800,000	0,035	-0,107
-123,468	486,897	0,062	0,100
-122,453	-47,926	-0,082	0,028
-121,439	729,560	0,063	-0,119
-120,424	-200,000	0,016	-0,118
-119,410	34,081	0,052	-0,032
-118,395	169,324	0,075	0,076
-117,380	-37,185	0,176	0,066
-116,366	52,374	0,165	0,112
-115,351	143,088	0,040	-0,037
-114,337	-200,000	-0,048	-0,225
-113,322	324,688	0,010	0,014
-112,307	800,000	0,082	-0,224
-111,293	-33,573	0,112	0,043
-110,278	216,171	-0,101	0,114
-109,264	-62,508	-0,110	0,032
-108,249	221,970	0,047	0,054
-107,234	297,683	0,063	-0,082
-106,220	-22,064	-0,128	-0,055
-105,205	-28,314	0,123	-0,050
-104,191	-11,501	0,033	0,015
-103,176	-200,000	-0,047	0,203
-102,162	-200,000	-0,008	0,082
-101,147	-158,098	-0,030	-0,001
-100,132	22,037	-0,013	0,007
-99,118	800,000	0,038	-0,104
-98,103	-20,207	-0,034	0,015
-97,089	-200,000	0,014	0,071
-96,074	288,314	0,048	-0,062
-95,059	55,369	0,024	-0,017
-94,045	-127,190	0,103	-0,011
-93,030	-82,214	0,080	-0,018
-92,016	800,000	-0,041	-0,116
-91,001	800,000	-0,028	-0,075
-89,986	408,293	0,028	0,042
-88,972	231,692	0,061	0,071
-87,957	-200,000	-0,012	-0,043
-86,943	46,245	-0,091	0,060
-85,928	311,834	0,041	-0,054
-84,913	34,020	0,078	-0,048
-83,899	-200,000	-0,014	0,080
-82,884	2,132	0,097	0,050
-81,870	-200,000	0,021	-0,082
-80,855	120,770	0,060	-0,053
-79,840	6,136	-0,022	0,012
-78,826	-200,000	-0,012	-0,046
-77,811	124,213	-0,126	-0,113
-76,797	-134,879	-0,086	-0,007
-75,782	28,912	0,080	-0,048
-74,767	-200,000	0,026	-0,105
-73,753	-100,168	-0,120	-0,021
-72,738	-171,073	0,045	0,001
-71,724	800,000	-0,008	-0,020
-70,709	436,694	-0,042	-0,065
-69,694	395,556	0,039	0,058
-68,680	12,935	0,147	-0,080
-67,665	8,729	-0,043	0,023
-66,651	339,665	0,055	-0,076
-65,636	-200,000	0,035	0,238
-64,622	56,398	-0,116	-0,080
-63,607	258,757	-0,103	-0,126
-62,592	-200,000	0,002	-0,040
-61,578	163,133	-0,077	0,077
-60,563	800,000	-0,025	-0,049
-59,549	800,000	-0,076	0,162
-58,534	-7,769	-1,664	-0,793
-57,519	541,555	-1,244	-2,107
-56,505	-200,000	-0,502	-4,506
-55,490	199,178	1,027	1,116
-54,476	800,000	4,968	11,476
-53,461	-200,000	19,062	319,420
-52,446	-200,000	740,288	2334,175
-51,432	574,105	1655,441	2870,438
-50,417	78,355	1671,064	1262,192
-49,403	21,324	1544,018	885,762
-48,388	15,164	1466,590	811,388
-47,373	17,919	1456,530	819,103
-46,359	16,674	1446,516	807,470
-45,344	13,453	1441,763	789,353
-44,330	13,393	1439,850	787,987
-43,315	13,390	1438,068	786,966
-42,300	13,346	1436,650	785,948
-41,286	13,398	1435,446	785,510
-40,271	13,361	1433,972	784,493
-39,257	13,363	1432,800	783,830
-38,242	13,391	1431,459	783,201
-37,227	13,427	1430,048	782,566
-36,213	13,408	1428,677	781,699
-35,198	13,371	1427,742	780,978
-34,184	13,418	1426,733	780,616
-33,169	13,376	1425,510	779,720
-32,154	13,411	1424,467	779,285
-31,140	13,451	1422,978	778,629
-30,125	13,502	1421,721	778,151
-29,111	13,455	1420,921	777,459
-28,096	13,409	1419,811	776,601
-27,082	13,346	1418,798	775,723
-26,067	13,318	1417,677	774,946
-25,052	13,350	1416,497	774,418
-24,038	13,284	1415,636	773,607
-23,023	13,294	1414,452	772,976
-22,009	13,341	1413,346	772,562
-20,994	13,330	1412,564	772,054
-19,979	13,298	1411,731	771,420
-18,965	13,288	1410,680	770,767
-17,950	13,274	1409,857	770,222
-16,936	13,295	1408,996	769,820
-15,921	13,234	1407,730	768,808
-14,906	13,284	1406,958	768,592
-13,892	13,283	1405,880	767,966
-12,877	13,257	1404,957	767,310
-11,863	13,297	1404,080	766,987
-10,848	13,258	1403,292	766,346
-9,833	13,249	1402,370	765,770
-8,819	13,143	1401,622	764,839
-7,804	13,165	1400,784	764,452
-6,790	13,141	1399,582	763,656
-5,775	13,156	1398,777	763,254
-4,760	13,189	1397,499	762,678
-3,746	13,168	1396,736	762,138
-2,731	13,121	1396,083	761,530
-1,717	13,167	1395,040	761,148
-0,702	13,119	1393,284	759,933
0,313	16,954	1310,083	732,324
1,327	33,234	704,076	431,214
2,342	51,169	123,263	82,604
3,356	0,090	16,604	8,344
4,371	6,367	3,287	1,721
5,386	38,345	0,546	0,343
6,400	-200,000	0,035	0,121
7,415	174,471	-0,272	-0,279
8,429	-3,776	-0,228	-0,112
9,444	7,313	-0,284	-0,149
10,459	24,272	-0,324	-0,189
11,473	149,265	-0,250	-0,239
12,488	55,754	-0,332	-0,227
13,502	2,181	-0,365	-0,186
14,517	215,452	-0,223	-0,251
15,531	154,666	-0,292	-0,284
16,546	-8,115	-0,396	-0,188
17,561	106,465	-0,316	-0,264
18,575	-89,993	-0,135	-0,028
19,590	56,801	-0,299	-0,205
20,604	81,672	-0,245	-0,187
21,619	309,971	-0,293	-0,388
22,634	206,206	-0,259	-0,285
23,648	-18,152	-0,488	-0,215
24,663	-14,727	-0,475	-0,215
25,677	112,812	-0,319	-0,273
26,692	85,201	-0,253	-0,195
27,707	99,505	-0,423	-0,346
28,721	210,046	-0,357	-0,396
29,736	51,888	-0,446	-0,299
30,750	139,711	-0,398	-0,370
31,765	82,012	-0,457	-0,349
32,780	25,725	-0,410	-0,240
33,794	108,582	-0,359	-0,303
34,809	206,168	-0,263	-0,290
35,823	207,347	-0,283	-0,312
36,838	211,330	-0,410	-0,456
37,853	88,024	-0,457	-0,357
38,867	231,610	-0,376	-0,435
39,882	98,481	-0,271	-0,220
40,896	-9,920	-0,311	-0,145
41,911	33,474	-0,287	-0,175
42,926	69,533	-0,299	-0,217
43,940	91,849	-0,377	-0,299
44,955	171,467	-0,310	-0,314
45,969	-7,981	-0,335	-0,159
46,984	35,283	-0,400	-0,247
47,999	-67,516	-0,248	-0,068
49,013	160,635	-0,267	-0,262
50,028	136,535	-0,301	-0,277
51,042	121,759	-0,318	-0,280
52,057	115,457	-0,390	-0,335
53,071	65,088	-0,385	-0,273
54,086	91,042	-0,407	-0,321
55,101	3,965	-0,285	-0,146
56,115	40,813	-0,257	-0,163
57,130	89,930	-0,292	-0,229
58,144	-18,945	-0,472	-0,206
59,159	282,862	-0,309	-0,391
60,174	-15,982	-0,422	-0,188
61,188	356,763	-0,266	-0,374
62,203	36,664	-0,165	-0,102
63,217	147,557	-0,308	-0,292
64,232	213,897	-0,337	-0,375
65,247	40,703	-0,346	-0,219
66,261	397,011	-0,258	-0,380
67,276	47,479	-0,337	-0,220
68,290	-66,574	-0,336	-0,093
69,305	87,926	-0,252	-0,196
70,320	11,067	-0,277	-0,148
71,334	48,249	-0,220	-0,145
72,349	-85,550	-0,417	-0,090
73,363	76,348	-0,414	-0,308
74,378	8,836	-0,358	-0,189
75,393	27,684	-0,329	-0,194
76,407	61,141	-0,233	-0,163
77,422	34,819	-0,279	-0,171
78,436	-121,012	-0,383	-0,045
79,451	80,329	-0,326	-0,246
80,466	-21,618	-0,374	-0,159
81,480	130,703	-0,373	-0,336
82,495	50,128	-0,285	-0,188
83,509	41,031	-0,328	-0,208
84,524	46,977	-0,307	-0,200
85,539	-4,372	-0,277	-0,134
86,553	-76,468	-0,221	-0,054
87,568	212,630	-0,280	-0,311
88,582	55,506	-0,301	-0,204
89,597	102,764	-0,303	-0,249
90,611	83,132	-0,269	-0,205
91,626	592,458	-0,112	-0,195
92,641	-127,833	-0,274	-0,027
93,655	-27,084	-0,281	-0,114
94,670	-142,465	-0,272	-0,018
95,684	-44,892	-0,459	-0,160
96,699	187,225	-0,217	-0,227
97,714	-12,110	-0,156	-0,071
98,728	356,549	-0,109	-0,153
99,743	-99,919	-0,286	-0,050
100,757	-28,064	-0,157	-0,063
101,772	21,918	-0,340	-0,194
102,787	-14,849	-0,299	-0,134
103,801	-17,366	-0,315	-0,139
104,816	38,511	-0,232	-0,145
105,830	195,388	-0,128	-0,136
106,845	-65,023	-0,302	-0,085
107,860	-79,265	-0,395	-0,093
108,874	-3,410	-0,179	-0,087
109,889	-86,401	-0,296	-0,063
110,903	89,858	-0,261	-0,204
111,918	-50,034	-0,292	-0,096
112,933	-8,829	-0,272	-0,127
113,947	116,299	-0,291	-0,250
114,962	81,482	-0,245	-0,186
115,976	-90,520	-0,359	-0,072
116,991	-0,383	-0,338	-0,168
118,006	137,176	-0,368	-0,337
119,020	190,398	-0,235	-0,247
120,035	430,505	-0,128	-0,195
121,049	-1,489	-0,185	-0,091
122,064	-74,954	-0,194	-0,048
123,079	263,259	-0,209	-0,254
124,093	-57,465	-0,255	-0,078
125,108	-54,476	-0,382	-0,121
126,122	106,338	-0,271	-0,225
127,137	503,045	-0,180	-0,292
128,151	-53,478	-0,169	-0,054
129,166	86,411	-0,214	-0,165
130,181	25,837	-0,226	-0,132
131,195	157,092	-0,177	-0,171
132,210	59,137	-0,282	-0,194
133,224	288,810	-0,198	-0,251
134,239	44,534	-0,339	-0,218
135,254	775,137	-0,088	-0,169
136,268	-82,462	-0,267	0,060
137,283	111,519	-0,177	-0,149
138,297	22,994	-0,331	-0,189
139,312	110,815	-0,253	-0,213
140,327	189,949	-0,204	-0,214
141,341	-137,894	-0,359	0,028
142,356	204,129	-0,201	-0,218
143,370	96,361	-0,392	-0,313
144,385	-10,817	-0,248	-0,114
145,400	320,178	-0,191	-0,254
146,414	94,631	-0,275	-0,218
147,429	176,603	-0,253	-0,257
148,443	-75,828	-0,173	0,043
149,458	9,573	-0,191	-0,101
150,473	8,601	-0,230	-0,121
151,487	69,909	-0,199	-0,144
152,502	170,446	-0,152	-0,152
153,516	135,475	-0,281	-0,256
154,531	292,862	-0,260	-0,331
155,546	217,128	-0,200	-0,223
156,560	4,902	-0,198	-0,101
157,575	406,274	-0,137	-0,202
158,589	450,752	-0,118	-0,183
159,604	238,273	-0,184	-0,214
160,619	-22,478	-0,345	-0,145
161,633	297,141	-0,227	-0,291
162,648	-41,375	-0,241	-0,086
163,662	-110,836	-0,311	0,044
164,677	-196,893	-0,213	0,001
165,692	51,059	-0,140	-0,092
166,706	95,570	-0,198	-0,158
167,721	96,446	-0,227	-0,181
168,735	88,558	-0,272	-0,211
169,750	70,282	-0,315	-0,227
170,764	87,369	-0,122	-0,094
171,779	197,109	-0,119	-0,127
172,794	-34,544	-0,362	-0,137
173,808	52,363	-0,140	-0,093
174,823	162,883	-0,187	-0,183
175,837	138,401	-0,296	-0,271
176,852	37,127	-0,248	-0,152
177,867	-86,959	-0,293	-0,062
178,881	512,143	-0,122	-0,199
179,896	-102,105	-0,308	-0,051
180,910	55,026	-0,268	-0,180
181,925	37,323	-0,320	-0,197
182,940	-59,771	-0,301	-0,089
183,954	66,016	-0,288	-0,203
184,969	-200,000	-0,047	-0,156
185,983	575,813	-0,105	-0,179
186,998	-17,933	-0,255	-0,111
188,013	45,851	-0,193	-0,124
189,027	-25,616	-0,209	-0,085
190,042	97,142	-0,337	-0,269
191,056	10,143	-0,203	-0,107
192,071	29,119	-0,199	-0,117
193,086	61,220	-0,180	-0,124
194,100	-31,965	-0,260	-0,101
195,115	-95,306	-0,206	-0,038
196,129	0,570	-0,264	-0,131
197,144	34,534	-0,328	-0,199
198,159	-102,645	-0,284	-0,047
199,173	-22,143	-0,268	-0,113
200,188	343,068	-0,106	-0,145
201,202	261,631	-0,139	-0,168
202,217	471,523	-0,077	-0,121
203,232	800,000	-0,059	-0,156
204,246	148,211	-0,237	-0,222
205,261	-200,000	-0,062	-0,301
206,275	210,073	-0,269	-0,294
207,290	194,502	-0,176	-0,185
208,304	51,260	-0,229	-0,151
209,319	276,054	-0,238	-0,294
210,334	105,403	-0,147	-0,121
211,348	80,631	-0,141	-0,106
212,363	36,752	-0,296	-0,181
213,377	158,612	-0,143	-0,138
214,392	30,115	-0,185	-0,109
215,407	152,026	-0,192	-0,182
216,421	-200,000	-0,068	-0,258
217,436	-9,644	-0,326	-0,150
218,450	330,509	-0,164	-0,219
219,465	23,639	-0,282	-0,160
220,480	80,225	-0,261	-0,194
221,494	-200,000	-0,017	-0,221
222,509	-21,609	-0,219	-0,092
223,523	80,842	-0,232	-0,173
224,538	377,805	-0,171	-0,244
225,553	150,827	-0,224	-0,211
226,567	316,072	-0,211	-0,277
227,582	144,151	-0,260	-0,240
228,596	-200,000	-0,033	-0,121
229,611	140,339	-0,124	-0,114
230,626	57,172	-0,214	-0,144
231,640	256,439	-0,166	-0,198
232,655	-146,899	-0,188	-0,011
233,669	266,469	-0,167	-0,203
234,684	116,882	-0,276	-0,235
235,699	-95,010	-0,192	-0,036
236,713	-76,484	-0,128	-0,031
237,728	800,000	-0,078	-0,202
238,742	81,381	-0,178	-0,133
239,757	800,000	-0,097	-0,253
240,772	118,819	-0,221	-0,189
241,786	37,742	-0,260	-0,160
242,801	276,111	-0,147	-0,182
243,815	671,577	-0,067	-0,120
244,830	-57,539	-0,151	-0,046
245,844	106,143	-0,144	-0,118
246,859	0,138	-0,212	-0,104
247,874	497,699	-0,137	-0,219
248,888	172,340	-0,206	-0,205
249,903	-17,241	-0,183	-0,080
250,917	144,715	-0,217	-0,201
251,932	181,649	-0,170	-0,173
252,947	781,671	-0,082	-0,155
253,961	199,953	-0,158	-0,168
254,976	85,049	-0,151	-0,114
255,990	249,609	-0,159	-0,186
257,005	385,538	-0,111	-0,159
258,020	-200,000	-0,052	-0,199
259,034	-106,320	-0,058	-0,009
260,049	-31,077	-0,204	-0,079
261,063	58,119	-0,347	-0,235
262,078	74,643	-0,226	-0,164
263,093	132,828	-0,206	-0,184
264,107	672,011	-0,120	-0,215
265,122	-76,875	-0,126	0,030
266,136	90,051	-0,148	-0,114
267,151	-66,104	-0,198	0,054
268,166	68,536	-0,115	-0,081
269,180	92,569	-0,140	-0,109
270,195	-47,077	-0,238	-0,080
271,209	-117,307	-0,181	-0,022
272,224	594,937	-0,126	-0,217
273,239	800,000	-0,083	-0,192
274,253	114,545	-0,170	-0,143
275,268	-160,504	-0,157	0,006
276,282	540,883	-0,103	-0,170
277,297	145,552	-0,162	-0,150
278,312	192,842	-0,101	-0,106
279,326	-15,842	-0,245	-0,107
280,341	-90,393	-0,285	-0,057
281,355	51,310	-0,082	-0,054
282,370	115,374	-0,170	-0,143
283,384	171,963	-0,105	-0,105
284,399	293,372	-0,200	-0,253
285,414	-17,182	-0,201	-0,087
286,428	-119,589	-0,139	0,016
287,443	-42,370	-0,167	-0,059
288,457	-82,454	-0,220	-0,049
289,472	130,683	-0,184	-0,163
290,487	639,471	-0,141	-0,248
291,501	-119,575	-0,313	-0,037
292,516	105,574	-0,101	-0,082
293,530	315,040	-0,191	-0,249
294,545	-67,734	-0,213	-0,057
295,560	-97,483	-0,132	-0,023
296,574	123,803	-0,127	-0,110
297,589	190,693	-0,206	-0,214
298,603	-200,000	0,004	-0,159
299,618	264,787	-0,123	-0,148
300,633	-17,222	-0,138	-0,060
301,647	156,230	-0,130	-0,124
302,662	6,429	-0,100	-0,051
303,676	-130,813	-0,181	0,017
304,691	-200,000	-0,006	0,092
305,706	261,488	-0,143	-0,171
306,720	183,278	-0,084	-0,085
307,735	-68,560	-0,096	-0,025
308,749	47,949	-0,108	-0,070
309,764	-65,283	-0,135	-0,037
310,779	313,861	-0,104	-0,135
311,793	165,160	-0,139	-0,135
312,808	98,538	-0,249	-0,197
313,822	-200,000	-0,069	-0,214
314,837	-200,000	-0,063	-0,200
315,852	367,779	-0,111	-0,154
316,866	109,194	-0,128	-0,106
317,881	244,880	-0,141	-0,163
318,895	81,924	-0,127	-0,095
319,910	800,000	-0,050	-0,121
320,925	302,273	-0,093	-0,118
321,939	378,467	-0,129	-0,182
322,954	64,692	-0,191	-0,132
323,968	-102,131	-0,207	0,034
324,983	37,164	-0,189	-0,115
325,997	64,158	-0,098	-0,068
327,012	404,005	-0,085	-0,123
328,027	101,290	-0,177	-0,142
329,041	61,396	-0,231	-0,158
330,056	240,790	-0,124	-0,143
331,070	13,941	-0,135	-0,072
332,085	-97,082	-0,184	-0,033
333,100	-200,000	-0,049	-0,205
334,114	800,000	-0,051	-0,099
335,129	97,621	-0,162	-0,128
336,143	800,000	-0,066	-0,158
337,158	119,448	-0,158	-0,134
338,173	-39,872	-0,156	-0,056
339,187	-30,034	-0,119	-0,046
340,202	-200,000	-0,041	-0,184
341,216	173,256	-0,097	-0,096
342,231	-200,000	-0,087	-0,320
343,246	80,769	-0,119	-0,088
344,260	56,270	-0,100	-0,067
345,275	-200,000	-0,044	-0,154
346,289	-200,000	-0,017	-0,190
347,304	229,011	-0,078	-0,088
348,319	67,628	-0,068	0,047
349,333	-71,434	-0,181	0,046
350,348	60,938	-0,216	-0,147
351,362	362,400	-0,067	-0,093
352,377	-95,829	-0,147	0,027
353,392	163,189	-0,097	-0,093
354,406	259,945	-0,118	-0,140
355,421	210,727	1312,382	1416,329
356,435	162,237	1472,820	1416,824
