DTS Sentinel unit serial number:	SN410029Multiplexer serial number:	ORYXHardware model number:	OX2-SRSoftware version number:	ORYX F/W v4,00 Oryx Data Collector v3.7.2.0data status	okinstallation	B3 Nyhavnadifferential loss correction	single-endedforward channel	channel 1reverse channel	N/Adate	2023/12/01time	02:12:30forward acquisition time	300,00reverse acquisition time	0,00gamma	499,1914k internal	0,3211k external	0,3211temperature offset calibration	1,0000default loss term (dB/km)	0,3820temperature slope calibration	1,0000multiplexer offset coefficient	1,0000multiplexer slope coefficient	1,0000fibre end	0,00T internal ref (°C)	8,69T ext. ref 1 (°C)	-6,53T ext. ref 2 (°C)	-6,66length (m)	temperature (°C)	Stokes	anti-Stokes-744,400	800,000	-0,156	-0,376
-743,385	-200,000	-0,002	0,226
-742,371	65,309	-0,191	-0,140
-741,356	-200,000	-0,089	0,297
-740,342	245,872	-0,231	-0,282
-739,327	-200,000	-0,057	0,300
-738,312	118,873	-0,298	-0,267
-737,298	-200,000	0,031	0,365
-736,283	698,339	-0,147	-0,282
-735,269	-200,000	0,001	0,415
-734,254	200,970	-0,141	-0,157
-733,239	-29,708	-0,158	0,065
-732,225	-167,523	-0,176	-0,005
-731,210	23,551	0,143	0,085
-730,196	800,000	-0,016	0,034
-729,181	381,593	-0,040	-0,059
-728,167	-163,521	0,122	-0,004
-727,152	-200,000	0,006	0,112
-726,137	-11,215	0,117	0,056
-725,123	739,683	-0,067	-0,130
-724,108	-11,753	-0,058	-0,028
-723,094	-9,391	0,024	0,012
-722,079	-62,351	0,048	-0,014
-721,064	-95,739	0,017	0,003
-720,050	358,132	0,019	0,027
-719,035	-200,000	0,001	-0,006
-718,021	-65,447	-0,129	0,037
-717,006	-200,000	-0,008	-0,039
-715,991	-56,030	-0,145	-0,046
-714,977	-200,000	0,018	-0,087
-713,962	275,609	-0,054	-0,070
-712,948	-19,155	-0,060	0,027
-711,933	-57,578	0,025	-0,008
-710,918	151,291	-0,152	0,150
-709,904	-196,232	-0,087	0,000
-708,889	-73,042	-0,151	-0,040
-707,875	583,656	-0,025	0,044
-706,860	800,000	-0,062	0,148
-705,845	-14,557	0,159	-0,074
-704,831	-82,131	0,057	-0,013
-703,816	21,709	-0,089	-0,053
-702,802	-168,981	-0,154	0,004
-701,787	104,226	-0,034	0,029
-700,772	-34,664	-0,115	-0,045
-699,758	-200,000	-0,015	-0,072
-698,743	-3,470	0,194	0,097
-697,729	500,939	0,049	0,082
-696,714	-178,432	-0,034	-0,001
-695,699	-178,457	-0,151	0,002
-694,685	800,000	0,072	-0,154
-693,670	52,383	-0,036	0,025
-692,656	-81,835	-0,058	0,014
-691,641	128,591	0,108	0,099
-690,627	-200,000	-0,013	-0,042
-689,612	-79,550	-0,063	0,015
-688,597	63,420	0,051	0,037
-687,583	621,755	-0,073	-0,134
-686,568	-122,622	-0,116	-0,013
-685,554	-200,000	-0,012	-0,163
-684,539	-93,577	0,081	-0,016
-683,524	-156,102	-0,133	-0,006
-682,510	-200,000	-0,002	-0,012
-681,495	-171,954	-0,084	0,002
-680,481	-141,356	0,077	0,006
-679,466	-120,946	-0,252	0,030
-678,451	800,000	-0,054	0,134
-677,437	-200,000	-0,008	0,063
-676,422	496,187	-0,059	0,098
-675,408	71,390	0,022	0,016
-674,393	800,000	-0,043	-0,113
-673,378	800,000	0,078	-0,160
-672,364	-99,516	-0,099	0,018
-671,349	544,770	0,043	-0,075
-670,335	-68,674	-0,056	-0,015
-669,320	-200,000	-0,018	0,071
-668,305	201,639	0,105	0,117
-667,291	-150,445	-0,099	-0,005
-666,276	-200,000	0,017	0,073
-665,262	26,263	0,121	-0,073
-664,247	188,413	0,077	-0,083
-663,232	434,775	0,030	-0,047
-662,218	255,862	0,079	0,098
-661,203	-139,564	0,101	0,008
-660,189	19,959	0,138	-0,080
-659,174	-196,908	-0,116	0,001
-658,159	-15,549	0,094	-0,043
-657,145	71,453	0,068	-0,051
-656,130	318,103	-0,053	-0,073
-655,116	18,639	0,088	0,051
-654,101	177,642	0,077	-0,081
-653,086	457,920	-0,042	-0,068
-652,072	-200,000	-0,002	-0,074
-651,057	56,898	-0,013	0,009
-650,043	674,917	0,031	0,059
-649,028	800,000	0,024	0,069
-648,014	-97,961	-0,158	-0,029
-646,999	800,000	0,012	0,030
-645,984	205,652	0,071	0,080
-644,970	-128,916	-0,044	-0,004
-643,955	636,897	-0,060	-0,110
-642,941	-0,765	-0,148	-0,076
-641,926	-64,569	-0,094	0,027
-640,911	-121,649	0,155	0,018
-639,897	238,500	0,045	0,054
-638,882	-200,000	-0,016	-0,098
-637,868	800,000	-0,019	-0,057
-636,853	-4,542	0,135	-0,067
-635,838	145,520	-0,067	-0,065
-634,824	-72,759	-0,046	-0,012
-633,809	98,411	0,052	0,043
-632,795	179,338	0,068	0,072
-631,780	485,972	-0,121	0,200
-630,765	-34,508	-0,173	-0,068
-629,751	-174,326	-0,064	-0,001
-628,736	800,000	-0,042	0,110
-627,722	-112,186	0,093	0,013
-626,707	-48,902	-0,148	-0,051
-625,692	418,260	-0,066	-0,102
-624,678	350,474	0,045	0,065
-623,663	-200,000	0,003	0,041
-622,649	-84,673	-0,140	0,032
-621,634	215,499	-0,023	-0,026
-620,619	800,000	-0,049	-0,128
-619,605	207,692	0,004	0,005
-618,590	-200,000	-0,011	0,045
-617,576	459,512	-0,056	0,090
-616,561	710,177	-0,049	0,095
-615,546	52,638	0,099	-0,068
-614,532	-200,000	-0,026	-0,150
-613,517	-124,822	-0,119	0,013
-612,503	-157,763	-0,100	0,004
-611,488	800,000	-0,033	-0,085
-610,474	-85,120	0,133	-0,030
-609,459	43,210	-0,084	0,055
-608,444	-88,005	-0,185	0,040
-607,430	97,225	-0,069	0,057
-606,415	-200,000	-0,007	0,034
-605,401	-142,138	0,078	-0,006
-604,386	-200,000	-0,012	-0,081
-603,371	91,870	0,075	0,061
-602,357	235,730	-0,085	-0,101
-601,342	-200,000	0,022	-0,076
-600,328	495,720	0,028	-0,046
-599,313	-200,000	0,020	-0,104
-598,298	-30,461	-0,099	0,040
-597,284	800,000	-0,041	-0,092
-596,269	-121,087	-0,128	-0,015
-595,255	18,544	-0,005	-0,003
-594,240	110,732	-0,115	-0,099
-593,225	24,287	0,075	-0,045
-592,211	800,000	-0,036	-0,099
-591,196	603,464	0,018	0,033
-590,182	-200,000	-0,026	0,154
-589,167	327,729	0,035	0,048
-588,152	-43,467	0,220	0,079
-587,138	292,463	-0,020	-0,026
-586,123	11,267	-0,128	-0,071
-585,109	800,000	0,040	-0,121
-584,094	-63,401	-0,051	0,015
-583,079	-44,481	0,147	0,053
-582,065	-200,000	-0,002	0,035
-581,050	-200,000	0,006	0,021
-580,036	-200,000	-0,016	0,055
-579,021	227,857	-0,033	-0,039
-578,006	116,485	-0,041	-0,036
-576,992	125,560	-0,087	-0,079
-575,977	153,451	-0,044	-0,043
-574,963	-52,966	0,077	-0,025
-573,948	-200,000	-0,000	-0,044
-572,934	-200,000	-0,000	0,085
-571,919	-200,000	-0,030	-0,144
-570,904	-12,212	-0,092	-0,043
-569,890	551,357	-0,028	-0,049
-568,875	-38,999	0,145	0,055
-567,861	68,677	0,098	-0,073
-566,846	118,549	0,117	0,104
-565,831	-64,555	-0,045	0,013
-564,817	1,987	0,008	-0,004
-563,802	-200,000	-0,019	-0,168
-562,788	32,818	-0,071	0,044
-561,773	800,000	0,022	-0,044
-560,758	800,000	0,019	0,053
-559,744	-76,788	-0,068	0,017
-558,729	266,736	-0,039	-0,049
-557,715	78,969	-0,098	-0,075
-556,700	-39,867	-0,031	-0,012
-555,685	-200,000	-0,028	-0,215
-554,671	167,049	0,025	0,025
-553,656	-3,150	0,168	-0,084
-552,642	21,576	-0,075	0,044
-551,627	259,218	0,044	-0,054
-550,612	338,918	0,047	0,066
-549,598	-27,869	-0,063	0,026
-548,583	443,482	-0,045	-0,071
-547,569	-154,697	0,027	0,001
-546,554	-200,000	0,011	0,042
-545,539	1,153	0,155	0,080
-544,525	-67,808	-0,118	0,033
-543,510	-160,897	-0,073	-0,003
-542,496	-126,875	-0,135	-0,014
-541,481	250,555	-0,071	-0,087
-540,466	-200,000	0,036	-0,141
-539,452	240,793	0,035	-0,043
-538,437	195,493	-0,099	0,108
-537,423	800,000	-0,026	-0,063
-536,408	-70,135	-0,086	-0,023
-535,393	-200,000	-0,003	0,153
-534,379	-173,970	-0,121	-0,003
-533,364	-117,929	0,038	0,005
-532,350	-50,787	0,118	0,040
-531,335	58,441	0,013	-0,009
-530,321	800,000	0,086	0,251
-529,306	800,000	-0,027	0,070
-528,291	800,000	0,031	-0,071
-527,277	125,330	0,055	-0,050
-526,262	131,520	0,148	-0,137
-525,248	48,208	-0,088	-0,059
-524,233	-200,000	0,009	-0,068
-523,218	800,000	0,038	-0,117
-522,204	-78,134	-0,076	0,019
-521,189	-200,000	0,014	0,057
-520,175	-79,639	-0,142	-0,034
-519,160	-34,595	0,043	-0,017
-518,145	-133,115	-0,054	0,005
-517,131	-174,104	0,099	0,002
-516,116	-29,414	-0,144	0,059
-515,102	-200,000	0,025	-0,109
-514,087	-200,000	-0,028	-0,150
-513,072	-200,000	-0,010	-0,098
-512,058	285,532	0,087	-0,114
-511,043	-59,151	-0,045	-0,014
-510,029	-0,371	0,095	-0,049
-509,014	-200,000	0,035	0,221
-507,999	122,510	-0,107	0,096
-506,985	78,998	0,091	-0,070
-505,970	-13,375	-0,091	0,042
-504,956	-200,000	0,019	-0,130
-503,941	-74,113	-0,064	-0,016
-502,926	-200,000	-0,040	-0,218
-501,912	-29,991	0,171	0,070
-500,897	-74,206	-0,089	-0,023
-499,883	-28,679	-0,142	-0,058
-498,868	-200,000	0,023	0,104
-497,853	-15,038	-0,077	0,035
-496,839	4,797	0,108	0,057
-495,824	150,341	-0,041	0,040
-494,810	-106,670	0,180	0,029
-493,795	773,815	-0,019	0,037
-492,781	56,183	0,058	-0,041
-491,766	272,997	-0,024	-0,030
-490,751	-134,095	-0,090	0,008
-489,737	107,941	0,086	-0,073
-488,722	29,352	0,082	-0,050
-487,708	53,412	-0,026	-0,018
-486,693	236,739	0,092	0,110
-485,678	-200,000	-0,035	-0,157
-484,664	124,719	0,051	-0,046
-483,649	-103,015	0,071	0,012
-482,635	367,858	0,080	-0,116
-481,620	17,783	0,029	0,016
-480,605	-66,396	0,070	0,020
-479,591	-135,059	0,107	0,009
-478,576	-34,125	-0,075	-0,030
-477,562	800,000	-0,010	0,029
-476,547	-200,000	0,010	-0,044
-475,532	-29,055	-0,096	0,039
-474,518	800,000	-0,037	0,083
-473,503	138,287	0,119	-0,112
-472,489	219,204	-0,104	0,119
-471,474	99,226	-0,073	0,061
-470,459	-84,434	0,049	-0,011
-469,445	-200,000	-0,022	0,093
-468,430	172,968	-0,081	-0,084
-467,416	-148,272	0,037	-0,002
-466,401	-200,000	0,006	-0,050
-465,386	-200,000	0,070	0,000
-464,372	-144,974	-0,230	-0,015
-463,357	800,000	0,042	-0,099
-462,343	532,913	-0,028	-0,048
-461,328	465,461	0,032	-0,052
-460,313	-8,981	0,032	0,015
-459,299	-200,000	0,040	0,134
-458,284	184,181	-0,070	0,074
-457,270	242,698	-0,034	-0,041
-456,255	63,376	-0,042	0,030
-455,241	-47,919	-0,133	-0,046
-454,226	800,000	-0,038	0,115
-453,211	69,383	0,074	-0,054
-452,197	9,789	0,100	0,054
-451,182	-200,000	-0,013	0,108
-450,168	-200,000	-0,015	0,056
-449,153	-200,000	0,025	0,086
-448,138	-200,000	-0,021	-0,070
-447,124	-33,536	-0,060	-0,024
-446,109	170,569	0,046	-0,047
-445,095	800,000	0,066	0,136
-444,080	-36,965	-0,044	-0,017
-443,065	254,718	0,048	0,059
-442,051	-93,116	-0,064	0,013
-441,036	800,000	-0,056	-0,170
-440,022	2,355	0,124	0,064
-439,007	421,522	-0,037	-0,057
-437,992	-62,732	0,047	0,014
-436,978	-130,457	0,156	0,015
-435,963	800,000	0,057	0,157
-434,949	22,827	0,047	-0,028
-433,934	-200,000	0,032	0,111
-432,919	-28,565	0,053	0,022
-431,905	-200,000	0,027	0,093
-430,890	-16,187	-0,060	0,027
-429,876	266,795	0,106	0,133
-428,861	-53,374	-0,151	0,049
-427,846	-97,096	-0,058	0,011
-426,832	266,945	-0,055	-0,069
-425,817	-200,000	-0,003	-0,030
-424,803	35,364	-0,138	-0,086
-423,788	32,877	0,054	-0,033
-422,773	-112,876	0,067	0,009
-421,759	-200,000	-0,011	0,063
-420,744	122,438	0,077	-0,069
-419,730	-139,135	-0,098	-0,007
-418,715	511,343	0,022	-0,037
-417,701	-116,053	-0,075	-0,010
-416,686	-200,000	0,006	-0,174
-415,671	-200,000	-0,003	0,067
-414,657	-200,000	0,037	0,138
-413,642	134,831	-0,071	0,066
-412,628	443,902	0,019	0,030
-411,613	800,000	-0,016	0,034
-410,598	-200,000	-0,009	-0,061
-409,584	-47,296	0,159	0,055
-408,569	316,699	0,073	0,098
-407,555	800,000	0,032	0,093
-406,540	59,063	0,029	0,020
-405,525	-11,201	0,078	0,037
-404,511	-200,000	0,001	0,093
-403,496	800,000	-0,027	0,065
-402,482	58,252	0,012	-0,008
-401,467	100,085	0,028	-0,023
-400,452	31,290	0,009	-0,006
-399,438	-200,000	0,000	0,048
-398,423	-38,862	0,015	-0,006
-397,409	399,210	-0,071	-0,106
-396,394	-200,000	-0,026	-0,174
-395,379	-58,727	-0,076	0,023
-394,365	-76,805	0,059	0,015
-393,350	-102,087	-0,065	-0,011
-392,336	382,371	0,042	-0,062
-391,321	12,407	0,068	-0,037
-390,306	412,216	-0,071	-0,108
-389,292	-200,000	-0,032	-0,100
-388,277	800,000	-0,047	0,119
-387,263	564,385	-0,046	0,080
-386,248	-25,223	0,088	0,037
-385,233	-50,917	0,065	0,022
-384,219	800,000	-0,037	-0,097
-383,204	-200,000	-0,022	-0,091
-382,190	635,600	-0,053	-0,097
-381,175	-48,062	0,159	0,055
-380,160	-200,000	0,017	0,095
-379,146	88,319	0,151	0,120
-378,131	-125,149	-0,057	0,006
-377,117	540,148	-0,035	0,061
-376,102	-108,004	-0,072	-0,011
-375,088	-37,715	0,175	-0,066
-374,073	-46,800	-0,058	-0,020
-373,058	241,447	0,070	0,084
-372,044	334,157	0,025	0,034
-371,029	527,450	0,048	0,081
-370,015	-115,770	-0,121	-0,016
-369,000	-33,781	0,147	-0,058
-367,985	329,268	0,037	0,051
-366,971	-7,221	0,051	-0,025
-365,956	800,000	0,071	-0,142
-364,942	-100,093	0,009	-0,002
-363,927	558,090	-0,114	0,197
-362,912	174,300	0,011	-0,012
-361,898	65,110	-0,034	-0,025
-360,883	-20,828	-0,064	-0,028
-359,869	-128,947	0,075	0,007
-358,854	83,597	0,048	-0,038
-357,839	109,662	0,107	0,092
-356,825	-200,000	0,030	0,109
-355,810	153,450	-0,067	0,066
-354,796	800,000	0,025	-0,063
-353,781	374,929	0,035	0,052
-352,766	-179,660	-0,085	0,001
-351,752	-47,831	0,234	0,080
-350,737	-199,360	-0,086	0,000
-349,723	309,788	-0,003	-0,004
-348,708	-200,000	-0,016	0,092
-347,693	597,809	-0,048	-0,085
-346,679	199,416	0,048	-0,052
-345,664	-200,000	0,021	-0,090
-344,650	-54,819	0,099	0,032
-343,635	-200,000	0,012	0,144
-342,620	800,000	0,013	0,030
-341,606	-42,518	0,138	0,050
-340,591	800,000	0,008	-0,019
-339,577	726,553	-0,035	0,068
-338,562	-65,939	-0,059	0,017
-337,548	-200,000	0,008	-0,084
-336,533	-200,000	-0,005	0,022
-335,518	-200,000	0,020	0,111
-334,504	-166,920	0,132	-0,004
-333,489	-53,196	0,057	-0,019
-332,475	285,361	-0,027	-0,035
-331,460	800,000	-0,078	-0,155
-330,445	-71,083	-0,058	0,016
-329,431	-107,486	0,080	-0,012
-328,416	291,140	0,029	-0,037
-327,402	658,980	0,028	-0,051
-326,387	800,000	0,061	0,128
-325,372	-200,000	-0,025	-0,112
-324,358	433,145	-0,023	-0,036
-323,343	800,000	-0,055	0,144
-322,329	121,462	0,108	0,096
-321,314	62,068	0,041	0,029
-320,299	586,724	0,045	-0,080
-319,285	116,302	0,029	0,025
-318,270	-200,000	-0,027	-0,141
-317,256	46,057	-0,070	0,046
-316,241	-128,410	0,062	-0,006
-315,226	-200,000	0,017	0,076
-314,212	34,413	0,139	0,087
-313,197	156,970	-0,081	0,080
-312,183	-79,154	-0,099	-0,024
-311,168	671,294	0,070	-0,131
-310,153	381,205	-0,031	0,045
-309,139	800,000	0,045	0,094
-308,124	-34,793	0,100	0,039
-307,110	195,192	0,069	-0,075
-306,095	110,557	0,055	0,047
-305,080	-200,000	-0,000	-0,003
-304,066	91,703	0,067	0,053
-303,051	-86,335	-0,100	0,022
-302,037	0,619	0,055	0,028
-301,022	-22,137	-0,099	0,042
-300,008	-200,000	0,004	-0,064
-298,993	628,320	0,035	0,064
-297,978	33,528	-0,027	0,017
-296,964	444,303	-0,045	0,070
-295,949	334,364	0,037	-0,051
-294,935	-148,757	-0,186	-0,011
-293,920	190,925	0,089	0,096
-292,905	-200,000	-0,031	0,119
-291,891	92,739	-0,058	0,047
-290,876	-148,743	-0,080	-0,005
-289,862	211,906	-0,038	-0,043
-288,847	47,746	-0,085	0,057
-287,832	-200,000	0,017	-0,099
-286,818	-16,064	0,070	0,031
-285,803	800,000	0,034	0,091
-284,789	-200,000	-0,015	0,068
-283,774	-200,000	0,012	0,064
-282,759	-200,000	0,012	0,041
-281,745	-67,125	-0,155	0,043
-280,730	-138,427	0,174	0,013
-279,716	-82,426	-0,161	0,037
-278,701	-200,000	0,002	0,029
-277,686	-6,587	0,083	0,040
-276,672	-200,000	0,000	0,008
-275,657	-71,915	-0,108	-0,028
-274,643	-200,000	0,001	-0,264
-273,628	58,496	-0,126	-0,088
-272,613	-65,902	0,063	0,018
-271,599	800,000	-0,032	-0,087
-270,584	800,000	0,044	-0,105
-269,570	-200,000	-0,007	0,078
-268,555	-0,152	0,146	0,074
-267,540	294,016	-0,112	-0,146
-266,526	-147,455	0,033	-0,002
-265,511	24,771	-0,021	-0,013
-264,497	-98,974	0,055	-0,010
-263,482	-146,074	0,099	0,006
-262,467	198,650	0,063	0,069
-261,453	-133,294	-0,104	0,009
-260,438	-200,000	-0,010	0,059
-259,424	-200,000	-0,001	0,003
-258,409	-200,000	0,013	0,055
-257,395	-146,886	-0,111	0,007
-256,380	-200,000	0,008	-0,026
-255,365	393,557	-0,033	-0,049
-254,351	-110,459	-0,052	0,008
-253,336	-200,000	0,003	0,107
-252,322	-200,000	-0,011	-0,144
-251,307	-125,096	-0,037	0,004
-250,292	800,000	-0,028	0,087
-249,278	-200,000	0,015	0,082
-248,263	-55,282	0,137	0,044
-247,249	-200,000	-0,014	0,068
-246,234	-200,000	0,005	0,150
-245,219	800,000	0,019	-0,043
-244,205	-200,000	-0,001	-0,024
-243,190	-68,910	0,072	-0,020
-242,176	15,623	0,135	0,075
-241,161	800,000	-0,029	0,072
-240,146	368,397	0,017	0,025
-239,132	-171,952	-0,052	0,001
-238,117	16,840	0,085	0,048
-237,103	244,519	0,032	-0,038
-236,088	-53,059	-0,058	-0,019
-235,073	-159,761	0,137	0,005
-234,059	120,856	-0,045	-0,040
-233,044	-200,000	-0,027	-0,100
-232,030	-200,000	-0,011	-0,037
-231,015	-200,000	-0,013	-0,131
-230,000	-200,000	0,006	-0,071
-228,986	-200,000	-0,018	0,175
-227,971	-76,651	0,091	-0,023
-226,957	786,830	-0,007	0,015
-225,942	-200,000	-0,004	-0,055
-224,927	-68,677	-0,122	-0,033
-223,913	242,636	-0,035	-0,042
-222,898	-200,000	0,011	-0,052
-221,884	601,413	-0,003	-0,006
-220,869	12,122	0,174	0,095
-219,855	197,877	-0,015	-0,016
-218,840	286,866	0,037	0,048
-217,825	-200,000	-0,004	-0,062
-216,811	46,388	0,088	0,058
-215,796	-200,000	-0,015	-0,058
-214,782	-200,000	-0,007	0,099
-213,767	30,761	-0,134	0,082
-212,752	-200,000	-0,014	0,098
-211,738	46,198	-0,054	-0,036
-210,723	800,000	0,040	-0,122
-209,709	-200,000	0,002	-0,007
-208,694	-200,000	-0,022	-0,125
-207,679	332,119	-0,037	-0,050
-206,665	-200,000	0,024	0,083
-205,650	-200,000	0,011	0,169
-204,636	-200,000	0,013	0,148
-203,621	-60,348	-0,125	-0,037
-202,606	-200,000	-0,021	-0,089
-201,592	-200,000	0,013	-0,183
-200,577	-48,437	-0,143	-0,049
-199,563	-62,981	0,077	0,022
-198,548	-175,463	0,189	-0,004
-197,533	570,085	0,095	0,164
-196,519	34,358	0,079	0,049
-195,504	59,674	-0,015	-0,011
-194,490	338,933	0,082	-0,113
-193,475	268,746	0,056	-0,069
-192,460	210,101	-0,067	0,075
-191,446	-114,436	0,126	0,017
-190,431	-5,020	-0,050	-0,024
-189,417	169,316	-0,052	0,053
-188,402	208,263	-0,043	-0,047
-187,387	767,130	-0,057	-0,110
-186,373	225,898	-0,098	0,113
-185,358	172,739	-0,017	0,018
-184,344	432,239	0,099	-0,153
-183,329	800,000	-0,022	0,054
-182,315	174,878	0,029	-0,030
-181,300	800,000	0,026	-0,081
-180,285	201,153	-0,111	-0,121
-179,271	250,991	-0,108	-0,130
-178,256	-18,619	0,081	-0,036
-177,242	-120,638	-0,037	0,004
-176,227	-200,000	-0,011	0,092
-175,212	-31,490	0,038	-0,015
-174,198	-110,520	-0,111	-0,016
-173,183	30,749	0,101	-0,061
-172,169	486,626	-0,055	-0,090
-171,154	-200,000	0,001	-0,032
-170,139	-170,510	0,089	0,002
-169,125	-43,122	0,042	0,015
-168,110	10,556	-0,047	-0,025
-167,096	-2,587	-0,138	-0,068
-166,081	800,000	-0,053	0,155
-165,066	9,791	-0,038	-0,020
-164,052	12,317	-0,056	-0,030
-163,037	10,782	0,125	0,067
-162,023	-63,672	0,119	0,034
-161,008	-200,000	-0,020	0,079
-159,993	411,986	0,016	0,024
-158,979	-11,303	-0,082	-0,038
-157,964	-200,000	-0,014	-0,083
-156,950	-75,510	0,091	-0,023
-155,935	-116,528	-0,063	-0,008
-154,920	-176,404	0,043	-0,001
-153,906	-200,000	-0,024	0,185
-152,891	-146,933	0,121	-0,007
-151,877	-78,880	-0,077	-0,018
-150,862	413,513	0,101	-0,152
-149,847	-48,319	-0,224	-0,076
-148,833	-200,000	0,007	-0,029
-147,818	-9,753	0,037	0,018
-146,804	-179,856	0,159	0,002
-145,789	-200,000	-0,019	0,067
-144,775	800,000	0,053	-0,107
-143,760	-200,000	0,018	0,059
-142,745	20,279	-0,052	0,030
-141,731	-14,759	0,093	0,042
-140,716	781,902	-0,086	0,168
-139,702	-111,828	0,076	-0,011
-138,687	148,233	-0,064	-0,061
-137,672	610,519	-0,019	-0,033
-136,658	306,207	-0,064	0,084
-135,643	376,158	0,027	0,038
-134,629	800,000	-0,023	0,065
-133,614	-200,000	0,008	0,117
-132,599	747,197	-0,038	-0,072
-131,585	-200,000	0,011	0,034
-130,570	-77,415	-0,078	-0,019
-129,556	52,759	0,018	0,012
-128,541	-150,592	-0,118	-0,006
-127,526	-57,841	0,160	0,049
-126,512	45,977	-0,096	-0,062
-125,497	-10,461	0,081	-0,038
-124,483	-81,385	0,057	-0,013
-123,468	224,416	0,074	0,085
-122,453	-200,000	0,007	-0,180
-121,439	48,166	0,097	-0,064
-120,424	-200,000	-0,017	-0,134
-119,410	123,359	-0,038	0,033
-118,395	800,000	-0,070	0,181
-117,380	137,067	0,083	-0,077
-116,366	-141,386	-0,113	-0,008
-115,351	-168,687	0,161	-0,004
-114,337	800,000	0,023	-0,055
-113,322	-62,199	-0,105	-0,031
-112,307	-146,087	-0,024	0,001
-111,293	65,850	0,066	0,048
-110,278	533,586	0,080	0,134
-109,264	800,000	-0,027	0,066
-108,249	-156,733	-0,106	-0,005
-107,234	-164,833	-0,139	-0,004
-106,220	800,000	0,043	-0,099
-105,205	-69,823	-0,095	0,025
-104,191	39,521	0,018	0,011
-103,176	730,477	-0,024	-0,046
-102,162	800,000	0,041	0,086
-101,147	-53,818	-0,064	0,021
-100,132	-51,947	-0,032	-0,010
-99,118	-200,000	-0,010	-0,061
-98,103	-55,769	0,042	0,013
-97,089	-160,266	0,107	-0,004
-96,074	404,704	-0,030	0,045
-95,059	-200,000	-0,009	-0,117
-94,045	4,232	0,040	0,021
-93,030	298,647	-0,034	-0,044
-92,016	705,373	0,066	-0,124
-91,001	-136,754	0,106	0,009
-89,986	-200,000	-0,002	-0,238
-88,972	252,526	0,087	-0,105
-87,957	-139,733	-0,200	0,015
-86,943	-29,441	0,067	-0,027
-85,928	-22,607	0,056	0,024
-84,913	510,596	-0,021	-0,034
-83,899	-200,000	-0,018	-0,137
-82,884	-145,119	-0,049	0,003
-81,870	-125,178	-0,158	0,017
-80,855	-164,057	-0,041	-0,001
-79,840	11,791	-0,066	0,036
-78,826	65,145	-0,056	-0,040
-77,811	237,940	-0,015	0,017
-76,797	74,312	-0,064	0,048
-75,782	800,000	0,026	0,075
-74,767	-200,000	0,026	0,093
-73,753	177,106	0,078	0,081
-72,738	-87,071	-0,093	-0,020
-71,724	424,664	0,025	0,038
-70,709	74,117	-0,079	0,058
-69,694	-200,000	-0,015	0,096
-68,680	800,000	0,025	-0,067
-67,665	610,880	0,109	0,194
-66,651	800,000	0,033	-0,093
-65,636	112,138	-0,122	-0,104
-64,622	-200,000	-0,011	-0,072
-63,607	-150,357	-0,227	-0,012
-62,592	142,288	-0,109	0,102
-61,578	-94,942	-0,028	0,005
-60,563	6,188	0,045	0,023
-59,549	-143,602	-0,098	0,006
-58,534	57,805	-1,966	-1,356
-57,519	431,855	-1,223	-1,877
-56,505	-200,000	-0,399	-4,623
-55,490	268,739	1,027	1,274
-54,476	800,000	5,584	12,070
-53,461	-200,000	22,205	342,456
-52,446	800,000	758,506	2299,338
-51,432	533,674	1651,551	2771,586
-50,417	68,990	1649,984	1194,963
-49,403	16,351	1525,663	847,427
-48,388	10,541	1450,531	777,710
-47,373	19,214	1442,294	814,697
-46,359	13,971	1431,090	783,523
-45,344	8,770	1427,396	756,803
-44,330	8,756	1425,409	755,650
-43,315	8,772	1423,402	754,632
-42,300	8,753	1421,659	753,591
-41,286	8,782	1420,327	752,988
-40,271	8,746	1419,408	752,301
-39,257	8,777	1418,190	751,775
-38,242	8,800	1417,019	751,233
-37,227	8,766	1415,961	750,481
-36,213	8,791	1414,603	749,847
-35,198	8,753	1413,449	749,028
-34,184	8,784	1412,540	748,662
-33,169	8,721	1410,940	747,490
-32,154	8,758	1410,185	747,232
-31,140	8,740	1408,898	746,437
-30,125	8,786	1407,620	745,946
-29,111	8,739	1406,561	745,134
-28,096	8,737	1405,402	744,481
-27,082	8,647	1404,303	743,450
-26,067	8,704	1403,288	743,148
-25,052	8,748	1401,943	742,615
-24,038	8,724	1401,078	742,013
-23,023	8,700	1400,334	741,477
-22,009	8,743	1399,049	740,967
-20,994	8,719	1397,923	740,230
-19,979	8,725	1397,020	739,749
-18,965	8,724	1396,106	739,234
-17,950	8,631	1395,247	738,316
-16,936	8,649	1394,469	737,961
-15,921	8,567	1393,463	737,017
-14,906	8,652	1392,495	736,869
-13,892	8,681	1391,582	736,493
-12,877	8,659	1390,627	735,855
-11,863	8,599	1390,150	735,298
-10,848	8,626	1389,074	734,825
-9,833	8,591	1388,029	734,081
-8,819	8,576	1387,083	733,482
-7,804	8,567	1386,252	732,970
-6,790	8,525	1385,278	732,232
-5,775	8,600	1384,060	731,906
-4,760	8,562	1383,234	731,267
-3,746	8,581	1382,515	730,945
-2,731	8,611	1381,317	730,419
-1,717	8,552	1380,722	729,806
-0,702	8,562	1378,771	728,791
0,313	12,517	1290,401	700,077
1,327	28,338	681,991	405,495
2,342	44,150	117,496	75,862
3,356	-1,021	16,541	8,225
4,371	2,190	3,812	1,936
5,386	11,664	1,194	0,644
6,400	800,000	0,237	0,598
7,415	-75,607	-0,216	-0,054
8,429	-102,197	-0,361	-0,061
9,444	396,975	-0,259	-0,383
10,459	7,390	-0,387	-0,203
11,473	88,268	-0,256	-0,200
12,488	-26,583	-0,243	-0,100
13,502	108,438	-0,349	-0,293
14,517	46,204	-0,286	-0,186
15,531	-9,568	-0,343	-0,160
16,546	146,811	-0,249	-0,236
17,561	203,870	-0,289	-0,316
18,575	-94,412	-0,194	0,037
19,590	90,389	-0,263	-0,207
20,604	-17,097	-0,185	-0,082
21,619	132,822	-0,360	-0,327
22,634	151,200	-0,422	-0,405
23,648	256,861	-0,306	-0,370
24,663	19,417	-0,487	-0,275
25,677	102,168	-0,366	-0,301
26,692	615,865	-0,202	-0,358
27,707	-11,875	-0,354	-0,163
28,721	99,749	-0,350	-0,285
29,736	78,352	-0,478	-0,359
30,750	195,232	-0,396	-0,423
31,765	204,677	-0,326	-0,357
32,780	80,978	-0,295	-0,223
33,794	-165,761	-0,367	-0,011
34,809	66,567	-0,306	-0,219
35,823	150,076	-0,412	-0,393
36,838	71,480	-0,404	-0,295
37,853	89,111	-0,370	-0,290
38,867	208,774	-0,290	-0,319
39,882	35,970	-0,428	-0,264
40,896	50,686	-0,288	-0,191
41,911	38,314	-0,204	-0,127
42,926	117,883	-0,217	-0,188
43,940	-30,825	-0,468	-0,185
44,955	-38,585	-0,444	-0,164
45,969	18,178	-0,266	-0,149
46,984	-80,452	-0,364	-0,085
47,999	71,215	-0,278	-0,202
49,013	-46,453	-0,263	-0,090
50,028	-6,066	-0,300	-0,143
51,042	19,146	-0,405	-0,227
52,057	23,721	-0,261	-0,150
53,071	166,251	-0,253	-0,252
54,086	88,533	-0,361	-0,281
55,101	651,630	-0,145	-0,261
56,115	235,366	-0,283	-0,328
57,130	342,181	-0,241	-0,332
58,144	126,242	-0,324	-0,288
59,159	84,065	-0,357	-0,274
60,174	216,462	-0,255	-0,285
61,188	-25,350	-0,328	-0,136
62,203	14,095	-0,330	-0,180
63,217	-17,302	-0,394	-0,173
64,232	144,785	-0,270	-0,254
65,247	-36,522	-0,389	-0,146
66,261	78,664	-0,358	-0,268
67,276	-93,229	-0,279	-0,054
68,290	-66,641	-0,220	-0,061
69,305	268,616	-0,224	-0,276
70,320	216,447	-0,198	-0,221
71,334	-5,064	-0,270	-0,130
72,349	-61,687	-0,247	-0,072
73,363	186,734	-0,299	-0,313
74,378	36,120	-0,311	-0,192
75,393	53,752	-0,415	-0,279
76,407	94,252	-0,257	-0,204
77,422	-26,624	-0,287	-0,117
78,436	23,958	-0,278	-0,160
79,451	311,696	-0,235	-0,309
80,466	11,777	-0,428	-0,229
81,480	117,124	-0,414	-0,357
82,495	68,128	-0,269	-0,193
83,509	46,111	-0,202	-0,131
84,524	-20,910	-0,290	-0,124
85,539	-5,472	-0,273	-0,131
86,553	147,024	-0,230	-0,216
87,568	109,931	-0,250	-0,210
88,582	185,212	-0,288	-0,300
89,597	99,156	-0,352	-0,285
90,611	115,398	-0,148	-0,127
91,626	391,362	-0,120	-0,175
92,641	-6,838	-0,317	-0,150
93,655	-148,106	-0,288	-0,016
94,670	-79,922	-0,233	-0,054
95,684	139,108	-0,326	-0,300
96,699	-27,176	-0,385	-0,156
97,714	-6,418	-0,264	-0,126
98,728	276,561	-0,121	-0,150
99,743	183,902	-0,231	-0,239
100,757	25,794	-0,345	-0,200
101,772	277,309	-0,169	-0,210
102,787	51,700	-0,226	-0,150
103,801	226,117	-0,147	-0,167
104,816	133,481	-0,266	-0,241
105,830	-25,103	-0,304	-0,125
106,845	-82,839	-0,195	-0,044
107,860	147,444	-0,228	-0,215
108,874	8,414	-0,291	-0,153
109,889	-22,458	-0,219	-0,092
110,903	109,903	-0,263	-0,220
111,918	87,309	-0,252	-0,195
112,933	4,160	-0,251	-0,128
113,947	-75,222	-0,322	-0,080
114,962	-91,108	-0,251	-0,050
115,976	158,514	-0,197	-0,191
116,991	141,777	-0,120	-0,111
118,006	61,253	-0,302	-0,209
119,020	104,412	-0,158	-0,130
120,035	121,577	-0,245	-0,213
121,049	41,586	-0,219	-0,138
122,064	507,407	-0,071	-0,115
123,079	97,918	-0,286	-0,229
124,093	59,150	-0,331	-0,227
125,108	173,376	-0,229	-0,230
126,122	34,593	-0,220	-0,134
127,137	-105,478	-0,189	-0,030
128,151	20,141	-0,234	-0,131
129,166	31,964	-0,232	-0,139
130,181	345,469	-0,235	-0,322
131,195	225,011	-0,185	-0,209
132,210	-197,892	-0,264	0,001
133,224	279,268	-0,185	-0,231
134,239	83,322	-0,183	-0,139
135,254	-167,350	-0,276	-0,008
136,268	-143,286	-0,244	-0,016
137,283	-107,663	-0,315	-0,047
138,297	116,479	-0,215	-0,184
139,312	31,741	-0,151	-0,090
140,327	37,410	-0,223	-0,138
141,341	240,150	-0,243	-0,283
142,356	99,328	-0,235	-0,189
143,370	185,994	-0,146	-0,151
144,385	35,036	-0,250	-0,152
145,400	451,911	-0,157	-0,242
146,414	-24,616	-0,294	-0,121
147,429	84,675	-0,160	-0,122
148,443	800,000	-0,088	-0,189
149,458	96,671	-0,308	-0,245
150,473	115,985	-0,271	-0,231
151,487	-31,754	-0,299	-0,116
152,502	169,897	-0,156	-0,155
153,516	41,033	-0,319	-0,200
154,531	76,989	-0,240	-0,177
155,546	-195,266	-0,231	0,001
156,560	-20,076	-0,176	-0,075
157,575	61,130	-0,124	-0,086
158,589	-16,318	-0,262	-0,115
159,604	247,318	-0,167	-0,197
160,619	307,403	-0,186	-0,242
161,633	-58,142	-0,180	-0,054
162,648	23,372	-0,360	-0,205
163,662	42,863	-0,181	-0,115
164,677	23,833	-0,201	-0,115
165,692	-57,143	-0,252	-0,077
166,706	191,144	-0,261	-0,273
167,721	800,000	-0,130	-0,254
168,735	-127,758	-0,150	-0,015
169,750	261,880	-0,167	-0,202
170,764	23,932	-0,133	-0,076
171,779	281,282	-0,107	-0,134
172,794	-40,765	-0,089	-0,032
173,808	-38,704	-0,208	-0,076
174,823	175,185	-0,347	-0,349
175,837	131,375	-0,174	-0,155
176,852	506,323	-0,187	-0,302
177,867	800,000	-0,076	-0,153
178,881	9,977	-0,144	-0,076
179,896	367,508	-0,103	-0,144
180,910	0,276	-0,203	-0,100
181,925	71,570	-0,324	-0,234
182,940	29,839	-0,258	-0,152
183,954	-51,107	-0,252	-0,082
184,969	23,272	-0,257	-0,146
185,983	-41,537	-0,126	-0,045
186,998	-98,193	-0,230	-0,041
188,013	60,006	-0,318	-0,218
189,027	420,734	-0,120	-0,179
190,042	34,294	-0,215	-0,130
191,056	86,515	-0,268	-0,205
192,071	-115,880	-0,170	0,022
193,086	199,460	-0,124	-0,133
194,100	418,401	-0,088	-0,132
195,115	60,544	-0,322	-0,221
196,129	27,286	-0,279	-0,162
197,144	800,000	-0,119	-0,275
198,159	235,311	-0,230	-0,263
199,173	260,981	-0,193	-0,232
200,188	352,308	-0,052	-0,072
201,202	222,974	-0,247	-0,276
202,217	62,291	-0,178	-0,123
203,232	48,600	-0,147	-0,095
204,246	67,976	-0,214	-0,151
205,261	205,246	-0,188	-0,203
206,275	165,644	-0,174	-0,170
207,290	800,000	-0,072	-0,185
208,304	159,173	-0,152	-0,146
209,319	-128,865	-0,198	-0,019
210,334	214,686	-0,170	-0,186
211,348	748,535	-0,130	-0,243
212,363	11,611	-0,180	-0,095
213,377	65,791	-0,131	-0,091
214,392	61,398	-0,219	-0,151
215,407	254,396	-0,094	-0,112
216,421	-63,970	-0,220	-0,062
217,436	0,911	-0,311	-0,154
218,450	12,196	-0,365	-0,194
219,465	602,646	-0,159	-0,274
220,480	-27,710	-0,203	-0,081
221,494	403,491	-0,111	-0,162
222,509	13,627	-0,147	-0,079
223,523	275,574	-0,127	-0,156
224,538	69,234	-0,288	-0,205
225,553	351,132	-0,169	-0,232
226,567	20,933	-0,182	-0,102
227,582	110,789	-0,200	-0,166
228,596	-90,282	-0,136	-0,027
229,611	76,644	-0,069	-0,050
230,626	-38,937	-0,230	-0,083
231,640	62,230	-0,236	-0,163
232,655	-25,776	-0,133	-0,054
233,669	226,671	-0,211	-0,238
234,684	96,300	-0,146	-0,116
235,699	157,511	-0,139	-0,133
236,713	45,535	-0,207	-0,132
237,728	-60,113	-0,166	-0,049
238,742	260,977	-0,204	-0,244
239,757	99,142	-0,234	-0,187
240,772	800,000	-0,066	-0,128
241,786	472,173	-0,167	-0,260
242,801	-28,005	-0,187	-0,074
243,815	-48,445	-0,180	-0,060
244,830	-23,420	-0,173	-0,072
245,844	-128,819	-0,103	-0,010
246,859	377,873	-0,127	-0,180
247,874	800,000	-0,080	-0,203
248,888	430,560	-0,140	-0,210
249,903	631,005	-0,151	-0,266
250,917	-36,536	-0,163	-0,060
251,932	3,523	-0,164	0,082
252,947	800,000	-0,017	-0,039
253,961	208,704	-0,088	-0,096
254,976	-27,176	-0,198	-0,079
255,990	347,890	-0,154	-0,210
257,005	7,663	-0,190	0,098
258,020	73,066	-0,154	-0,111
259,034	800,000	-0,056	-0,128
260,049	-99,941	-0,151	-0,026
261,063	800,000	-0,071	-0,187
262,078	506,844	-0,105	-0,169
263,093	-0,831	-0,091	-0,044
264,107	42,272	-0,224	-0,140
265,122	50,011	-0,170	-0,111
266,136	133,863	-0,136	-0,121
267,151	-55,122	-0,098	-0,030
268,166	525,845	-0,093	-0,152
269,180	-198,788	-0,268	-0,001
270,195	5,278	-0,164	-0,083
271,209	-121,556	-0,188	-0,021
272,224	266,243	-0,126	-0,152
273,239	-125,833	-0,136	-0,014
274,253	62,875	-0,079	-0,054
275,268	97,191	-0,188	-0,149
276,282	121,924	-0,216	-0,185
277,297	-30,531	-0,256	-0,099
278,312	72,573	-0,199	-0,143
279,326	29,182	-0,153	-0,089
280,341	-140,561	-0,004	0,000
281,355	-79,428	-0,126	-0,029
282,370	-200,000	-0,038	-0,157
283,384	-89,336	-0,201	-0,040
284,399	-56,385	-0,245	-0,075
285,414	-91,485	-0,291	-0,057
286,428	113,528	-0,110	-0,092
287,443	126,131	-0,142	-0,123
288,457	0,267	-0,135	-0,066
289,472	47,065	-0,249	-0,159
290,487	350,632	-0,142	-0,193
291,501	800,000	-0,070	-0,174
292,516	-198,139	-0,168	-0,001
293,530	-200,000	-0,015	-0,064
294,545	-200,000	0,013	-0,052
295,560	62,449	-0,110	0,075
296,574	291,239	-0,089	-0,112
297,589	697,720	-0,103	-0,187
298,603	33,351	-0,264	-0,157
299,618	90,208	-0,100	-0,077
300,633	-200,000	-0,028	-0,161
301,647	68,829	-0,124	-0,087
302,662	-20,320	-0,138	-0,058
303,676	155,551	-0,163	-0,154
304,691	84,194	-0,136	-0,102
305,706	800,000	-0,135	-0,283
306,720	157,442	-0,089	-0,085
307,735	800,000	-0,035	-0,096
308,749	-149,728	-0,165	-0,009
309,764	-170,895	-0,215	0,005
310,779	-57,460	-0,104	-0,031
311,793	-86,742	-0,055	0,012
312,808	123,947	-0,148	-0,128
313,822	-71,370	-0,225	0,057
314,837	-200,000	0,024	-0,211
315,852	-47,747	-0,073	-0,024
316,866	-15,679	-0,100	-0,044
317,881	123,380	-0,071	-0,061
318,895	566,458	-0,149	-0,249
319,910	623,576	-0,099	-0,172
320,925	67,178	-0,143	-0,100
321,939	-158,874	-0,135	0,005
322,954	76,372	-0,138	0,100
323,968	-122,049	-0,162	-0,018
324,983	72,793	-0,073	-0,052
325,997	-87,938	-0,168	-0,034
327,012	477,140	-0,085	-0,132
328,027	25,577	-0,162	-0,092
329,041	133,801	-0,073	-0,065
330,056	800,000	-0,078	-0,149
331,070	-200,000	0,011	-0,056
332,085	-169,369	-0,126	0,003
333,100	144,073	-0,129	-0,118
334,114	74,511	-0,143	-0,103
335,129	13,266	-0,252	-0,134
336,143	800,000	-0,034	-0,091
337,158	494,568	-0,075	-0,118
338,173	-200,000	-0,017	-0,205
339,187	234,526	-0,135	-0,153
340,202	800,000	-0,043	-0,088
341,216	137,891	-0,148	-0,133
342,231	43,947	-0,153	-0,095
343,246	800,000	0,048	-0,136
344,260	278,244	-0,142	-0,173
345,275	-103,542	-0,155	-0,025
346,289	-126,237	-0,140	0,014
347,304	172,983	-0,068	-0,068
348,319	-45,399	-0,161	-0,054
349,333	113,054	-0,194	-0,161
350,348	33,428	-0,164	-0,097
351,362	57,426	-0,099	-0,066
352,377	800,000	-0,031	-0,076
353,392	800,000	-0,055	-0,113
354,406	-97,131	-0,088	-0,016
355,421	206,562	1310,867	1397,645
356,435	158,872	1471,047	1398,103
