DTS Sentinel unit serial number:	SN410029Multiplexer serial number:	ORYXHardware model number:	OX2-SRSoftware version number:	ORYX F/W v4,00 Oryx Data Collector v3.7.2.0data status	okinstallation	B3 Nyhavnadifferential loss correction	single-endedforward channel	channel 1reverse channel	N/Adate	2023/12/01time	05:02:30forward acquisition time	300,00reverse acquisition time	0,00gamma	499,1914k internal	0,3213k external	0,3213temperature offset calibration	1,0000default loss term (dB/km)	0,3820temperature slope calibration	1,0000multiplexer offset coefficient	1,0000multiplexer slope coefficient	1,0000fibre end	0,00T internal ref (°C)	7,93T ext. ref 1 (°C)	-7,25T ext. ref 2 (°C)	-7,38length (m)	temperature (°C)	Stokes	anti-Stokes-744,400	-200,000	-0,066	-0,216
-743,385	-200,000	-0,071	0,240
-742,371	310,708	-0,141	-0,191
-741,356	-200,000	0,038	0,232
-740,342	800,000	-0,106	-0,279
-739,327	707,824	-0,077	0,148
-738,312	65,219	-0,292	-0,214
-737,298	640,669	-0,148	0,275
-736,283	-9,325	-0,197	-0,095
-735,269	-200,000	0,038	0,195
-734,254	-22,002	-0,258	-0,113
-733,239	-33,062	-0,299	0,120
-732,225	-200,000	0,061	-0,206
-731,210	211,307	0,075	0,086
-730,196	800,000	0,024	-0,052
-729,181	99,638	-0,086	0,072
-728,167	0,982	-0,074	-0,038
-727,152	-41,628	0,048	-0,018
-726,137	-166,701	-0,134	0,004
-725,123	-200,000	-0,018	-0,067
-724,108	123,328	-0,135	-0,123
-723,094	-200,000	0,030	-0,122
-722,079	26,083	-0,156	0,094
-721,064	800,000	-0,031	0,085
-720,050	353,772	0,062	0,090
-719,035	95,054	-0,010	-0,008
-718,021	287,613	0,077	0,101
-717,006	-200,000	0,001	-0,086
-715,991	-200,000	-0,030	-0,101
-714,977	800,000	0,011	-0,026
-713,962	-128,075	0,013	-0,001
-712,948	-92,441	-0,076	0,015
-711,933	28,988	0,051	-0,031
-710,918	60,659	-0,059	0,043
-709,904	800,000	-0,066	-0,140
-708,889	7,622	-0,086	-0,046
-707,875	-200,000	0,017	0,099
-706,860	15,815	-0,110	0,062
-705,845	34,265	0,082	0,052
-704,831	-88,742	0,130	-0,028
-703,816	342,398	-0,080	0,113
-702,802	-200,000	-0,001	-0,033
-701,787	800,000	-0,012	0,033
-700,772	-75,635	0,090	0,023
-699,758	-200,000	0,024	0,113
-698,743	32,104	0,045	0,028
-697,729	-92,191	0,092	0,019
-696,714	-200,000	-0,020	0,128
-695,699	-17,951	-0,053	-0,024
-694,685	77,495	-0,064	-0,049
-693,670	-116,199	-0,098	-0,013
-692,656	31,518	0,065	0,040
-691,641	-121,325	-0,044	-0,005
-690,627	245,710	-0,041	0,050
-689,612	-85,054	0,055	0,012
-688,597	-10,160	0,055	-0,026
-687,583	28,679	0,038	-0,023
-686,568	-200,000	-0,009	0,064
-685,554	368,826	-0,098	0,143
-684,539	9,954	0,089	-0,049
-683,524	27,836	0,056	-0,034
-682,510	800,000	0,053	0,131
-681,495	264,864	0,043	-0,055
-680,481	-200,000	0,074	-0,249
-679,466	800,000	-0,065	-0,162
-678,451	42,932	-0,070	-0,046
-677,437	-91,623	-0,094	-0,019
-676,422	30,638	-0,096	0,059
-675,408	-144,000	-0,122	-0,008
-674,393	-80,060	0,128	0,031
-673,378	-197,569	0,063	-0,000
-672,364	-200,000	-0,029	-0,126
-671,349	5,617	-0,019	-0,010
-670,335	14,792	-0,075	0,043
-669,320	-25,376	0,099	0,042
-668,305	113,813	-0,106	0,093
-667,291	-200,000	-0,010	0,093
-666,276	-112,845	-0,094	0,013
-665,262	-200,000	-0,005	-0,034
-664,247	800,000	-0,010	0,031
-663,232	800,000	0,013	-0,029
-662,218	800,000	0,045	0,104
-661,203	254,777	-0,069	0,086
-660,189	44,852	-0,157	-0,104
-659,174	287,792	-0,063	-0,082
-658,159	397,057	-0,053	-0,080
-657,145	-70,525	-0,071	-0,019
-656,130	146,647	-0,077	-0,074
-655,116	77,396	0,122	0,094
-654,101	243,989	-0,114	-0,138
-653,086	-11,320	0,111	-0,053
-652,072	-155,834	-0,070	-0,003
-651,057	146,725	0,073	0,071
-650,043	-53,443	0,121	-0,040
-649,028	130,881	-0,046	-0,043
-648,014	277,234	0,061	0,078
-646,999	-136,313	0,059	0,005
-645,984	-53,394	-0,050	0,017
-644,970	117,548	-0,068	0,060
-643,955	685,582	-0,058	-0,110
-642,941	-200,000	-0,028	0,108
-641,926	562,145	-0,005	0,009
-640,911	86,113	0,059	0,047
-639,897	560,775	-0,041	-0,071
-638,882	-21,725	0,105	0,046
-637,868	-145,930	-0,014	-0,001
-636,853	800,000	0,052	-0,108
-635,838	-200,000	0,051	-0,171
-634,824	76,065	0,020	-0,015
-633,809	266,038	-0,084	0,106
-632,795	-200,000	0,003	0,030
-631,780	159,557	-0,043	0,043
-630,765	35,023	-0,065	-0,041
-629,751	-34,946	-0,135	0,053
-628,736	127,345	-0,110	-0,100
-627,722	443,702	-0,058	-0,092
-626,707	-168,579	0,042	0,001
-625,692	244,846	-0,019	0,023
-624,678	511,971	0,071	-0,120
-623,663	-200,000	-0,001	0,063
-622,649	56,676	0,075	0,052
-621,634	154,472	-0,083	0,083
-620,619	216,222	0,031	-0,035
-619,605	-134,233	-0,132	-0,012
-618,590	652,267	0,106	0,197
-617,576	-200,000	-0,019	0,090
-616,561	25,369	-0,067	-0,040
-615,546	-35,380	0,018	0,007
-614,532	-169,019	-0,129	0,003
-613,517	520,301	-0,046	-0,078
-612,503	-117,422	0,046	-0,006
-611,488	-156,272	0,119	0,005
-610,474	-200,000	-0,048	0,184
-609,459	49,258	-0,114	-0,077
-608,444	-16,406	-0,046	0,021
-607,430	536,267	0,016	0,027
-606,415	0,460	0,028	-0,014
-605,401	8,101	0,055	0,030
-604,386	37,955	0,061	-0,039
-603,371	279,196	0,039	0,050
-602,357	163,958	0,003	-0,003
-601,342	176,508	-0,058	0,061
-600,328	800,000	0,044	-0,097
-599,313	-200,000	-0,015	-0,108
-598,298	-46,867	-0,052	-0,018
-597,284	379,395	-0,016	0,024
-596,269	-200,000	-0,022	0,098
-595,255	-120,535	0,028	0,003
-594,240	524,818	-0,057	0,096
-593,225	19,271	-0,085	0,049
-592,211	535,837	-0,041	-0,070
-591,196	-200,000	0,001	0,108
-590,182	-56,340	-0,126	-0,040
-589,167	-100,880	0,157	-0,027
-588,152	-32,919	0,054	-0,022
-587,138	-121,232	-0,104	-0,012
-586,123	-200,000	0,014	-0,220
-585,109	136,742	-0,137	0,129
-584,094	-200,000	0,022	-0,073
-583,079	-172,167	0,133	0,003
-582,065	-42,449	-0,077	-0,028
-581,050	-63,600	-0,198	0,058
-580,036	-200,000	0,014	-0,115
-579,021	451,691	-0,035	0,055
-578,006	-200,000	-0,011	-0,040
-576,992	-147,991	-0,185	0,011
-575,977	284,952	0,036	-0,047
-574,963	50,859	-0,140	0,096
-573,948	-200,000	0,007	0,051
-572,934	95,199	-0,063	-0,052
-571,919	-160,700	0,036	0,001
-570,904	538,023	0,052	-0,089
-569,890	-68,882	-0,158	-0,044
-568,875	-150,430	0,157	0,009
-567,861	236,224	0,074	-0,088
-566,846	-13,172	-0,052	0,024
-565,831	89,359	-0,073	0,059
-564,817	-23,741	-0,123	0,053
-563,802	46,459	-0,036	-0,024
-562,788	-200,000	0,007	-0,061
-561,773	66,168	0,095	0,069
-560,758	-200,000	-0,009	-0,083
-559,744	-99,487	-0,029	0,005
-558,729	556,681	0,042	-0,073
-557,715	800,000	-0,076	0,193
-556,700	54,328	0,099	-0,069
-555,685	-200,000	0,008	0,042
-554,671	-200,000	0,009	0,064
-553,656	-94,243	0,120	-0,023
-552,642	175,015	-0,099	0,103
-551,627	800,000	-0,028	0,077
-550,612	-42,758	-0,126	0,046
-549,598	-42,791	0,052	-0,019
-548,583	-88,529	-0,059	-0,012
-547,569	-59,676	-0,001	0,000
-546,554	-124,452	0,114	0,013
-545,539	196,143	0,045	0,050
-544,525	726,590	-0,040	0,076
-543,510	23,559	-0,049	0,029
-542,496	-67,745	0,108	-0,030
-541,481	800,000	0,030	-0,089
-540,466	25,397	-0,086	-0,051
-539,452	-117,087	-0,098	0,013
-538,437	-200,000	0,006	0,072
-537,423	642,215	-0,043	0,078
-536,408	-200,000	-0,003	-0,034
-535,393	292,896	0,061	-0,080
-534,379	-200,000	0,004	0,027
-533,364	240,540	-0,079	-0,095
-532,350	-186,311	0,162	-0,002
-531,335	147,927	-0,048	0,046
-530,321	-200,000	-0,023	-0,104
-529,306	387,511	-0,055	-0,081
-528,291	63,245	-0,133	-0,096
-527,277	-200,000	0,026	-0,084
-526,262	0,029	0,027	-0,014
-525,248	-200,000	-0,008	0,103
-524,233	752,059	0,018	-0,034
-523,218	-200,000	0,011	-0,109
-522,204	-200,000	0,015	0,051
-521,189	-200,000	0,014	-0,072
-520,175	-200,000	0,040	0,137
-519,160	87,032	0,155	-0,123
-518,145	800,000	0,016	0,033
-517,131	-200,000	-0,045	0,169
-516,116	-131,138	0,192	0,018
-515,102	504,412	0,050	-0,083
-514,087	325,419	0,044	-0,061
-513,072	-200,000	-0,001	-0,063
-512,058	-200,000	0,031	-0,107
-511,043	-37,974	-0,036	0,014
-510,029	-127,766	0,143	-0,015
-509,014	68,275	-0,095	-0,070
-507,999	103,482	0,042	0,035
-506,985	354,011	-0,034	-0,048
-505,970	484,640	0,032	-0,053
-504,956	-117,145	-0,067	0,009
-503,941	136,455	0,057	-0,053
-502,926	50,599	-0,099	0,067
-501,912	60,648	0,045	0,032
-500,897	800,000	0,027	0,060
-499,883	57,462	0,052	0,036
-498,868	-200,000	-0,017	-0,073
-497,853	-200,000	0,051	-0,191
-496,839	-200,000	-0,011	-0,047
-495,824	-200,000	-0,008	0,125
-494,810	-200,000	0,012	0,166
-493,795	27,182	-0,081	-0,049
-492,781	222,863	-0,112	-0,130
-491,766	-69,059	0,107	0,029
-490,751	-200,000	-0,009	-0,065
-489,737	7,591	-0,195	-0,105
-488,722	-200,000	0,013	0,069
-487,708	8,661	0,153	-0,083
-486,693	10,629	-0,065	0,036
-485,678	-37,069	-0,095	0,036
-484,664	374,680	-0,031	-0,045
-483,649	373,671	-0,035	-0,051
-482,635	-69,036	0,023	0,006
-481,620	498,769	-0,076	-0,126
-480,605	488,535	-0,013	-0,021
-479,591	-38,703	-0,076	0,029
-478,576	-200,000	-0,011	-0,050
-477,562	68,667	-0,110	-0,081
-476,547	232,185	0,018	-0,021
-475,532	-65,125	0,051	0,015
-474,518	86,835	-0,089	0,070
-473,503	-67,008	0,080	-0,023
-472,489	20,687	0,118	0,068
-471,474	67,760	-0,094	0,068
-470,459	-13,409	-0,123	0,057
-469,445	341,297	-0,118	-0,166
-468,430	-200,000	0,015	-0,049
-467,416	-145,389	0,107	-0,007
-466,401	-129,040	0,072	0,007
-465,386	-200,000	0,010	-0,054
-464,372	-200,000	0,003	0,031
-463,357	-200,000	0,035	-0,153
-462,343	312,920	-0,070	-0,095
-461,328	-52,848	0,133	0,044
-460,313	-200,000	0,000	-0,010
-459,299	-141,328	0,167	0,012
-458,284	355,251	0,071	0,101
-457,270	185,186	0,061	0,065
-456,255	219,529	0,042	-0,048
-455,241	-200,000	0,004	-0,170
-454,226	800,000	-0,068	-0,196
-453,211	83,242	0,028	-0,022
-452,197	-105,897	0,062	0,010
-451,182	800,000	0,037	0,102
-450,168	-200,000	0,017	0,054
-449,153	-66,267	0,041	0,012
-448,138	350,063	-0,011	0,016
-447,124	-200,000	-0,004	0,105
-446,109	800,000	-0,047	0,098
-445,095	-58,998	-0,014	0,004
-444,080	-6,929	-0,064	-0,031
-443,065	-1,458	0,068	0,034
-442,051	-51,429	-0,163	0,054
-441,036	60,134	-0,075	-0,053
-440,022	-96,006	0,044	-0,008
-439,007	-132,825	0,107	-0,010
-437,992	-64,394	-0,054	-0,016
-436,978	-182,752	-0,061	-0,001
-435,963	-43,809	0,008	0,003
-434,949	800,000	-0,015	0,038
-433,934	204,317	0,069	-0,077
-432,919	-200,000	0,009	0,059
-431,905	800,000	0,060	-0,128
-430,890	-200,000	0,011	0,083
-429,876	-171,297	0,191	0,004
-428,861	800,000	0,072	0,155
-427,846	-200,000	-0,023	0,115
-426,832	-60,933	-0,127	-0,038
-425,817	116,277	0,049	0,043
-424,803	-45,847	0,044	-0,016
-423,788	-77,382	0,184	-0,045
-422,773	70,002	0,108	0,080
-421,759	-200,000	0,013	0,098
-420,744	-128,446	-0,081	0,008
-419,730	-90,555	-0,097	-0,020
-418,715	-102,658	-0,213	0,036
-417,701	109,649	0,040	-0,034
-416,686	-39,053	0,134	0,050
-415,671	-200,000	-0,010	0,068
-414,657	-200,000	0,002	0,119
-413,642	-200,000	-0,008	0,049
-412,628	-200,000	-0,011	0,048
-411,613	-70,648	-0,189	-0,051
-410,598	16,809	-0,173	-0,097
-409,584	-107,748	0,106	-0,016
-408,569	-200,000	-0,001	0,075
-407,555	0,886	0,034	0,018
-406,540	-147,730	-0,155	0,009
-405,525	-162,258	-0,183	0,006
-404,511	-130,179	-0,113	-0,011
-403,496	677,464	-0,022	-0,042
-402,482	800,000	-0,022	-0,044
-401,467	800,000	-0,032	-0,069
-400,452	741,828	-0,054	-0,103
-399,438	-121,154	0,143	-0,017
-398,423	-200,000	0,012	-0,105
-397,409	-31,147	-0,102	-0,041
-396,394	40,557	-0,130	0,084
-395,379	-200,000	-0,010	-0,073
-394,365	54,023	-0,058	-0,040
-393,350	800,000	0,081	0,253
-392,336	-149,121	-0,067	-0,004
-391,321	373,809	-0,057	0,084
-390,306	107,637	-0,054	-0,046
-389,292	194,935	-0,045	0,048
-388,277	-89,397	-0,034	0,007
-387,263	-200,000	0,008	0,051
-386,248	800,000	-0,040	0,089
-385,233	-200,000	-0,017	0,139
-384,219	-88,991	-0,204	0,043
-383,204	115,066	-0,060	-0,053
-382,190	-200,000	0,009	-0,202
-381,175	379,520	-0,028	0,042
-380,160	73,527	-0,018	-0,014
-379,146	-76,244	0,105	-0,026
-378,131	179,494	0,070	0,074
-377,117	41,326	0,099	-0,064
-376,102	-200,000	0,036	0,159
-375,088	43,802	-0,113	0,074
-374,073	-151,626	0,152	0,008
-373,058	-162,946	0,091	-0,003
-372,044	93,435	-0,081	0,065
-371,029	-189,514	0,100	-0,001
-370,015	-21,609	0,050	-0,022
-369,000	-14,889	-0,099	-0,045
-367,985	199,494	-0,051	-0,056
-366,971	-3,661	-0,118	-0,058
-365,956	-200,000	0,031	-0,132
-364,942	800,000	-0,012	-0,027
-363,927	-107,845	0,110	0,017
-362,912	163,288	-0,114	-0,115
-361,898	-105,296	0,107	-0,017
-360,883	37,846	-0,109	0,069
-359,869	36,391	-0,094	-0,059
-358,854	-200,000	-0,029	-0,135
-357,839	800,000	-0,095	-0,242
-356,825	360,724	0,094	0,135
-355,810	-2,659	-0,100	0,050
-354,796	-161,346	-0,136	-0,005
-353,781	146,996	0,020	0,019
-352,766	-96,815	-0,081	-0,015
-351,752	-200,000	0,025	0,124
-350,737	-10,914	0,034	0,016
-349,723	-200,000	-0,020	0,103
-348,708	-200,000	0,037	-0,154
-347,693	-145,795	0,152	-0,010
-346,679	-200,000	-0,013	-0,048
-345,664	-200,000	0,006	-0,032
-344,650	-79,049	0,104	-0,025
-343,635	589,792	0,036	0,064
-342,620	258,542	-0,018	-0,023
-341,606	800,000	0,014	0,036
-340,591	-200,000	-0,022	0,174
-339,577	469,023	-0,051	0,083
-338,562	-103,677	-0,113	0,019
-337,548	-28,718	0,130	-0,053
-336,533	505,536	0,073	0,121
-335,518	5,011	0,040	0,021
-334,504	-94,384	0,103	-0,020
-333,489	313,192	-0,042	-0,056
-332,475	493,717	-0,081	-0,132
-331,460	-200,000	0,022	0,101
-330,445	-101,373	0,068	0,012
-329,431	-43,719	0,147	0,053
-328,416	-33,453	0,100	-0,039
-327,402	-200,000	-0,007	0,039
-326,387	-199,642	0,076	0,000
-325,372	392,188	0,073	-0,108
-324,358	23,669	-0,092	0,054
-323,343	163,089	-0,111	-0,112
-322,329	255,559	0,013	-0,016
-321,314	-108,260	0,108	-0,016
-320,299	-63,568	0,056	-0,016
-319,285	67,824	-0,055	0,040
-318,270	-200,000	-0,014	0,045
-317,256	-124,803	0,080	0,009
-316,241	-150,103	-0,059	-0,003
-315,226	-38,467	0,056	0,021
-314,212	143,738	-0,059	-0,056
-313,197	-10,651	0,114	-0,054
-312,183	-200,000	0,000	0,050
-311,168	74,877	-0,049	-0,036
-310,153	286,848	-0,059	-0,076
-309,139	800,000	0,027	0,060
-308,124	-59,538	0,062	0,019
-307,110	410,146	0,076	0,115
-306,095	-200,000	0,010	0,064
-305,080	90,925	0,060	0,048
-304,066	-97,177	-0,057	-0,011
-303,051	-49,462	0,078	0,026
-302,037	395,342	0,041	-0,061
-301,022	221,637	0,097	-0,111
-300,008	-42,272	0,167	0,060
-298,993	-174,838	0,093	0,002
-297,978	-200,000	0,013	0,129
-296,964	-11,922	-0,143	-0,067
-295,949	763,967	0,003	-0,006
-294,935	76,051	-0,062	-0,047
-293,920	-74,476	0,134	-0,034
-292,905	800,000	0,029	0,062
-291,891	-200,000	0,018	0,074
-290,876	492,089	0,113	0,185
-289,862	-19,544	-0,085	-0,037
-288,847	132,780	0,063	-0,058
-287,832	-76,977	-0,173	-0,043
-286,818	724,534	-0,028	0,054
-285,803	800,000	0,054	0,134
-284,789	86,284	0,094	0,073
-283,774	160,017	-0,094	0,093
-282,759	-200,000	0,004	0,039
-281,745	-200,000	0,006	0,028
-280,730	-130,551	-0,091	0,009
-279,716	-200,000	0,008	0,038
-278,701	-77,327	0,078	0,019
-277,686	205,818	0,080	0,089
-276,672	-200,000	0,004	0,032
-275,657	131,600	0,063	0,058
-274,643	279,641	0,021	-0,026
-273,628	-147,913	0,062	0,004
-272,613	-200,000	0,030	-0,136
-271,599	204,668	0,060	0,066
-270,584	143,078	0,075	-0,071
-269,570	-200,000	0,047	0,206
-268,555	-200,000	0,031	0,138
-267,540	-7,840	-0,057	-0,027
-266,526	5,801	0,044	-0,023
-265,511	-200,000	-0,016	-0,125
-264,497	-62,433	0,090	0,026
-263,482	107,205	0,033	0,027
-262,467	-200,000	0,010	-0,090
-261,453	-75,953	0,013	0,003
-260,438	472,449	0,083	-0,133
-259,424	800,000	-0,027	-0,063
-258,409	800,000	-0,021	0,059
-257,395	628,831	0,058	0,105
-256,380	-96,610	0,113	0,021
-255,365	-200,000	0,008	0,272
-254,351	-80,961	0,073	0,017
-253,336	-200,000	0,012	-0,087
-252,322	124,513	0,067	-0,060
-251,307	442,670	0,010	-0,016
-250,292	217,811	-0,051	0,058
-249,278	624,090	0,013	-0,023
-248,263	-200,000	0,005	-0,024
-247,249	-170,908	0,111	0,003
-246,234	7,506	-0,128	0,068
-245,219	-200,000	-0,007	-0,055
-244,205	-43,482	-0,133	-0,048
-243,190	135,338	0,057	0,052
-242,176	-52,769	0,122	0,040
-241,161	800,000	-0,027	-0,078
-240,146	132,892	0,050	0,046
-239,132	-120,009	-0,044	0,005
-238,117	-36,103	0,045	-0,017
-237,103	-13,289	0,040	0,018
-236,088	-10,013	-0,052	0,024
-235,073	-200,000	-0,003	0,036
-234,059	-200,000	-0,024	-0,083
-233,044	800,000	0,018	0,044
-232,030	309,486	0,042	-0,056
-231,015	-200,000	-0,022	-0,116
-230,000	66,913	0,053	-0,038
-228,986	73,440	0,068	-0,051
-227,971	146,472	0,087	-0,083
-226,957	111,969	-0,073	0,063
-225,942	446,639	0,052	0,081
-224,927	-45,712	-0,110	0,038
-223,913	510,408	-0,027	0,045
-222,898	-94,571	-0,072	0,014
-221,884	-45,046	-0,107	-0,038
-220,869	-107,201	0,114	-0,018
-219,855	239,391	-0,029	-0,034
-218,840	586,057	0,026	0,046
-217,825	800,000	0,031	0,090
-216,811	-200,000	0,016	-0,151
-215,796	-118,228	-0,115	-0,014
-214,782	718,686	-0,051	0,096
-213,767	141,087	0,135	-0,127
-212,752	800,000	0,011	-0,025
-211,738	800,000	-0,039	0,104
-210,723	800,000	-0,008	0,016
-209,709	-8,614	-0,166	-0,079
-208,694	-110,010	0,062	-0,009
-207,679	-77,630	0,196	-0,048
-206,665	323,498	0,027	-0,037
-205,650	-43,050	0,116	0,042
-204,636	-159,334	0,090	0,004
-203,621	800,000	-0,038	0,082
-202,606	800,000	0,057	-0,115
-201,592	-15,498	-0,076	-0,034
-200,577	375,406	-0,135	0,195
-199,563	231,812	0,083	-0,097
-198,548	148,144	0,078	-0,075
-197,533	-147,175	0,095	-0,006
-196,519	-95,945	0,059	-0,011
-195,504	-200,000	-0,002	-0,047
-194,490	-6,286	0,068	-0,033
-193,475	127,948	-0,083	0,075
-192,460	151,201	-0,030	0,029
-191,446	-82,230	-0,069	-0,016
-190,431	19,291	0,122	0,069
-189,417	-123,863	0,074	-0,008
-188,402	-200,000	0,033	-0,124
-187,387	8,071	-0,119	-0,063
-186,373	-69,081	0,094	-0,026
-185,358	-22,883	-0,086	0,037
-184,344	563,605	0,028	-0,048
-183,329	-200,000	-0,024	0,176
-182,315	78,194	0,048	0,036
-181,300	3,157	-0,100	0,051
-180,285	358,372	-0,040	-0,056
-179,271	-122,194	-0,179	-0,021
-178,256	170,219	0,031	0,032
-177,242	83,794	0,098	0,075
-176,227	800,000	0,014	-0,029
-175,212	724,198	0,037	0,071
-174,198	392,735	0,066	0,098
-173,183	392,288	-0,017	0,024
-172,169	800,000	-0,023	-0,055
-171,154	50,857	-0,078	-0,053
-170,139	800,000	0,029	0,080
-169,125	327,834	0,095	-0,129
-168,110	-125,665	0,093	-0,010
-167,096	-19,294	-0,161	0,070
-166,081	-200,000	0,001	-0,025
-165,066	-200,000	-0,021	-0,178
-164,052	513,011	-0,063	-0,105
-163,037	475,254	-0,055	0,089
-162,023	-96,374	0,054	-0,010
-161,008	251,443	0,088	0,106
-159,993	163,824	-0,019	-0,019
-158,979	800,000	0,014	-0,032
-157,964	-112,956	-0,180	-0,025
-156,950	-200,000	0,006	-0,059
-155,935	18,120	-0,092	-0,052
-154,920	-200,000	0,049	-0,215
-153,906	269,703	-0,051	-0,063
-152,891	447,975	-0,055	0,086
-151,877	196,738	0,054	-0,058
-150,862	140,256	-0,089	-0,083
-149,847	211,826	-0,073	-0,081
-148,833	157,006	0,137	-0,134
-147,818	237,999	-0,051	0,060
-146,804	267,607	-0,008	-0,010
-145,789	603,408	-0,036	0,064
-144,775	132,561	-0,062	-0,056
-143,760	-200,000	-0,010	-0,111
-142,745	5,660	-0,104	-0,054
-141,731	-36,559	0,092	0,035
-140,716	27,162	-0,056	-0,033
-139,702	143,422	-0,076	0,072
-138,687	734,928	0,063	0,120
-137,672	-200,000	-0,023	-0,076
-136,658	-200,000	-0,026	-0,099
-135,643	-1,078	-0,177	-0,088
-134,629	-200,000	0,029	-0,112
-133,614	411,123	0,049	-0,073
-132,599	800,000	0,019	-0,044
-131,585	-200,000	-0,004	0,029
-130,570	22,856	-0,063	0,036
-129,556	-17,004	-0,048	0,021
-128,541	-200,000	-0,010	-0,086
-127,526	298,745	-0,100	-0,130
-126,512	-42,702	0,116	-0,041
-125,497	610,952	0,120	0,213
-124,483	-200,000	0,002	0,139
-123,468	65,066	0,032	-0,023
-122,453	570,861	-0,036	0,062
-121,439	-200,000	-0,004	-0,049
-120,424	-148,438	0,043	0,002
-119,410	47,532	0,020	0,013
-118,395	125,566	0,117	0,105
-117,380	444,475	0,028	0,044
-116,366	800,000	0,020	0,060
-115,351	169,074	0,027	-0,027
-114,337	137,631	0,117	-0,108
-113,322	111,609	0,100	0,086
-112,307	285,169	-0,089	0,114
-111,293	-200,000	-0,005	0,048
-110,278	41,530	0,070	-0,045
-109,264	-200,000	-0,004	0,086
-108,249	800,000	-0,032	0,073
-107,234	785,316	0,028	0,055
-106,220	6,454	0,075	0,039
-105,205	-80,206	0,036	0,008
-104,191	-200,000	-0,009	0,078
-103,176	-200,000	0,009	0,085
-102,162	800,000	0,071	0,176
-101,147	270,404	-0,074	-0,092
-100,132	-104,722	0,036	0,006
-99,118	-83,307	-0,051	0,011
-98,103	-70,887	0,071	0,019
-97,089	147,765	0,013	-0,012
-96,074	-61,897	-0,043	0,013
-95,059	-72,598	0,024	0,006
-94,045	-130,270	-0,180	-0,017
-93,030	-48,012	0,042	-0,014
-92,016	-71,480	-0,021	-0,006
-91,001	284,145	0,076	0,097
-89,986	-74,520	0,086	-0,022
-88,972	-200,000	-0,038	0,144
-87,957	207,691	0,039	-0,043
-86,943	-104,014	-0,171	-0,028
-85,928	800,000	0,050	-0,102
-84,913	161,234	-0,122	-0,120
-83,899	249,934	0,086	-0,103
-82,884	-79,118	0,191	0,046
-81,870	193,631	-0,071	0,076
-80,855	5,425	0,199	-0,103
-79,840	-200,000	-0,022	-0,096
-78,826	198,733	0,014	0,015
-77,811	25,001	-0,059	-0,034
-76,797	-74,679	-0,028	0,007
-75,782	24,950	0,077	0,045
-74,767	-200,000	0,014	0,155
-73,753	-54,538	0,043	0,014
-72,738	263,635	-0,039	0,048
-71,724	800,000	-0,023	0,067
-70,709	-25,757	-0,117	0,049
-69,694	-200,000	-0,003	0,017
-68,680	-200,000	0,009	-0,155
-67,665	59,144	0,027	-0,019
-66,651	-200,000	0,006	0,066
-65,636	28,301	0,040	0,024
-64,622	157,617	-0,060	-0,059
-63,607	-2,625	-0,077	0,038
-62,592	-7,786	0,052	-0,025
-61,578	48,898	-0,139	-0,092
-60,563	800,000	0,061	0,155
-59,549	800,000	-0,005	0,014
-58,534	50,721	-2,169	-1,447
-57,519	487,827	-1,063	-1,719
-56,505	-200,000	-0,424	-4,625
-55,490	566,131	0,970	1,667
-54,476	800,000	5,320	11,690
-53,461	-200,000	22,455	347,276
-52,446	800,000	756,965	2289,755
-51,432	532,206	1642,514	2752,036
-50,417	67,683	1641,312	1181,503
-49,403	15,554	1518,825	839,233
-48,388	9,792	1445,062	770,819
-47,373	19,311	1437,928	812,313
-46,359	13,329	1426,382	777,547
-45,344	8,152	1422,357	750,852
-44,330	8,061	1420,336	749,324
-43,315	8,002	1418,712	748,159
-42,300	8,035	1416,747	747,251
-41,286	8,072	1415,464	746,717
-40,271	8,015	1414,424	745,871
-39,257	8,080	1412,894	745,343
-38,242	8,087	1411,951	744,846
-37,227	8,043	1410,884	744,050
-36,213	8,019	1409,796	743,333
-35,198	8,062	1408,440	742,788
-34,184	8,051	1407,600	742,266
-33,169	7,953	1406,387	741,137
-32,154	7,996	1405,554	740,870
-31,140	8,038	1403,993	740,213
-30,125	8,006	1402,906	739,463
-29,111	8,047	1401,571	738,921
-28,096	8,021	1400,652	738,287
-27,082	8,001	1399,366	737,485
-26,067	7,939	1398,292	736,602
-25,052	7,950	1397,209	736,052
-24,038	7,976	1396,179	735,599
-23,023	7,921	1395,491	734,953
-22,009	7,944	1394,336	734,425
-20,994	7,965	1393,260	733,925
-19,979	7,943	1392,239	733,256
-18,965	7,896	1391,590	732,669
-17,950	7,896	1390,438	732,032
-16,936	7,879	1389,517	731,441
-15,921	7,834	1388,673	730,758
-14,906	7,872	1387,748	730,420
-13,892	7,925	1386,605	730,031
-12,877	7,897	1385,921	729,516
-11,863	7,838	1385,366	728,921
-10,848	7,868	1384,377	728,512
-9,833	7,829	1383,319	727,744
-8,819	7,775	1382,596	727,085
-7,804	7,773	1381,511	726,478
-6,790	7,818	1380,513	726,134
-5,775	7,751	1379,547	725,288
-4,760	7,792	1378,448	724,870
-3,746	7,804	1377,465	724,376
-2,731	7,830	1376,846	724,143
-1,717	7,793	1375,914	723,452
-0,702	7,774	1374,185	722,431
0,313	11,693	1284,435	693,007
1,327	27,382	676,143	399,720
2,342	42,679	116,102	74,380
3,356	-0,626	16,520	8,232
4,371	1,139	3,821	1,926
5,386	-10,865	1,398	0,648
6,400	800,000	0,235	0,612
7,415	131,780	-0,170	-0,154
8,429	-28,000	-0,102	-0,042
9,444	186,532	-0,230	-0,242
10,459	-72,725	-0,352	-0,091
11,473	-3,401	-0,265	-0,130
12,488	198,393	-0,176	-0,190
13,502	-114,768	-0,236	-0,031
14,517	375,736	-0,148	-0,213
15,531	170,802	-0,342	-0,346
16,546	75,746	-0,322	-0,239
17,561	104,784	-0,426	-0,353
18,575	-113,694	-0,077	0,010
19,590	387,293	-0,115	-0,168
20,604	-96,454	-0,215	-0,040
21,619	141,912	-0,507	-0,473
22,634	103,894	-0,413	-0,341
23,648	159,530	-0,403	-0,395
24,663	109,550	-0,367	-0,309
25,677	40,472	-0,341	-0,216
26,692	7,127	-0,350	-0,183
27,707	-78,492	-0,334	-0,080
28,721	564,400	-0,174	-0,298
29,736	108,085	-0,353	-0,296
30,750	151,752	-0,401	-0,385
31,765	191,215	-0,275	-0,291
32,780	47,179	-0,392	-0,256
33,794	-15,572	-0,434	-0,194
34,809	175,712	-0,337	-0,344
35,823	-19,205	-0,330	-0,143
36,838	57,130	-0,376	-0,258
37,853	579,003	-0,184	-0,318
38,867	-84,214	-0,500	-0,110
39,882	295,451	-0,196	-0,252
40,896	47,707	-0,316	-0,207
41,911	79,909	-0,274	-0,206
42,926	108,497	-0,386	-0,323
43,940	405,260	-0,228	-0,339
44,955	151,481	-0,414	-0,396
45,969	26,792	-0,311	-0,182
46,984	122,465	-0,315	-0,276
47,999	172,854	-0,280	-0,283
49,013	436,976	-0,196	-0,301
50,028	0,635	-0,362	-0,181
51,042	95,137	-0,358	-0,286
52,057	5,386	-0,393	-0,203
53,071	24,211	-0,378	-0,218
54,086	15,017	-0,321	-0,176
55,101	311,136	-0,244	-0,322
56,115	-121,683	-0,269	-0,031
57,130	-37,657	-0,370	-0,137
58,144	8,939	-0,387	-0,204
59,159	86,408	-0,375	-0,290
60,174	89,613	-0,254	-0,199
61,188	-20,394	-0,334	-0,144
62,203	111,366	-0,165	-0,139
63,217	151,025	-0,340	-0,324
64,232	-147,012	-0,356	-0,021
65,247	212,842	-0,288	-0,319
66,261	124,403	-0,224	-0,197
67,276	-3,904	-0,345	-0,167
68,290	79,718	-0,356	-0,268
69,305	141,242	-0,307	-0,284
70,320	76,664	-0,206	-0,153
71,334	73,824	-0,296	-0,218
72,349	-56,219	-0,337	-0,104
73,363	109,901	-0,306	-0,257
74,378	112,058	-0,333	-0,282
75,393	76,043	-0,282	-0,209
76,407	99,233	-0,175	-0,142
77,422	-134,502	-0,176	0,015
78,436	184,988	-0,283	-0,294
79,451	322,017	-0,164	-0,219
80,466	150,126	-0,330	-0,313
81,480	59,443	-0,283	-0,195
82,495	-73,003	-0,401	-0,102
83,509	-61,914	-0,170	-0,049
84,524	10,388	-0,312	-0,166
85,539	117,959	-0,249	-0,215
86,553	-119,700	-0,385	-0,046
87,568	-94,205	-0,234	-0,044
88,582	213,471	-0,305	-0,338
89,597	48,154	-0,321	-0,210
90,611	11,563	-0,239	-0,128
91,626	-126,254	-0,253	-0,026
92,641	65,051	-0,238	-0,168
93,655	146,050	-0,237	-0,223
94,670	322,703	-0,200	-0,267
95,684	-8,453	-0,224	-0,105
96,699	22,755	-0,347	-0,198
97,714	-1,477	-0,309	-0,152
98,728	47,123	-0,266	-0,173
99,743	-1,173	-0,199	-0,098
100,757	36,106	-0,251	-0,154
101,772	-24,493	-0,285	-0,118
102,787	238,877	-0,205	-0,239
103,801	226,780	-0,197	-0,224
104,816	-48,444	-0,254	-0,085
105,830	-20,460	-0,237	-0,101
106,845	3,876	-0,238	-0,121
107,860	569,203	-0,140	-0,239
108,874	107,079	-0,277	-0,230
109,889	274,771	-0,174	-0,216
110,903	-61,185	-0,203	-0,059
111,918	0,187	-0,240	-0,119
112,933	-58,810	-0,264	-0,079
113,947	-51,123	-0,097	0,032
114,962	-49,431	-0,206	-0,068
115,976	25,678	-0,285	-0,165
116,991	82,116	-0,186	-0,141
118,006	7,348	-0,326	-0,170
119,020	141,000	-0,145	-0,133
120,035	-17,681	-0,268	-0,117
121,049	241,962	-0,243	-0,284
122,064	101,365	-0,228	-0,185
123,079	509,801	-0,132	-0,215
124,093	225,325	-0,187	-0,211
125,108	146,170	-0,204	-0,191
126,122	-18,842	-0,371	-0,160
127,137	-46,366	-0,209	-0,071
128,151	-101,221	-0,326	-0,055
129,166	375,450	-0,118	-0,168
130,181	46,855	-0,196	-0,127
131,195	-64,980	-0,177	-0,049
132,210	-29,075	-0,325	-0,130
133,224	-16,186	-0,286	-0,126
134,239	193,153	-0,157	-0,165
135,254	163,068	-0,175	-0,172
136,268	44,381	-0,137	-0,087
137,283	-91,334	-0,194	-0,038
138,297	460,655	-0,155	-0,241
139,312	56,280	-0,315	-0,213
140,327	616,322	-0,177	-0,311
141,341	-200,000	-0,013	-0,156
142,356	800,000	-0,123	-0,329
143,370	130,491	-0,229	-0,204
144,385	-81,822	-0,213	0,048
145,400	131,210	-0,275	-0,246
146,414	199,047	-0,138	-0,147
147,429	-22,027	-0,220	-0,093
148,443	87,662	-0,147	-0,113
149,458	800,000	-0,062	-0,183
150,473	800,000	-0,069	-0,200
151,487	2,696	-0,182	-0,091
152,502	73,367	-0,196	-0,143
153,516	12,108	-0,208	-0,111
154,531	148,781	-0,198	-0,186
155,546	-105,347	-0,196	-0,031
156,560	135,947	-0,206	-0,187
157,575	215,706	-0,149	-0,164
158,589	-150,384	-0,270	-0,014
159,604	6,481	-0,145	-0,075
160,619	14,876	-0,298	-0,161
161,633	117,707	-0,184	-0,157
162,648	112,612	-0,209	-0,176
163,662	-21,479	-0,127	-0,054
164,677	-72,136	-0,190	-0,049
165,692	17,071	-0,169	-0,093
166,706	140,034	-0,221	-0,203
167,721	170,761	-0,231	-0,230
168,735	55,494	-0,188	-0,127
169,750	52,058	-0,253	-0,167
170,764	-28,554	-0,314	-0,125
171,779	184,796	-0,272	-0,280
172,794	208,906	-0,235	-0,256
173,808	-154,215	-0,206	0,009
174,823	-44,961	-0,175	-0,060
175,837	800,000	-0,102	-0,274
176,852	800,000	-0,091	-0,179
177,867	134,455	-0,166	-0,150
178,881	29,079	-0,210	-0,124
179,896	46,093	-0,184	-0,118
180,910	-142,538	-0,225	-0,015
181,925	-62,024	-0,312	-0,090
182,940	125,351	-0,202	-0,177
183,954	800,000	-0,072	-0,154
184,969	-23,058	-0,156	-0,065
185,983	-36,850	-0,144	-0,053
186,998	-140,942	-0,261	0,018
188,013	6,654	-0,146	-0,075
189,027	81,026	-0,157	-0,117
190,042	11,888	-0,254	-0,135
191,056	-33,240	-0,184	-0,070
192,071	648,099	-0,109	-0,194
193,086	-135,962	-0,195	-0,016
194,100	-44,331	-0,216	-0,075
195,115	-75,106	-0,232	-0,057
196,129	450,555	-0,242	-0,371
197,144	132,372	-0,233	-0,208
198,159	39,841	-0,211	-0,131
199,173	-21,868	-0,177	-0,074
200,188	192,867	-0,201	-0,210
201,202	3,096	-0,286	-0,144
202,217	11,022	-0,276	-0,146
203,232	699,027	-0,150	-0,274
204,246	30,166	-0,267	-0,158
205,261	369,232	-0,156	-0,219
206,275	-26,103	-0,280	-0,113
207,290	94,131	-0,167	-0,131
208,304	189,515	-0,114	-0,119
209,319	-19,389	-0,151	-0,065
210,334	-146,971	-0,120	-0,007
211,348	192,422	-0,176	-0,184
212,363	264,775	-0,152	-0,183
213,377	-168,037	-0,182	0,005
214,392	110,313	-0,168	-0,140
215,407	111,887	-0,136	-0,113
216,421	-146,765	-0,081	-0,005
217,436	316,966	-0,223	-0,292
218,450	39,831	-0,240	-0,149
219,465	800,000	-0,122	-0,286
220,480	189,916	-0,120	-0,125
221,494	112,969	-0,070	0,058
222,509	326,684	-0,165	-0,218
223,523	196,440	-0,198	-0,208
224,538	52,293	-0,205	-0,135
225,553	343,385	-0,129	-0,176
226,567	-8,924	-0,229	-0,106
227,582	-37,442	-0,105	-0,038
228,596	27,924	-0,198	-0,115
229,611	-56,161	-0,133	0,041
230,626	7,518	-0,078	-0,040
231,640	29,465	-0,246	-0,144
232,655	257,584	-0,187	-0,222
233,669	800,000	-0,149	-0,362
234,684	139,110	-0,169	-0,154
235,699	71,979	-0,188	-0,135
236,713	-200,000	0,005	-0,115
237,728	190,219	-0,123	-0,128
238,742	283,950	-0,229	-0,284
239,757	346,486	-0,234	-0,319
240,772	69,425	-0,190	-0,135
241,786	213,450	-0,170	-0,186
242,801	800,000	-0,095	-0,225
243,815	-108,555	-0,189	0,028
244,830	333,988	-0,105	-0,140
245,844	40,669	-0,161	-0,100
246,859	107,654	-0,178	-0,146
247,874	800,000	-0,063	-0,166
248,888	36,177	-0,155	-0,094
249,903	-200,000	-0,015	-0,124
250,917	800,000	-0,021	-0,051
251,932	11,167	-0,172	-0,090
252,947	487,693	-0,119	-0,188
253,961	168,340	-0,225	-0,221
254,976	81,989	-0,252	-0,188
255,990	222,032	-0,193	-0,215
257,005	800,000	-0,076	-0,191
258,020	-9,965	-0,155	-0,071
259,034	352,299	-0,116	-0,158
260,049	-68,243	-0,241	-0,064
261,063	166,053	-0,110	-0,108
262,078	234,363	-0,134	-0,153
263,093	111,146	-0,164	-0,136
264,107	39,148	-0,261	-0,161
265,122	-1,401	-0,212	-0,103
266,136	24,627	-0,226	-0,128
267,151	-138,341	-0,140	0,010
268,166	800,000	-0,097	-0,187
269,180	49,222	-0,333	-0,215
270,195	135,250	-0,097	-0,087
271,209	800,000	-0,091	-0,254
272,224	33,694	-0,299	-0,178
273,239	-88,538	-0,176	0,036
274,253	800,000	-0,034	-0,078
275,268	52,808	-0,168	-0,110
276,282	24,509	-0,202	-0,115
277,297	-39,257	-0,175	-0,063
278,312	800,000	-0,098	-0,220
279,326	353,788	-0,116	-0,159
280,341	-25,417	-0,292	-0,118
281,355	-115,349	-0,263	-0,034
282,370	-104,710	-0,128	-0,020
283,384	166,849	-0,116	-0,114
284,399	-32,063	-0,165	-0,063
285,414	153,033	-0,084	-0,079
286,428	265,699	-0,130	-0,156
287,443	67,103	-0,115	-0,080
288,457	41,507	-0,232	-0,144
289,472	-132,944	-0,249	-0,022
290,487	-134,892	-0,093	0,008
291,501	286,789	-0,178	-0,222
292,516	187,463	-0,125	-0,128
293,530	723,903	-0,106	-0,194
294,545	335,965	-0,088	-0,118
295,560	230,904	-0,123	-0,139
296,574	800,000	-0,088	-0,212
297,589	144,650	-0,100	-0,091
298,603	86,753	-0,166	-0,126
299,618	-70,599	-0,163	-0,042
300,633	784,921	-0,085	-0,161
301,647	48,593	-0,086	-0,055
302,662	-27,460	-0,195	-0,078
303,676	551,849	-0,135	-0,224
304,691	10,548	-0,196	-0,102
305,706	81,283	-0,251	-0,186
306,720	54,195	-0,096	-0,063
307,735	215,794	-0,089	-0,098
308,749	-81,057	-0,099	-0,022
309,764	117,688	-0,159	-0,135
310,779	800,000	-0,150	-0,315
311,793	-85,375	-0,122	0,026
312,808	800,000	-0,081	-0,217
313,822	17,949	-0,204	-0,111
314,837	-106,975	-0,190	-0,029
315,852	14,612	-0,125	0,067
316,866	-81,254	-0,126	-0,028
317,881	142,197	-0,207	-0,188
318,895	74,012	-0,102	-0,073
319,910	196,322	-0,164	-0,172
320,925	19,280	-0,283	-0,155
321,939	522,635	-0,072	-0,116
322,954	378,441	-0,093	-0,130
323,968	-149,612	-0,096	-0,005
324,983	-64,498	-0,198	-0,055
325,997	359,222	-0,149	-0,205
327,012	157,885	-0,134	-0,127
328,027	282,111	-0,148	-0,182
329,041	214,189	-0,106	-0,115
330,056	800,000	-0,052	-0,114
331,070	-142,850	-0,192	0,013
332,085	-99,994	-0,144	-0,024
333,100	-46,377	-0,176	-0,059
334,114	4,814	-0,195	-0,098
335,129	-105,401	-0,206	-0,032
336,143	-200,000	0,027	-0,190
337,158	173,118	-0,068	-0,067
338,173	109,745	-0,043	-0,035
339,187	-7,919	-0,163	-0,075
340,202	182,761	-0,159	-0,161
341,216	128,934	-0,114	-0,099
342,231	162,527	-0,152	-0,146
343,246	-66,052	-0,076	0,021
344,260	327,570	-0,050	-0,065
345,275	443,079	-0,058	-0,088
346,289	99,931	-0,124	-0,098
347,304	248,244	-0,102	-0,118
348,319	133,353	-0,163	-0,144
349,333	192,193	-0,097	-0,100
350,348	-48,339	-0,169	-0,055
351,362	544,816	-0,174	-0,286
352,377	-3,338	-0,107	-0,051
353,392	800,000	-0,034	-0,065
354,406	19,674	-0,126	-0,069
355,421	206,639	1309,324	1395,585
356,435	158,927	1469,321	1396,018
