DTS Sentinel unit serial number:	SN410029Multiplexer serial number:	ORYXHardware model number:	OX2-SRSoftware version number:	ORYX F/W v4,00 Oryx Data Collector v3.7.2.0data status	okinstallation	B3 Nyhavnadifferential loss correction	single-endedforward channel	channel 1reverse channel	N/Adate	2023/11/30time	06:02:30forward acquisition time	300,00reverse acquisition time	0,00gamma	499,1914k internal	0,3211k external	0,3211temperature offset calibration	1,0000default loss term (dB/km)	0,3820temperature slope calibration	1,0000multiplexer offset coefficient	1,0000multiplexer slope coefficient	1,0000fibre end	0,00T internal ref (°C)	10,28T ext. ref 1 (°C)	-4,93T ext. ref 2 (°C)	-5,03length (m)	temperature (°C)	Stokes	anti-Stokes-744,400	447,486	-0,096	-0,153
-743,385	-200,000	-0,077	0,318
-742,371	450,644	-0,137	-0,221
-741,356	-200,000	0,033	0,275
-740,342	198,072	-0,116	-0,129
-739,327	409,475	0,137	0,211
-738,312	140,255	-0,356	-0,341
-737,298	-200,000	0,023	0,200
-736,283	61,506	-0,347	-0,250
-735,269	800,000	0,143	0,313
-734,254	800,000	-0,082	-0,217
-733,239	-34,879	-0,141	-0,056
-732,225	800,000	-0,062	-0,167
-731,210	41,802	0,172	0,113
-730,196	-67,296	-0,138	0,039
-729,181	-98,045	-0,142	0,026
-728,167	417,568	0,066	-0,102
-727,152	-137,981	-0,094	-0,007
-726,137	-179,299	-0,129	0,002
-725,123	-200,000	0,011	-0,046
-724,108	-200,000	-0,002	-0,061
-723,094	-200,000	-0,080	-0,273
-722,079	393,588	-0,025	0,038
-721,064	-95,823	0,026	-0,005
-720,050	114,359	0,019	-0,016
-719,035	82,994	-0,051	-0,040
-718,021	800,000	0,016	-0,041
-717,006	-200,000	-0,040	-0,129
-715,991	-54,257	-0,048	-0,016
-714,977	800,000	-0,052	-0,114
-713,962	729,767	0,075	-0,145
-712,948	73,749	0,081	0,061
-711,933	800,000	0,032	-0,075
-710,918	10,135	0,059	0,033
-709,904	23,541	-0,053	-0,032
-708,889	23,607	-0,076	-0,045
-707,875	43,538	-0,120	-0,079
-706,860	-200,000	-0,002	0,119
-705,845	-9,845	0,052	0,025
-704,831	717,589	-0,026	0,050
-703,816	112,308	-0,063	-0,055
-702,802	53,643	-0,075	0,052
-701,787	-200,000	0,003	-0,080
-700,772	38,248	-0,176	-0,113
-699,758	248,455	0,044	-0,053
-698,743	-200,000	0,031	-0,102
-697,729	-200,000	0,008	0,033
-696,714	800,000	-0,047	-0,114
-695,699	726,955	-0,039	-0,075
-694,685	-200,000	0,035	-0,189
-693,670	-111,200	-0,050	-0,007
-692,656	-200,000	0,023	-0,120
-691,641	800,000	-0,041	0,094
-690,627	166,390	-0,055	-0,056
-689,612	27,210	0,123	0,075
-688,597	152,165	-0,086	-0,085
-687,583	800,000	-0,094	-0,199
-686,568	-184,281	0,111	0,001
-685,554	-200,000	0,015	-0,158
-684,539	800,000	-0,085	0,190
-683,524	-53,867	-0,055	0,018
-682,510	138,849	0,093	0,088
-681,495	39,364	-0,070	-0,045
-680,481	-30,210	0,079	-0,032
-679,466	-105,169	-0,037	0,006
-678,451	10,327	-0,060	-0,033
-677,437	-200,000	-0,028	-0,149
-676,422	800,000	0,029	0,070
-675,408	-200,000	0,013	-0,054
-674,393	800,000	0,018	0,047
-673,378	95,945	-0,099	0,082
-672,364	57,335	0,114	-0,081
-671,349	-200,000	0,003	-0,038
-670,335	561,347	-0,114	-0,200
-669,320	12,615	-0,058	-0,033
-668,305	-51,054	-0,031	-0,010
-667,291	-107,712	-0,117	0,018
-666,276	-112,459	-0,166	0,024
-665,262	-2,990	-0,201	-0,101
-664,247	664,395	-0,032	0,060
-663,232	627,071	-0,061	0,112
-662,218	34,081	-0,053	0,034
-661,203	800,000	0,061	0,127
-660,189	800,000	-0,019	0,058
-659,174	5,677	-0,098	-0,052
-658,159	800,000	-0,020	0,050
-657,145	371,127	-0,067	-0,098
-656,130	-200,000	-0,018	0,079
-655,116	10,362	-0,070	0,038
-654,101	-76,781	-0,102	0,026
-653,086	300,154	-0,018	-0,024
-652,072	-25,065	0,094	-0,040
-651,057	-200,000	0,013	-0,045
-650,043	-95,269	0,024	-0,005
-649,028	800,000	-0,038	-0,111
-648,014	-34,656	0,009	0,003
-646,999	800,000	0,008	0,020
-645,984	702,538	0,058	0,112
-644,970	800,000	-0,036	-0,090
-643,955	278,343	-0,090	-0,116
-642,941	32,459	-0,074	-0,046
-641,926	-100,344	0,135	-0,024
-640,911	-82,231	-0,024	0,006
-639,897	-200,000	-0,005	0,146
-638,882	-200,000	0,020	0,078
-637,868	-39,948	0,073	-0,028
-636,853	-200,000	-0,011	-0,083
-635,838	-72,573	-0,194	-0,051
-634,824	800,000	-0,036	0,086
-633,809	-113,651	0,058	-0,008
-632,795	29,033	-0,043	0,026
-631,780	800,000	0,080	0,221
-630,765	-47,890	-0,085	0,030
-629,751	-200,000	-0,029	-0,121
-628,736	561,176	0,043	-0,076
-627,722	47,274	-0,052	0,035
-626,707	52,304	0,175	0,120
-625,692	84,465	0,074	0,058
-624,678	-200,000	0,000	-0,096
-623,663	637,810	0,040	0,074
-622,649	180,597	-0,027	-0,028
-621,634	-82,400	-0,067	0,016
-620,619	443,193	-0,037	-0,059
-619,605	800,000	0,026	0,053
-618,590	196,966	0,111	-0,122
-617,576	-157,700	0,115	0,005
-616,561	-200,000	-0,019	-0,118
-615,546	611,807	-0,065	-0,117
-614,532	-72,917	-0,146	-0,038
-613,517	469,102	0,109	-0,177
-612,503	-42,382	0,048	-0,017
-611,488	-200,000	0,008	0,081
-610,474	1,120	-0,118	0,061
-609,459	568,701	0,045	0,079
-608,444	416,439	-0,092	-0,142
-607,430	-200,000	-0,003	-0,017
-606,415	-200,000	-0,022	0,072
-605,401	9,443	0,052	0,028
-604,386	-42,343	0,094	0,034
-603,371	412,269	0,099	-0,153
-602,357	-200,000	-0,025	0,147
-601,342	-67,130	-0,088	0,025
-600,328	53,674	-0,090	0,062
-599,313	-200,000	0,019	0,129
-598,298	-200,000	0,010	-0,108
-597,284	-200,000	0,005	0,065
-596,269	800,000	-0,026	-0,052
-595,255	7,069	-0,063	0,034
-594,240	28,071	-0,054	0,032
-593,225	613,631	-0,065	-0,119
-592,211	800,000	0,043	0,094
-591,196	212,694	0,059	0,067
-590,182	-162,665	-0,071	0,002
-589,167	136,406	0,053	0,050
-588,152	-139,108	-0,036	0,003
-587,138	367,506	0,008	0,012
-586,123	800,000	0,037	-0,085
-585,109	11,455	-0,103	-0,056
-584,094	-98,357	-0,057	0,010
-583,079	800,000	0,057	0,181
-582,065	-101,400	0,046	-0,008
-581,050	154,382	-0,113	0,112
-580,036	107,181	0,001	-0,001
-579,021	-200,000	-0,007	-0,078
-578,006	-180,104	-0,157	0,002
-576,992	-200,000	-0,011	-0,054
-575,977	786,296	0,040	0,080
-574,963	-200,000	0,013	0,041
-573,948	800,000	0,007	0,020
-572,934	536,289	-0,064	0,109
-571,919	322,786	0,042	0,058
-570,904	-136,213	0,114	-0,010
-569,890	-200,000	0,011	-0,090
-568,875	19,738	0,200	0,115
-567,861	62,655	0,056	-0,040
-566,846	-200,000	-0,032	0,116
-565,831	448,753	-0,034	-0,054
-564,817	365,195	-0,043	-0,062
-563,802	183,848	-0,097	-0,104
-562,788	-200,000	0,010	-0,053
-561,773	547,835	0,009	-0,016
-560,758	-200,000	0,011	0,053
-559,744	-97,640	-0,106	0,020
-558,729	224,826	0,060	-0,069
-557,715	185,337	-0,125	0,134
-556,700	-104,051	-0,135	0,022
-555,685	222,181	-0,113	-0,131
-554,671	41,938	0,060	0,039
-553,656	15,178	0,052	0,029
-552,642	-200,000	-0,023	-0,110
-551,627	-200,000	0,024	0,270
-550,612	-19,835	-0,144	0,064
-549,598	-200,000	-0,004	-0,120
-548,583	-143,027	0,058	0,004
-547,569	-200,000	0,010	-0,079
-546,554	-62,546	0,137	0,041
-545,539	-200,000	-0,022	0,095
-544,525	-95,800	-0,071	0,014
-543,510	246,260	-0,060	-0,073
-542,496	716,541	-0,068	-0,130
-541,481	-200,000	0,011	-0,138
-540,466	-24,249	-0,111	-0,047
-539,452	-115,742	-0,085	-0,011
-538,437	247,858	0,011	-0,014
-537,423	-200,000	0,006	0,025
-536,408	-152,348	0,034	0,002
-535,393	42,490	-0,133	-0,087
-534,379	-85,554	0,083	-0,018
-533,364	479,014	-0,031	-0,051
-532,350	149,364	0,089	0,087
-531,335	-200,000	0,002	0,114
-530,321	-73,834	-0,063	0,016
-529,306	-39,109	0,032	0,012
-528,291	360,589	0,007	-0,011
-527,277	-200,000	0,021	0,073
-526,262	-16,808	-0,110	0,050
-525,248	-200,000	-0,003	-0,069
-524,233	154,877	0,081	0,080
-523,218	354,829	-0,114	0,163
-522,204	40,788	0,030	-0,020
-521,189	3,994	-0,036	0,019
-520,175	-10,766	-0,038	0,018
-519,160	61,561	-0,027	-0,019
-518,145	-162,388	-0,065	0,002
-517,131	654,060	0,032	0,060
-516,116	800,000	0,018	-0,041
-515,102	-200,000	-0,024	0,118
-514,087	165,362	-0,048	-0,049
-513,072	-200,000	0,001	0,008
-512,058	393,536	0,012	0,018
-511,043	-140,917	0,029	0,002
-510,029	-200,000	0,013	0,046
-509,014	-76,250	0,141	0,035
-507,999	-75,616	-0,185	-0,047
-506,985	-200,000	-0,006	0,027
-505,970	25,626	-0,090	-0,054
-504,956	800,000	0,032	-0,074
-503,941	800,000	0,018	-0,056
-502,926	-200,000	-0,010	0,094
-501,912	-72,170	0,137	-0,036
-500,897	111,868	-0,055	-0,048
-499,883	-122,132	-0,101	0,012
-498,868	87,203	-0,092	-0,073
-497,853	433,541	-0,026	0,040
-496,839	-129,716	-0,035	0,003
-495,824	102,317	0,075	0,063
-494,810	-200,000	-0,021	0,243
-493,795	427,999	-0,041	0,064
-492,781	-200,000	0,006	-0,051
-491,766	57,442	0,056	0,039
-490,751	-146,364	-0,134	0,008
-489,737	-200,000	-0,010	0,101
-488,722	-200,000	0,016	0,075
-487,708	-200,000	0,018	0,171
-486,693	232,732	0,055	0,065
-485,678	499,058	-0,102	-0,170
-484,664	-61,899	-0,177	-0,053
-483,649	203,048	-0,129	-0,143
-482,635	411,509	0,028	-0,043
-481,620	231,329	-0,032	-0,037
-480,605	-145,613	0,204	-0,013
-479,591	-57,046	0,070	0,022
-478,576	-71,475	-0,077	0,020
-477,562	-200,000	-0,018	-0,059
-476,547	741,612	-0,033	0,064
-475,532	-164,872	0,044	0,001
-474,518	88,603	0,012	-0,009
-473,503	-12,188	0,096	0,045
-472,489	-13,454	-0,081	0,038
-471,474	18,606	-0,113	0,065
-470,459	800,000	0,031	-0,089
-469,445	-91,213	-0,112	-0,023
-468,430	7,800	0,139	-0,074
-467,416	-57,644	0,054	0,017
-466,401	800,000	0,012	0,025
-465,386	-102,255	0,111	0,019
-464,372	-200,000	-0,010	0,062
-463,357	-136,790	-0,038	0,003
-462,343	-69,310	-0,073	-0,020
-461,328	469,823	0,008	0,013
-460,313	-101,768	-0,107	0,018
-459,299	800,000	0,012	0,024
-458,284	-69,885	0,089	0,024
-457,270	-200,000	0,030	-0,102
-456,255	-200,000	0,022	0,198
-455,241	-200,000	-0,007	-0,137
-454,226	224,692	-0,045	-0,053
-453,211	-9,656	0,093	0,044
-452,197	623,806	-0,047	0,086
-451,182	800,000	-0,015	0,045
-450,168	-200,000	0,029	-0,096
-449,153	-117,247	-0,164	-0,021
-448,138	401,288	0,022	-0,034
-447,124	-200,000	-0,003	-0,075
-446,109	312,859	-0,067	-0,090
-445,095	216,189	0,051	0,058
-444,080	-2,367	0,057	0,029
-443,065	800,000	0,012	-0,025
-442,051	747,332	-0,078	-0,152
-441,036	-200,000	0,004	-0,140
-440,022	-200,000	0,022	-0,103
-439,007	-46,526	0,015	-0,005
-437,992	-47,907	0,045	-0,015
-436,978	91,727	-0,088	0,071
-435,963	-8,660	-0,148	0,071
-434,949	175,241	-0,017	0,018
-433,934	800,000	-0,056	-0,146
-432,919	-129,618	0,045	-0,004
-431,905	-62,436	-0,025	-0,007
-430,890	-200,000	0,021	0,106
-429,876	560,836	0,097	-0,168
-428,861	86,295	0,059	0,047
-427,846	-43,968	-0,065	0,023
-426,832	-200,000	-0,016	-0,060
-425,817	-13,200	-0,099	-0,046
-424,803	-200,000	-0,001	0,015
-423,788	60,095	0,105	0,074
-422,773	-200,000	-0,008	0,069
-421,759	800,000	0,036	0,102
-420,744	216,186	0,028	0,031
-419,730	-200,000	0,000	-0,012
-418,715	53,166	-0,169	-0,116
-417,701	82,235	0,139	-0,108
-416,686	0,070	0,138	-0,070
-415,671	-73,862	-0,044	0,011
-414,657	-200,000	0,031	-0,141
-413,642	-60,352	-0,048	-0,014
-412,628	532,293	-0,047	0,080
-411,613	800,000	-0,024	-0,055
-410,598	-91,264	-0,042	0,009
-409,584	-165,451	-0,073	0,002
-408,569	3,044	0,081	0,042
-407,555	755,491	0,058	0,112
-406,540	-98,195	0,084	0,015
-405,525	120,939	-0,055	-0,049
-404,511	779,785	0,034	0,067
-403,496	-200,000	-0,001	0,017
-402,482	-98,313	0,058	-0,011
-401,467	51,656	0,079	0,054
-400,452	156,638	0,032	0,032
-399,438	-200,000	-0,006	-0,089
-398,423	-13,940	0,110	0,050
-397,409	-200,000	0,006	-0,100
-396,394	61,494	-0,102	-0,073
-395,379	165,686	-0,036	0,037
-394,365	800,000	0,016	-0,046
-393,350	-66,784	-0,049	-0,014
-392,336	-137,314	0,030	-0,002
-391,321	-200,000	0,002	-0,024
-390,306	299,810	0,042	0,056
-389,292	-200,000	0,003	0,038
-388,277	170,614	0,025	-0,025
-387,263	800,000	0,033	0,091
-386,248	445,238	0,085	-0,134
-385,233	232,889	-0,044	-0,052
-384,219	800,000	0,049	-0,113
-383,204	224,825	-0,058	-0,067
-382,190	-86,859	0,152	-0,033
-381,175	143,112	0,029	-0,028
-380,160	-81,222	0,127	-0,030
-379,146	800,000	-0,043	0,092
-378,131	-67,527	0,086	-0,024
-377,117	-46,868	-0,125	-0,043
-376,102	-83,403	-0,078	-0,018
-375,088	800,000	0,081	-0,194
-374,073	-200,000	-0,034	-0,115
-373,058	-94,391	0,062	0,012
-372,044	-200,000	-0,026	0,108
-371,029	7,979	0,127	0,068
-370,015	-200,000	0,022	0,102
-369,000	129,841	-0,019	-0,017
-367,985	800,000	-0,042	-0,108
-366,971	-153,292	-0,228	-0,011
-365,956	-28,968	0,103	0,042
-364,942	-200,000	0,013	0,073
-363,927	-200,000	-0,006	-0,065
-362,912	-123,417	0,065	-0,007
-361,898	-20,937	-0,139	-0,060
-360,883	-200,000	0,001	-0,141
-359,869	122,190	-0,067	-0,060
-358,854	-131,778	0,035	0,003
-357,839	800,000	0,033	0,069
-356,825	287,616	0,027	0,035
-355,810	-55,421	-0,036	0,011
-354,796	-54,571	0,095	-0,030
-353,781	800,000	0,008	0,024
-352,766	-133,047	0,065	0,006
-351,752	362,498	0,012	0,017
-350,737	-41,447	0,036	-0,013
-349,723	-200,000	0,005	0,192
-348,708	231,447	0,053	0,062
-347,693	-139,855	-0,070	-0,005
-346,679	233,721	-0,023	-0,027
-345,664	-200,000	-0,026	-0,116
-344,650	-200,000	-0,021	0,083
-343,635	-200,000	-0,018	0,092
-342,620	-200,000	0,034	-0,121
-341,606	170,929	0,062	-0,063
-340,591	76,369	0,023	-0,017
-339,577	204,208	-0,025	0,028
-338,562	271,925	-0,011	0,014
-337,548	-133,462	-0,087	0,008
-336,533	-14,954	0,137	-0,062
-335,518	-200,000	-0,005	0,063
-334,504	113,714	0,048	0,041
-333,489	-44,686	0,039	0,014
-332,475	-54,677	0,115	0,037
-331,460	-200,000	-0,041	-0,145
-330,445	729,124	0,074	0,141
-329,431	-200,000	-0,003	0,102
-328,416	603,889	0,027	0,048
-327,402	-11,792	-0,049	-0,023
-326,387	150,609	-0,038	0,037
-325,372	230,966	-0,096	-0,112
-324,358	448,719	-0,037	-0,059
-323,343	-109,675	0,103	0,015
-322,329	-161,412	0,147	-0,005
-321,314	-200,000	-0,016	0,103
-320,299	-24,152	0,114	0,048
-319,285	-200,000	-0,006	-0,025
-318,270	292,664	-0,083	0,108
-317,256	-200,000	0,012	-0,081
-316,241	-2,794	-0,104	0,052
-315,226	686,621	-0,056	0,105
-314,212	64,976	-0,085	0,061
-313,197	371,435	0,081	0,117
-312,183	-65,834	-0,085	0,024
-311,168	-114,171	0,027	0,004
-310,153	32,261	-0,163	-0,100
-309,139	-200,000	-0,077	0,000
-308,124	-200,000	-0,001	-0,014
-307,110	-184,936	0,069	-0,001
-306,095	29,011	0,081	-0,049
-305,080	503,928	0,049	-0,081
-304,066	-109,183	0,054	-0,008
-303,051	203,387	-0,037	-0,040
-302,037	800,000	-0,025	-0,069
-301,022	-75,798	0,064	-0,016
-300,008	-5,709	-0,045	0,022
-298,993	-40,658	0,056	0,021
-297,978	-45,078	-0,035	0,012
-296,964	-200,000	-0,011	-0,041
-295,949	334,425	0,059	0,081
-294,935	223,836	0,018	0,020
-293,920	-200,000	0,004	0,018
-292,905	71,406	-0,092	0,068
-291,891	-200,000	-0,003	0,161
-290,876	-200,000	0,007	0,170
-289,862	327,014	0,008	0,011
-288,847	800,000	-0,009	-0,022
-287,832	800,000	-0,075	-0,167
-286,818	422,221	-0,017	0,026
-285,803	-200,000	0,004	0,015
-284,789	-140,968	-0,050	-0,004
-283,774	731,429	-0,036	0,070
-282,759	32,114	-0,135	-0,083
-281,745	-66,401	-0,033	-0,009
-280,730	800,000	0,027	-0,058
-279,716	730,741	0,058	-0,110
-278,701	800,000	0,044	-0,137
-277,686	65,495	-0,014	-0,010
-276,672	-18,479	0,080	0,036
-275,657	800,000	0,022	0,049
-274,643	201,203	-0,052	-0,058
-273,628	-200,000	-0,009	0,084
-272,613	59,821	-0,127	-0,089
-271,599	-160,999	0,163	-0,006
-270,584	-175,036	0,061	0,001
-269,570	124,666	0,033	0,030
-268,555	-115,208	-0,085	0,011
-267,540	-104,572	-0,065	-0,011
-266,526	349,882	0,025	0,036
-265,511	-34,966	-0,074	-0,028
-264,497	-48,948	0,081	-0,027
-263,482	-200,000	0,104	0,000
-262,467	573,706	-0,030	0,052
-261,453	-200,000	0,015	-0,085
-260,438	-200,000	-0,005	-0,045
-259,424	133,182	-0,122	-0,113
-258,409	35,800	0,040	-0,025
-257,395	209,245	0,052	-0,058
-256,380	-200,000	0,127	-0,000
-255,365	137,085	-0,026	0,024
-254,351	-200,000	0,031	0,111
-253,336	-90,831	0,128	-0,026
-252,322	-137,633	-0,285	0,022
-251,307	574,565	0,025	-0,043
-250,292	779,685	0,032	0,063
-249,278	-200,000	-0,000	0,083
-248,263	-42,408	0,074	-0,027
-247,249	-99,396	-0,129	-0,023
-246,234	-200,000	0,007	0,059
-245,219	320,821	0,071	-0,097
-244,205	-200,000	-0,026	0,084
-243,190	151,672	0,061	-0,059
-242,176	-4,513	0,048	-0,023
-241,161	143,103	0,014	0,013
-240,146	266,384	0,035	-0,044
-239,132	11,893	0,097	0,053
-238,117	-200,000	0,010	-0,132
-237,103	-33,140	0,153	-0,060
-236,088	-14,302	0,071	0,032
-235,073	-200,000	0,008	0,068
-234,059	126,736	-0,066	0,059
-233,044	-158,662	-0,111	-0,004
-232,030	-117,713	-0,065	0,008
-231,015	56,981	0,076	0,053
-230,000	349,905	-0,081	-0,114
-228,986	800,000	-0,042	-0,091
-227,971	-200,000	-0,013	-0,087
-226,957	524,023	-0,002	-0,004
-225,942	-200,000	0,001	0,075
-224,927	591,788	0,071	-0,125
-223,913	-45,162	-0,026	0,009
-222,898	310,725	-0,096	0,128
-221,884	28,958	0,072	-0,043
-220,869	-162,452	-0,046	0,002
-219,855	13,785	0,034	0,019
-218,840	-145,125	0,139	0,009
-217,825	-125,330	-0,016	-0,002
-216,811	800,000	-0,010	0,026
-215,796	430,431	0,046	-0,071
-214,782	-7,626	-0,050	0,024
-213,767	-147,144	0,127	0,008
-212,752	-200,000	-0,025	0,082
-211,738	255,011	0,093	0,114
-210,723	800,000	-0,050	0,113
-209,709	800,000	0,032	0,097
-208,694	-13,268	-0,021	0,010
-207,679	-160,077	-0,060	0,002
-206,665	-40,197	0,124	0,046
-205,650	-200,000	-0,006	0,030
-204,636	-200,000	0,007	0,033
-203,621	130,836	0,018	-0,017
-202,606	-148,419	0,041	0,002
-201,592	-200,000	0,003	-0,062
-200,577	104,560	0,078	-0,065
-199,563	13,499	0,117	-0,064
-198,548	105,599	0,052	-0,044
-197,533	-200,000	0,022	0,152
-196,519	-102,552	0,035	0,006
-195,504	-200,000	0,003	0,112
-194,490	34,462	0,068	0,042
-193,475	-30,284	-0,049	-0,020
-192,460	90,235	0,130	0,103
-191,446	-200,000	0,028	-0,218
-190,431	103,967	0,111	-0,092
-189,417	233,152	-0,042	-0,050
-188,402	7,845	0,090	-0,048
-187,387	-200,000	-0,032	-0,147
-186,373	33,647	-0,080	-0,049
-185,358	-200,000	0,023	-0,106
-184,344	-13,843	0,079	-0,036
-183,329	800,000	0,056	-0,143
-182,315	-63,070	0,106	-0,031
-181,300	49,022	-0,146	-0,097
-180,285	181,227	-0,078	-0,082
-179,271	177,862	-0,086	-0,090
-178,256	123,030	0,010	-0,009
-177,242	536,444	-0,031	0,052
-176,227	-200,000	0,013	0,096
-175,212	-21,175	-0,074	0,032
-174,198	-200,000	0,029	0,173
-173,183	-200,000	0,033	-0,217
-172,169	495,611	0,025	0,041
-171,154	348,240	-0,033	-0,046
-170,139	166,758	0,146	-0,147
-169,125	-51,531	-0,082	-0,027
-168,110	-158,449	0,113	-0,005
-167,096	66,634	-0,026	0,019
-166,081	153,047	0,032	0,031
-165,066	701,610	-0,070	0,131
-164,052	800,000	0,021	0,067
-163,037	800,000	0,007	0,021
-162,023	587,444	0,088	0,154
-161,008	118,754	-0,029	-0,026
-159,993	-141,738	-0,092	0,006
-158,979	-200,000	-0,038	0,121
-157,964	800,000	0,013	0,030
-156,950	220,771	-0,104	0,119
-155,935	-200,000	-0,019	0,135
-154,920	449,178	0,065	0,102
-153,906	-35,580	-0,064	-0,024
-152,891	626,969	-0,016	-0,028
-151,877	61,920	-0,081	-0,057
-150,862	-200,000	-0,002	-0,066
-149,847	7,937	0,113	-0,060
-148,833	19,114	-0,028	0,016
-147,818	35,755	-0,041	0,026
-146,804	376,879	0,074	0,107
-145,789	533,245	-0,024	0,041
-144,775	800,000	0,007	-0,018
-143,760	-200,000	-0,011	-0,131
-142,745	291,030	0,083	-0,107
-141,731	-200,000	0,004	0,043
-140,716	39,713	0,072	-0,046
-139,702	-200,000	-0,017	0,063
-138,687	800,000	-0,006	-0,014
-137,672	-128,907	-0,010	0,001
-136,658	15,465	-0,112	0,062
-135,643	121,951	-0,021	-0,018
-134,629	-39,064	-0,111	0,041
-133,614	800,000	0,022	0,048
-132,599	-200,000	0,005	-0,084
-131,585	-87,789	0,107	0,023
-130,570	-200,000	-0,021	0,089
-129,556	184,526	0,056	0,059
-128,541	80,982	-0,093	-0,071
-127,526	-200,000	-0,022	0,097
-126,512	-200,000	-0,034	-0,129
-125,497	357,265	-0,046	-0,065
-124,483	388,679	0,035	-0,052
-123,468	-23,090	-0,042	-0,018
-122,453	-120,392	-0,093	0,011
-121,439	-200,000	-0,015	0,054
-120,424	800,000	0,050	-0,156
-119,410	-200,000	-0,009	-0,065
-118,395	132,416	-0,077	-0,071
-117,380	-200,000	-0,006	-0,034
-116,366	79,120	0,045	-0,034
-115,351	-200,000	-0,025	-0,101
-114,337	-200,000	0,012	0,038
-113,322	800,000	-0,015	0,042
-112,307	-97,542	-0,151	-0,027
-111,293	-10,633	0,045	0,021
-110,278	-128,358	0,121	-0,012
-109,264	-65,934	-0,128	0,036
-108,249	-200,000	0,012	-0,133
-107,234	-146,059	0,235	0,014
-106,220	-200,000	-0,017	0,094
-105,205	-108,398	0,031	0,005
-104,191	-121,641	0,077	-0,009
-103,176	194,192	0,081	-0,087
-102,162	-160,538	0,052	0,002
-101,147	446,217	-0,117	0,183
-100,132	516,781	0,027	0,046
-99,118	167,981	0,044	-0,044
-98,103	630,581	0,011	0,020
-97,089	363,693	0,102	0,146
-96,074	800,000	0,091	-0,192
-95,059	-50,043	0,091	0,030
-94,045	-74,182	-0,104	0,026
-93,030	149,754	-0,065	0,062
-92,016	-200,000	-0,008	-0,028
-91,001	-200,000	-0,003	0,025
-89,986	-200,000	0,197	0,000
-88,972	498,592	0,039	0,063
-87,957	120,798	0,140	0,123
-86,943	249,529	0,037	0,045
-85,928	-200,000	0,017	-0,079
-84,913	-200,000	0,002	-0,027
-83,899	-200,000	-0,003	-0,042
-82,884	-54,393	0,084	0,027
-81,870	313,786	0,060	-0,080
-80,855	88,214	0,157	-0,123
-79,840	-128,586	0,073	0,007
-78,826	-200,000	-0,014	0,045
-77,811	800,000	-0,060	-0,126
-76,797	-66,773	-0,060	0,017
-75,782	800,000	-0,023	-0,058
-74,767	-126,335	0,043	0,005
-73,753	-58,974	0,099	-0,030
-72,738	-50,781	0,032	-0,011
-71,724	531,689	-0,043	-0,071
-70,709	-200,000	-0,033	-0,109
-69,694	-10,282	-0,052	0,024
-68,680	-200,000	0,009	-0,041
-67,665	800,000	0,030	0,074
-66,651	139,330	0,092	0,085
-65,636	-83,804	0,043	-0,010
-64,622	201,234	0,093	0,101
-63,607	-200,000	0,033	-0,235
-62,592	71,731	-0,047	-0,034
-61,578	24,093	0,109	-0,064
-60,563	-130,525	0,128	0,012
-59,549	208,190	-0,054	0,059
-58,534	80,787	-1,855	-1,411
-57,519	584,105	-1,179	-2,052
-56,505	-200,000	-0,284	-4,416
-55,490	495,006	0,920	1,497
-54,476	800,000	4,986	11,192
-53,461	-200,000	21,050	338,221
-52,446	800,000	758,651	2350,311
-51,432	557,679	1661,378	2838,776
-50,417	73,598	1661,756	1227,229
-49,403	18,157	1535,141	861,981
-48,388	12,090	1458,504	789,608
-47,373	19,267	1449,472	819,122
-46,359	15,481	1438,946	795,135
-45,344	10,404	1434,533	768,495
-44,330	10,321	1432,900	767,198
-43,315	10,355	1430,776	766,192
-42,300	10,329	1429,092	765,134
-41,286	10,354	1427,902	764,587
-40,271	10,309	1426,621	763,656
-39,257	10,310	1425,280	762,915
-38,242	10,369	1424,324	762,649
-37,227	10,331	1423,356	761,923
-36,213	10,335	1422,081	761,227
-35,198	10,392	1420,858	760,812
-34,184	10,387	1419,984	760,292
-33,169	10,297	1418,692	759,145
-32,154	10,384	1417,539	758,909
-31,140	10,403	1416,338	758,321
-30,125	10,408	1415,247	757,734
-29,111	10,419	1414,032	757,104
-28,096	10,411	1412,706	756,325
-27,082	10,311	1411,598	755,233
-26,067	10,318	1410,704	754,756
-25,052	10,345	1409,730	754,332
-24,038	10,297	1408,815	753,587
-23,023	10,345	1407,861	753,275
-22,009	10,311	1406,638	752,432
-20,994	10,354	1405,579	752,033
-19,979	10,275	1404,867	751,255
-18,965	10,268	1403,808	750,628
-17,950	10,287	1402,510	749,991
-16,936	10,254	1402,201	749,642
-15,921	10,194	1401,079	748,732
-14,906	10,215	1400,251	748,359
-13,892	10,216	1399,324	747,839
-12,877	10,194	1398,505	747,269
-11,863	10,228	1397,468	746,844
-10,848	10,194	1396,759	746,275
-9,833	10,144	1395,737	745,468
-8,819	10,112	1394,954	744,875
-7,804	10,145	1393,998	744,484
-6,790	10,102	1393,134	743,794
-5,775	10,148	1392,028	743,389
-4,760	10,168	1390,838	742,815
-3,746	10,118	1390,039	742,128
-2,731	10,130	1389,328	741,775
-1,717	10,069	1388,525	741,038
-0,702	10,074	1386,775	740,097
0,313	14,149	1299,370	712,078
1,327	30,221	690,115	414,624
2,342	46,773	119,526	78,186
3,356	0,668	16,537	8,317
4,371	3,392	3,478	1,781
5,386	-1,430	0,990	0,491
6,400	339,241	0,253	0,348
7,415	28,123	-0,146	-0,087
8,429	150,312	-0,294	-0,281
9,444	145,525	-0,249	-0,235
10,459	122,831	-0,228	-0,201
11,473	-78,254	-0,297	-0,071
12,488	-47,271	-0,221	-0,075
13,502	102,421	-0,287	-0,236
14,517	54,769	-0,287	-0,195
15,531	71,058	-0,311	-0,227
16,546	15,217	-0,345	-0,190
17,561	102,787	-0,282	-0,233
18,575	-153,333	-0,169	-0,008
19,590	149,900	-0,284	-0,272
20,604	-162,505	-0,312	0,011
21,619	104,180	-0,380	-0,315
22,634	193,783	-0,373	-0,399
23,648	31,761	-0,409	-0,248
24,663	115,335	-0,402	-0,346
25,677	108,800	-0,439	-0,369
26,692	-30,241	-0,307	-0,122
27,707	52,320	-0,350	-0,234
28,721	110,353	-0,368	-0,311
29,736	6,616	-0,492	-0,257
30,750	128,132	-0,402	-0,360
31,765	112,893	-0,342	-0,291
32,780	63,836	-0,242	-0,171
33,794	6,768	-0,276	-0,144
34,809	123,811	-0,282	-0,249
35,823	-16,597	-0,509	-0,226
36,838	115,494	-0,297	-0,256
37,853	316,228	-0,266	-0,354
38,867	163,598	-0,361	-0,357
39,882	73,247	-0,388	-0,285
40,896	64,479	-0,352	-0,249
41,911	-4,291	-0,479	-0,232
42,926	1,311	-0,309	-0,155
43,940	-75,206	-0,367	-0,091
44,955	80,688	-0,297	-0,225
45,969	17,382	-0,474	-0,264
46,984	328,312	-0,187	-0,252
47,999	133,731	-0,271	-0,246
49,013	-19,339	-0,281	-0,122
50,028	-17,368	-0,354	-0,156
51,042	94,178	-0,287	-0,229
52,057	152,338	-0,287	-0,275
53,071	36,088	-0,288	-0,177
54,086	438,801	-0,187	-0,287
55,101	-18,101	-0,302	-0,132
56,115	30,400	-0,411	-0,246
57,130	-78,097	-0,352	-0,084
58,144	88,390	-0,376	-0,293
59,159	-11,417	-0,409	-0,188
60,174	76,253	-0,375	-0,278
61,188	120,642	-0,362	-0,316
62,203	119,080	-0,239	-0,208
63,217	-86,194	-0,377	-0,081
64,232	57,735	-0,344	-0,236
65,247	487,593	-0,233	-0,374
66,261	138,608	-0,360	-0,331
67,276	84,481	-0,328	-0,252
68,290	-107,770	-0,269	-0,041
69,305	709,903	-0,098	-0,183
70,320	693,520	-0,138	-0,255
71,334	50,484	-0,347	-0,230
72,349	27,817	-0,364	-0,214
73,363	107,701	-0,279	-0,233
74,378	112,018	-0,316	-0,268
75,393	443,811	-0,192	-0,296
76,407	-69,066	-0,271	-0,073
77,422	-144,390	-0,208	-0,013
78,436	100,754	-0,259	-0,211
79,451	-8,505	-0,319	-0,150
80,466	3,804	-0,296	-0,151
81,480	-13,414	-0,300	-0,136
82,495	19,139	-0,170	-0,095
83,509	92,595	-0,184	-0,145
84,524	-51,006	-0,190	-0,062
85,539	62,237	-0,357	-0,249
86,553	43,288	-0,290	-0,185
87,568	42,092	-0,362	-0,229
88,582	-24,297	-0,320	-0,133
89,597	157,929	-0,270	-0,263
90,611	131,697	-0,239	-0,215
91,626	287,656	-0,229	-0,291
92,641	57,526	-0,268	-0,183
93,655	96,493	-0,228	-0,183
94,670	-64,012	-0,312	-0,089
95,684	268,994	-0,280	-0,344
96,699	133,710	-0,281	-0,254
97,714	246,920	-0,228	-0,270
98,728	-26,598	-0,353	-0,144
99,743	78,381	-0,278	-0,207
100,757	99,905	-0,135	-0,109
101,772	11,483	-0,247	-0,132
102,787	-197,285	-0,404	-0,002
103,801	-12,098	-0,330	-0,151
104,816	169,943	-0,165	-0,165
105,830	-11,477	-0,195	-0,089
106,845	32,286	-0,158	-0,095
107,860	7,632	-0,304	-0,159
108,874	22,232	-0,231	-0,131
109,889	293,816	-0,187	-0,239
110,903	109,681	-0,195	-0,163
111,918	-61,258	-0,215	-0,063
112,933	65,175	-0,338	-0,238
113,947	60,078	-0,317	-0,218
114,962	-21,067	-0,350	-0,149
115,976	51,510	-0,282	-0,187
116,991	103,533	-0,319	-0,261
118,006	-36,834	-0,270	-0,101
119,020	280,066	-0,110	-0,137
120,035	55,160	-0,306	-0,206
121,049	95,982	-0,257	-0,205
122,064	-15,164	-0,314	-0,140
123,079	74,376	-0,241	-0,177
124,093	74,182	-0,274	-0,201
125,108	68,003	-0,215	-0,154
126,122	-55,915	-0,219	-0,068
127,137	231,801	-0,213	-0,244
128,151	192,111	-0,166	-0,175
129,166	-29,028	-0,257	-0,102
130,181	-142,660	-0,291	0,020
131,195	-43,186	-0,420	-0,147
132,210	75,782	-0,335	-0,246
133,224	-159,484	-0,283	-0,011
134,239	14,339	-0,201	-0,109
135,254	80,435	-0,189	-0,142
136,268	9,828	-0,246	-0,130
137,283	100,386	-0,257	-0,208
138,297	-73,488	-0,258	-0,065
139,312	209,534	-0,155	-0,170
140,327	27,207	-0,251	-0,146
141,341	-18,793	-0,289	-0,125
142,356	-137,777	-0,183	-0,014
143,370	95,753	-0,197	-0,157
144,385	252,203	-0,170	-0,202
145,400	664,626	-0,196	-0,355
146,414	251,083	-0,257	-0,305
147,429	800,000	-0,158	-0,331
148,443	156,555	-0,272	-0,262
149,458	194,311	-0,242	-0,255
150,473	-70,734	-0,123	-0,032
151,487	9,990	-0,263	-0,139
152,502	377,053	-0,210	-0,300
153,516	306,892	-0,143	-0,185
154,531	113,252	-0,169	-0,143
155,546	113,508	-0,184	-0,155
156,560	534,597	-0,119	-0,198
157,575	184,615	-0,252	-0,260
158,589	8,476	-0,268	-0,140
159,604	98,787	-0,272	-0,218
160,619	66,842	-0,273	-0,193
161,633	260,083	-0,242	-0,292
162,648	0,677	-0,311	-0,154
163,662	-24,620	-0,244	-0,101
164,677	50,727	-0,040	-0,026
165,692	-32,934	-0,243	-0,093
166,706	-51,082	-0,252	-0,082
167,721	-101,811	-0,313	-0,052
168,735	412,275	-0,121	-0,180
169,750	419,664	-0,091	-0,135
170,764	156,760	-0,175	-0,168
171,779	65,158	-0,163	-0,114
172,794	9,808	-0,293	-0,154
173,808	183,046	-0,183	-0,188
174,823	259,851	-0,179	-0,215
175,837	207,340	-0,212	-0,230
176,852	4,875	-0,251	-0,128
177,867	96,781	-0,150	-0,119
178,881	715,320	-0,072	-0,133
179,896	60,539	-0,233	-0,160
180,910	387,220	-0,126	-0,182
181,925	10,331	-0,272	-0,143
182,940	47,165	-0,286	-0,185
183,954	-52,690	-0,232	-0,074
184,969	-19,835	-0,139	-0,059
185,983	71,083	-0,116	-0,083
186,998	194,993	-0,181	-0,191
188,013	255,173	-0,153	-0,183
189,027	410,773	-0,204	-0,301
190,042	214,904	-0,256	-0,282
191,056	82,225	-0,260	-0,195
192,071	99,268	-0,198	-0,159
193,086	-6,745	-0,200	-0,094
194,100	-77,125	-0,161	-0,039
195,115	-45,194	-0,224	-0,077
196,129	-16,717	-0,288	-0,126
197,144	93,230	-0,323	-0,253
198,159	142,520	-0,142	-0,131
199,173	21,288	-0,108	-0,060
200,188	139,361	-0,125	-0,114
201,202	87,124	-0,206	-0,157
202,217	32,261	-0,221	-0,132
203,232	118,417	-0,158	-0,135
204,246	125,369	-0,227	-0,198
205,261	483,190	-0,175	-0,276
206,275	800,000	-0,104	-0,253
207,290	-99,561	-0,258	-0,045
208,304	800,000	-0,058	-0,147
209,319	-0,493	-0,216	-0,106
210,334	3,204	-0,214	-0,108
211,348	-17,755	-0,406	-0,176
212,363	86,314	-0,271	-0,206
213,377	677,295	-0,149	-0,269
214,392	330,990	-0,142	-0,191
215,407	16,272	-0,099	0,054
216,421	-109,599	-0,138	-0,020
217,436	25,447	-0,256	-0,147
218,450	208,744	-0,167	-0,181
219,465	57,274	-0,164	-0,111
220,480	429,866	-0,155	-0,232
221,494	369,485	-0,179	-0,251
222,509	-17,801	-0,199	-0,086
223,523	-124,277	-0,261	-0,028
224,538	103,141	-0,213	-0,172
225,553	161,024	-0,244	-0,236
226,567	208,888	-0,131	-0,142
227,582	606,212	-0,141	-0,245
228,596	800,000	-0,076	-0,166
229,611	-94,628	-0,173	-0,032
230,626	39,570	-0,236	-0,146
231,640	643,457	-0,086	-0,153
232,655	222,019	-0,260	-0,289
233,669	36,092	-0,176	-0,107
234,684	58,125	-0,164	-0,111
235,699	101,113	-0,171	-0,137
236,713	-158,599	-0,113	-0,004
237,728	-27,624	-0,275	-0,110
238,742	-50,765	-0,291	-0,094
239,757	8,314	-0,068	-0,035
240,772	800,000	-0,080	-0,185
241,786	125,738	-0,235	-0,205
242,801	-61,577	-0,148	-0,043
243,815	13,179	-0,122	-0,065
244,830	128,308	-0,188	-0,165
245,844	170,865	-0,115	-0,114
246,859	725,802	-0,130	-0,240
247,874	88,645	-0,235	-0,180
248,888	110,885	-0,328	-0,272
249,903	90,117	-0,252	-0,194
250,917	800,000	-0,041	-0,113
251,932	312,097	-0,070	-0,091
252,947	63,455	-0,167	-0,115
253,961	-31,375	-0,122	-0,047
254,976	206,712	-0,210	-0,226
255,990	-87,234	-0,260	-0,054
257,005	-135,539	-0,096	-0,008
258,020	36,911	-0,152	-0,092
259,034	-157,971	-0,141	-0,006
260,049	36,677	-0,146	-0,088
261,063	-162,292	-0,131	-0,004
262,078	181,220	-0,233	-0,237
263,093	800,000	-0,113	-0,308
264,107	17,300	-0,227	-0,124
265,122	-39,588	-0,256	-0,092
266,136	-3,563	-0,070	-0,033
267,151	730,533	-0,101	-0,187
268,166	800,000	-0,091	-0,252
269,180	189,283	-0,227	-0,234
270,195	28,585	-0,201	-0,117
271,209	800,000	-0,089	-0,215
272,224	40,007	-0,101	-0,063
273,239	163,858	-0,146	-0,142
274,253	10,850	-0,167	-0,087
275,268	-120,987	-0,096	-0,011
276,282	-71,151	-0,047	-0,012
277,297	78,343	-0,184	-0,135
278,312	539,475	-0,204	-0,336
279,326	149,712	0,090	-0,084
280,341	21,438	-0,208	-0,116
281,355	-200,000	-0,035	-0,181
282,370	800,000	-0,087	-0,228
283,384	37,315	-0,228	-0,138
284,399	121,306	-0,201	-0,172
285,414	-80,370	-0,207	-0,047
286,428	140,835	-0,050	0,046
287,443	-1,281	-0,138	-0,067
288,457	800,000	0,045	-0,112
289,472	52,839	-0,160	-0,105
290,487	-2,561	-0,193	-0,093
291,501	-136,337	-0,238	-0,019
292,516	425,511	-0,170	-0,253
293,530	-57,521	-0,193	-0,058
294,545	-200,000	-0,015	-0,084
295,560	-158,320	-0,093	0,004
296,574	5,300	-0,117	-0,059
297,589	-97,461	-0,206	-0,036
298,603	94,045	-0,097	-0,076
299,618	100,639	-0,124	-0,099
300,633	425,500	-0,057	-0,085
301,647	800,000	-0,089	-0,215
302,662	800,000	-0,007	0,015
303,676	12,826	-0,049	-0,026
304,691	-86,661	-0,167	-0,035
305,706	330,260	-0,116	-0,153
306,720	3,216	-0,187	-0,093
307,735	-93,458	-0,115	-0,022
308,749	661,949	-0,043	-0,076
309,764	-87,089	-0,112	-0,023
310,779	-200,000	-0,014	-0,069
311,793	800,000	-0,031	-0,075
312,808	-95,181	-0,209	-0,038
313,822	-77,218	-0,223	-0,053
314,837	26,931	-0,228	-0,131
315,852	56,975	-0,187	-0,125
316,866	800,000	0,027	-0,078
317,881	29,727	-0,073	-0,043
318,895	518,311	-0,090	-0,144
319,910	142,033	-0,197	-0,179
320,925	353,153	-0,103	-0,141
321,939	195,756	-0,093	-0,098
322,954	330,340	-0,088	-0,117
323,968	-68,077	-0,185	-0,049
324,983	87,403	-0,134	-0,102
325,997	35,436	-0,121	-0,073
327,012	-31,278	-0,172	-0,066
328,027	204,918	-0,185	-0,197
329,041	11,558	-0,242	-0,127
330,056	800,000	-0,041	-0,092
331,070	-19,277	-0,204	-0,086
332,085	2,296	-0,070	-0,035
333,100	514,671	-0,061	-0,097
334,114	-4,267	-0,093	-0,044
335,129	254,757	-0,095	-0,111
336,143	-90,560	-0,086	-0,017
337,158	-200,000	-0,018	0,096
338,173	151,604	-0,170	-0,159
339,187	800,000	-0,037	-0,091
340,202	32,635	-0,055	0,032
341,216	140,542	-0,170	-0,154
342,231	-94,704	-0,087	-0,016
343,246	268,075	-0,174	-0,209
344,260	85,343	-0,120	-0,090
345,275	-27,517	-0,080	-0,032
346,289	651,018	-0,037	-0,065
347,304	-77,873	-0,060	-0,014
348,319	469,462	-0,169	-0,261
349,333	-200,000	-0,066	-0,262
350,348	18,405	-0,120	-0,066
351,362	800,000	-0,056	-0,124
352,377	-107,143	-0,130	-0,019
353,392	-200,000	-0,010	0,124
354,406	-57,395	-0,149	-0,045
355,421	206,271	1310,734	1396,823
356,435	158,627	1470,955	1397,301
