DTS Sentinel unit serial number:	SN410029Multiplexer serial number:	ORYXHardware model number:	OX2-SRSoftware version number:	ORYX F/W v4,00 Oryx Data Collector v3.7.2.0data status	okinstallation	B3 Nyhavnadifferential loss correction	single-endedforward channel	channel 1reverse channel	N/Adate	2023/12/01time	06:02:30forward acquisition time	300,00reverse acquisition time	0,00gamma	499,1914k internal	0,3213k external	0,3213temperature offset calibration	1,0000default loss term (dB/km)	0,3820temperature slope calibration	1,0000multiplexer offset coefficient	1,0000multiplexer slope coefficient	1,0000fibre end	0,00T internal ref (°C)	7,81T ext. ref 1 (°C)	-6,84T ext. ref 2 (°C)	-6,98length (m)	temperature (°C)	Stokes	anti-Stokes-744,400	800,000	-0,119	-0,319
-743,385	726,388	-0,120	0,234
-742,371	217,400	-0,116	-0,134
-741,356	800,000	0,149	0,341
-740,342	137,050	-0,264	-0,250
-739,327	157,546	-0,188	0,189
-738,312	460,306	-0,138	-0,224
-737,298	-200,000	-0,054	0,189
-736,283	337,254	-0,079	-0,112
-735,269	800,000	-0,102	0,246
-734,254	-21,177	-0,296	-0,130
-733,239	800,000	-0,079	0,198
-732,225	446,980	-0,177	-0,283
-731,210	-200,000	0,019	0,067
-730,196	-63,415	-0,074	0,022
-729,181	-45,112	-0,105	-0,038
-728,167	14,000	0,041	0,023
-727,152	24,944	-0,071	0,042
-726,137	-200,000	0,021	-0,087
-725,123	8,241	-0,041	-0,022
-724,108	-104,538	-0,116	-0,019
-723,094	125,543	-0,043	0,040
-722,079	220,251	-0,089	0,104
-721,064	800,000	0,031	0,095
-720,050	800,000	-0,029	0,079
-719,035	82,455	0,079	0,062
-718,021	-125,620	-0,076	-0,008
-717,006	-200,000	-0,003	0,095
-715,991	-200,000	0,010	0,074
-714,977	-85,946	-0,121	-0,027
-713,962	-200,000	0,031	-0,164
-712,948	800,000	0,050	0,147
-711,933	-15,249	0,127	-0,058
-710,918	497,474	0,050	0,084
-709,904	800,000	-0,035	-0,108
-708,889	26,416	-0,179	0,108
-707,875	451,321	-0,102	-0,163
-706,860	-37,847	0,134	-0,051
-705,845	533,450	-0,062	0,107
-704,831	-200,000	-0,000	0,048
-703,816	-200,000	-0,011	-0,168
-702,802	441,796	-0,066	0,104
-701,787	252,124	-0,054	-0,067
-700,772	49,808	-0,078	-0,053
-699,758	7,779	-0,061	-0,033
-698,743	491,031	0,044	0,073
-697,729	-81,179	-0,121	-0,029
-696,714	496,958	0,091	-0,152
-695,699	-200,000	-0,006	0,056
-694,685	-108,756	-0,108	-0,016
-693,670	189,114	0,097	-0,105
-692,656	800,000	0,037	0,110
-691,641	33,203	0,073	-0,045
-690,627	-102,227	0,080	0,014
-689,612	800,000	0,020	-0,042
-688,597	800,000	-0,015	-0,037
-687,583	692,137	0,029	-0,055
-686,568	800,000	-0,089	-0,218
-685,554	266,243	-0,104	0,132
-684,539	-58,834	0,037	-0,011
-683,524	-139,384	0,082	-0,006
-682,510	-196,975	-0,053	0,000
-681,495	-200,000	-0,017	0,069
-680,481	427,570	0,038	-0,059
-679,466	-98,639	-0,108	-0,020
-678,451	-34,551	-0,100	-0,039
-677,437	-200,000	-0,022	0,121
-676,422	-68,451	-0,089	0,025
-675,408	-97,974	0,153	-0,028
-674,393	800,000	-0,025	-0,056
-673,378	800,000	-0,012	0,027
-672,364	-200,000	-0,018	-0,093
-671,349	800,000	-0,018	-0,046
-670,335	680,551	-0,020	-0,038
-669,320	274,312	0,039	-0,049
-668,305	44,331	0,065	-0,043
-667,291	25,706	-0,059	-0,035
-666,276	277,560	-0,040	-0,051
-665,262	-79,340	-0,055	-0,013
-664,247	27,841	-0,070	-0,042
-663,232	-55,436	0,043	-0,014
-662,218	-200,000	-0,032	0,143
-661,203	-156,996	0,003	-0,000
-660,189	-200,000	-0,011	0,076
-659,174	1,623	-0,032	0,017
-658,159	60,315	-0,050	-0,036
-657,145	248,283	-0,026	-0,032
-656,130	-154,416	0,083	-0,004
-655,116	-79,914	0,176	0,042
-654,101	-200,000	0,033	0,165
-653,086	64,411	-0,114	0,083
-652,072	800,000	-0,022	0,044
-651,057	2,514	-0,104	0,054
-650,043	-200,000	-0,015	0,057
-649,028	62,129	0,020	-0,015
-648,014	800,000	0,014	-0,043
-646,999	273,863	0,039	0,049
-645,984	-83,462	-0,065	-0,015
-644,970	-200,000	0,007	-0,137
-643,955	382,120	-0,020	0,030
-642,941	549,066	-0,058	-0,101
-641,926	760,330	-0,032	0,063
-640,911	-104,386	-0,032	-0,005
-639,897	-0,031	0,058	0,030
-638,882	94,392	-0,077	0,063
-637,868	-200,000	-0,014	-0,092
-636,853	-26,686	-0,082	-0,034
-635,838	124,524	0,066	-0,060
-634,824	800,000	-0,027	0,078
-633,809	-37,812	-0,029	-0,011
-632,795	26,456	0,058	0,035
-631,780	717,542	0,031	0,059
-630,765	379,631	0,039	0,058
-629,751	82,408	-0,048	-0,037
-628,736	79,340	-0,099	0,076
-627,722	-99,713	0,073	-0,013
-626,707	-115,193	-0,007	-0,001
-625,692	133,473	0,042	0,039
-624,678	800,000	-0,039	0,079
-623,663	-104,517	0,071	-0,012
-622,649	369,723	0,046	-0,068
-621,634	288,369	0,062	-0,081
-620,619	89,060	-0,073	-0,058
-619,605	-200,000	0,006	-0,117
-618,590	-88,391	0,061	-0,013
-617,576	-56,041	-0,092	-0,029
-616,561	800,000	-0,033	0,068
-615,546	-200,000	-0,001	0,040
-614,532	-200,000	0,006	-0,198
-613,517	-27,963	-0,166	-0,069
-612,503	-200,000	-0,029	0,000
-611,488	288,249	0,016	0,022
-610,474	-152,370	0,030	-0,002
-609,459	103,407	0,163	0,138
-608,444	201,936	-0,032	-0,035
-607,430	-121,493	-0,050	-0,006
-606,415	341,270	-0,086	-0,121
-605,401	365,787	0,128	-0,186
-604,386	-126,830	-0,091	0,010
-603,371	-200,000	0,026	0,092
-602,357	-36,421	-0,057	0,022
-601,342	-40,830	-0,138	0,051
-600,328	181,580	-0,062	0,066
-599,313	-163,351	-0,047	-0,002
-598,298	170,850	0,041	-0,042
-597,284	-33,129	-0,117	-0,047
-596,269	-64,796	-0,099	-0,029
-595,255	219,879	-0,017	-0,019
-594,240	-19,683	-0,136	-0,060
-593,225	-200,000	-0,004	-0,075
-592,211	246,390	0,095	0,115
-591,196	-12,579	0,020	-0,009
-590,182	-200,000	0,027	0,136
-589,167	389,587	-0,032	0,049
-588,152	-64,585	0,067	0,019
-587,138	-200,000	-0,007	0,113
-586,123	-2,594	-0,052	-0,026
-585,109	23,918	0,119	-0,070
-584,094	-108,326	0,028	0,004
-583,079	54,556	-0,019	-0,013
-582,065	-139,702	0,048	0,004
-581,050	103,494	0,155	0,131
-580,036	101,859	-0,128	0,107
-579,021	55,913	-0,134	-0,093
-578,006	-77,897	-0,062	0,015
-576,992	-83,146	0,031	0,007
-575,977	-151,912	-0,062	0,003
-574,963	-200,000	-0,011	0,103
-573,948	-200,000	0,008	-0,068
-572,934	-14,303	-0,131	-0,060
-571,919	-200,000	0,014	-0,047
-570,904	47,070	0,014	-0,009
-569,890	-34,121	0,080	-0,031
-568,875	-45,534	0,086	0,030
-567,861	-200,000	0,004	-0,110
-566,846	-64,682	-0,030	-0,009
-565,831	64,958	-0,074	-0,054
-564,817	800,000	0,041	0,114
-563,802	-100,928	-0,143	-0,025
-562,788	-18,773	-0,025	-0,011
-561,773	-200,000	0,038	0,156
-560,758	1,119	0,082	-0,042
-559,744	-50,815	0,135	-0,046
-558,729	-200,000	-0,118	0,000
-557,715	467,003	0,027	-0,044
-556,700	176,899	0,092	-0,096
-555,685	174,057	0,104	-0,108
-554,671	800,000	-0,009	0,025
-553,656	386,893	-0,063	0,094
-552,642	250,658	0,059	0,072
-551,627	800,000	-0,075	0,153
-550,612	11,615	-0,114	-0,063
-549,598	63,869	0,073	0,053
-548,583	113,009	-0,104	0,091
-547,569	-159,140	-0,077	-0,003
-546,554	103,972	0,178	0,150
-545,539	-200,000	-0,002	0,082
-544,525	56,588	-0,113	-0,079
-543,510	71,712	0,087	-0,065
-542,496	800,000	-0,033	-0,072
-541,481	-99,917	0,071	0,013
-540,466	95,530	0,085	0,070
-539,452	-92,230	0,114	0,023
-538,437	521,554	0,046	0,078
-537,423	34,062	0,050	0,031
-536,408	-200,000	0,006	0,086
-535,393	-16,466	-0,154	-0,070
-534,379	-200,000	-0,027	-0,302
-533,364	221,510	0,031	-0,036
-532,350	95,306	0,087	0,071
-531,335	421,033	0,011	0,017
-530,321	366,652	-0,115	0,167
-529,306	109,838	-0,096	-0,083
-528,291	43,063	-0,130	0,085
-527,277	166,070	-0,066	-0,067
-526,262	-112,733	-0,038	0,005
-525,248	800,000	-0,039	-0,099
-524,233	-200,000	0,046	0,180
-523,218	800,000	0,044	0,111
-522,204	-27,245	-0,053	0,022
-521,189	-200,000	-0,006	-0,111
-520,175	-200,000	-0,003	0,009
-519,160	123,592	-0,049	-0,044
-518,145	800,000	-0,014	-0,039
-517,131	159,304	-0,004	-0,004
-516,116	217,398	0,071	0,081
-515,102	205,434	0,029	-0,033
-514,087	800,000	0,038	-0,102
-513,072	657,313	-0,084	-0,156
-512,058	-87,791	-0,138	-0,030
-511,043	-200,000	-0,010	-0,075
-510,029	-200,000	0,008	0,102
-509,014	-200,000	0,018	0,074
-507,999	140,526	-0,006	-0,006
-506,985	-181,538	-0,050	-0,001
-505,970	448,859	-0,050	-0,080
-504,956	409,361	-0,017	0,026
-503,941	34,660	0,135	0,084
-502,926	800,000	-0,027	-0,085
-501,912	166,483	0,083	0,084
-500,897	46,341	0,051	0,034
-499,883	-3,949	-0,072	-0,036
-498,868	-111,590	0,045	-0,007
-497,853	123,665	-0,060	-0,054
-496,839	-63,972	0,083	-0,024
-495,824	156,949	-0,014	-0,013
-494,810	5,054	0,100	0,053
-493,795	-97,139	-0,062	0,011
-492,781	-83,449	-0,061	-0,014
-491,766	30,074	0,063	-0,038
-490,751	-65,856	-0,194	0,055
-489,737	-61,191	0,047	0,014
-488,722	108,551	0,003	-0,003
-487,708	-200,000	-0,001	0,043
-486,693	54,270	-0,043	0,029
-485,678	-79,325	-0,039	0,009
-484,664	800,000	0,030	-0,068
-483,649	-200,000	-0,001	-0,004
-482,635	101,390	-0,100	-0,083
-481,620	222,199	0,057	0,066
-480,605	421,620	0,107	0,165
-479,591	-200,000	0,039	0,134
-478,576	-200,000	-0,001	0,079
-477,562	-200,000	0,015	-0,097
-476,547	143,915	-0,035	-0,033
-475,532	-32,949	0,128	0,051
-474,518	290,830	0,011	-0,015
-473,503	102,743	0,081	-0,068
-472,489	632,149	0,026	-0,047
-471,474	27,422	-0,095	0,057
-470,459	-200,000	0,024	0,106
-469,445	800,000	-0,045	-0,104
-468,430	-9,277	-0,164	0,078
-467,416	9,908	0,226	-0,123
-466,401	10,245	0,071	0,039
-465,386	-200,000	-0,015	0,073
-464,372	-200,000	0,016	-0,059
-463,357	-200,000	-0,005	-0,071
-462,343	-200,000	0,008	-0,151
-461,328	444,603	-0,033	-0,052
-460,313	800,000	-0,073	0,188
-459,299	678,011	0,075	0,140
-458,284	800,000	0,028	0,076
-457,270	-154,845	-0,121	0,006
-456,255	-22,111	0,043	-0,019
-455,241	102,353	-0,052	-0,044
-454,226	800,000	0,035	-0,099
-453,211	-200,000	-0,010	-0,038
-452,197	-139,585	0,082	-0,006
-451,182	241,054	0,018	0,022
-450,168	-113,550	0,131	0,018
-449,153	-97,547	-0,085	0,016
-448,138	-155,145	-0,104	-0,005
-447,124	345,769	0,031	0,044
-446,109	199,001	0,016	-0,018
-445,095	185,165	0,119	-0,126
-444,080	24,455	0,037	0,022
-443,065	266,323	0,019	0,024
-442,051	49,335	0,128	0,086
-441,036	-108,666	-0,124	-0,019
-440,022	139,713	0,031	0,029
-439,007	615,244	-0,095	-0,172
-437,992	-7,312	0,088	-0,042
-436,978	-163,438	0,085	0,003
-435,963	-200,000	0,005	-0,037
-434,949	44,529	-0,065	-0,043
-433,934	23,063	-0,060	0,035
-432,919	-200,000	-0,008	0,067
-431,905	302,351	0,078	0,104
-430,890	-96,207	0,118	-0,022
-429,876	-7,823	-0,065	0,031
-428,861	147,290	-0,091	0,088
-427,846	175,018	-0,046	-0,048
-426,832	-111,636	-0,036	0,005
-425,817	-200,000	0,003	-0,092
-424,803	352,646	-0,101	0,143
-423,788	-43,997	0,102	0,037
-422,773	800,000	-0,015	-0,033
-421,759	276,023	0,016	-0,020
-420,744	22,625	0,056	0,033
-419,730	800,000	0,106	-0,218
-418,715	-31,464	0,062	-0,025
-417,701	563,678	-0,013	-0,023
-416,686	-24,530	0,120	-0,051
-415,671	787,993	0,080	-0,158
-414,657	-171,601	-0,041	-0,001
-413,642	297,872	-0,033	-0,043
-412,628	-118,912	-0,208	-0,026
-411,613	-200,000	-0,003	-0,091
-410,598	-143,243	-0,062	-0,004
-409,584	-47,840	0,124	-0,043
-408,569	391,633	-0,014	0,022
-407,555	-200,000	0,016	0,108
-406,540	-200,000	0,039	-0,141
-405,525	-8,539	-0,028	0,013
-404,511	-200,000	-0,014	-0,113
-403,496	-28,330	0,015	-0,006
-402,482	-159,628	0,028	0,001
-401,467	-124,138	0,110	-0,012
-400,452	415,954	-0,075	-0,115
-399,438	-57,753	0,049	-0,015
-398,423	151,861	-0,074	-0,072
-397,409	107,538	0,182	-0,155
-396,394	84,219	-0,032	-0,025
-395,379	272,967	-0,063	0,080
-394,365	-153,667	0,132	0,006
-393,350	-200,000	-0,011	-0,165
-392,336	800,000	-0,045	0,118
-391,321	-91,833	-0,134	0,027
-390,306	184,262	-0,093	-0,098
-389,292	800,000	-0,030	-0,091
-388,277	-200,000	0,006	0,099
-387,263	-36,527	-0,070	0,027
-386,248	295,693	-0,051	-0,067
-385,233	-99,196	0,123	0,022
-384,219	14,949	-0,090	-0,050
-383,204	-22,751	-0,133	-0,057
-382,190	611,801	0,057	0,102
-381,175	800,000	-0,031	0,085
-380,160	-185,245	0,128	-0,001
-379,146	-174,707	0,204	-0,004
-378,131	-59,000	-0,121	-0,037
-377,117	800,000	0,059	-0,159
-376,102	-109,850	0,069	0,010
-375,088	-200,000	0,019	0,082
-374,073	328,693	-0,037	0,051
-373,058	-200,000	-0,009	0,192
-372,044	325,774	0,090	0,124
-371,029	-56,667	-0,112	0,035
-370,015	14,183	0,082	-0,045
-369,000	-121,253	-0,025	0,003
-367,985	296,168	-0,053	-0,069
-366,971	482,940	-0,031	0,050
-365,956	286,660	0,013	-0,017
-364,942	106,924	0,083	-0,070
-363,927	35,376	0,073	0,046
-362,912	-159,470	0,063	0,002
-361,898	313,551	-0,044	-0,059
-360,883	-55,686	0,110	-0,035
-359,869	-45,986	0,195	-0,068
-358,854	692,265	-0,040	0,076
-357,839	-200,000	0,011	0,035
-356,825	800,000	-0,064	0,161
-355,810	-138,336	-0,080	0,006
-354,796	-200,000	-0,000	0,011
-353,781	25,482	0,083	-0,049
-352,766	-0,608	-0,110	-0,055
-351,752	325,056	-0,058	-0,080
-350,737	296,016	0,022	0,028
-349,723	-200,000	-0,011	0,041
-348,708	343,725	0,024	0,034
-347,693	-156,549	-0,164	0,007
-346,679	-200,000	-0,018	-0,082
-345,664	-38,947	-0,080	0,030
-344,650	133,740	0,058	-0,054
-343,635	-185,647	0,101	-0,001
-342,620	274,819	0,061	0,077
-341,606	-194,902	0,065	0,000
-340,591	20,694	0,119	-0,068
-339,577	-182,978	-0,176	0,002
-338,562	350,614	-0,046	-0,066
-337,548	-14,413	-0,112	-0,051
-336,533	-162,216	0,153	0,005
-335,518	36,986	0,138	0,087
-334,504	-200,000	0,020	0,105
-333,489	-200,000	-0,012	-0,043
-332,475	134,341	-0,055	-0,050
-331,460	-110,033	-0,048	-0,007
-330,445	-200,000	-0,002	-0,032
-329,431	58,904	0,045	0,032
-328,416	-82,761	0,149	0,034
-327,402	14,209	0,195	-0,108
-326,387	-200,000	-0,032	-0,134
-325,372	-200,000	-0,009	-0,096
-324,358	-93,626	-0,104	-0,020
-323,343	800,000	0,050	-0,105
-322,329	-200,000	0,013	0,111
-321,314	39,576	0,017	-0,011
-320,299	-59,967	-0,066	0,020
-319,285	512,878	-0,062	0,103
-318,270	162,930	-0,017	0,017
-317,256	141,179	-0,059	-0,055
-316,241	75,949	0,070	0,052
-315,226	-74,865	-0,102	0,026
-314,212	-80,833	0,050	0,012
-313,197	310,459	-0,096	0,129
-312,183	800,000	0,060	-0,151
-311,168	-130,195	0,114	-0,011
-310,153	574,372	0,028	0,049
-309,139	265,989	-0,004	0,005
-308,124	-18,658	0,116	-0,051
-307,110	369,885	0,100	0,145
-306,095	136,395	0,110	0,103
-305,080	241,175	0,068	-0,082
-304,066	800,000	-0,057	0,144
-303,051	800,000	0,014	-0,030
-302,037	800,000	-0,023	-0,054
-301,022	-30,821	-0,105	0,042
-300,008	-61,592	0,119	-0,035
-298,993	-73,146	-0,039	-0,010
-297,978	88,466	-0,056	0,044
-296,964	-200,000	-0,008	-0,094
-295,949	-111,487	0,030	-0,004
-294,935	250,532	-0,041	-0,050
-293,920	-161,141	0,103	0,004
-292,905	-200,000	0,020	-0,094
-291,891	800,000	-0,021	-0,054
-290,876	337,464	-0,062	-0,086
-289,862	800,000	0,022	0,050
-288,847	-110,533	-0,089	-0,013
-287,832	-200,000	-0,010	-0,107
-286,818	800,000	0,033	0,104
-285,803	-169,621	-0,172	-0,004
-284,789	408,549	0,062	0,094
-283,774	-200,000	0,001	0,240
-282,759	110,353	-0,019	-0,016
-281,745	-30,950	-0,061	-0,024
-280,730	800,000	-0,060	-0,121
-279,716	800,000	-0,030	0,080
-278,701	341,534	-0,027	0,038
-277,686	-66,744	0,095	-0,027
-276,672	-152,446	0,031	0,002
-275,657	-114,693	0,084	-0,011
-274,643	800,000	0,036	0,086
-273,628	618,707	-0,086	0,155
-272,613	298,858	-0,052	-0,069
-271,599	-200,000	0,002	0,034
-270,584	378,884	0,042	0,061
-269,570	680,558	0,062	0,115
-268,555	-200,000	-0,019	0,118
-267,540	800,000	0,017	-0,051
-266,526	-100,396	-0,095	0,017
-265,511	-64,526	-0,100	-0,029
-264,497	-200,000	-0,027	0,101
-263,482	337,199	-0,024	0,033
-262,467	-99,599	0,046	0,008
-261,453	-74,972	0,092	-0,023
-260,438	148,128	-0,090	0,087
-259,424	159,174	-0,122	-0,121
-258,409	-54,249	-0,006	0,002
-257,395	65,949	-0,077	0,055
-256,380	114,758	0,046	0,040
-255,365	-200,000	0,015	0,048
-254,351	-109,446	0,071	-0,011
-253,336	217,050	-0,106	-0,120
-252,322	390,934	0,015	-0,021
-251,307	-200,000	0,053	-0,186
-250,292	-108,108	0,121	0,018
-249,278	-200,000	-0,004	-0,055
-248,263	-200,000	0,003	-0,017
-247,249	-199,499	0,079	0,000
-246,234	-48,198	-0,161	-0,055
-245,219	-21,526	-0,081	-0,035
-244,205	-186,787	-0,147	0,001
-243,190	800,000	0,046	0,103
-242,176	77,726	-0,138	-0,105
-241,161	119,914	-0,037	0,033
-240,146	143,298	0,147	-0,139
-239,132	-200,000	-0,009	-0,035
-238,117	349,538	0,042	-0,059
-237,103	72,948	-0,156	-0,115
-236,088	-29,822	0,049	-0,020
-235,073	800,000	0,039	0,107
-234,059	42,578	0,097	0,063
-233,044	-78,372	0,167	0,040
-232,030	-140,140	-0,122	-0,009
-231,015	27,171	-0,034	0,020
-230,000	148,568	-0,043	-0,041
-228,986	251,465	0,061	0,074
-227,971	800,000	0,029	0,088
-226,957	-200,000	-0,003	-0,051
-225,942	800,000	-0,030	0,063
-224,927	680,436	0,025	0,046
-223,913	-115,267	0,052	-0,007
-222,898	290,555	0,074	-0,095
-221,884	-53,147	0,134	-0,043
-220,869	38,812	0,047	-0,030
-219,855	800,000	0,062	0,194
-218,840	800,000	-0,035	-0,083
-217,825	-70,825	-0,019	-0,005
-216,811	-200,000	-0,016	-0,059
-215,796	-176,461	0,062	0,001
-214,782	58,313	-0,135	-0,094
-213,767	-200,000	0,008	0,033
-212,752	791,248	0,013	0,025
-211,738	28,845	0,093	-0,056
-210,723	51,059	-0,049	0,033
-209,709	800,000	0,018	-0,051
-208,694	-198,054	-0,116	-0,000
-207,679	68,178	-0,156	0,113
-206,665	157,779	0,127	-0,125
-205,650	-98,471	0,015	-0,003
-204,636	-121,810	0,085	-0,010
-203,621	658,733	-0,029	-0,053
-202,606	-200,000	0,019	0,064
-201,592	15,519	0,129	-0,072
-200,577	71,707	-0,089	0,066
-199,563	-132,080	-0,086	-0,008
-198,548	39,583	-0,057	0,036
-197,533	46,315	0,082	-0,054
-196,519	-187,101	-0,007	0,000
-195,504	-200,000	0,040	0,141
-194,490	623,103	0,053	-0,096
-193,475	247,649	-0,052	-0,063
-192,460	56,960	-0,053	-0,036
-191,446	55,458	0,094	0,065
-190,431	-61,382	0,032	0,009
-189,417	120,623	0,015	0,013
-188,402	572,661	-0,058	0,100
-187,387	800,000	-0,081	-0,179
-186,373	277,393	-0,079	-0,100
-185,358	12,580	0,071	-0,039
-184,344	800,000	-0,031	-0,066
-183,329	-200,000	0,030	0,210
-182,315	800,000	0,069	0,184
-181,300	-133,999	-0,062	-0,005
-180,285	800,000	-0,057	0,115
-179,271	431,302	-0,060	0,093
-178,256	-53,574	-0,056	-0,018
-177,242	800,000	0,044	-0,120
-176,227	800,000	-0,016	0,050
-175,212	10,383	0,142	0,077
-174,198	35,493	-0,042	0,026
-173,183	364,026	0,072	-0,103
-172,169	800,000	-0,022	-0,068
-171,154	-18,979	-0,090	0,040
-170,139	260,961	-0,072	0,089
-169,125	-200,000	-0,009	0,136
-168,110	800,000	-0,075	0,218
-167,096	-145,755	0,110	0,007
-166,081	-200,000	0,006	-0,073
-165,066	143,244	-0,103	0,098
-164,052	164,644	0,063	0,063
-163,037	-79,226	-0,069	-0,016
-162,023	704,675	0,059	0,111
-161,008	-158,689	0,151	-0,006
-159,993	-200,000	0,013	0,136
-158,979	-71,983	-0,095	0,025
-157,964	-141,161	-0,093	0,007
-156,950	48,793	-0,075	-0,050
-155,935	355,393	0,037	-0,053
-154,920	-200,000	-0,001	-0,046
-153,906	456,912	-0,046	0,072
-152,891	-88,917	0,212	-0,044
-151,877	11,948	0,149	-0,081
-150,862	2,869	-0,060	0,031
-149,847	-200,000	0,032	0,100
-148,833	237,596	0,071	-0,083
-147,818	29,437	0,116	0,070
-146,804	-42,601	-0,058	0,021
-145,789	-24,018	0,115	0,048
-144,775	108,797	-0,086	0,073
-143,760	-45,089	-0,067	0,024
-142,745	101,447	0,046	-0,038
-141,731	-91,659	-0,079	0,016
-140,716	188,473	0,063	0,067
-139,702	-200,000	0,007	0,093
-138,687	-122,729	-0,104	0,012
-137,672	10,988	-0,035	-0,019
-136,658	800,000	-0,038	-0,089
-135,643	-200,000	-0,016	-0,100
-134,629	32,023	-0,141	-0,086
-133,614	800,000	0,030	0,070
-132,599	800,000	0,054	0,135
-131,585	-141,130	0,187	-0,013
-130,570	-87,549	-0,053	0,011
-129,556	-200,000	-0,001	-0,057
-128,541	800,000	0,076	-0,158
-127,526	800,000	-0,053	-0,127
-126,512	-200,000	0,007	0,081
-125,497	-41,734	0,098	-0,035
-124,483	800,000	-0,031	0,093
-123,468	631,781	-0,004	0,008
-122,453	-56,686	0,079	0,025
-121,439	-46,728	0,194	0,067
-120,424	-200,000	-0,004	0,059
-119,410	-77,668	0,289	-0,070
-118,395	-200,000	0,019	0,167
-117,380	-200,000	0,000	0,004
-116,366	-200,000	-0,017	-0,103
-115,351	343,161	0,030	-0,041
-114,337	63,272	-0,060	-0,043
-113,322	-37,137	-0,053	0,020
-112,307	-200,000	-0,013	0,125
-111,293	-22,328	-0,036	0,015
-110,278	-42,149	-0,085	0,031
-109,264	-42,206	0,176	0,063
-108,249	443,245	0,032	-0,050
-107,234	-200,000	0,010	-0,077
-106,220	-137,312	-0,066	0,005
-105,205	343,158	0,051	0,071
-104,191	-68,273	-0,080	0,022
-103,176	-200,000	-0,018	0,087
-102,162	349,273	0,023	0,033
-101,147	-200,000	0,001	-0,145
-100,132	425,565	-0,019	0,029
-99,118	575,084	0,018	-0,031
-98,103	-42,967	0,052	0,018
-97,089	-200,000	-0,028	0,112
-96,074	413,767	-0,062	0,094
-95,059	-200,000	0,012	0,137
-94,045	800,000	-0,105	0,260
-93,030	-4,952	0,132	-0,064
-92,016	782,628	0,056	0,110
-91,001	159,290	-0,096	-0,095
-89,986	284,609	-0,044	0,056
-88,972	-106,507	0,111	0,017
-87,957	-125,863	0,082	-0,009
-86,943	334,513	0,079	0,108
-85,928	-200,000	-0,017	0,072
-84,913	-0,071	0,218	0,109
-83,899	-66,322	0,041	0,012
-82,884	253,980	-0,071	0,086
-81,870	-200,000	-0,041	0,162
-80,855	800,000	0,044	0,098
-79,840	-200,000	-0,023	-0,095
-78,826	-67,798	0,056	-0,015
-77,811	-126,056	-0,067	-0,007
-76,797	-11,027	-0,112	0,052
-75,782	-104,671	-0,058	0,009
-74,767	390,488	-0,016	-0,024
-73,753	-200,000	-0,012	-0,045
-72,738	-175,039	-0,064	-0,001
-71,724	84,104	0,082	-0,063
-70,709	-104,462	-0,075	-0,012
-69,694	-200,000	0,018	-0,067
-68,680	343,707	0,074	0,103
-67,665	38,177	0,122	0,077
-66,651	800,000	-0,056	0,155
-65,636	-39,035	-0,124	0,046
-64,622	-103,186	-0,136	-0,022
-63,607	-200,000	-0,010	-0,075
-62,592	246,151	-0,048	-0,057
-61,578	-46,452	0,137	0,047
-60,563	-200,000	-0,041	0,185
-59,549	82,606	0,093	0,071
-58,534	49,430	-2,089	-1,384
-57,519	590,687	-1,008	-1,762
-56,505	-200,000	-0,292	-4,518
-55,490	509,768	0,964	1,586
-54,476	800,000	5,308	11,610
-53,461	-200,000	22,545	347,577
-52,446	800,000	757,548	2284,954
-51,432	530,316	1641,571	2746,164
-50,417	67,348	1640,045	1178,771
-49,403	15,417	1517,945	837,974
-48,388	9,657	1444,456	769,766
-47,373	19,235	1437,449	811,597
-46,359	13,146	1425,688	776,224
-45,344	7,982	1421,703	749,624
-44,330	7,961	1419,548	748,359
-43,315	7,867	1417,899	747,017
-42,300	7,915	1416,037	746,234
-41,286	7,933	1414,927	745,702
-40,271	7,875	1413,772	744,792
-39,257	7,899	1412,581	744,247
-38,242	7,911	1411,466	743,688
-37,227	7,910	1410,324	743,053
-36,213	7,911	1408,925	742,291
-35,198	7,900	1407,722	741,576
-34,184	7,957	1406,790	741,321
-33,169	7,893	1405,609	740,372
-32,154	7,849	1404,876	739,748
-31,140	7,887	1403,463	739,153
-30,125	7,879	1402,323	738,484
-29,111	7,897	1401,080	737,888
-28,096	7,903	1399,769	737,194
-27,082	7,865	1398,617	736,381
-26,067	7,826	1397,748	735,714
-25,052	7,880	1396,498	735,278
-24,038	7,835	1395,757	734,649
-23,023	7,807	1394,909	734,044
-22,009	7,865	1393,646	733,616
-20,994	7,831	1392,642	732,902
-19,979	7,817	1391,675	732,298
-18,965	7,788	1390,881	731,721
-17,950	7,756	1389,858	731,004
-16,936	7,784	1389,163	730,737
-15,921	7,703	1388,114	729,784
-14,906	7,774	1386,962	729,478
-13,892	7,800	1385,818	728,967
-12,877	7,733	1385,432	728,424
-11,863	7,734	1384,622	727,976
-10,848	7,677	1383,651	727,175
-9,833	7,665	1382,756	726,618
-8,819	7,635	1381,926	726,017
-7,804	7,632	1380,812	725,387
-6,790	7,646	1379,819	724,901
-5,775	7,692	1378,926	724,614
-4,760	7,684	1377,834	723,974
-3,746	7,683	1376,960	723,483
-2,731	7,677	1376,398	723,131
-1,717	7,638	1375,392	722,394
-0,702	7,632	1373,590	721,393
0,313	11,559	1283,605	691,917
1,327	27,207	675,513	398,922
2,342	42,646	116,017	74,306
3,356	-0,864	16,553	8,235
4,371	-0,412	3,971	1,981
5,386	-6,974	1,525	0,727
6,400	800,000	0,319	0,654
7,415	-73,099	-0,171	-0,044
8,429	-115,741	-0,188	0,024
9,444	5,557	-0,351	-0,182
10,459	-18,642	-0,181	-0,079
11,473	-8,715	-0,386	-0,182
12,488	-122,396	-0,259	0,029
13,502	-5,134	-0,359	-0,174
14,517	22,679	-0,285	-0,164
15,531	48,369	-0,396	-0,261
16,546	-14,980	-0,260	-0,117
17,561	-6,533	-0,453	-0,216
18,575	123,414	-0,150	-0,133
19,590	199,633	-0,241	-0,260
20,604	3,135	-0,279	-0,142
21,619	72,372	-0,463	-0,339
22,634	84,822	-0,439	-0,338
23,648	105,466	-0,403	-0,335
24,663	-66,297	-0,361	-0,100
25,677	58,241	-0,398	-0,274
26,692	-48,933	-0,299	-0,100
27,707	201,129	-0,297	-0,322
28,721	179,973	-0,352	-0,363
29,736	99,709	-0,477	-0,388
30,750	123,481	-0,486	-0,429
31,765	68,506	-0,432	-0,311
32,780	-26,099	-0,316	-0,130
33,794	101,636	-0,304	-0,249
34,809	-25,332	-0,460	-0,190
35,823	-52,184	-0,401	-0,130
36,838	138,443	-0,264	-0,244
37,853	73,759	-0,453	-0,333
38,867	-90,136	-0,422	-0,086
39,882	162,068	-0,235	-0,231
40,896	146,652	-0,269	-0,254
41,911	41,803	-0,407	-0,259
42,926	185,094	-0,264	-0,276
43,940	104,520	-0,269	-0,223
44,955	288,428	-0,217	-0,276
45,969	142,680	-0,342	-0,319
46,984	93,890	-0,270	-0,215
47,999	-49,059	-0,318	-0,106
49,013	-10,414	-0,313	-0,145
50,028	-96,181	-0,418	-0,077
51,042	148,232	-0,278	-0,263
52,057	106,268	-0,235	-0,196
53,071	110,037	-0,288	-0,243
54,086	357,308	-0,157	-0,221
55,101	39,010	-0,272	-0,170
56,115	52,931	-0,371	-0,249
57,130	60,283	-0,403	-0,279
58,144	18,450	-0,294	-0,164
59,159	69,327	-0,511	-0,369
60,174	14,578	-0,395	-0,216
61,188	93,767	-0,437	-0,347
62,203	99,253	-0,231	-0,187
63,217	19,051	-0,334	-0,187
64,232	-24,524	-0,476	-0,198
65,247	161,376	-0,280	-0,275
66,261	68,346	-0,415	-0,298
67,276	286,003	-0,335	-0,425
68,290	188,494	-0,295	-0,310
69,305	174,914	-0,168	-0,171
70,320	-107,189	-0,373	-0,057
71,334	60,225	-0,272	-0,188
72,349	-50,356	-0,354	-0,116
73,363	95,709	-0,367	-0,293
74,378	-7,590	-0,456	-0,215
75,393	198,355	-0,269	-0,288
76,407	-84,971	-0,250	-0,054
77,422	-69,015	-0,360	-0,096
78,436	-85,031	-0,378	-0,082
79,451	80,410	-0,280	-0,211
80,466	-33,405	-0,294	-0,113
81,480	-79,766	-0,367	-0,086
82,495	71,531	-0,249	-0,181
83,509	125,335	-0,135	-0,119
84,524	-25,314	-0,243	-0,100
85,539	90,326	-0,341	-0,267
86,553	18,033	-0,379	-0,211
87,568	-40,770	-0,379	-0,136
88,582	-95,522	-0,244	-0,045
89,597	-41,393	-0,282	-0,101
90,611	-102,614	-0,277	-0,046
91,626	-184,912	-0,207	0,002
92,641	-54,123	-0,111	-0,035
93,655	-64,545	-0,343	-0,097
94,670	416,113	-0,121	-0,181
95,684	-23,442	-0,218	-0,091
96,699	316,328	-0,220	-0,292
97,714	38,696	-0,325	-0,202
98,728	252,216	-0,137	-0,164
99,743	46,101	-0,239	-0,154
100,757	3,579	-0,369	-0,188
101,772	-55,803	-0,217	-0,067
102,787	176,530	-0,205	-0,209
103,801	29,443	-0,481	-0,285
104,816	182,272	-0,242	-0,250
105,830	23,979	-0,217	-0,125
106,845	45,820	-0,152	-0,098
107,860	2,442	-0,285	-0,144
108,874	-87,968	-0,261	-0,054
109,889	157,144	-0,195	-0,188
110,903	-91,220	-0,244	-0,048
111,918	29,349	-0,252	-0,149
112,933	800,000	-0,104	-0,226
113,947	210,138	-0,259	-0,284
114,962	134,407	-0,284	-0,257
115,976	-58,771	-0,291	-0,087
116,991	48,451	-0,163	-0,106
118,006	323,412	-0,199	-0,265
119,020	206,267	-0,170	-0,185
120,035	580,230	-0,148	-0,254
121,049	-148,965	-0,291	-0,016
122,064	-24,316	-0,197	-0,082
123,079	-78,696	-0,126	0,030
124,093	108,310	-0,215	-0,178
125,108	-111,659	-0,224	-0,031
126,122	189,436	-0,201	-0,210
127,137	-70,862	-0,207	-0,054
128,151	-200,000	-0,025	-0,078
129,166	-115,703	-0,247	-0,032
130,181	-43,209	-0,239	-0,084
131,195	-200,000	-0,056	-0,174
132,210	-8,577	-0,220	-0,103
133,224	66,023	-0,342	-0,241
134,239	62,449	-0,294	-0,204
135,254	-42,675	-0,199	-0,070
136,268	168,310	-0,167	-0,165
137,283	-89,502	-0,339	-0,069
138,297	-39,801	-0,271	-0,098
139,312	591,013	-0,130	-0,224
140,327	-0,063	-0,359	-0,177
141,341	-110,480	-0,199	-0,028
142,356	800,000	-0,102	-0,257
143,370	192,898	-0,235	-0,248
144,385	219,791	-0,121	-0,135
145,400	130,569	-0,184	-0,164
146,414	391,214	-0,103	-0,149
147,429	45,509	-0,276	-0,177
148,443	317,622	-0,178	-0,236
149,458	-100,005	-0,145	0,025
150,473	365,267	-0,146	-0,205
151,487	-27,718	-0,213	-0,086
152,502	40,783	-0,258	-0,161
153,516	-83,723	-0,165	-0,036
154,531	-2,270	-0,213	-0,104
155,546	-200,000	-0,039	-0,124
156,560	296,825	-0,110	-0,141
157,575	-200,000	0,026	-0,249
158,589	-47,977	-0,247	-0,082
159,604	92,707	-0,225	-0,176
160,619	-15,170	-0,288	-0,128
161,633	-77,422	-0,164	-0,039
162,648	52,460	-0,280	-0,185
163,662	-14,389	-0,229	-0,102
164,677	-66,764	-0,330	-0,090
165,692	-66,353	-0,295	-0,081
166,706	140,273	-0,269	-0,247
167,721	167,600	-0,151	-0,149
168,735	8,139	-0,292	-0,152
169,750	205,217	-0,255	-0,275
170,764	6,781	-0,197	-0,101
171,779	188,596	-0,196	-0,203
172,794	560,027	-0,165	-0,278
173,808	221,919	-0,210	-0,235
174,823	59,853	-0,273	-0,187
175,837	422,039	-0,098	-0,146
176,852	27,246	-0,241	-0,140
177,867	-96,176	-0,215	-0,039
178,881	-128,320	-0,182	0,018
179,896	-161,484	-0,329	-0,012
180,910	39,979	-0,244	-0,152
181,925	-28,142	-0,321	-0,128
182,940	-144,760	-0,154	0,010
183,954	44,313	-0,238	-0,151
184,969	145,721	-0,229	-0,213
185,983	268,688	-0,166	-0,202
186,998	63,860	-0,215	-0,149
188,013	-40,984	-0,292	-0,104
189,027	800,000	-0,100	-0,220
190,042	91,717	-0,245	-0,191
191,056	-54,609	-0,179	-0,056
192,071	253,236	-0,186	-0,221
193,086	-69,415	-0,241	-0,064
194,100	231,095	-0,124	-0,141
195,115	-61,014	-0,263	-0,076
196,129	24,061	-0,268	-0,153
197,144	31,419	-0,131	-0,078
198,159	800,000	-0,028	-0,076
199,173	800,000	-0,084	-0,182
200,188	48,776	-0,132	-0,085
201,202	-93,175	-0,223	-0,042
202,217	291,036	-0,140	-0,177
203,232	800,000	-0,054	-0,107
204,246	800,000	-0,083	-0,168
205,261	10,616	-0,160	-0,084
206,275	63,765	-0,185	-0,129
207,290	132,169	-0,174	-0,155
208,304	110,390	-0,225	-0,187
209,319	800,000	0,073	-0,192
210,334	242,003	-0,161	-0,187
211,348	467,222	-0,153	-0,239
212,363	4,507	-0,258	-0,131
213,377	-1,821	-0,071	-0,034
214,392	800,000	-0,048	-0,147
215,407	-91,618	-0,208	-0,041
216,421	-10,718	-0,158	-0,072
217,436	16,610	-0,253	-0,138
218,450	162,720	-0,152	-0,148
219,465	119,677	-0,268	-0,230
220,480	224,749	-0,122	-0,137
221,494	348,493	-0,147	-0,202
222,509	239,794	-0,100	-0,116
223,523	96,006	-0,180	-0,142
224,538	304,072	-0,059	-0,076
225,553	-6,912	-0,264	-0,124
226,567	164,923	-0,182	-0,178
227,582	44,561	-0,214	-0,135
228,596	800,000	0,072	-0,173
229,611	-11,412	-0,163	-0,074
230,626	-78,132	-0,178	-0,042
231,640	215,486	-0,182	-0,199
232,655	154,051	-0,170	-0,161
233,669	-45,707	-0,365	-0,124
234,684	124,622	-0,155	-0,135
235,699	-165,089	-0,221	-0,007
236,713	29,869	-0,083	-0,049
237,728	-77,643	-0,295	-0,070
238,742	94,989	-0,191	-0,150
239,757	-18,993	-0,136	-0,058
240,772	-119,786	-0,247	-0,029
241,786	291,959	-0,170	-0,214
242,801	-69,315	-0,120	0,032
243,815	-39,746	-0,117	-0,042
244,830	-116,431	-0,222	-0,028
245,844	-75,459	-0,141	-0,034
246,859	14,897	-0,219	-0,118
247,874	132,757	-0,219	-0,195
248,888	-16,207	-0,195	-0,085
249,903	-36,773	-0,150	-0,055
250,917	552,477	-0,096	-0,160
251,932	800,000	-0,047	-0,137
252,947	-67,912	-0,120	-0,032
253,961	172,255	-0,146	-0,145
254,976	800,000	-0,103	-0,206
255,990	-66,798	-0,200	-0,054
257,005	-10,008	-0,133	-0,061
258,020	220,213	-0,137	-0,152
259,034	-146,082	-0,122	-0,007
260,049	-135,906	-0,133	-0,011
261,063	62,164	-0,181	-0,124
262,078	209,501	-0,120	-0,130
263,093	192,342	-0,221	-0,230
264,107	208,373	-0,118	-0,127
265,122	110,563	-0,110	-0,091
266,136	251,981	-0,130	-0,153
267,151	453,360	-0,112	-0,171
268,166	41,832	-0,278	-0,173
269,180	27,831	-0,167	-0,097
270,195	156,859	-0,223	-0,212
271,209	193,619	-0,210	-0,219
272,224	800,000	-0,081	-0,158
273,239	621,651	-0,075	-0,131
274,253	22,736	-0,198	-0,111
275,268	319,592	-0,168	-0,220
276,282	388,027	-0,125	-0,178
277,297	594,294	-0,057	-0,097
278,312	-158,400	-0,140	0,005
279,326	204,858	-0,126	-0,135
280,341	-132,594	-0,039	-0,003
281,355	-89,080	-0,172	-0,035
282,370	-104,028	-0,188	-0,030
283,384	-22,141	-0,124	-0,051
284,399	800,000	-0,053	-0,149
285,414	61,741	-0,153	-0,104
286,428	-12,056	-0,172	-0,077
287,443	-37,690	-0,145	0,053
288,457	-137,192	-0,299	0,023
289,472	270,642	-0,071	-0,087
290,487	800,000	-0,102	-0,196
291,501	589,500	-0,188	-0,320
292,516	-25,691	-0,177	-0,071
293,530	268,374	-0,145	-0,175
294,545	-165,529	-0,101	-0,003
295,560	269,108	-0,186	-0,224
296,574	48,183	-0,182	-0,117
297,589	208,062	-0,102	-0,110
298,603	110,960	-0,208	-0,172
299,618	70,726	-0,206	0,146
300,633	-196,317	-0,062	0,000
301,647	-66,517	-0,201	0,054
302,662	199,145	-0,034	-0,036
303,676	-200,000	0,007	0,034
304,691	102,930	-0,232	-0,187
305,706	-126,380	-0,096	-0,010
306,720	78,096	-0,119	-0,087
307,735	381,549	-0,067	-0,095
308,749	233,251	-0,117	-0,132
309,764	800,000	-0,046	-0,122
310,779	437,411	-0,083	-0,125
311,793	-95,621	-0,186	-0,034
312,808	-29,981	-0,248	-0,097
313,822	634,147	-0,105	-0,183
314,837	273,541	-0,177	-0,215
315,852	64,065	-0,143	-0,099
316,866	-179,759	-0,072	0,001
317,881	-184,255	-0,198	0,002
318,895	146,657	-0,085	0,078
319,910	-67,506	-0,207	-0,055
320,925	-59,668	-0,289	-0,084
321,939	139,198	-0,079	-0,071
322,954	485,416	-0,043	-0,067
323,968	143,695	-0,046	-0,042
324,983	353,444	-0,069	-0,095
325,997	229,696	-0,107	-0,120
327,012	4,054	-0,260	-0,130
328,027	-33,651	-0,234	-0,088
329,041	291,289	-0,216	-0,269
330,056	-117,924	-0,073	0,009
331,070	0,058	-0,125	0,061
332,085	800,000	-0,047	-0,110
333,100	-200,000	-0,055	-0,168
334,114	-42,766	-0,223	-0,077
335,129	121,541	-0,118	-0,101
336,143	-41,227	-0,218	-0,076
337,158	-200,000	0,015	-0,075
338,173	59,448	-0,085	-0,057
339,187	-2,269	-0,199	0,095
340,202	-128,201	-0,128	0,012
341,216	126,426	-0,184	-0,160
342,231	110,373	-0,189	-0,155
343,246	42,821	-0,071	0,044
344,260	-200,000	-0,002	0,013
345,275	-200,000	-0,005	-0,087
346,289	11,261	0,004	0,002
347,304	137,760	-0,224	-0,201
348,319	-35,198	-0,171	-0,063
349,333	448,862	-0,055	-0,084
350,348	46,986	-0,222	-0,141
351,362	-200,000	-0,028	-0,221
352,377	-141,491	-0,050	-0,003
353,392	76,504	-0,087	-0,063
354,406	0,183	-0,181	-0,088
355,421	207,927	1308,739	1398,709
356,435	159,971	1468,675	1399,151
