DTS Sentinel unit serial number:	SN410029Multiplexer serial number:	ORYXHardware model number:	OX2-SRSoftware version number:	ORYX F/W v4,00 Oryx Data Collector v3.7.2.0data status	okinstallation	B3 Nyhavnadifferential loss correction	single-endedforward channel	channel 1reverse channel	N/Adate	2023/12/05time	07:32:30forward acquisition time	300,00reverse acquisition time	0,00gamma	499,1914k internal	0,3200k external	0,3200temperature offset calibration	1,0000default loss term (dB/km)	0,3820temperature slope calibration	1,0000multiplexer offset coefficient	1,0000multiplexer slope coefficient	1,0000fibre end	0,00T internal ref (°C)	13,80T ext. ref 1 (°C)	-1,22T ext. ref 2 (°C)	-1,28length (m)	temperature (°C)	Stokes	anti-Stokes-744,400	109,567	-0,248	-0,216
-743,385	-200,000	-0,004	0,309
-742,371	625,442	-0,102	-0,188
-741,356	-200,000	0,051	0,252
-740,342	800,000	-0,082	-0,166
-739,327	800,000	0,152	0,357
-738,312	600,686	-0,175	-0,317
-737,298	-65,005	-0,183	0,053
-736,283	121,528	-0,170	-0,154
-735,269	-200,000	0,045	0,309
-734,254	19,458	-0,176	-0,103
-733,239	26,106	-0,104	0,063
-732,225	111,757	-0,103	-0,090
-731,210	-200,000	0,006	0,123
-730,196	733,329	-0,041	0,081
-729,181	-117,613	-0,051	0,007
-728,167	231,704	-0,029	0,035
-727,152	-86,768	-0,081	0,018
-726,137	-29,327	-0,068	-0,028
-725,123	-200,000	0,007	-0,027
-724,108	-11,407	0,058	-0,028
-723,094	-200,000	-0,004	-0,130
-722,079	800,000	-0,039	-0,084
-721,064	800,000	-0,038	-0,115
-720,050	-200,000	0,022	-0,136
-719,035	78,104	0,041	0,032
-718,021	-110,670	0,038	-0,006
-717,006	22,638	-0,060	-0,036
-715,991	368,543	0,051	0,075
-714,977	-200,000	0,008	-0,102
-713,962	-39,422	-0,076	-0,029
-712,948	800,000	0,023	-0,066
-711,933	800,000	-0,054	-0,121
-710,918	238,258	-0,071	-0,086
-709,904	602,242	-0,033	0,059
-708,889	223,270	0,122	-0,143
-707,875	-200,000	0,013	-0,089
-706,860	-200,000	-0,021	-0,096
-705,845	-68,286	0,146	0,041
-704,831	-42,738	-0,144	-0,053
-703,816	-106,071	0,043	-0,007
-702,802	96,068	-0,050	-0,042
-701,787	-200,000	0,027	0,097
-700,772	11,843	-0,157	-0,087
-699,758	-11,090	0,146	-0,070
-698,743	-63,659	-0,093	0,027
-697,729	800,000	-0,008	0,024
-696,714	-55,816	-0,056	-0,018
-695,699	-200,000	-0,041	-0,163
-694,685	675,383	-0,085	-0,160
-693,670	122,347	-0,095	-0,086
-692,656	-200,000	-0,006	-0,077
-691,641	-200,000	0,013	0,114
-690,627	-8,860	0,027	0,013
-689,612	-70,577	0,128	-0,035
-688,597	-111,928	0,021	-0,003
-687,583	103,725	-0,070	0,060
-686,568	-14,441	-0,092	0,043
-685,554	66,784	-0,092	0,068
-684,539	-90,644	0,152	0,032
-683,524	-200,000	0,000	0,042
-682,510	800,000	0,037	-0,080
-681,495	-200,000	-0,004	-0,092
-680,481	28,149	0,035	-0,021
-679,466	-117,072	0,104	0,014
-678,451	209,645	0,106	-0,120
-677,437	-91,233	-0,164	-0,034
-676,422	-96,061	0,062	0,012
-675,408	-23,858	0,090	0,039
-674,393	-200,000	-0,014	-0,052
-673,378	571,874	0,052	-0,092
-672,364	82,193	0,061	-0,048
-671,349	-200,000	0,031	0,104
-670,335	800,000	0,029	0,062
-669,320	68,096	0,113	0,084
-668,305	-200,000	0,018	0,134
-667,291	-200,000	0,003	-0,083
-666,276	800,000	0,011	0,024
-665,262	-200,000	-0,002	-0,049
-664,247	161,324	0,110	-0,112
-663,232	-200,000	0,036	0,300
-662,218	800,000	-0,046	0,112
-661,203	664,540	0,033	-0,062
-660,189	352,061	0,074	0,107
-659,174	-200,000	-0,026	-0,135
-658,159	433,429	-0,025	-0,040
-657,145	575,158	0,032	0,057
-656,130	-105,527	0,090	-0,015
-655,116	800,000	-0,004	0,010
-654,101	87,058	0,069	0,055
-653,086	-200,000	0,014	0,091
-652,072	135,029	0,076	-0,072
-651,057	-200,000	0,023	-0,095
-650,043	-78,021	-0,051	0,013
-649,028	14,254	-0,059	-0,033
-648,014	-200,000	0,041	0,148
-646,999	-200,000	-0,031	0,188
-645,984	447,902	-0,021	0,033
-644,970	229,215	-0,067	0,079
-643,955	57,176	-0,137	-0,096
-642,941	18,259	0,058	-0,033
-641,926	800,000	-0,017	-0,041
-640,911	800,000	0,035	0,107
-639,897	-200,000	0,001	-0,123
-638,882	150,801	-0,064	0,063
-637,868	518,554	-0,079	0,135
-636,853	800,000	0,011	0,025
-635,838	-200,000	-0,005	-0,161
-634,824	444,338	0,054	-0,087
-633,809	418,711	0,025	0,038
-632,795	-200,000	-0,015	0,175
-631,780	800,000	0,030	0,073
-630,765	232,410	0,056	-0,067
-629,751	-44,490	0,038	-0,014
-628,736	-83,649	-0,045	0,010
-627,722	206,393	-0,012	0,014
-626,707	-200,000	0,007	-0,047
-625,692	-116,263	-0,109	0,015
-624,678	800,000	-0,026	-0,066
-623,663	-200,000	0,020	-0,143
-622,649	-69,224	-0,138	-0,038
-621,634	-44,691	-0,013	0,005
-620,619	-25,101	-0,050	0,021
-619,605	-6,088	-0,085	0,042
-618,590	455,452	0,041	0,065
-617,576	-138,689	0,149	0,012
-616,561	-200,000	0,000	-0,048
-615,546	-200,000	0,029	-0,129
-614,532	79,939	-0,110	-0,086
-613,517	800,000	0,053	-0,131
-612,503	45,251	0,019	0,013
-611,488	153,062	-0,070	-0,070
-610,474	-122,335	0,063	-0,007
-609,459	269,579	0,066	0,084
-608,444	800,000	-0,035	-0,073
-607,430	-200,000	-0,007	-0,117
-606,415	-200,000	0,015	-0,108
-605,401	230,697	0,042	-0,050
-604,386	346,051	0,050	0,071
-603,371	220,953	0,060	0,069
-602,357	-200,000	0,010	0,039
-601,342	800,000	-0,011	0,026
-600,328	105,118	-0,073	0,062
-599,313	475,231	0,061	-0,101
-598,298	237,668	0,017	-0,021
-597,284	-200,000	0,003	0,043
-596,269	-8,941	0,004	-0,002
-595,255	-200,000	-0,007	-0,025
-594,240	-200,000	-0,002	0,086
-593,225	293,356	0,050	-0,066
-592,211	408,543	-0,132	-0,203
-591,196	607,059	-0,082	0,148
-590,182	-35,777	0,096	0,038
-589,167	-119,256	0,032	0,004
-588,152	-84,941	0,135	-0,030
-587,138	-200,000	0,019	-0,161
-586,123	121,873	-0,098	-0,088
-585,109	-200,000	-0,015	-0,188
-584,094	413,772	-0,069	-0,107
-583,079	461,507	0,087	0,141
-582,065	-200,000	-0,010	-0,054
-581,050	26,477	-0,079	-0,047
-580,036	-200,000	-0,016	-0,109
-579,021	36,763	0,066	-0,042
-578,006	800,000	0,022	0,049
-576,992	-80,716	-0,105	0,025
-575,977	800,000	0,001	0,002
-574,963	-33,184	0,098	0,039
-573,948	800,000	-0,030	0,081
-572,934	-200,000	0,027	-0,107
-571,919	-200,000	0,005	0,040
-570,904	231,047	-0,027	-0,032
-569,890	-200,000	0,018	-0,071
-568,875	-160,381	-0,030	-0,001
-567,861	-200,000	0,001	-0,080
-566,846	94,106	0,073	0,060
-565,831	269,084	0,032	0,041
-564,817	-200,000	0,027	-0,197
-563,802	-200,000	-0,002	-0,218
-562,788	244,571	-0,021	-0,025
-561,773	595,036	-0,087	0,157
-560,758	626,902	-0,087	0,160
-559,744	-131,058	-0,077	0,007
-558,729	-73,320	-0,167	0,044
-557,715	-200,000	-0,011	-0,039
-556,700	800,000	-0,023	-0,068
-555,685	800,000	0,009	0,026
-554,671	-200,000	0,003	-0,031
-553,656	352,698	0,043	-0,062
-552,642	516,033	-0,051	-0,086
-551,627	226,990	-0,038	0,044
-550,612	-200,000	-0,036	-0,194
-549,598	-58,695	0,037	-0,012
-548,583	-200,000	0,010	-0,064
-547,569	-118,999	0,060	-0,007
-546,554	4,853	0,167	0,089
-545,539	-200,000	-0,006	0,077
-544,525	-115,258	0,097	0,013
-543,510	-200,000	0,010	-0,063
-542,496	452,551	-0,069	-0,110
-541,481	-13,895	-0,146	-0,068
-540,466	-60,975	0,144	0,044
-539,452	23,121	-0,062	0,037
-538,437	123,902	0,030	0,027
-537,423	-188,497	0,135	0,001
-536,408	-35,837	-0,105	-0,041
-535,393	108,347	-0,017	0,014
-534,379	266,701	-0,180	-0,228
-533,364	-73,541	0,036	0,009
-532,350	-200,000	0,001	0,030
-531,335	126,451	0,094	0,086
-530,321	-67,343	0,080	0,022
-529,306	800,000	-0,053	-0,108
-528,291	800,000	0,010	-0,028
-527,277	-200,000	0,006	-0,069
-526,262	83,792	0,047	-0,037
-525,248	253,490	0,134	-0,166
-524,233	122,593	-0,070	0,063
-523,218	800,000	0,026	0,066
-522,204	-126,723	-0,037	0,004
-521,189	198,234	-0,062	0,069
-520,175	24,577	-0,190	-0,113
-519,160	-189,841	0,121	0,001
-518,145	800,000	0,081	0,226
-517,131	-200,000	0,002	0,117
-516,116	200,062	0,071	-0,079
-515,102	150,142	-0,079	-0,078
-514,087	-94,721	-0,129	-0,025
-513,072	62,618	-0,128	0,092
-512,058	764,697	-0,044	0,086
-511,043	20,248	0,103	0,060
-510,029	428,607	0,036	-0,056
-509,014	533,071	0,044	-0,076
-507,999	465,413	-0,005	0,008
-506,985	276,330	0,039	0,050
-505,970	800,000	0,013	-0,036
-504,956	-145,568	0,024	-0,002
-503,941	-200,000	-0,005	-0,102
-502,926	-131,845	0,110	-0,010
-501,912	800,000	0,086	0,191
-500,897	800,000	0,014	0,030
-499,883	-184,328	-0,127	-0,001
-498,868	254,030	-0,060	0,074
-497,853	27,361	-0,086	-0,052
-496,839	-200,000	-0,025	-0,095
-495,824	176,340	-0,016	-0,016
-494,810	91,205	-0,084	-0,068
-493,795	59,768	-0,063	0,045
-492,781	-8,035	-0,206	-0,100
-491,766	-143,943	0,120	0,008
-490,751	-32,896	0,080	-0,032
-489,737	485,192	-0,036	-0,059
-488,722	15,592	0,069	-0,039
-487,708	378,059	0,053	0,078
-486,693	-200,000	-0,001	0,048
-485,678	-52,812	0,162	0,053
-484,664	290,658	-0,020	-0,026
-483,649	-159,129	-0,069	0,003
-482,635	384,518	0,045	0,066
-481,620	49,392	0,110	0,074
-480,605	607,906	-0,030	0,054
-479,591	477,075	0,070	0,115
-478,576	64,772	0,108	0,079
-477,562	800,000	-0,031	-0,088
-476,547	-47,242	-0,055	-0,019
-475,532	11,126	-0,047	-0,026
-474,518	800,000	-0,007	-0,017
-473,503	-23,348	0,047	0,020
-472,489	516,000	-0,038	0,064
-471,474	133,549	-0,062	0,058
-470,459	31,630	0,052	0,032
-469,445	-99,616	-0,170	0,030
-468,430	-200,000	-0,025	0,110
-467,416	54,287	0,159	-0,110
-466,401	254,936	-0,052	-0,064
-465,386	-50,441	0,118	-0,040
-464,372	426,980	-0,040	-0,062
-463,357	518,142	0,030	0,050
-462,343	-200,000	0,030	-0,142
-461,328	225,582	0,011	-0,013
-460,313	150,960	-0,090	-0,088
-459,299	126,543	0,189	0,172
-458,284	800,000	0,008	-0,017
-457,270	-200,000	0,014	-0,073
-456,255	-72,636	-0,074	-0,019
-455,241	183,363	-0,102	-0,109
-454,226	429,843	-0,022	0,035
-453,211	-200,000	0,023	0,084
-452,197	311,101	0,046	0,062
-451,182	-5,201	0,107	-0,053
-450,168	800,000	-0,045	0,113
-449,153	30,314	0,055	-0,034
-448,138	5,793	0,056	0,030
-447,124	-53,915	-0,064	0,021
-446,109	75,730	-0,105	-0,080
-445,095	627,864	0,017	0,032
-444,080	414,531	-0,018	0,028
-443,065	389,841	-0,034	-0,050
-442,051	-35,003	-0,128	-0,050
-441,036	-200,000	0,023	0,080
-440,022	415,267	-0,140	-0,216
-439,007	56,146	0,043	0,030
-437,992	-2,946	0,215	0,108
-436,978	800,000	0,064	0,156
-435,963	-200,000	-0,009	0,070
-434,949	-200,000	0,003	0,037
-433,934	-148,607	-0,109	-0,006
-432,919	-200,000	-0,010	-0,067
-431,905	-120,861	0,081	0,010
-430,890	385,883	0,137	0,203
-429,876	28,456	0,125	0,076
-428,861	-65,255	0,167	0,048
-427,846	-200,000	-0,016	-0,055
-426,832	-171,524	0,063	-0,001
-425,817	304,794	0,090	-0,121
-424,803	220,983	-0,037	-0,043
-423,788	-20,341	0,126	0,055
-422,773	225,539	0,069	-0,081
-421,759	800,000	-0,044	0,103
-420,744	-155,681	0,137	0,006
-419,730	-43,741	-0,154	-0,055
-418,715	8,834	0,135	0,073
-417,701	182,725	0,033	-0,035
-416,686	196,407	-0,055	0,060
-415,671	-65,235	0,079	-0,023
-414,657	212,872	0,102	0,116
-413,642	645,124	-0,061	0,112
-412,628	114,440	0,064	0,056
-411,613	-200,000	0,034	-0,115
-410,598	13,456	0,065	-0,036
-409,584	800,000	0,009	-0,021
-408,569	-87,499	0,092	0,020
-407,555	103,061	0,049	0,041
-406,540	-99,624	-0,119	0,021
-405,525	800,000	-0,057	0,117
-404,511	30,380	-0,066	0,040
-403,496	-200,000	-0,016	-0,119
-402,482	-121,138	0,069	-0,008
-401,467	-64,035	-0,018	-0,005
-400,452	-200,000	0,019	0,091
-399,438	-200,000	0,004	0,114
-398,423	9,551	-0,125	0,068
-397,409	141,522	0,051	-0,049
-396,394	800,000	-0,016	-0,040
-395,379	800,000	0,018	-0,037
-394,365	800,000	0,058	-0,156
-393,350	800,000	-0,035	-0,089
-392,336	-200,000	-0,031	0,134
-391,321	800,000	0,081	0,239
-390,306	-200,000	-0,018	-0,079
-389,292	15,698	0,011	-0,006
-388,277	-67,495	-0,057	0,016
-387,263	-41,972	0,139	0,051
-386,248	0,908	0,052	-0,026
-385,233	-146,063	-0,085	0,005
-384,219	-27,385	-0,090	0,037
-383,204	17,545	-0,043	-0,024
-382,190	549,418	-0,106	-0,184
-381,175	-92,647	0,098	-0,020
-380,160	365,866	0,049	-0,071
-379,146	99,379	0,069	-0,057
-378,131	800,000	-0,044	-0,104
-377,117	130,148	-0,096	-0,088
-376,102	9,955	-0,122	0,066
-375,088	462,889	0,003	0,004
-374,073	99,213	-0,146	-0,121
-373,058	-200,000	0,050	0,186
-372,044	-200,000	-0,005	0,089
-371,029	142,942	-0,102	0,097
-370,015	-83,041	-0,020	0,004
-369,000	-200,000	-0,010	-0,131
-367,985	-142,085	0,062	-0,004
-366,971	-200,000	0,016	-0,093
-365,956	5,530	-0,018	0,009
-364,942	19,238	0,088	0,050
-363,927	675,145	0,086	0,161
-362,912	-200,000	-0,002	-0,088
-361,898	800,000	-0,027	0,073
-360,883	-20,436	-0,174	-0,076
-359,869	-86,048	0,054	0,012
-358,854	358,597	-0,075	0,107
-357,839	-46,820	0,095	-0,033
-356,825	233,567	-0,042	0,050
-355,810	-47,573	0,044	-0,015
-354,796	800,000	0,034	-0,078
-353,781	-200,000	-0,011	0,048
-352,766	-200,000	0,020	-0,099
-351,752	-97,683	0,070	0,013
-350,737	22,794	-0,050	-0,029
-349,723	-200,000	0,019	0,138
-348,708	-200,000	0,133	-0,000
-347,693	378,832	-0,054	0,080
-346,679	-200,000	-0,004	-0,073
-345,664	-10,066	0,145	-0,069
-344,650	57,165	0,019	0,014
-343,635	-119,939	0,084	0,010
-342,620	222,983	-0,024	0,028
-341,606	453,505	-0,075	-0,119
-340,591	-200,000	-0,012	0,055
-339,577	187,721	-0,102	0,110
-338,562	-102,724	-0,109	-0,018
-337,548	17,577	-0,111	0,063
-336,533	528,293	-0,059	0,101
-335,518	-200,000	0,036	-0,142
-334,504	-200,000	-0,010	0,055
-333,489	-142,818	-0,056	-0,004
-332,475	-200,000	0,015	-0,203
-331,460	17,473	-0,146	-0,083
-330,445	165,418	-0,123	0,124
-329,431	-122,944	0,097	0,011
-328,416	800,000	-0,034	0,073
-327,402	800,000	-0,057	0,156
-326,387	-115,685	-0,063	0,008
-325,372	68,730	0,082	0,060
-324,358	330,673	-0,081	-0,113
-323,343	-154,274	-0,081	0,004
-322,329	192,092	-0,039	0,043
-321,314	188,866	0,100	0,107
-320,299	-39,688	0,071	-0,026
-319,285	93,590	-0,042	0,034
-318,270	246,612	0,009	0,011
-317,256	61,534	-0,147	-0,104
-316,241	800,000	0,050	-0,109
-315,226	176,727	0,055	0,057
-314,212	-200,000	-0,007	0,178
-313,197	751,101	0,031	0,060
-312,183	52,682	-0,156	0,106
-311,168	-200,000	-0,009	0,045
-310,153	-84,723	-0,046	0,010
-309,139	-200,000	-0,006	-0,027
-308,124	-102,948	-0,073	0,012
-307,110	-41,029	0,087	0,032
-306,095	774,003	-0,030	0,060
-305,080	258,260	0,097	-0,120
-304,066	-200,000	-0,008	-0,130
-303,051	-200,000	-0,015	-0,136
-302,037	-78,119	0,038	-0,009
-301,022	-60,751	0,099	0,030
-300,008	-200,000	0,006	0,092
-298,993	-200,000	0,008	0,048
-297,978	29,289	0,085	0,051
-296,964	-71,119	-0,072	-0,019
-295,949	-167,265	0,084	0,002
-294,935	645,875	-0,067	-0,123
-293,920	-200,000	-0,031	-0,102
-292,905	18,166	0,118	0,067
-291,891	-200,000	0,023	-0,092
-290,876	-200,000	-0,008	0,110
-289,862	-191,439	-0,122	0,001
-288,847	-200,000	-0,032	-0,101
-287,832	-64,659	0,147	-0,042
-286,818	172,936	0,018	0,019
-285,803	20,958	0,209	0,121
-284,789	-110,756	-0,109	-0,016
-283,774	132,389	-0,068	0,063
-282,759	-200,000	-0,019	0,169
-281,745	-200,000	0,014	-0,051
-280,730	120,853	0,035	-0,031
-279,716	90,998	-0,105	-0,084
-278,701	-130,488	0,158	0,015
-277,686	1,416	0,156	-0,080
-276,672	115,217	0,057	0,050
-275,657	76,924	0,086	-0,065
-274,643	-144,351	-0,095	0,006
-273,628	800,000	0,033	-0,066
-272,613	-100,725	0,078	-0,014
-271,599	576,727	0,042	-0,074
-270,584	103,965	0,034	-0,029
-269,570	-200,000	-0,011	0,047
-268,555	-159,860	0,072	-0,003
-267,540	-200,000	-0,004	-0,043
-266,526	800,000	-0,018	-0,038
-265,511	41,438	0,068	0,044
-264,497	262,119	-0,136	-0,169
-263,482	-27,992	-0,091	-0,037
-262,467	48,402	-0,084	0,056
-261,453	20,305	0,071	0,041
-260,438	311,058	-0,125	0,168
-259,424	-200,000	-0,021	0,117
-258,409	-66,882	-0,078	0,022
-257,395	1,551	0,069	0,035
-256,380	-200,000	0,003	0,070
-255,365	322,856	-0,053	0,072
-254,351	800,000	0,030	-0,086
-253,336	-200,000	0,019	-0,109
-252,322	-39,257	-0,104	-0,039
-251,307	-200,000	-0,007	-0,042
-250,292	90,229	-0,137	-0,109
-249,278	440,089	0,055	0,085
-248,263	174,355	0,060	0,062
-247,249	-200,000	0,027	-0,088
-246,234	-200,000	0,002	-0,131
-245,219	800,000	-0,069	-0,145
-244,205	-20,775	0,053	0,023
-243,190	-50,120	0,087	0,029
-242,176	-65,631	-0,113	-0,032
-241,161	88,299	0,123	0,097
-240,146	-67,055	0,078	0,022
-239,132	-122,099	0,082	0,009
-238,117	-62,678	-0,044	0,013
-237,103	314,650	0,047	0,063
-236,088	-200,000	0,008	-0,091
-235,073	24,002	0,155	0,091
-234,059	-176,785	0,130	0,002
-233,044	-200,000	-0,040	0,250
-232,030	-200,000	0,011	0,092
-231,015	-200,000	0,026	-0,088
-230,000	800,000	-0,049	0,122
-228,986	-76,238	0,098	0,025
-227,971	-44,916	-0,062	0,022
-226,957	617,763	-0,057	-0,102
-225,942	-200,000	-0,017	0,090
-224,927	-200,000	0,006	0,098
-223,913	-200,000	-0,023	0,111
-222,898	684,582	0,049	-0,092
-221,884	19,203	-0,116	-0,066
-220,869	800,000	-0,069	-0,167
-219,855	71,841	0,128	0,095
-218,840	205,771	-0,053	0,058
-217,825	427,315	-0,075	0,116
-216,811	800,000	-0,014	-0,038
-215,796	-194,551	-0,130	-0,001
-214,782	-200,000	-0,029	-0,156
-213,767	800,000	0,059	0,151
-212,752	255,158	0,050	0,061
-211,738	701,289	0,013	-0,025
-210,723	800,000	0,073	0,150
-209,709	80,200	-0,050	0,038
-208,694	0,797	0,028	0,014
-207,679	-200,000	-0,002	-0,089
-206,665	17,372	0,028	-0,016
-205,650	-200,000	0,021	0,084
-204,636	-200,000	0,040	0,136
-203,621	31,589	0,062	0,038
-202,606	-200,000	0,007	0,098
-201,592	6,699	-0,184	-0,097
-200,577	-128,774	0,100	-0,010
-199,563	-200,000	-0,018	-0,123
-198,548	-29,339	0,106	-0,043
-197,533	-152,749	0,056	-0,003
-196,519	-200,000	-0,010	0,132
-195,504	-81,095	-0,100	0,023
-194,490	-54,751	0,096	-0,031
-193,475	-20,206	-0,115	-0,050
-192,460	354,126	-0,059	-0,084
-191,446	-200,000	-0,010	0,078
-190,431	62,617	0,074	0,053
-189,417	36,934	-0,020	-0,013
-188,402	-6,588	0,031	0,015
-187,387	800,000	-0,088	-0,215
-186,373	46,322	-0,047	0,031
-185,358	-200,000	0,009	0,079
-184,344	-35,582	-0,051	-0,019
-183,329	314,585	0,047	0,064
-182,315	728,765	0,056	0,107
-181,300	440,303	0,057	-0,089
-180,285	-83,764	-0,076	-0,017
-179,271	-68,060	-0,143	-0,039
-178,256	-200,000	-0,025	0,085
-177,242	-112,245	-0,043	-0,006
-176,227	-76,523	-0,045	-0,011
-175,212	36,319	0,095	-0,060
-174,198	-139,646	-0,113	-0,008
-173,183	742,243	-0,030	-0,058
-172,169	-84,773	-0,139	-0,031
-171,154	-186,034	0,047	0,000
-170,139	14,453	0,048	-0,027
-169,125	750,461	0,050	0,097
-168,110	-107,225	0,097	0,015
-167,096	-121,083	0,046	-0,005
-166,081	800,000	-0,032	-0,072
-165,066	800,000	0,014	-0,029
-164,052	94,406	0,141	0,114
-163,037	-200,000	-0,033	0,116
-162,023	69,199	0,040	0,029
-161,008	98,728	0,044	-0,036
-159,993	-127,575	-0,178	-0,018
-158,979	-17,572	-0,021	-0,009
-157,964	-150,185	-0,199	-0,011
-156,950	4,273	-0,071	-0,037
-155,935	796,775	-0,045	-0,088
-154,920	372,888	0,089	-0,130
-153,906	598,341	0,011	0,020
-152,891	32,498	-0,103	0,063
-151,877	-88,178	-0,046	-0,010
-150,862	800,000	-0,057	-0,163
-149,847	183,398	0,093	0,098
-148,833	800,000	0,007	-0,021
-147,818	135,201	0,039	0,036
-146,804	800,000	0,021	-0,063
-145,789	-200,000	-0,003	0,021
-144,775	-175,489	-0,088	0,002
-143,760	-137,911	-0,010	-0,001
-142,745	-104,174	-0,035	-0,006
-141,731	-146,195	-0,182	0,011
-140,716	408,164	-0,080	0,121
-139,702	-128,679	0,154	0,015
-138,687	180,873	-0,062	0,065
-137,672	47,877	0,105	0,070
-136,658	322,103	-0,060	-0,081
-135,643	-95,228	-0,015	-0,003
-134,629	-116,982	-0,125	0,016
-133,614	84,387	0,073	-0,056
-132,599	-200,000	-0,021	0,213
-131,585	-200,000	-0,003	0,037
-130,570	-112,963	-0,078	-0,011
-129,556	-200,000	0,007	-0,097
-128,541	-45,329	0,158	-0,055
-127,526	-137,758	-0,044	-0,003
-126,512	-200,000	-0,003	0,135
-125,497	-139,096	0,070	-0,005
-124,483	506,311	0,054	0,089
-123,468	208,340	-0,122	-0,136
-122,453	-200,000	0,012	0,074
-121,439	-200,000	0,008	0,067
-120,424	43,832	0,106	-0,069
-119,410	-200,000	-0,000	0,122
-118,395	-120,245	0,056	-0,007
-117,380	-35,838	-0,027	0,010
-116,366	-117,471	-0,095	0,012
-115,351	85,434	0,094	-0,073
-114,337	-0,177	0,158	-0,079
-113,322	-200,000	0,003	-0,039
-112,307	8,526	-0,039	-0,021
-111,293	-105,820	0,175	-0,028
-110,278	-200,000	0,008	-0,027
-109,264	-200,000	-0,015	0,086
-108,249	-200,000	-0,035	-0,113
-107,234	237,217	-0,040	-0,048
-106,220	384,721	-0,088	-0,130
-105,205	74,504	0,062	0,046
-104,191	-97,525	0,149	-0,027
-103,176	-85,288	-0,043	0,009
-102,162	-200,000	0,005	-0,099
-101,147	-30,491	-0,020	-0,008
-100,132	-84,613	0,007	-0,001
-99,118	341,419	-0,049	-0,069
-98,103	-84,293	-0,069	0,015
-97,089	502,250	-0,012	-0,021
-96,074	70,480	0,086	-0,063
-95,059	800,000	-0,049	0,154
-94,045	800,000	0,030	0,073
-93,030	-54,596	0,029	0,009
-92,016	-48,481	-0,053	-0,018
-91,001	31,518	0,104	0,063
-89,986	-200,000	-0,041	-0,147
-88,972	800,000	0,059	0,132
-87,957	-44,090	0,038	0,013
-86,943	-53,164	0,016	-0,005
-85,928	129,808	0,044	-0,040
-84,913	0,414	-0,116	0,058
-83,899	189,271	0,018	-0,019
-82,884	-141,849	0,107	-0,007
-81,870	27,586	-0,082	0,049
-80,855	-200,000	0,028	0,147
-79,840	22,431	-0,065	-0,037
-78,826	572,781	0,023	-0,039
-77,811	-76,515	-0,117	-0,029
-76,797	422,438	-0,053	-0,082
-75,782	-77,305	0,149	0,036
-74,767	170,714	-0,076	0,077
-73,753	45,534	0,059	-0,038
-72,738	-46,422	-0,088	0,030
-71,724	-200,000	0,016	-0,061
-70,709	-10,066	-0,057	-0,027
-69,694	-30,432	0,109	-0,043
-68,680	51,384	0,143	0,096
-67,665	800,000	0,059	0,139
-66,651	-200,000	-0,010	0,123
-65,636	28,417	0,069	0,041
-64,622	-200,000	-0,022	0,145
-63,607	-80,934	-0,086	0,020
-62,592	246,318	0,038	-0,046
-61,578	0,837	0,024	0,012
-60,563	-200,000	-0,006	-0,063
-59,549	-200,000	0,010	-0,045
-58,534	-38,778	-1,646	-0,612
-57,519	314,843	-1,421	-1,902
-56,505	-200,000	-0,505	-4,516
-55,490	201,039	0,883	0,964
-54,476	800,000	4,992	11,504
-53,461	-200,000	19,032	314,534
-52,446	-200,000	739,468	2327,039
-51,432	575,094	1655,744	2873,750
-50,417	79,093	1671,797	1266,867
-49,403	21,825	1544,550	888,878
-48,388	15,721	1467,104	814,616
-47,373	17,822	1457,094	819,185
-46,359	16,793	1447,222	808,662
-45,344	13,926	1442,407	792,201
-44,330	13,858	1440,565	790,834
-43,315	13,887	1438,883	790,017
-42,300	13,868	1437,321	789,034
-41,286	13,872	1436,079	788,340
-40,271	13,839	1434,828	787,466
-39,257	13,847	1433,510	786,749
-38,242	13,859	1432,364	786,148
-37,227	13,891	1431,080	785,566
-36,213	13,896	1429,620	784,753
-35,198	13,908	1428,557	784,195
-34,184	13,936	1427,725	783,841
-33,169	13,829	1426,418	782,588
-32,154	13,919	1425,291	782,364
-31,140	13,955	1423,796	781,684
-30,125	13,946	1422,908	781,122
-29,111	13,936	1421,504	780,273
-28,096	13,885	1420,554	779,479
-27,082	13,882	1419,252	778,721
-26,067	13,853	1418,273	778,014
-25,052	13,815	1417,201	777,217
-24,038	13,813	1416,433	776,757
-23,023	13,825	1415,107	776,052
-22,009	13,817	1414,246	775,510
-20,994	13,771	1413,464	774,838
-19,979	13,800	1412,478	774,402
-18,965	13,790	1411,576	773,830
-17,950	13,797	1410,582	773,284
-16,936	13,768	1409,745	772,659
-15,921	13,757	1408,537	771,918
-14,906	13,723	1407,974	771,420
-13,892	13,778	1406,854	771,033
-12,877	13,729	1405,826	770,210
-11,863	13,734	1405,048	769,776
-10,848	13,723	1404,148	769,201
-9,833	13,651	1403,288	768,364
-8,819	13,663	1402,329	767,865
-7,804	13,682	1401,366	767,392
-6,790	13,610	1400,321	766,457
-5,775	13,652	1399,286	766,054
-4,760	13,683	1398,391	765,680
-3,746	13,663	1397,408	765,018
-2,731	13,648	1396,587	764,467
-1,717	13,579	1395,975	763,782
-0,702	13,616	1394,123	762,910
0,313	17,334	1311,352	734,892
1,327	33,293	705,420	432,295
2,342	51,345	123,825	83,073
3,356	2,664	16,628	8,502
4,371	7,893	3,281	1,735
5,386	48,190	0,584	0,386
6,400	-200,000	0,039	0,154
7,415	70,601	-0,194	-0,142
8,429	101,893	-0,270	-0,223
9,444	102,034	-0,327	-0,270
10,459	105,465	-0,215	-0,179
11,473	-112,988	-0,357	-0,049
12,488	-144,897	-0,285	-0,018
13,502	-98,303	-0,423	-0,076
14,517	278,983	-0,226	-0,285
15,531	7,786	-0,479	-0,253
16,546	-25,782	-0,323	-0,134
17,561	297,459	-0,247	-0,322
18,575	-47,958	-0,144	-0,049
19,590	79,654	-0,186	-0,141
20,604	-121,884	-0,183	0,021
21,619	38,397	-0,392	-0,246
22,634	123,572	-0,410	-0,364
23,648	141,550	-0,403	-0,377
24,663	34,330	-0,471	-0,290
25,677	88,807	-0,343	-0,269
26,692	8,700	-0,290	-0,154
27,707	151,823	-0,495	-0,477
28,721	60,676	-0,285	-0,199
29,736	262,257	-0,381	-0,468
30,750	136,433	-0,353	-0,325
31,765	65,727	-0,463	-0,330
32,780	29,600	-0,351	-0,211
33,794	35,176	-0,287	-0,177
34,809	11,086	-0,318	-0,171
35,823	-18,759	-0,378	-0,165
36,838	-9,688	-0,457	-0,214
37,853	17,751	-0,357	-0,200
38,867	27,167	-0,338	-0,200
39,882	-69,933	-0,452	-0,121
40,896	-4,925	-0,446	-0,216
41,911	101,809	-0,333	-0,273
42,926	58,180	-0,348	-0,240
43,940	59,761	-0,435	-0,302
44,955	51,735	-0,361	-0,242
45,969	-57,951	-0,514	-0,157
46,984	17,102	-0,336	-0,187
47,999	47,144	-0,400	-0,262
49,013	-112,043	-0,212	-0,030
50,028	86,771	-0,461	-0,358
51,042	97,481	-0,329	-0,266
52,057	-17,649	-0,387	-0,171
53,071	61,693	-0,288	-0,201
54,086	123,179	-0,326	-0,288
55,101	178,409	-0,301	-0,310
56,115	-34,355	-0,390	-0,150
57,130	-20,809	-0,361	-0,155
58,144	-15,353	-0,348	-0,156
59,159	253,360	-0,264	-0,318
60,174	-20,930	-0,431	-0,185
61,188	80,209	-0,358	-0,271
62,203	-83,314	-0,425	-0,095
63,217	18,781	-0,367	-0,206
64,232	178,277	-0,277	-0,285
65,247	81,104	-0,409	-0,310
66,261	210,087	-0,313	-0,346
67,276	57,375	-0,331	-0,227
68,290	31,694	-0,355	-0,215
69,305	83,635	-0,306	-0,234
70,320	89,080	-0,354	-0,277
71,334	40,075	-0,187	-0,118
72,349	6,106	-0,273	-0,142
73,363	-43,704	-0,378	-0,133
74,378	-1,870	-0,353	-0,174
75,393	-8,777	-0,225	-0,106
76,407	-82,536	-0,285	-0,065
77,422	-158,565	-0,277	-0,011
78,436	116,715	-0,306	-0,264
79,451	42,263	-0,295	-0,188
80,466	144,175	-0,356	-0,334
81,480	106,734	-0,273	-0,228
82,495	-43,140	-0,327	-0,116
83,509	-13,975	-0,240	-0,109
84,524	17,575	-0,367	-0,205
85,539	226,323	-0,212	-0,242
86,553	104,884	-0,275	-0,227
87,568	-126,932	-0,332	-0,034
88,582	15,367	-0,277	-0,152
89,597	62,041	-0,230	-0,161
90,611	45,767	-0,224	-0,145
91,626	-76,133	-0,189	-0,047
92,641	-87,029	-0,291	-0,062
93,655	-17,328	-0,306	-0,135
94,670	156,966	-0,227	-0,220
95,684	132,775	-0,253	-0,229
96,699	92,178	-0,352	-0,278
97,714	30,984	-0,285	-0,171
98,728	-86,247	-0,295	-0,063
99,743	42,536	-0,204	-0,130
100,757	7,820	-0,458	-0,240
101,772	-134,397	-0,313	-0,027
102,787	326,189	-0,227	-0,306
103,801	443,141	-0,175	-0,270
104,816	262,153	-0,188	-0,229
105,830	-89,771	-0,260	-0,053
106,845	271,294	-0,226	-0,280
107,860	-93,816	-0,237	-0,045
108,874	106,956	-0,149	-0,124
109,889	9,724	-0,351	-0,186
110,903	147,334	-0,279	-0,264
111,918	113,097	-0,192	-0,163
112,933	275,989	-0,158	-0,197
113,947	-89,448	-0,207	-0,042
114,962	-49,598	-0,474	-0,157
115,976	79,468	-0,353	-0,265
116,991	13,708	-0,326	-0,177
118,006	203,696	-0,137	-0,149
119,020	699,924	-0,130	-0,240
120,035	-43,050	-0,308	-0,109
121,049	-110,357	-0,109	-0,016
122,064	-62,688	-0,240	-0,069
123,079	94,028	-0,314	-0,250
124,093	129,074	-0,230	-0,205
125,108	-36,433	-0,310	-0,116
126,122	58,624	-0,226	-0,155
127,137	800,000	-0,077	-0,224
128,151	501,021	-0,153	-0,248
129,166	282,008	-0,162	-0,203
130,181	159,018	-0,125	-0,122
131,195	-104,778	-0,307	-0,049
132,210	-34,413	-0,346	-0,132
133,224	-93,311	-0,255	-0,049
134,239	-80,616	-0,303	-0,070
135,254	117,537	-0,238	-0,205
136,268	95,402	-0,211	-0,168
137,283	-81,468	-0,188	-0,043
138,297	147,053	-0,283	-0,267
139,312	-1,225	-0,366	-0,180
140,327	74,223	-0,306	-0,225
141,341	17,090	-0,290	-0,160
142,356	-90,145	-0,236	-0,048
143,370	77,288	-0,105	-0,078
144,385	783,954	-0,102	-0,195
145,400	88,525	-0,243	-0,189
146,414	3,569	-0,263	-0,133
147,429	92,968	-0,297	-0,235
148,443	-57,747	-0,229	-0,070
149,458	233,080	-0,193	-0,222
150,473	-135,051	-0,112	0,009
151,487	33,966	-0,239	-0,145
152,502	344,969	-0,124	-0,171
153,516	173,417	-0,257	-0,260
154,531	184,068	-0,277	-0,287
155,546	227,540	-0,083	-0,095
156,560	-3,775	-0,171	-0,082
157,575	17,694	-0,284	-0,158
158,589	-99,424	-0,280	-0,049
159,604	295,850	-0,240	-0,308
160,619	353,595	-0,190	-0,263
161,633	-12,217	-0,213	-0,097
162,648	271,272	-0,244	-0,300
163,662	89,398	-0,181	-0,141
164,677	14,805	-0,193	-0,105
165,692	88,571	-0,343	-0,266
166,706	-22,184	-0,206	-0,087
167,721	189,498	-0,226	-0,237
168,735	290,174	-0,176	-0,224
169,750	371,110	-0,233	-0,330
170,764	-200,000	-0,041	-0,286
171,779	130,994	-0,229	-0,205
172,794	495,252	-0,145	-0,233
173,808	-134,381	-0,201	-0,017
174,823	69,855	-0,155	-0,111
175,837	30,875	-0,225	-0,134
176,852	133,444	-0,213	-0,192
177,867	131,881	-0,147	-0,131
178,881	-51,616	-0,194	-0,063
179,896	214,736	-0,104	-0,115
180,910	160,969	-0,226	-0,220
181,925	487,034	-0,155	-0,248
182,940	10,887	-0,147	-0,078
183,954	92,117	-0,153	-0,120
184,969	8,641	-0,301	-0,157
185,983	-41,627	-0,213	-0,076
186,998	394,502	-0,124	-0,181
188,013	-60,171	-0,239	-0,071
189,027	-62,339	-0,264	0,076
190,042	307,154	-0,270	-0,351
191,056	-148,688	-0,161	0,009
192,071	-33,452	-0,218	-0,083
193,086	-123,168	-0,137	-0,015
194,100	-48,852	-0,208	-0,069
195,115	-69,460	-0,280	-0,074
196,129	224,045	-0,190	-0,213
197,144	168,452	-0,158	-0,156
198,159	247,586	-0,245	-0,289
199,173	543,217	-0,096	-0,160
200,188	564,000	-0,116	-0,196
201,202	-177,684	-0,283	-0,005
202,217	800,000	-0,096	-0,187
203,232	138,492	-0,114	-0,104
204,246	38,874	-0,238	-0,148
205,261	-52,102	-0,276	-0,089
206,275	800,000	-0,069	-0,147
207,290	8,299	-0,132	-0,069
208,304	51,426	-0,179	-0,118
209,319	-45,350	-0,209	-0,071
210,334	371,500	-0,125	-0,176
211,348	241,868	-0,161	-0,187
212,363	79,040	-0,165	-0,122
213,377	286,968	-0,196	-0,247
214,392	-7,554	-0,263	-0,123
215,407	536,270	-0,118	-0,195
216,421	-200,000	0,006	-0,233
217,436	130,274	-0,156	-0,139
218,450	34,739	-0,265	-0,161
219,465	26,508	-0,191	-0,110
220,480	-171,347	-0,269	-0,006
221,494	-74,870	-0,151	-0,037
222,509	0,195	-0,080	-0,039
223,523	800,000	0,013	0,032
224,538	25,934	-0,190	-0,110
225,553	800,000	-0,131	-0,325
226,567	230,148	-0,176	-0,200
227,582	217,560	-0,119	-0,132
228,596	23,774	-0,198	-0,113
229,611	276,402	-0,163	-0,202
230,626	-77,958	-0,103	-0,024
231,640	-8,643	-0,208	-0,096
232,655	47,701	-0,189	-0,122
233,669	-95,520	-0,236	-0,044
234,684	-126,614	-0,256	-0,026
235,699	-15,949	-0,222	-0,098
236,713	92,722	-0,137	-0,107
237,728	108,525	-0,063	-0,052
238,742	80,386	-0,189	-0,141
239,757	327,511	-0,223	-0,297
240,772	19,359	-0,231	-0,128
241,786	46,163	-0,154	-0,098
242,801	78,467	-0,109	-0,081
243,815	-9,615	-0,108	-0,050
244,830	-116,416	-0,072	-0,009
245,844	-86,168	-0,239	-0,051
246,859	482,802	-0,078	-0,124
247,874	29,145	-0,291	-0,170
248,888	63,058	-0,172	-0,119
249,903	167,228	-0,202	-0,199
250,917	177,589	-0,276	-0,279
251,932	228,056	-0,075	-0,085
252,947	-3,924	-0,168	-0,081
253,961	800,000	-0,084	-0,216
254,976	18,139	-0,198	-0,109
255,990	440,132	-0,151	-0,229
257,005	96,400	-0,182	-0,144
258,020	59,498	-0,219	-0,149
259,034	683,658	-0,091	-0,165
260,049	82,892	-0,128	-0,096
261,063	21,907	-0,235	-0,132
262,078	-85,618	-0,304	-0,065
263,093	-62,997	-0,131	-0,037
264,107	-164,674	-0,187	-0,006
265,122	54,704	-0,098	0,065
266,136	426,886	-0,089	-0,133
267,151	-136,936	-0,217	0,017
268,166	11,764	-0,176	-0,093
269,180	270,409	-0,155	-0,188
270,195	122,029	-0,230	-0,198
271,209	-72,320	-0,278	-0,071
272,224	-112,624	-0,094	-0,013
273,239	69,126	-0,188	-0,133
274,253	43,742	-0,133	-0,084
275,268	-44,677	-0,187	-0,064
276,282	35,770	-0,270	-0,164
277,297	800,000	-0,102	-0,229
278,312	-14,382	-0,081	-0,036
279,326	133,545	-0,111	-0,099
280,341	240,842	-0,147	-0,170
281,355	-60,162	-0,175	0,051
282,370	65,370	-0,243	-0,169
283,384	355,707	-0,132	-0,182
284,399	159,529	-0,241	-0,232
285,414	597,688	-0,140	-0,240
286,428	186,357	-0,149	-0,153
287,443	78,548	-0,097	-0,071
288,457	62,911	-0,105	0,072
289,472	647,016	-0,109	-0,193
290,487	-52,349	-0,205	-0,065
291,501	112,920	-0,300	-0,251
292,516	270,646	-0,123	-0,150
293,530	222,437	-0,080	-0,089
294,545	140,861	-0,066	0,061
295,560	-101,083	-0,149	-0,025
296,574	215,837	-0,144	-0,158
297,589	-14,324	-0,230	-0,102
298,603	390,175	-0,147	-0,211
299,618	-37,033	-0,180	-0,066
300,633	116,749	-0,014	0,012
301,647	286,807	-0,147	-0,184
302,662	-200,000	-0,017	-0,067
303,676	544,214	-0,090	-0,149
304,691	104,364	-0,159	-0,129
305,706	148,370	-0,245	-0,228
306,720	104,131	-0,095	-0,077
307,735	-92,310	-0,185	0,036
308,749	34,311	-0,154	-0,092
309,764	-118,781	-0,138	-0,017
310,779	186,870	-0,050	0,051
311,793	-30,677	-0,047	-0,018
312,808	-8,211	-0,052	-0,024
313,822	84,157	-0,274	-0,206
314,837	-200,000	-0,050	-0,247
315,852	250,595	-0,098	-0,115
316,866	-47,929	-0,204	-0,068
317,881	212,471	-0,103	-0,112
318,895	7,600	-0,199	-0,102
319,910	-140,941	-0,179	-0,012
320,925	518,793	-0,198	-0,320
321,939	1,592	-0,129	-0,064
322,954	333,294	-0,110	-0,147
323,968	-200,000	-0,007	-0,060
324,983	208,066	0,090	-0,097
325,997	-102,841	-0,223	-0,036
327,012	165,834	-0,191	-0,186
328,027	664,204	-0,128	-0,228
329,041	-7,843	-0,198	-0,092
330,056	-55,445	-0,142	0,043
331,070	71,774	-0,162	0,116
332,085	290,531	-0,149	-0,186
333,100	-200,000	-0,058	-0,214
334,114	244,836	-0,187	-0,216
335,129	19,344	-0,073	-0,040
336,143	165,303	-0,132	-0,128
337,158	12,815	-0,229	-0,121
338,173	800,000	-0,090	-0,226
339,187	167,575	-0,078	-0,077
340,202	18,944	-0,145	-0,080
341,216	218,611	-0,104	-0,114
342,231	110,821	-0,055	-0,046
343,246	-82,449	-0,141	-0,031
344,260	-200,000	0,011	-0,156
345,275	5,504	-0,191	-0,096
346,289	641,277	-0,061	-0,108
347,304	-11,073	-0,155	-0,070
348,319	405,840	-0,109	-0,159
349,333	34,525	-0,163	-0,097
350,348	-52,096	-0,116	-0,037
351,362	16,544	-0,123	-0,067
352,377	-200,000	-0,035	-0,120
353,392	800,000	-0,029	-0,067
354,406	800,000	-0,051	-0,146
355,421	208,981	1315,159	1414,435
356,435	160,821	1475,919	1414,905
