DTS Sentinel unit serial number:	SN410029Multiplexer serial number:	ORYXHardware model number:	OX2-SRSoftware version number:	ORYX F/W v4,00 Oryx Data Collector v3.7.2.0data status	okinstallation	B3 Nyhavnadifferential loss correction	single-endedforward channel	channel 1reverse channel	N/Adate	2023/11/29time	09:07:31forward acquisition time	300,00reverse acquisition time	0,00gamma	499,1914k internal	0,3212k external	0,3212temperature offset calibration	1,0000default loss term (dB/km)	0,3820temperature slope calibration	1,0000multiplexer offset coefficient	1,0000multiplexer slope coefficient	1,0000fibre end	0,00T internal ref (°C)	9,02T ext. ref 1 (°C)	-5,68T ext. ref 2 (°C)	-5,82length (m)	temperature (°C)	Stokes	anti-Stokes-744,400	93,694	-0,243	-0,199
-743,385	-200,000	-0,014	0,258
-742,371	216,230	-0,229	-0,264
-741,356	-200,000	-0,046	0,396
-740,342	53,729	-0,245	-0,170
-739,327	-200,000	0,015	0,335
-738,312	612,763	-0,128	-0,234
-737,298	-200,000	0,077	0,285
-736,283	142,244	-0,252	-0,243
-735,269	-200,000	-0,049	0,295
-734,254	265,892	-0,209	-0,265
-733,239	-36,985	-0,252	0,097
-732,225	593,409	-0,118	-0,212
-731,210	163,206	0,115	0,118
-730,196	16,498	-0,086	0,049
-729,181	-68,894	-0,092	-0,026
-728,167	155,377	-0,095	-0,095
-727,152	-78,671	-0,281	-0,069
-726,137	220,574	-0,107	-0,124
-725,123	-82,680	-0,153	-0,036
-724,108	-52,275	-0,154	-0,051
-723,094	273,872	-0,032	-0,041
-722,079	-51,493	-0,075	0,025
-721,064	-200,000	0,013	0,089
-720,050	-144,054	0,066	-0,004
-719,035	-200,000	-0,009	-0,036
-718,021	279,591	-0,048	-0,062
-717,006	217,395	-0,083	-0,095
-715,991	-200,000	-0,006	-0,163
-714,977	545,481	-0,067	-0,117
-713,962	-27,921	-0,135	-0,056
-712,948	78,341	-0,007	-0,006
-711,933	223,763	-0,110	0,129
-710,918	-11,793	-0,087	-0,041
-709,904	33,261	-0,046	0,029
-708,889	25,883	0,064	-0,038
-707,875	13,691	0,033	-0,019
-706,860	15,568	-0,038	-0,022
-705,845	126,074	0,042	0,038
-704,831	167,496	-0,043	0,044
-703,816	393,742	-0,076	-0,115
-702,802	-200,000	-0,008	-0,044
-701,787	-120,305	0,108	-0,013
-700,772	633,198	0,013	-0,024
-699,758	80,230	-0,116	-0,090
-698,743	-200,000	-0,011	0,104
-697,729	209,519	0,070	0,080
-696,714	28,061	0,055	-0,033
-695,699	-54,820	0,034	0,011
-694,685	135,129	0,061	0,058
-693,670	-0,165	-0,127	-0,065
-692,656	800,000	-0,013	-0,034
-691,641	438,148	0,037	-0,058
-690,627	194,486	0,055	0,061
-689,612	-11,862	-0,111	0,052
-688,597	-124,917	0,073	0,008
-687,583	-128,841	-0,034	0,003
-686,568	800,000	-0,007	0,016
-685,554	10,534	0,006	-0,003
-684,539	687,369	0,035	0,066
-683,524	800,000	0,028	0,083
-682,510	-63,181	-0,121	0,036
-681,495	-200,000	0,001	-0,081
-680,481	48,485	0,061	0,041
-679,466	-121,332	0,052	-0,006
-678,451	-72,243	-0,129	-0,034
-677,437	800,000	-0,023	-0,054
-676,422	711,762	-0,020	-0,038
-675,408	-200,000	0,016	0,096
-674,393	-200,000	-0,040	-0,161
-673,378	-42,382	-0,160	-0,059
-672,364	800,000	0,047	-0,115
-671,349	-38,706	-0,028	-0,010
-670,335	-111,164	0,004	0,001
-669,320	800,000	-0,059	-0,123
-668,305	-11,435	0,058	0,027
-667,291	-27,468	-0,123	-0,051
-666,276	168,154	-0,154	-0,159
-665,262	-50,800	0,070	-0,024
-664,247	214,069	-0,082	0,094
-663,232	-200,000	-0,004	0,099
-662,218	32,798	0,027	0,017
-661,203	287,552	-0,032	0,042
-660,189	148,747	0,035	-0,034
-659,174	319,328	-0,092	-0,126
-658,159	-200,000	0,008	-0,226
-657,145	-200,000	0,001	-0,045
-656,130	163,894	-0,040	0,041
-655,116	-200,000	-0,030	-0,176
-654,101	3,900	-0,097	-0,051
-653,086	800,000	-0,029	0,078
-652,072	-187,030	-0,114	-0,001
-651,057	-174,064	-0,207	-0,004
-650,043	-11,696	0,041	0,020
-649,028	-1,797	0,192	-0,097
-648,014	341,001	0,062	-0,088
-646,999	255,480	-0,049	-0,060
-645,984	-200,000	-0,021	-0,091
-644,970	-200,000	-0,037	-0,158
-643,955	-177,166	-0,091	0,002
-642,941	64,854	-0,076	0,055
-641,926	441,886	-0,038	0,060
-640,911	54,360	-0,137	-0,095
-639,897	-200,000	0,009	0,067
-638,882	16,655	0,105	-0,060
-637,868	-200,000	-0,023	-0,141
-636,853	800,000	0,011	0,031
-635,838	72,080	0,093	-0,070
-634,824	-200,000	0,008	-0,106
-633,809	-145,908	0,096	0,006
-632,795	-200,000	0,060	0,237
-631,780	-200,000	0,029	0,119
-630,765	261,224	-0,106	-0,133
-629,751	-71,090	0,052	0,014
-628,736	70,767	-0,129	-0,097
-627,722	-200,000	0,018	-0,065
-626,707	108,796	0,065	-0,056
-625,692	-200,000	0,049	0,159
-624,678	56,701	0,175	0,122
-623,663	-94,254	-0,040	0,008
-622,649	-71,913	-0,103	-0,027
-621,634	-102,979	-0,152	0,026
-620,619	-51,351	0,066	-0,022
-619,605	800,000	0,043	0,090
-618,590	712,080	0,035	0,066
-617,576	-13,416	-0,096	-0,045
-616,561	800,000	0,050	0,123
-615,546	-153,563	-0,101	0,005
-614,532	47,408	0,074	-0,050
-613,517	-200,000	-0,001	0,032
-612,503	-21,313	0,167	-0,073
-611,488	-129,519	-0,054	-0,005
-610,474	-166,183	-0,030	0,001
-609,459	502,258	-0,054	-0,091
-608,444	148,347	-0,091	-0,089
-607,430	299,894	0,036	-0,048
-606,415	-200,000	0,024	-0,079
-605,401	-145,083	-0,065	0,004
-604,386	17,594	0,081	-0,046
-603,371	-89,293	-0,101	0,021
-602,357	209,881	-0,050	-0,056
-601,342	800,000	-0,013	0,035
-600,328	773,545	0,031	0,061
-599,313	-200,000	0,001	0,009
-598,298	259,135	0,072	0,089
-597,284	-200,000	-0,018	0,070
-596,269	91,354	0,104	-0,084
-595,255	-200,000	0,035	0,171
-594,240	-142,154	-0,154	0,011
-593,225	8,359	-0,076	0,041
-592,211	800,000	-0,047	-0,114
-591,196	-200,000	-0,024	0,130
-590,182	-33,321	0,120	0,048
-589,167	283,070	-0,025	0,032
-588,152	-200,000	0,001	0,043
-587,138	26,974	-0,033	-0,020
-586,123	571,744	0,003	-0,005
-585,109	5,744	-0,063	-0,033
-584,094	800,000	0,036	-0,086
-583,079	42,005	0,053	-0,034
-582,065	-134,616	-0,119	0,010
-581,050	36,026	-0,092	-0,058
-580,036	-200,000	-0,013	0,120
-579,021	-6,850	0,018	0,009
-578,006	118,815	-0,077	-0,069
-576,992	235,849	-0,049	-0,059
-575,977	68,555	0,097	0,071
-574,963	244,321	0,095	-0,115
-573,948	375,447	-0,066	0,097
-572,934	-56,563	0,072	-0,023
-571,919	-200,000	-0,020	0,129
-570,904	719,721	0,023	-0,044
-569,890	17,347	-0,032	0,018
-568,875	140,951	0,098	-0,093
-567,861	-200,000	0,013	0,043
-566,846	-200,000	0,026	0,083
-565,831	800,000	-0,015	0,042
-564,817	396,575	-0,040	0,060
-563,802	678,686	-0,040	-0,075
-562,788	-200,000	0,001	0,071
-561,773	126,800	0,060	-0,054
-560,758	-200,000	0,021	0,142
-559,744	25,824	-0,085	-0,051
-558,729	800,000	-0,074	-0,148
-557,715	262,398	0,102	-0,128
-556,700	800,000	0,034	-0,085
-555,685	-177,902	-0,130	0,002
-554,671	363,892	-0,027	-0,039
-553,656	800,000	-0,070	-0,189
-552,642	-111,773	0,020	-0,003
-551,627	17,726	-0,010	-0,006
-550,612	800,000	-0,045	0,125
-549,598	380,422	0,032	-0,048
-548,583	800,000	-0,080	-0,180
-547,569	-17,664	-0,042	0,019
-546,554	-200,000	0,040	0,129
-545,539	-69,344	-0,089	0,024
-544,525	310,562	-0,038	0,051
-543,510	-200,000	-0,012	-0,038
-542,496	800,000	-0,056	-0,146
-541,481	283,583	-0,020	0,026
-540,466	-32,204	-0,095	-0,038
-539,452	-200,000	0,002	0,091
-538,437	-85,585	0,145	0,032
-537,423	779,176	-0,058	0,114
-536,408	-66,719	0,035	0,010
-535,393	305,998	-0,059	0,080
-534,379	-112,717	-0,091	-0,013
-533,364	-73,474	-0,090	-0,023
-532,350	-49,937	0,055	0,019
-531,335	307,223	-0,022	0,030
-530,321	-98,946	0,210	0,038
-529,306	135,813	0,032	0,030
-528,291	434,901	-0,075	-0,117
-527,277	114,079	-0,144	-0,126
-526,262	578,309	0,045	-0,080
-525,248	258,184	-0,039	0,049
-524,233	-145,105	0,053	0,003
-523,218	800,000	-0,048	0,116
-522,204	162,266	-0,053	-0,053
-521,189	-200,000	0,001	0,018
-520,175	278,701	-0,045	0,057
-519,160	333,887	-0,031	0,043
-518,145	180,122	-0,090	0,095
-517,131	50,529	0,100	0,068
-516,116	-116,816	0,088	-0,011
-515,102	-84,383	0,104	-0,024
-514,087	15,684	-0,077	0,043
-513,072	115,324	-0,071	0,062
-512,058	40,714	-0,096	-0,062
-511,043	-43,678	0,103	-0,037
-510,029	-71,138	-0,030	0,008
-509,014	-200,000	0,036	0,138
-507,999	515,457	0,023	0,039
-506,985	85,519	0,047	-0,037
-505,970	-108,583	-0,027	0,004
-504,956	-200,000	-0,026	0,084
-503,941	247,411	0,032	-0,039
-502,926	52,557	0,035	0,024
-501,912	-200,000	-0,012	0,046
-500,897	409,068	-0,030	-0,046
-499,883	-5,516	0,136	0,067
-498,868	-200,000	-0,008	-0,077
-497,853	87,492	-0,072	-0,057
-496,839	-87,100	0,059	0,013
-495,824	558,370	0,021	0,036
-494,810	632,416	0,067	0,122
-493,795	800,000	-0,100	0,245
-492,781	-200,000	0,004	-0,098
-491,766	190,371	-0,017	0,018
-490,751	266,075	-0,109	-0,137
-489,737	0,642	-0,080	0,041
-488,722	-27,795	0,063	0,026
-487,708	-80,187	0,058	-0,014
-486,693	-125,480	-0,112	0,012
-485,678	-143,330	0,082	-0,006
-484,664	-200,000	-0,003	0,046
-483,649	-107,710	-0,087	-0,013
-482,635	-200,000	-0,020	-0,109
-481,620	-200,000	0,007	0,031
-480,605	-75,807	-0,107	0,027
-479,591	253,536	-0,060	0,074
-478,576	538,154	0,033	-0,056
-477,562	800,000	-0,034	-0,103
-476,547	-67,029	-0,092	-0,026
-475,532	-200,000	-0,008	-0,064
-474,518	-200,000	-0,019	-0,122
-473,503	-6,708	0,068	-0,033
-472,489	-200,000	-0,021	0,110
-471,474	-51,048	0,056	-0,019
-470,459	377,735	-0,025	-0,037
-469,445	-122,075	-0,040	0,005
-468,430	-93,749	0,056	0,011
-467,416	159,660	0,091	0,091
-466,401	229,193	0,065	0,076
-465,386	-111,575	0,125	0,018
-464,372	800,000	0,041	0,092
-463,357	148,802	-0,036	-0,035
-462,343	254,540	0,112	-0,137
-461,328	-164,183	-0,023	0,001
-460,313	487,472	-0,017	-0,028
-459,299	211,648	0,029	0,033
-458,284	-50,226	-0,012	-0,004
-457,270	-200,000	0,004	-0,109
-456,255	-9,876	0,097	-0,046
-455,241	-200,000	-0,014	-0,128
-454,226	-200,000	0,002	0,110
-453,211	-12,964	0,077	-0,036
-452,197	-200,000	-0,008	-0,029
-451,182	-200,000	-0,039	0,140
-450,168	-61,762	0,107	0,032
-449,153	446,923	-0,047	-0,074
-448,138	-10,356	-0,077	0,037
-447,124	581,742	-0,079	-0,139
-446,109	-79,207	-0,035	0,008
-445,095	-55,787	0,091	0,029
-444,080	310,204	0,068	0,091
-443,065	-32,707	-0,035	0,014
-442,051	-134,747	-0,163	0,014
-441,036	-18,308	-0,077	-0,034
-440,022	336,755	-0,054	-0,076
-439,007	7,507	0,159	0,085
-437,992	265,575	0,082	0,102
-436,978	347,866	0,075	-0,106
-435,963	113,603	-0,051	-0,044
-434,949	-17,506	-0,111	0,050
-433,934	71,090	-0,043	-0,032
-432,919	585,238	-0,069	-0,122
-431,905	91,630	0,052	0,042
-430,890	134,700	-0,017	-0,016
-429,876	36,244	0,103	0,065
-428,861	-117,643	0,073	-0,009
-427,846	450,229	0,039	0,062
-426,832	-169,242	-0,201	-0,005
-425,817	-66,225	0,094	-0,027
-424,803	-79,521	-0,106	-0,025
-423,788	-164,234	0,086	-0,003
-422,773	-118,609	0,130	0,016
-421,759	-40,201	0,135	0,050
-420,744	253,303	-0,027	0,033
-419,730	-200,000	0,014	0,052
-418,715	-92,574	-0,008	-0,002
-417,701	800,000	-0,042	0,123
-416,686	3,503	0,108	0,056
-415,671	-200,000	0,031	0,139
-414,657	800,000	0,030	0,072
-413,642	-6,273	0,015	-0,008
-412,628	131,145	-0,081	-0,075
-411,613	-200,000	-0,017	-0,246
-410,598	-24,551	0,036	0,015
-409,584	55,659	0,055	-0,038
-408,569	130,593	0,102	-0,094
-407,555	94,074	-0,057	0,047
-406,540	161,906	0,063	-0,063
-405,525	800,000	-0,043	-0,137
-404,511	60,622	-0,027	0,019
-403,496	82,266	-0,020	-0,015
-402,482	47,828	0,117	0,078
-401,467	-200,000	0,024	0,104
-400,452	-200,000	-0,005	0,020
-399,438	-200,000	0,027	-0,114
-398,423	-76,633	-0,126	0,031
-397,409	133,035	-0,050	-0,046
-396,394	-125,109	0,061	-0,007
-395,379	84,067	-0,061	0,048
-394,365	800,000	0,038	0,081
-393,350	800,000	0,059	0,151
-392,336	72,922	0,016	-0,012
-391,321	-138,240	-0,062	-0,005
-390,306	-91,758	-0,059	-0,012
-389,292	-5,613	0,021	0,010
-388,277	-35,421	0,141	0,055
-387,263	70,372	0,040	-0,029
-386,248	-200,000	0,021	0,084
-385,233	-200,000	-0,027	0,100
-384,219	-18,322	-0,059	0,026
-383,204	108,002	-0,090	0,076
-382,190	108,103	0,087	-0,074
-381,175	-200,000	-0,008	-0,041
-380,160	-55,840	-0,093	-0,030
-379,146	512,180	0,054	0,090
-378,131	151,858	0,063	0,062
-377,117	111,387	-0,104	0,089
-376,102	438,044	0,081	0,126
-375,088	-140,077	0,038	0,003
-374,073	-198,088	-0,058	-0,000
-373,058	-42,939	0,156	0,056
-372,044	44,471	0,053	0,034
-371,029	124,208	0,050	-0,045
-370,015	800,000	0,068	-0,143
-369,000	179,598	0,037	0,039
-367,985	-200,000	-0,015	0,113
-366,971	800,000	-0,050	0,153
-365,956	-10,831	-0,031	-0,014
-364,942	-54,846	-0,163	0,052
-363,927	139,180	0,146	0,137
-362,912	-47,946	-0,082	-0,028
-361,898	-71,068	-0,068	0,018
-360,883	93,823	-0,037	-0,030
-359,869	-175,146	0,088	0,002
-358,854	254,896	-0,012	-0,015
-357,839	-19,198	0,073	-0,032
-356,825	129,468	0,156	0,142
-355,810	384,888	-0,059	-0,088
-354,796	-27,945	-0,047	-0,019
-353,781	112,976	-0,052	-0,045
-352,766	-5,301	0,047	-0,023
-351,752	39,434	0,127	0,081
-350,737	-46,698	0,148	-0,052
-349,723	76,066	0,073	0,055
-348,708	372,522	0,070	0,101
-347,693	775,588	0,037	0,073
-346,679	-3,153	-0,152	-0,075
-345,664	-200,000	-0,012	-0,146
-344,650	131,114	0,064	-0,059
-343,635	-64,993	0,178	-0,051
-342,620	-200,000	0,010	0,034
-341,606	-33,290	0,076	0,030
-340,591	-200,000	0,009	-0,118
-339,577	-200,000	-0,003	0,065
-338,562	-91,259	-0,174	0,035
-337,548	242,776	-0,038	-0,046
-336,533	800,000	-0,044	0,114
-335,518	-200,000	-0,011	-0,078
-334,504	-200,000	0,016	0,099
-333,489	800,000	-0,047	0,148
-332,475	327,958	-0,048	-0,066
-331,460	93,729	0,006	0,005
-330,445	24,343	0,043	0,025
-329,431	63,543	-0,087	-0,062
-328,416	462,213	0,069	0,110
-327,402	-200,000	-0,010	-0,039
-326,387	-84,388	0,063	0,014
-325,372	-36,829	0,069	0,026
-324,358	-200,000	0,006	0,055
-323,343	21,120	-0,060	-0,035
-322,329	800,000	0,025	0,068
-321,314	189,156	0,074	0,079
-320,299	-53,305	0,095	0,031
-319,285	-119,551	0,060	-0,007
-318,270	96,817	-0,120	-0,098
-317,256	-96,245	-0,073	-0,014
-316,241	-8,929	-0,050	-0,024
-315,226	-127,165	-0,118	-0,012
-314,212	228,146	-0,066	0,077
-313,197	237,061	0,088	0,104
-312,183	800,000	0,043	0,125
-311,168	29,482	-0,077	-0,047
-310,153	-114,203	-0,075	-0,010
-309,139	265,624	-0,016	-0,020
-308,124	-200,000	-0,027	0,130
-307,110	-200,000	0,008	0,102
-306,095	-200,000	0,005	-0,076
-305,080	75,855	-0,081	0,061
-304,066	-200,000	0,031	-0,175
-303,051	33,333	0,034	-0,021
-302,037	25,451	-0,045	-0,027
-301,022	335,708	-0,120	-0,167
-300,008	611,582	-0,030	-0,054
-298,993	-200,000	-0,001	0,075
-297,978	-103,403	0,106	0,018
-296,964	290,924	-0,045	0,059
-295,949	135,716	-0,060	0,056
-294,935	800,000	-0,028	0,073
-293,920	9,848	-0,061	-0,033
-292,905	-39,048	0,111	-0,041
-291,891	-200,000	-0,011	-0,058
-290,876	-200,000	-0,002	0,019
-289,862	217,938	0,024	0,028
-288,847	103,806	0,092	0,077
-287,832	-74,150	-0,116	-0,030
-286,818	800,000	0,018	0,037
-285,803	-200,000	-0,025	0,103
-284,789	268,445	-0,068	0,084
-283,774	32,717	0,073	-0,045
-282,759	800,000	0,015	0,038
-281,745	365,571	0,034	-0,049
-280,730	94,242	-0,137	-0,111
-279,716	-28,675	0,061	0,025
-278,701	-97,370	0,118	0,022
-277,686	-63,118	-0,058	0,017
-276,672	-32,352	-0,061	0,024
-275,657	-103,702	0,096	0,016
-274,643	128,008	-0,072	-0,065
-273,628	800,000	0,042	-0,084
-272,613	-200,000	-0,010	-0,118
-271,599	800,000	0,029	-0,082
-270,584	180,807	-0,084	-0,088
-269,570	-200,000	-0,002	0,097
-268,555	-200,000	0,033	-0,115
-267,540	530,122	-0,060	-0,101
-266,526	-64,919	-0,137	-0,039
-265,511	179,884	0,019	-0,019
-264,497	-70,271	0,106	-0,028
-263,482	166,943	0,108	0,109
-262,467	185,021	-0,128	-0,136
-261,453	98,531	0,057	-0,046
-260,438	-112,829	0,070	0,010
-259,424	438,810	-0,025	0,038
-258,409	134,984	-0,046	0,043
-257,395	162,336	-0,103	-0,103
-256,380	30,708	0,050	0,031
-255,365	8,348	0,127	0,068
-254,351	-90,878	-0,042	0,009
-253,336	-200,000	0,042	-0,146
-252,322	-9,636	0,103	0,049
-251,307	753,086	-0,040	-0,077
-250,292	34,800	0,037	-0,023
-249,278	800,000	0,026	0,075
-248,263	800,000	-0,025	0,069
-247,249	-82,087	0,130	-0,030
-246,234	31,775	-0,076	-0,047
-245,219	77,051	-0,021	-0,016
-244,205	800,000	0,034	-0,086
-243,190	-119,444	0,069	0,008
-242,176	-8,351	0,115	-0,055
-241,161	-148,085	0,070	-0,004
-240,146	-33,916	-0,105	-0,041
-239,132	-200,000	-0,002	0,164
-238,117	518,559	-0,013	-0,022
-237,103	-60,309	-0,034	0,010
-236,088	585,094	-0,073	0,128
-235,073	-200,000	0,023	0,104
-234,059	-119,018	0,062	-0,008
-233,044	-104,370	-0,163	0,026
-232,030	199,002	-0,122	-0,133
-231,015	3,876	-0,113	-0,059
-230,000	-200,000	-0,022	-0,161
-228,986	-200,000	0,005	-0,149
-227,971	-17,237	0,140	-0,062
-226,957	800,000	-0,034	-0,087
-225,942	-200,000	0,030	0,095
-224,927	61,495	0,088	-0,062
-223,913	-104,438	0,183	-0,030
-222,898	-59,035	-0,109	-0,033
-221,884	800,000	0,010	-0,023
-220,869	-135,972	0,076	-0,006
-219,855	-200,000	0,005	-0,020
-218,840	-200,000	-0,001	0,028
-217,825	-72,018	-0,034	0,009
-216,811	132,929	-0,075	-0,069
-215,796	47,432	-0,041	-0,027
-214,782	215,223	-0,099	-0,111
-213,767	-106,537	0,072	0,011
-212,752	-86,130	-0,059	-0,013
-211,738	-59,183	-0,028	0,009
-210,723	-105,710	-0,046	-0,007
-209,709	253,218	-0,060	-0,072
-208,694	-33,185	-0,078	0,030
-207,679	215,785	0,071	-0,080
-206,665	-200,000	0,021	-0,148
-205,650	-120,002	0,070	-0,008
-204,636	800,000	0,031	0,094
-203,621	-200,000	0,019	0,184
-202,606	-35,145	-0,065	0,025
-201,592	294,101	-0,112	-0,145
-200,577	-200,000	0,026	0,088
-199,563	81,475	0,074	0,056
-198,548	45,135	0,079	0,051
-197,533	-200,000	0,047	0,202
-196,519	254,777	-0,101	-0,122
-195,504	3,032	-0,087	0,045
-194,490	-200,000	0,011	0,093
-193,475	290,170	-0,018	0,024
-192,460	-200,000	0,007	-0,043
-191,446	-56,642	0,142	0,044
-190,431	390,477	0,058	0,086
-189,417	-58,977	-0,098	-0,030
-188,402	404,071	-0,089	-0,134
-187,387	-122,651	-0,086	-0,010
-186,373	296,254	0,064	-0,083
-185,358	-117,743	0,048	0,006
-184,344	-47,960	-0,149	-0,051
-183,329	-113,164	0,162	0,022
-182,315	-148,966	-0,042	-0,002
-181,300	-200,000	-0,021	-0,073
-180,285	-200,000	0,017	-0,085
-179,271	800,000	-0,051	-0,114
-178,256	326,509	0,042	0,058
-177,242	-200,000	0,017	0,056
-176,227	583,307	0,051	0,089
-175,212	-73,037	0,070	0,018
-174,198	32,110	0,059	-0,036
-173,183	-70,864	-0,201	0,053
-172,169	173,554	0,053	-0,054
-171,154	800,000	0,048	-0,130
-170,139	-118,310	0,106	-0,013
-169,125	111,004	-0,065	0,055
-168,110	-51,324	-0,057	0,019
-167,096	445,496	-0,122	0,190
-166,081	800,000	-0,033	0,094
-165,066	368,639	-0,023	-0,033
-164,052	800,000	-0,058	-0,149
-163,037	66,807	0,116	-0,084
-162,023	-200,000	-0,015	-0,105
-161,008	60,034	0,097	0,067
-159,993	-67,128	0,032	-0,009
-158,979	595,418	-0,052	-0,091
-157,964	414,345	-0,054	-0,082
-156,950	-4,549	-0,073	-0,036
-155,935	194,391	0,108	0,116
-154,920	11,478	0,048	0,026
-153,906	-74,792	0,100	0,025
-152,891	305,683	-0,026	0,034
-151,877	-114,144	-0,103	-0,014
-150,862	674,467	0,031	0,057
-149,847	-200,000	-0,011	-0,051
-148,833	657,262	0,059	-0,107
-147,818	246,734	0,070	0,084
-146,804	800,000	0,017	-0,043
-145,789	-8,998	0,091	-0,043
-144,775	-200,000	-0,044	0,160
-143,760	800,000	-0,008	0,021
-142,745	-137,433	-0,114	-0,009
-141,731	-200,000	-0,005	-0,107
-140,716	706,022	0,057	0,107
-139,702	800,000	0,078	0,209
-138,687	40,354	-0,085	0,054
-137,672	-200,000	-0,008	-0,077
-136,658	547,780	-0,016	0,027
-135,643	-132,625	0,062	-0,006
-134,629	-200,000	-0,003	0,027
-133,614	-200,000	0,010	-0,059
-132,599	-111,962	0,077	-0,011
-131,585	-1,528	0,011	0,006
-130,570	-200,000	-0,012	-0,080
-129,556	225,477	-0,017	-0,019
-128,541	-165,148	-0,045	0,001
-127,526	342,378	0,106	0,147
-126,512	-66,849	0,086	-0,024
-125,497	-123,054	0,052	-0,006
-124,483	-200,000	0,029	-0,116
-123,468	161,862	0,049	0,048
-122,453	-43,664	-0,149	0,053
-121,439	-200,000	0,007	-0,171
-120,424	-200,000	0,005	-0,170
-119,410	11,401	0,148	0,080
-118,395	800,000	0,038	-0,076
-117,380	369,427	0,047	0,068
-116,366	170,291	-0,097	0,098
-115,351	-92,511	0,048	-0,009
-114,337	800,000	-0,015	-0,046
-113,322	380,240	-0,080	-0,116
-112,307	173,430	-0,083	-0,084
-111,293	800,000	-0,021	-0,046
-110,278	-200,000	-0,005	-0,044
-109,264	684,324	0,045	0,083
-108,249	-48,727	-0,062	-0,021
-107,234	-200,000	-0,022	-0,074
-106,220	249,756	-0,068	0,082
-105,205	-193,614	-0,061	0,000
-104,191	-147,060	0,038	-0,002
-103,176	800,000	0,082	0,167
-102,162	-94,266	0,038	-0,007
-101,147	-200,000	-0,012	-0,174
-100,132	-92,554	0,108	0,021
-99,118	-188,563	0,072	-0,001
-98,103	290,465	0,068	-0,088
-97,089	-28,942	0,039	0,016
-96,074	-119,368	0,088	-0,011
-95,059	638,199	-0,046	0,084
-94,045	185,952	0,093	-0,098
-93,030	-56,682	-0,073	0,023
-92,016	365,754	-0,026	0,038
-91,001	44,769	-0,068	0,044
-89,986	-36,290	0,038	0,014
-88,972	535,715	-0,036	0,061
-87,957	-150,374	-0,075	-0,004
-86,943	384,600	-0,028	-0,041
-85,928	-200,000	-0,011	-0,082
-84,913	800,000	-0,034	0,081
-83,899	-152,053	0,199	-0,010
-82,884	-200,000	0,005	0,083
-81,870	-80,253	-0,009	0,002
-80,855	800,000	-0,035	0,093
-79,840	108,643	0,081	0,069
-78,826	800,000	-0,053	-0,114
-77,811	-84,934	0,030	0,007
-76,797	-132,021	-0,065	0,006
-75,782	-63,887	-0,098	-0,028
-74,767	-200,000	-0,000	0,066
-73,753	-200,000	-0,011	0,038
-72,738	445,459	-0,061	0,095
-71,724	800,000	0,018	0,042
-70,709	-133,303	-0,077	0,007
-69,694	-200,000	-0,020	-0,109
-68,680	611,948	0,048	-0,086
-67,665	41,858	0,035	-0,022
-66,651	329,716	-0,015	-0,021
-65,636	-94,067	-0,139	-0,027
-64,622	-200,000	-0,004	-0,099
-63,607	-131,359	-0,068	-0,006
-62,592	-200,000	0,001	0,011
-61,578	800,000	-0,045	0,093
-60,563	-72,915	0,198	0,051
-59,549	-200,000	-0,003	0,021
-58,534	38,271	-1,975	-1,239
-57,519	414,661	-1,193	-1,798
-56,505	-200,000	-0,314	-4,357
-55,490	800,000	0,724	1,547
-54,476	800,000	5,189	11,335
-53,461	-200,000	21,870	338,197
-52,446	800,000	760,518	2302,081
-51,432	534,751	1654,550	2777,779
-50,417	69,454	1651,788	1198,150
-49,403	16,674	1526,368	849,104
-48,388	10,781	1450,864	778,727
-47,373	19,062	1442,664	813,851
-46,359	14,201	1431,610	784,582
-45,344	9,143	1427,467	758,301
-44,330	9,095	1425,646	757,079
-43,315	9,073	1423,919	756,025
-42,300	9,065	1422,153	755,023
-41,286	9,086	1420,927	754,439
-40,271	9,114	1419,371	753,714
-39,257	9,090	1418,471	753,095
-38,242	9,123	1417,390	752,644
-37,227	9,084	1416,452	751,935
-36,213	9,084	1414,879	751,068
-35,198	9,138	1413,464	750,545
-34,184	9,147	1412,654	750,124
-33,169	9,057	1411,542	749,083
-32,154	9,096	1410,380	748,621
-31,140	9,101	1409,236	748,004
-30,125	9,136	1407,946	747,455
-29,111	9,106	1406,853	746,705
-28,096	9,122	1405,545	746,054
-27,082	9,079	1404,419	745,228
-26,067	9,015	1403,581	744,455
-25,052	9,051	1402,316	743,922
-24,038	9,092	1401,394	743,592
-23,023	9,065	1400,443	742,935
-22,009	9,036	1399,404	742,217
-20,994	9,050	1398,527	741,788
-19,979	9,058	1397,435	741,219
-18,965	9,030	1396,620	740,627
-17,950	9,016	1395,527	739,953
-16,936	8,954	1394,767	739,231
-15,921	8,924	1393,961	738,638
-14,906	8,968	1392,983	738,293
-13,892	8,996	1391,848	737,793
-12,877	8,940	1391,182	737,152
-11,863	8,945	1390,558	736,815
-10,848	8,943	1389,390	736,155
-9,833	8,891	1388,433	735,381
-8,819	8,870	1387,716	734,875
-7,804	8,869	1386,492	734,192
-6,790	8,836	1385,804	733,647
-5,775	8,866	1384,736	733,188
-4,760	8,890	1383,708	732,729
-3,746	8,901	1382,753	732,244
-2,731	8,910	1381,908	731,809
-1,717	8,890	1381,031	731,220
-0,702	8,839	1379,366	730,080
0,313	12,827	1291,234	701,573
1,327	28,882	682,801	407,024
2,342	44,767	117,641	76,157
3,356	-0,999	16,488	8,196
4,371	12,523	3,671	1,990
5,386	20,953	1,148	0,654
6,400	800,000	0,231	0,585
7,415	451,464	-0,149	-0,233
8,429	78,563	-0,291	-0,219
9,444	-13,522	-0,357	-0,162
10,459	81,315	-0,176	-0,134
11,473	477,388	-0,160	-0,256
12,488	-97,643	-0,317	-0,057
13,502	353,259	-0,148	-0,208
14,517	3,842	-0,412	-0,211
15,531	82,201	-0,315	-0,241
16,546	-22,962	-0,413	-0,174
17,561	122,332	-0,376	-0,331
18,575	-121,574	-0,097	-0,011
19,590	110,803	-0,304	-0,257
20,604	-59,159	-0,218	-0,066
21,619	27,925	-0,520	-0,308
22,634	12,669	-0,521	-0,282
23,648	60,607	-0,419	-0,291
24,663	15,083	-0,507	-0,279
25,677	115,056	-0,303	-0,260
26,692	197,836	-0,179	-0,192
27,707	121,824	-0,381	-0,334
28,721	169,630	-0,368	-0,370
29,736	178,632	-0,372	-0,383
30,750	75,392	-0,345	-0,256
31,765	46,229	-0,366	-0,238
32,780	276,131	-0,264	-0,330
33,794	5,912	-0,354	-0,184
34,809	23,796	-0,394	-0,228
35,823	58,781	-0,313	-0,216
36,838	288,740	-0,235	-0,300
37,853	66,884	-0,313	-0,224
38,867	101,311	-0,335	-0,274
39,882	174,708	-0,333	-0,339
40,896	98,522	-0,353	-0,285
41,911	8,698	-0,368	-0,194
42,926	65,688	-0,457	-0,325
43,940	44,013	-0,354	-0,227
44,955	90,054	-0,345	-0,271
45,969	81,469	-0,326	-0,247
46,984	39,376	-0,416	-0,261
47,999	17,446	-0,375	-0,209
49,013	191,811	-0,273	-0,289
50,028	30,195	-0,350	-0,209
51,042	169,563	-0,276	-0,277
52,057	-51,359	-0,300	-0,098
53,071	119,462	-0,261	-0,227
54,086	-3,455	-0,354	-0,172
55,101	31,973	-0,346	-0,209
56,115	78,052	-0,354	-0,265
57,130	41,252	-0,396	-0,250
58,144	-3,256	-0,329	-0,160
59,159	69,429	-0,365	-0,263
60,174	-50,752	-0,384	-0,126
61,188	66,878	-0,340	-0,243
62,203	-23,937	-0,252	-0,105
63,217	-61,946	-0,358	-0,104
64,232	146,951	-0,254	-0,239
65,247	261,773	-0,253	-0,308
66,261	75,564	-0,418	-0,309
67,276	33,299	-0,379	-0,230
68,290	18,629	-0,317	-0,177
69,305	-24,835	-0,389	-0,161
70,320	29,083	-0,322	-0,191
71,334	105,518	-0,243	-0,201
72,349	-33,997	-0,283	-0,108
73,363	2,716	-0,403	-0,204
74,378	48,937	-0,380	-0,249
75,393	57,169	-0,384	-0,262
76,407	1,020	-0,275	-0,138
77,422	-41,408	-0,294	-0,105
78,436	-62,568	-0,286	-0,083
79,451	-33,048	-0,338	-0,131
80,466	-23,392	-0,357	-0,150
81,480	-25,025	-0,424	-0,175
82,495	186,445	-0,181	-0,188
83,509	87,301	-0,274	-0,212
84,524	-41,180	-0,309	-0,111
85,539	163,386	-0,211	-0,208
86,553	-38,976	-0,243	-0,089
87,568	65,739	-0,337	-0,239
88,582	144,632	-0,189	-0,177
89,597	7,677	-0,351	-0,183
90,611	151,535	-0,162	-0,154
91,626	48,021	-0,284	-0,185
92,641	-1,533	-0,197	-0,097
93,655	12,304	-0,381	-0,204
94,670	142,477	-0,281	-0,261
95,684	42,353	-0,405	-0,257
96,699	-31,143	-0,183	-0,072
97,714	-200,000	0,019	-0,209
98,728	227,388	-0,162	-0,184
99,743	-106,608	-0,215	-0,033
100,757	116,081	-0,136	-0,117
101,772	566,512	-0,140	-0,238
102,787	123,920	-0,261	-0,229
103,801	115,014	-0,221	-0,188
104,816	209,712	-0,214	-0,235
105,830	81,380	-0,261	-0,197
106,845	149,598	-0,216	-0,205
107,860	-63,643	-0,317	-0,090
108,874	-91,529	-0,338	-0,067
109,889	162,974	-0,237	-0,232
110,903	-58,811	-0,243	-0,073
111,918	79,416	-0,255	-0,191
112,933	187,150	-0,191	-0,199
113,947	82,628	-0,213	-0,162
114,962	108,060	-0,162	-0,135
115,976	55,919	-0,231	-0,156
116,991	291,382	-0,224	-0,285
118,006	119,218	-0,236	-0,204
119,020	7,500	-0,243	-0,126
120,035	92,410	-0,217	-0,170
121,049	143,613	-0,038	0,036
122,064	95,889	-0,134	-0,107
123,079	-28,381	-0,322	-0,129
124,093	18,877	-0,269	-0,150
125,108	-17,009	-0,314	-0,137
126,122	97,924	-0,230	-0,184
127,137	-54,078	-0,266	-0,084
128,151	-98,159	-0,211	-0,037
129,166	149,541	-0,232	-0,219
130,181	241,071	-0,161	-0,187
131,195	212,142	-0,287	-0,316
132,210	40,883	-0,345	-0,216
133,224	-14,224	-0,322	-0,144
134,239	800,000	-0,139	-0,349
135,254	129,262	-0,288	-0,256
136,268	223,715	-0,167	-0,188
137,283	-1,636	-0,277	-0,135
138,297	-60,267	-0,327	-0,097
139,312	234,269	-0,256	-0,294
140,327	-10,909	-0,361	-0,165
141,341	41,552	-0,384	-0,241
142,356	168,077	-0,231	-0,230
143,370	-42,313	-0,178	-0,063
144,385	1,368	-0,311	-0,155
145,400	38,242	-0,354	-0,219
146,414	-12,471	-0,172	-0,078
147,429	0,007	-0,232	-0,115
148,443	217,410	-0,180	-0,200
149,458	-14,801	-0,226	-0,101
150,473	65,338	-0,360	-0,253
151,487	139,415	-0,146	-0,133
152,502	44,204	-0,238	-0,152
153,516	-56,376	-0,175	-0,054
154,531	31,060	-0,301	-0,179
155,546	126,884	-0,203	-0,179
156,560	54,462	-0,180	-0,121
157,575	116,375	-0,238	-0,202
158,589	-79,724	-0,286	-0,066
159,604	-23,213	-0,181	-0,075
160,619	354,735	-0,223	-0,309
161,633	-106,783	-0,312	-0,048
162,648	6,475	-0,301	-0,155
163,662	41,187	-0,160	-0,100
164,677	705,619	-0,125	-0,229
165,692	-200,000	-0,163	-0,000
166,706	108,153	-0,204	-0,169
167,721	-23,002	-0,364	-0,152
168,735	139,136	-0,206	-0,189
169,750	-87,209	-0,161	-0,034
170,764	49,500	-0,214	-0,139
171,779	-48,218	-0,234	-0,078
172,794	159,594	-0,247	-0,239
173,808	136,773	-0,199	-0,181
174,823	95,044	-0,265	-0,210
175,837	22,198	-0,279	-0,158
176,852	-33,904	-0,264	-0,101
177,867	408,018	-0,117	-0,173
178,881	151,165	-0,163	-0,154
179,896	-81,453	-0,287	-0,065
180,910	377,940	-0,174	-0,248
181,925	128,222	-0,274	-0,242
182,940	147,406	-0,303	-0,284
183,954	253,100	-0,139	-0,165
184,969	-183,346	-0,149	0,002
185,983	40,737	-0,158	0,098
186,998	-0,709	-0,203	-0,099
188,013	89,109	-0,226	-0,175
189,027	60,328	-0,172	-0,118
190,042	-28,414	-0,162	-0,065
191,056	-34,734	-0,265	-0,100
192,071	77,261	-0,218	-0,160
193,086	-63,492	-0,178	-0,051
194,100	-200,000	-0,013	-0,133
195,115	-14,232	-0,223	-0,099
196,129	212,106	-0,212	-0,232
197,144	84,803	-0,299	-0,227
198,159	20,221	-0,325	-0,182
199,173	76,061	-0,207	-0,151
200,188	11,276	-0,143	-0,076
201,202	330,318	-0,111	-0,149
202,217	-41,670	-0,266	-0,094
203,232	28,687	-0,327	-0,192
204,246	22,923	-0,313	-0,177
205,261	102,748	-0,144	-0,117
206,275	145,245	-0,334	-0,310
207,290	230,474	-0,112	-0,127
208,304	-151,102	-0,209	-0,011
209,319	-2,917	-0,252	-0,121
210,334	10,084	-0,219	-0,115
211,348	119,144	-0,228	-0,195
212,363	67,427	-0,207	-0,146
213,377	-2,291	-0,316	-0,153
214,392	80,389	-0,226	-0,168
215,407	-43,016	-0,088	-0,031
216,421	65,513	-0,244	-0,171
217,436	-188,805	-0,233	-0,002
218,450	800,000	-0,067	-0,132
219,465	136,714	-0,235	-0,212
220,480	140,384	-0,194	-0,177
221,494	-122,910	-0,216	0,024
222,509	-18,115	-0,263	-0,114
223,523	34,731	-0,264	-0,159
224,538	132,716	-0,152	-0,136
225,553	41,660	-0,280	-0,175
226,567	-136,933	-0,312	0,024
227,582	95,607	-0,211	-0,166
228,596	123,677	-0,190	-0,165
229,611	-79,688	-0,119	-0,028
230,626	415,348	-0,084	-0,125
231,640	-50,076	-0,198	0,065
232,655	800,000	-0,126	-0,318
233,669	365,559	-0,131	-0,183
234,684	40,766	-0,241	-0,150
235,699	51,006	-0,201	-0,132
236,713	-108,319	-0,214	-0,032
237,728	7,444	-0,201	-0,103
238,742	392,873	-0,131	-0,189
239,757	-3,454	-0,218	-0,104
240,772	307,898	-0,163	-0,210
241,786	800,000	-0,085	-0,167
242,801	20,749	-0,048	-0,027
243,815	800,000	-0,093	-0,186
244,830	-143,630	-0,106	-0,007
245,844	420,784	-0,079	-0,117
246,859	484,524	-0,104	-0,164
247,874	800,000	-0,100	-0,261
248,888	-80,404	-0,257	-0,059
249,903	257,568	-0,132	-0,157
250,917	191,871	-0,171	-0,178
251,932	138,360	-0,097	-0,088
252,947	129,133	-0,180	-0,159
253,961	26,343	-0,232	-0,133
254,976	471,229	-0,147	-0,229
255,990	181,084	-0,207	-0,210
257,005	286,494	-0,131	-0,164
258,020	136,092	-0,144	-0,129
259,034	83,493	-0,135	-0,101
260,049	800,000	-0,068	-0,186
261,063	-115,955	-0,196	-0,025
262,078	37,469	-0,237	-0,145
263,093	318,956	-0,146	-0,191
264,107	274,123	-0,055	-0,067
265,122	99,235	-0,031	-0,025
266,136	-126,586	-0,162	-0,016
267,151	31,024	-0,165	-0,097
268,166	67,754	-0,174	-0,122
269,180	106,950	-0,225	-0,184
270,195	302,806	-0,185	-0,236
271,209	351,054	-0,056	-0,077
272,224	-200,000	-0,217	-0,001
273,239	360,102	-0,115	-0,159
274,253	-200,000	-0,037	-0,175
275,268	800,000	-0,083	-0,199
276,282	211,143	-0,104	-0,113
277,297	109,176	-0,149	-0,123
278,312	-70,223	-0,150	-0,039
279,326	-173,652	-0,241	0,005
280,341	-5,061	-0,137	-0,065
281,355	-106,091	-0,114	-0,018
282,370	-8,219	-0,240	-0,111
283,384	105,374	-0,167	-0,136
284,399	-0,708	-0,153	-0,074
285,414	-102,817	-0,132	0,021
286,428	800,000	-0,098	-0,223
287,443	-22,896	-0,146	-0,060
288,457	173,380	-0,111	-0,110
289,472	-9,768	-0,140	0,064
290,487	-200,000	-0,063	-0,252
291,501	27,487	-0,240	-0,138
292,516	-153,473	-0,168	-0,008
293,530	-182,761	-0,117	-0,001
294,545	-32,939	-0,176	-0,067
295,560	39,975	-0,224	-0,138
296,574	460,999	-0,160	-0,246
297,589	117,463	-0,197	-0,167
298,603	545,546	-0,063	-0,103
299,618	-200,000	0,043	-0,166
300,633	800,000	-0,078	-0,151
301,647	37,467	-0,157	-0,095
302,662	-200,000	-0,027	-0,177
303,676	14,069	-0,154	-0,082
304,691	400,795	-0,104	-0,151
305,706	17,409	-0,191	-0,104
306,720	7,175	-0,287	-0,147
307,735	800,000	-0,116	-0,231
308,749	488,838	-0,113	-0,178
309,764	13,850	-0,155	0,083
310,779	-171,549	-0,076	-0,002
311,793	83,993	-0,185	-0,139
312,808	800,000	-0,045	-0,088
313,822	266,160	-0,086	-0,103
314,837	7,995	-0,112	-0,057
315,852	5,790	-0,157	0,079
316,866	-106,592	-0,142	0,021
317,881	-106,325	-0,187	-0,028
318,895	138,830	-0,171	-0,154
319,910	572,644	-0,079	-0,132
320,925	395,248	-0,128	-0,183
321,939	-5,287	-0,221	-0,104
322,954	189,799	-0,109	-0,112
323,968	222,180	0,038	-0,042
324,983	248,372	-0,066	-0,077
325,997	-200,000	-0,014	-0,061
327,012	-80,200	-0,238	-0,054
328,027	-184,402	-0,196	0,002
329,041	800,000	-0,088	-0,222
330,056	800,000	0,024	-0,052
331,070	-190,502	-0,125	0,001
332,085	-152,772	-0,143	-0,007
333,100	800,000	-0,062	-0,125
334,114	257,610	-0,155	-0,183
335,129	800,000	-0,110	-0,232
336,143	-150,947	-0,126	-0,006
337,158	388,837	-0,149	-0,212
338,173	20,593	-0,123	0,068
339,187	-52,298	-0,135	-0,042
340,202	-43,671	-0,303	-0,104
341,216	265,209	-0,075	-0,089
342,231	49,993	-0,170	-0,110
343,246	-96,047	-0,162	-0,029
344,260	-200,000	-0,033	-0,146
345,275	-146,882	-0,111	-0,006
346,289	4,280	-0,155	-0,078
347,304	-200,000	-0,048	-0,147
348,319	-107,565	-0,119	-0,018
349,333	92,121	-0,255	-0,196
350,348	235,564	-0,049	-0,056
351,362	-82,661	-0,156	0,034
352,377	800,000	-0,047	-0,091
353,392	324,967	-0,089	-0,116
354,406	154,282	-0,200	-0,187
355,421	208,551	1306,234	1398,133
356,435	160,480	1465,892	1398,613
