DTS Sentinel unit serial number:	SN410029Multiplexer serial number:	ORYXHardware model number:	OX2-SRSoftware version number:	ORYX F/W v4,00 Oryx Data Collector v3.7.2.0data status	okinstallation	B3 Nyhavnadifferential loss correction	single-endedforward channel	channel 1reverse channel	N/Adate	2023/12/03time	14:32:30forward acquisition time	300,00reverse acquisition time	0,00gamma	499,1914k internal	0,3197k external	0,3197temperature offset calibration	1,0000default loss term (dB/km)	0,3820temperature slope calibration	1,0000multiplexer offset coefficient	1,0000multiplexer slope coefficient	1,0000fibre end	0,00T internal ref (°C)	15,86T ext. ref 1 (°C)	1,29T ext. ref 2 (°C)	1,32length (m)	temperature (°C)	Stokes	anti-Stokes-744,400	99,911	-0,332	-0,280
-743,385	-200,000	0,129	0,473
-742,371	-200,000	-0,054	-0,316
-741,356	800,000	0,122	0,327
-740,342	420,090	-0,099	-0,155
-739,327	-200,000	-0,077	0,371
-738,312	41,449	-0,259	-0,170
-737,298	-200,000	-0,015	0,235
-736,283	726,623	-0,124	-0,241
-735,269	614,721	0,130	0,238
-734,254	135,171	-0,381	-0,360
-733,239	79,718	-0,173	0,135
-732,225	314,098	-0,153	-0,211
-731,210	800,000	0,091	0,195
-730,196	71,008	0,175	0,132
-729,181	-200,000	0,037	-0,122
-728,167	154,268	0,019	0,019
-727,152	52,861	-0,029	0,020
-726,137	800,000	-0,052	0,132
-725,123	14,375	-0,173	-0,098
-724,108	-191,505	-0,100	-0,001
-723,094	-36,614	-0,077	-0,030
-722,079	87,112	-0,108	-0,087
-721,064	-200,000	-0,016	-0,072
-720,050	-106,923	-0,151	-0,024
-719,035	-69,375	-0,097	-0,027
-718,021	266,663	-0,092	-0,117
-717,006	800,000	-0,034	-0,100
-715,991	319,067	-0,101	-0,140
-714,977	800,000	0,047	-0,114
-713,962	-93,713	-0,138	-0,027
-712,948	-200,000	-0,013	-0,103
-711,933	-200,000	-0,020	-0,091
-710,918	-114,633	0,023	-0,003
-709,904	429,605	-0,068	-0,107
-708,889	204,336	-0,029	0,033
-707,875	679,947	0,089	-0,170
-706,860	800,000	-0,027	-0,057
-705,845	-109,405	0,150	0,023
-704,831	-200,000	-0,013	0,102
-703,816	800,000	-0,067	0,144
-702,802	178,157	0,040	0,043
-701,787	90,671	-0,096	-0,078
-700,772	124,072	-0,055	0,050
-699,758	-64,967	-0,074	-0,022
-698,743	145,811	0,108	-0,105
-697,729	71,073	-0,124	0,094
-696,714	800,000	0,033	0,078
-695,699	-122,280	-0,056	-0,007
-694,685	-159,742	0,061	-0,002
-693,670	48,619	-0,083	-0,056
-692,656	800,000	-0,068	0,143
-691,641	171,884	-0,024	-0,025
-690,627	-200,000	-0,036	0,271
-689,612	-144,420	0,123	-0,008
-688,597	628,439	0,016	-0,029
-687,583	691,945	-0,074	-0,142
-686,568	-47,620	-0,047	-0,016
-685,554	-93,893	-0,138	0,027
-684,539	-200,000	-0,018	0,080
-683,524	212,586	-0,083	0,095
-682,510	303,880	0,013	0,017
-681,495	167,002	-0,068	0,070
-680,481	100,510	-0,031	0,026
-679,466	-71,614	-0,167	-0,045
-678,451	-122,850	-0,080	-0,009
-677,437	37,893	-0,046	0,030
-676,422	-200,000	0,007	-0,087
-675,408	134,652	-0,049	0,046
-674,393	90,682	-0,076	0,062
-673,378	10,061	-0,118	-0,065
-672,364	800,000	-0,031	-0,070
-671,349	-69,521	-0,112	-0,031
-670,335	-54,293	0,115	-0,038
-669,320	800,000	-0,019	0,055
-668,305	800,000	-0,058	-0,155
-667,291	-11,415	-0,053	0,025
-666,276	134,384	-0,065	-0,061
-665,262	-135,405	-0,165	-0,014
-664,247	800,000	0,058	0,164
-663,232	-200,000	-0,012	0,118
-662,218	52,585	-0,093	0,064
-661,203	176,686	-0,057	0,061
-660,189	-52,621	-0,090	-0,030
-659,174	-59,641	0,009	-0,003
-658,159	322,984	-0,097	-0,135
-657,145	68,055	-0,079	0,059
-656,130	270,377	0,040	0,052
-655,116	678,669	0,041	-0,078
-654,101	-200,000	-0,014	0,095
-653,086	800,000	0,060	-0,120
-652,072	413,160	-0,041	-0,063
-651,057	10,439	-0,115	0,063
-650,043	-200,000	-0,015	-0,099
-649,028	-200,000	-0,003	-0,010
-648,014	523,891	0,076	0,131
-646,999	-152,741	0,133	-0,007
-645,984	153,008	0,060	-0,059
-644,970	800,000	-0,052	-0,120
-643,955	800,000	0,037	-0,088
-642,941	-95,206	-0,128	0,025
-641,926	661,687	-0,038	0,072
-640,911	800,000	-0,020	0,052
-639,897	-200,000	0,042	0,142
-638,882	149,216	-0,023	-0,023
-637,868	7,165	-0,067	-0,036
-636,853	-200,000	-0,000	-0,086
-635,838	218,289	-0,173	-0,200
-634,824	800,000	-0,050	-0,120
-633,809	-200,000	-0,031	0,141
-632,795	-200,000	0,036	0,142
-631,780	800,000	0,019	-0,057
-630,765	-175,877	-0,174	0,003
-629,751	338,994	0,016	-0,022
-628,736	239,780	-0,053	-0,064
-627,722	-200,000	0,035	0,122
-626,707	-0,964	0,099	-0,050
-625,692	-200,000	0,012	-0,054
-624,678	-200,000	-0,008	0,045
-623,663	-200,000	0,053	0,171
-622,649	124,483	-0,056	0,051
-621,634	81,270	-0,075	-0,059
-620,619	-112,613	0,066	-0,009
-619,605	181,546	0,055	0,058
-618,590	190,930	0,075	-0,081
-617,576	62,884	-0,080	0,058
-616,561	-103,631	-0,066	-0,011
-615,546	-10,409	0,078	0,038
-614,532	122,761	-0,067	-0,061
-613,517	-171,656	-0,146	0,003
-612,503	271,137	0,083	-0,106
-611,488	35,639	-0,064	0,041
-610,474	280,563	-0,040	0,052
-609,459	629,052	-0,029	-0,054
-608,444	-2,341	-0,072	0,037
-607,430	-92,813	-0,070	0,014
-606,415	74,956	-0,106	-0,081
-605,401	-132,571	0,014	0,001
-604,386	800,000	-0,025	-0,053
-603,371	800,000	-0,061	0,124
-602,357	-200,000	0,009	0,084
-601,342	-191,148	0,065	-0,000
-600,328	476,672	-0,051	-0,084
-599,313	-0,003	0,051	-0,026
-598,298	420,803	-0,093	-0,146
-597,284	-81,177	0,027	-0,007
-596,269	-29,341	0,036	-0,015
-595,255	81,783	0,056	0,044
-594,240	800,000	-0,026	-0,057
-593,225	800,000	-0,075	-0,153
-592,211	-200,000	0,008	-0,254
-591,196	-200,000	-0,019	0,149
-590,182	400,594	0,026	0,040
-589,167	400,520	0,063	0,095
-588,152	-200,000	-0,020	0,113
-587,138	-179,723	0,018	0,000
-586,123	-200,000	0,021	-0,108
-585,109	-200,000	-0,038	-0,138
-584,094	70,123	-0,064	0,048
-583,079	178,646	-0,041	0,043
-582,065	-200,000	0,003	0,032
-581,050	-29,846	0,076	-0,031
-580,036	-200,000	-0,035	-0,145
-579,021	-129,361	-0,119	0,012
-578,006	124,171	-0,074	-0,067
-576,992	-200,000	-0,037	-0,126
-575,977	800,000	0,014	-0,036
-574,963	-77,972	0,043	0,011
-573,948	358,661	0,041	0,060
-572,934	-200,000	-0,026	-0,153
-571,919	-23,050	0,042	-0,018
-570,904	-36,287	-0,062	0,024
-569,890	800,000	0,022	0,049
-568,875	-200,000	0,001	-0,042
-567,861	257,856	-0,057	-0,071
-566,846	-200,000	0,009	0,061
-565,831	81,435	0,157	-0,123
-564,817	-200,000	-0,003	0,020
-563,802	239,582	-0,059	-0,072
-562,788	-87,471	0,070	0,015
-561,773	177,654	0,039	0,041
-560,758	800,000	0,036	-0,085
-559,744	55,370	-0,101	-0,070
-558,729	-169,264	-0,102	0,003
-557,715	-200,000	-0,015	-0,178
-556,700	528,603	-0,047	-0,080
-555,685	296,381	-0,088	-0,118
-554,671	14,555	0,103	-0,058
-553,656	547,661	0,067	0,117
-552,642	176,703	-0,127	0,133
-551,627	-140,732	0,071	-0,005
-550,612	-200,000	-0,008	0,109
-549,598	-200,000	0,011	-0,090
-548,583	-82,806	-0,102	0,024
-547,569	272,652	-0,036	0,047
-546,554	310,748	0,037	0,050
-545,539	800,000	-0,012	0,030
-544,525	129,675	-0,070	-0,064
-543,510	-72,314	0,114	0,030
-542,496	528,727	-0,039	-0,066
-541,481	-26,655	0,049	-0,021
-540,466	-79,285	-0,072	-0,018
-539,452	185,101	-0,030	-0,032
-538,437	-200,000	-0,029	0,158
-537,423	-200,000	0,000	0,036
-536,408	-83,602	0,107	-0,024
-535,393	166,455	-0,098	-0,100
-534,379	-68,804	-0,015	-0,004
-533,364	7,066	-0,044	0,024
-532,350	306,760	-0,067	0,090
-531,335	84,871	0,026	0,020
-530,321	800,000	-0,046	0,126
-529,306	-200,000	0,011	0,041
-528,291	133,472	0,057	-0,054
-527,277	-200,000	-0,012	0,086
-526,262	-89,430	0,052	0,011
-525,248	800,000	-0,057	-0,138
-524,233	-122,087	-0,097	-0,011
-523,218	230,093	-0,094	0,111
-522,204	-41,388	-0,064	-0,024
-521,189	800,000	-0,034	0,086
-520,175	-200,000	-0,004	-0,077
-519,160	-200,000	0,013	-0,110
-518,145	-115,159	0,252	0,034
-517,131	800,000	-0,007	-0,014
-516,116	-200,000	0,013	0,077
-515,102	-200,000	0,050	0,192
-514,087	-134,249	-0,035	0,003
-513,072	800,000	-0,017	-0,050
-512,058	58,204	-0,085	-0,060
-511,043	-200,000	0,031	0,147
-510,029	-12,828	0,080	0,038
-509,014	133,628	-0,041	0,038
-507,999	-42,983	0,010	-0,004
-506,985	-185,423	-0,116	-0,001
-505,970	-74,797	0,110	-0,028
-504,956	-160,460	-0,107	-0,004
-503,941	-44,242	-0,055	-0,020
-502,926	-49,633	0,091	-0,031
-501,912	12,239	0,048	-0,027
-500,897	-101,972	-0,076	-0,013
-499,883	-22,237	-0,035	0,015
-498,868	-200,000	-0,001	-0,066
-497,853	373,833	-0,040	-0,059
-496,839	6,185	0,060	-0,032
-495,824	273,815	0,021	-0,027
-494,810	290,773	-0,095	0,125
-493,795	-200,000	-0,023	0,154
-492,781	-52,005	-0,109	-0,036
-491,766	-200,000	0,021	-0,099
-490,751	-17,273	-0,043	0,019
-489,737	-150,040	0,158	0,009
-488,722	69,780	0,161	0,119
-487,708	96,005	0,073	-0,060
-486,693	-10,375	0,117	0,056
-485,678	-200,000	0,043	0,185
-484,664	800,000	0,066	-0,175
-483,649	800,000	-0,058	-0,164
-482,635	-61,689	0,213	-0,064
-481,620	62,559	0,088	0,063
-480,605	284,817	0,052	0,067
-479,591	-117,962	0,166	0,021
-478,576	403,922	0,050	-0,076
-477,562	-42,052	-0,091	-0,033
-476,547	-53,136	-0,098	-0,032
-475,532	-5,999	-0,116	0,057
-474,518	-200,000	0,004	0,012
-473,503	-200,000	-0,023	0,087
-472,489	791,955	-0,053	0,106
-471,474	-89,322	0,044	0,009
-470,459	800,000	-0,020	-0,046
-469,445	-200,000	-0,037	-0,185
-468,430	-117,638	-0,142	-0,018
-467,416	-25,187	0,074	0,031
-466,401	-134,653	-0,072	0,006
-465,386	69,837	-0,101	0,075
-464,372	723,014	-0,045	0,087
-463,357	-123,066	-0,050	-0,006
-462,343	56,845	-0,033	-0,023
-461,328	-200,000	0,002	0,067
-460,313	-171,117	0,024	0,001
-459,299	199,992	0,032	0,036
-458,284	-200,000	0,050	0,183
-457,270	800,000	0,043	0,121
-456,255	800,000	0,032	-0,094
-455,241	-70,523	-0,052	-0,014
-454,226	800,000	0,019	0,041
-453,211	749,582	-0,019	-0,037
-452,197	-31,166	-0,066	-0,027
-451,182	109,988	-0,129	0,112
-450,168	-165,481	0,142	0,004
-449,153	131,135	0,122	-0,113
-448,138	-16,454	-0,038	0,017
-447,124	-30,009	-0,080	-0,032
-446,109	644,033	0,061	-0,112
-445,095	22,738	0,096	-0,057
-444,080	-78,779	0,149	-0,036
-443,065	-7,726	-0,043	0,021
-442,051	748,326	-0,081	-0,158
-441,036	-86,623	-0,113	-0,025
-440,022	-50,555	0,065	-0,022
-439,007	-70,742	0,085	-0,023
-437,992	-200,000	-0,004	0,155
-436,978	56,800	-0,100	0,070
-435,963	-65,029	0,071	-0,020
-434,949	-200,000	-0,018	-0,091
-433,934	-200,000	0,017	0,155
-432,919	-135,857	0,030	-0,003
-431,905	-200,000	-0,045	-0,147
-430,890	28,690	0,053	-0,032
-429,876	-200,000	0,010	0,187
-428,861	-136,144	0,110	0,009
-427,846	-200,000	-0,014	0,081
-426,832	277,425	-0,038	-0,049
-425,817	800,000	-0,021	-0,055
-424,803	567,706	-0,012	0,021
-423,788	-41,125	0,049	-0,018
-422,773	34,577	0,053	0,033
-421,759	137,668	-0,102	0,096
-420,744	-200,000	-0,004	0,098
-419,730	-72,773	-0,197	-0,052
-418,715	-62,638	-0,171	-0,051
-417,701	-78,258	0,169	0,041
-416,686	-200,000	0,009	0,173
-415,671	-200,000	0,033	-0,123
-414,657	-9,304	0,138	-0,066
-413,642	-200,000	0,016	-0,112
-412,628	59,266	0,084	0,059
-411,613	60,611	-0,175	-0,125
-410,598	62,696	-0,141	-0,101
-409,584	137,360	-0,036	-0,034
-408,569	4,413	0,210	-0,110
-407,555	30,491	-0,148	-0,091
-406,540	-200,000	-0,006	-0,120
-405,525	-108,848	0,038	-0,006
-404,511	-200,000	-0,009	0,042
-403,496	17,484	-0,068	-0,039
-402,482	370,404	0,040	0,058
-401,467	130,471	0,053	-0,049
-400,452	342,499	0,026	-0,036
-399,438	343,729	0,048	0,068
-398,423	701,044	-0,069	-0,131
-397,409	-28,312	-0,129	-0,053
-396,394	-52,609	-0,110	0,036
-395,379	346,585	0,082	-0,116
-394,365	131,209	0,102	0,094
-393,350	18,521	0,049	-0,028
-392,336	260,424	-0,072	0,089
-391,321	-138,123	-0,028	0,002
-390,306	-53,063	0,114	-0,037
-389,292	-65,542	0,115	0,033
-388,277	-161,598	-0,034	-0,001
-387,263	153,857	0,087	0,086
-386,248	151,073	-0,071	0,070
-385,233	-150,853	0,149	-0,008
-384,219	-200,000	0,018	-0,093
-383,204	203,987	-0,025	0,027
-382,190	800,000	0,045	-0,106
-381,175	-200,000	-0,042	-0,149
-380,160	-7,268	0,119	0,058
-379,146	800,000	0,056	0,152
-378,131	-200,000	-0,028	0,139
-377,117	-98,820	0,005	-0,001
-376,102	462,530	-0,090	-0,144
-375,088	-200,000	-0,021	0,083
-374,073	-128,058	-0,087	0,009
-373,058	-200,000	-0,020	-0,109
-372,044	800,000	-0,022	0,046
-371,029	-170,850	0,109	0,003
-370,015	527,239	-0,025	-0,042
-369,000	39,098	0,033	0,021
-367,985	-0,154	-0,068	-0,035
-366,971	54,205	0,037	0,025
-365,956	388,564	0,077	-0,115
-364,942	751,233	0,063	0,123
-363,927	-200,000	0,038	-0,122
-362,912	-141,772	-0,054	0,004
-361,898	-200,000	0,008	0,045
-360,883	688,263	0,074	-0,140
-359,869	800,000	-0,066	-0,138
-358,854	666,902	0,062	-0,116
-357,839	-200,000	-0,019	0,065
-356,825	-4,028	0,248	0,123
-355,810	-200,000	0,006	0,131
-354,796	149,439	-0,058	0,056
-353,781	-200,000	0,009	-0,071
-352,766	218,186	-0,054	0,062
-351,752	210,068	0,063	0,071
-350,737	-200,000	0,006	0,186
-349,723	800,000	-0,047	0,107
-348,708	121,781	0,069	0,061
-347,693	243,210	-0,065	-0,078
-346,679	-200,000	-0,017	0,063
-345,664	-112,799	0,038	0,005
-344,650	-41,960	0,137	0,050
-343,635	160,891	-0,096	-0,096
-342,620	-97,883	0,083	0,015
-341,606	51,646	0,072	0,049
-340,591	800,000	0,039	0,100
-339,577	42,967	0,023	0,015
-338,562	800,000	-0,054	-0,139
-337,548	340,684	0,006	0,008
-336,533	-200,000	-0,006	0,053
-335,518	153,858	0,183	0,180
-334,504	4,923	-0,094	0,049
-333,489	18,051	0,067	-0,038
-332,475	800,000	0,056	0,164
-331,460	213,116	-0,024	0,028
-330,445	191,514	-0,084	0,091
-329,431	-87,519	0,088	0,019
-328,416	132,854	-0,047	-0,044
-327,402	54,236	0,076	-0,053
-326,387	447,218	0,018	0,028
-325,372	170,781	-0,118	-0,121
-324,358	-200,000	0,003	-0,132
-323,343	681,951	-0,064	-0,120
-322,329	427,507	0,010	0,015
-321,314	-110,827	0,165	0,024
-320,299	-85,994	0,061	0,013
-319,285	369,563	-0,002	0,002
-318,270	222,917	-0,083	-0,096
-317,256	-200,000	-0,002	0,163
-316,241	-200,000	-0,003	0,025
-315,226	-113,094	0,166	0,023
-314,212	60,815	0,083	0,059
-313,197	-2,403	-0,192	0,096
-312,183	-54,238	0,140	0,045
-311,168	800,000	-0,041	-0,084
-310,153	157,042	-0,056	-0,055
-309,139	697,331	-0,018	-0,035
-308,124	-25,993	0,058	-0,024
-307,110	-184,479	0,042	-0,000
-306,095	-76,758	-0,042	0,010
-305,080	-150,554	-0,059	0,003
-304,066	-19,269	-0,072	-0,032
-303,051	-200,000	0,025	0,134
-302,037	180,891	0,035	-0,037
-301,022	-86,955	0,084	-0,018
-300,008	-103,226	0,022	0,004
-298,993	800,000	0,040	-0,108
-297,978	800,000	0,031	0,091
-296,964	-200,000	0,021	-0,073
-295,949	461,657	-0,088	0,141
-294,935	800,000	-0,019	-0,045
-293,920	-103,993	-0,059	-0,010
-292,905	287,668	0,072	0,094
-291,891	152,148	0,070	0,068
-290,876	-168,073	-0,081	0,002
-289,862	104,328	0,088	0,074
-288,847	-200,000	-0,024	-0,219
-287,832	165,548	-0,070	0,071
-286,818	-43,128	0,108	-0,039
-285,803	800,000	-0,031	0,096
-284,789	-200,000	-0,031	0,126
-283,774	1,193	-0,097	0,050
-282,759	105,114	-0,041	-0,034
-281,745	79,359	-0,164	0,126
-280,730	-34,414	-0,132	-0,051
-279,716	-200,000	-0,042	0,145
-278,701	3,634	-0,018	0,009
-277,686	-84,259	0,056	-0,012
-276,672	-200,000	-0,000	-0,041
-275,657	-200,000	-0,009	0,116
-274,643	800,000	-0,038	0,085
-273,628	108,749	-0,115	-0,099
-272,613	-200,000	-0,049	-0,228
-271,599	90,474	-0,077	-0,062
-270,584	112,681	-0,031	-0,026
-269,570	153,711	-0,065	0,064
-268,555	-30,647	-0,091	0,037
-267,540	115,986	-0,095	-0,083
-266,526	-200,000	-0,003	-0,017
-265,511	227,658	-0,059	0,069
-264,497	-11,024	0,069	-0,033
-263,482	589,599	0,058	-0,102
-262,467	686,715	-0,015	0,028
-261,453	-200,000	0,018	0,189
-260,438	446,870	0,054	0,086
-259,424	380,179	-0,074	-0,109
-258,409	-200,000	-0,006	0,061
-257,395	534,380	0,022	-0,037
-256,380	-200,000	-0,051	0,167
-255,365	-200,000	0,028	0,173
-254,351	-137,839	-0,084	0,007
-253,336	514,497	0,081	-0,135
-252,322	-200,000	-0,016	-0,075
-251,307	-126,715	-0,079	0,008
-250,292	800,000	0,008	-0,023
-249,278	-119,552	-0,051	0,006
-248,263	-200,000	0,013	-0,067
-247,249	-59,457	0,071	-0,022
-246,234	-119,852	-0,059	-0,007
-245,219	60,701	-0,047	0,033
-244,205	-200,000	0,002	-0,029
-243,190	401,334	0,035	-0,053
-242,176	20,206	-0,112	-0,064
-241,161	-60,744	0,082	0,025
-240,146	-200,000	-0,010	0,052
-239,132	-200,000	-0,008	0,125
-238,117	-200,000	0,001	0,043
-237,103	-200,000	-0,006	-0,086
-236,088	800,000	0,023	-0,049
-235,073	-20,056	0,088	0,038
-234,059	800,000	0,061	0,171
-233,044	-39,408	0,118	-0,044
-232,030	432,238	0,022	-0,034
-231,015	-98,388	-0,035	0,006
-230,000	451,601	-0,084	-0,133
-228,986	-85,504	-0,067	-0,015
-227,971	215,221	0,063	0,072
-226,957	140,257	0,060	0,056
-225,942	-200,000	-0,003	-0,034
-224,927	-200,000	0,014	0,046
-223,913	-200,000	0,012	-0,141
-222,898	31,972	0,085	-0,052
-221,884	-42,830	-0,064	-0,023
-220,869	30,325	-0,023	0,014
-219,855	327,375	-0,021	0,029
-218,840	99,400	0,064	0,052
-217,825	137,540	0,069	0,064
-216,811	-200,000	0,038	-0,138
-215,796	372,114	0,071	-0,103
-214,782	322,238	0,036	-0,050
-213,767	800,000	0,071	0,188
-212,752	189,430	0,061	0,066
-211,738	-200,000	-0,031	0,162
-210,723	-200,000	0,000	0,125
-209,709	-126,390	-0,027	0,003
-208,694	-200,000	-0,011	-0,056
-207,679	54,607	0,057	-0,039
-206,665	38,039	-0,031	-0,020
-205,650	-200,000	0,032	0,149
-204,636	-118,179	-0,060	0,007
-203,621	-200,000	0,029	0,106
-202,606	55,100	-0,055	0,038
-201,592	-61,973	0,048	-0,014
-200,577	301,445	-0,065	0,086
-199,563	800,000	0,034	0,096
-198,548	83,108	0,187	0,145
-197,533	-8,267	-0,073	-0,035
-196,519	163,982	0,099	-0,099
-195,504	-41,348	-0,062	-0,023
-194,490	78,061	0,101	-0,077
-193,475	-200,000	0,019	-0,104
-192,460	129,834	-0,079	-0,072
-191,446	-44,449	0,138	-0,049
-190,431	198,261	-0,066	0,072
-189,417	-200,000	0,009	-0,054
-188,402	-133,983	-0,162	0,014
-187,387	800,000	0,043	-0,118
-186,373	-43,268	0,025	-0,009
-185,358	35,735	0,079	0,050
-184,344	201,275	0,092	0,101
-183,329	248,633	0,066	0,080
-182,315	-73,982	0,095	-0,024
-181,300	98,204	-0,056	-0,046
-180,285	800,000	0,058	-0,144
-179,271	662,129	0,024	-0,044
-178,256	-200,000	-0,014	-0,069
-177,242	25,168	0,074	-0,044
-176,227	-36,571	-0,055	-0,021
-175,212	-86,561	-0,040	0,009
-174,198	359,166	-0,053	0,075
-173,183	-71,758	-0,069	-0,018
-172,169	800,000	-0,037	-0,111
-171,154	-200,000	0,045	-0,156
-170,139	-200,000	0,019	0,061
-169,125	-200,000	0,020	0,091
-168,110	30,378	-0,064	-0,039
-167,096	-96,201	0,130	0,024
-166,081	9,420	-0,030	-0,016
-165,066	-67,913	-0,125	-0,035
-164,052	9,767	0,056	-0,030
-163,037	217,279	0,038	0,043
-162,023	-45,762	0,021	0,007
-161,008	-172,657	0,057	0,001
-159,993	800,000	-0,029	-0,065
-158,979	800,000	-0,084	-0,260
-157,964	-33,647	-0,050	-0,019
-156,950	169,641	-0,091	-0,092
-155,935	-200,000	-0,003	-0,016
-154,920	-200,000	0,008	0,049
-153,906	203,902	0,175	0,194
-152,891	-200,000	-0,013	0,144
-151,877	800,000	0,017	0,041
-150,862	183,923	-0,112	-0,118
-149,847	800,000	0,005	-0,011
-148,833	-188,345	0,141	-0,001
-147,818	-8,228	0,101	0,048
-146,804	-111,703	0,218	0,031
-145,789	-162,956	-0,004	0,000
-144,775	369,105	0,048	-0,070
-143,760	-66,601	-0,056	0,016
-142,745	-40,385	0,137	-0,050
-141,731	-162,325	0,011	-0,000
-140,716	-24,827	0,095	0,040
-139,702	-155,648	-0,086	-0,004
-138,687	78,289	-0,153	0,116
-137,672	-200,000	0,031	0,129
-136,658	-200,000	0,022	-0,074
-135,643	-200,000	0,006	-0,077
-134,629	-141,977	0,024	-0,002
-133,614	-166,734	0,046	0,001
-132,599	-135,297	0,053	0,004
-131,585	-200,000	-0,006	0,125
-130,570	544,652	-0,031	0,053
-129,556	232,449	-0,061	0,071
-128,541	40,671	-0,123	-0,079
-127,526	134,741	-0,052	0,048
-126,512	-200,000	0,009	-0,064
-125,497	-200,000	-0,029	0,126
-124,483	-116,826	0,074	-0,010
-123,468	-200,000	0,011	0,069
-122,453	-200,000	-0,011	-0,073
-121,439	124,062	-0,029	0,026
-120,424	329,726	0,046	0,063
-119,410	-171,267	0,067	-0,002
-118,395	-200,000	-0,023	0,089
-117,380	-200,000	-0,014	0,129
-116,366	-50,793	0,092	0,031
-115,351	324,884	-0,073	-0,099
-114,337	-73,985	0,116	-0,030
-113,322	-20,611	0,138	0,060
-112,307	-109,875	-0,103	0,015
-111,293	-89,209	0,053	-0,011
-110,278	800,000	0,020	-0,056
-109,264	-28,142	0,088	-0,036
-108,249	-137,945	-0,112	-0,009
-107,234	297,620	-0,019	0,025
-106,220	-200,000	-0,002	-0,113
-105,205	171,943	0,080	0,081
-104,191	206,462	-0,054	0,060
-103,176	245,901	0,085	0,102
-102,162	-63,695	-0,157	-0,045
-101,147	136,682	-0,105	-0,098
-100,132	-102,669	-0,117	-0,020
-99,118	320,668	0,073	-0,098
-98,103	-161,716	0,205	-0,007
-97,089	-200,000	-0,015	0,058
-96,074	-200,000	0,003	0,027
-95,059	-200,000	-0,009	0,098
-94,045	-200,000	0,012	0,086
-93,030	-0,158	0,057	-0,029
-92,016	203,759	-0,036	0,039
-91,001	-155,310	-0,090	-0,004
-89,986	35,131	0,100	0,062
-88,972	71,241	-0,040	0,030
-87,957	-87,339	0,091	0,019
-86,943	-200,000	0,011	0,143
-85,928	129,206	-0,168	0,152
-84,913	-200,000	-0,010	-0,223
-83,899	478,832	0,068	-0,110
-82,884	800,000	-0,010	0,028
-81,870	439,864	-0,017	-0,026
-80,855	-200,000	-0,014	-0,116
-79,840	285,346	-0,171	0,219
-78,826	-23,878	-0,130	-0,055
-77,811	-200,000	-0,044	-0,168
-76,797	-200,000	0,018	-0,119
-75,782	800,000	-0,029	-0,070
-74,767	717,174	0,023	0,043
-73,753	-200,000	0,020	0,093
-72,738	800,000	-0,050	-0,112
-71,724	510,252	-0,018	-0,030
-70,709	-115,049	-0,100	0,013
-69,694	692,068	0,101	-0,189
-68,680	-200,000	-0,031	0,172
-67,665	-200,000	0,005	-0,036
-66,651	566,422	0,041	-0,072
-65,636	-134,415	0,068	0,006
-64,622	-75,174	0,086	-0,022
-63,607	800,000	-0,014	-0,032
-62,592	-163,005	-0,133	0,004
-61,578	438,777	-0,017	-0,026
-60,563	184,245	0,066	-0,069
-59,549	-120,596	-0,194	0,023
-58,534	-89,324	-1,330	-0,276
-57,519	401,098	-1,426	-2,128
-56,505	-200,000	-0,529	-4,415
-55,490	133,282	1,035	0,949
-54,476	800,000	4,515	10,798
-53,461	-200,000	17,707	283,147
-52,446	800,000	721,039	2228,972
-51,432	562,835	1635,819	2817,227
-50,417	81,105	1659,204	1268,591
-49,403	23,717	1533,452	892,835
-48,388	17,685	1456,584	818,982
-47,373	18,177	1446,277	815,515
-46,359	17,752	1436,852	808,143
-45,344	15,941	1432,158	796,860
-44,330	15,924	1430,269	795,694
-43,315	15,935	1428,494	794,728
-42,300	15,934	1426,787	793,740
-41,286	15,967	1425,715	793,272
-40,271	15,951	1424,390	792,424
-39,257	15,964	1423,002	791,686
-38,242	15,968	1421,898	791,056
-37,227	16,010	1420,374	790,374
-36,213	15,967	1419,326	789,557
-35,198	15,962	1418,169	788,859
-34,184	15,988	1417,280	788,457
-33,169	15,909	1415,978	787,331
-32,154	15,936	1415,099	786,935
-31,140	16,014	1413,589	786,430
-30,125	15,995	1412,514	785,715
-29,111	16,003	1411,253	785,020
-28,096	15,944	1410,143	784,095
-27,082	15,871	1409,166	783,175
-26,067	15,897	1408,309	782,793
-25,052	15,936	1406,883	782,149
-24,038	15,869	1406,037	781,335
-23,023	15,840	1405,078	780,637
-22,009	15,859	1404,074	780,135
-20,994	15,819	1402,897	779,265
-19,979	15,847	1402,130	778,941
-18,965	15,818	1401,065	778,182
-17,950	15,789	1400,017	777,433
-16,936	15,840	1399,081	777,117
-15,921	15,784	1398,010	776,234
-14,906	15,772	1396,992	775,583
-13,892	15,779	1396,150	775,115
-12,877	15,789	1395,283	774,650
-11,863	15,824	1394,113	774,134
-10,848	15,788	1393,384	773,528
-9,833	15,743	1392,543	772,824
-8,819	15,754	1391,174	772,087
-7,804	15,715	1390,341	771,411
-6,790	15,696	1389,405	770,776
-5,775	15,676	1388,520	770,161
-4,760	15,690	1387,697	769,736
-3,746	15,665	1387,199	769,317
-2,731	15,670	1386,175	768,739
-1,717	15,737	1384,855	768,287
-0,702	15,679	1383,252	767,099
0,313	19,480	1303,901	740,630
1,327	35,800	706,909	439,354
2,342	55,302	125,276	85,693
3,356	4,732	16,478	8,547
4,371	3,340	3,143	1,616
5,386	-76,828	0,520	0,128
6,400	-200,000	0,001	0,072
7,415	178,830	-0,247	-0,256
8,429	194,992	-0,290	-0,312
9,444	110,662	-0,331	-0,282
10,459	355,121	-0,208	-0,293
11,473	108,029	-0,219	-0,184
12,488	15,831	-0,380	-0,211
13,502	-53,726	-0,243	-0,078
14,517	151,893	-0,319	-0,308
15,531	197,311	-0,436	-0,471
16,546	120,863	-0,290	-0,256
17,561	176,818	-0,283	-0,291
18,575	180,069	-0,131	-0,136
19,590	5,658	-0,273	-0,142
20,604	-111,507	-0,305	-0,043
21,619	140,040	-0,342	-0,319
22,634	117,611	-0,322	-0,280
23,648	141,453	-0,354	-0,332
24,663	150,129	-0,320	-0,307
25,677	51,089	-0,345	-0,231
26,692	194,134	-0,306	-0,328
27,707	124,271	-0,393	-0,349
28,721	55,340	-0,442	-0,302
29,736	24,175	-0,357	-0,208
30,750	142,518	-0,291	-0,273
31,765	132,526	-0,377	-0,344
32,780	136,764	-0,338	-0,312
33,794	58,720	-0,277	-0,192
34,809	250,016	-0,230	-0,276
35,823	159,073	-0,329	-0,323
36,838	170,627	-0,389	-0,394
37,853	171,049	-0,371	-0,376
38,867	3,973	-0,521	-0,268
39,882	138,572	-0,210	-0,195
40,896	-17,824	-0,299	-0,132
41,911	25,445	-0,198	-0,116
42,926	106,757	-0,360	-0,302
43,940	57,677	-0,377	-0,260
44,955	139,724	-0,346	-0,322
45,969	26,823	-0,429	-0,253
46,984	94,653	-0,316	-0,253
47,999	32,709	-0,273	-0,166
49,013	151,599	-0,241	-0,232
50,028	106,654	-0,353	-0,295
51,042	346,745	-0,287	-0,400
52,057	69,545	-0,457	-0,331
53,071	196,458	-0,289	-0,311
54,086	128,773	-0,286	-0,257
55,101	-26,404	-0,395	-0,163
56,115	202,384	-0,185	-0,201
57,130	131,055	-0,312	-0,283
58,144	-20,532	-0,405	-0,175
59,159	96,161	-0,369	-0,297
60,174	-37,937	-0,458	-0,171
61,188	142,073	-0,276	-0,258
62,203	12,662	-0,289	-0,157
63,217	267,719	-0,180	-0,223
64,232	217,519	-0,230	-0,258
65,247	12,208	-0,421	-0,228
66,261	-6,266	-0,501	-0,240
67,276	126,656	-0,329	-0,294
68,290	13,915	-0,413	-0,226
69,305	64,278	-0,284	-0,201
70,320	65,985	-0,251	-0,179
71,334	19,974	-0,392	-0,222
72,349	84,549	-0,391	-0,301
73,363	-44,286	-0,311	-0,109
74,378	38,226	-0,398	-0,249
75,393	66,198	-0,362	-0,258
76,407	144,377	-0,238	-0,224
77,422	46,940	-0,321	-0,210
78,436	-186,432	-0,216	0,002
79,451	-34,299	-0,473	-0,182
80,466	-27,990	-0,502	-0,203
81,480	336,560	-0,202	-0,277
82,495	25,988	-0,368	-0,215
83,509	-5,095	-0,333	-0,161
84,524	13,587	-0,267	-0,145
85,539	-5,479	-0,419	-0,202
86,553	14,029	-0,370	-0,202
87,568	87,212	-0,349	-0,271
88,582	12,013	-0,358	-0,193
89,597	147,586	-0,291	-0,275
90,611	-16,554	-0,229	-0,102
91,626	236,769	-0,160	-0,186
92,641	40,190	-0,268	-0,169
93,655	59,074	-0,297	-0,205
94,670	-96,419	-0,254	-0,047
95,684	38,036	-0,333	-0,207
96,699	593,239	-0,173	-0,302
97,714	-77,521	-0,277	-0,067
98,728	133,275	-0,276	-0,251
99,743	30,314	-0,318	-0,191
100,757	36,142	-0,219	-0,135
101,772	-7,261	-0,353	-0,167
102,787	13,119	-0,397	-0,215
103,801	115,672	-0,289	-0,248
104,816	63,452	-0,191	-0,134
105,830	2,558	-0,279	-0,141
106,845	130,471	-0,156	-0,140
107,860	2,883	-0,377	-0,192
108,874	38,565	-0,291	-0,182
109,889	-20,112	-0,331	-0,143
110,903	140,367	-0,241	-0,224
111,918	250,985	-0,137	-0,163
112,933	30,568	-0,167	-0,100
113,947	110,820	-0,170	-0,143
114,962	158,795	-0,231	-0,225
115,976	205,924	-0,301	-0,328
116,991	254,304	-0,255	-0,306
118,006	35,582	-0,200	-0,123
119,020	60,291	-0,192	-0,133
120,035	78,896	-0,194	-0,145
121,049	-193,250	-0,173	0,001
122,064	-200,000	-0,059	-0,192
123,079	48,566	-0,280	-0,184
124,093	-12,656	-0,248	-0,113
125,108	223,032	-0,220	-0,249
126,122	4,388	-0,326	-0,167
127,137	800,000	-0,096	-0,204
128,151	-80,855	-0,392	-0,090
129,166	15,306	-0,277	-0,152
130,181	-0,748	-0,305	-0,151
131,195	24,657	-0,405	-0,234
132,210	56,904	-0,254	-0,173
133,224	151,866	-0,273	-0,261
134,239	67,052	-0,220	-0,157
135,254	-53,414	-0,192	-0,061
136,268	800,000	-0,071	-0,208
137,283	-115,981	-0,357	-0,046
138,297	-35,102	-0,236	-0,089
139,312	733,402	-0,133	-0,250
140,327	141,175	-0,258	-0,239
141,341	7,755	-0,275	-0,143
142,356	6,111	-0,212	-0,109
143,370	-53,531	-0,186	-0,059
144,385	110,688	-0,169	-0,142
145,400	123,795	-0,313	-0,275
146,414	21,800	-0,290	-0,165
147,429	-13,125	-0,295	-0,134
148,443	109,675	-0,263	-0,220
149,458	169,825	-0,169	-0,169
150,473	76,582	-0,213	-0,157
151,487	-9,289	-0,209	-0,097
152,502	386,747	-0,121	-0,176
153,516	93,900	-0,308	-0,244
154,531	268,367	-0,146	-0,179
155,546	189,361	-0,252	-0,264
156,560	67,320	-0,206	-0,147
157,575	114,981	-0,171	-0,146
158,589	36,136	-0,281	-0,173
159,604	424,703	-0,202	-0,305
160,619	174,070	-0,202	-0,204
161,633	-48,229	-0,282	-0,095
162,648	-12,938	-0,235	-0,106
163,662	119,779	-0,171	-0,148
164,677	-7,092	-0,253	-0,119
165,692	142,902	-0,126	-0,117
166,706	167,558	-0,207	-0,206
167,721	68,807	-0,227	-0,163
168,735	78,979	-0,179	-0,134
169,750	81,880	-0,259	-0,195
170,764	39,711	-0,212	-0,133
171,779	-4,464	-0,198	-0,095
172,794	193,098	-0,212	-0,224
173,808	114,076	-0,242	-0,205
174,823	73,082	-0,195	-0,142
175,837	267,749	-0,244	-0,298
176,852	9,138	-0,310	-0,163
177,867	78,799	-0,196	-0,146
178,881	-47,917	-0,331	-0,111
179,896	140,728	-0,249	-0,230
180,910	74,631	-0,259	-0,190
181,925	800,000	-0,163	-0,320
182,940	-23,630	-0,246	-0,102
183,954	280,686	-0,218	-0,272
184,969	-11,516	-0,295	-0,135
185,983	117,327	-0,225	-0,193
186,998	22,137	-0,272	-0,155
188,013	269,439	-0,092	-0,112
189,027	72,309	-0,197	-0,143
190,042	114,526	-0,207	-0,176
191,056	254,644	-0,218	-0,261
192,071	78,105	-0,247	-0,183
193,086	78,072	-0,219	-0,163
194,100	611,262	-0,080	-0,139
195,115	68,621	-0,238	-0,170
196,129	37,198	-0,234	-0,144
197,144	128,114	-0,285	-0,253
198,159	231,444	-0,150	-0,172
199,173	60,865	-0,195	-0,135
200,188	29,625	-0,238	-0,141
201,202	-47,910	-0,051	-0,017
202,217	84,576	-0,256	-0,195
203,232	-74,701	-0,232	-0,058
204,246	356,426	-0,265	-0,369
205,261	-40,730	-0,222	-0,080
206,275	120,361	-0,120	-0,104
207,290	37,358	-0,216	-0,133
208,304	800,000	-0,097	-0,191
209,319	-137,430	-0,226	-0,018
210,334	447,880	-0,105	-0,161
211,348	172,052	-0,216	-0,216
212,363	80,710	-0,217	-0,163
213,377	-46,342	-0,222	-0,075
214,392	-104,240	-0,200	-0,032
215,407	-23,856	-0,239	-0,099
216,421	64,709	-0,178	-0,125
217,436	87,720	-0,159	-0,123
218,450	24,279	-0,235	-0,135
219,465	451,859	-0,190	-0,292
220,480	800,000	-0,099	-0,208
221,494	-85,790	-0,218	-0,046
222,509	-108,453	-0,162	0,024
223,523	79,728	-0,181	-0,135
224,538	329,471	-0,170	-0,228
225,553	150,550	-0,297	-0,280
226,567	61,794	-0,162	-0,112
227,582	-149,707	-0,182	0,010
228,596	147,492	-0,129	-0,120
229,611	800,000	-0,080	-0,222
230,626	240,865	-0,157	-0,182
231,640	166,316	-0,203	-0,200
232,655	-31,505	-0,278	-0,108
233,669	-200,000	-0,069	-0,219
234,684	-189,191	-0,302	-0,002
235,699	722,353	-0,116	-0,215
236,713	-107,196	-0,217	-0,033
237,728	-200,000	-0,300	-0,000
238,742	-66,174	-0,253	-0,069
239,757	246,522	-0,150	-0,176
240,772	-26,141	-0,217	-0,088
241,786	800,000	-0,100	-0,242
242,801	472,046	-0,118	-0,185
243,815	186,927	-0,145	-0,150
244,830	-45,055	-0,187	-0,064
245,844	518,807	-0,109	-0,178
246,859	271,384	-0,187	-0,229
247,874	246,612	-0,137	-0,161
248,888	64,483	-0,205	-0,143
249,903	-56,895	-0,225	-0,068
250,917	107,318	-0,257	-0,212
251,932	10,544	-0,156	-0,082
252,947	209,218	-0,149	-0,162
253,961	336,566	-0,135	-0,182
254,976	155,585	-0,106	-0,102
255,990	-144,564	-0,145	-0,009
257,005	89,908	-0,098	-0,076
258,020	-25,381	-0,268	-0,109
259,034	224,218	-0,069	-0,078
260,049	93,057	-0,174	-0,136
261,063	-200,000	0,000	-0,230
262,078	149,986	-0,187	-0,176
263,093	217,207	-0,143	-0,158
264,107	380,545	-0,155	-0,220
265,122	-97,923	-0,060	0,011
266,136	-200,000	-0,184	0,000
267,151	182,785	-0,033	-0,034
268,166	-149,433	-0,233	0,013
269,180	199,332	-0,199	-0,211
270,195	2,625	-0,239	-0,119
271,209	7,996	-0,136	-0,070
272,224	179,741	-0,144	-0,146
273,239	59,653	-0,117	-0,079
274,253	-11,920	-0,248	-0,112
275,268	147,463	-0,112	-0,104
276,282	-153,338	-0,238	0,011
277,297	87,759	-0,151	-0,115
278,312	104,346	-0,194	-0,157
279,326	-86,220	-0,175	-0,037
280,341	35,343	-0,208	-0,126
281,355	36,967	-0,078	-0,048
282,370	-130,013	-0,209	-0,020
283,384	12,198	-0,279	-0,148
284,399	-200,000	-0,011	-0,293
285,414	-118,818	-0,159	-0,019
286,428	-176,074	-0,202	0,004
287,443	50,706	-0,225	-0,147
288,457	13,622	-0,076	-0,041
289,472	93,821	-0,212	-0,166
290,487	-28,513	-0,191	-0,076
291,501	-74,282	-0,153	-0,038
292,516	112,601	-0,161	-0,134
293,530	28,648	-0,155	-0,091
294,545	-141,899	-0,177	0,012
295,560	-61,514	-0,175	0,050
296,574	-74,032	-0,125	0,031
297,589	190,896	-0,158	-0,164
298,603	800,000	-0,080	-0,212
299,618	295,362	-0,187	-0,236
300,633	-88,948	-0,269	-0,054
301,647	434,272	-0,133	-0,200
302,662	50,846	-0,259	-0,169
303,676	154,673	-0,035	0,033
304,691	-95,533	-0,123	-0,023
305,706	211,353	-0,239	-0,259
306,720	103,071	-0,193	-0,156
307,735	-86,601	-0,211	-0,044
308,749	-26,736	-0,161	-0,065
309,764	414,679	-0,141	-0,208
310,779	-167,477	-0,197	0,005
311,793	800,000	-0,104	-0,232
312,808	-8,086	-0,138	-0,064
313,822	800,000	-0,140	-0,288
314,837	40,458	-0,137	-0,085
315,852	800,000	-0,002	0,004
316,866	79,117	-0,124	-0,092
317,881	-66,201	-0,076	0,021
318,895	-46,840	-0,219	-0,073
319,910	-200,000	-0,306	-0,001
320,925	-124,639	-0,320	-0,034
321,939	-86,570	-0,157	0,033
322,954	-7,726	-0,157	-0,073
323,968	800,000	-0,052	-0,130
324,983	-123,358	-0,155	-0,017
325,997	-14,041	-0,084	-0,037
327,012	61,667	-0,226	-0,154
328,027	-200,000	-0,046	-0,148
329,041	117,615	-0,124	-0,105
330,056	-25,205	-0,217	-0,088
331,070	-137,205	-0,024	0,002
332,085	-200,000	-0,013	-0,062
333,100	487,004	-0,101	-0,159
334,114	207,488	-0,073	-0,079
335,129	-200,000	-0,044	-0,201
336,143	128,020	-0,192	-0,168
337,158	800,000	-0,090	-0,183
338,173	235,157	-0,080	-0,091
339,187	152,511	0,088	0,083
340,202	430,241	-0,057	-0,085
341,216	-55,655	-0,136	-0,042
342,231	8,383	-0,128	-0,066
343,246	761,453	-0,087	-0,162
344,260	-95,978	-0,145	-0,026
345,275	39,533	-0,133	-0,082
346,289	105,910	-0,205	-0,167
347,304	129,998	-0,220	-0,194
348,319	261,434	-0,110	-0,131
349,333	50,148	-0,187	-0,121
350,348	23,583	-0,179	-0,101
351,362	471,103	-0,124	-0,192
352,377	-55,707	-0,134	-0,041
353,392	-21,840	-0,078	0,032
354,406	31,225	-0,108	-0,064
355,421	209,646	1313,668	1416,081
356,435	161,357	1474,298	1416,592
