DTS Sentinel unit serial number:	SN410029Multiplexer serial number:	ORYXHardware model number:	OX2-SRSoftware version number:	ORYX F/W v4,00 Oryx Data Collector v3.7.2.0data status	okinstallation	B3 Nyhavnadifferential loss correction	single-endedforward channel	channel 1reverse channel	N/Adate	2023/11/30time	07:22:30forward acquisition time	300,00reverse acquisition time	0,00gamma	499,1914k internal	0,3211k external	0,3211temperature offset calibration	1,0000default loss term (dB/km)	0,3820temperature slope calibration	1,0000multiplexer offset coefficient	1,0000multiplexer slope coefficient	1,0000fibre end	0,00T internal ref (°C)	10,03T ext. ref 1 (°C)	-5,77T ext. ref 2 (°C)	-5,89length (m)	temperature (°C)	Stokes	anti-Stokes-744,400	800,000	-0,124	-0,253
-743,385	800,000	-0,137	0,370
-742,371	253,205	-0,127	-0,158
-741,356	-200,000	-0,050	0,225
-740,342	-44,319	-0,260	-0,094
-739,327	-200,000	0,040	0,368
-738,312	272,821	-0,155	-0,198
-737,298	-200,000	-0,084	0,299
-736,283	-200,000	-0,035	-0,276
-735,269	800,000	0,051	0,153
-734,254	200,340	-0,134	-0,150
-733,239	-25,335	-0,197	0,084
-732,225	-200,000	-0,030	-0,244
-731,210	-30,459	0,048	-0,020
-730,196	279,137	-0,085	0,110
-729,181	800,000	-0,012	0,039
-728,167	-18,116	-0,053	0,024
-727,152	53,121	-0,016	-0,011
-726,137	-136,018	-0,127	-0,011
-725,123	-122,038	-0,071	-0,008
-724,108	-42,066	-0,195	-0,072
-723,094	57,102	-0,145	-0,102
-722,079	-76,561	-0,106	0,027
-721,064	-27,913	-0,100	-0,042
-720,050	164,048	0,086	-0,088
-719,035	800,000	0,011	-0,027
-718,021	-25,973	-0,095	-0,040
-717,006	-134,493	-0,024	0,002
-715,991	73,745	-0,262	-0,199
-714,977	85,339	-0,015	-0,012
-713,962	25,472	-0,084	-0,050
-712,948	-55,028	0,169	-0,055
-711,933	-200,000	0,060	0,218
-710,918	210,719	0,014	-0,016
-709,904	239,436	0,068	0,082
-708,889	-200,000	0,008	-0,087
-707,875	-111,760	-0,059	0,009
-706,860	-76,037	0,057	-0,015
-705,845	800,000	0,079	0,174
-704,831	733,759	-0,033	-0,065
-703,816	-138,590	-0,140	0,011
-702,802	151,098	-0,020	-0,020
-701,787	31,838	-0,150	-0,093
-700,772	-200,000	-0,008	0,042
-699,758	49,071	-0,025	-0,017
-698,743	-161,532	0,074	0,003
-697,729	-200,000	0,001	-0,019
-696,714	-28,267	0,066	0,027
-695,699	-24,863	-0,188	0,081
-694,685	-200,000	0,010	-0,064
-693,670	-200,000	0,015	0,055
-692,656	145,667	-0,050	-0,048
-691,641	-200,000	-0,005	-0,037
-690,627	-154,234	-0,126	0,006
-689,612	-2,687	0,066	0,033
-688,597	-200,000	0,035	-0,128
-687,583	252,401	-0,074	0,091
-686,568	317,721	-0,069	0,094
-685,554	240,648	-0,126	-0,152
-684,539	-200,000	0,032	0,182
-683,524	-19,032	-0,024	0,011
-682,510	-54,115	0,025	-0,008
-681,495	1,772	-0,004	0,002
-680,481	-200,000	-0,028	-0,123
-679,466	-89,841	-0,052	0,011
-678,451	159,034	-0,060	0,060
-677,437	400,333	0,055	-0,084
-676,422	-200,000	-0,010	-0,101
-675,408	167,963	-0,040	0,041
-674,393	308,456	-0,097	-0,132
-673,378	304,304	0,028	-0,038
-672,364	-200,000	-0,013	-0,059
-671,349	-87,025	-0,112	0,024
-670,335	173,876	-0,015	-0,016
-669,320	-200,000	0,001	-0,089
-668,305	357,500	-0,020	-0,029
-667,291	800,000	-0,076	-0,194
-666,276	407,297	-0,017	0,026
-665,262	-139,468	-0,118	0,009
-664,247	-138,608	0,144	-0,011
-663,232	-77,045	-0,060	0,015
-662,218	341,490	0,046	0,065
-661,203	-100,232	0,071	-0,013
-660,189	761,653	0,067	-0,133
-659,174	26,406	-0,030	-0,018
-658,159	-200,000	-0,018	-0,133
-657,145	800,000	-0,074	-0,206
-656,130	-200,000	0,010	-0,038
-655,116	53,288	0,047	-0,032
-654,101	-200,000	0,055	0,189
-653,086	177,313	-0,027	0,028
-652,072	17,344	-0,091	-0,052
-651,057	98,054	-0,103	-0,086
-650,043	-20,337	-0,086	0,038
-649,028	-164,498	-0,065	-0,002
-648,014	-200,000	0,009	0,164
-646,999	-158,920	0,050	0,002
-645,984	-145,466	-0,096	0,006
-644,970	240,431	-0,008	-0,010
-643,955	-59,243	0,030	-0,009
-642,941	15,222	-0,173	-0,098
-641,926	-200,000	0,020	-0,132
-640,911	-200,000	-0,028	-0,125
-639,897	-200,000	0,005	0,070
-638,882	-54,382	0,092	0,030
-637,868	551,073	0,061	-0,106
-636,853	800,000	0,010	0,026
-635,838	-87,021	-0,069	-0,015
-634,824	502,981	-0,089	0,149
-633,809	29,771	0,163	0,100
-632,795	-200,000	0,001	0,058
-631,780	-200,000	0,012	0,145
-630,765	-130,888	0,016	-0,002
-629,751	-200,000	0,029	-0,144
-628,736	-24,617	-0,159	-0,068
-627,722	251,301	-0,149	-0,183
-626,707	-145,879	-0,071	0,004
-625,692	108,866	0,044	-0,038
-624,678	-200,000	-0,014	0,054
-623,663	-135,460	-0,065	-0,006
-622,649	72,111	-0,113	-0,085
-621,634	-200,000	-0,025	-0,140
-620,619	162,562	0,024	-0,024
-619,605	650,066	-0,022	-0,041
-618,590	-200,000	0,032	0,195
-617,576	357,712	0,025	-0,036
-616,561	27,480	0,042	-0,026
-615,546	45,664	0,058	-0,039
-614,532	592,327	-0,105	-0,188
-613,517	-167,440	0,038	-0,001
-612,503	87,178	-0,011	-0,009
-611,488	-0,188	0,022	-0,011
-610,474	-106,696	0,095	-0,015
-609,459	122,870	-0,066	-0,060
-608,444	800,000	-0,035	-0,105
-607,430	652,876	0,016	0,029
-606,415	-4,791	-0,054	0,027
-605,401	-86,362	0,160	-0,035
-604,386	155,381	-0,032	-0,032
-603,371	562,934	-0,025	-0,044
-602,357	-200,000	-0,006	-0,070
-601,342	800,000	0,064	-0,132
-600,328	-200,000	0,024	0,086
-599,313	-165,698	-0,095	-0,003
-598,298	24,571	-0,110	-0,066
-597,284	-9,130	-0,030	-0,014
-596,269	-28,430	0,104	0,043
-595,255	-200,000	-0,001	0,116
-594,240	108,394	-0,104	0,090
-593,225	584,536	0,040	0,072
-592,211	-200,000	-0,017	-0,195
-591,196	-200,000	-0,022	0,152
-590,182	-86,390	0,123	0,027
-589,167	-82,961	-0,132	0,030
-588,152	-176,959	0,149	0,003
-587,138	-80,352	0,035	0,008
-586,123	268,296	0,004	-0,005
-585,109	89,394	-0,075	-0,061
-584,094	-200,000	-0,039	-0,136
-583,079	-200,000	0,005	0,021
-582,065	25,131	0,043	-0,025
-581,050	89,143	-0,078	0,063
-580,036	-106,525	-0,149	0,024
-579,021	-15,245	-0,023	0,011
-578,006	-200,000	0,002	-0,075
-576,992	-141,988	-0,032	-0,002
-575,977	-40,385	0,097	-0,036
-574,963	-200,000	0,061	0,203
-573,948	-200,000	-0,008	-0,029
-572,934	431,611	-0,056	0,088
-571,919	169,828	-0,103	0,106
-570,904	-200,000	-0,031	-0,124
-569,890	-200,000	-0,016	-0,112
-568,875	-193,404	0,106	-0,001
-567,861	92,618	0,035	0,028
-566,846	-111,011	-0,122	-0,018
-565,831	800,000	-0,022	-0,045
-564,817	29,766	0,044	0,027
-563,802	220,416	0,060	0,070
-562,788	-200,000	-0,030	-0,126
-561,773	800,000	0,052	0,142
-560,758	-200,000	-0,024	0,127
-559,744	-200,000	-0,010	-0,092
-558,729	-200,000	0,022	0,140
-557,715	109,518	0,035	-0,031
-556,700	-38,745	-0,075	-0,029
-555,685	519,644	0,035	0,059
-554,671	4,410	0,154	0,081
-553,656	-200,000	0,008	0,100
-552,642	-73,927	0,068	0,018
-551,627	-200,000	0,034	0,159
-550,612	71,162	-0,119	0,089
-549,598	800,000	0,012	0,030
-548,583	-200,000	-0,016	-0,059
-547,569	800,000	0,043	-0,133
-546,554	420,345	0,085	0,132
-545,539	713,133	0,041	0,079
-544,525	401,974	0,019	-0,029
-543,510	57,182	0,042	0,029
-542,496	390,597	-0,102	-0,153
-541,481	-200,000	0,016	-0,122
-540,466	-200,000	0,011	-0,082
-539,452	33,022	0,052	0,032
-538,437	80,522	-0,005	0,004
-537,423	800,000	-0,028	0,061
-536,408	-105,931	0,102	0,016
-535,393	684,685	-0,069	-0,129
-534,379	-83,891	-0,199	0,045
-533,364	351,575	-0,012	-0,018
-532,350	171,837	0,049	-0,051
-531,335	52,749	0,102	0,070
-530,321	-8,030	0,017	-0,008
-529,306	800,000	-0,045	0,100
-528,291	-200,000	-0,007	0,024
-527,277	161,912	-0,083	-0,083
-526,262	-36,105	-0,072	0,028
-525,248	-29,452	0,090	0,037
-524,233	-200,000	-0,009	0,040
-523,218	-200,000	0,017	0,164
-522,204	-200,000	-0,009	0,063
-521,189	-16,916	-0,097	0,044
-520,175	-67,653	-0,155	0,043
-519,160	800,000	-0,026	0,076
-518,145	-6,899	0,071	-0,034
-517,131	-200,000	-0,012	-0,048
-516,116	214,494	0,104	0,118
-515,102	209,608	-0,051	0,057
-514,087	112,635	-0,142	-0,123
-513,072	-200,000	0,002	0,063
-512,058	541,333	0,045	-0,077
-511,043	100,525	0,098	0,082
-510,029	179,009	0,110	0,115
-509,014	800,000	-0,074	0,159
-507,999	-200,000	-0,006	-0,137
-506,985	181,890	-0,016	-0,017
-505,970	-23,520	0,056	0,024
-504,956	427,775	-0,069	-0,107
-503,941	479,535	-0,010	0,017
-502,926	-90,716	0,081	-0,017
-501,912	-51,761	-0,201	-0,067
-500,897	800,000	-0,014	-0,036
-499,883	800,000	0,053	0,118
-498,868	-138,509	-0,062	0,005
-497,853	800,000	0,012	-0,036
-496,839	-200,000	0,009	-0,075
-495,824	-38,850	-0,154	0,058
-494,810	-200,000	0,033	0,130
-493,795	-168,477	0,152	-0,004
-492,781	316,933	-0,057	0,077
-491,766	-120,127	-0,101	-0,012
-490,751	-91,930	-0,091	0,018
-489,737	275,869	0,104	0,133
-488,722	142,578	0,117	0,112
-487,708	-200,000	-0,003	0,116
-486,693	-200,000	-0,028	0,121
-485,678	-126,018	-0,112	0,012
-484,664	800,000	0,010	0,029
-483,649	-21,914	0,100	-0,044
-482,635	-29,408	-0,098	0,040
-481,620	302,259	0,021	0,028
-480,605	204,212	0,163	-0,182
-479,591	-60,989	0,039	-0,012
-478,576	-200,000	0,002	0,013
-477,562	-47,624	-0,065	0,022
-476,547	98,634	-0,129	-0,107
-475,532	465,848	0,070	-0,113
-474,518	253,080	0,010	-0,013
-473,503	-200,000	0,030	0,186
-472,489	172,029	0,077	-0,079
-471,474	203,297	-0,036	0,040
-470,459	291,378	-0,101	-0,132
-469,445	-146,035	-0,095	0,006
-468,430	-200,000	-0,021	-0,111
-467,416	800,000	-0,037	-0,092
-466,401	-200,000	-0,007	-0,066
-465,386	-67,762	0,196	0,055
-464,372	-18,627	-0,046	0,020
-463,357	-200,000	0,001	-0,083
-462,343	-200,000	0,005	0,086
-461,328	800,000	0,035	0,105
-460,313	-137,213	0,101	0,008
-459,299	-200,000	0,018	0,077
-458,284	69,456	0,107	0,079
-457,270	68,196	-0,059	0,043
-456,255	144,821	0,137	-0,131
-455,241	374,655	-0,075	-0,110
-454,226	-31,073	-0,086	-0,035
-453,211	594,669	-0,065	-0,116
-452,197	-105,281	0,114	-0,018
-451,182	-200,000	-0,040	0,190
-450,168	-13,411	-0,058	-0,027
-449,153	445,371	-0,076	-0,120
-448,138	-59,457	-0,164	0,050
-447,124	177,358	0,090	-0,094
-446,109	-84,868	-0,078	0,017
-445,095	106,356	0,123	0,105
-444,080	409,841	0,111	0,169
-443,065	-49,093	-0,097	0,033
-442,051	51,055	0,066	0,044
-441,036	137,638	-0,112	-0,105
-440,022	199,114	0,063	-0,069
-439,007	168,389	0,054	-0,055
-437,992	176,242	0,021	0,022
-436,978	-200,000	-0,004	0,033
-435,963	146,963	-0,018	0,017
-434,949	-200,000	0,017	-0,107
-433,934	-41,094	0,120	0,044
-432,919	750,136	-0,027	0,052
-431,905	-125,190	0,032	-0,004
-430,890	63,152	0,086	-0,061
-429,876	452,186	-0,019	-0,029
-428,861	-200,000	0,014	0,049
-427,846	157,125	-0,072	0,072
-426,832	-134,455	0,030	-0,003
-425,817	87,301	0,035	0,027
-424,803	800,000	0,019	0,053
-423,788	-109,544	0,109	0,016
-422,773	-200,000	0,012	0,102
-421,759	673,524	-0,018	-0,034
-420,744	800,000	-0,034	0,069
-419,730	800,000	-0,032	-0,093
-418,715	68,486	-0,044	-0,032
-417,701	800,000	0,036	-0,083
-416,686	10,408	-0,005	-0,003
-415,671	312,996	0,068	-0,092
-414,657	-37,437	0,145	0,055
-413,642	-69,117	-0,018	-0,005
-412,628	92,591	0,070	-0,057
-411,613	137,966	0,111	-0,104
-410,598	-200,000	-0,007	0,042
-409,584	800,000	0,039	0,092
-408,569	800,000	0,049	0,119
-407,555	-40,838	-0,133	0,049
-406,540	800,000	-0,023	0,048
-405,525	-200,000	0,007	-0,108
-404,511	-200,000	0,010	-0,137
-403,496	-63,855	-0,126	-0,037
-402,482	165,367	-0,183	0,185
-401,467	124,376	0,040	-0,036
-400,452	99,107	0,051	-0,042
-399,438	-200,000	-0,007	0,130
-398,423	-68,381	-0,096	0,027
-397,409	-155,130	0,051	0,002
-396,394	643,988	-0,089	-0,164
-395,379	113,283	-0,086	-0,074
-394,365	800,000	0,004	0,009
-393,350	-133,147	0,047	0,004
-392,336	-95,231	-0,042	0,008
-391,321	-167,657	-0,076	-0,002
-390,306	13,115	0,098	-0,054
-389,292	142,695	-0,072	-0,069
-388,277	-200,000	-0,013	-0,054
-387,263	228,354	0,036	0,042
-386,248	709,284	-0,040	0,076
-385,233	-200,000	0,004	0,076
-384,219	-155,467	0,157	-0,007
-383,204	-12,964	-0,036	0,017
-382,190	800,000	-0,028	-0,081
-381,175	800,000	0,064	-0,134
-380,160	155,400	0,059	-0,058
-379,146	52,541	0,119	0,081
-378,131	-7,025	0,074	0,036
-377,117	800,000	-0,007	0,018
-376,102	-77,050	-0,105	-0,026
-375,088	-50,445	-0,138	0,046
-374,073	-48,586	-0,036	0,012
-373,058	-97,711	0,145	-0,027
-372,044	47,928	-0,090	0,060
-371,029	192,537	0,062	0,067
-370,015	-120,569	0,057	0,007
-369,000	430,771	0,030	0,047
-367,985	413,612	-0,058	-0,089
-366,971	-47,736	0,032	0,011
-365,956	226,445	0,064	0,074
-364,942	-31,094	0,060	-0,024
-363,927	232,574	-0,021	-0,025
-362,912	-182,328	0,096	-0,001
-361,898	262,433	0,063	0,078
-360,883	-200,000	-0,020	-0,194
-359,869	800,000	-0,049	-0,112
-358,854	552,429	0,019	0,032
-357,839	-200,000	0,020	0,083
-356,825	-200,000	0,003	-0,046
-355,810	243,022	0,043	-0,052
-354,796	71,021	0,004	0,003
-353,781	-103,696	0,104	-0,017
-352,766	-45,744	-0,049	0,017
-351,752	74,746	-0,068	0,051
-350,737	800,000	0,044	-0,108
-349,723	34,892	0,085	-0,053
-348,708	-35,975	-0,111	0,043
-347,693	570,836	0,056	-0,098
-346,679	800,000	-0,090	-0,221
-345,664	-200,000	0,015	-0,062
-344,650	-169,043	-0,056	0,001
-343,635	800,000	-0,011	-0,030
-342,620	97,590	-0,044	-0,036
-341,606	308,785	-0,059	-0,079
-340,591	147,546	-0,023	0,022
-339,577	176,771	-0,100	-0,104
-338,562	40,303	0,151	-0,097
-337,548	505,458	0,045	0,075
-336,533	-200,000	0,010	0,079
-335,518	-17,269	0,092	-0,041
-334,504	205,521	0,049	0,054
-333,489	194,923	-0,057	-0,061
-332,475	800,000	-0,035	-0,088
-331,460	145,510	-0,061	-0,058
-330,445	-200,000	0,021	0,085
-329,431	4,595	-0,047	-0,025
-328,416	-30,195	0,066	-0,027
-327,402	-200,000	0,032	0,189
-326,387	-200,000	0,012	-0,047
-325,372	800,000	0,026	-0,062
-324,358	-33,987	-0,256	0,100
-323,343	800,000	0,062	-0,126
-322,329	800,000	0,018	0,037
-321,314	768,946	0,026	-0,050
-320,299	-200,000	0,039	0,128
-319,285	800,000	-0,017	0,052
-318,270	-200,000	-0,002	-0,120
-317,256	-158,220	-0,061	0,002
-316,241	-200,000	-0,014	-0,187
-315,226	10,087	0,069	0,037
-314,212	170,239	0,040	-0,041
-313,197	800,000	-0,024	0,050
-312,183	-200,000	-0,021	0,103
-311,168	607,809	-0,042	-0,075
-310,153	168,811	-0,118	-0,120
-309,139	-200,000	-0,003	0,028
-308,124	-65,081	0,026	-0,007
-307,110	800,000	0,026	0,054
-306,095	-71,469	0,037	-0,010
-305,080	-200,000	0,017	0,069
-304,066	-5,625	-0,119	-0,058
-303,051	-200,000	-0,031	-0,145
-302,037	-200,000	-0,002	0,026
-301,022	280,882	-0,066	-0,085
-300,008	4,356	0,134	-0,070
-298,993	800,000	0,004	0,010
-297,978	-99,071	-0,055	-0,010
-296,964	-200,000	0,027	0,094
-295,949	168,129	0,136	-0,138
-294,935	60,939	-0,079	-0,056
-293,920	410,041	0,023	-0,034
-292,905	-82,030	0,094	0,022
-291,891	800,000	0,038	0,092
-290,876	-38,994	0,155	0,058
-289,862	-200,000	0,003	-0,075
-288,847	-200,000	0,005	0,040
-287,832	-150,682	-0,112	0,006
-286,818	70,857	-0,039	0,029
-285,803	-200,000	0,042	0,146
-284,789	454,837	-0,073	0,116
-283,774	-200,000	0,002	0,022
-282,759	-200,000	-0,019	-0,158
-281,745	-200,000	0,027	-0,098
-280,730	-191,396	-0,092	-0,001
-279,716	-38,463	-0,036	-0,013
-278,701	-139,271	0,057	-0,004
-277,686	248,250	-0,080	-0,097
-276,672	800,000	0,045	0,122
-275,657	-12,122	0,069	-0,032
-274,643	-77,008	0,109	-0,027
-273,628	19,451	-0,154	-0,088
-272,613	193,168	0,058	-0,062
-271,599	619,154	-0,014	0,025
-270,584	-135,310	0,023	0,002
-269,570	-200,000	0,001	-0,134
-268,555	-70,282	0,087	0,023
-267,540	-73,803	-0,099	-0,026
-266,526	-200,000	0,016	-0,087
-265,511	-200,000	0,014	0,161
-264,497	-200,000	-0,049	0,159
-263,482	-200,000	0,038	0,197
-262,467	228,522	0,030	-0,035
-261,453	-111,396	-0,102	0,015
-260,438	248,177	-0,055	-0,067
-259,424	42,209	-0,130	-0,084
-258,409	226,951	0,058	-0,067
-257,395	-32,199	0,087	0,035
-256,380	-200,000	-0,032	-0,107
-255,365	113,226	0,121	0,105
-254,351	418,582	-0,035	-0,053
-253,336	169,620	-0,057	0,058
-252,322	-200,000	0,013	-0,116
-251,307	-200,000	-0,013	0,050
-250,292	800,000	0,025	0,052
-249,278	80,004	0,132	0,101
-248,263	-30,781	0,078	0,031
-247,249	197,340	-0,087	0,095
-246,234	-53,936	0,062	-0,020
-245,219	-125,182	0,063	-0,007
-244,205	-200,000	0,015	-0,089
-243,190	167,332	0,099	-0,100
-242,176	-131,014	-0,016	0,002
-241,161	-52,831	0,081	-0,026
-240,146	-89,555	0,079	0,016
-239,132	800,000	-0,038	-0,106
-238,117	119,868	-0,042	0,037
-237,103	-139,834	-0,044	0,003
-236,088	-71,048	-0,145	-0,039
-235,073	-141,559	0,060	0,004
-234,059	-47,796	-0,056	0,019
-233,044	326,960	-0,035	-0,048
-232,030	-200,000	-0,011	-0,074
-231,015	-200,000	-0,010	0,051
-230,000	-133,176	-0,134	0,012
-228,986	-88,127	-0,033	0,007
-227,971	17,860	0,143	-0,081
-226,957	401,880	-0,081	-0,122
-225,942	133,336	-0,071	0,066
-224,927	434,049	0,028	0,044
-223,913	-200,000	0,013	0,093
-222,898	257,660	-0,013	0,016
-221,884	-118,669	-0,097	-0,012
-220,869	800,000	0,046	0,102
-219,855	-200,000	-0,058	0,207
-218,840	-200,000	0,021	0,157
-217,825	-200,000	-0,001	-0,099
-216,811	-200,000	-0,017	-0,101
-215,796	74,063	-0,071	0,053
-214,782	-73,865	0,041	-0,010
-213,767	228,401	-0,058	0,067
-212,752	-75,351	0,072	0,018
-211,738	800,000	0,024	0,048
-210,723	43,511	-0,047	0,031
-209,709	800,000	-0,042	-0,096
-208,694	-16,667	-0,052	-0,023
-207,679	78,505	-0,136	0,103
-206,665	64,851	-0,140	0,100
-205,650	-200,000	-0,008	-0,070
-204,636	388,914	-0,074	0,109
-203,621	561,467	0,075	-0,130
-202,606	800,000	0,062	-0,177
-201,592	800,000	0,030	0,075
-200,577	-143,896	0,147	-0,010
-199,563	133,835	0,122	0,112
-198,548	-72,238	-0,059	0,016
-197,533	-22,690	0,033	-0,014
-196,519	-80,782	0,093	0,022
-195,504	228,690	-0,045	0,052
-194,490	262,289	0,001	0,001
-193,475	800,000	0,015	-0,044
-192,460	800,000	0,010	0,026
-191,446	800,000	0,038	0,118
-190,431	458,682	-0,059	0,093
-189,417	-200,000	-0,007	0,088
-188,402	-138,187	-0,061	0,005
-187,387	800,000	0,018	-0,050
-186,373	800,000	0,020	-0,043
-185,358	-64,833	0,019	0,005
-184,344	800,000	0,051	0,108
-183,329	259,297	0,056	0,069
-182,315	595,810	0,061	-0,107
-181,300	800,000	-0,018	0,037
-180,285	96,885	-0,127	-0,103
-179,271	-92,973	0,064	-0,013
-178,256	-34,663	0,024	0,009
-177,242	800,000	0,031	-0,065
-176,227	303,897	-0,051	0,067
-175,212	342,574	-0,105	0,147
-174,198	-200,000	0,018	0,111
-173,183	800,000	-0,024	-0,046
-172,169	517,753	-0,060	-0,099
-171,154	104,330	0,024	0,020
-170,139	22,733	-0,051	0,029
-169,125	187,500	-0,103	-0,109
-168,110	58,963	-0,064	0,045
-167,096	-200,000	-0,005	0,062
-166,081	-200,000	-0,006	-0,031
-165,066	284,690	-0,072	-0,092
-164,052	-65,966	0,060	0,017
-163,037	-140,124	0,068	-0,005
-162,023	-200,000	0,009	-0,032
-161,008	65,955	0,148	-0,106
-159,993	184,308	0,098	0,103
-158,979	349,040	-0,057	-0,080
-157,964	99,381	0,093	0,076
-156,950	-72,306	0,119	0,031
-155,935	-200,000	-0,027	0,129
-154,920	73,154	0,127	-0,094
-153,906	-34,167	0,160	0,062
-152,891	34,651	-0,045	0,028
-151,877	-200,000	0,015	0,096
-150,862	-200,000	-0,001	-0,033
-149,847	-94,362	0,062	0,012
-148,833	363,466	0,044	-0,063
-147,818	-200,000	0,038	0,152
-146,804	214,261	0,059	0,067
-145,789	-84,868	-0,086	0,019
-144,775	47,735	-0,116	0,076
-143,760	316,519	-0,048	-0,064
-142,745	330,225	-0,055	-0,075
-141,731	-83,807	0,056	-0,012
-140,716	-3,497	0,038	0,019
-139,702	-153,336	0,095	-0,005
-138,687	-200,000	0,027	0,088
-137,672	-200,000	-0,015	0,104
-136,658	-94,904	-0,177	-0,034
-135,643	13,733	-0,037	-0,020
-134,629	-37,217	-0,076	0,029
-133,614	800,000	0,027	0,069
-132,599	800,000	-0,031	0,086
-131,585	43,096	0,174	-0,112
-130,570	-16,901	-0,056	-0,025
-129,556	-170,268	0,069	0,002
-128,541	-94,897	-0,111	-0,021
-127,526	800,000	0,056	-0,135
-126,512	-18,645	0,110	-0,048
-125,497	800,000	-0,021	-0,045
-124,483	294,345	0,031	0,040
-123,468	114,927	-0,063	-0,055
-122,453	-200,000	0,005	0,017
-121,439	-66,592	-0,082	0,023
-120,424	-19,151	0,141	0,062
-119,410	90,063	-0,051	-0,040
-118,395	-200,000	-0,028	0,116
-117,380	-200,000	0,013	-0,107
-116,366	-38,672	-0,089	-0,033
-115,351	424,225	0,017	-0,025
-114,337	25,330	0,070	-0,041
-113,322	19,678	0,080	-0,045
-112,307	49,518	-0,048	-0,032
-111,293	800,000	-0,031	0,094
-110,278	-200,000	0,021	0,095
-109,264	-200,000	-0,009	-0,135
-108,249	171,415	-0,056	-0,057
-107,234	531,599	0,034	0,056
-106,220	-145,600	-0,087	-0,005
-105,205	-200,000	-0,034	-0,175
-104,191	122,758	-0,062	-0,055
-103,176	47,450	0,115	0,076
-102,162	453,707	0,041	0,064
-101,147	143,485	-0,037	-0,035
-100,132	299,231	0,088	-0,114
-99,118	800,000	0,068	-0,184
-98,103	-122,675	0,073	-0,008
-97,089	-200,000	0,012	0,051
-96,074	800,000	0,017	-0,034
-95,059	-200,000	0,002	0,023
-94,045	800,000	0,045	0,094
-93,030	15,709	-0,102	-0,056
-92,016	800,000	0,040	-0,090
-91,001	-35,576	-0,052	0,020
-89,986	62,958	0,061	0,043
-88,972	800,000	0,038	0,106
-87,957	800,000	0,061	0,145
-86,943	-200,000	0,013	-0,049
-85,928	-53,854	0,020	0,006
-84,913	-86,983	-0,035	-0,007
-83,899	310,244	-0,047	0,062
-82,884	800,000	-0,032	0,093
-81,870	800,000	-0,046	-0,091
-80,855	-119,778	0,144	0,017
-79,840	143,239	-0,099	0,094
-78,826	447,679	0,076	-0,118
-77,811	800,000	-0,061	-0,145
-76,797	37,949	0,072	-0,045
-75,782	160,096	-0,072	-0,071
-74,767	349,810	0,028	-0,039
-73,753	-42,438	-0,147	0,053
-72,738	217,506	0,008	0,009
-71,724	-129,252	-0,093	-0,009
-70,709	-54,440	0,126	-0,040
-69,694	104,049	-0,138	-0,115
-68,680	-64,568	0,115	-0,033
-67,665	800,000	0,051	-0,130
-66,651	800,000	-0,011	-0,027
-65,636	0,240	-0,109	0,055
-64,622	-56,767	0,052	0,016
-63,607	800,000	-0,030	-0,061
-62,592	-157,534	0,189	0,008
-61,578	-30,545	-0,079	-0,031
-60,563	-200,000	-0,014	0,231
-59,549	-200,000	-0,005	0,122
-58,534	22,308	-2,054	-1,182
-57,519	428,318	-1,194	-1,826
-56,505	-200,000	-0,348	-4,344
-55,490	427,097	0,995	1,520
-54,476	800,000	5,161	11,218
-53,461	-200,000	21,332	341,757
-52,446	800,000	761,026	2365,086
-51,432	559,820	1663,931	2847,585
-50,417	73,497	1661,278	1226,386
-49,403	17,958	1534,866	860,832
-48,388	11,870	1458,488	788,547
-47,373	19,425	1449,842	820,103
-46,359	15,352	1439,013	794,571
-45,344	10,105	1434,864	767,262
-44,330	10,058	1432,918	765,968
-43,315	10,059	1430,934	764,880
-42,300	10,045	1429,416	763,970
-41,286	10,059	1428,220	763,368
-40,271	10,012	1426,852	762,385
-39,257	10,064	1425,656	761,961
-38,242	10,108	1424,582	761,567
-37,227	10,106	1423,499	760,948
-36,213	10,117	1422,048	760,192
-35,198	10,102	1420,957	759,507
-34,184	10,138	1420,086	759,182
-33,169	10,084	1418,518	758,058
-32,154	10,101	1417,813	757,735
-31,140	10,146	1416,424	757,171
-30,125	10,161	1415,349	756,637
-29,111	10,106	1414,302	755,790
-28,096	10,109	1413,019	755,087
-27,082	10,077	1411,641	754,173
-26,067	10,022	1410,836	753,456
-25,052	10,057	1409,853	753,063
-24,038	10,088	1408,701	752,562
-23,023	10,065	1407,870	751,983
-22,009	10,094	1406,753	751,491
-20,994	10,028	1405,964	750,733
-19,979	10,043	1405,027	750,271
-18,965	10,043	1403,787	749,577
-17,950	10,022	1403,122	749,097
-16,936	10,034	1402,248	748,655
-15,921	9,977	1401,268	747,837
-14,906	9,960	1400,370	747,250
-13,892	10,008	1399,310	746,879
-12,877	9,984	1398,533	746,321
-11,863	9,983	1397,766	745,879
-10,848	9,954	1396,741	745,166
-9,833	9,862	1396,031	744,334
-8,819	9,865	1395,044	743,788
-7,804	9,853	1394,133	743,219
-6,790	9,866	1393,217	742,760
-5,775	9,870	1392,231	742,226
-4,760	9,868	1390,923	741,489
-3,746	9,898	1390,133	741,176
-2,731	9,908	1389,261	740,728
-1,717	9,883	1388,469	740,162
-0,702	9,818	1386,774	738,931
0,313	13,877	1299,357	710,913
1,327	30,185	689,819	414,373
2,342	47,358	119,280	78,249
3,356	2,960	16,466	8,408
4,371	9,809	3,514	1,874
5,386	-13,957	1,093	0,496
6,400	319,037	0,291	0,389
7,415	-20,758	-0,171	-0,074
8,429	-142,282	-0,219	-0,015
9,444	186,971	-0,356	-0,375
10,459	47,285	-0,241	-0,158
11,473	-67,675	-0,204	-0,056
12,488	-42,688	-0,204	-0,073
13,502	0,030	-0,356	-0,178
14,517	89,698	-0,283	-0,222
15,531	16,138	-0,343	-0,190
16,546	21,285	-0,330	-0,189
17,561	30,415	-0,314	-0,189
18,575	-51,918	-0,103	-0,033
19,590	800,000	-0,149	-0,364
20,604	-29,978	-0,371	-0,148
21,619	91,503	-0,355	-0,281
22,634	-13,091	-0,316	-0,144
23,648	223,050	-0,336	-0,382
24,663	313,926	-0,289	-0,383
25,677	316,152	-0,318	-0,424
26,692	183,566	-0,271	-0,282
27,707	136,144	-0,345	-0,317
28,721	-9,396	-0,367	-0,172
29,736	-7,578	-0,408	-0,194
30,750	93,983	-0,384	-0,306
31,765	121,950	-0,326	-0,287
32,780	54,906	-0,370	-0,251
33,794	177,336	-0,262	-0,269
34,809	70,399	-0,326	-0,237
35,823	-18,111	-0,383	-0,168
36,838	54,519	-0,335	-0,227
37,853	99,214	-0,401	-0,326
38,867	23,955	-0,455	-0,263
39,882	-13,019	-0,237	-0,108
40,896	9,261	-0,318	-0,168
41,911	327,846	-0,272	-0,369
42,926	1,195	-0,402	-0,202
43,940	232,191	-0,287	-0,331
44,955	58,897	-0,360	-0,248
45,969	14,478	-0,384	-0,210
46,984	335,486	-0,279	-0,381
47,999	-21,052	-0,315	-0,135
49,013	12,890	-0,383	-0,208
50,028	-57,077	-0,439	-0,135
51,042	-78,143	-0,450	-0,108
52,057	173,164	-0,329	-0,334
53,071	175,492	-0,414	-0,422
54,086	157,358	-0,209	-0,204
55,101	24,358	-0,412	-0,238
56,115	81,576	-0,282	-0,214
57,130	-55,710	-0,280	-0,087
58,144	2,715	-0,458	-0,232
59,159	98,891	-0,379	-0,307
60,174	158,403	-0,209	-0,204
61,188	56,969	-0,373	-0,255
62,203	77,043	-0,305	-0,227
63,217	-32,522	-0,243	-0,095
64,232	77,974	-0,326	-0,244
65,247	154,044	-0,363	-0,349
66,261	2,933	-0,475	-0,241
67,276	285,686	-0,249	-0,315
68,290	-21,123	-0,221	-0,095
69,305	-84,773	-0,302	-0,066
70,320	265,264	-0,279	-0,341
71,334	44,114	-0,427	-0,274
72,349	60,155	-0,296	-0,205
73,363	80,534	-0,315	-0,237
74,378	-43,015	-0,372	-0,132
75,393	29,995	-0,396	-0,236
76,407	-48,712	-0,307	-0,103
77,422	58,175	-0,240	-0,164
78,436	21,671	-0,277	-0,158
79,451	-9,030	-0,351	-0,164
80,466	-24,627	-0,319	-0,132
81,480	68,986	-0,289	-0,207
82,495	38,479	-0,234	-0,146
83,509	34,205	-0,247	-0,150
84,524	-28,408	-0,227	-0,091
85,539	155,252	-0,302	-0,291
86,553	-126,974	-0,239	-0,024
87,568	-23,196	-0,366	-0,154
88,582	30,673	-0,342	-0,204
89,597	174,370	-0,221	-0,224
90,611	-42,212	-0,381	-0,136
91,626	46,598	-0,182	-0,118
92,641	17,485	-0,286	-0,159
93,655	434,723	-0,142	-0,216
94,670	109,437	-0,320	-0,268
95,684	99,303	-0,274	-0,222
96,699	190,238	-0,274	-0,288
97,714	-128,802	-0,169	-0,016
98,728	265,737	-0,181	-0,222
99,743	-83,567	-0,317	-0,070
100,757	37,535	-0,288	-0,178
101,772	285,863	-0,181	-0,229
102,787	800,000	-0,161	-0,325
103,801	48,369	-0,270	-0,176
104,816	16,314	-0,274	-0,151
105,830	-44,687	-0,263	-0,091
106,845	219,585	-0,139	-0,155
107,860	74,397	-0,262	-0,192
108,874	26,679	-0,301	-0,176
109,889	92,169	-0,374	-0,295
110,903	144,433	-0,243	-0,227
111,918	156,275	-0,233	-0,225
112,933	-54,210	-0,324	-0,102
113,947	-8,123	-0,291	-0,136
114,962	108,633	-0,254	-0,212
115,976	-1,080	-0,173	-0,085
116,991	94,065	-0,346	-0,274
118,006	3,752	-0,470	-0,239
119,020	-19,052	-0,269	-0,116
120,035	17,251	-0,255	-0,141
121,049	-105,762	-0,251	-0,039
122,064	-25,011	-0,201	-0,083
123,079	-62,244	-0,286	-0,083
124,093	-44,137	-0,221	-0,077
125,108	262,587	-0,157	-0,191
126,122	-26,613	-0,300	-0,122
127,137	21,295	-0,149	-0,084
128,151	91,213	-0,152	-0,119
129,166	358,148	-0,150	-0,209
130,181	-20,692	-0,292	-0,125
131,195	112,977	-0,261	-0,221
132,210	-35,726	-0,301	-0,113
133,224	215,597	-0,182	-0,202
134,239	24,819	-0,234	-0,135
135,254	36,288	-0,161	-0,099
136,268	285,139	-0,140	-0,176
137,283	5,580	-0,304	-0,156
138,297	665,362	-0,126	-0,229
139,312	34,270	-0,320	-0,194
140,327	61,390	-0,189	-0,131
141,341	105,303	-0,156	-0,128
142,356	-65,658	-0,173	-0,048
143,370	58,217	-0,352	-0,240
144,385	134,308	-0,199	-0,180
145,400	25,948	-0,127	-0,073
146,414	63,039	-0,243	-0,169
147,429	24,390	-0,294	-0,169
148,443	-47,445	-0,284	-0,096
149,458	2,012	-0,194	-0,097
150,473	30,284	-0,071	0,042
151,487	-84,090	-0,294	-0,064
152,502	75,824	-0,249	-0,183
153,516	-77,990	-0,254	-0,060
154,531	50,222	-0,255	-0,167
155,546	143,937	-0,216	-0,200
156,560	-60,604	-0,256	-0,075
157,575	-37,569	-0,311	-0,115
158,589	-3,061	-0,252	-0,122
159,604	60,958	-0,240	-0,166
160,619	78,494	-0,274	-0,203
161,633	183,272	-0,248	-0,255
162,648	381,297	-0,116	-0,166
163,662	299,666	-0,219	-0,281
164,677	92,606	-0,259	-0,203
165,692	-0,132	-0,224	-0,110
166,706	58,660	-0,232	-0,158
167,721	-53,275	-0,314	-0,099
168,735	237,637	-0,136	-0,157
169,750	114,559	-0,216	-0,183
170,764	67,936	-0,185	-0,132
171,779	-42,244	-0,143	-0,050
172,794	25,976	-0,121	-0,070
173,808	9,952	-0,230	-0,121
174,823	106,528	-0,287	-0,236
175,837	800,000	-0,075	-0,150
176,852	109,613	-0,173	-0,144
177,867	-58,122	-0,200	-0,060
178,881	-68,091	-0,204	0,055
179,896	599,131	-0,120	-0,207
180,910	175,613	-0,166	-0,167
181,925	48,665	-0,301	-0,196
182,940	225,220	-0,230	-0,258
183,954	-148,709	-0,208	0,012
184,969	-68,888	-0,236	-0,063
185,983	102,149	-0,234	-0,190
186,998	-118,762	-0,091	-0,011
188,013	55,050	-0,174	-0,117
189,027	554,998	-0,118	-0,198
190,042	107,947	-0,188	-0,155
191,056	92,462	-0,214	-0,168
192,071	410,427	-0,137	-0,203
193,086	15,351	-0,189	-0,103
194,100	-64,455	-0,249	-0,070
195,115	-45,448	-0,305	-0,104
196,129	800,000	-0,080	-0,169
197,144	176,196	-0,170	-0,172
198,159	351,331	-0,182	-0,251
199,173	347,772	-0,175	-0,239
200,188	200,090	-0,183	-0,195
201,202	800,000	-0,083	-0,185
202,217	-136,825	-0,212	-0,017
203,232	-95,774	-0,314	-0,058
204,246	199,999	-0,144	-0,153
205,261	3,292	-0,317	-0,160
206,275	800,000	-0,058	-0,163
207,290	800,000	-0,072	-0,165
208,304	39,543	-0,173	-0,107
209,319	47,888	-0,182	-0,118
210,334	-51,575	-0,330	-0,106
211,348	67,713	-0,260	-0,184
212,363	-125,759	-0,206	-0,021
213,377	502,065	-0,108	-0,174
214,392	543,098	-0,089	-0,147
215,407	179,061	-0,076	0,077
216,421	123,985	-0,136	-0,118
217,436	54,746	-0,224	-0,150
218,450	-163,835	-0,313	0,010
219,465	139,688	-0,153	-0,140
220,480	800,000	-0,071	-0,145
221,494	186,825	-0,153	-0,158
222,509	546,369	-0,096	-0,160
223,523	-181,986	-0,123	0,002
224,538	175,722	-0,122	-0,122
225,553	-34,237	-0,217	-0,082
226,567	267,400	-0,110	-0,133
227,582	100,492	-0,144	-0,116
228,596	16,713	-0,248	-0,135
229,611	800,000	-0,033	-0,101
230,626	800,000	-0,069	-0,193
231,640	195,440	-0,194	-0,204
232,655	6,726	-0,213	-0,109
233,669	-39,506	-0,280	-0,101
234,684	-32,076	-0,242	-0,093
235,699	502,258	-0,090	-0,144
236,713	355,150	-0,113	-0,156
237,728	168,476	-0,199	-0,196
238,742	72,771	-0,203	-0,147
239,757	33,863	-0,193	-0,116
240,772	107,823	-0,241	-0,198
241,786	259,980	-0,160	-0,191
242,801	105,477	-0,082	-0,067
243,815	-84,177	-0,289	-0,063
244,830	128,580	-0,117	-0,103
245,844	1,817	-0,260	-0,129
246,859	170,084	-0,163	-0,161
247,874	210,561	-0,152	-0,165
248,888	-51,400	-0,077	-0,025
249,903	-102,397	-0,132	-0,022
250,917	737,953	-0,121	-0,226
251,932	-72,440	-0,133	0,034
252,947	341,013	-0,083	-0,112
253,961	96,361	-0,151	-0,119
254,976	151,382	-0,085	-0,080
255,990	51,364	-0,218	-0,142
257,005	-200,000	-0,078	-0,251
258,020	311,183	-0,106	-0,137
259,034	-52,271	-0,181	-0,057
260,049	-139,913	-0,244	-0,018
261,063	61,223	-0,181	-0,124
262,078	-68,087	-0,222	-0,059
263,093	176,151	-0,149	-0,149
264,107	141,356	-0,195	-0,178
265,122	800,000	-0,079	-0,230
266,136	307,230	-0,042	-0,054
267,151	-40,621	-0,190	-0,068
268,166	800,000	-0,081	-0,189
269,180	800,000	-0,067	-0,128
270,195	250,660	-0,201	-0,235
271,209	-15,380	-0,158	0,069
272,224	-92,918	-0,176	-0,034
273,239	197,517	-0,078	-0,082
274,253	-103,786	-0,178	-0,028
275,268	119,363	-0,182	-0,156
276,282	121,198	-0,146	-0,126
277,297	800,000	-0,161	-0,324
278,312	197,041	-0,265	-0,278
279,326	800,000	0,047	-0,097
280,341	391,976	-0,016	-0,023
281,355	-200,000	-0,039	-0,155
282,370	313,894	-0,165	-0,214
283,384	2,543	-0,218	-0,109
284,399	74,491	-0,265	-0,192
285,414	50,449	-0,122	-0,079
286,428	21,326	-0,182	-0,102
287,443	-200,000	-0,039	-0,150
288,457	89,827	-0,019	-0,015
289,472	-8,156	-0,186	-0,086
290,487	391,779	-0,149	-0,214
291,501	238,946	-0,036	-0,041
292,516	196,764	-0,086	-0,091
293,530	800,000	-0,036	-0,100
294,545	-85,798	-0,225	0,047
295,560	42,687	0,044	0,027
296,574	21,057	-0,234	-0,130
297,589	4,418	-0,222	-0,112
298,603	202,716	-0,189	-0,201
299,618	218,737	-0,123	-0,135
300,633	353,236	-0,042	-0,057
301,647	38,503	-0,140	-0,086
302,662	-121,271	-0,136	0,015
303,676	-35,569	-0,205	-0,076
304,691	-22,759	-0,235	-0,097
305,706	127,551	-0,192	-0,167
306,720	224,340	-0,124	-0,138
307,735	-39,920	-0,086	-0,031
308,749	-80,830	-0,136	0,031
309,764	-60,426	-0,140	0,041
310,779	83,612	-0,202	-0,151
311,793	49,341	-0,171	-0,110
312,808	-17,172	-0,247	-0,107
313,822	-116,311	-0,104	0,013
314,837	103,624	-0,160	-0,129
315,852	31,495	-0,218	-0,128
316,866	108,948	-0,139	-0,114
317,881	-138,166	-0,137	0,010
318,895	800,000	-0,024	-0,051
319,910	69,744	-0,184	-0,130
320,925	-60,838	-0,212	-0,061
321,939	-103,532	-0,036	0,006
322,954	800,000	0,036	-0,081
323,968	-139,379	-0,159	0,012
324,983	379,140	-0,105	0,147
325,997	-29,240	-0,153	-0,060
327,012	-76,954	-0,118	-0,028
328,027	349,383	-0,086	-0,117
329,041	70,299	-0,129	-0,091
330,056	-52,595	-0,164	-0,052
331,070	-87,851	-0,088	-0,018
332,085	-15,811	-0,081	-0,035
333,100	-26,260	-0,164	0,066
334,114	-138,038	-0,078	0,006
335,129	800,000	-0,092	-0,278
336,143	-10,714	-0,174	-0,079
337,158	147,373	-0,138	-0,128
338,173	116,744	-0,135	-0,114
339,187	-141,362	-0,151	-0,010
340,202	-18,635	-0,083	-0,035
341,216	800,000	-0,099	-0,266
342,231	363,648	-0,177	-0,245
343,246	800,000	-0,060	-0,126
344,260	207,087	-0,123	-0,131
345,275	-63,630	-0,092	0,026
346,289	-84,237	-0,042	-0,009
347,304	198,266	-0,076	-0,079
348,319	9,002	-0,201	-0,104
349,333	30,319	-0,119	-0,069
350,348	-140,680	-0,167	-0,012
351,362	91,379	-0,095	-0,073
352,377	86,175	-0,069	-0,052
353,392	-91,315	-0,014	-0,003
354,406	-20,734	-0,041	0,017
355,421	207,994	1310,086	1401,373
356,435	160,025	1470,212	1401,840
