DTS Sentinel unit serial number:	SN410029Multiplexer serial number:	ORYXHardware model number:	OX2-SRSoftware version number:	ORYX F/W v4,00 Oryx Data Collector v3.7.2.0data status	okinstallation	B3 Nyhavnadifferential loss correction	single-endedforward channel	channel 1reverse channel	N/Adate	2023/12/04time	05:27:30forward acquisition time	300,00reverse acquisition time	0,00gamma	499,1914k internal	0,3206k external	0,3206temperature offset calibration	1,0000default loss term (dB/km)	0,3820temperature slope calibration	1,0000multiplexer offset coefficient	1,0000multiplexer slope coefficient	1,0000fibre end	0,00T internal ref (°C)	12,00T ext. ref 1 (°C)	-2,89T ext. ref 2 (°C)	-2,92length (m)	temperature (°C)	Stokes	anti-Stokes-744,400	800,000	-0,115	-0,279
-743,385	690,828	-0,083	0,159
-742,371	189,954	-0,074	-0,080
-741,356	-200,000	-0,033	0,283
-740,342	147,926	-0,255	-0,250
-739,327	-200,000	0,012	0,339
-738,312	-87,819	-0,228	-0,049
-737,298	-200,000	0,008	0,200
-736,283	309,223	-0,136	-0,184
-735,269	800,000	-0,096	0,269
-734,254	179,185	-0,170	-0,180
-733,239	5,821	-0,261	0,140
-732,225	800,000	-0,105	-0,324
-731,210	514,723	0,051	0,087
-730,196	-200,000	-0,029	0,109
-729,181	-200,000	-0,010	0,047
-728,167	-200,000	0,003	-0,067
-727,152	261,415	0,138	-0,173
-726,137	-18,313	-0,111	-0,050
-725,123	-52,080	-0,234	-0,079
-724,108	-60,589	-0,165	-0,051
-723,094	-45,294	-0,038	0,014
-722,079	-154,878	-0,069	0,003
-721,064	263,599	-0,017	0,021
-720,050	102,760	0,140	-0,119
-719,035	800,000	0,017	0,049
-718,021	99,913	-0,080	-0,068
-717,006	69,224	-0,092	-0,069
-715,991	-200,000	-0,038	-0,174
-714,977	-90,579	-0,135	-0,028
-713,962	-200,000	-0,032	-0,151
-712,948	800,000	-0,035	-0,082
-711,933	328,471	0,025	-0,035
-710,918	-200,000	-0,006	0,062
-709,904	617,064	-0,074	-0,136
-708,889	800,000	0,068	-0,173
-707,875	800,000	-0,011	-0,029
-706,860	193,826	-0,026	0,028
-705,845	132,680	-0,082	0,076
-704,831	53,321	0,038	0,026
-703,816	213,265	-0,050	0,058
-702,802	184,574	-0,062	0,067
-701,787	4,118	-0,170	-0,090
-700,772	-200,000	0,028	-0,102
-699,758	-49,966	-0,104	-0,036
-698,743	-94,834	0,140	0,027
-697,729	-60,432	-0,075	0,023
-696,714	126,560	0,081	0,075
-695,699	276,388	-0,058	0,075
-694,685	139,010	-0,059	0,056
-693,670	442,628	0,087	-0,139
-692,656	-200,000	0,033	-0,118
-691,641	-200,000	-0,022	0,090
-690,627	17,962	0,172	0,099
-689,612	-79,914	0,060	0,015
-688,597	-71,951	-0,130	-0,035
-687,583	52,271	-0,086	-0,060
-686,568	75,258	0,091	-0,070
-685,554	800,000	0,041	0,084
-684,539	311,465	-0,037	-0,051
-683,524	-200,000	-0,008	0,055
-682,510	-119,935	0,078	0,010
-681,495	-1,091	-0,105	0,053
-680,481	-200,000	-0,022	-0,089
-679,466	-84,691	-0,092	0,021
-678,451	36,006	0,056	0,036
-677,437	-157,042	0,064	-0,003
-676,422	376,893	0,033	0,049
-675,408	684,640	-0,013	0,025
-674,393	636,989	0,022	0,041
-673,378	-37,216	-0,236	-0,091
-672,364	101,661	-0,038	-0,032
-671,349	-200,000	-0,009	0,050
-670,335	118,273	0,071	0,064
-669,320	-200,000	0,101	0,000
-668,305	-200,000	-0,009	-0,119
-667,291	-48,464	-0,094	-0,033
-666,276	-0,590	-0,138	-0,071
-665,262	-200,000	-0,010	-0,053
-664,247	-135,797	0,047	-0,004
-663,232	-122,475	-0,138	0,016
-662,218	137,440	0,030	0,029
-661,203	312,240	-0,024	0,033
-660,189	-159,206	0,076	-0,003
-659,174	44,692	-0,099	-0,066
-658,159	-61,229	-0,062	-0,019
-657,145	317,921	0,010	-0,014
-656,130	-200,000	0,029	-0,096
-655,116	-200,000	0,043	0,000
-654,101	68,052	0,049	-0,036
-653,086	-48,643	0,093	0,032
-652,072	-200,000	-0,006	0,068
-651,057	107,806	0,095	-0,082
-650,043	800,000	-0,063	-0,180
-649,028	-68,568	-0,092	0,026
-648,014	47,256	0,079	-0,053
-646,999	772,899	-0,028	-0,055
-645,984	3,964	0,089	0,047
-644,970	-200,000	0,012	-0,112
-643,955	73,078	-0,066	-0,050
-642,941	122,979	-0,032	0,029
-641,926	-200,000	0,023	-0,081
-640,911	-200,000	-0,020	-0,086
-639,897	800,000	-0,052	0,127
-638,882	-39,000	0,066	0,025
-637,868	167,208	-0,033	0,034
-636,853	1,889	0,069	-0,036
-635,838	68,746	-0,157	0,117
-634,824	-65,437	-0,153	0,044
-633,809	151,824	0,075	-0,074
-632,795	109,395	-0,031	-0,027
-631,780	575,162	-0,062	-0,110
-630,765	7,347	-0,105	-0,057
-629,751	-96,007	-0,041	-0,008
-628,736	-200,000	0,000	-0,023
-627,722	-0,906	0,019	-0,010
-626,707	-60,359	0,110	-0,034
-625,692	795,178	-0,031	0,063
-624,678	-61,339	-0,169	0,051
-623,663	-58,584	0,078	-0,024
-622,649	98,499	-0,038	0,032
-621,634	-200,000	0,034	0,112
-620,619	149,838	-0,115	-0,113
-619,605	555,514	-0,031	-0,055
-618,590	-200,000	-0,021	0,067
-617,576	-39,016	0,181	0,068
-616,561	3,703	0,049	-0,026
-615,546	-7,408	-0,036	-0,017
-614,532	236,529	-0,068	-0,082
-613,517	-37,244	0,059	0,023
-612,503	660,389	0,082	-0,153
-611,488	334,620	-0,061	0,086
-610,474	-93,174	0,103	-0,021
-609,459	56,067	0,040	-0,028
-608,444	-30,301	-0,155	-0,063
-607,430	-48,773	-0,060	-0,021
-606,415	184,998	-0,070	-0,075
-605,401	18,259	-0,062	0,036
-604,386	88,530	0,037	0,029
-603,371	141,300	-0,080	0,077
-602,357	-6,927	0,093	0,045
-601,342	-44,400	-0,075	-0,027
-600,328	-200,000	0,010	-0,096
-599,313	305,566	-0,018	0,024
-598,298	129,854	0,090	0,083
-597,284	-200,000	0,004	0,080
-596,269	800,000	-0,035	0,086
-595,255	-200,000	-0,024	-0,079
-594,240	-200,000	-0,003	0,011
-593,225	23,872	-0,164	-0,097
-592,211	-82,096	-0,193	0,045
-591,196	800,000	-0,022	-0,062
-590,182	115,076	0,091	-0,080
-589,167	-200,000	0,002	0,046
-588,152	800,000	-0,044	0,106
-587,138	523,306	-0,046	-0,078
-586,123	15,190	-0,142	-0,080
-585,109	172,434	-0,054	-0,056
-584,094	-200,000	-0,037	-0,125
-583,079	-30,804	0,095	-0,039
-582,065	800,000	0,039	0,088
-581,050	85,570	-0,093	0,074
-580,036	-17,758	-0,047	0,021
-579,021	-145,744	-0,146	0,009
-578,006	-91,864	-0,126	0,026
-576,992	-200,000	-0,014	-0,069
-575,977	800,000	-0,039	0,082
-574,963	-71,181	0,031	0,008
-573,948	403,410	0,061	-0,092
-572,934	-200,000	-0,016	-0,058
-571,919	74,975	0,052	0,040
-570,904	-200,000	-0,024	0,110
-569,890	-9,399	-0,072	-0,035
-568,875	208,104	0,052	-0,059
-567,861	43,687	0,070	0,046
-566,846	-63,468	0,086	0,025
-565,831	74,551	-0,074	-0,056
-564,817	-200,000	0,032	-0,112
-563,802	-200,000	-0,011	-0,052
-562,788	800,000	-0,027	-0,067
-561,773	-2,203	0,049	0,025
-560,758	1,093	-0,061	-0,032
-559,744	-200,000	0,027	0,151
-558,729	-4,059	-0,070	0,035
-557,715	10,309	0,046	-0,025
-556,700	125,779	0,123	-0,112
-555,685	402,530	-0,059	-0,090
-554,671	246,164	0,033	-0,040
-553,656	-200,000	0,015	0,156
-552,642	-166,889	0,034	-0,001
-551,627	-104,431	-0,136	-0,022
-550,612	207,642	-0,122	-0,138
-549,598	-5,905	-0,083	-0,041
-548,583	23,947	-0,069	0,041
-547,569	477,624	-0,059	-0,096
-546,554	125,177	-0,049	-0,044
-545,539	800,000	0,043	0,121
-544,525	-5,299	-0,071	0,035
-543,510	800,000	-0,024	-0,075
-542,496	-200,000	-0,019	-0,072
-541,481	-200,000	0,001	-0,101
-540,466	9,984	-0,160	0,087
-539,452	330,538	0,103	0,144
-538,437	30,432	0,093	-0,057
-537,423	64,105	-0,092	0,066
-536,408	188,556	-0,050	-0,054
-535,393	-200,000	-0,004	-0,028
-534,379	153,060	-0,102	-0,100
-533,364	-200,000	0,007	0,054
-532,350	-17,764	-0,068	0,031
-531,335	-77,384	-0,018	0,004
-530,321	-129,787	0,085	0,008
-529,306	203,555	0,060	0,066
-528,291	-124,889	-0,061	0,007
-527,277	-200,000	0,014	-0,112
-526,262	-141,583	-0,226	0,016
-525,248	-200,000	0,019	-0,064
-524,233	-175,195	-0,034	-0,001
-523,218	299,897	0,055	-0,073
-522,204	161,371	-0,052	-0,052
-521,189	93,425	-0,089	-0,072
-520,175	-161,947	-0,042	0,002
-519,160	-45,993	-0,135	0,048
-518,145	120,844	-0,141	-0,126
-517,131	121,180	0,071	0,064
-516,116	-200,000	-0,005	0,124
-515,102	7,870	0,043	0,023
-514,087	-200,000	0,008	-0,047
-513,072	-83,700	-0,169	-0,039
-512,058	-200,000	0,029	-0,159
-511,043	800,000	-0,020	0,051
-510,029	-47,095	0,072	-0,025
-509,014	-79,005	0,093	0,023
-507,999	126,169	0,103	-0,094
-506,985	513,003	0,094	-0,158
-505,970	102,725	-0,026	0,022
-504,956	1,909	-0,076	0,040
-503,941	182,474	-0,050	0,053
-502,926	690,777	-0,054	0,101
-501,912	-200,000	0,016	0,052
-500,897	-7,928	0,051	-0,025
-499,883	61,984	0,064	-0,046
-498,868	-200,000	0,021	-0,190
-497,853	-17,819	0,016	0,007
-496,839	28,524	0,115	-0,070
-495,824	41,172	0,052	-0,034
-494,810	-200,000	0,018	0,080
-493,795	800,000	-0,019	0,037
-492,781	435,954	0,035	-0,055
-491,766	-44,087	-0,085	-0,030
-490,751	-171,193	0,195	-0,005
-489,737	483,766	-0,045	0,074
-488,722	-82,292	0,072	0,017
-487,708	-200,000	0,016	0,136
-486,693	-133,096	0,054	0,005
-485,678	89,568	0,056	-0,045
-484,664	210,726	0,085	0,096
-483,649	-200,000	-0,002	-0,013
-482,635	241,832	0,063	-0,076
-481,620	31,095	0,088	0,054
-480,605	398,094	0,034	0,052
-479,591	180,901	-0,052	0,055
-478,576	800,000	-0,009	-0,027
-477,562	43,028	0,088	-0,057
-476,547	-105,438	-0,090	-0,015
-475,532	30,925	0,083	0,051
-474,518	-120,950	-0,022	-0,003
-473,503	253,855	0,077	0,094
-472,489	-200,000	0,003	-0,029
-471,474	-200,000	-0,004	-0,015
-470,459	-72,692	0,065	-0,017
-469,445	-200,000	-0,016	-0,055
-468,430	800,000	-0,031	0,063
-467,416	167,476	-0,027	0,028
-466,401	255,153	0,092	0,113
-465,386	92,663	0,050	-0,041
-464,372	7,701	-0,090	0,048
-463,357	268,844	0,055	0,069
-462,343	191,956	-0,057	-0,061
-461,328	-200,000	0,005	0,061
-460,313	-193,189	0,073	0,000
-459,299	-129,966	0,120	-0,012
-458,284	396,454	0,029	0,044
-457,270	800,000	-0,032	0,088
-456,255	800,000	-0,031	-0,066
-455,241	-200,000	-0,035	-0,117
-454,226	121,028	-0,079	0,070
-453,211	191,856	-0,029	-0,032
-452,197	313,380	0,081	-0,110
-451,182	800,000	0,032	0,064
-450,168	-200,000	-0,026	0,087
-449,153	-200,000	0,007	-0,074
-448,138	409,200	-0,100	-0,153
-447,124	800,000	-0,033	-0,101
-446,109	800,000	-0,040	-0,089
-445,095	154,653	-0,020	0,020
-444,080	-103,962	-0,074	-0,012
-443,065	-200,000	0,002	0,067
-442,051	-39,440	-0,112	-0,042
-441,036	-200,000	-0,006	-0,101
-440,022	800,000	0,022	-0,058
-439,007	-200,000	0,005	-0,121
-437,992	-1,411	-0,007	0,003
-436,978	-99,134	0,117	-0,021
-435,963	-200,000	0,007	0,093
-434,949	-200,000	0,001	0,159
-433,934	-126,933	-0,086	-0,009
-432,919	113,521	-0,115	-0,100
-431,905	-15,535	-0,115	-0,052
-430,890	43,647	0,080	0,052
-429,876	172,969	0,093	0,097
-428,861	-200,000	-0,021	0,069
-427,846	596,739	-0,047	-0,084
-426,832	102,385	-0,128	-0,107
-425,817	-104,354	0,103	-0,017
-424,803	800,000	-0,053	0,119
-423,788	-122,290	0,080	0,009
-422,773	-7,157	-0,135	-0,066
-421,759	31,560	0,111	0,069
-420,744	138,684	-0,044	0,041
-419,730	-29,382	-0,034	0,014
-418,715	-152,844	0,147	0,007
-417,701	800,000	-0,060	-0,188
-416,686	800,000	-0,002	-0,003
-415,671	-40,952	0,088	0,033
-414,657	67,200	0,054	0,039
-413,642	11,681	-0,131	0,072
-412,628	-133,005	-0,113	-0,010
-411,613	800,000	0,046	-0,146
-410,598	-197,706	-0,227	0,001
-409,584	-73,554	0,119	-0,031
-408,569	-200,000	0,007	0,086
-407,555	57,448	0,141	-0,098
-406,540	-16,144	0,058	0,026
-405,525	357,685	0,058	-0,083
-404,511	79,096	-0,059	-0,045
-403,496	-45,126	-0,097	0,034
-402,482	336,672	0,042	-0,058
-401,467	301,127	0,046	0,060
-400,452	278,814	0,137	0,176
-399,438	-200,000	-0,013	0,058
-398,423	29,591	0,118	-0,072
-397,409	173,020	-0,023	-0,024
-396,394	100,384	-0,082	-0,068
-395,379	4,581	0,059	-0,031
-394,365	111,858	0,035	0,030
-393,350	359,763	0,062	0,090
-392,336	213,222	0,123	0,139
-391,321	-200,000	0,010	-0,130
-390,306	800,000	-0,052	-0,114
-389,292	-122,330	-0,183	-0,021
-388,277	-137,109	0,003	0,000
-387,263	640,448	0,069	0,127
-386,248	-200,000	0,005	-0,047
-385,233	3,757	0,016	-0,009
-384,219	-60,724	-0,076	0,023
-383,204	800,000	-0,023	0,059
-382,190	746,407	0,012	-0,024
-381,175	211,861	0,053	0,060
-380,160	-200,000	-0,001	0,218
-379,146	-200,000	0,013	0,057
-378,131	-71,009	0,105	-0,028
-377,117	-82,652	-0,035	0,008
-376,102	18,635	-0,088	0,050
-375,088	-115,072	-0,112	-0,015
-374,073	-32,133	-0,082	0,032
-373,058	-77,437	0,045	0,011
-372,044	-52,839	0,173	-0,057
-371,029	800,000	-0,021	-0,060
-370,015	147,435	-0,041	0,039
-369,000	266,526	-0,079	-0,099
-367,985	-120,378	0,143	-0,017
-366,971	-148,077	0,113	-0,007
-365,956	231,269	-0,073	0,086
-364,942	-200,000	0,025	0,111
-363,927	568,281	-0,068	0,118
-362,912	14,305	0,047	-0,026
-361,898	302,585	-0,147	-0,195
-360,883	-148,120	-0,063	-0,004
-359,869	92,206	-0,138	0,111
-358,854	8,293	-0,089	0,048
-357,839	85,570	0,199	0,156
-356,825	800,000	0,020	0,056
-355,810	-200,000	-0,019	-0,092
-354,796	-35,437	0,214	-0,083
-353,781	513,033	-0,100	-0,168
-352,766	530,755	0,121	-0,205
-351,752	102,289	0,031	-0,025
-350,737	183,735	0,176	0,186
-349,723	-200,000	0,040	0,230
-348,708	-8,126	-0,038	-0,018
-347,693	263,664	-0,030	-0,037
-346,679	321,617	-0,069	0,094
-345,664	-54,400	0,053	-0,017
-344,650	211,503	-0,062	-0,070
-343,635	-57,712	0,047	0,015
-342,620	-1,706	0,072	-0,036
-341,606	376,963	0,055	0,080
-340,591	-200,000	-0,032	0,125
-339,577	301,605	-0,045	-0,059
-338,562	313,813	0,018	-0,024
-337,548	-161,617	-0,006	-0,000
-336,533	-98,078	0,145	0,026
-335,518	52,425	0,060	-0,041
-334,504	317,905	-0,026	0,036
-333,489	-109,670	0,054	-0,008
-332,475	266,227	-0,085	-0,106
-331,460	-200,000	0,009	-0,103
-330,445	-63,238	-0,082	-0,024
-329,431	-83,247	0,126	-0,029
-328,416	104,806	0,144	0,122
-327,402	-137,891	0,111	0,009
-326,387	-200,000	-0,019	0,064
-325,372	115,442	0,041	0,035
-324,358	4,759	0,069	0,036
-323,343	-66,263	0,062	0,017
-322,329	44,695	-0,073	-0,048
-321,314	-200,000	0,027	0,096
-320,299	800,000	-0,013	-0,032
-319,285	-48,897	-0,224	0,076
-318,270	41,760	0,115	0,074
-317,256	57,126	0,057	-0,040
-316,241	67,890	0,040	0,029
-315,226	-200,000	-0,004	-0,100
-314,212	269,801	0,038	0,047
-313,197	-200,000	-0,009	-0,100
-312,183	80,813	-0,050	0,039
-311,168	23,009	-0,045	0,026
-310,153	-200,000	-0,014	-0,085
-309,139	728,136	0,009	0,018
-308,124	-14,079	-0,132	-0,060
-307,110	-200,000	-0,003	0,050
-306,095	-200,000	0,012	0,087
-305,080	-27,585	0,120	-0,050
-304,066	308,117	0,062	-0,082
-303,051	-200,000	-0,006	-0,086
-302,037	800,000	-0,027	-0,073
-301,022	572,207	0,067	-0,117
-300,008	-200,000	-0,008	0,033
-298,993	-30,468	-0,028	-0,011
-297,978	800,000	-0,065	0,146
-296,964	-139,352	-0,076	0,006
-295,949	-200,000	-0,017	-0,072
-294,935	-200,000	-0,018	-0,080
-293,920	-200,000	-0,006	0,035
-292,905	-19,193	0,133	0,059
-291,891	34,390	-0,099	-0,061
-290,876	266,751	0,029	0,036
-289,862	800,000	-0,020	0,049
-288,847	23,026	0,100	-0,058
-287,832	-5,515	-0,197	0,096
-286,818	800,000	-0,038	-0,083
-285,803	-126,890	0,044	0,005
-284,789	169,150	0,054	0,055
-283,774	800,000	-0,014	0,038
-282,759	324,782	0,040	0,055
-281,745	-128,983	-0,044	0,004
-280,730	-178,981	-0,173	-0,003
-279,716	800,000	0,040	0,080
-278,701	320,255	0,020	0,027
-277,686	11,265	-0,049	0,027
-276,672	517,021	0,118	0,198
-275,657	800,000	-0,060	0,148
-274,643	-200,000	-0,055	-0,182
-273,628	243,443	0,082	-0,098
-272,613	46,446	0,033	-0,022
-271,599	113,831	0,075	0,065
-270,584	-121,173	-0,014	0,002
-269,570	-109,640	0,074	-0,011
-268,555	-52,964	-0,060	-0,020
-267,540	36,322	-0,071	0,045
-266,526	-106,642	0,125	0,020
-265,511	-200,000	-0,094	0,000
-264,497	610,135	0,052	-0,092
-263,482	402,656	-0,066	0,099
-262,467	529,020	0,056	0,095
-261,453	-200,000	0,003	-0,037
-260,438	-22,499	-0,074	0,032
-259,424	99,427	-0,197	-0,163
-258,409	-200,000	0,020	0,116
-257,395	-200,000	0,029	-0,133
-256,380	-200,000	-0,019	0,081
-255,365	665,291	0,062	0,115
-254,351	-200,000	-0,007	-0,050
-253,336	597,752	-0,053	-0,093
-252,322	127,390	-0,127	0,115
-251,307	184,198	0,047	-0,050
-250,292	-39,414	-0,121	0,045
-249,278	50,642	0,146	-0,098
-248,263	-200,000	0,023	0,121
-247,249	-29,348	-0,090	0,036
-246,234	-200,000	0,025	-0,093
-245,219	800,000	-0,008	0,020
-244,205	-200,000	0,033	0,128
-243,190	-200,000	-0,010	-0,058
-242,176	800,000	0,033	0,083
-241,161	10,571	0,124	-0,067
-240,146	-100,137	0,091	-0,016
-239,132	68,667	-0,099	-0,072
-238,117	15,456	0,073	-0,041
-237,103	271,508	-0,063	-0,080
-236,088	66,989	0,091	0,066
-235,073	342,400	0,023	0,032
-234,059	-200,000	-0,005	0,067
-233,044	140,162	0,035	-0,032
-232,030	-23,675	0,096	0,041
-231,015	800,000	-0,035	-0,092
-230,000	-200,000	0,000	-0,042
-228,986	-2,763	0,081	0,040
-227,971	-14,321	0,054	-0,025
-226,957	335,101	0,068	0,094
-225,942	-98,969	-0,083	-0,015
-224,927	319,647	0,020	0,027
-223,913	172,030	-0,071	-0,073
-222,898	513,363	-0,032	-0,054
-221,884	-102,875	-0,093	-0,016
-220,869	81,129	0,071	0,055
-219,855	-58,469	0,085	-0,026
-218,840	800,000	-0,036	0,100
-217,825	-200,000	-0,004	-0,082
-216,811	-24,675	-0,083	-0,035
-215,796	363,713	0,030	0,044
-214,782	-200,000	0,010	-0,055
-213,767	390,847	0,079	0,117
-212,752	780,025	0,032	0,063
-211,738	250,138	-0,062	-0,075
-210,723	-78,312	0,083	0,020
-209,709	70,778	0,049	0,036
-208,694	537,760	-0,086	-0,147
-207,679	800,000	0,050	-0,104
-206,665	-200,000	-0,020	0,143
-205,650	800,000	0,017	0,048
-204,636	313,780	0,097	0,131
-203,621	-200,000	0,007	0,067
-202,606	75,030	-0,085	-0,064
-201,592	800,000	0,059	-0,138
-200,577	-116,783	-0,086	-0,011
-199,563	-200,000	0,025	-0,083
-198,548	800,000	0,047	0,148
-197,533	153,192	0,096	0,093
-196,519	-35,463	0,104	0,040
-195,504	-137,098	-0,099	-0,008
-194,490	-200,000	0,026	-0,129
-193,475	48,392	-0,040	-0,027
-192,460	-200,000	-0,011	0,077
-191,446	-59,985	-0,055	-0,017
-190,431	-75,087	0,081	-0,020
-189,417	199,277	0,066	0,072
-188,402	-200,000	-0,009	0,088
-187,387	-66,932	0,064	-0,018
-186,373	-15,163	-0,092	-0,042
-185,358	800,000	0,011	-0,026
-184,344	800,000	0,029	0,084
-183,329	-200,000	0,005	0,121
-182,315	-200,000	0,003	0,028
-181,300	-200,000	-0,001	-0,026
-180,285	800,000	0,021	0,060
-179,271	149,069	-0,111	0,107
-178,256	-31,287	0,080	0,032
-177,242	-41,187	0,111	-0,041
-176,227	800,000	-0,058	0,137
-175,212	470,762	-0,052	0,083
-174,198	12,874	-0,006	0,003
-173,183	24,145	-0,109	-0,064
-172,169	98,516	-0,156	-0,128
-171,154	800,000	-0,004	-0,011
-170,139	657,279	0,096	0,175
-169,125	79,172	-0,077	-0,059
-168,110	800,000	0,021	0,064
-167,096	-78,674	0,105	-0,025
-166,081	698,725	-0,020	-0,038
-165,066	10,145	0,118	-0,064
-164,052	496,184	0,038	-0,062
-163,037	-145,143	0,014	-0,001
-162,023	124,972	0,172	0,154
-161,008	-25,953	0,011	-0,005
-159,993	97,939	0,081	0,066
-158,979	193,086	-0,084	0,090
-157,964	-101,065	0,060	0,010
-156,950	-200,000	-0,023	-0,081
-155,935	91,295	0,104	-0,083
-154,920	800,000	0,037	0,109
-153,906	-121,949	0,039	0,005
-152,891	-15,452	0,141	-0,064
-151,877	27,977	-0,062	0,037
-150,862	-200,000	0,000	-0,107
-149,847	-200,000	0,004	-0,070
-148,833	273,696	-0,078	-0,098
-147,818	28,260	0,052	0,031
-146,804	-200,000	-0,046	0,158
-145,789	213,491	0,130	0,146
-144,775	-200,000	0,000	-0,015
-143,760	151,180	0,039	-0,038
-142,745	50,791	-0,127	-0,085
-141,731	-200,000	0,025	-0,095
-140,716	-1,274	0,142	0,071
-139,702	-103,465	0,106	0,018
-138,687	800,000	0,019	0,045
-137,672	-51,716	0,128	0,042
-136,658	574,235	-0,043	-0,076
-135,643	94,758	-0,113	-0,091
-134,629	-200,000	0,019	-0,101
-133,614	291,507	0,031	-0,040
-132,599	250,282	0,092	-0,111
-131,585	-200,000	-0,006	-0,106
-130,570	380,568	-0,058	-0,084
-129,556	-62,674	-0,045	0,013
-128,541	-200,000	-0,032	-0,153
-127,526	79,186	-0,064	-0,048
-126,512	-118,704	-0,086	0,011
-125,497	-200,000	0,015	0,053
-124,483	64,268	-0,083	0,059
-123,468	157,076	0,137	-0,135
-122,453	163,431	-0,056	-0,056
-121,439	-154,316	-0,113	-0,005
-120,424	223,475	0,090	-0,103
-119,410	-32,758	-0,044	0,017
-118,395	-80,473	-0,036	0,009
-117,380	800,000	0,038	0,076
-116,366	116,881	-0,059	0,051
-115,351	151,924	0,096	-0,093
-114,337	218,189	-0,058	-0,066
-113,322	42,074	-0,130	-0,083
-112,307	189,072	0,126	-0,133
-111,293	56,880	-0,075	-0,052
-110,278	100,275	0,038	0,031
-109,264	16,287	0,152	-0,085
-108,249	111,981	0,045	0,039
-107,234	-42,960	0,109	-0,039
-106,220	109,846	-0,070	-0,059
-105,205	487,798	0,068	-0,110
-104,191	-91,777	-0,077	-0,015
-103,176	-91,658	-0,113	0,022
-102,162	-98,256	-0,028	0,005
-101,147	-195,562	-0,132	0,001
-100,132	-64,002	-0,131	0,038
-99,118	-25,020	-0,079	0,033
-98,103	88,207	0,081	0,064
-97,089	-46,754	-0,018	-0,006
-96,074	-200,000	0,007	0,071
-95,059	507,201	-0,019	0,031
-94,045	800,000	-0,030	-0,062
-93,030	33,213	-0,057	-0,035
-92,016	-157,471	0,034	-0,001
-91,001	178,402	-0,085	0,088
-89,986	-155,648	-0,077	0,003
-88,972	-50,439	0,027	0,009
-87,957	-137,185	-0,064	-0,005
-86,943	-65,505	0,090	-0,025
-85,928	31,055	-0,124	0,075
-84,913	546,004	-0,059	0,100
-83,899	444,435	0,036	0,056
-82,884	-23,477	-0,066	0,028
-81,870	42,657	-0,103	-0,066
-80,855	-200,000	0,023	-0,104
-79,840	56,601	-0,172	0,118
-78,826	87,326	-0,063	0,049
-77,811	288,558	-0,058	0,075
-76,797	118,713	-0,088	-0,077
-75,782	45,931	0,054	-0,036
-74,767	-7,501	-0,095	0,045
-73,753	-188,053	0,170	0,002
-72,738	100,821	-0,051	0,042
-71,724	100,874	-0,086	-0,071
-70,709	-200,000	0,001	-0,031
-69,694	98,914	0,116	-0,095
-68,680	-200,000	0,001	-0,006
-67,665	-9,319	-0,036	0,017
-66,651	800,000	-0,028	0,085
-65,636	13,332	0,073	0,040
-64,622	-200,000	0,018	0,077
-63,607	-44,168	-0,070	0,025
-62,592	-37,583	0,053	0,020
-61,578	318,885	-0,025	0,034
-60,563	-200,000	0,038	0,149
-59,549	39,738	-0,166	0,105
-58,534	-12,483	-1,860	-0,855
-57,519	346,748	-1,366	-1,906
-56,505	-200,000	-0,502	-4,546
-55,490	421,990	1,013	1,542
-54,476	800,000	4,990	11,028
-53,461	-200,000	20,198	323,899
-52,446	800,000	752,266	2310,515
-51,432	549,010	1662,736	2827,486
-50,417	74,766	1671,457	1242,276
-49,403	19,844	1544,664	877,271
-48,388	13,834	1467,040	803,948
-47,373	18,380	1457,363	820,574
-46,359	16,305	1446,605	804,546
-45,344	12,139	1442,303	782,176
-44,330	12,077	1440,392	780,808
-43,315	12,043	1438,822	779,766
-42,300	12,014	1437,040	778,630
-41,286	12,063	1435,777	778,148
-40,271	11,997	1434,464	777,093
-39,257	12,009	1433,064	776,359
-38,242	12,015	1432,092	775,832
-37,227	12,101	1430,399	775,290
-36,213	12,112	1429,262	774,698
-35,198	12,104	1428,230	774,068
-34,184	12,134	1427,345	773,699
-33,169	12,077	1425,830	772,581
-32,154	12,122	1424,755	772,178
-31,140	12,153	1423,546	771,639
-30,125	12,121	1422,558	770,921
-29,111	12,135	1421,276	770,260
-28,096	12,092	1420,404	769,554
-27,082	12,048	1418,952	768,531
-26,067	12,025	1418,125	767,945
-25,052	12,070	1416,784	767,401
-24,038	12,021	1415,885	766,653
-23,023	12,025	1414,926	766,121
-22,009	12,058	1413,845	765,659
-20,994	12,027	1412,851	764,946
-19,979	11,989	1412,171	764,370
-18,965	11,966	1411,434	763,832
-17,950	12,012	1410,215	763,357
-16,936	11,958	1409,515	762,697
-15,921	11,966	1408,272	762,032
-14,906	11,952	1407,466	761,501
-13,892	11,951	1406,502	760,944
-12,877	11,904	1405,768	760,295
-11,863	11,976	1404,570	759,953
-10,848	11,913	1403,742	759,182
-9,833	11,881	1402,903	758,550
-8,819	11,849	1402,186	757,983
-7,804	11,815	1401,233	757,280
-6,790	11,804	1400,378	756,736
-5,775	11,870	1399,205	756,376
-4,760	11,834	1398,301	755,690
-3,746	11,804	1397,296	754,979
-2,731	11,814	1396,541	754,589
-1,717	11,811	1395,563	754,015
-0,702	11,775	1393,814	752,873
0,313	15,740	1308,661	725,176
1,327	32,059	699,382	425,028
2,342	49,210	121,984	80,865
3,356	-1,994	16,681	8,254
4,371	-1,025	3,357	1,672
5,386	-9,612	0,668	0,313
6,400	800,000	0,130	0,348
7,415	-68,504	-0,138	-0,038
8,429	117,109	-0,332	-0,288
9,444	44,481	-0,336	-0,218
10,459	90,098	-0,377	-0,297
11,473	9,683	-0,314	-0,167
12,488	112,802	-0,241	-0,206
13,502	-33,558	-0,243	-0,094
14,517	199,302	-0,278	-0,302
15,531	132,601	-0,432	-0,393
16,546	14,206	-0,278	-0,153
17,561	6,701	-0,370	-0,194
18,575	-16,941	-0,291	-0,129
19,590	378,123	-0,178	-0,257
20,604	-200,000	-0,201	-0,000
21,619	31,875	-0,348	-0,211
22,634	49,146	-0,404	-0,267
23,648	166,382	-0,347	-0,347
24,663	59,783	-0,435	-0,302
25,677	188,462	-0,308	-0,326
26,692	22,327	-0,420	-0,241
27,707	76,204	-0,340	-0,254
28,721	122,617	-0,395	-0,349
29,736	63,898	-0,474	-0,335
30,750	206,093	-0,309	-0,340
31,765	154,034	-0,339	-0,328
32,780	171,191	-0,283	-0,286
33,794	25,740	-0,196	-0,115
34,809	80,457	-0,396	-0,300
35,823	-6,993	-0,330	-0,157
36,838	70,638	-0,303	-0,221
37,853	66,928	-0,491	-0,351
38,867	83,997	-0,317	-0,244
39,882	29,075	-0,398	-0,237
40,896	71,282	-0,359	-0,262
41,911	103,823	-0,327	-0,270
42,926	145,475	-0,308	-0,290
43,940	77,572	-0,421	-0,315
44,955	80,597	-0,364	-0,276
45,969	175,747	-0,246	-0,252
46,984	169,992	-0,371	-0,373
47,999	202,731	-0,248	-0,270
49,013	-75,516	-0,541	-0,134
50,028	113,447	-0,287	-0,245
51,042	42,923	-0,470	-0,301
52,057	41,554	-0,373	-0,237
53,071	17,125	-0,573	-0,318
54,086	-109,942	-0,334	-0,049
55,101	794,537	-0,179	-0,349
56,115	310,000	-0,224	-0,295
57,130	6,988	-0,333	-0,174
58,144	522,729	-0,226	-0,375
59,159	107,981	-0,334	-0,280
60,174	78,563	-0,418	-0,314
61,188	-123,723	-0,354	-0,039
62,203	214,642	-0,223	-0,248
63,217	151,459	-0,327	-0,313
64,232	50,939	-0,264	-0,176
65,247	23,710	-0,334	-0,193
66,261	107,952	-0,402	-0,337
67,276	157,964	-0,333	-0,324
68,290	283,919	-0,225	-0,285
69,305	79,599	-0,240	-0,181
70,320	107,400	-0,256	-0,214
71,334	111,088	-0,348	-0,294
72,349	410,608	-0,201	-0,300
73,363	41,789	-0,261	-0,166
74,378	-21,837	-0,358	-0,152
75,393	167,772	-0,275	-0,275
76,407	146,084	-0,248	-0,234
77,422	-5,421	-0,213	-0,102
78,436	-155,876	-0,263	0,012
79,451	130,640	-0,156	-0,140
80,466	-41,540	-0,241	-0,087
81,480	-14,996	-0,386	-0,173
82,495	159,355	-0,338	-0,330
83,509	28,393	-0,332	-0,196
84,524	128,258	-0,298	-0,266
85,539	-106,869	-0,239	-0,037
86,553	-2,543	-0,298	-0,146
87,568	13,409	-0,296	-0,161
88,582	5,430	-0,322	-0,166
89,597	158,458	-0,318	-0,309
90,611	-34,804	-0,230	-0,087
91,626	77,467	-0,253	-0,188
92,641	-16,178	-0,278	-0,123
93,655	154,922	-0,293	-0,282
94,670	160,309	-0,227	-0,222
95,684	113,429	-0,301	-0,256
96,699	205,770	-0,236	-0,258
97,714	111,570	-0,214	-0,180
98,728	109,867	-0,290	-0,244
99,743	14,315	-0,223	-0,121
100,757	7,812	-0,326	-0,170
101,772	-76,085	-0,200	-0,049
102,787	364,808	-0,256	-0,362
103,801	332,117	-0,225	-0,305
104,816	-37,913	-0,288	-0,106
105,830	51,042	-0,326	-0,216
106,845	104,394	-0,276	-0,228
107,860	-29,781	-0,246	-0,098
108,874	43,918	-0,202	-0,129
109,889	174,115	-0,226	-0,229
110,903	45,871	-0,202	-0,131
111,918	-18,042	-0,308	-0,135
112,933	-38,086	-0,265	-0,098
113,947	302,138	-0,151	-0,196
114,962	39,240	-0,336	-0,210
115,976	209,543	-0,277	-0,304
116,991	35,020	-0,311	-0,190
118,006	-158,625	-0,259	-0,010
119,020	99,202	-0,275	-0,222
120,035	-27,406	-0,291	-0,118
121,049	-42,098	-0,247	-0,088
122,064	222,295	-0,172	-0,194
123,079	-105,121	-0,285	-0,045
124,093	162,525	-0,277	-0,272
125,108	58,175	-0,361	-0,247
126,122	-115,489	-0,245	0,032
127,137	75,408	-0,307	-0,226
128,151	-53,194	-0,292	-0,093
129,166	-163,078	-0,275	-0,009
130,181	90,650	-0,218	-0,171
131,195	538,185	-0,172	-0,286
132,210	-56,537	-0,334	-0,103
133,224	-2,491	-0,293	-0,143
134,239	51,791	-0,174	-0,116
135,254	17,151	-0,300	-0,166
136,268	43,126	-0,394	-0,251
137,283	106,205	-0,217	-0,179
138,297	69,566	-0,248	-0,178
139,312	79,925	-0,312	-0,234
140,327	167,176	-0,218	-0,216
141,341	207,094	-0,190	-0,207
142,356	-82,797	-0,154	-0,034
143,370	-34,363	-0,357	-0,136
144,385	-43,889	-0,371	-0,129
145,400	-57,281	-0,279	-0,085
146,414	61,779	-0,250	-0,174
147,429	127,856	-0,227	-0,201
148,443	-17,777	-0,292	-0,127
149,458	51,740	-0,202	-0,134
150,473	-0,027	-0,247	-0,122
151,487	-39,290	-0,212	-0,077
152,502	4,789	-0,279	-0,142
153,516	165,125	-0,149	-0,147
154,531	292,962	-0,242	-0,309
155,546	305,193	-0,195	-0,253
156,560	-31,908	-0,258	-0,100
157,575	25,159	-0,277	-0,160
158,589	-97,044	-0,299	-0,054
159,604	265,807	-0,201	-0,245
160,619	322,138	-0,207	-0,275
161,633	19,309	-0,202	-0,113
162,648	171,868	-0,174	-0,174
163,662	25,909	-0,232	-0,134
164,677	259,950	-0,208	-0,251
165,692	311,990	-0,174	-0,228
166,706	128,265	-0,262	-0,233
167,721	-29,885	-0,303	-0,120
168,735	-91,202	-0,313	-0,062
169,750	178,321	-0,161	-0,164
170,764	70,432	-0,268	-0,193
171,779	-105,931	-0,257	-0,040
172,794	370,556	-0,191	-0,270
173,808	237,476	-0,186	-0,215
174,823	81,097	-0,265	-0,199
175,837	121,476	-0,236	-0,205
176,852	121,604	-0,297	-0,257
177,867	130,138	-0,122	-0,108
178,881	-37,494	-0,129	-0,048
179,896	800,000	-0,100	-0,269
180,910	211,125	-0,176	-0,193
181,925	25,789	-0,259	-0,150
182,940	269,379	-0,244	-0,298
183,954	800,000	-0,049	-0,142
184,969	116,913	-0,313	-0,267
185,983	-175,489	-0,274	0,005
186,998	32,056	-0,159	-0,095
188,013	187,578	-0,187	-0,194
189,027	83,421	-0,170	-0,129
190,042	-23,013	-0,146	-0,061
191,056	51,357	-0,311	-0,205
192,071	278,079	-0,279	-0,345
193,086	336,836	-0,168	-0,227
194,100	-93,607	-0,071	-0,014
195,115	68,437	-0,210	-0,149
196,129	21,690	-0,169	-0,095
197,144	220,180	-0,188	-0,210
198,159	292,566	-0,177	-0,225
199,173	298,176	-0,101	-0,129
200,188	240,981	-0,132	-0,153
201,202	294,671	-0,108	-0,138
202,217	800,000	-0,072	-0,186
203,232	33,481	-0,211	-0,127
204,246	56,038	-0,210	-0,141
205,261	103,893	-0,233	-0,190
206,275	245,743	-0,117	-0,137
207,290	-172,673	-0,127	0,003
208,304	-95,493	-0,149	-0,028
209,319	325,913	-0,145	-0,193
210,334	137,834	-0,187	-0,170
211,348	233,406	-0,250	-0,286
212,363	-60,647	-0,313	-0,091
213,377	711,994	-0,113	-0,209
214,392	264,438	-0,172	-0,208
215,407	-27,413	-0,311	-0,125
216,421	29,668	-0,153	-0,090
217,436	59,790	-0,121	-0,082
218,450	67,457	-0,231	-0,163
219,465	501,174	-0,101	-0,163
220,480	43,745	-0,253	-0,160
221,494	33,537	-0,211	-0,127
222,509	466,623	-0,135	-0,210
223,523	4,107	-0,239	-0,121
224,538	232,698	-0,120	-0,137
225,553	-60,211	-0,227	-0,067
226,567	186,834	-0,175	-0,181
227,582	17,973	-0,156	-0,086
228,596	224,400	-0,193	-0,217
229,611	-6,369	-0,254	-0,120
230,626	206,713	-0,151	-0,164
231,640	234,629	-0,138	-0,158
232,655	268,556	-0,206	-0,250
233,669	-4,824	-0,275	-0,131
234,684	-41,155	-0,291	-0,103
235,699	502,090	-0,079	-0,127
236,713	-118,693	-0,289	0,035
237,728	-96,115	-0,145	-0,026
238,742	-99,202	-0,183	-0,032
239,757	72,527	-0,198	-0,143
240,772	800,000	-0,130	-0,254
241,786	54,296	-0,237	-0,157
242,801	348,099	-0,125	-0,171
243,815	36,869	-0,151	-0,092
244,830	410,759	-0,126	-0,186
245,844	51,028	-0,194	-0,127
246,859	2,955	-0,218	-0,109
247,874	-71,362	-0,187	-0,048
248,888	180,901	-0,180	-0,183
249,903	800,000	-0,123	-0,268
250,917	131,695	-0,189	-0,168
251,932	305,872	-0,201	-0,260
252,947	432,861	-0,211	-0,318
253,961	551,630	-0,156	-0,260
254,976	79,552	-0,079	0,058
255,990	57,056	-0,245	-0,165
257,005	304,008	-0,097	-0,124
258,020	31,009	-0,235	-0,139
259,034	131,972	-0,175	-0,155
260,049	-159,869	-0,159	-0,006
261,063	-200,000	-0,078	-0,270
262,078	800,000	-0,153	-0,325
263,093	-108,009	-0,309	-0,046
264,107	387,639	-0,110	-0,158
265,122	99,751	-0,106	-0,085
266,136	70,264	-0,146	-0,104
267,151	118,111	-0,181	-0,154
268,166	449,659	-0,143	-0,218
269,180	272,788	-0,209	-0,255
270,195	100,370	-0,154	-0,124
271,209	-79,371	-0,283	-0,066
272,224	437,732	-0,154	-0,233
273,239	-7,742	-0,140	-0,065
274,253	62,660	-0,223	0,153
275,268	255,658	-0,107	-0,127
276,282	-6,863	-0,228	-0,107
277,297	79,301	-0,288	-0,213
278,312	173,562	-0,200	-0,199
279,326	-162,221	-0,223	0,008
280,341	132,035	-0,119	-0,106
281,355	-66,468	-0,141	-0,038
282,370	-117,937	-0,309	-0,038
283,384	74,054	-0,127	-0,092
284,399	106,808	-0,197	-0,161
285,414	357,326	-0,188	-0,259
286,428	-96,179	-0,168	-0,030
287,443	-34,960	-0,176	-0,066
288,457	-81,909	-0,253	-0,056
289,472	301,053	-0,082	-0,105
290,487	800,000	-0,084	-0,217
291,501	143,038	-0,100	-0,092
292,516	-64,446	-0,155	-0,043
293,530	-39,034	-0,213	-0,077
294,545	214,103	-0,218	-0,237
295,560	-13,902	-0,091	0,040
296,574	-125,473	-0,218	-0,023
297,589	-70,768	-0,219	-0,056
298,603	217,147	-0,118	-0,130
299,618	-28,156	-0,190	-0,075
300,633	-46,502	-0,241	-0,081
301,647	44,250	-0,237	-0,149
302,662	-126,186	-0,179	0,018
303,676	56,019	-0,193	-0,128
304,691	-39,296	-0,216	-0,077
305,706	-200,000	-0,048	-0,208
306,720	57,115	-0,300	-0,201
307,735	-178,523	-0,188	-0,003
308,749	-55,007	-0,176	0,054
309,764	-11,450	-0,190	0,086
310,779	-27,609	-0,112	-0,045
311,793	479,090	-0,081	-0,127
312,808	73,647	-0,283	-0,204
313,822	165,625	-0,240	-0,234
314,837	800,000	-0,068	-0,167
315,852	-200,000	-0,058	-0,239
316,866	227,137	-0,160	-0,179
317,881	112,364	-0,177	-0,147
318,895	192,159	-0,147	-0,152
319,910	-188,820	-0,081	-0,001
320,925	24,807	-0,174	-0,099
321,939	800,000	-0,012	-0,025
322,954	-116,113	-0,070	0,009
323,968	-42,386	-0,081	0,028
324,983	-5,264	-0,045	0,021
325,997	133,707	-0,111	-0,099
327,012	-23,240	-0,167	-0,069
328,027	401,989	-0,171	-0,248
329,041	94,534	-0,106	-0,082
330,056	-200,000	-0,030	-0,168
331,070	207,227	-0,082	-0,088
332,085	-200,000	-0,011	-0,140
333,100	-200,000	-0,058	-0,209
334,114	194,162	-0,145	-0,151
335,129	-162,764	-0,161	0,005
336,143	-143,470	-0,104	0,007
337,158	148,979	-0,155	-0,144
338,173	-23,515	-0,085	-0,035
339,187	92,059	0,023	-0,018
340,202	360,885	-0,128	-0,176
341,216	282,895	-0,213	-0,263
342,231	-200,000	-0,043	-0,176
343,246	115,067	-0,161	-0,134
344,260	800,000	-0,058	-0,127
345,275	343,597	-0,060	-0,081
346,289	346,276	-0,023	-0,031
347,304	509,303	-0,109	-0,175
348,319	501,164	-0,083	-0,131
349,333	186,352	-0,206	-0,210
350,348	87,866	-0,212	-0,161
351,362	-110,510	-0,103	-0,014
352,377	-200,000	-0,009	0,078
353,392	800,000	-0,056	-0,167
354,406	-55,297	-0,185	-0,056
355,421	208,579	1316,321	1411,955
356,435	160,492	1477,242	1412,432
