DTS Sentinel unit serial number:	SN410029Multiplexer serial number:	ORYXHardware model number:	OX2-SRSoftware version number:	ORYX F/W v4,00 Oryx Data Collector v3.7.2.0data status	okinstallation	B3 Nyhavnadifferential loss correction	single-endedforward channel	channel 1reverse channel	N/Adate	2023/12/05time	00:37:30forward acquisition time	300,00reverse acquisition time	0,00gamma	499,1914k internal	0,3200k external	0,3200temperature offset calibration	1,0000default loss term (dB/km)	0,3820temperature slope calibration	1,0000multiplexer offset coefficient	1,0000multiplexer slope coefficient	1,0000fibre end	0,00T internal ref (°C)	13,84T ext. ref 1 (°C)	-1,21T ext. ref 2 (°C)	-1,24length (m)	temperature (°C)	Stokes	anti-Stokes-744,400	19,666	-0,226	-0,132
-743,385	450,819	0,167	0,269
-742,371	534,751	-0,151	-0,261
-741,356	-200,000	0,039	0,278
-740,342	66,440	-0,113	-0,084
-739,327	-200,000	0,080	0,356
-738,312	99,102	-0,357	-0,300
-737,298	-200,000	-0,001	0,307
-736,283	800,000	-0,145	-0,315
-735,269	-200,000	0,055	0,346
-734,254	361,368	-0,187	-0,273
-733,239	164,972	-0,176	0,181
-732,225	419,788	-0,076	-0,119
-731,210	309,288	0,051	0,069
-730,196	-61,251	-0,142	0,043
-729,181	-200,000	0,023	-0,159
-728,167	79,142	-0,042	0,033
-727,152	165,886	-0,051	0,052
-726,137	162,319	-0,046	0,047
-725,123	-92,792	-0,115	0,023
-724,108	-200,000	-0,006	-0,088
-723,094	7,290	-0,157	-0,085
-722,079	111,897	-0,160	-0,140
-721,064	324,944	0,120	0,168
-720,050	-200,000	0,045	0,147
-719,035	742,555	0,085	0,167
-718,021	-28,151	-0,072	-0,030
-717,006	-200,000	0,008	-0,040
-715,991	-200,000	0,002	0,022
-714,977	-97,087	-0,109	0,020
-713,962	-121,730	-0,031	-0,004
-712,948	164,214	-0,089	-0,091
-711,933	-200,000	0,017	0,067
-710,918	-117,400	-0,047	-0,006
-709,904	300,166	-0,120	-0,161
-708,889	-200,000	-0,013	0,043
-707,875	800,000	-0,028	-0,090
-706,860	800,000	-0,077	-0,229
-705,845	176,129	-0,084	0,089
-704,831	-103,059	0,036	0,006
-703,816	41,522	-0,008	-0,005
-702,802	135,438	-0,023	-0,022
-701,787	-58,578	-0,006	-0,002
-700,772	193,029	0,048	-0,053
-699,758	-166,719	0,111	-0,003
-698,743	-137,494	0,052	-0,004
-697,729	-47,497	0,086	-0,030
-696,714	77,537	-0,089	0,069
-695,699	62,491	0,074	-0,053
-694,685	-14,944	0,066	-0,031
-693,670	-45,536	-0,127	-0,045
-692,656	-200,000	-0,023	-0,211
-691,641	800,000	-0,010	0,021
-690,627	-18,179	-0,033	0,015
-689,612	380,971	-0,066	-0,098
-688,597	-84,396	-0,115	-0,026
-687,583	-88,880	-0,068	0,014
-686,568	248,441	0,066	-0,081
-685,554	-200,000	-0,011	-0,060
-684,539	91,959	-0,102	0,083
-683,524	-200,000	0,038	0,129
-682,510	14,676	-0,099	-0,056
-681,495	-200,000	0,018	0,064
-680,481	687,837	-0,039	-0,075
-679,466	-140,248	-0,072	0,005
-678,451	-114,685	0,081	-0,011
-677,437	60,255	0,072	-0,052
-676,422	-73,543	-0,007	-0,002
-675,408	-32,975	0,099	-0,040
-674,393	-200,000	-0,010	-0,119
-673,378	-200,000	-0,021	-0,180
-672,364	486,886	-0,024	-0,039
-671,349	67,679	0,117	-0,086
-670,335	-200,000	0,013	0,053
-669,320	-119,297	-0,050	-0,006
-668,305	-2,661	0,033	-0,017
-667,291	-98,851	0,135	-0,025
-666,276	-101,364	-0,124	-0,022
-665,262	800,000	-0,055	-0,157
-664,247	-49,017	0,046	-0,016
-663,232	448,509	-0,065	0,104
-662,218	642,234	0,047	0,086
-661,203	-200,000	0,008	0,049
-660,189	-27,443	-0,071	-0,030
-659,174	-58,845	-0,103	0,032
-658,159	92,206	-0,072	-0,058
-657,145	-200,000	0,004	0,137
-656,130	383,970	-0,006	0,009
-655,116	-88,730	0,053	0,011
-654,101	-91,756	-0,117	-0,024
-653,086	29,274	0,060	-0,037
-652,072	-19,638	-0,149	0,066
-651,057	-200,000	-0,006	0,166
-650,043	-156,412	-0,096	-0,004
-649,028	-83,023	-0,055	0,013
-648,014	800,000	0,016	0,047
-646,999	200,395	0,051	-0,057
-645,984	800,000	-0,022	0,058
-644,970	203,872	-0,093	-0,104
-643,955	-58,686	-0,116	-0,036
-642,941	-200,000	0,002	-0,084
-641,926	-162,692	-0,061	-0,002
-640,911	-87,368	0,046	-0,010
-639,897	800,000	0,053	0,111
-638,882	128,046	-0,089	0,082
-637,868	175,447	-0,021	0,022
-636,853	439,553	-0,060	-0,095
-635,838	-6,425	-0,049	-0,024
-634,824	27,632	-0,077	0,047
-633,809	312,753	0,053	0,072
-632,795	-200,000	0,010	-0,110
-631,780	-200,000	0,035	-0,131
-630,765	-200,000	-0,013	0,088
-629,751	-19,595	0,078	0,035
-628,736	81,045	-0,107	0,084
-627,722	180,761	0,075	0,079
-626,707	-167,394	-0,069	-0,002
-625,692	-200,000	0,014	-0,061
-624,678	-127,733	0,043	0,004
-623,663	48,026	0,054	-0,036
-622,649	-54,552	0,038	0,012
-621,634	74,808	-0,081	0,061
-620,619	-20,660	-0,032	-0,014
-619,605	384,693	-0,029	-0,043
-618,590	800,000	0,033	0,073
-617,576	122,146	0,051	0,046
-616,561	349,094	-0,070	0,101
-615,546	47,355	-0,066	-0,045
-614,532	233,618	0,046	0,055
-613,517	-200,000	0,004	0,014
-612,503	326,441	0,020	-0,028
-611,488	-64,101	0,142	0,042
-610,474	15,701	0,124	-0,070
-609,459	-155,567	0,135	0,006
-608,444	-200,000	0,047	-0,213
-607,430	-108,935	-0,130	-0,020
-606,415	-97,234	-0,187	0,035
-605,401	-83,124	-0,163	-0,038
-604,386	278,158	0,093	0,120
-603,371	-97,523	-0,143	0,027
-602,357	-200,000	0,013	0,117
-601,342	-200,000	-0,047	-0,160
-600,328	-200,000	-0,037	0,124
-599,313	18,220	-0,105	-0,061
-598,298	-157,101	-0,081	-0,003
-597,284	-200,000	0,014	0,096
-596,269	-200,000	0,004	0,065
-595,255	-200,000	0,028	-0,102
-594,240	-42,930	-0,139	0,051
-593,225	-200,000	-0,004	0,058
-592,211	-69,868	0,037	0,010
-591,196	316,311	0,061	0,083
-590,182	-80,423	0,086	-0,021
-589,167	281,615	0,081	0,105
-588,152	52,644	-0,080	-0,055
-587,138	800,000	-0,023	-0,055
-586,123	-200,000	0,009	0,085
-585,109	241,816	0,036	-0,043
-584,094	-200,000	-0,006	0,116
-583,079	800,000	0,010	-0,032
-582,065	204,520	-0,037	-0,042
-581,050	383,240	-0,126	-0,188
-580,036	151,958	0,105	0,103
-579,021	442,254	-0,080	-0,126
-578,006	-179,070	-0,182	0,003
-576,992	-200,000	-0,009	0,135
-575,977	383,734	0,081	0,121
-574,963	786,133	0,063	-0,126
-573,948	-200,000	0,000	-0,069
-572,934	-111,648	0,013	0,002
-571,919	100,988	-0,137	-0,115
-570,904	9,714	0,068	-0,037
-569,890	255,753	0,059	0,074
-568,875	-41,866	-0,085	-0,031
-567,861	-200,000	0,075	0,000
-566,846	-158,690	0,123	0,005
-565,831	-130,044	0,024	-0,002
-564,817	800,000	0,016	-0,035
-563,802	-53,436	-0,131	0,043
-562,788	-38,438	0,095	0,036
-561,773	62,219	0,112	-0,081
-560,758	-200,000	0,004	0,107
-559,744	-64,420	-0,042	0,012
-558,729	-200,000	-0,002	-0,092
-557,715	321,327	-0,049	0,067
-556,700	-57,101	-0,111	-0,035
-555,685	-200,000	-0,011	-0,065
-554,671	-38,829	0,121	0,046
-553,656	-200,000	-0,004	-0,099
-552,642	679,034	-0,077	-0,145
-551,627	-200,000	0,010	-0,067
-550,612	319,230	-0,062	0,085
-549,598	-9,588	-0,098	0,047
-548,583	710,426	-0,063	0,121
-547,569	211,320	0,065	0,074
-546,554	-40,428	0,126	0,047
-545,539	-161,659	0,106	0,004
-544,525	60,228	0,062	-0,044
-543,510	-113,751	0,179	-0,025
-542,496	243,210	-0,063	-0,076
-541,481	175,695	0,003	-0,003
-540,466	-200,000	0,017	-0,054
-539,452	598,748	0,012	0,021
-538,437	71,379	0,073	0,054
-537,423	-200,000	0,028	-0,111
-536,408	-129,823	0,107	0,011
-535,393	-200,000	0,008	0,044
-534,379	557,545	0,038	0,066
-533,364	-107,934	-0,055	0,009
-532,350	800,000	-0,007	0,019
-531,335	800,000	0,012	0,030
-530,321	-40,000	0,199	-0,075
-529,306	292,242	0,055	-0,073
-528,291	-200,000	0,002	0,080
-527,277	-200,000	0,006	-0,187
-526,262	-200,000	0,029	-0,190
-525,248	-28,747	-0,111	0,046
-524,233	10,229	0,055	-0,030
-523,218	98,495	0,132	-0,109
-522,204	800,000	-0,032	-0,085
-521,189	106,384	-0,048	-0,041
-520,175	34,261	-0,071	-0,045
-519,160	-200,000	0,009	0,058
-518,145	-112,381	0,018	0,003
-517,131	3,831	0,148	-0,078
-516,116	378,771	-0,062	0,091
-515,102	-104,871	-0,034	-0,006
-514,087	-34,432	-0,086	-0,034
-513,072	-51,661	-0,111	0,037
-512,058	95,316	0,047	-0,039
-511,043	606,323	-0,019	0,035
-510,029	-108,939	0,164	-0,025
-509,014	37,946	0,056	-0,036
-507,999	-101,341	-0,044	-0,008
-506,985	55,674	0,040	-0,028
-505,970	650,550	-0,079	0,146
-504,956	205,804	0,025	-0,028
-503,941	15,510	0,077	-0,043
-502,926	-160,571	-0,021	-0,001
-501,912	-200,000	0,012	-0,071
-500,897	-200,000	-0,000	0,017
-499,883	112,046	0,046	0,040
-498,868	24,296	-0,109	0,065
-497,853	-115,666	-0,107	-0,014
-496,839	-200,000	-0,010	-0,047
-495,824	-57,166	0,087	0,028
-494,810	-200,000	-0,019	-0,117
-493,795	-162,164	0,047	0,002
-492,781	443,716	0,083	0,132
-491,766	-10,189	-0,122	-0,058
-490,751	800,000	0,041	-0,087
-489,737	314,887	-0,100	0,136
-488,722	-61,854	0,090	0,027
-487,708	-183,292	0,076	-0,001
-486,693	143,979	0,111	0,107
-485,678	-126,074	0,009	0,001
-484,664	142,386	0,026	-0,025
-483,649	330,470	-0,011	0,015
-482,635	-200,000	-0,044	-0,229
-481,620	-200,000	-0,028	0,113
-480,605	-95,639	0,095	0,018
-479,591	-200,000	-0,007	-0,055
-478,576	154,552	-0,050	-0,049
-477,562	800,000	-0,036	-0,087
-476,547	237,983	0,065	0,078
-475,532	-139,789	-0,064	0,005
-474,518	459,864	-0,107	0,172
-473,503	49,717	-0,039	0,026
-472,489	-200,000	-0,009	-0,130
-471,474	70,049	-0,050	-0,037
-470,459	-200,000	-0,010	0,135
-469,445	-74,522	0,097	0,025
-468,430	7,690	-0,095	-0,051
-467,416	578,975	0,044	0,078
-466,401	-68,221	0,053	0,015
-465,386	367,905	-0,084	-0,123
-464,372	-140,054	0,121	-0,009
-463,357	-81,082	-0,066	-0,016
-462,343	-146,366	-0,035	-0,002
-461,328	800,000	0,017	0,050
-460,313	-73,402	-0,119	0,031
-459,299	59,253	0,119	-0,084
-458,284	-200,000	0,008	0,030
-457,270	-200,000	-0,009	0,138
-456,255	775,015	0,021	-0,042
-455,241	800,000	-0,045	-0,115
-454,226	800,000	0,075	-0,180
-453,211	61,579	0,061	0,044
-452,197	292,926	0,055	-0,073
-451,182	32,923	-0,034	-0,021
-450,168	-57,737	-0,043	-0,013
-449,153	800,000	0,070	0,143
-448,138	-100,357	-0,039	-0,007
-447,124	12,088	-0,167	0,092
-446,109	800,000	-0,055	0,158
-445,095	-200,000	0,033	0,113
-444,080	-67,296	0,032	0,009
-443,065	-200,000	-0,003	-0,065
-442,051	-40,427	-0,080	-0,030
-441,036	528,940	-0,102	-0,174
-440,022	28,315	0,100	-0,061
-439,007	270,484	0,022	0,028
-437,992	-200,000	-0,019	0,095
-436,978	206,777	0,069	-0,078
-435,963	-158,491	-0,064	-0,003
-434,949	133,666	-0,037	0,035
-433,934	-77,050	-0,109	0,027
-432,919	32,525	-0,070	0,044
-431,905	-200,000	-0,025	-0,099
-430,890	-65,474	0,073	0,021
-429,876	489,343	0,025	0,041
-428,861	-86,285	0,024	-0,005
-427,846	206,814	0,012	0,014
-426,832	-119,369	-0,020	-0,002
-425,817	-200,000	-0,002	0,008
-424,803	141,974	0,035	0,034
-423,788	133,558	-0,089	-0,083
-422,773	158,968	0,180	0,180
-421,759	800,000	-0,014	0,040
-420,744	754,281	0,028	-0,055
-419,730	-200,000	0,006	-0,040
-418,715	62,300	-0,131	0,093
-417,701	639,854	-0,024	-0,045
-416,686	-200,000	0,017	-0,062
-415,671	-67,142	0,145	-0,041
-414,657	-200,000	-0,027	-0,169
-413,642	192,100	-0,062	-0,067
-412,628	-121,069	0,040	0,005
-411,613	226,796	-0,068	-0,079
-410,598	-200,000	0,010	0,073
-409,584	-200,000	-0,005	-0,081
-408,569	-200,000	-0,034	-0,154
-407,555	20,495	-0,139	-0,080
-406,540	800,000	0,042	0,086
-405,525	11,132	-0,068	-0,037
-404,511	-15,998	0,062	-0,028
-403,496	800,000	0,028	-0,089
-402,482	-111,969	0,080	-0,011
-401,467	591,262	0,031	0,056
-400,452	778,631	0,088	0,173
-399,438	-119,048	0,076	0,009
-398,423	153,020	-0,047	-0,046
-397,409	-200,000	0,003	-0,037
-396,394	-162,606	0,104	0,004
-395,379	800,000	-0,015	-0,036
-394,365	800,000	0,048	0,112
-393,350	38,996	0,141	0,090
-392,336	314,506	0,027	0,037
-391,321	477,393	-0,092	-0,150
-390,306	154,151	-0,034	-0,033
-389,292	480,285	-0,019	-0,031
-388,277	289,263	0,023	-0,030
-387,263	460,011	0,097	0,155
-386,248	-30,148	0,073	0,030
-385,233	398,202	-0,029	-0,044
-384,219	-200,000	0,001	-0,077
-383,204	-44,931	0,065	-0,023
-382,190	-200,000	0,001	0,011
-381,175	-124,859	0,053	-0,006
-380,160	-200,000	0,180	0,000
-379,146	-200,000	-0,007	0,129
-378,131	206,787	0,095	0,106
-377,117	-200,000	0,024	0,107
-376,102	311,698	0,046	0,062
-375,088	-64,096	-0,020	0,006
-374,073	65,954	-0,068	-0,050
-373,058	-51,371	0,070	0,023
-372,044	-0,538	-0,010	0,005
-371,029	-200,000	-0,014	0,063
-370,015	-48,763	0,079	0,027
-369,000	-78,291	-0,021	0,005
-367,985	-200,000	-0,036	-0,191
-366,971	-90,354	-0,154	-0,032
-365,956	-33,257	-0,056	0,022
-364,942	-200,000	0,005	-0,105
-363,927	800,000	-0,033	0,093
-362,912	76,945	-0,103	0,079
-361,898	389,517	0,036	-0,054
-360,883	-145,647	-0,131	0,008
-359,869	800,000	0,034	-0,095
-358,854	-200,000	0,031	0,112
-357,839	353,944	0,068	0,097
-356,825	75,728	-0,082	-0,062
-355,810	-200,000	0,007	0,025
-354,796	297,474	0,064	0,085
-353,781	-75,661	0,103	-0,026
-352,766	-84,563	-0,041	0,009
-351,752	-200,000	0,017	0,083
-350,737	-200,000	0,016	0,094
-349,723	165,322	-0,123	0,125
-348,708	-138,727	0,203	-0,016
-347,693	-200,000	-0,012	-0,205
-346,679	800,000	-0,046	-0,127
-345,664	-20,775	-0,121	-0,053
-344,650	-116,518	-0,093	-0,012
-343,635	800,000	0,013	0,035
-342,620	147,336	0,089	0,086
-341,606	37,819	-0,086	0,055
-340,591	561,250	0,047	0,082
-339,577	28,900	-0,088	0,053
-338,562	-76,703	-0,024	-0,006
-337,548	394,082	-0,024	-0,037
-336,533	-168,463	-0,066	-0,002
-335,518	88,196	-0,083	0,066
-334,504	56,689	0,089	0,062
-333,489	127,665	0,085	-0,077
-332,475	-192,952	-0,063	0,000
-331,460	-4,777	0,067	0,033
-330,445	800,000	0,027	-0,056
-329,431	-77,820	0,089	0,022
-328,416	-15,140	0,127	0,058
-327,402	19,561	-0,028	-0,016
-326,387	-70,193	0,041	-0,011
-325,372	180,998	-0,021	-0,022
-324,358	133,238	-0,019	0,018
-323,343	50,238	-0,050	0,033
-322,329	38,469	-0,044	-0,028
-321,314	-144,900	0,011	0,001
-320,299	-200,000	-0,011	-0,078
-319,285	-60,128	0,040	-0,012
-318,270	-200,000	0,017	-0,138
-317,256	-200,000	-0,007	-0,069
-316,241	241,872	0,078	0,094
-315,226	325,393	0,015	0,021
-314,212	-200,000	0,022	0,139
-313,197	15,938	0,050	0,028
-312,183	-176,106	-0,184	-0,003
-311,168	-200,000	0,002	0,091
-310,153	-53,090	0,153	-0,050
-309,139	-63,776	-0,051	-0,015
-308,124	-50,819	0,169	0,056
-307,110	800,000	-0,065	0,157
-306,095	553,205	0,058	0,099
-305,080	449,798	0,068	0,108
-304,066	87,948	-0,112	0,089
-303,051	15,810	0,090	0,051
-302,037	57,603	-0,117	-0,082
-301,022	800,000	-0,030	-0,081
-300,008	-200,000	0,051	0,184
-298,993	47,563	0,158	0,105
-297,978	-200,000	0,004	-0,044
-296,964	-200,000	0,002	-0,084
-295,949	55,875	0,104	0,072
-294,935	1,424	0,064	-0,033
-293,920	490,987	0,057	-0,093
-292,905	-37,698	-0,214	0,081
-291,891	381,460	-0,043	0,063
-290,876	-200,000	-0,018	0,063
-289,862	1,017	-0,047	-0,024
-288,847	15,936	-0,095	-0,053
-287,832	-200,000	0,003	-0,012
-286,818	-200,000	-0,006	0,049
-285,803	-53,334	0,173	0,056
-284,789	-71,286	0,179	-0,048
-283,774	-200,000	0,001	0,046
-282,759	-131,986	-0,129	-0,012
-281,745	176,155	-0,038	0,039
-280,730	-200,000	0,003	0,041
-279,716	196,167	-0,055	-0,060
-278,701	-96,163	-0,131	-0,025
-277,686	-81,170	0,129	-0,030
-276,672	-131,436	0,068	0,006
-275,657	800,000	-0,024	0,061
-274,643	-200,000	-0,005	0,055
-273,628	800,000	0,039	-0,107
-272,613	-200,000	0,006	-0,067
-271,599	326,013	0,099	0,135
-270,584	800,000	-0,010	0,026
-269,570	39,526	-0,033	0,021
-268,555	-200,000	-0,025	-0,116
-267,540	-200,000	0,002	-0,135
-266,526	97,662	-0,078	0,064
-265,511	-16,673	-0,055	0,025
-264,497	98,708	0,063	0,052
-263,482	200,296	0,044	0,048
-262,467	-200,000	-0,043	0,169
-261,453	183,087	0,062	0,065
-260,438	-82,866	-0,138	0,032
-259,424	-164,639	-0,163	0,005
-258,409	107,002	0,077	-0,065
-257,395	80,700	0,020	0,016
-256,380	-129,086	-0,073	0,007
-255,365	607,117	0,024	-0,043
-254,351	294,486	-0,112	-0,147
-253,336	356,493	-0,097	-0,138
-252,322	800,000	0,055	-0,132
-251,307	-200,000	0,022	-0,170
-250,292	578,964	-0,015	0,026
-249,278	-200,000	0,040	0,155
-248,263	-9,941	0,139	0,066
-247,249	153,636	-0,034	-0,033
-246,234	-200,000	-0,033	0,121
-245,219	800,000	0,057	-0,122
-244,205	198,819	0,042	0,046
-243,190	-200,000	-0,008	-0,053
-242,176	195,330	-0,033	0,036
-241,161	25,064	0,108	-0,064
-240,146	30,599	0,064	-0,039
-239,132	800,000	0,037	-0,093
-238,117	-200,000	0,015	-0,051
-237,103	-90,983	-0,187	-0,038
-236,088	52,979	0,106	-0,072
-235,073	105,832	0,026	-0,022
-234,059	91,005	-0,065	0,052
-233,044	800,000	-0,024	-0,074
-232,030	264,162	-0,051	0,063
-231,015	207,882	0,033	0,036
-230,000	-200,000	-0,028	-0,180
-228,986	800,000	0,045	-0,099
-227,971	-54,632	0,095	0,030
-226,957	-124,167	-0,068	-0,007
-225,942	-15,543	0,019	-0,009
-224,927	-200,000	0,013	0,070
-223,913	-106,311	-0,158	0,025
-222,898	453,765	0,014	-0,022
-221,884	97,492	-0,090	-0,073
-220,869	280,518	0,081	0,103
-219,855	-109,804	-0,114	-0,017
-218,840	-200,000	-0,020	0,076
-217,825	-65,995	-0,145	-0,041
-216,811	-200,000	0,005	-0,108
-215,796	-81,757	-0,059	-0,014
-214,782	-89,947	-0,045	0,009
-213,767	77,952	-0,090	0,068
-212,752	-187,335	0,042	0,000
-211,738	-200,000	0,050	0,170
-210,723	217,643	-0,024	-0,027
-209,709	-200,000	-0,023	-0,145
-208,694	-200,000	0,002	-0,156
-207,679	-68,410	-0,085	0,023
-206,665	-200,000	0,008	0,041
-205,650	61,989	-0,040	0,028
-204,636	127,696	-0,074	0,067
-203,621	-200,000	-0,005	0,067
-202,606	148,689	0,019	-0,018
-201,592	447,685	0,063	-0,099
-200,577	9,828	-0,136	-0,073
-199,563	-200,000	-0,019	-0,084
-198,548	-41,430	0,063	0,023
-197,533	-47,328	0,061	0,021
-196,519	-101,910	-0,052	-0,009
-195,504	66,051	-0,104	0,075
-194,490	-65,892	-0,095	-0,027
-193,475	228,316	-0,008	0,009
-192,460	-200,000	0,002	-0,059
-191,446	20,300	0,096	0,055
-190,431	-200,000	-0,012	0,126
-189,417	-200,000	-0,003	0,107
-188,402	366,083	0,052	-0,074
-187,387	-113,335	-0,135	-0,019
-186,373	-200,000	-0,015	-0,131
-185,358	-91,785	-0,073	0,015
-184,344	-200,000	-0,016	0,081
-183,329	-53,655	0,042	0,013
-182,315	-60,049	-0,099	-0,030
-181,300	374,353	-0,034	0,050
-180,285	-200,000	-0,018	0,077
-179,271	800,000	0,059	-0,149
-178,256	-62,900	0,153	0,045
-177,242	-200,000	0,018	-0,097
-176,227	-200,000	-0,021	0,216
-175,212	316,675	-0,077	0,104
-174,198	800,000	-0,032	-0,094
-173,183	11,695	0,116	-0,063
-172,169	-128,250	0,093	0,009
-171,154	49,443	-0,129	-0,086
-170,139	800,000	0,052	0,110
-169,125	330,134	0,016	-0,021
-168,110	800,000	-0,020	0,053
-167,096	-1,897	-0,041	-0,021
-166,081	800,000	0,050	-0,133
-165,066	745,916	0,058	-0,112
-164,052	66,590	-0,150	0,108
-163,037	301,178	-0,057	0,075
-162,023	-17,907	0,152	0,068
-161,008	-98,580	0,150	0,027
-159,993	103,031	-0,071	0,059
-158,979	313,531	-0,100	-0,134
-157,964	201,092	-0,024	-0,026
-156,950	75,074	0,068	-0,051
-155,935	800,000	-0,015	0,037
-154,920	128,236	0,029	0,026
-153,906	50,970	0,089	0,060
-152,891	203,415	0,082	-0,090
-151,877	-125,752	-0,083	-0,009
-150,862	157,574	0,065	-0,064
-149,847	-21,177	-0,184	-0,080
-148,833	-200,000	-0,003	0,085
-147,818	212,473	-0,041	0,046
-146,804	628,635	0,041	0,074
-145,789	-91,157	-0,119	0,024
-144,775	-158,139	-0,085	0,003
-143,760	-54,171	-0,059	0,019
-142,745	-121,869	-0,086	-0,010
-141,731	100,328	0,061	-0,050
-140,716	-200,000	0,041	0,182
-139,702	37,813	0,054	0,034
-138,687	-200,000	0,001	0,067
-137,672	-200,000	-0,040	0,141
-136,658	234,365	-0,125	-0,147
-135,643	19,022	-0,115	-0,065
-134,629	-86,455	0,040	-0,009
-133,614	-173,385	-0,091	0,002
-132,599	43,073	0,103	0,066
-131,585	-134,613	0,152	-0,013
-130,570	444,172	0,030	-0,047
-129,556	70,300	-0,017	0,013
-128,541	55,962	0,082	-0,056
-127,526	-39,962	-0,083	0,031
-126,512	-44,191	-0,018	0,007
-125,497	-200,000	-0,004	0,114
-124,483	782,848	0,035	-0,068
-123,468	-126,460	0,069	-0,007
-122,453	-200,000	-0,020	-0,088
-121,439	-87,638	-0,078	-0,017
-120,424	-3,935	0,135	0,066
-119,410	-200,000	0,009	0,163
-118,395	-64,241	0,076	0,022
-117,380	484,302	-0,119	0,193
-116,366	403,714	0,087	0,131
-115,351	-200,000	-0,010	-0,105
-114,337	-200,000	0,005	0,018
-113,322	-200,000	-0,022	0,094
-112,307	800,000	0,032	0,096
-111,293	39,334	0,214	-0,136
-110,278	153,664	-0,052	0,050
-109,264	-135,651	0,026	0,002
-108,249	-25,795	-0,096	0,040
-107,234	800,000	-0,011	0,024
-106,220	800,000	-0,052	-0,140
-105,205	-35,003	-0,056	-0,022
-104,191	-16,050	-0,106	-0,048
-103,176	-118,165	0,119	0,015
-102,162	139,267	0,119	-0,111
-101,147	-200,000	0,009	0,155
-100,132	247,060	-0,122	-0,147
-99,118	44,129	-0,089	0,058
-98,103	-200,000	0,007	0,041
-97,089	-200,000	-0,000	0,143
-96,074	524,862	0,027	-0,045
-95,059	66,065	-0,062	-0,044
-94,045	591,840	-0,013	0,023
-93,030	148,498	-0,065	-0,062
-92,016	130,214	0,051	-0,046
-91,001	717,277	0,033	-0,063
-89,986	-200,000	0,010	0,238
-88,972	-83,458	-0,049	-0,011
-87,957	230,826	0,021	0,024
-86,943	578,344	0,022	-0,039
-85,928	-200,000	0,030	-0,119
-84,913	126,761	-0,171	-0,154
-83,899	287,419	-0,046	-0,059
-82,884	800,000	0,048	-0,140
-81,870	-200,000	-0,001	0,028
-80,855	55,945	-0,087	0,060
-79,840	123,879	-0,051	0,046
-78,826	-94,577	-0,053	-0,010
-77,811	28,114	-0,102	-0,061
-76,797	-30,464	-0,010	0,004
-75,782	6,120	-0,087	0,046
-74,767	800,000	-0,038	0,101
-73,753	-40,165	0,059	-0,022
-72,738	-190,316	-0,019	-0,000
-71,724	74,130	-0,114	0,085
-70,709	454,680	0,070	-0,110
-69,694	68,856	-0,066	-0,048
-68,680	7,108	-0,159	0,084
-67,665	-89,368	-0,047	-0,010
-66,651	131,852	0,057	-0,052
-65,636	-200,000	-0,034	-0,114
-64,622	27,911	-0,099	-0,059
-63,607	-200,000	-0,014	-0,065
-62,592	-200,000	0,005	-0,061
-61,578	139,010	-0,099	-0,092
-60,563	174,088	0,066	0,067
-59,549	-200,000	-0,024	0,086
-58,534	-19,342	-1,543	-0,675
-57,519	286,061	-1,513	-1,937
-56,505	-200,000	-0,733	-4,479
-55,490	213,360	0,929	1,041
-54,476	800,000	4,977	11,357
-53,461	-200,000	19,009	313,390
-52,446	-200,000	739,104	2325,154
-51,432	575,302	1655,567	2873,941
-50,417	79,134	1671,733	1267,066
-49,403	21,819	1544,677	888,944
-48,388	15,730	1467,094	814,678
-47,373	17,899	1456,920	819,482
-46,359	16,834	1447,217	808,878
-45,344	13,955	1442,693	792,522
-44,330	13,902	1440,588	791,077
-43,315	13,871	1438,869	789,957
-42,300	13,892	1437,230	789,126
-41,286	13,942	1436,076	788,700
-40,271	13,874	1434,720	787,600
-39,257	13,892	1433,480	786,970
-38,242	13,939	1432,188	786,453
-37,227	13,956	1431,073	785,891
-36,213	13,944	1429,814	785,113
-35,198	13,933	1428,531	784,325
-34,184	13,966	1427,633	783,957
-33,169	13,950	1426,228	783,077
-32,154	13,948	1425,189	782,466
-31,140	13,934	1423,853	781,637
-30,125	13,981	1422,872	781,287
-29,111	13,973	1421,669	780,562
-28,096	13,909	1420,606	779,644
-27,082	13,892	1419,394	778,865
-26,067	13,861	1418,387	778,136
-25,052	13,859	1417,427	777,572
-24,038	13,849	1416,296	776,872
-23,023	13,863	1415,254	776,336
-22,009	13,818	1414,311	775,575
-20,994	13,823	1413,298	775,010
-19,979	13,825	1412,713	774,670
-18,965	13,767	1411,693	773,809
-17,950	13,842	1410,562	773,510
-16,936	13,793	1409,877	772,872
-15,921	13,755	1408,818	772,087
-14,906	13,743	1407,831	771,457
-13,892	13,783	1406,814	771,054
-12,877	13,793	1405,777	770,502
-11,863	13,768	1405,011	769,937
-10,848	13,749	1404,050	769,293
-9,833	13,707	1403,354	768,684
-8,819	13,731	1402,388	768,234
-7,804	13,705	1401,383	767,532
-6,790	13,688	1400,373	766,870
-5,775	13,679	1399,331	766,225
-4,760	13,686	1398,210	765,615
-3,746	13,686	1397,545	765,222
-2,731	13,690	1396,625	764,705
-1,717	13,663	1395,755	764,074
-0,702	13,662	1394,053	763,108
0,313	17,381	1311,676	735,299
1,327	33,530	705,590	432,957
2,342	51,657	123,857	83,220
3,356	0,943	16,630	8,408
4,371	17,123	3,171	1,774
5,386	5,169	0,534	0,277
6,400	49,937	0,152	0,101
7,415	-61,186	-0,219	-0,065
8,429	-28,508	-0,354	-0,144
9,444	-19,374	-0,388	-0,170
10,459	106,474	-0,341	-0,286
11,473	87,443	-0,283	-0,221
12,488	-136,996	-0,293	-0,023
13,502	-36,399	-0,414	-0,157
14,517	-11,826	-0,328	-0,151
15,531	247,804	-0,332	-0,398
16,546	36,261	-0,444	-0,276
17,561	207,146	-0,348	-0,384
18,575	4,649	-0,124	-0,064
19,590	119,075	-0,280	-0,245
20,604	15,893	-0,252	-0,140
21,619	71,112	-0,522	-0,382
22,634	150,482	-0,428	-0,411
23,648	146,486	-0,403	-0,383
24,663	247,806	-0,324	-0,387
25,677	20,381	-0,373	-0,212
26,692	5,692	-0,358	-0,186
27,707	190,103	-0,337	-0,358
28,721	67,286	-0,454	-0,327
29,736	188,203	-0,250	-0,264
30,750	-5,081	-0,470	-0,227
31,765	-7,571	-0,484	-0,230
32,780	-7,059	-0,479	-0,229
33,794	171,632	-0,292	-0,296
34,809	49,645	-0,306	-0,203
35,823	85,226	-0,298	-0,230
36,838	136,967	-0,363	-0,334
37,853	23,551	-0,395	-0,229
38,867	-56,474	-0,418	-0,130
39,882	54,043	-0,411	-0,278
40,896	91,195	-0,321	-0,254
41,911	-1,860	-0,381	-0,188
42,926	51,876	-0,289	-0,193
43,940	119,859	-0,334	-0,292
44,955	354,189	-0,256	-0,360
45,969	47,203	-0,393	-0,258
46,984	105,246	-0,306	-0,254
47,999	-38,767	-0,369	-0,136
49,013	231,471	-0,179	-0,207
50,028	144,009	-0,244	-0,230
51,042	111,293	-0,380	-0,323
52,057	174,364	-0,280	-0,286
53,071	135,195	-0,300	-0,274
54,086	-5,324	-0,280	-0,135
55,101	101,345	-0,292	-0,239
56,115	124,678	-0,304	-0,270
57,130	27,678	-0,372	-0,220
58,144	67,561	-0,395	-0,284
59,159	-16,395	-0,352	-0,157
60,174	30,306	-0,419	-0,251
61,188	145,364	-0,308	-0,290
62,203	156,734	-0,234	-0,228
63,217	405,428	-0,277	-0,413
64,232	0,934	-0,318	-0,160
65,247	87,067	-0,285	-0,222
66,261	33,358	-0,414	-0,252
67,276	142,772	-0,385	-0,360
68,290	-11,233	-0,288	-0,133
69,305	170,501	-0,266	-0,268
70,320	146,095	-0,218	-0,206
71,334	165,012	-0,221	-0,219
72,349	-58,513	-0,301	-0,091
73,363	166,767	-0,247	-0,247
74,378	35,627	-0,385	-0,237
75,393	173,749	-0,313	-0,318
76,407	139,344	-0,271	-0,250
77,422	194,355	-0,166	-0,177
78,436	12,956	-0,354	-0,192
79,451	-85,124	-0,235	-0,051
80,466	74,914	-0,356	-0,263
81,480	-49,623	-0,394	-0,131
82,495	-9,258	-0,303	-0,142
83,509	-5,082	-0,253	-0,122
84,524	95,300	-0,260	-0,208
85,539	-17,762	-0,305	-0,134
86,553	352,855	-0,219	-0,306
87,568	-53,431	-0,366	-0,117
88,582	99,395	-0,245	-0,199
89,597	17,738	-0,335	-0,187
90,611	142,772	-0,182	-0,170
91,626	315,855	-0,176	-0,234
92,641	157,852	-0,162	-0,158
93,655	106,832	-0,306	-0,255
94,670	74,223	-0,233	-0,171
95,684	114,940	-0,321	-0,275
96,699	64,986	-0,347	-0,246
97,714	175,589	-0,183	-0,187
98,728	11,114	-0,393	-0,210
99,743	62,374	-0,269	-0,188
100,757	-96,376	-0,246	-0,045
101,772	74,559	-0,285	-0,210
102,787	12,830	-0,437	-0,236
103,801	56,202	-0,369	-0,251
104,816	92,135	-0,246	-0,194
105,830	104,480	-0,228	-0,188
106,845	75,010	-0,206	-0,152
107,860	26,646	-0,235	-0,138
108,874	69,585	-0,219	-0,158
109,889	58,598	-0,325	-0,223
110,903	30,510	-0,325	-0,194
111,918	-42,015	-0,314	-0,112
112,933	49,769	-0,230	-0,152
113,947	-96,641	-0,229	-0,042
114,962	131,661	-0,268	-0,242
115,976	444,484	-0,179	-0,276
116,991	122,512	-0,300	-0,263
118,006	212,770	-0,266	-0,294
119,020	-77,751	-0,269	-0,065
120,035	-47,201	-0,226	-0,077
121,049	-43,973	-0,288	-0,101
122,064	75,671	-0,303	-0,224
123,079	-65,016	-0,309	-0,087
124,093	180,272	-0,249	-0,256
125,108	65,261	-0,216	-0,152
126,122	91,493	-0,265	-0,208
127,137	800,000	-0,132	-0,263
128,151	187,456	-0,152	-0,159
129,166	-89,877	-0,226	-0,046
130,181	-32,106	-0,216	-0,084
131,195	119,656	-0,212	-0,184
132,210	45,406	-0,319	-0,205
133,224	-1,929	-0,167	-0,082
134,239	57,155	-0,281	-0,192
135,254	-67,667	-0,295	-0,080
136,268	168,223	-0,151	-0,150
137,283	-50,612	-0,242	0,079
138,297	22,850	-0,335	-0,192
139,312	-95,958	-0,329	-0,061
140,327	800,000	-0,151	-0,410
141,341	-39,329	-0,190	-0,069
142,356	486,801	-0,074	-0,119
143,370	551,761	-0,133	-0,224
144,385	-52,655	-0,248	-0,080
145,400	309,946	-0,219	-0,287
146,414	3,796	-0,464	-0,236
147,429	339,456	-0,242	-0,330
148,443	137,525	-0,166	-0,152
149,458	-11,949	-0,082	-0,037
150,473	-87,808	-0,350	-0,073
151,487	-11,749	-0,221	-0,101
152,502	5,528	-0,382	-0,196
153,516	42,721	-0,253	-0,161
154,531	121,063	-0,217	-0,188
155,546	334,712	-0,167	-0,227
156,560	129,418	-0,166	-0,148
157,575	-96,789	-0,287	-0,052
158,589	115,489	-0,190	-0,162
159,604	71,310	-0,317	-0,229
160,619	223,534	-0,194	-0,218
161,633	115,440	-0,264	-0,225
162,648	-29,330	-0,197	-0,078
163,662	-20,559	-0,220	-0,094
164,677	42,121	-0,178	-0,113
165,692	-58,950	-0,241	-0,072
166,706	53,602	-0,230	-0,154
167,721	95,599	-0,206	-0,164
168,735	7,381	-0,248	-0,129
169,750	-31,917	-0,227	-0,088
170,764	171,630	-0,170	-0,170
171,779	124,509	-0,264	-0,232
172,794	-11,700	-0,279	-0,127
173,808	-38,483	-0,113	-0,041
174,823	57,490	-0,295	-0,200
175,837	800,000	-0,124	-0,251
176,852	126,054	-0,224	-0,198
177,867	263,130	-0,163	-0,198
178,881	115,316	-0,173	-0,147
179,896	63,890	-0,135	-0,094
180,910	-27,030	-0,292	-0,118
181,925	223,817	-0,227	-0,255
182,940	365,421	-0,181	-0,255
183,954	4,425	-0,152	-0,078
184,969	520,211	-0,126	-0,207
185,983	-69,592	-0,168	-0,044
186,998	103,739	-0,288	-0,235
188,013	372,944	-0,148	-0,210
189,027	92,772	-0,173	-0,136
190,042	11,980	-0,269	-0,143
191,056	-0,076	-0,257	-0,127
192,071	12,184	-0,118	-0,063
193,086	-34,430	-0,191	-0,073
194,100	-46,109	-0,169	-0,058
195,115	-140,361	-0,239	0,017
196,129	151,888	-0,140	-0,133
197,144	137,844	-0,178	-0,163
198,159	79,665	-0,196	-0,146
199,173	31,948	-0,250	-0,150
200,188	800,000	-0,092	-0,265
201,202	141,650	-0,186	-0,172
202,217	109,953	-0,249	-0,208
203,232	140,642	-0,191	-0,176
204,246	-15,628	-0,364	-0,161
205,261	168,252	-0,157	-0,155
206,275	-113,797	-0,166	-0,022
207,290	461,125	-0,107	-0,167
208,304	377,897	-0,173	-0,246
209,319	55,024	-0,287	-0,192
210,334	44,317	-0,279	-0,178
211,348	233,195	-0,228	-0,262
212,363	-72,198	-0,276	-0,071
213,377	48,674	-0,292	-0,190
214,392	-17,986	-0,249	-0,108
215,407	800,000	-0,083	-0,165
216,421	378,187	-0,042	-0,060
217,436	-155,048	-0,254	-0,011
218,450	3,908	-0,214	-0,108
219,465	365,866	-0,151	-0,213
220,480	349,664	-0,092	-0,126
221,494	-111,771	-0,087	-0,012
222,509	-200,000	0,017	-0,168
223,523	-181,297	-0,180	-0,002
224,538	-32,918	-0,281	-0,108
225,553	33,203	-0,198	-0,119
226,567	87,133	-0,269	-0,206
227,582	-85,353	-0,194	-0,042
228,596	18,703	-0,206	0,114
229,611	-156,305	-0,312	-0,013
230,626	-110,095	-0,181	-0,026
231,640	-109,990	-0,245	-0,035
232,655	800,000	-0,116	-0,294
233,669	719,471	-0,168	-0,312
234,684	-76,790	-0,275	-0,066
235,699	161,669	-0,159	-0,155
236,713	800,000	-0,102	-0,201
237,728	-177,323	-0,170	-0,003
238,742	-84,248	-0,228	0,050
239,757	-43,393	-0,265	-0,092
240,772	18,427	-0,197	-0,109
241,786	149,649	-0,232	-0,218
242,801	-72,764	-0,184	-0,047
243,815	6,075	-0,192	-0,098
244,830	215,192	-0,146	-0,160
245,844	58,237	-0,176	-0,119
246,859	-55,461	-0,311	-0,096
247,874	98,285	-0,163	-0,130
248,888	65,778	-0,214	-0,150
249,903	-200,000	-0,025	-0,089
250,917	25,898	-0,067	-0,039
251,932	65,743	-0,104	-0,073
252,947	47,550	-0,271	-0,174
253,961	4,658	-0,311	-0,158
254,976	149,411	-0,315	-0,296
255,990	114,590	-0,136	-0,115
257,005	195,323	-0,149	-0,156
258,020	-200,000	0,016	-0,147
259,034	341,638	-0,134	-0,181
260,049	297,218	-0,077	-0,098
261,063	303,806	-0,096	-0,124
262,078	493,703	-0,176	-0,280
263,093	402,366	-0,203	-0,296
264,107	-129,374	-0,269	-0,026
265,122	151,744	-0,152	-0,143
266,136	-44,958	-0,165	-0,057
267,151	-200,000	0,007	-0,197
268,166	800,000	-0,072	-0,174
269,180	12,183	-0,234	-0,124
270,195	258,474	-0,174	-0,208
271,209	238,718	-0,123	-0,142
272,224	-84,760	-0,195	-0,042
273,239	45,459	-0,161	-0,103
274,253	-120,282	-0,293	0,034
275,268	21,372	-0,225	-0,126
276,282	-2,419	-0,198	-0,096
277,297	79,231	-0,249	-0,184
278,312	62,819	-0,241	-0,166
279,326	130,860	-0,179	-0,159
280,341	14,699	-0,155	-0,084
281,355	6,669	-0,236	-0,121
282,370	124,481	-0,159	-0,138
283,384	46,663	-0,174	-0,112
284,399	5,427	-0,262	-0,133
285,414	205,209	-0,200	-0,215
286,428	113,152	-0,118	-0,099
287,443	-50,737	-0,145	-0,047
288,457	-142,182	-0,182	-0,012
289,472	-141,300	-0,181	-0,012
290,487	132,044	-0,221	-0,197
291,501	272,260	-0,110	-0,135
292,516	-98,553	-0,124	-0,022
293,530	-62,840	-0,072	0,020
294,545	431,847	-0,039	-0,058
295,560	-135,676	-0,214	-0,017
296,574	24,412	-0,076	0,043
297,589	-13,476	-0,106	-0,047
298,603	107,507	-0,237	-0,195
299,618	137,668	-0,188	-0,170
300,633	-78,609	-0,185	-0,043
301,647	-28,573	-0,127	0,050
302,662	800,000	-0,077	-0,187
303,676	-121,659	-0,163	-0,018
304,691	15,831	-0,182	-0,099
305,706	800,000	-0,102	-0,202
306,720	79,315	-0,221	-0,163
307,735	259,919	-0,106	-0,127
308,749	800,000	-0,059	-0,156
309,764	-200,000	-0,005	-0,086
310,779	-84,352	-0,267	-0,058
311,793	88,416	-0,116	-0,089
312,808	250,348	-0,152	-0,178
313,822	800,000	-0,088	-0,183
314,837	580,310	-0,111	-0,188
315,852	329,712	-0,081	-0,108
316,866	22,749	-0,220	-0,124
317,881	32,287	-0,149	-0,088
318,895	626,159	-0,110	-0,192
319,910	-15,158	-0,197	-0,086
320,925	-124,965	-0,254	-0,027
321,939	-146,869	-0,212	-0,012
322,954	-85,836	-0,120	0,025
323,968	-134,030	-0,135	-0,011
324,983	15,892	-0,148	-0,080
325,997	32,732	-0,165	-0,098
327,012	-54,829	-0,309	-0,095
328,027	-5,906	-0,205	-0,096
329,041	499,590	-0,116	-0,185
330,056	800,000	-0,027	-0,052
331,070	800,000	-0,053	-0,140
332,085	-68,331	-0,225	-0,060
333,100	50,506	-0,196	-0,127
334,114	183,253	-0,162	-0,165
335,129	-73,249	-0,177	-0,044
336,143	48,136	-0,183	-0,118
337,158	-93,695	-0,091	0,017
338,173	32,631	-0,100	-0,059
339,187	13,769	-0,126	-0,067
340,202	-124,721	-0,185	0,019
341,216	-200,000	0,013	-0,171
342,231	98,480	-0,055	-0,043
343,246	-65,273	-0,155	-0,043
344,260	-83,661	-0,114	-0,025
345,275	120,833	-0,164	-0,140
346,289	-200,000	-0,034	-0,102
347,304	225,463	-0,114	-0,127
348,319	800,000	0,015	-0,037
349,333	-200,000	-0,014	-0,120
350,348	343,373	-0,211	-0,285
351,362	89,590	-0,191	-0,146
352,377	569,552	-0,120	-0,200
353,392	7,646	-0,247	-0,127
354,406	139,669	-0,149	-0,135
355,421	207,850	1318,178	1414,275
356,435	159,902	1479,330	1414,756
