DTS Sentinel unit serial number:	SN410029Multiplexer serial number:	ORYXHardware model number:	OX2-SRSoftware version number:	ORYX F/W v4,00 Oryx Data Collector v3.7.2.0data status	okinstallation	B3 Nyhavnadifferential loss correction	single-endedforward channel	channel 1reverse channel	N/Adate	2023/12/03time	15:52:30forward acquisition time	300,00reverse acquisition time	0,00gamma	499,1914k internal	0,3197k external	0,3197temperature offset calibration	1,0000default loss term (dB/km)	0,3820temperature slope calibration	1,0000multiplexer offset coefficient	1,0000multiplexer slope coefficient	1,0000fibre end	0,00T internal ref (°C)	15,62T ext. ref 1 (°C)	0,10T ext. ref 2 (°C)	0,10length (m)	temperature (°C)	Stokes	anti-Stokes-744,400	164,356	-0,306	-0,314
-743,385	-200,000	-0,060	0,246
-742,371	219,662	-0,179	-0,210
-741,356	375,358	0,095	0,142
-740,342	90,376	-0,220	-0,179
-739,327	-200,000	0,102	0,345
-738,312	163,736	-0,299	-0,307
-737,298	-200,000	0,001	0,348
-736,283	800,000	-0,070	-0,166
-735,269	800,000	0,130	0,338
-734,254	239,457	-0,188	-0,228
-733,239	-157,690	-0,219	-0,009
-732,225	800,000	-0,114	-0,280
-731,210	-74,396	0,062	0,016
-730,196	-82,313	0,069	-0,016
-729,181	-135,367	-0,173	0,015
-728,167	-200,000	-0,001	-0,051
-727,152	60,384	0,085	-0,061
-726,137	58,369	-0,070	-0,050
-725,123	-108,921	0,018	-0,003
-724,108	-200,000	0,008	-0,044
-723,094	30,660	-0,091	-0,056
-722,079	356,444	-0,026	-0,038
-721,064	127,655	-0,141	-0,131
-720,050	-69,848	0,007	-0,002
-719,035	-95,257	-0,105	-0,020
-718,021	13,854	-0,077	-0,043
-717,006	-171,064	-0,133	0,003
-715,991	-200,000	0,001	-0,050
-714,977	-90,219	-0,097	-0,020
-713,962	-84,759	-0,128	-0,029
-712,948	-15,096	0,023	0,011
-711,933	-200,000	0,006	-0,106
-710,918	-200,000	0,009	0,114
-709,904	249,305	-0,044	0,054
-708,889	-1,004	-0,059	0,030
-707,875	-200,000	0,011	0,086
-706,860	800,000	0,062	-0,198
-705,845	-63,192	0,032	0,010
-704,831	800,000	0,060	0,123
-703,816	595,986	-0,070	0,127
-702,802	800,000	-0,043	-0,129
-701,787	800,000	-0,050	-0,104
-700,772	17,462	-0,020	-0,011
-699,758	-200,000	0,001	0,025
-698,743	800,000	-0,055	-0,114
-697,729	25,778	-0,109	-0,066
-696,714	-11,684	-0,028	-0,013
-695,699	-200,000	0,006	0,024
-694,685	-158,546	-0,052	0,002
-693,670	-200,000	-0,026	-0,129
-692,656	797,085	0,067	0,134
-691,641	214,147	-0,015	-0,018
-690,627	150,350	0,188	0,186
-689,612	-200,000	-0,020	0,104
-688,597	-200,000	0,004	0,026
-687,583	488,177	0,047	0,078
-686,568	-8,649	-0,073	0,035
-685,554	-160,658	0,140	0,005
-684,539	228,365	-0,090	-0,107
-683,524	800,000	0,064	-0,166
-682,510	800,000	-0,072	0,147
-681,495	-71,408	0,084	0,023
-680,481	327,102	-0,054	-0,075
-679,466	-200,000	-0,011	-0,089
-678,451	350,650	-0,041	-0,059
-677,437	800,000	-0,027	-0,071
-676,422	-131,264	0,109	0,010
-675,408	800,000	0,039	0,090
-674,393	800,000	0,017	0,050
-673,378	-200,000	-0,054	-0,000
-672,364	800,000	-0,049	-0,102
-671,349	188,714	0,086	-0,094
-670,335	800,000	0,022	0,048
-669,320	-200,000	-0,006	0,096
-668,305	102,468	-0,045	0,038
-667,291	-87,163	-0,034	-0,007
-666,276	313,904	-0,063	-0,086
-665,262	-60,000	-0,095	0,029
-664,247	-8,255	-0,076	-0,037
-663,232	-200,000	0,001	-0,068
-662,218	-142,632	0,047	-0,003
-661,203	800,000	-0,046	-0,101
-660,189	36,813	0,024	-0,015
-659,174	79,514	-0,173	-0,135
-658,159	219,509	-0,071	-0,082
-657,145	57,289	-0,028	-0,020
-656,130	-200,000	-0,005	-0,033
-655,116	30,125	0,088	0,054
-654,101	15,791	0,091	-0,052
-653,086	-200,000	0,029	0,099
-652,072	95,315	-0,171	-0,141
-651,057	-102,680	-0,224	-0,038
-650,043	-200,000	-0,020	-0,098
-649,028	84,509	0,076	-0,060
-648,014	9,162	0,081	-0,044
-646,999	800,000	0,073	0,194
-645,984	217,823	0,056	0,064
-644,970	-19,360	0,137	0,061
-643,955	55,059	0,116	-0,081
-642,941	330,510	-0,066	-0,092
-641,926	800,000	-0,047	0,103
-640,911	-89,027	0,070	0,015
-639,897	-200,000	0,005	0,114
-638,882	388,456	0,058	-0,088
-637,868	-200,000	-0,001	-0,079
-636,853	-123,368	-0,162	0,018
-635,838	-10,902	0,107	-0,051
-634,824	800,000	-0,056	-0,156
-633,809	40,118	-0,090	-0,059
-632,795	-94,445	0,084	-0,017
-631,780	272,317	-0,065	0,083
-630,765	-96,797	0,067	-0,013
-629,751	183,657	-0,108	-0,116
-628,736	-200,000	0,032	-0,107
-627,722	27,121	0,096	0,058
-626,707	-200,000	0,001	0,061
-625,692	-200,000	0,024	0,110
-624,678	622,213	-0,052	0,096
-623,663	30,512	0,037	0,023
-622,649	370,668	-0,025	0,037
-621,634	-24,553	0,071	-0,030
-620,619	-109,611	0,055	0,008
-619,605	366,673	-0,032	-0,047
-618,590	54,388	-0,139	0,097
-617,576	255,652	-0,038	-0,047
-616,561	-181,828	0,143	-0,002
-615,546	38,827	-0,083	-0,054
-614,532	94,647	0,049	-0,040
-613,517	-72,766	-0,156	0,041
-612,503	800,000	0,028	0,089
-611,488	-150,019	0,130	0,007
-610,474	800,000	0,014	-0,033
-609,459	20,275	0,071	-0,041
-608,444	-60,450	-0,113	-0,034
-607,430	-123,067	-0,138	-0,016
-606,415	154,622	-0,060	0,060
-605,401	800,000	0,026	0,053
-604,386	184,334	-0,112	-0,120
-603,371	179,646	-0,018	0,020
-602,357	800,000	0,037	0,109
-601,342	-57,727	-0,111	0,035
-600,328	-200,000	-0,028	-0,095
-599,313	101,104	-0,013	-0,011
-598,298	625,726	0,097	-0,179
-597,284	47,522	-0,077	-0,052
-596,269	116,199	0,044	0,039
-595,255	-121,121	-0,005	0,001
-594,240	296,406	-0,050	0,067
-593,225	19,320	-0,099	-0,057
-592,211	329,787	-0,074	-0,104
-591,196	-27,023	-0,030	0,013
-590,182	800,000	0,060	0,124
-589,167	-200,000	0,005	0,048
-588,152	-200,000	-0,010	0,070
-587,138	-49,661	0,052	0,018
-586,123	-85,192	0,036	-0,008
-585,109	800,000	-0,032	-0,079
-584,094	139,815	0,093	-0,089
-583,079	97,934	-0,049	0,040
-582,065	-200,000	-0,005	-0,049
-581,050	-65,211	0,058	-0,017
-580,036	-195,992	0,088	0,000
-579,021	800,000	0,021	-0,043
-578,006	800,000	0,008	-0,019
-576,992	-100,644	-0,026	0,005
-575,977	-200,000	0,016	0,177
-574,963	-147,832	0,260	-0,015
-573,948	248,892	-0,082	0,101
-572,934	-193,993	-0,099	-0,001
-571,919	800,000	0,037	-0,086
-570,904	105,285	-0,055	-0,047
-569,890	206,598	-0,091	-0,102
-568,875	-131,852	0,038	0,004
-567,861	217,587	-0,100	0,115
-566,846	-29,596	0,038	-0,016
-565,831	-200,000	0,008	-0,032
-564,817	285,682	0,081	-0,106
-563,802	-25,048	-0,062	-0,027
-562,788	416,253	-0,021	0,033
-561,773	-25,325	-0,062	-0,027
-560,758	-200,000	-0,002	0,045
-559,744	-174,323	-0,085	0,002
-558,729	-106,410	0,067	0,011
-557,715	800,000	-0,030	0,064
-556,700	193,231	-0,053	-0,058
-555,685	-51,699	0,097	0,033
-554,671	-200,000	0,093	0,000
-553,656	79,172	-0,114	0,088
-552,642	209,716	0,062	0,071
-551,627	-71,365	0,095	-0,025
-550,612	-54,988	-0,023	0,008
-549,598	800,000	-0,022	-0,058
-548,583	-65,025	-0,203	0,059
-547,569	4,467	0,048	-0,025
-546,554	-200,000	0,010	0,051
-545,539	-69,649	0,181	0,050
-544,525	800,000	-0,016	-0,041
-543,510	447,988	-0,038	-0,060
-542,496	-200,000	-0,015	-0,052
-541,481	120,384	0,059	-0,053
-540,466	441,478	-0,040	-0,064
-539,452	224,649	0,046	-0,054
-538,437	208,834	0,138	0,156
-537,423	602,905	-0,063	0,113
-536,408	328,482	0,086	-0,120
-535,393	800,000	0,019	0,054
-534,379	603,825	0,017	-0,030
-533,364	135,505	0,046	0,043
-532,350	-51,794	-0,028	0,009
-531,335	-42,845	-0,076	0,028
-530,321	800,000	0,093	0,186
-529,306	258,868	-0,037	0,046
-528,291	-200,000	-0,006	-0,075
-527,277	800,000	0,039	-0,104
-526,262	-200,000	0,001	0,014
-525,248	394,268	-0,003	-0,005
-524,233	-23,105	-0,119	0,052
-523,218	-69,813	0,166	0,045
-522,204	-38,793	0,047	-0,018
-521,189	-79,510	-0,055	0,013
-520,175	185,063	-0,036	-0,039
-519,160	-154,390	-0,075	0,004
-518,145	-200,000	-0,019	-0,090
-517,131	9,300	-0,046	0,025
-516,116	-136,606	-0,008	-0,001
-515,102	-44,702	-0,216	0,078
-514,087	-200,000	-0,022	-0,180
-513,072	-51,377	-0,108	0,036
-512,058	147,845	0,051	-0,050
-511,043	800,000	0,019	0,051
-510,029	78,236	0,130	0,100
-509,014	800,000	0,062	0,136
-507,999	356,729	0,058	0,084
-506,985	78,507	-0,056	-0,043
-505,970	-86,685	-0,129	-0,028
-504,956	-19,618	-0,109	0,048
-503,941	429,622	0,069	-0,108
-502,926	-98,087	0,085	-0,016
-501,912	-116,822	-0,125	0,016
-500,897	153,812	-0,106	0,105
-499,883	114,801	-0,082	-0,072
-498,868	-106,598	-0,078	0,012
-497,853	122,318	0,072	0,065
-496,839	-200,000	-0,040	0,129
-495,824	-200,000	0,004	0,105
-494,810	-81,438	-0,057	0,013
-493,795	37,927	0,076	0,049
-492,781	24,480	0,094	0,056
-491,766	106,062	-0,045	0,038
-490,751	55,252	-0,099	0,069
-489,737	-200,000	-0,010	-0,038
-488,722	-200,000	-0,018	0,134
-487,708	412,422	0,016	-0,025
-486,693	-49,846	0,054	0,018
-485,678	-14,689	-0,071	0,033
-484,664	800,000	0,037	-0,088
-483,649	-107,314	0,046	0,007
-482,635	800,000	-0,021	0,052
-481,620	667,670	-0,029	-0,055
-480,605	-76,463	-0,066	0,017
-479,591	-124,132	-0,059	0,007
-478,576	64,488	-0,039	-0,028
-477,562	47,738	-0,006	-0,004
-476,547	800,000	-0,071	-0,212
-475,532	-200,000	0,002	-0,093
-474,518	-200,000	-0,015	0,085
-473,503	-200,000	-0,017	-0,159
-472,489	-94,081	0,153	0,030
-471,474	307,645	0,047	-0,063
-470,459	758,403	-0,025	-0,048
-469,445	-200,000	-0,004	-0,127
-468,430	74,954	-0,111	-0,084
-467,416	247,881	0,058	-0,071
-466,401	41,356	-0,029	-0,019
-465,386	93,322	-0,022	0,018
-464,372	800,000	-0,065	0,198
-463,357	-200,000	0,001	-0,115
-462,343	-200,000	0,006	-0,047
-461,328	130,970	-0,106	-0,098
-460,313	-55,548	-0,099	-0,032
-459,299	-200,000	0,022	0,171
-458,284	800,000	-0,026	0,055
-457,270	-200,000	-0,001	0,180
-456,255	161,341	0,021	0,021
-455,241	-200,000	0,021	0,083
-454,226	-200,000	-0,024	0,121
-453,211	118,353	-0,043	0,038
-452,197	147,932	0,051	0,050
-451,182	368,271	-0,032	0,047
-450,168	115,815	0,102	-0,090
-449,153	-37,865	-0,041	0,016
-448,138	-200,000	-0,014	-0,154
-447,124	-179,855	-0,045	-0,001
-446,109	-141,506	-0,063	0,005
-445,095	367,968	0,050	-0,073
-444,080	14,120	-0,092	0,051
-443,065	371,657	0,069	0,101
-442,051	800,000	-0,061	-0,128
-441,036	-175,640	0,042	-0,001
-440,022	-105,175	-0,158	-0,026
-439,007	800,000	-0,044	-0,118
-437,992	228,938	0,118	0,138
-436,978	-23,817	0,026	-0,011
-435,963	346,524	0,085	-0,121
-434,949	324,599	-0,067	0,092
-433,934	800,000	-0,020	-0,059
-432,919	-200,000	-0,026	0,157
-431,905	-163,358	-0,058	0,002
-430,890	82,089	0,108	0,084
-429,876	-12,600	0,159	0,074
-428,861	-109,622	0,103	0,015
-427,846	620,514	-0,045	0,082
-426,832	-84,015	-0,083	0,019
-425,817	603,417	-0,023	-0,041
-424,803	-200,000	-0,000	-0,010
-423,788	-200,000	0,004	0,074
-422,773	58,166	-0,053	-0,037
-421,759	492,036	0,029	0,048
-420,744	15,201	-0,090	0,051
-419,730	-41,408	0,081	-0,030
-418,715	800,000	0,031	-0,091
-417,701	800,000	0,001	-0,004
-416,686	-100,970	0,029	-0,005
-415,671	-23,161	0,065	-0,028
-414,657	800,000	-0,042	0,107
-413,642	-200,000	-0,015	-0,089
-412,628	-200,000	0,005	0,019
-411,613	6,190	-0,071	-0,038
-410,598	-200,000	0,032	-0,181
-409,584	716,916	-0,035	0,067
-408,569	202,207	0,115	0,128
-407,555	356,156	0,070	0,101
-406,540	155,365	-0,104	-0,103
-405,525	396,091	-0,027	-0,041
-404,511	-106,720	-0,107	-0,017
-403,496	210,407	-0,115	-0,130
-402,482	800,000	-0,034	-0,073
-401,467	-21,890	0,094	0,041
-400,452	-123,413	0,071	0,008
-399,438	-150,106	0,073	-0,004
-398,423	321,369	0,133	0,182
-397,409	-106,139	-0,064	-0,010
-396,394	800,000	0,032	0,073
-395,379	800,000	-0,039	-0,093
-394,365	62,055	-0,053	-0,038
-393,350	-200,000	0,048	0,174
-392,336	585,305	-0,075	0,132
-391,321	-76,531	-0,113	0,028
-390,306	-87,856	-0,048	0,010
-389,292	-36,691	-0,039	-0,015
-388,277	163,600	-0,083	0,083
-387,263	156,571	-0,035	-0,035
-386,248	417,444	0,015	0,023
-385,233	56,101	-0,066	-0,046
-384,219	323,096	-0,056	0,077
-383,204	-143,295	0,054	0,004
-382,190	-94,847	-0,117	0,023
-381,175	-36,800	-0,038	0,014
-380,160	405,299	0,079	0,120
-379,146	-200,000	0,013	0,082
-378,131	-141,592	0,174	0,012
-377,117	-25,540	0,141	-0,060
-376,102	506,773	-0,051	-0,086
-375,088	-24,576	-0,057	-0,024
-374,073	262,441	0,012	-0,015
-373,058	-65,961	0,170	0,048
-372,044	3,331	0,056	-0,029
-371,029	383,665	-0,022	-0,033
-370,015	-103,930	0,128	-0,021
-369,000	-32,947	-0,152	-0,060
-367,985	-200,000	0,024	-0,101
-366,971	-2,063	-0,144	0,073
-365,956	-120,626	0,037	0,004
-364,942	-142,193	0,100	0,007
-363,927	-8,577	0,176	0,084
-362,912	25,572	0,029	-0,017
-361,898	487,774	-0,059	-0,097
-360,883	679,853	0,072	-0,134
-359,869	-200,000	-0,009	0,123
-358,854	325,740	-0,097	0,134
-357,839	-84,964	0,114	0,025
-356,825	-101,767	0,082	0,014
-355,810	47,177	-0,085	-0,057
-354,796	95,652	-0,073	0,060
-353,781	524,309	-0,060	-0,101
-352,766	-110,733	-0,035	-0,005
-351,752	-131,725	-0,057	0,005
-350,737	-71,416	0,111	0,030
-349,723	178,133	0,069	-0,073
-348,708	-26,559	0,041	-0,017
-347,693	800,000	-0,033	-0,073
-346,679	800,000	-0,043	-0,091
-345,664	-200,000	-0,018	0,097
-344,650	718,076	0,056	0,107
-343,635	800,000	-0,048	-0,128
-342,620	776,494	0,017	-0,033
-341,606	-51,466	-0,020	0,007
-340,591	800,000	-0,028	-0,075
-339,577	800,000	-0,007	-0,014
-338,562	-200,000	-0,014	0,109
-337,548	115,838	0,101	0,089
-336,533	-66,985	0,121	0,034
-335,518	43,921	0,112	0,073
-334,504	483,792	0,053	-0,087
-333,489	128,641	0,126	0,115
-332,475	-91,564	0,108	-0,022
-331,460	466,142	0,059	-0,094
-330,445	-39,605	-0,117	-0,044
-329,431	-7,329	0,062	0,030
-328,416	-200,000	-0,025	0,085
-327,402	-57,723	-0,127	-0,040
-326,387	-114,021	0,026	0,004
-325,372	-88,938	0,034	0,007
-324,358	-87,096	0,075	0,016
-323,343	-74,114	-0,076	-0,020
-322,329	-69,462	-0,128	0,035
-321,314	239,170	0,062	0,074
-320,299	654,103	-0,047	0,087
-319,285	579,954	0,027	0,047
-318,270	262,290	-0,133	-0,166
-317,256	312,616	0,053	0,071
-316,241	68,038	0,031	-0,023
-315,226	149,411	-0,045	0,044
-314,212	17,570	0,203	-0,115
-313,197	800,000	0,027	-0,071
-312,183	246,456	0,060	0,073
-311,168	217,038	-0,072	-0,082
-310,153	103,092	-0,038	-0,032
-309,139	-200,000	-0,020	0,070
-308,124	-58,230	0,021	0,006
-307,110	800,000	0,040	0,117
-306,095	-200,000	0,011	-0,063
-305,080	-133,281	0,016	-0,001
-304,066	-200,000	-0,003	-0,094
-303,051	-146,223	-0,122	0,008
-302,037	262,173	-0,080	-0,100
-301,022	244,081	-0,067	-0,081
-300,008	-11,562	0,044	-0,021
-298,993	64,287	0,040	-0,028
-297,978	-200,000	0,005	0,052
-296,964	-9,960	-0,014	0,007
-295,949	-7,946	-0,010	0,005
-294,935	-200,000	-0,033	-0,139
-293,920	117,098	0,075	-0,066
-292,905	385,530	0,034	0,051
-291,891	-200,000	-0,034	0,129
-290,876	-93,697	-0,150	-0,029
-289,862	-84,681	0,194	0,043
-288,847	-200,000	0,032	0,126
-287,832	106,415	0,105	-0,089
-286,818	-200,000	0,038	-0,165
-285,803	122,116	0,110	0,098
-284,789	64,539	-0,107	-0,077
-283,774	-200,000	0,004	0,141
-282,759	106,674	-0,109	0,092
-281,745	-172,335	0,063	0,001
-280,730	-2,637	-0,157	-0,079
-279,716	-137,223	-0,058	-0,005
-278,701	541,747	-0,065	-0,111
-277,686	-137,133	0,137	0,011
-276,672	233,085	-0,117	0,138
-275,657	325,619	0,044	-0,060
-274,643	21,544	-0,063	-0,037
-273,628	675,814	0,035	-0,065
-272,613	524,491	-0,011	-0,018
-271,599	325,350	-0,016	0,021
-270,584	800,000	0,037	0,104
-269,570	-130,828	0,124	0,012
-268,555	-37,036	-0,084	0,032
-267,540	599,737	0,004	-0,006
-266,526	-200,000	-0,013	-0,122
-265,511	-98,264	0,101	0,018
-264,497	-6,598	0,181	-0,088
-263,482	-90,364	0,029	0,006
-262,467	-200,000	0,004	0,047
-261,453	14,721	-0,038	0,021
-260,438	-200,000	0,006	-0,060
-259,424	-5,857	-0,071	-0,035
-258,409	-27,421	-0,058	0,024
-257,395	-200,000	0,017	0,058
-256,380	716,963	0,057	0,109
-255,365	-78,639	-0,047	0,011
-254,351	-200,000	-0,008	0,037
-253,336	800,000	-0,019	0,058
-252,322	331,747	0,032	-0,044
-251,307	-107,983	0,077	0,012
-250,292	-127,429	0,086	0,009
-249,278	-39,287	0,105	-0,039
-248,263	-200,000	0,001	0,042
-247,249	800,000	-0,040	0,082
-246,234	259,058	-0,025	-0,030
-245,219	800,000	-0,030	-0,094
-244,205	-133,352	0,089	-0,008
-243,190	345,608	0,055	0,077
-242,176	475,636	0,045	-0,072
-241,161	-0,943	0,022	0,011
-240,146	21,623	-0,046	-0,027
-239,132	-15,097	-0,052	-0,024
-238,117	800,000	0,083	-0,194
-237,103	309,236	-0,106	-0,142
-236,088	-200,000	-0,006	-0,019
-235,073	-200,000	0,049	-0,165
-234,059	-200,000	0,013	0,085
-233,044	177,572	-0,038	-0,040
-232,030	-200,000	0,012	-0,050
-231,015	-200,000	-0,004	-0,081
-230,000	-200,000	0,009	-0,099
-228,986	102,917	0,106	0,089
-227,971	61,240	-0,134	0,095
-226,957	-67,438	-0,035	0,010
-225,942	309,036	0,057	0,076
-224,927	-130,892	-0,104	0,010
-223,913	-200,000	-0,006	0,055
-222,898	-200,000	-0,002	-0,060
-221,884	-97,176	-0,071	-0,013
-220,869	-200,000	-0,003	0,038
-219,855	-89,725	0,103	0,021
-218,840	25,483	-0,033	0,020
-217,825	-95,296	-0,164	0,031
-216,811	660,722	0,053	0,098
-215,796	800,000	-0,061	-0,136
-214,782	-137,873	-0,117	-0,009
-213,767	-71,584	0,112	-0,030
-212,752	430,378	-0,026	0,040
-211,738	-168,891	-0,026	-0,001
-210,723	800,000	-0,051	-0,134
-209,709	-43,774	-0,126	-0,045
-208,694	800,000	-0,052	0,108
-207,679	-200,000	-0,013	0,127
-206,665	18,088	0,041	-0,023
-205,650	-65,813	0,111	-0,031
-204,636	-11,165	-0,065	0,031
-203,621	-200,000	-0,007	-0,048
-202,606	-126,495	-0,143	0,015
-201,592	-12,997	0,054	-0,025
-200,577	-200,000	-0,020	-0,070
-199,563	241,762	-0,088	-0,105
-198,548	800,000	0,018	0,046
-197,533	-200,000	0,003	-0,021
-196,519	800,000	0,044	0,132
-195,504	-200,000	-0,014	0,217
-194,490	-200,000	-0,050	-0,214
-193,475	-200,000	0,025	-0,185
-192,460	676,937	-0,022	0,042
-191,446	-141,184	0,088	0,006
-190,431	-200,000	-0,001	-0,119
-189,417	-196,737	0,126	-0,001
-188,402	309,853	-0,050	0,066
-187,387	64,020	-0,089	-0,064
-186,373	800,000	-0,052	-0,119
-185,358	-52,979	0,101	0,033
-184,344	122,161	0,093	-0,083
-183,329	675,436	-0,043	0,080
-182,315	800,000	0,037	-0,085
-181,300	-200,000	0,037	0,147
-180,285	-200,000	0,023	-0,149
-179,271	117,718	0,082	0,072
-178,256	800,000	0,024	-0,071
-177,242	-200,000	-0,004	-0,158
-176,227	-118,014	0,025	0,003
-175,212	138,010	0,044	0,042
-174,198	752,814	0,003	-0,007
-173,183	800,000	0,025	0,078
-172,169	800,000	0,028	-0,088
-171,154	-43,629	-0,193	-0,069
-170,139	-86,034	0,118	-0,026
-169,125	-200,000	-0,001	0,012
-168,110	-200,000	0,000	0,008
-167,096	28,081	0,014	0,009
-166,081	-200,000	-0,007	0,071
-165,066	126,739	0,075	-0,067
-164,052	800,000	-0,053	-0,110
-163,037	-200,000	-0,004	-0,069
-162,023	-200,000	0,003	-0,055
-161,008	-200,000	-0,008	0,045
-159,993	-200,000	0,013	0,099
-158,979	-200,000	0,028	0,091
-157,964	800,000	-0,011	-0,026
-156,950	800,000	-0,017	-0,042
-155,935	-200,000	0,021	0,078
-154,920	-200,000	-0,022	0,107
-153,906	231,652	-0,005	-0,006
-152,891	200,347	0,077	0,085
-151,877	-68,977	-0,085	0,023
-150,862	800,000	-0,076	-0,154
-149,847	641,108	-0,044	0,079
-148,833	-27,781	-0,138	-0,057
-147,818	415,072	-0,053	0,081
-146,804	-200,000	-0,024	0,218
-145,789	215,130	-0,057	0,064
-144,775	-200,000	-0,014	-0,089
-143,760	257,901	-0,079	-0,097
-142,745	-107,484	-0,129	0,020
-141,731	-81,187	-0,066	0,015
-140,716	800,000	0,039	-0,122
-139,702	250,961	0,139	0,168
-138,687	213,396	-0,117	0,132
-137,672	-200,000	-0,040	0,164
-136,658	800,000	-0,041	-0,109
-135,643	256,069	-0,026	-0,032
-134,629	-42,885	-0,104	-0,037
-133,614	753,089	-0,019	-0,036
-132,599	-200,000	-0,029	0,116
-131,585	-200,000	0,038	0,136
-130,570	-43,850	-0,048	0,017
-129,556	-78,460	-0,142	-0,034
-128,541	-125,960	0,028	-0,003
-127,526	103,660	0,079	-0,066
-126,512	-200,000	0,014	0,053
-125,497	45,055	0,126	0,082
-124,483	19,494	0,011	-0,007
-123,468	-200,000	-0,005	0,060
-122,453	-200,000	0,005	-0,031
-121,439	190,725	-0,083	-0,089
-120,424	69,071	-0,061	0,044
-119,410	-36,327	0,108	-0,041
-118,395	208,113	0,026	0,029
-117,380	532,870	0,091	0,154
-116,366	531,859	-0,064	0,108
-115,351	307,311	0,026	0,034
-114,337	-200,000	0,004	0,047
-113,322	188,889	0,082	0,088
-112,307	-200,000	-0,003	-0,249
-111,293	751,717	-0,093	0,180
-110,278	240,952	0,035	-0,041
-109,264	419,079	-0,047	0,071
-108,249	524,684	-0,070	-0,117
-107,234	-200,000	-0,026	-0,119
-106,220	-184,173	-0,128	0,001
-105,205	-200,000	0,013	0,107
-104,191	512,468	0,042	0,070
-103,176	257,471	-0,055	0,068
-102,162	16,971	-0,133	0,075
-101,147	800,000	0,017	0,044
-100,132	800,000	-0,066	-0,147
-99,118	800,000	0,019	-0,058
-98,103	66,812	0,022	0,016
-97,089	61,783	0,033	-0,023
-96,074	-94,232	-0,058	0,011
-95,059	-200,000	-0,016	0,184
-94,045	-176,648	0,026	-0,000
-93,030	-43,130	-0,058	0,021
-92,016	407,452	-0,064	-0,097
-91,001	-138,802	0,054	0,004
-89,986	623,283	-0,044	-0,080
-88,972	-200,000	0,004	0,061
-87,957	800,000	0,016	-0,048
-86,943	-200,000	-0,001	-0,170
-85,928	405,433	-0,042	-0,064
-84,913	-23,818	-0,101	0,043
-83,899	428,105	-0,043	-0,067
-82,884	318,455	-0,020	-0,027
-81,870	21,725	0,027	-0,016
-80,855	800,000	-0,044	0,107
-79,840	-200,000	0,004	-0,044
-78,826	800,000	0,058	0,114
-77,811	-46,965	0,099	-0,034
-76,797	364,586	0,057	0,081
-75,782	-200,000	-0,038	0,131
-74,767	800,000	-0,050	0,105
-73,753	-200,000	-0,005	-0,020
-72,738	-30,282	-0,150	0,060
-71,724	459,862	-0,050	-0,079
-70,709	-200,000	0,004	-0,112
-69,694	800,000	0,009	0,025
-68,680	74,192	0,120	0,090
-67,665	-200,000	-0,032	0,106
-66,651	-200,000	-0,019	0,089
-65,636	-131,342	0,074	0,007
-64,622	-200,000	0,023	-0,113
-63,607	-10,288	0,079	0,037
-62,592	142,200	-0,102	0,096
-61,578	-167,055	0,117	0,003
-60,563	59,939	-0,052	-0,036
-59,549	-22,983	-0,124	0,053
-58,534	-50,984	-1,401	-0,464
-57,519	311,416	-1,575	-2,099
-56,505	-200,000	-0,653	-4,501
-55,490	215,137	0,946	1,065
-54,476	800,000	4,711	10,813
-53,461	-200,000	17,896	285,687
-52,446	800,000	723,617	2231,795
-51,432	561,199	1638,727	2819,311
-50,417	80,490	1661,903	1267,716
-49,403	23,480	1535,740	893,087
-48,388	17,456	1459,170	819,435
-47,373	18,082	1448,832	816,606
-46,359	17,674	1439,238	809,220
-45,344	15,752	1434,713	797,483
-44,330	15,699	1432,714	796,090
-43,315	15,729	1430,990	795,242
-42,300	15,719	1429,335	794,245
-41,286	15,758	1428,237	793,787
-40,271	15,699	1427,178	792,887
-39,257	15,705	1425,759	792,095
-38,242	15,727	1424,603	791,526
-37,227	15,731	1423,326	790,803
-36,213	15,710	1421,946	789,910
-35,198	15,715	1420,679	789,197
-34,184	15,731	1419,895	788,804
-33,169	15,713	1418,631	787,984
-32,154	15,730	1417,642	787,485
-31,140	15,733	1416,126	786,627
-30,125	15,781	1414,950	786,167
-29,111	15,731	1413,948	785,344
-28,096	15,687	1412,959	784,560
-27,082	15,642	1411,751	783,643
-26,067	15,606	1410,706	782,863
-25,052	15,691	1409,713	782,681
-24,038	15,639	1408,706	781,850
-23,023	15,620	1407,631	781,131
-22,009	15,666	1406,486	780,682
-20,994	15,589	1405,732	779,872
-19,979	15,611	1404,669	779,353
-18,965	15,581	1403,821	778,713
-17,950	15,611	1402,705	778,203
-16,936	15,557	1402,066	777,566
-15,921	15,537	1400,564	776,607
-14,906	15,522	1399,628	775,986
-13,892	15,588	1398,552	775,665
-12,877	15,563	1397,937	775,181
-11,863	15,587	1396,851	774,658
-10,848	15,523	1396,080	773,904
-9,833	15,540	1395,064	773,386
-8,819	15,466	1394,139	772,502
-7,804	15,471	1393,215	771,983
-6,790	15,459	1392,242	771,355
-5,775	15,425	1391,358	770,680
-4,760	15,445	1390,417	770,220
-3,746	15,433	1389,739	769,756
-2,731	15,478	1388,609	769,311
-1,717	15,451	1387,878	768,749
-0,702	15,454	1385,944	767,659
0,313	19,148	1306,064	740,522
1,327	35,266	707,113	438,314
2,342	54,199	125,069	85,126
3,356	2,873	16,611	8,514
4,371	9,698	3,076	1,647
5,386	-0,630	0,513	0,257
6,400	-200,000	0,003	0,155
7,415	307,908	-0,252	-0,334
8,429	10,537	-0,270	-0,145
9,444	8,902	-0,289	-0,154
10,459	8,548	-0,337	-0,179
11,473	-67,819	-0,293	-0,080
12,488	-77,442	-0,263	-0,064
13,502	3,806	-0,380	-0,196
14,517	-9,187	-0,309	-0,146
15,531	240,850	-0,238	-0,281
16,546	0,118	-0,376	-0,189
17,561	-53,595	-0,443	-0,142
18,575	-42,178	-0,152	-0,055
19,590	-8,078	-0,304	-0,144
20,604	-37,577	-0,238	-0,089
21,619	85,895	-0,375	-0,291
22,634	180,466	-0,350	-0,363
23,648	57,028	-0,488	-0,336
24,663	157,491	-0,311	-0,304
25,677	28,858	-0,354	-0,212
26,692	32,368	-0,415	-0,252
27,707	118,702	-0,358	-0,313
28,721	85,459	-0,399	-0,310
29,736	137,690	-0,365	-0,338
30,750	9,703	-0,289	-0,154
31,765	135,623	-0,344	-0,317
32,780	257,576	-0,314	-0,383
33,794	50,164	-0,434	-0,289
34,809	27,819	-0,330	-0,196
35,823	126,381	-0,304	-0,271
36,838	242,627	-0,293	-0,347
37,853	23,462	-0,417	-0,241
38,867	98,807	-0,366	-0,298
39,882	144,397	-0,269	-0,254
40,896	23,485	-0,393	-0,228
41,911	157,142	-0,295	-0,288
42,926	-28,637	-0,428	-0,173
43,940	-7,597	-0,396	-0,188
44,955	217,607	-0,425	-0,479
45,969	86,660	-0,266	-0,207
46,984	-33,035	-0,416	-0,162
47,999	-54,000	-0,324	-0,104
49,013	64,663	-0,317	-0,226
50,028	-14,524	-0,350	-0,158
51,042	-27,813	-0,440	-0,179
52,057	149,906	-0,235	-0,225
53,071	87,828	-0,343	-0,268
54,086	70,850	-0,282	-0,206
55,101	130,882	-0,296	-0,268
56,115	111,689	-0,272	-0,231
57,130	39,631	-0,371	-0,234
58,144	-40,761	-0,390	-0,142
59,159	177,502	-0,284	-0,292
60,174	42,973	-0,341	-0,219
61,188	-55,643	-0,333	-0,104
62,203	-66,971	-0,327	-0,090
63,217	7,019	-0,273	-0,143
64,232	-29,012	-0,377	-0,152
65,247	-8,512	-0,334	-0,157
66,261	42,921	-0,359	-0,230
67,276	370,325	-0,242	-0,347
68,290	-8,733	-0,382	-0,180
69,305	-27,434	-0,379	-0,154
70,320	139,140	-0,338	-0,313
71,334	-10,806	-0,306	-0,142
72,349	34,129	-0,418	-0,256
73,363	47,044	-0,323	-0,211
74,378	385,596	-0,267	-0,389
75,393	-101,184	-0,309	-0,053
76,407	9,629	-0,326	-0,173
77,422	-34,606	-0,354	-0,136
78,436	6,652	-0,306	-0,160
79,451	-82,198	-0,254	-0,058
80,466	39,055	-0,266	-0,167
81,480	146,311	-0,312	-0,295
82,495	-3,266	-0,361	-0,176
83,509	34,184	-0,275	-0,168
84,524	-169,344	-0,259	0,007
85,539	39,476	-0,315	-0,198
86,553	-34,401	-0,424	-0,163
87,568	83,999	-0,328	-0,252
88,582	360,773	-0,188	-0,265
89,597	-55,396	-0,375	-0,117
90,611	-149,447	-0,245	-0,013
91,626	-59,057	-0,291	-0,088
92,641	8,175	-0,181	-0,095
93,655	-37,116	-0,319	-0,119
94,670	156,426	-0,340	-0,330
95,684	188,725	-0,195	-0,206
96,699	-128,994	-0,167	-0,016
97,714	252,824	-0,136	-0,163
98,728	-6,458	-0,265	-0,126
99,743	165,985	-0,222	-0,221
100,757	-112,848	-0,177	-0,024
101,772	-1,065	-0,353	-0,175
102,787	1,589	-0,299	-0,151
103,801	137,628	-0,336	-0,309
104,816	93,087	-0,216	-0,171
105,830	-105,333	-0,212	-0,034
106,845	104,244	-0,149	-0,123
107,860	-24,484	-0,263	-0,109
108,874	111,220	-0,201	-0,170
109,889	440,301	-0,237	-0,365
110,903	177,118	-0,193	-0,197
111,918	189,800	-0,269	-0,283
112,933	55,521	-0,258	-0,175
113,947	149,733	-0,266	-0,253
114,962	179,576	-0,198	-0,204
115,976	-43,557	-0,303	-0,107
116,991	79,526	-0,261	-0,196
118,006	10,756	-0,357	-0,191
119,020	303,182	-0,181	-0,236
120,035	800,000	-0,083	-0,222
121,049	-182,179	-0,323	-0,004
122,064	373,629	-0,135	-0,194
123,079	113,727	-0,173	-0,147
124,093	96,095	-0,382	-0,306
125,108	297,063	-0,163	-0,210
126,122	-3,177	-0,346	-0,169
127,137	296,276	-0,119	-0,153
128,151	-1,988	-0,202	-0,099
129,166	18,943	-0,149	-0,083
130,181	142,004	-0,232	-0,216
131,195	-5,393	-0,256	-0,123
132,210	9,425	-0,278	-0,147
133,224	181,141	-0,244	-0,252
134,239	84,008	-0,212	-0,162
135,254	277,889	-0,191	-0,239
136,268	-85,691	-0,221	-0,048
137,283	-51,727	-0,326	-0,106
138,297	28,787	-0,307	-0,181
139,312	49,705	-0,399	-0,263
140,327	422,242	-0,218	-0,328
141,341	670,232	-0,164	-0,299
142,356	-1,415	-0,218	-0,107
143,370	17,735	-0,358	-0,199
144,385	248,132	-0,200	-0,237
145,400	183,808	-0,202	-0,210
146,414	19,490	-0,327	-0,184
147,429	22,735	-0,210	-0,120
148,443	124,242	-0,169	-0,148
149,458	349,082	-0,158	-0,219
150,473	88,358	-0,276	-0,214
151,487	647,636	-0,183	-0,329
152,502	424,467	-0,224	-0,337
153,516	12,121	-0,295	-0,158
154,531	419,455	-0,191	-0,287
155,546	149,501	-0,244	-0,231
156,560	47,181	-0,187	-0,122
157,575	38,584	-0,186	-0,115
158,589	332,786	-0,232	-0,313
159,604	147,519	-0,186	-0,175
160,619	45,959	-0,286	-0,185
161,633	105,793	-0,275	-0,227
162,648	110,518	-0,146	-0,122
163,662	-200,000	-0,036	-0,170
164,677	27,367	-0,184	-0,108
165,692	2,045	-0,265	-0,133
166,706	-55,656	-0,191	-0,059
167,721	114,369	-0,309	-0,262
168,735	50,964	-0,280	-0,185
169,750	-126,711	-0,108	-0,011
170,764	371,254	-0,210	-0,298
171,779	-35,469	-0,298	-0,113
172,794	-108,292	-0,247	-0,037
173,808	496,877	-0,170	-0,274
174,823	60,694	-0,335	-0,231
175,837	92,019	-0,241	-0,189
176,852	-12,078	-0,310	-0,141
177,867	16,359	-0,270	-0,148
178,881	259,533	-0,144	-0,174
179,896	121,781	-0,219	-0,190
180,910	117,092	-0,192	-0,165
181,925	33,253	-0,227	-0,137
182,940	39,787	-0,228	-0,142
183,954	208,771	-0,164	-0,179
184,969	-72,446	-0,339	-0,087
185,983	-104,562	-0,072	0,012
186,998	170,022	-0,132	-0,131
188,013	480,340	-0,087	-0,138
189,027	273,548	-0,128	-0,158
190,042	9,932	-0,274	-0,145
191,056	339,536	-0,174	-0,237
192,071	372,878	-0,153	-0,218
193,086	-61,364	-0,254	-0,074
194,100	-146,595	-0,304	-0,018
195,115	-35,847	-0,252	-0,094
196,129	101,362	-0,213	-0,173
197,144	798,135	-0,121	-0,233
198,159	66,114	-0,355	-0,251
199,173	-8,918	-0,192	-0,089
200,188	119,616	-0,200	-0,172
201,202	86,403	-0,253	-0,194
202,217	325,268	-0,144	-0,193
203,232	151,824	-0,234	-0,222
204,246	208,147	-0,180	-0,196
205,261	225,098	-0,124	-0,140
206,275	-199,553	-0,197	-0,001
207,290	800,000	-0,059	-0,122
208,304	187,998	-0,091	-0,095
209,319	-32,997	-0,249	-0,096
210,334	37,031	-0,096	-0,059
211,348	117,718	-0,238	-0,204
212,363	81,426	-0,218	-0,164
213,377	800,000	-0,123	-0,266
214,392	158,540	-0,202	-0,195
215,407	-151,718	-0,191	-0,010
216,421	-200,000	-0,020	-0,189
217,436	111,380	-0,103	-0,086
218,450	203,503	-0,244	-0,262
219,465	-68,575	-0,233	-0,062
220,480	172,160	-0,148	-0,148
221,494	72,290	-0,203	-0,147
222,509	144,383	-0,098	-0,091
223,523	114,871	-0,212	-0,179
224,538	-120,002	-0,219	0,026
225,553	-159,698	-0,261	0,010
226,567	120,302	-0,282	-0,243
227,582	-200,000	-0,059	-0,230
228,596	85,308	-0,163	-0,124
229,611	289,455	-0,085	-0,107
230,626	-27,062	-0,086	-0,035
231,640	171,679	-0,180	-0,180
232,655	292,129	-0,131	-0,167
233,669	144,295	-0,209	-0,194
234,684	-51,284	-0,204	-0,066
235,699	-17,050	-0,213	-0,093
236,713	477,725	-0,118	-0,185
237,728	-115,553	-0,066	-0,009
238,742	20,479	-0,275	-0,154
239,757	61,207	-0,200	-0,138
240,772	57,018	-0,221	-0,150
241,786	800,000	-0,116	-0,261
242,801	341,774	-0,094	-0,128
243,815	334,016	-0,070	-0,094
244,830	153,549	-0,167	-0,159
245,844	158,104	-0,154	-0,149
246,859	-13,320	-0,194	-0,087
247,874	91,328	-0,175	-0,136
248,888	91,190	-0,211	-0,164
249,903	140,694	-0,072	-0,066
250,917	800,000	0,026	-0,058
251,932	203,305	-0,200	-0,215
252,947	38,231	-0,139	-0,086
253,961	305,529	-0,091	-0,117
254,976	156,980	-0,179	-0,171
255,990	226,140	-0,204	-0,229
257,005	800,000	-0,092	-0,246
258,020	47,108	-0,065	-0,042
259,034	64,410	-0,140	-0,098
260,049	556,892	-0,082	-0,137
261,063	-113,108	-0,338	-0,046
262,078	130,764	-0,246	-0,219
263,093	183,813	-0,208	-0,213
264,107	253,243	-0,192	-0,228
265,122	-44,247	-0,170	-0,059
266,136	800,000	-0,047	-0,098
267,151	-30,785	-0,243	-0,095
268,166	61,818	-0,131	-0,090
269,180	-30,155	-0,280	-0,110
270,195	800,000	-0,088	-0,189
271,209	-30,627	-0,202	-0,079
272,224	68,122	-0,144	-0,102
273,239	800,000	-0,072	-0,143
274,253	733,198	-0,075	-0,140
275,268	-122,302	-0,091	0,010
276,282	-78,184	-0,250	-0,059
277,297	66,972	-0,129	-0,091
278,312	-200,000	-0,005	-0,100
279,326	221,456	-0,136	-0,151
280,341	348,331	-0,197	-0,269
281,355	797,982	-0,126	-0,241
282,370	-200,000	0,012	-0,171
283,384	29,165	-0,267	-0,156
284,399	57,349	-0,328	-0,221
285,414	213,165	-0,171	-0,187
286,428	2,072	-0,061	-0,030
287,443	150,613	-0,207	-0,194
288,457	714,316	-0,091	-0,167
289,472	283,584	-0,117	-0,145
290,487	31,235	-0,219	-0,130
291,501	58,444	-0,198	-0,134
292,516	800,000	-0,067	-0,189
293,530	800,000	-0,113	-0,227
294,545	599,102	-0,118	-0,202
295,560	38,313	-0,130	-0,080
296,574	167,933	-0,141	-0,139
297,589	-37,486	-0,143	-0,053
298,603	79,752	-0,242	-0,179
299,618	-25,687	-0,142	-0,058
300,633	-90,509	-0,278	-0,055
301,647	52,398	-0,144	-0,095
302,662	-193,877	-0,096	-0,001
303,676	-93,665	-0,152	-0,029
304,691	-42,672	-0,261	-0,091
305,706	29,358	-0,201	-0,118
306,720	-7,812	-0,246	-0,114
307,735	244,585	-0,157	-0,182
308,749	23,352	-0,033	-0,019
309,764	759,635	-0,045	-0,084
310,779	201,609	-0,134	-0,143
311,793	333,817	-0,074	-0,100
312,808	147,978	-0,130	-0,121
313,822	-200,000	0,021	-0,309
314,837	136,281	-0,158	-0,142
315,852	481,268	-0,172	-0,271
316,866	-55,482	-0,238	-0,073
317,881	2,280	-0,219	-0,109
318,895	392,753	-0,096	-0,138
319,910	255,675	-0,121	-0,143
320,925	3,881	-0,217	-0,109
321,939	141,757	-0,112	-0,102
322,954	85,661	-0,204	-0,154
323,968	192,294	-0,131	-0,137
324,983	207,649	-0,151	-0,163
325,997	193,046	-0,157	-0,164
327,012	-200,000	-0,031	-0,296
328,027	43,847	-0,097	-0,061
329,041	39,917	-0,210	-0,129
330,056	111,875	-0,107	-0,089
331,070	446,618	-0,063	0,096
332,085	800,000	-0,061	-0,156
333,100	-51,088	-0,208	-0,067
334,114	800,000	-0,074	-0,198
335,129	52,775	-0,118	0,078
336,143	117,484	-0,121	-0,103
337,158	-184,534	-0,238	-0,003
338,173	315,030	-0,072	0,094
339,187	3,032	-0,098	-0,049
340,202	193,882	-0,076	-0,079
341,216	20,280	-0,163	-0,090
342,231	800,000	-0,096	-0,221
343,246	164,349	-0,200	-0,194
344,260	90,388	-0,244	-0,187
345,275	90,725	-0,222	-0,171
346,289	-200,000	-0,006	-0,133
347,304	800,000	-0,060	-0,117
348,319	-23,232	-0,190	-0,078
349,333	319,784	-0,129	-0,168
350,348	40,950	-0,119	-0,074
351,362	-87,589	-0,112	0,023
352,377	148,948	-0,167	-0,156
353,392	61,345	-0,147	-0,100
354,406	-20,772	-0,153	0,064
355,421	209,375	1314,707	1416,568
356,435	161,140	1475,459	1417,082
