DTS Sentinel unit serial number:	SN410029Multiplexer serial number:	ORYXHardware model number:	OX2-SRSoftware version number:	ORYX F/W v4,00 Oryx Data Collector v3.7.2.0data status	okinstallation	B3 Nyhavnadifferential loss correction	single-endedforward channel	channel 1reverse channel	N/Adate	2023/12/03time	14:22:30forward acquisition time	300,00reverse acquisition time	0,00gamma	499,1914k internal	0,3198k external	0,3198temperature offset calibration	1,0000default loss term (dB/km)	0,3820temperature slope calibration	1,0000multiplexer offset coefficient	1,0000multiplexer slope coefficient	1,0000fibre end	0,00T internal ref (°C)	15,78T ext. ref 1 (°C)	1,45T ext. ref 2 (°C)	1,46length (m)	temperature (°C)	Stokes	anti-Stokes-744,400	291,027	-0,188	-0,250
-743,385	-200,000	0,015	0,425
-742,371	241,016	-0,106	-0,129
-741,356	-200,000	0,083	0,304
-740,342	-50,262	-0,241	-0,082
-739,327	800,000	0,181	0,414
-738,312	-61,961	-0,266	-0,080
-737,298	-200,000	-0,054	0,352
-736,283	110,850	-0,249	-0,218
-735,269	-200,000	0,028	0,294
-734,254	369,527	-0,192	-0,283
-733,239	150,973	-0,122	0,121
-732,225	-3,715	-0,157	-0,079
-731,210	80,509	0,103	0,081
-730,196	-114,319	0,070	0,010
-729,181	-200,000	0,013	-0,070
-728,167	-157,375	-0,072	-0,003
-727,152	53,780	0,047	-0,033
-726,137	212,247	-0,092	-0,105
-725,123	368,428	0,068	-0,100
-724,108	-200,000	0,008	-0,101
-723,094	527,948	-0,066	-0,114
-722,079	800,000	-0,076	-0,163
-721,064	511,290	-0,014	-0,023
-720,050	-200,000	0,002	0,130
-719,035	49,446	0,032	0,022
-718,021	406,584	-0,060	-0,093
-717,006	108,716	-0,035	0,031
-715,991	-200,000	-0,023	0,092
-714,977	97,634	-0,029	-0,024
-713,962	-44,517	0,031	0,011
-712,948	-200,000	-0,026	-0,151
-711,933	-38,207	-0,125	-0,048
-710,918	14,386	0,095	0,054
-709,904	-95,240	0,054	-0,011
-708,889	643,159	0,033	-0,062
-707,875	11,522	-0,064	0,036
-706,860	-99,217	-0,080	-0,015
-705,845	-200,000	0,006	0,056
-704,831	-144,466	0,133	-0,009
-703,816	-200,000	0,007	-0,036
-702,802	-200,000	-0,005	-0,093
-701,787	673,767	-0,061	-0,116
-700,772	800,000	-0,050	-0,122
-699,758	-120,207	0,116	-0,014
-698,743	361,688	0,076	-0,111
-697,729	-200,000	0,016	0,059
-696,714	-125,161	-0,006	-0,001
-695,699	-71,527	0,085	0,023
-694,685	-133,152	-0,066	-0,006
-693,670	139,428	-0,089	-0,085
-692,656	800,000	0,028	-0,057
-691,641	-67,528	-0,041	0,011
-690,627	304,984	-0,026	-0,035
-689,612	31,957	-0,069	-0,043
-688,597	116,371	0,087	0,078
-687,583	296,557	-0,083	-0,110
-686,568	421,542	0,045	-0,071
-685,554	623,603	-0,025	-0,047
-684,539	382,651	-0,060	0,090
-683,524	163,063	0,085	0,086
-682,510	325,716	-0,035	-0,049
-681,495	-200,000	-0,012	-0,090
-680,481	138,202	-0,054	-0,052
-679,466	-39,068	0,151	-0,058
-678,451	800,000	0,030	-0,091
-677,437	95,411	-0,019	-0,016
-676,422	-200,000	0,050	0,204
-675,408	44,888	0,056	-0,037
-674,393	-77,429	-0,022	0,006
-673,378	161,627	-0,003	-0,003
-672,364	-149,417	-0,068	-0,004
-671,349	-200,000	-0,024	-0,084
-670,335	800,000	-0,030	0,076
-669,320	-79,482	-0,010	-0,002
-668,305	235,383	0,088	-0,105
-667,291	-61,456	0,100	-0,030
-666,276	-200,000	0,006	-0,057
-665,262	-200,000	0,005	-0,054
-664,247	125,732	-0,045	-0,041
-663,232	-157,170	0,037	-0,002
-662,218	-4,158	0,115	0,058
-661,203	166,324	-0,011	0,011
-660,189	497,895	-0,075	-0,126
-659,174	390,101	-0,054	-0,082
-658,159	-200,000	-0,007	-0,034
-657,145	800,000	-0,025	-0,080
-656,130	-200,000	-0,001	-0,042
-655,116	-200,000	-0,005	0,086
-654,101	75,228	-0,052	-0,040
-653,086	800,000	-0,014	0,035
-652,072	630,129	0,044	-0,081
-651,057	800,000	-0,036	-0,106
-650,043	-200,000	0,002	0,125
-649,028	-124,935	-0,089	-0,010
-648,014	-155,656	0,193	-0,009
-646,999	427,896	-0,034	-0,054
-645,984	-200,000	0,003	0,054
-644,970	800,000	0,077	-0,205
-643,955	-200,000	0,006	-0,122
-642,941	46,137	-0,089	-0,060
-641,926	-172,920	0,124	0,003
-640,911	215,943	-0,033	-0,038
-639,897	-200,000	-0,003	-0,022
-638,882	-200,000	-0,014	0,076
-637,868	509,719	0,013	-0,022
-636,853	-129,787	0,063	0,006
-635,838	326,936	-0,085	-0,119
-634,824	596,443	-0,020	-0,036
-633,809	-50,486	0,076	0,026
-632,795	68,096	0,153	0,114
-631,780	-72,613	-0,087	-0,023
-630,765	800,000	-0,036	0,095
-629,751	-25,325	-0,138	0,059
-628,736	121,144	-0,140	-0,126
-627,722	578,347	0,049	-0,087
-626,707	-135,755	0,053	-0,005
-625,692	800,000	-0,045	0,099
-624,678	410,905	0,072	-0,111
-623,663	48,977	-0,138	0,094
-622,649	-200,000	0,014	-0,120
-621,634	-200,000	-0,023	-0,115
-620,619	171,704	0,026	-0,027
-619,605	229,149	0,053	-0,063
-618,590	-56,778	0,089	0,028
-617,576	-103,963	-0,123	-0,021
-616,561	-104,740	0,024	0,004
-615,546	-200,000	0,002	-0,035
-614,532	-200,000	-0,013	-0,230
-613,517	-63,181	-0,061	-0,018
-612,503	4,242	-0,073	-0,039
-611,488	-180,177	0,090	0,001
-610,474	800,000	0,064	0,164
-609,459	66,039	0,063	-0,047
-608,444	103,236	-0,112	0,095
-607,430	110,798	0,062	0,054
-606,415	39,292	-0,077	0,050
-605,401	-200,000	-0,005	0,126
-604,386	-200,000	0,011	0,054
-603,371	219,373	-0,042	0,049
-602,357	307,352	0,114	0,155
-601,342	-22,582	-0,057	-0,025
-600,328	52,136	-0,137	0,095
-599,313	239,202	-0,063	0,076
-598,298	-200,000	0,061	0,212
-597,284	751,877	0,030	0,059
-596,269	312,177	0,130	0,177
-595,255	121,693	0,045	0,040
-594,240	-45,968	-0,079	0,028
-593,225	800,000	0,048	-0,140
-592,211	31,995	-0,040	-0,025
-591,196	794,880	0,087	0,174
-590,182	77,291	0,063	0,048
-589,167	12,682	0,062	0,035
-588,152	259,749	0,034	0,042
-587,138	357,732	-0,055	-0,079
-586,123	168,656	-0,070	0,072
-585,109	800,000	0,003	0,007
-584,094	659,639	-0,063	-0,117
-583,079	85,332	0,074	-0,059
-582,065	-200,000	-0,009	-0,052
-581,050	-200,000	0,007	0,034
-580,036	233,191	0,066	-0,079
-579,021	-110,811	-0,063	-0,009
-578,006	800,000	0,027	-0,066
-576,992	800,000	-0,018	-0,051
-575,977	-77,357	-0,067	-0,017
-574,963	-200,000	-0,012	-0,040
-573,948	-95,643	0,101	0,019
-572,934	5,678	0,066	0,035
-571,919	-101,751	-0,084	-0,015
-570,904	-200,000	0,021	-0,209
-569,890	140,852	-0,126	0,120
-568,875	-78,023	0,178	0,044
-567,861	-82,081	0,044	-0,010
-566,846	42,715	0,021	0,014
-565,831	800,000	-0,014	-0,036
-564,817	126,688	-0,056	-0,051
-563,802	-200,000	-0,029	-0,123
-562,788	-175,846	-0,122	0,002
-561,773	-200,000	0,003	-0,088
-560,758	206,625	-0,086	0,096
-559,744	536,059	0,066	0,113
-558,729	747,822	-0,031	0,060
-557,715	-49,913	0,070	0,024
-556,700	-125,181	-0,058	-0,006
-555,685	166,803	0,073	0,075
-554,671	-200,000	0,001	-0,024
-553,656	-53,499	0,102	0,034
-552,642	69,599	-0,252	0,187
-551,627	131,079	0,054	-0,050
-550,612	-46,235	0,102	-0,036
-549,598	800,000	-0,085	-0,195
-548,583	491,723	0,022	0,037
-547,569	234,449	0,010	-0,012
-546,554	437,525	0,003	-0,004
-545,539	240,954	-0,075	-0,091
-544,525	39,736	0,090	-0,058
-543,510	-200,000	0,004	-0,154
-542,496	800,000	0,055	-0,131
-541,481	-101,772	-0,047	0,008
-540,466	-200,000	0,025	0,106
-539,452	5,913	0,042	0,022
-538,437	209,371	-0,059	0,067
-537,423	-200,000	-0,014	0,095
-536,408	-46,769	-0,065	0,023
-535,393	800,000	0,061	-0,133
-534,379	-200,000	0,001	0,012
-533,364	236,193	-0,063	-0,076
-532,350	765,904	0,038	-0,074
-531,335	-200,000	-0,027	0,137
-530,321	589,438	-0,032	0,056
-529,306	-200,000	0,012	0,111
-528,291	366,729	-0,033	-0,048
-527,277	126,621	-0,055	-0,050
-526,262	183,990	-0,025	0,027
-525,248	800,000	-0,041	-0,115
-524,233	511,815	0,034	0,057
-523,218	800,000	0,026	0,058
-522,204	-57,142	-0,161	-0,051
-521,189	242,973	-0,082	0,099
-520,175	-200,000	0,001	-0,123
-519,160	41,717	-0,092	-0,060
-518,145	9,922	-0,063	-0,034
-517,131	-1,803	0,086	0,043
-516,116	-200,000	-0,055	0,000
-515,102	-67,992	-0,089	-0,025
-514,087	17,314	-0,164	-0,094
-513,072	28,175	-0,127	-0,077
-512,058	-7,488	-0,072	-0,035
-511,043	250,730	0,080	-0,099
-510,029	20,695	-0,032	0,019
-509,014	183,600	-0,082	-0,087
-507,999	-112,441	-0,046	0,007
-506,985	-93,904	0,079	0,016
-505,970	-200,000	0,002	0,018
-504,956	-39,401	-0,050	0,019
-503,941	-115,023	0,083	-0,011
-502,926	276,503	0,061	0,078
-501,912	-31,787	0,140	0,056
-500,897	-26,574	0,063	-0,026
-499,883	-49,068	0,071	0,024
-498,868	-200,000	-0,022	0,258
-497,853	-0,713	-0,119	-0,061
-496,839	-58,385	-0,114	-0,036
-495,824	161,570	0,040	0,041
-494,810	151,074	-0,044	-0,043
-493,795	-21,058	0,083	0,036
-492,781	183,099	-0,019	-0,020
-491,766	-200,000	0,015	-0,054
-490,751	-82,389	-0,028	-0,007
-489,737	800,000	-0,035	-0,081
-488,722	260,498	0,033	0,041
-487,708	-200,000	0,023	-0,157
-486,693	237,789	0,056	-0,067
-485,678	488,104	0,031	-0,051
-484,664	-22,833	-0,097	0,042
-483,649	-200,000	-0,007	0,044
-482,635	-99,868	0,050	-0,009
-481,620	-15,696	0,017	0,008
-480,605	-73,811	-0,074	-0,019
-479,591	-58,972	0,055	0,017
-478,576	800,000	0,021	-0,066
-477,562	262,972	0,020	0,025
-476,547	204,255	-0,020	-0,022
-475,532	-200,000	-0,004	-0,028
-474,518	-200,000	0,023	-0,074
-473,503	48,929	0,045	0,030
-472,489	-200,000	-0,036	0,170
-471,474	213,288	0,056	-0,064
-470,459	-200,000	0,007	-0,070
-469,445	0,503	-0,168	-0,086
-468,430	120,326	0,110	-0,099
-467,416	-18,316	-0,042	0,019
-466,401	201,136	-0,076	0,084
-465,386	592,018	0,017	-0,030
-464,372	118,351	-0,025	-0,022
-463,357	-66,499	-0,053	0,015
-462,343	370,785	0,024	-0,034
-461,328	33,598	0,105	-0,065
-460,313	290,494	0,047	0,062
-459,299	800,000	0,060	0,124
-458,284	759,997	-0,078	0,154
-457,270	800,000	-0,046	0,096
-456,255	238,626	0,024	0,029
-455,241	646,429	0,030	-0,056
-454,226	-200,000	-0,096	0,000
-453,211	-70,281	0,073	0,020
-452,197	136,778	0,140	0,132
-451,182	322,773	0,018	-0,025
-450,168	250,050	-0,052	0,063
-449,153	115,058	-0,089	-0,078
-448,138	521,810	-0,035	0,059
-447,124	19,774	0,097	0,056
-446,109	-200,000	0,035	0,204
-445,095	-200,000	-0,038	-0,162
-444,080	-90,277	0,023	0,005
-443,065	-200,000	0,017	-0,144
-442,051	125,987	-0,068	0,062
-441,036	-200,000	0,020	-0,086
-440,022	296,030	-0,022	-0,029
-439,007	-77,693	0,048	0,012
-437,992	239,221	-0,079	0,095
-436,978	-3,372	0,141	0,070
-435,963	-200,000	-0,007	0,075
-434,949	432,564	-0,065	0,102
-433,934	208,282	0,067	-0,075
-432,919	800,000	0,009	-0,018
-431,905	180,740	-0,028	0,030
-430,890	61,329	0,130	0,093
-429,876	570,745	-0,017	0,029
-428,861	-200,000	0,008	0,054
-427,846	-200,000	0,003	-0,102
-426,832	410,203	-0,059	0,090
-425,817	-200,000	-0,003	-0,042
-424,803	-200,000	0,023	-0,075
-423,788	-200,000	-0,031	0,106
-422,773	800,000	0,022	0,050
-421,759	21,756	0,071	-0,042
-420,744	-200,000	-0,019	-0,140
-419,730	58,284	-0,092	0,065
-418,715	800,000	-0,026	-0,057
-417,701	83,334	0,062	-0,049
-416,686	558,265	0,050	0,087
-415,671	115,359	0,046	0,040
-414,657	101,916	0,015	-0,012
-413,642	25,632	0,037	-0,022
-412,628	-68,582	-0,024	0,007
-411,613	494,337	-0,111	-0,183
-410,598	311,941	0,074	-0,100
-409,584	10,608	-0,038	-0,020
-408,569	179,078	0,122	0,128
-407,555	473,070	0,042	0,068
-406,540	519,206	0,062	0,105
-405,525	205,447	-0,103	0,115
-404,511	-177,812	-0,137	0,002
-403,496	-97,224	-0,103	-0,019
-402,482	-86,070	0,075	-0,016
-401,467	800,000	0,032	0,079
-400,452	102,980	0,074	0,063
-399,438	-47,374	-0,112	0,039
-398,423	-18,381	-0,109	0,049
-397,409	179,215	-0,033	0,035
-396,394	195,299	-0,058	0,064
-395,379	122,864	0,048	-0,043
-394,365	52,368	0,124	-0,085
-393,350	168,510	-0,063	0,064
-392,336	800,000	-0,033	0,082
-391,321	-200,000	0,015	-0,189
-390,306	-85,029	-0,015	-0,003
-389,292	136,566	-0,045	0,042
-388,277	668,245	-0,020	-0,037
-387,263	-62,675	0,081	0,024
-386,248	-85,928	0,154	0,034
-385,233	-23,663	0,103	-0,044
-384,219	800,000	-0,013	0,030
-383,204	-64,410	-0,015	0,004
-382,190	604,608	0,021	-0,039
-381,175	800,000	-0,041	-0,092
-380,160	-200,000	-0,023	0,097
-379,146	47,740	0,049	-0,032
-378,131	31,652	-0,040	0,025
-377,117	151,621	0,067	0,066
-376,102	-18,580	-0,135	-0,060
-375,088	483,027	-0,043	0,070
-374,073	-0,229	0,111	0,057
-373,058	-112,906	-0,004	0,001
-372,044	-92,081	0,153	0,031
-371,029	800,000	-0,011	-0,026
-370,015	-152,509	-0,093	-0,005
-369,000	-200,000	0,015	-0,078
-367,985	-200,000	-0,014	-0,071
-366,971	-200,000	0,015	-0,117
-365,956	89,846	0,010	-0,008
-364,942	-128,825	0,232	0,023
-363,927	-144,246	0,057	-0,004
-362,912	397,051	0,022	-0,033
-361,898	57,111	0,034	-0,024
-360,883	443,884	0,056	-0,088
-359,869	-9,227	0,082	0,039
-358,854	-200,000	-0,013	-0,076
-357,839	-200,000	0,002	-0,067
-356,825	253,425	-0,029	0,036
-355,810	-6,513	-0,110	0,053
-354,796	63,127	0,081	-0,058
-353,781	-27,186	-0,081	0,034
-352,766	625,120	-0,051	0,093
-351,752	-116,622	0,043	0,006
-350,737	-200,000	-0,002	-0,105
-349,723	-200,000	0,002	0,039
-348,708	431,626	0,069	0,108
-347,693	-101,816	-0,111	0,019
-346,679	800,000	0,018	-0,052
-345,664	-200,000	-0,013	-0,061
-344,650	-200,000	-0,049	0,164
-343,635	92,137	0,031	0,025
-342,620	-39,281	0,086	-0,032
-341,606	431,140	-0,053	0,083
-340,591	169,991	-0,060	-0,062
-339,577	-43,680	-0,119	0,043
-338,562	285,479	-0,075	-0,097
-337,548	24,066	0,156	-0,092
-336,533	181,054	-0,059	-0,062
-335,518	41,505	0,051	-0,033
-334,504	-200,000	0,001	0,107
-333,489	-200,000	-0,014	0,065
-332,475	234,410	0,037	-0,044
-331,460	-81,396	0,079	-0,018
-330,445	687,407	0,074	0,138
-329,431	695,691	0,064	-0,121
-328,416	51,319	-0,067	0,045
-327,402	79,819	-0,135	0,104
-326,387	-101,628	0,048	-0,008
-325,372	800,000	-0,037	0,090
-324,358	-200,000	0,009	-0,074
-323,343	-133,578	-0,029	-0,003
-322,329	-51,353	0,117	0,039
-321,314	75,121	0,042	-0,031
-320,299	157,412	0,071	0,070
-319,285	800,000	0,013	0,034
-318,270	332,314	0,054	0,075
-317,256	-56,400	-0,102	-0,032
-316,241	11,432	0,080	-0,044
-315,226	-200,000	-0,022	-0,089
-314,212	629,454	-0,087	0,158
-313,197	-200,000	0,003	0,102
-312,183	800,000	-0,059	0,172
-311,168	-200,000	-0,019	-0,113
-310,153	320,746	0,060	-0,082
-309,139	800,000	-0,047	0,109
-308,124	110,548	0,122	0,105
-307,110	-90,594	0,060	-0,012
-306,095	-200,000	-0,003	0,022
-305,080	-179,738	-0,160	0,002
-304,066	127,131	0,036	-0,033
-303,051	259,862	-0,126	-0,157
-302,037	177,987	-0,163	0,171
-301,022	-200,000	-0,000	0,073
-300,008	9,034	0,095	-0,051
-298,993	-35,860	-0,034	0,013
-297,978	232,779	0,067	0,078
-296,964	-200,000	-0,013	-0,075
-295,949	32,659	0,079	-0,049
-294,935	189,613	0,048	-0,052
-293,920	-200,000	0,019	-0,068
-292,905	-200,000	-0,005	0,088
-291,891	-97,197	0,086	0,016
-290,876	-109,862	-0,137	-0,020
-289,862	3,492	-0,009	-0,005
-288,847	-200,000	-0,020	-0,085
-287,832	543,215	0,083	-0,142
-286,818	-110,998	0,098	0,014
-285,803	43,188	-0,087	-0,057
-284,789	486,492	0,050	0,081
-283,774	-153,399	-0,039	-0,002
-282,759	800,000	-0,024	0,055
-281,745	-66,199	-0,064	-0,018
-280,730	134,392	-0,061	-0,056
-279,716	-200,000	0,009	-0,091
-278,701	-50,101	0,087	-0,029
-277,686	136,602	0,064	0,060
-276,672	-53,791	-0,096	-0,031
-275,657	800,000	-0,036	0,083
-274,643	-26,145	-0,108	-0,045
-273,628	-31,645	-0,112	-0,045
-272,613	800,000	-0,037	0,082
-271,599	-36,604	-0,116	-0,044
-270,584	84,259	0,096	-0,075
-269,570	19,675	-0,070	0,040
-268,555	-50,022	-0,111	0,037
-267,540	-129,500	-0,144	0,014
-266,526	43,852	0,152	-0,100
-265,511	800,000	0,040	-0,111
-264,497	-200,000	0,005	-0,072
-263,482	101,925	-0,055	0,045
-262,467	-200,000	-0,025	0,080
-261,453	546,757	-0,047	-0,081
-260,438	-113,145	-0,025	0,003
-259,424	300,862	-0,049	0,065
-258,409	-200,000	-0,045	-0,251
-257,395	-143,794	0,065	-0,004
-256,380	21,854	0,063	-0,036
-255,365	800,000	-0,031	-0,064
-254,351	-20,517	0,101	-0,044
-253,336	138,295	-0,135	-0,127
-252,322	-32,971	-0,063	0,025
-251,307	-72,701	0,113	-0,029
-250,292	196,466	0,043	0,047
-249,278	512,662	0,076	-0,126
-248,263	-200,000	0,011	0,112
-247,249	113,935	0,065	-0,056
-246,234	800,000	-0,038	0,092
-245,219	205,017	0,032	0,036
-244,205	-108,577	-0,049	0,007
-243,190	-200,000	-0,010	0,053
-242,176	-127,647	0,138	-0,014
-241,161	235,754	0,019	0,022
-240,146	125,024	0,071	-0,064
-239,132	126,573	-0,023	0,020
-238,117	530,955	-0,073	-0,124
-237,103	800,000	-0,018	-0,045
-236,088	513,110	0,034	-0,057
-235,073	-179,783	0,120	-0,002
-234,059	78,750	-0,054	0,041
-233,044	800,000	-0,040	0,086
-232,030	800,000	0,016	0,038
-231,015	572,711	0,012	-0,020
-230,000	110,995	-0,118	-0,101
-228,986	-79,111	0,096	-0,023
-227,971	-81,335	-0,037	0,009
-226,957	85,812	0,067	0,053
-225,942	-157,079	0,094	0,004
-224,927	-133,003	-0,050	0,004
-223,913	372,059	-0,076	0,111
-222,898	97,401	-0,090	-0,074
-221,884	-113,493	-0,088	0,012
-220,869	-3,621	0,048	0,024
-219,855	92,528	0,154	0,124
-218,840	-200,000	-0,029	0,120
-217,825	534,572	0,053	-0,090
-216,811	-200,000	0,019	-0,061
-215,796	-200,000	-0,023	-0,099
-214,782	400,588	0,090	-0,135
-213,767	-101,176	-0,082	0,014
-212,752	-200,000	-0,006	-0,024
-211,738	-200,000	-0,023	0,083
-210,723	-155,313	-0,080	-0,004
-209,709	800,000	-0,019	0,045
-208,694	800,000	0,032	0,090
-207,679	177,026	-0,082	-0,085
-206,665	106,423	-0,024	0,021
-205,650	-200,000	-0,007	-0,035
-204,636	296,089	-0,027	-0,036
-203,621	283,326	0,073	0,093
-202,606	99,443	0,111	0,091
-201,592	-3,711	-0,071	0,035
-200,577	-200,000	0,016	-0,156
-199,563	83,074	0,148	0,115
-198,548	-93,942	0,075	0,015
-197,533	0,504	-0,035	-0,018
-196,519	75,986	0,120	0,091
-195,504	-142,874	0,128	-0,009
-194,490	-14,001	-0,135	-0,062
-193,475	-147,413	-0,088	-0,005
-192,460	195,131	-0,068	-0,074
-191,446	-200,000	0,002	0,072
-190,431	-66,596	0,049	-0,014
-189,417	163,490	-0,081	0,082
-188,402	-39,584	-0,118	0,044
-187,387	413,677	0,082	-0,124
-186,373	557,867	-0,057	0,099
-185,358	800,000	0,039	0,086
-184,344	188,818	-0,057	-0,061
-183,329	50,101	0,036	0,024
-182,315	146,715	0,111	0,106
-181,300	82,711	-0,062	-0,048
-180,285	-74,568	-0,080	-0,020
-179,271	800,000	-0,018	0,054
-178,256	-31,214	0,021	-0,008
-177,242	55,766	-0,028	-0,019
-176,227	-200,000	-0,003	-0,093
-175,212	42,173	-0,039	-0,025
-174,198	800,000	0,055	-0,134
-173,183	-96,880	0,031	-0,006
-172,169	-55,835	-0,063	-0,020
-171,154	-108,983	-0,130	-0,020
-170,139	-200,000	0,012	-0,068
-169,125	530,620	0,028	0,048
-168,110	94,596	-0,080	-0,065
-167,096	-58,031	0,128	-0,040
-166,081	110,085	0,069	-0,059
-165,066	89,985	-0,058	-0,046
-164,052	-200,000	0,005	0,099
-163,037	102,845	0,086	0,072
-162,023	26,617	0,073	-0,043
-161,008	-200,000	0,024	0,149
-159,993	-65,231	0,076	0,022
-158,979	800,000	-0,017	-0,034
-157,964	-145,056	-0,061	0,004
-156,950	800,000	0,059	0,133
-155,935	31,709	0,099	0,061
-154,920	-111,855	0,081	-0,012
-153,906	-200,000	0,005	0,069
-152,891	800,000	0,023	0,055
-151,877	644,912	0,049	-0,090
-150,862	269,300	-0,042	-0,053
-149,847	-160,273	-0,120	-0,005
-148,833	73,330	0,099	0,074
-147,818	28,066	-0,075	-0,045
-146,804	800,000	0,018	-0,050
-145,789	-129,566	-0,092	0,009
-144,775	800,000	0,032	0,072
-143,760	-37,290	-0,109	0,041
-142,745	271,131	0,061	-0,077
-141,731	-200,000	-0,037	0,136
-140,716	-200,000	-0,001	-0,051
-139,702	3,782	0,058	-0,030
-138,687	-200,000	0,013	0,097
-137,672	1,487	-0,155	-0,079
-136,658	800,000	0,076	-0,169
-135,643	-27,303	0,133	-0,055
-134,629	572,485	-0,017	0,029
-133,614	-110,401	0,069	-0,010
-132,599	800,000	-0,009	0,023
-131,585	111,389	0,117	-0,100
-130,570	-65,525	-0,125	0,035
-129,556	154,456	-0,042	0,041
-128,541	800,000	-0,069	-0,208
-127,526	800,000	0,055	0,124
-126,512	51,720	0,068	0,046
-125,497	356,096	-0,031	0,044
-124,483	205,822	0,034	0,038
-123,468	-0,340	-0,114	-0,057
-122,453	-42,763	0,094	0,034
-121,439	-200,000	-0,011	-0,044
-120,424	-11,943	0,100	-0,046
-119,410	-9,919	-0,065	-0,030
-118,395	-199,810	0,051	-0,000
-117,380	119,783	0,030	0,027
-116,366	-110,966	0,104	0,015
-115,351	-61,243	0,035	-0,011
-114,337	274,226	0,035	0,044
-113,322	16,238	0,015	0,008
-112,307	-154,928	-0,034	0,002
-111,293	270,250	0,069	-0,086
-110,278	-200,000	0,000	0,126
-109,264	106,213	0,049	-0,041
-108,249	-16,017	-0,113	0,051
-107,234	-156,287	-0,096	-0,004
-106,220	-116,937	0,057	0,007
-105,205	-173,437	0,132	-0,003
-104,191	174,598	-0,058	0,059
-103,176	-99,348	-0,073	0,013
-102,162	11,670	-0,022	0,012
-101,147	-200,000	-0,020	0,075
-100,132	800,000	-0,043	-0,128
-99,118	222,676	0,094	-0,107
-98,103	-42,379	-0,095	-0,034
-97,089	800,000	-0,008	0,017
-96,074	-20,666	0,081	0,035
-95,059	29,851	0,103	0,062
-94,045	338,387	0,047	-0,065
-93,030	90,347	-0,019	-0,015
-92,016	-22,852	-0,091	-0,039
-91,001	-62,795	0,171	-0,050
-89,986	180,741	-0,018	-0,019
-88,972	134,535	0,035	-0,033
-87,957	429,866	0,074	0,115
-86,943	-22,343	-0,078	0,033
-85,928	-64,905	-0,069	-0,020
-84,913	-110,896	-0,057	-0,008
-83,899	-200,000	0,001	-0,098
-82,884	663,404	0,088	0,162
-81,870	-11,528	-0,028	-0,013
-80,855	-60,767	0,027	0,008
-79,840	-114,103	0,081	-0,011
-78,826	555,282	0,067	0,115
-77,811	-33,356	-0,083	-0,033
-76,797	-200,000	0,008	-0,120
-75,782	4,865	0,158	-0,082
-74,767	553,234	-0,037	0,063
-73,753	405,460	0,050	0,075
-72,738	-38,673	-0,076	0,028
-71,724	800,000	0,058	-0,130
-70,709	439,377	-0,062	0,096
-69,694	-200,000	-0,007	-0,056
-68,680	253,820	0,030	0,036
-67,665	419,069	-0,044	0,066
-66,651	37,068	0,124	0,077
-65,636	800,000	0,015	-0,040
-64,622	-200,000	-0,003	0,038
-63,607	-35,533	0,037	-0,014
-62,592	564,363	-0,030	-0,052
-61,578	15,547	0,090	0,050
-60,563	307,972	-0,008	0,010
-59,549	-200,000	-0,003	-0,121
-58,534	-57,423	-1,459	-0,451
-57,519	389,786	-1,569	-2,313
-56,505	-200,000	-0,501	-4,524
-55,490	275,328	0,914	1,151
-54,476	800,000	4,584	10,945
-53,461	-200,000	17,723	283,691
-52,446	800,000	721,176	2231,018
-51,432	563,522	1636,117	2818,747
-50,417	81,023	1659,767	1268,437
-49,403	23,675	1533,638	892,615
-48,388	17,661	1456,768	818,862
-47,373	18,141	1446,613	815,424
-46,359	17,738	1436,906	807,997
-45,344	15,927	1432,501	796,876
-44,330	15,842	1430,516	795,338
-43,315	15,827	1428,787	794,272
-42,300	15,896	1427,110	793,636
-41,286	15,925	1425,845	793,036
-40,271	15,851	1424,752	792,050
-39,257	15,888	1423,409	791,442
-38,242	15,912	1422,099	790,799
-37,227	15,916	1420,822	790,076
-36,213	15,899	1419,555	789,259
-35,198	15,847	1418,387	788,335
-34,184	15,896	1417,575	788,081
-33,169	15,815	1416,365	786,996
-32,154	15,875	1415,249	786,630
-31,140	15,904	1413,705	785,872
-30,125	15,935	1412,764	785,464
-29,111	15,893	1411,581	784,581
-28,096	15,855	1410,579	783,814
-27,082	15,808	1409,380	782,897
-26,067	15,804	1408,401	782,301
-25,052	15,835	1407,300	781,804
-24,038	15,837	1406,181	781,162
-23,023	15,806	1405,224	780,453
-22,009	15,812	1404,177	779,872
-20,994	15,736	1403,378	779,042
-19,979	15,734	1402,436	778,476
-18,965	15,767	1401,214	777,922
-17,950	15,743	1400,245	777,243
-16,936	15,774	1399,456	776,918
-15,921	15,703	1398,210	775,867
-14,906	15,685	1397,322	775,256
-13,892	15,745	1396,392	774,990
-12,877	15,745	1395,458	774,440
-11,863	15,731	1394,593	773,865
-10,848	15,709	1393,550	773,153
-9,833	15,657	1392,847	772,495
-8,819	15,641	1391,765	771,790
-7,804	15,649	1390,758	771,236
-6,790	15,625	1389,789	770,556
-5,775	15,632	1388,624	769,913
-4,760	15,641	1387,933	769,542
-3,746	15,612	1387,142	768,940
-2,731	15,616	1386,382	768,503
-1,717	15,597	1385,371	767,827
-0,702	15,603	1383,647	766,866
0,313	19,423	1304,275	740,496
1,327	35,687	707,160	439,192
2,342	54,655	125,371	85,490
3,356	2,925	16,447	8,430
4,371	6,141	3,052	1,597
5,386	-34,561	0,475	0,183
6,400	135,546	0,056	0,052
7,415	-34,735	-0,205	-0,079
8,429	408,877	-0,270	-0,405
9,444	169,024	-0,301	-0,304
10,459	224,365	-0,260	-0,297
11,473	99,261	-0,220	-0,180
12,488	-74,650	-0,417	-0,105
13,502	-103,150	-0,463	-0,077
14,517	62,115	-0,273	-0,193
15,531	48,688	-0,353	-0,234
16,546	-24,340	-0,364	-0,153
17,561	108,731	-0,265	-0,224
18,575	-16,109	-0,275	-0,123
19,590	19,391	-0,302	-0,171
20,604	-82,003	-0,314	-0,072
21,619	-36,409	-0,400	-0,151
22,634	29,284	-0,401	-0,240
23,648	142,790	-0,353	-0,332
24,663	400,783	-0,269	-0,400
25,677	167,335	-0,294	-0,295
26,692	118,141	-0,271	-0,236
27,707	-2,975	-0,507	-0,249
28,721	210,097	-0,271	-0,301
29,736	238,051	-0,350	-0,411
30,750	48,751	-0,349	-0,231
31,765	23,319	-0,400	-0,231
32,780	85,757	-0,347	-0,269
33,794	81,740	-0,375	-0,286
34,809	211,393	-0,240	-0,267
35,823	103,195	-0,365	-0,302
36,838	58,616	-0,366	-0,253
37,853	99,038	-0,372	-0,303
38,867	85,027	-0,345	-0,267
39,882	39,439	-0,299	-0,189
40,896	-11,031	-0,381	-0,177
41,911	127,427	-0,274	-0,246
42,926	-18,071	-0,485	-0,214
43,940	41,551	-0,399	-0,254
44,955	77,255	-0,369	-0,277
45,969	64,023	-0,374	-0,265
46,984	440,846	-0,264	-0,409
47,999	27,949	-0,421	-0,250
49,013	219,178	-0,176	-0,199
50,028	-18,334	-0,259	-0,114
51,042	-89,369	-0,440	-0,091
52,057	72,667	-0,328	-0,241
53,071	117,675	-0,304	-0,264
54,086	-57,058	-0,390	-0,121
55,101	22,735	-0,306	-0,176
56,115	169,471	-0,287	-0,289
57,130	-20,658	-0,388	-0,167
58,144	-32,752	-0,322	-0,126
59,159	157,849	-0,379	-0,370
60,174	59,980	-0,408	-0,284
61,188	-23,256	-0,428	-0,181
62,203	-134,331	-0,321	-0,027
63,217	-92,320	-0,419	-0,082
64,232	135,289	-0,233	-0,213
65,247	72,930	-0,427	-0,314
66,261	5,514	-0,551	-0,285
67,276	55,991	-0,264	-0,180
68,290	-23,439	-0,398	-0,168
69,305	510,679	-0,224	-0,368
70,320	20,614	-0,338	-0,192
71,334	158,093	-0,326	-0,318
72,349	140,389	-0,319	-0,296
73,363	51,241	-0,457	-0,305
74,378	-6,785	-0,380	-0,181
75,393	-24,699	-0,313	-0,130
76,407	-92,865	-0,216	-0,042
77,422	-110,742	-0,275	0,040
78,436	78,781	-0,289	-0,217
79,451	254,477	-0,271	-0,327
80,466	244,082	-0,272	-0,322
81,480	-34,374	-0,329	-0,126
82,495	-64,759	-0,301	-0,085
83,509	-50,851	-0,339	-0,112
84,524	147,398	-0,235	-0,222
85,539	22,843	-0,310	-0,178
86,553	-14,296	-0,326	-0,147
87,568	458,220	-0,173	-0,271
88,582	16,078	-0,319	-0,176
89,597	-70,298	-0,330	-0,087
90,611	45,910	-0,230	-0,149
91,626	-59,449	-0,330	-0,099
92,641	237,292	-0,196	-0,228
93,655	27,840	-0,294	-0,174
94,670	-163,307	-0,291	-0,010
95,684	-21,953	-0,336	-0,143
96,699	532,931	-0,202	-0,337
97,714	62,642	-0,324	-0,227
98,728	-169,749	-0,232	0,006
99,743	-19,137	-0,268	-0,116
100,757	-9,524	-0,281	-0,131
101,772	78,827	-0,228	-0,171
102,787	182,305	-0,275	-0,285
103,801	403,332	-0,237	-0,351
104,816	-3,095	-0,328	-0,160
105,830	16,623	-0,210	-0,116
106,845	-155,615	-0,316	-0,014
107,860	-1,632	-0,251	-0,124
108,874	53,316	-0,253	-0,170
109,889	-4,114	-0,330	-0,160
110,903	33,737	-0,251	-0,153
111,918	8,122	-0,268	-0,141
112,933	-94,446	-0,317	-0,060
113,947	181,283	-0,189	-0,195
114,962	56,048	-0,220	-0,149
115,976	-78,122	-0,318	-0,076
116,991	98,446	-0,316	-0,255
118,006	82,763	-0,282	-0,214
119,020	77,780	-0,219	-0,163
120,035	179,502	-0,220	-0,226
121,049	-39,835	-0,330	-0,120
122,064	-3,408	-0,244	-0,118
123,079	800,000	-0,084	-0,222
124,093	206,665	-0,265	-0,289
125,108	61,077	-0,256	-0,178
126,122	19,083	-0,275	-0,154
127,137	127,642	-0,236	-0,210
128,151	262,575	-0,176	-0,215
129,166	-143,361	-0,153	-0,010
130,181	21,474	-0,205	-0,116
131,195	-16,919	-0,427	-0,188
132,210	375,761	-0,224	-0,321
133,224	119,999	-0,363	-0,315
134,239	-27,824	-0,299	-0,121
135,254	150,569	-0,234	-0,223
136,268	313,658	-0,099	-0,131
137,283	277,076	-0,147	-0,183
138,297	-101,586	-0,281	-0,047
139,312	-159,384	-0,261	-0,010
140,327	54,026	-0,215	-0,144
141,341	151,593	-0,279	-0,266
142,356	296,601	-0,165	-0,212
143,370	168,579	-0,155	-0,154
144,385	519,713	-0,091	-0,150
145,400	148,524	-0,304	-0,288
146,414	141,170	-0,292	-0,270
147,429	263,629	-0,254	-0,309
148,443	206,772	-0,210	-0,229
149,458	-108,526	-0,188	0,028
150,473	77,018	-0,220	-0,163
151,487	162,960	-0,221	-0,217
152,502	62,758	-0,335	-0,234
153,516	36,519	-0,254	-0,156
154,531	56,549	-0,383	-0,260
155,546	-70,163	-0,305	-0,081
156,560	159,517	-0,278	-0,271
157,575	-94,465	-0,284	-0,054
158,589	407,882	-0,136	-0,201
159,604	140,958	-0,236	-0,218
160,619	800,000	-0,118	-0,354
161,633	62,940	-0,307	-0,214
162,648	-72,848	-0,312	-0,080
163,662	-112,759	-0,141	-0,019
164,677	-56,530	-0,132	-0,041
165,692	-49,165	-0,256	-0,085
166,706	122,882	-0,187	-0,164
167,721	17,613	-0,197	-0,109
168,735	134,081	-0,240	-0,217
169,750	39,635	-0,301	-0,188
170,764	54,196	-0,215	-0,144
171,779	47,139	-0,226	-0,147
172,794	148,788	-0,204	-0,192
173,808	3,078	-0,227	-0,115
174,823	51,427	-0,249	-0,165
175,837	34,571	-0,339	-0,206
176,852	43,541	-0,156	-0,100
177,867	-6,612	-0,203	-0,096
178,881	176,732	-0,191	-0,193
179,896	96,456	-0,161	-0,128
180,910	145,437	-0,271	-0,253
181,925	76,303	-0,253	-0,187
182,940	589,120	-0,149	-0,256
183,954	-4,895	-0,253	-0,121
184,969	70,329	-0,161	-0,116
185,983	-73,134	-0,123	-0,031
186,998	-34,570	-0,377	-0,143
188,013	32,955	-0,315	-0,190
189,027	81,373	-0,230	-0,173
190,042	-55,987	-0,165	-0,051
191,056	-200,000	-0,071	-0,233
192,071	42,251	-0,259	-0,163
193,086	56,303	-0,193	-0,130
194,100	72,850	-0,125	-0,091
195,115	-32,346	-0,316	-0,122
196,129	8,881	-0,257	-0,134
197,144	174,033	-0,136	-0,137
198,159	83,243	-0,189	-0,143
199,173	118,439	-0,077	-0,066
200,188	-21,013	-0,249	-0,106
201,202	210,140	-0,165	-0,180
202,217	32,841	-0,193	-0,116
203,232	32,609	-0,287	-0,172
204,246	52,068	-0,249	-0,165
205,261	122,205	-0,300	-0,261
206,275	628,254	-0,149	-0,263
207,290	139,061	-0,133	-0,122
208,304	8,202	-0,121	-0,063
209,319	334,535	-0,096	-0,130
210,334	65,444	-0,187	-0,131
211,348	720,471	-0,114	-0,212
212,363	208,255	-0,226	-0,246
213,377	104,967	-0,326	-0,267
214,392	409,918	-0,050	-0,074
215,407	-54,505	-0,309	-0,097
216,421	160,120	-0,196	-0,190
217,436	506,496	-0,164	-0,265
218,450	501,716	-0,197	-0,317
219,465	16,325	-0,374	-0,204
220,480	236,642	-0,098	-0,113
221,494	-37,932	-0,202	-0,074
222,509	-200,000	-0,020	-0,239
223,523	63,639	-0,193	-0,134
224,538	20,145	-0,239	-0,133
225,553	32,940	-0,166	-0,100
226,567	94,992	-0,147	-0,116
227,582	139,468	-0,177	-0,162
228,596	120,201	-0,094	-0,081
229,611	198,564	-0,194	-0,207
230,626	-137,632	-0,246	-0,019
231,640	-41,209	-0,308	-0,110
232,655	210,366	-0,221	-0,241
233,669	-200,000	-0,068	-0,234
234,684	175,570	-0,197	-0,199
235,699	156,619	-0,138	-0,132
236,713	-40,730	-0,192	-0,069
237,728	97,883	-0,137	-0,109
238,742	235,320	-0,067	-0,077
239,757	25,846	-0,212	-0,122
240,772	30,462	-0,191	-0,113
241,786	66,762	-0,163	-0,115
242,801	159,639	-0,113	-0,110
243,815	-58,862	-0,072	-0,021
244,830	-37,631	-0,097	-0,035
245,844	147,011	-0,128	-0,120
246,859	-145,535	-0,213	-0,013
247,874	8,485	-0,128	-0,067
248,888	247,441	-0,178	-0,209
249,903	126,724	-0,208	-0,182
250,917	120,092	-0,130	-0,112
251,932	-74,394	-0,186	-0,046
252,947	-48,817	-0,076	-0,025
253,961	57,444	-0,225	-0,152
254,976	128,902	-0,155	-0,137
255,990	198,531	-0,108	-0,115
257,005	47,341	-0,205	-0,132
258,020	-101,190	-0,175	-0,029
259,034	331,204	-0,066	-0,088
260,049	-84,044	-0,222	-0,048
261,063	175,758	-0,138	-0,138
262,078	-25,234	-0,234	-0,095
263,093	155,093	-0,180	-0,172
264,107	-155,508	-0,109	0,005
265,122	63,549	-0,122	-0,085
266,136	53,449	-0,180	-0,119
267,151	38,698	-0,064	0,040
268,166	77,014	-0,146	-0,107
269,180	-81,460	-0,186	-0,042
270,195	243,362	-0,176	-0,204
271,209	187,012	-0,223	-0,230
272,224	-124,634	-0,130	-0,014
273,239	-35,440	-0,164	-0,061
274,253	-42,973	-0,237	-0,083
275,268	84,830	-0,211	-0,159
276,282	-71,669	-0,217	-0,055
277,297	8,412	-0,242	-0,126
278,312	149,456	-0,123	-0,115
279,326	176,601	-0,162	-0,163
280,341	-158,984	-0,043	0,002
281,355	-70,982	-0,215	0,055
282,370	200,453	-0,158	-0,168
283,384	117,537	-0,116	-0,099
284,399	-11,673	-0,195	-0,088
285,414	10,133	-0,242	-0,127
286,428	-23,035	-0,181	-0,075
287,443	-87,162	-0,274	0,057
288,457	-58,308	-0,157	-0,047
289,472	633,034	-0,115	-0,202
290,487	460,419	-0,095	-0,147
291,501	122,173	-0,048	-0,041
292,516	115,561	-0,144	-0,121
293,530	-200,000	-0,046	-0,140
294,545	-200,000	0,015	-0,112
295,560	69,037	-0,094	-0,066
296,574	114,741	-0,162	-0,136
297,589	71,957	-0,159	-0,114
298,603	64,716	-0,268	-0,186
299,618	252,758	-0,150	-0,177
300,633	136,709	-0,104	-0,094
301,647	800,000	-0,072	-0,145
302,662	-28,927	-0,141	0,056
303,676	800,000	-0,049	-0,147
304,691	-26,000	-0,170	-0,069
305,706	196,610	-0,234	-0,246
306,720	-126,842	-0,128	-0,013
307,735	95,027	-0,239	-0,188
308,749	110,118	-0,130	-0,108
309,764	340,428	-0,080	-0,108
310,779	800,000	-0,073	-0,156
311,793	-200,000	-0,014	-0,207
312,808	-165,326	-0,210	-0,006
313,822	206,287	-0,164	-0,176
314,837	-200,000	-0,011	-0,174
315,852	-69,148	-0,162	-0,043
316,866	-26,280	-0,149	-0,060
317,881	40,468	-0,209	-0,129
318,895	-69,892	-0,262	-0,068
319,910	141,180	-0,233	-0,213
320,925	-135,436	-0,240	-0,019
321,939	465,039	-0,107	-0,165
322,954	-23,801	-0,103	-0,042
323,968	-48,294	-0,085	-0,028
324,983	-27,991	-0,173	-0,069
325,997	-38,317	0,028	-0,010
327,012	172,521	-0,127	-0,126
328,027	88,319	-0,139	-0,106
329,041	54,098	-0,224	-0,148
330,056	-30,191	-0,018	-0,007
331,070	-124,404	-0,128	-0,014
332,085	-200,000	0,003	0,051
333,100	290,423	-0,151	-0,189
334,114	85,117	-0,154	-0,116
335,129	-120,266	-0,058	-0,007
336,143	-52,989	-0,084	0,026
337,158	-105,827	-0,154	-0,024
338,173	-55,376	-0,089	0,027
339,187	181,774	-0,058	-0,059
340,202	-71,031	-0,150	0,039
341,216	800,000	-0,096	-0,187
342,231	147,963	-0,155	-0,143
343,246	127,195	-0,111	-0,097
344,260	-147,340	-0,083	0,005
345,275	268,818	-0,084	-0,102
346,289	35,408	-0,044	0,026
347,304	260,697	-0,077	-0,091
348,319	-18,623	-0,161	-0,069
349,333	800,000	-0,035	-0,081
350,348	320,863	-0,142	-0,185
351,362	-37,371	-0,180	-0,066
352,377	-200,000	0,008	-0,069
353,392	126,351	0,023	-0,020
354,406	-126,771	-0,065	-0,007
355,421	209,437	1314,598	1416,261
356,435	161,190	1475,328	1416,767
