DTS Sentinel unit serial number:	SN410029Multiplexer serial number:	ORYXHardware model number:	OX2-SRSoftware version number:	ORYX F/W v4,00 Oryx Data Collector v3.7.2.0data status	okinstallation	B3 Nyhavnadifferential loss correction	single-endedforward channel	channel 1reverse channel	N/Adate	2023/12/04time	19:17:30forward acquisition time	300,00reverse acquisition time	0,00gamma	499,1914k internal	0,3200k external	0,3200temperature offset calibration	1,0000default loss term (dB/km)	0,3820temperature slope calibration	1,0000multiplexer offset coefficient	1,0000multiplexer slope coefficient	1,0000fibre end	0,00T internal ref (°C)	14,70T ext. ref 1 (°C)	-0,67T ext. ref 2 (°C)	-0,69length (m)	temperature (°C)	Stokes	anti-Stokes-744,400	127,787	-0,171	-0,158
-743,385	-200,000	0,083	0,366
-742,371	-200,000	-0,028	-0,094
-741,356	577,845	-0,145	0,259
-740,342	434,855	-0,136	-0,216
-739,327	800,000	0,148	0,340
-738,312	800,000	-0,111	-0,307
-737,298	-200,000	-0,067	0,330
-736,283	-24,490	-0,197	-0,085
-735,269	-200,000	-0,048	0,283
-734,254	185,326	-0,268	-0,290
-733,239	462,265	-0,079	0,129
-732,225	-200,000	-0,037	-0,131
-731,210	-200,000	0,001	0,254
-730,196	-79,290	-0,193	0,047
-729,181	800,000	-0,029	0,066
-728,167	517,116	-0,024	-0,041
-727,152	370,799	-0,077	-0,114
-726,137	-200,000	0,027	-0,145
-725,123	-131,154	-0,075	0,007
-724,108	-200,000	0,003	0,042
-723,094	7,853	0,121	-0,066
-722,079	800,000	0,017	0,043
-721,064	-200,000	-0,003	-0,064
-720,050	-138,871	-0,077	0,006
-719,035	-69,070	-0,055	-0,015
-718,021	585,399	0,043	-0,077
-717,006	420,300	-0,018	-0,028
-715,991	-200,000	-0,032	-0,180
-714,977	615,534	-0,045	-0,083
-713,962	-41,049	-0,122	-0,046
-712,948	13,384	-0,079	-0,044
-711,933	-200,000	0,010	0,181
-710,918	501,578	0,050	-0,085
-709,904	-14,753	0,089	-0,041
-708,889	800,000	-0,045	-0,113
-707,875	762,011	0,023	0,045
-706,860	32,051	0,036	0,022
-705,845	170,019	0,055	-0,058
-704,831	-200,000	0,013	-0,079
-703,816	510,318	-0,074	0,125
-702,802	-52,387	-0,125	0,042
-701,787	-77,635	-0,142	-0,035
-700,772	-60,388	-0,077	-0,024
-699,758	800,000	0,066	-0,138
-698,743	17,659	0,065	0,037
-697,729	569,208	0,080	0,142
-696,714	-200,000	-0,017	0,081
-695,699	94,714	-0,124	0,102
-694,685	219,838	-0,055	0,064
-693,670	-22,610	-0,099	0,043
-692,656	-200,000	0,000	-0,110
-691,641	800,000	-0,048	-0,138
-690,627	-200,000	0,031	0,108
-689,612	-200,000	-0,010	0,116
-688,597	286,054	-0,050	-0,066
-687,583	-65,600	-0,113	-0,033
-686,568	-200,000	0,026	0,093
-685,554	800,000	0,014	0,030
-684,539	-200,000	0,029	-0,095
-683,524	54,664	-0,191	-0,134
-682,510	-111,584	0,122	0,018
-681,495	122,095	0,084	0,076
-680,481	-200,000	-0,005	0,044
-679,466	72,818	-0,172	-0,130
-678,451	-27,311	-0,199	-0,084
-677,437	-86,446	0,138	0,030
-676,422	-200,000	0,002	0,027
-675,408	19,597	-0,044	-0,025
-674,393	5,297	-0,182	-0,097
-673,378	649,560	0,041	-0,077
-672,364	-35,377	-0,023	0,009
-671,349	-79,466	-0,017	-0,004
-670,335	-200,000	-0,023	0,113
-669,320	800,000	-0,006	-0,017
-668,305	-200,000	-0,005	-0,080
-667,291	-200,000	0,000	-0,152
-666,276	52,974	-0,098	-0,068
-665,262	-102,217	-0,103	-0,018
-664,247	800,000	-0,040	-0,103
-663,232	266,474	-0,018	-0,022
-662,218	-10,352	0,116	-0,056
-661,203	150,365	0,036	0,035
-660,189	447,653	-0,060	-0,095
-659,174	-26,278	-0,087	-0,037
-658,159	-200,000	0,004	-0,024
-657,145	11,888	-0,083	0,046
-656,130	-39,297	0,109	-0,041
-655,116	-200,000	0,000	-0,051
-654,101	-80,399	-0,081	0,019
-653,086	-97,579	0,082	0,015
-652,072	-35,976	-0,048	0,019
-651,057	-43,899	-0,103	-0,037
-650,043	-60,869	-0,129	0,039
-649,028	28,900	0,018	-0,011
-648,014	149,168	0,056	-0,055
-646,999	193,240	0,136	0,149
-645,984	369,083	0,027	-0,040
-644,970	27,117	0,049	-0,030
-643,955	-26,057	-0,081	-0,034
-642,941	800,000	0,031	-0,084
-641,926	800,000	-0,026	0,059
-640,911	-200,000	0,017	0,080
-639,897	49,153	0,088	0,060
-638,882	18,191	0,117	0,068
-637,868	20,853	-0,169	0,099
-636,853	-200,000	-0,005	-0,044
-635,838	800,000	-0,018	-0,042
-634,824	-200,000	-0,029	-0,100
-633,809	-200,000	-0,002	-0,060
-632,795	-200,000	0,002	0,039
-631,780	-200,000	0,009	0,047
-630,765	-200,000	0,019	0,107
-629,751	-87,982	-0,102	0,022
-628,736	-155,551	-0,060	-0,003
-627,722	120,647	-0,072	-0,065
-626,707	663,933	-0,062	0,116
-625,692	-16,478	0,043	0,019
-624,678	-200,000	-0,022	-0,130
-623,663	-176,519	-0,176	-0,003
-622,649	-73,084	0,075	0,020
-621,634	-200,000	-0,026	-0,104
-620,619	-86,286	0,099	-0,022
-619,605	15,178	0,102	-0,058
-618,590	103,495	-0,036	0,031
-617,576	139,880	0,066	0,063
-616,561	323,382	-0,124	0,172
-615,546	800,000	-0,014	-0,044
-614,532	14,844	-0,127	-0,072
-613,517	235,531	0,014	0,016
-612,503	624,953	0,030	0,056
-611,488	56,825	0,049	-0,034
-610,474	75,845	-0,017	-0,013
-609,459	-143,142	-0,123	0,008
-608,444	-82,984	0,093	0,022
-607,430	331,145	-0,055	-0,077
-606,415	-200,000	-0,004	-0,039
-605,401	-200,000	-0,015	0,173
-604,386	445,518	-0,013	-0,020
-603,371	-97,193	0,072	0,014
-602,357	-0,542	-0,212	-0,109
-601,342	344,041	0,066	0,094
-600,328	800,000	-0,062	0,148
-599,313	-200,000	0,013	-0,105
-598,298	-90,842	-0,110	-0,023
-597,284	99,716	0,046	0,039
-596,269	68,729	0,106	-0,079
-595,255	281,007	0,053	-0,069
-594,240	800,000	-0,022	-0,051
-593,225	800,000	-0,048	-0,110
-592,211	445,015	-0,056	-0,089
-591,196	800,000	0,096	-0,243
-590,182	-200,000	-0,003	-0,105
-589,167	-66,648	0,125	0,035
-588,152	800,000	-0,023	0,070
-587,138	-26,298	0,038	0,016
-586,123	292,762	-0,006	-0,008
-585,109	212,633	-0,090	-0,103
-584,094	6,393	0,065	0,035
-583,079	-200,000	0,045	-0,145
-582,065	67,010	0,059	-0,043
-581,050	-200,000	-0,002	-0,059
-580,036	-200,000	0,035	0,148
-579,021	-84,816	-0,164	-0,037
-578,006	-87,861	-0,160	0,035
-576,992	800,000	0,051	-0,107
-575,977	16,243	-0,046	-0,026
-574,963	40,046	-0,101	0,065
-573,948	132,109	0,084	0,079
-572,934	17,137	-0,151	0,086
-571,919	24,083	0,105	-0,062
-570,904	57,433	0,051	-0,036
-569,890	-200,000	-0,007	0,075
-568,875	800,000	-0,026	0,076
-567,861	792,360	0,038	0,076
-566,846	800,000	0,026	0,054
-565,831	122,691	-0,015	0,014
-564,817	-60,567	-0,027	-0,008
-563,802	417,533	-0,066	-0,102
-562,788	191,206	-0,073	-0,080
-561,773	800,000	-0,033	-0,084
-560,758	-13,180	0,117	0,055
-559,744	-200,000	0,029	0,113
-558,729	281,194	-0,021	0,027
-557,715	92,905	-0,070	-0,057
-556,700	138,809	-0,111	0,106
-555,685	1,149	-0,044	-0,023
-554,671	-71,481	0,028	0,007
-553,656	-200,000	0,008	0,109
-552,642	-79,775	0,114	0,028
-551,627	-200,000	-0,028	0,133
-550,612	-93,881	-0,077	-0,015
-549,598	746,795	0,032	-0,063
-548,583	109,133	0,087	-0,075
-547,569	520,777	-0,100	0,170
-546,554	800,000	0,034	0,107
-545,539	-177,247	0,121	-0,002
-544,525	-200,000	-0,023	-0,143
-543,510	245,344	-0,015	-0,018
-542,496	800,000	-0,028	-0,068
-541,481	-200,000	0,015	-0,057
-540,466	98,420	0,078	0,065
-539,452	-16,254	0,018	0,008
-538,437	-96,056	-0,090	0,017
-537,423	-200,000	0,027	-0,112
-536,408	291,653	-0,046	-0,061
-535,393	23,670	-0,152	-0,090
-534,379	64,762	0,040	0,029
-533,364	-200,000	-0,001	0,067
-532,350	-80,069	-0,019	-0,005
-531,335	145,239	0,047	0,046
-530,321	800,000	-0,082	0,173
-529,306	-161,309	-0,058	-0,002
-528,291	222,573	-0,033	-0,038
-527,277	713,870	-0,093	-0,178
-526,262	-200,000	-0,001	-0,091
-525,248	-187,991	0,123	0,001
-524,233	-200,000	-0,041	0,179
-523,218	470,453	-0,048	0,077
-522,204	207,596	0,065	0,074
-521,189	657,662	-0,006	0,012
-520,175	268,823	-0,094	-0,119
-519,160	144,578	0,061	-0,059
-518,145	304,928	0,097	-0,130
-517,131	3,785	0,134	-0,071
-516,116	399,884	-0,004	-0,007
-515,102	-63,411	-0,056	-0,016
-514,087	-200,000	-0,018	0,121
-513,072	-200,000	-0,017	-0,161
-512,058	-30,022	0,051	-0,021
-511,043	-200,000	0,017	0,056
-510,029	115,347	0,102	-0,090
-509,014	58,855	0,025	0,018
-507,999	606,490	0,023	-0,042
-506,985	104,291	-0,058	0,049
-505,970	800,000	-0,029	0,073
-504,956	-200,000	0,007	-0,061
-503,941	-200,000	-0,007	0,067
-502,926	395,026	-0,039	0,058
-501,912	75,106	0,113	0,086
-500,897	-200,000	0,035	-0,127
-499,883	-105,359	-0,156	0,025
-498,868	247,457	-0,061	-0,075
-497,853	-52,666	-0,088	-0,029
-496,839	-200,000	0,033	-0,133
-495,824	192,167	0,037	0,040
-494,810	-38,070	-0,081	-0,031
-493,795	-136,085	0,193	-0,016
-492,781	88,271	-0,052	-0,042
-491,766	131,080	-0,056	-0,052
-490,751	158,520	0,075	-0,075
-489,737	-200,000	0,001	-0,036
-488,722	800,000	-0,063	-0,141
-487,708	-169,010	0,104	0,003
-486,693	-89,518	0,076	0,016
-485,678	-200,000	-0,015	-0,077
-484,664	-200,000	-0,061	-0,273
-483,649	-95,293	-0,156	-0,030
-482,635	-200,000	0,016	-0,066
-481,620	-200,000	0,001	0,044
-480,605	800,000	0,072	0,179
-479,591	-200,000	0,035	-0,199
-478,576	-111,587	0,080	-0,012
-477,562	321,066	-0,024	-0,033
-476,547	692,658	0,063	-0,119
-475,532	800,000	-0,044	-0,109
-474,518	-200,000	-0,045	-0,209
-473,503	-188,831	0,219	0,002
-472,489	800,000	-0,035	0,089
-471,474	15,907	-0,054	-0,030
-470,459	125,332	-0,032	-0,029
-469,445	-200,000	0,020	-0,141
-468,430	-200,000	0,034	-0,118
-467,416	-200,000	0,017	0,081
-466,401	541,580	0,061	0,104
-465,386	194,388	-0,033	0,037
-464,372	-200,000	0,003	-0,012
-463,357	197,346	-0,017	-0,019
-462,343	232,900	-0,048	-0,057
-461,328	-65,519	-0,128	-0,037
-460,313	-100,458	0,073	-0,013
-459,299	-22,099	0,170	-0,074
-458,284	234,167	-0,040	0,047
-457,270	238,832	0,027	0,032
-456,255	-200,000	-0,019	-0,069
-455,241	-200,000	0,001	-0,018
-454,226	800,000	0,108	-0,242
-453,211	141,938	-0,110	-0,105
-452,197	28,349	0,039	-0,024
-451,182	24,384	-0,109	0,065
-450,168	-200,000	-0,028	0,091
-449,153	46,941	0,099	-0,066
-448,138	-95,179	-0,105	0,020
-447,124	800,000	0,014	0,035
-446,109	5,087	0,126	-0,066
-445,095	-12,559	0,106	0,049
-444,080	-18,862	0,027	0,012
-443,065	-111,560	-0,112	0,016
-442,051	-5,234	-0,030	0,015
-441,036	591,110	-0,089	-0,158
-440,022	-63,310	-0,057	0,017
-439,007	-68,049	-0,093	0,026
-437,992	-139,611	0,161	0,012
-436,978	-44,255	-0,142	-0,051
-435,963	-200,000	-0,022	0,122
-434,949	706,854	-0,033	0,062
-433,934	800,000	-0,033	-0,093
-432,919	466,929	0,012	-0,019
-431,905	-200,000	0,007	-0,149
-430,890	670,649	-0,036	0,067
-429,876	-200,000	-0,019	0,076
-428,861	72,683	-0,060	0,045
-427,846	-200,000	0,005	-0,146
-426,832	2,586	-0,119	0,062
-425,817	-68,927	0,078	-0,022
-424,803	293,631	-0,060	-0,078
-423,788	93,314	-0,051	0,042
-422,773	126,308	0,069	0,063
-421,759	98,477	0,086	0,071
-420,744	99,495	0,108	0,090
-419,730	-31,920	0,085	-0,034
-418,715	-111,185	0,063	-0,009
-417,701	5,070	-0,057	0,030
-416,686	-108,130	0,146	-0,023
-415,671	24,476	-0,037	0,022
-414,657	-129,433	0,151	-0,015
-413,642	800,000	0,051	0,126
-412,628	-41,938	-0,094	-0,034
-411,613	36,320	-0,111	-0,070
-410,598	-200,000	-0,028	0,100
-409,584	28,404	0,112	0,068
-408,569	120,674	0,079	-0,070
-407,555	-104,661	0,109	0,018
-406,540	-200,000	-0,053	0,000
-405,525	46,444	0,048	0,032
-404,511	-163,298	0,098	-0,003
-403,496	137,075	0,029	-0,027
-402,482	303,896	-0,166	0,222
-401,467	531,209	-0,022	0,038
-400,452	-50,598	-0,073	0,025
-399,438	-196,839	0,008	0,000
-398,423	-138,505	-0,130	0,010
-397,409	-114,693	-0,070	-0,009
-396,394	800,000	0,035	-0,090
-395,379	-8,136	0,046	0,022
-394,365	-168,890	0,075	0,002
-393,350	424,067	0,041	-0,063
-392,336	-53,143	-0,056	0,018
-391,321	-200,000	0,003	0,079
-390,306	800,000	-0,013	-0,033
-389,292	449,123	-0,086	-0,136
-388,277	-200,000	-0,031	0,160
-387,263	-92,849	0,166	0,033
-386,248	-6,147	-0,066	0,032
-385,233	800,000	-0,073	0,182
-384,219	223,279	0,130	0,151
-383,204	195,560	-0,061	0,066
-382,190	-113,988	-0,099	-0,014
-381,175	-180,174	-0,200	0,003
-380,160	209,870	0,021	0,024
-379,146	-29,331	0,114	-0,046
-378,131	164,498	-0,023	0,024
-377,117	85,562	-0,036	-0,028
-376,102	-66,904	-0,056	-0,016
-375,088	-99,519	0,040	-0,007
-374,073	90,657	-0,044	-0,036
-373,058	129,993	0,061	-0,056
-372,044	800,000	0,030	0,076
-371,029	-98,425	0,127	0,023
-370,015	94,055	-0,091	0,074
-369,000	-169,253	0,007	-0,000
-367,985	-95,927	0,084	-0,016
-366,971	69,030	-0,105	-0,077
-365,956	519,042	-0,081	0,137
-364,942	253,483	0,098	0,120
-363,927	0,590	-0,143	0,073
-362,912	-200,000	-0,008	0,098
-361,898	-200,000	0,023	-0,082
-360,883	-110,783	-0,130	0,019
-359,869	-10,643	-0,032	0,015
-358,854	115,618	-0,036	0,032
-357,839	-200,000	-0,001	-0,008
-356,825	69,802	0,125	0,092
-355,810	-200,000	-0,025	0,138
-354,796	-197,453	-0,108	0,000
-353,781	618,080	-0,061	0,110
-352,766	64,167	-0,101	0,072
-351,752	800,000	0,024	-0,051
-350,737	284,480	-0,040	-0,051
-349,723	-101,624	0,099	-0,017
-348,708	-90,622	0,096	0,020
-347,693	379,359	-0,062	0,091
-346,679	-18,087	0,078	-0,035
-345,664	53,354	0,117	0,080
-344,650	-200,000	0,001	-0,143
-343,635	-117,013	-0,044	-0,006
-342,620	-200,000	-0,029	0,123
-341,606	62,353	-0,056	-0,040
-340,591	-116,359	-0,109	-0,014
-339,577	147,624	0,064	-0,062
-338,562	124,139	-0,094	-0,085
-337,548	-200,000	0,003	0,153
-336,533	26,054	-0,039	-0,023
-335,518	800,000	-0,041	0,094
-334,504	-21,671	-0,023	-0,010
-333,489	800,000	0,050	0,133
-332,475	235,573	-0,053	-0,063
-331,460	-151,563	-0,032	0,002
-330,445	72,368	-0,084	-0,063
-329,431	-200,000	0,024	0,078
-328,416	-200,000	-0,002	0,065
-327,402	258,863	0,057	0,071
-326,387	166,623	-0,025	0,025
-325,372	625,737	0,062	0,113
-324,358	796,260	-0,051	-0,102
-323,343	-200,000	-0,009	-0,056
-322,329	-87,314	0,046	0,010
-321,314	6,886	0,042	0,022
-320,299	-132,511	0,083	-0,008
-319,285	-62,400	0,061	-0,018
-318,270	-167,068	-0,092	0,003
-317,256	-200,000	-0,003	0,057
-316,241	200,356	0,013	0,014
-315,226	705,698	0,079	0,150
-314,212	346,877	0,046	-0,065
-313,197	-14,482	-0,111	0,051
-312,183	354,020	-0,055	-0,079
-311,168	-170,540	0,123	-0,003
-310,153	800,000	0,046	0,098
-309,139	-200,000	-0,003	-0,018
-308,124	800,000	-0,042	-0,102
-307,110	-22,261	0,072	-0,031
-306,095	-200,000	0,007	0,143
-305,080	334,502	0,045	0,062
-304,066	-107,354	0,060	0,009
-303,051	-55,785	-0,029	0,009
-302,037	477,617	-0,075	-0,121
-301,022	800,000	-0,024	0,071
-300,008	-200,000	0,032	-0,202
-298,993	-121,070	0,131	0,015
-297,978	-45,357	0,001	-0,001
-296,964	-49,430	-0,041	-0,014
-295,949	-200,000	-0,009	-0,068
-294,935	-200,000	-0,005	-0,037
-293,920	301,944	0,012	0,016
-292,905	-200,000	0,013	-0,118
-291,891	244,507	-0,062	0,075
-290,876	101,189	0,074	0,061
-289,862	-200,000	-0,007	0,130
-288,847	185,633	0,114	-0,121
-287,832	800,000	-0,033	0,091
-286,818	17,670	-0,117	0,066
-285,803	91,454	0,066	-0,053
-284,789	215,688	0,034	0,039
-283,774	281,022	-0,048	0,062
-282,759	-200,000	0,023	-0,135
-281,745	-200,000	0,011	-0,110
-280,730	400,027	-0,105	-0,159
-279,716	-200,000	0,000	-0,082
-278,701	800,000	0,034	0,087
-277,686	-200,000	0,035	0,175
-276,672	-200,000	0,023	-0,103
-275,657	61,111	0,142	-0,101
-274,643	-200,000	-0,004	0,119
-273,628	800,000	0,031	0,069
-272,613	-145,029	0,105	0,007
-271,599	-200,000	-0,020	-0,162
-270,584	92,481	0,087	-0,070
-269,570	-91,690	0,085	0,017
-268,555	171,825	0,068	0,070
-267,540	110,448	-0,048	-0,041
-266,526	652,602	-0,056	-0,103
-265,511	-152,271	0,056	0,003
-264,497	-49,599	-0,112	-0,038
-263,482	-49,741	0,085	-0,029
-262,467	-29,692	0,107	0,043
-261,453	81,330	-0,057	0,044
-260,438	400,022	-0,118	-0,177
-259,424	427,650	0,015	0,024
-258,409	800,000	0,019	0,043
-257,395	-132,870	-0,038	-0,003
-256,380	-121,729	0,238	0,028
-255,365	-137,588	-0,173	0,014
-254,351	59,736	-0,060	-0,043
-253,336	575,702	-0,057	-0,100
-252,322	60,271	-0,049	-0,035
-251,307	-200,000	0,040	0,148
-250,292	336,146	0,093	0,129
-249,278	-200,000	-0,022	-0,094
-248,263	800,000	-0,040	0,080
-247,249	-200,000	-0,021	0,233
-246,234	-200,000	0,026	-0,107
-245,219	34,332	-0,145	-0,090
-244,205	369,172	-0,120	-0,174
-243,190	-200,000	0,017	-0,064
-242,176	800,000	0,049	0,138
-241,161	217,623	-0,115	0,131
-240,146	800,000	0,052	0,132
-239,132	-150,655	-0,017	0,001
-238,117	-200,000	0,000	-0,079
-237,103	539,863	-0,039	-0,067
-236,088	235,854	0,052	-0,061
-235,073	800,000	-0,036	0,111
-234,059	-138,797	0,134	0,010
-233,044	-200,000	-0,026	0,100
-232,030	-53,545	0,080	-0,026
-231,015	224,281	-0,110	0,127
-230,000	-42,139	-0,093	0,034
-228,986	761,962	0,006	0,012
-227,971	-157,584	-0,070	0,003
-226,957	29,013	-0,033	-0,020
-225,942	222,526	0,032	0,037
-224,927	399,122	0,053	0,079
-223,913	-38,564	0,089	-0,033
-222,898	-200,000	0,018	-0,075
-221,884	800,000	-0,028	-0,080
-220,869	-24,721	0,044	-0,019
-219,855	-23,883	0,101	0,043
-218,840	279,544	0,040	0,051
-217,825	-23,071	-0,058	0,025
-216,811	-200,000	0,004	0,070
-215,796	71,240	-0,052	-0,038
-214,782	-67,577	-0,036	0,010
-213,767	-200,000	0,007	-0,041
-212,752	-97,452	0,045	0,008
-211,738	-200,000	0,013	0,042
-210,723	800,000	0,069	0,172
-209,709	0,695	0,048	0,024
-208,694	800,000	-0,034	0,095
-207,679	286,936	0,036	-0,046
-206,665	800,000	0,027	0,062
-205,650	800,000	0,036	0,084
-204,636	800,000	0,048	0,124
-203,621	-200,000	-0,006	0,078
-202,606	110,462	-0,004	0,003
-201,592	387,539	-0,115	-0,170
-200,577	552,172	0,063	-0,108
-199,563	800,000	0,018	-0,051
-198,548	-200,000	0,000	-0,018
-197,533	35,373	-0,052	-0,032
-196,519	-128,765	0,030	-0,003
-195,504	477,648	0,023	-0,037
-194,490	800,000	-0,003	0,006
-193,475	-48,073	-0,062	0,021
-192,460	-152,174	0,095	-0,005
-191,446	-70,602	0,045	0,012
-190,431	-164,623	-0,104	0,003
-189,417	127,562	0,042	-0,038
-188,402	-130,647	-0,105	0,010
-187,387	44,967	-0,071	-0,047
-186,373	57,599	-0,099	-0,069
-185,358	-200,000	-0,033	-0,198
-184,344	147,010	-0,037	0,035
-183,329	-141,490	-0,100	-0,007
-182,315	800,000	0,043	-0,094
-181,300	61,375	-0,043	0,030
-180,285	-200,000	0,010	0,040
-179,271	134,058	0,033	-0,030
-178,256	-62,677	0,058	0,017
-177,242	-200,000	0,004	-0,108
-176,227	800,000	-0,036	0,075
-175,212	50,018	-0,015	0,010
-174,198	6,632	-0,139	0,073
-173,183	-200,000	-0,003	-0,092
-172,169	11,198	0,040	0,022
-171,154	-145,030	-0,013	-0,001
-170,139	3,761	0,065	0,034
-169,125	288,453	0,110	-0,141
-168,110	-95,820	0,147	0,028
-167,096	-200,000	0,005	-0,046
-166,081	92,929	0,024	-0,019
-165,066	-158,933	-0,075	-0,003
-164,052	12,333	0,099	-0,054
-163,037	-64,747	0,080	0,023
-162,023	-200,000	-0,011	0,128
-161,008	-200,000	-0,002	0,029
-159,993	-200,000	-0,011	0,076
-158,979	237,971	-0,079	0,093
-157,964	247,855	0,035	-0,042
-156,950	-41,967	0,190	0,069
-155,935	-168,441	0,103	0,003
-154,920	-39,614	-0,055	-0,020
-153,906	119,429	0,132	0,116
-152,891	-200,000	0,013	0,156
-151,877	-140,910	0,087	0,006
-150,862	-42,824	-0,098	-0,035
-149,847	-181,606	0,051	0,001
-148,833	716,172	0,076	-0,144
-147,818	-52,784	0,020	0,007
-146,804	-200,000	0,001	0,060
-145,789	-200,000	0,055	0,248
-144,775	31,174	0,165	-0,100
-143,760	215,405	0,007	-0,008
-142,745	514,025	-0,047	-0,077
-141,731	138,238	0,060	-0,056
-140,716	-175,087	0,058	0,001
-139,702	-32,359	0,116	0,046
-138,687	-57,741	-0,078	0,024
-137,672	153,713	-0,042	-0,041
-136,658	188,472	-0,076	0,080
-135,643	-71,462	0,067	-0,018
-134,629	-200,000	0,016	-0,064
-133,614	800,000	0,021	0,055
-132,599	50,890	0,130	0,087
-131,585	-182,556	-0,133	-0,002
-130,570	-200,000	0,032	-0,157
-129,556	193,307	-0,074	-0,080
-128,541	-92,563	-0,074	0,015
-127,526	-200,000	-0,035	0,189
-126,512	-200,000	0,021	-0,069
-125,497	368,651	0,099	0,142
-124,483	-200,000	0,037	0,133
-123,468	124,858	0,048	0,043
-122,453	800,000	0,040	-0,092
-121,439	-13,102	-0,030	0,014
-120,424	112,823	-0,025	-0,022
-119,410	58,518	-0,081	-0,056
-118,395	-49,216	0,095	0,032
-117,380	-200,000	0,030	0,103
-116,366	-135,829	-0,058	-0,005
-115,351	800,000	0,045	0,095
-114,337	19,928	0,124	0,071
-113,322	-200,000	0,003	0,054
-112,307	-38,883	0,058	0,022
-111,293	-200,000	0,038	0,145
-110,278	800,000	-0,048	-0,142
-109,264	394,115	-0,051	-0,075
-108,249	800,000	0,076	-0,206
-107,234	800,000	-0,070	-0,171
-106,220	800,000	-0,094	-0,191
-105,205	-88,442	-0,092	-0,019
-104,191	-106,097	-0,056	-0,009
-103,176	256,657	0,044	0,053
-102,162	61,759	-0,008	-0,006
-101,147	87,342	-0,056	-0,044
-100,132	-177,790	-0,121	-0,002
-99,118	454,179	-0,072	-0,114
-98,103	-4,606	0,085	0,042
-97,089	-200,000	0,006	0,153
-96,074	19,662	-0,036	-0,021
-95,059	499,605	-0,090	-0,147
-94,045	-200,000	0,004	-0,209
-93,030	-200,000	0,018	-0,125
-92,016	-74,934	-0,075	0,019
-91,001	403,764	0,080	-0,119
-89,986	123,077	-0,054	0,048
-88,972	800,000	-0,061	0,124
-87,957	461,584	0,033	0,053
-86,943	535,000	-0,103	-0,174
-85,928	-73,335	-0,217	0,056
-84,913	368,443	-0,018	-0,026
-83,899	-200,000	-0,007	-0,096
-82,884	142,059	0,016	-0,015
-81,870	553,526	0,073	0,125
-80,855	-200,000	0,005	0,169
-79,840	-41,785	0,057	-0,020
-78,826	-72,530	-0,133	-0,035
-77,811	33,116	-0,086	-0,053
-76,797	-14,248	-0,051	0,023
-75,782	68,006	-0,062	0,045
-74,767	-144,825	0,065	0,004
-73,753	89,414	-0,103	-0,082
-72,738	351,626	-0,026	-0,037
-71,724	800,000	0,058	0,144
-70,709	-20,284	-0,113	-0,049
-69,694	6,456	-0,056	0,030
-68,680	-200,000	0,019	-0,067
-67,665	608,105	0,078	0,138
-66,651	-147,059	0,098	0,006
-65,636	-166,807	0,077	0,002
-64,622	325,536	-0,048	0,065
-63,607	478,250	-0,061	-0,098
-62,592	-52,368	0,041	-0,013
-61,578	800,000	0,058	0,146
-60,563	-131,605	-0,018	0,002
-59,549	800,000	0,038	0,088
-58,534	-88,406	-1,655	-0,347
-57,519	387,119	-1,501	-2,204
-56,505	-200,000	-0,728	-4,624
-55,490	169,252	0,922	0,933
-54,476	800,000	4,853	11,337
-53,461	-200,000	18,435	294,144
-52,446	800,000	730,139	2248,077
-51,432	557,255	1646,183	2821,223
-50,417	79,023	1666,998	1262,860
-49,403	22,628	1540,486	890,608
-48,388	16,558	1463,843	816,863
-47,373	17,812	1453,714	817,222
-46,359	17,099	1444,107	808,376
-45,344	14,845	1439,364	794,916
-44,330	14,767	1437,492	793,478
-43,315	14,772	1435,764	792,516
-42,300	14,794	1434,261	791,760
-41,286	14,824	1433,076	791,220
-40,271	14,785	1431,723	790,257
-39,257	14,794	1430,521	789,604
-38,242	14,819	1429,259	788,996
-37,227	14,846	1427,911	788,349
-36,213	14,818	1426,560	787,435
-35,198	14,799	1425,555	786,762
-34,184	14,845	1424,611	786,426
-33,169	14,809	1423,360	785,536
-32,154	14,825	1422,220	784,950
-31,140	14,824	1421,037	784,259
-30,125	14,860	1419,758	783,691
-29,111	14,800	1418,682	782,787
-28,096	14,799	1417,591	782,147
-27,082	14,760	1416,539	781,355
-26,067	14,696	1415,599	780,504
-25,052	14,731	1414,377	779,960
-24,038	14,730	1413,344	779,355
-23,023	14,677	1412,681	778,713
-22,009	14,667	1411,679	778,081
-20,994	14,705	1410,692	777,686
-19,979	14,637	1409,845	776,869
-18,965	14,663	1408,619	776,284
-17,950	14,621	1407,806	775,608
-16,936	14,623	1406,881	775,078
-15,921	14,621	1405,540	774,298
-14,906	14,646	1404,749	773,950
-13,892	14,695	1403,824	773,637
-12,877	14,641	1402,960	772,878
-11,863	14,665	1401,978	772,418
-10,848	14,626	1400,981	771,656
-9,833	14,622	1400,287	771,227
-8,819	14,566	1399,314	770,398
-7,804	14,523	1398,453	769,693
-6,790	14,562	1397,337	769,231
-5,775	14,529	1396,296	768,474
-4,760	14,589	1395,260	768,151
-3,746	14,544	1394,740	767,626
-2,731	14,570	1393,695	767,140
-1,717	14,538	1392,956	766,557
-0,702	14,562	1391,078	765,601
0,313	18,260	1309,616	737,927
1,327	34,566	706,246	435,721
2,342	52,823	124,342	84,003
3,356	5,060	16,591	8,616
4,371	-0,468	3,097	1,551
5,386	-5,841	0,729	0,352
6,400	-200,000	0,013	0,216
7,415	51,831	-0,186	-0,125
8,429	93,479	-0,268	-0,215
9,444	147,932	-0,283	-0,270
10,459	163,898	-0,316	-0,315
11,473	127,252	-0,250	-0,224
12,488	112,185	-0,209	-0,179
13,502	214,841	-0,228	-0,256
14,517	-129,586	-0,458	-0,044
15,531	63,928	-0,241	-0,171
16,546	41,545	-0,169	-0,108
17,561	70,208	-0,400	-0,292
18,575	-110,308	-0,168	-0,024
19,590	464,036	-0,204	-0,323
20,604	28,486	-0,214	-0,128
21,619	56,876	-0,458	-0,315
22,634	72,268	-0,438	-0,322
23,648	168,060	-0,218	-0,220
24,663	88,652	-0,329	-0,258
25,677	105,320	-0,356	-0,296
26,692	576,682	-0,214	-0,371
27,707	64,717	-0,401	-0,286
28,721	99,050	-0,304	-0,248
29,736	55,255	-0,435	-0,296
30,750	77,023	-0,414	-0,310
31,765	100,393	-0,224	-0,184
32,780	-2,033	-0,459	-0,227
33,794	-4,678	-0,330	-0,160
34,809	201,463	-0,303	-0,330
35,823	-10,890	-0,337	-0,156
36,838	35,919	-0,299	-0,185
37,853	62,265	-0,350	-0,246
38,867	21,904	-0,380	-0,218
39,882	44,086	-0,274	-0,177
40,896	65,325	-0,358	-0,255
41,911	450,406	-0,216	-0,337
42,926	26,337	-0,211	-0,124
43,940	44,780	-0,388	-0,251
44,955	36,912	-0,401	-0,250
45,969	163,113	-0,353	-0,350
46,984	20,059	-0,363	-0,206
47,999	319,225	-0,313	-0,420
49,013	-21,387	-0,348	-0,149
50,028	101,984	-0,327	-0,269
51,042	101,460	-0,375	-0,308
52,057	375,114	-0,188	-0,271
53,071	155,805	-0,313	-0,305
54,086	62,754	-0,348	-0,245
55,101	-87,556	-0,404	-0,085
56,115	-136,436	-0,281	-0,023
57,130	32,609	-0,385	-0,234
58,144	5,119	-0,336	-0,174
59,159	142,978	-0,400	-0,375
60,174	88,883	-0,290	-0,227
61,188	38,574	-0,302	-0,189
62,203	-40,326	-0,336	-0,123
63,217	1,328	-0,427	-0,215
64,232	-47,047	-0,424	-0,145
65,247	0,607	-0,403	-0,202
66,261	-16,287	-0,402	-0,179
67,276	45,131	-0,333	-0,215
68,290	112,090	-0,344	-0,292
69,305	206,827	-0,264	-0,290
70,320	7,521	-0,306	-0,160
71,334	280,358	-0,216	-0,273
72,349	75,635	-0,271	-0,201
73,363	297,585	-0,194	-0,251
74,378	-47,606	-0,347	-0,118
75,393	-13,862	-0,238	-0,108
76,407	313,908	-0,289	-0,383
77,422	83,313	-0,313	-0,239
78,436	-43,080	-0,320	-0,113
79,451	157,585	-0,254	-0,247
80,466	96,852	-0,235	-0,189
81,480	203,317	-0,282	-0,307
82,495	58,371	-0,298	-0,205
83,509	141,110	-0,195	-0,181
84,524	-71,422	-0,449	-0,117
85,539	107,617	-0,246	-0,206
86,553	-85,497	-0,362	-0,078
87,568	71,933	-0,355	-0,259
88,582	135,317	-0,329	-0,300
89,597	17,985	-0,298	-0,166
90,611	47,269	-0,259	-0,169
91,626	-49,653	-0,293	-0,097
92,641	28,025	-0,144	-0,085
93,655	126,650	-0,254	-0,226
94,670	343,209	-0,183	-0,253
95,684	-45,469	-0,403	-0,139
96,699	69,026	-0,288	-0,207
97,714	96,406	-0,250	-0,201
98,728	44,592	-0,076	-0,049
99,743	253,875	-0,254	-0,305
100,757	-13,564	-0,310	-0,140
101,772	232,189	-0,229	-0,264
102,787	67,909	-0,298	-0,213
103,801	66,168	-0,307	-0,219
104,816	-49,254	-0,260	-0,087
105,830	170,726	-0,292	-0,294
106,845	-29,059	-0,216	-0,086
107,860	27,968	-0,229	-0,135
108,874	2,169	-0,339	-0,171
109,889	544,487	-0,162	-0,272
110,903	7,697	-0,234	-0,122
111,918	-54,033	-0,319	-0,101
112,933	-35,762	-0,225	-0,085
113,947	-42,116	-0,315	-0,112
114,962	195,080	-0,250	-0,267
115,976	58,321	-0,309	-0,212
116,991	-141,470	-0,276	0,019
118,006	11,412	-0,308	-0,165
119,020	159,524	-0,205	-0,200
120,035	-50,981	-0,349	-0,114
121,049	18,981	-0,263	-0,147
122,064	-87,486	-0,329	-0,069
123,079	142,107	-0,236	-0,219
124,093	-22,748	-0,281	-0,118
125,108	38,708	-0,272	-0,169
126,122	65,049	-0,209	-0,147
127,137	-79,229	-0,126	-0,030
128,151	94,726	-0,181	-0,144
129,166	-32,229	-0,269	-0,105
130,181	554,002	-0,169	-0,286
131,195	38,077	-0,271	-0,169
132,210	239,122	-0,277	-0,323
133,224	206,724	-0,238	-0,259
134,239	1,241	-0,222	-0,111
135,254	-17,745	-0,200	-0,088
136,268	-14,100	-0,227	-0,102
137,283	800,000	-0,126	-0,318
138,297	194,721	-0,254	-0,270
139,312	188,743	-0,241	-0,253
140,327	15,877	-0,319	-0,175
141,341	7,314	-0,406	-0,211
142,356	-109,051	-0,171	-0,025
143,370	6,594	-0,233	-0,121
144,385	79,412	-0,272	-0,204
145,400	46,002	-0,144	-0,093
146,414	11,710	-0,219	-0,117
147,429	328,317	-0,180	-0,243
148,443	-13,973	-0,216	-0,097
149,458	244,370	-0,177	-0,208
150,473	40,390	-0,235	-0,148
151,487	110,815	-0,249	-0,209
152,502	149,160	-0,286	-0,271
153,516	45,147	-0,201	-0,129
154,531	-66,235	-0,313	-0,086
155,546	-42,613	-0,232	-0,082
156,560	-134,600	-0,325	-0,027
157,575	311,795	-0,193	-0,254
158,589	438,429	-0,065	-0,100
159,604	16,942	-0,213	-0,118
160,619	232,603	-0,181	-0,208
161,633	381,746	-0,076	-0,109
162,648	64,177	-0,289	-0,203
163,662	137,795	-0,177	-0,161
164,677	120,599	-0,344	-0,298
165,692	177,955	-0,177	-0,180
166,706	111,180	-0,227	-0,190
167,721	-50,204	-0,157	-0,052
168,735	167,033	-0,193	-0,191
169,750	800,000	-0,142	-0,305
170,764	75,285	-0,206	-0,151
171,779	49,815	-0,240	-0,157
172,794	-78,794	-0,184	-0,043
173,808	91,496	-0,212	-0,166
174,823	76,306	-0,320	-0,236
175,837	22,792	-0,208	-0,119
176,852	103,357	-0,244	-0,199
177,867	-0,187	-0,302	-0,149
178,881	220,047	-0,145	-0,162
179,896	95,795	-0,193	-0,154
180,910	275,082	-0,201	-0,248
181,925	52,273	-0,243	-0,161
182,940	-200,000	-0,022	-0,122
183,954	-41,463	-0,138	-0,049
184,969	3,472	-0,256	-0,129
185,983	-71,940	-0,172	-0,044
186,998	316,373	-0,167	-0,220
188,013	43,360	-0,218	-0,139
189,027	17,775	-0,220	-0,122
190,042	20,702	-0,256	-0,144
191,056	385,839	-0,148	-0,214
192,071	176,218	-0,178	-0,181
193,086	800,000	-0,110	-0,269
194,100	73,786	-0,130	-0,095
195,115	-159,785	-0,215	-0,008
196,129	76,194	-0,307	-0,226
197,144	91,010	-0,269	-0,210
198,159	287,352	-0,104	-0,131
199,173	754,913	-0,068	-0,128
200,188	-94,746	-0,300	-0,056
201,202	124,903	-0,151	-0,132
202,217	79,014	-0,183	-0,136
203,232	304,197	-0,191	-0,247
204,246	296,178	-0,237	-0,303
205,261	72,119	-0,220	-0,159
206,275	423,927	-0,130	-0,194
207,290	147,405	-0,246	-0,231
208,304	486,714	-0,078	-0,124
209,319	-46,389	-0,215	-0,073
210,334	35,295	-0,223	-0,136
211,348	56,662	-0,346	-0,234
212,363	395,452	-0,124	-0,181
213,377	-28,692	-0,208	-0,083
214,392	112,394	-0,141	-0,119
215,407	66,393	-0,126	-0,089
216,421	85,799	-0,236	-0,180
217,436	127,047	-0,209	-0,184
218,450	89,756	-0,241	-0,187
219,465	69,419	-0,196	-0,140
220,480	-200,000	0,001	-0,180
221,494	164,804	-0,204	-0,200
222,509	193,798	-0,202	-0,212
223,523	-106,416	-0,248	0,038
224,538	-85,839	-0,183	0,039
225,553	800,000	-0,089	-0,251
226,567	30,555	-0,279	-0,165
227,582	-10,063	-0,180	-0,083
228,596	215,184	-0,130	-0,143
229,611	-63,417	-0,225	-0,064
230,626	-189,329	-0,208	0,002
231,640	25,620	-0,234	-0,135
232,655	277,658	-0,135	-0,167
233,669	42,383	-0,244	-0,154
234,684	25,441	-0,193	-0,111
235,699	800,000	-0,081	-0,246
236,713	267,100	-0,139	-0,169
237,728	62,398	-0,170	-0,117
238,742	-24,200	-0,252	-0,104
239,757	525,547	-0,180	-0,294
240,772	214,770	-0,202	-0,223
241,786	20,107	-0,244	-0,136
242,801	18,149	-0,203	-0,112
243,815	-200,000	-0,086	-0,268
244,830	76,834	-0,161	-0,118
245,844	548,368	-0,122	-0,204
246,859	84,558	-0,179	-0,135
247,874	106,586	-0,202	-0,166
248,888	140,529	-0,231	-0,211
249,903	-28,037	-0,188	-0,075
250,917	278,411	-0,187	-0,231
251,932	71,466	-0,234	-0,168
252,947	7,736	-0,197	-0,102
253,961	-27,789	-0,155	-0,062
254,976	75,569	-0,131	-0,096
255,990	-63,830	-0,275	-0,077
257,005	-200,000	-0,024	-0,102
258,020	256,067	-0,150	-0,179
259,034	-54,225	-0,089	-0,028
260,049	54,385	-0,180	-0,120
261,063	170,207	-0,166	-0,164
262,078	15,549	-0,316	-0,171
263,093	133,893	-0,192	-0,172
264,107	117,102	-0,221	-0,188
265,122	22,457	-0,157	-0,089
266,136	192,477	-0,031	-0,032
267,151	54,961	-0,122	-0,082
268,166	124,381	-0,134	-0,117
269,180	198,809	-0,161	-0,170
270,195	-10,989	-0,220	-0,100
271,209	-161,182	-0,175	0,006
272,224	30,768	-0,296	-0,174
273,239	43,070	-0,178	-0,112
274,253	507,703	-0,080	-0,129
275,268	163,628	-0,111	-0,108
276,282	-15,168	-0,162	-0,072
277,297	354,953	-0,142	-0,196
278,312	3,304	-0,209	-0,105
279,326	693,017	-0,155	-0,282
280,341	134,029	-0,147	-0,132
281,355	800,000	-0,083	-0,189
282,370	-101,294	-0,209	0,035
283,384	124,391	-0,250	-0,217
284,399	129,318	-0,206	-0,181
285,414	-200,000	-0,045	-0,155
286,428	-200,000	-0,015	-0,084
287,443	-200,000	-0,044	-0,136
288,457	204,719	-0,061	0,065
289,472	-142,408	-0,216	-0,014
290,487	-49,746	-0,194	-0,063
291,501	191,905	-0,235	-0,245
292,516	130,570	-0,159	-0,140
293,530	88,312	-0,217	-0,166
294,545	40,189	-0,211	-0,131
295,560	177,320	-0,151	-0,152
296,574	17,776	-0,189	-0,103
297,589	648,221	-0,140	-0,248
298,603	37,519	-0,224	-0,137
299,618	350,118	-0,164	-0,225
300,633	-200,000	-0,039	-0,126
301,647	94,554	-0,202	-0,159
302,662	-0,613	-0,220	-0,107
303,676	242,093	-0,121	-0,140
304,691	109,157	-0,149	-0,123
305,706	283,775	-0,202	-0,251
306,720	131,541	-0,160	-0,141
307,735	-51,201	-0,188	-0,060
308,749	54,093	-0,227	-0,150
309,764	347,628	-0,116	-0,158
310,779	155,773	-0,217	-0,206
311,793	592,675	0,065	-0,112
312,808	98,950	-0,222	-0,177
313,822	-200,000	-0,032	-0,113
314,837	800,000	0,079	-0,213
315,852	-24,376	-0,192	-0,079
316,866	107,071	-0,227	-0,185
317,881	-44,510	-0,214	-0,073
318,895	-200,000	-0,026	-0,181
319,910	64,080	-0,130	-0,090
320,925	417,558	-0,137	-0,202
321,939	-200,000	-0,047	-0,160
322,954	40,439	-0,107	-0,066
323,968	-200,000	0,001	0,050
324,983	-26,812	-0,087	-0,035
325,997	162,330	-0,083	-0,080
327,012	127,577	-0,124	-0,108
328,027	-90,366	-0,225	-0,044
329,041	-36,657	-0,225	-0,083
330,056	89,043	-0,125	-0,096
331,070	2,124	-0,202	-0,100
332,085	-71,986	-0,123	0,031
333,100	800,000	-0,078	-0,199
334,114	389,161	-0,129	-0,184
335,129	39,197	-0,112	-0,069
336,143	644,919	-0,051	-0,090
337,158	-40,792	-0,314	0,111
338,173	-200,000	-0,151	0,000
339,187	270,682	-0,109	-0,131
340,202	-138,915	-0,165	-0,012
341,216	71,981	-0,185	-0,132
342,231	-157,860	-0,253	-0,010
343,246	-92,769	-0,211	-0,040
344,260	97,011	-0,109	-0,086
345,275	599,388	-0,029	-0,050
346,289	-68,789	-0,222	-0,059
347,304	46,494	-0,161	-0,103
348,319	395,026	-0,062	-0,089
349,333	83,208	-0,197	-0,147
350,348	25,753	-0,139	-0,079
351,362	345,407	-0,093	-0,126
352,377	67,891	-0,070	-0,049
353,392	800,000	-0,055	-0,114
354,406	144,704	-0,150	-0,137
355,421	207,774	1317,622	1413,385
356,435	159,841	1478,725	1413,890
