DTS Sentinel unit serial number:	SN410029Multiplexer serial number:	ORYXHardware model number:	OX2-SRSoftware version number:	ORYX F/W v4,00 Oryx Data Collector v3.7.2.0data status	okinstallation	B3 Nyhavnadifferential loss correction	single-endedforward channel	channel 1reverse channel	N/Adate	2023/11/29time	21:57:30forward acquisition time	300,00reverse acquisition time	0,00gamma	499,1914k internal	0,3210k external	0,3210temperature offset calibration	1,0000default loss term (dB/km)	0,3820temperature slope calibration	1,0000multiplexer offset coefficient	1,0000multiplexer slope coefficient	1,0000fibre end	0,00T internal ref (°C)	10,81T ext. ref 1 (°C)	-4,32T ext. ref 2 (°C)	-4,40length (m)	temperature (°C)	Stokes	anti-Stokes-744,400	111,792	-0,135	-0,118
-743,385	-200,000	-0,024	0,213
-742,371	160,050	-0,255	-0,258
-741,356	800,000	0,137	0,321
-740,342	800,000	-0,139	-0,339
-739,327	384,926	0,118	0,177
-738,312	87,397	-0,311	-0,249
-737,298	-200,000	-0,053	0,203
-736,283	800,000	-0,089	-0,232
-735,269	800,000	-0,110	0,246
-734,254	-15,737	-0,228	-0,105
-733,239	-122,808	-0,220	-0,026
-732,225	327,442	-0,148	-0,206
-731,210	63,803	0,206	0,150
-730,196	-29,064	-0,195	-0,081
-729,181	800,000	0,045	-0,115
-728,167	-152,080	-0,067	0,003
-727,152	37,145	-0,038	-0,025
-726,137	-200,000	-0,042	-0,162
-725,123	564,462	-0,087	-0,154
-724,108	-5,235	-0,152	-0,075
-723,094	-3,140	-0,199	-0,100
-722,079	232,663	0,046	0,055
-721,064	-85,433	-0,126	-0,028
-720,050	800,000	-0,010	-0,022
-719,035	-147,081	-0,193	0,012
-718,021	-163,928	-0,140	0,005
-717,006	114,296	-0,123	0,109
-715,991	-53,760	-0,077	-0,025
-714,977	-153,849	0,051	0,002
-713,962	119,912	-0,106	-0,095
-712,948	800,000	0,039	-0,088
-711,933	-86,368	0,075	0,017
-710,918	38,792	0,122	-0,079
-709,904	-200,000	-0,002	-0,098
-708,889	-104,811	0,052	0,009
-707,875	-12,198	-0,151	-0,071
-706,860	40,513	-0,005	0,003
-705,845	18,411	0,042	0,024
-704,831	769,813	0,042	-0,084
-703,816	-119,101	0,081	0,010
-702,802	-200,000	0,012	0,119
-701,787	-200,000	0,007	-0,067
-700,772	-131,824	-0,139	-0,013
-699,758	459,274	0,099	-0,159
-698,743	-179,703	-0,015	-0,000
-697,729	266,127	0,098	0,124
-696,714	61,872	-0,069	0,050
-695,699	800,000	-0,045	-0,125
-694,685	288,079	-0,027	-0,036
-693,670	608,537	-0,039	-0,070
-692,656	65,680	-0,100	-0,073
-691,641	800,000	-0,012	-0,028
-690,627	-200,000	0,004	-0,079
-689,612	800,000	0,039	0,108
-688,597	3,936	-0,134	0,071
-687,583	-109,477	-0,044	0,007
-686,568	-93,418	0,054	0,011
-685,554	-89,811	0,030	0,006
-684,539	537,062	-0,033	-0,057
-683,524	-64,280	0,102	-0,030
-682,510	-100,315	-0,083	-0,015
-681,495	-68,199	-0,027	0,007
-680,481	-0,459	-0,017	0,009
-679,466	800,000	-0,044	-0,101
-678,451	-200,000	-0,032	-0,137
-677,437	800,000	0,052	0,149
-676,422	-200,000	-0,001	-0,009
-675,408	-173,279	0,050	-0,001
-674,393	-29,265	-0,076	0,031
-673,378	35,940	0,048	0,031
-672,364	272,966	-0,048	-0,061
-671,349	-3,866	-0,064	0,032
-670,335	85,006	-0,098	-0,078
-669,320	-8,259	-0,075	0,036
-668,305	247,037	-0,064	-0,078
-667,291	109,472	0,055	-0,048
-666,276	198,026	-0,026	-0,029
-665,262	-60,704	-0,145	0,044
-664,247	-200,000	0,032	-0,114
-663,232	-85,944	-0,075	0,017
-662,218	49,420	-0,101	-0,069
-661,203	353,428	-0,076	-0,109
-660,189	-200,000	0,013	0,138
-659,174	-100,707	-0,103	0,018
-658,159	278,498	-0,039	-0,050
-657,145	-18,908	-0,189	-0,085
-656,130	800,000	-0,065	-0,189
-655,116	8,741	-0,029	-0,016
-654,101	-200,000	0,003	-0,103
-653,086	252,481	-0,073	-0,090
-652,072	-69,128	-0,056	-0,015
-651,057	-200,000	-0,000	0,037
-650,043	-200,000	-0,034	-0,147
-649,028	162,804	0,098	-0,100
-648,014	173,497	0,017	-0,018
-646,999	193,779	-0,058	0,064
-645,984	362,735	0,085	0,124
-644,970	169,176	-0,102	0,105
-643,955	111,386	-0,054	0,047
-642,941	64,101	-0,100	-0,073
-641,926	-49,215	-0,032	0,011
-640,911	-200,000	0,010	-0,380
-639,897	-63,215	0,066	0,020
-638,882	-200,000	-0,036	0,131
-637,868	-105,405	-0,070	-0,011
-636,853	-200,000	-0,008	-0,075
-635,838	-105,200	-0,135	0,022
-634,824	800,000	0,041	0,107
-633,809	489,050	-0,042	0,070
-632,795	-3,725	0,103	0,052
-631,780	-200,000	0,004	0,052
-630,765	-129,832	-0,031	-0,003
-629,751	-27,015	-0,055	0,023
-628,736	5,256	-0,034	-0,018
-627,722	592,052	-0,054	-0,097
-626,707	151,920	-0,063	0,062
-625,692	238,861	0,050	0,061
-624,678	-168,869	0,134	-0,004
-623,663	154,613	-0,035	-0,035
-622,649	98,992	-0,084	0,070
-621,634	-7,776	0,112	0,055
-620,619	800,000	-0,001	0,004
-619,605	-23,223	0,180	0,078
-618,590	50,577	0,104	-0,071
-617,576	-83,419	0,095	0,022
-616,561	800,000	-0,068	0,140
-615,546	-200,000	-0,009	-0,082
-614,532	-20,352	0,076	-0,034
-613,517	-101,083	-0,144	-0,025
-612,503	231,498	0,048	-0,057
-611,488	534,067	0,050	-0,086
-610,474	-75,114	-0,120	0,031
-609,459	-200,000	-0,024	-0,080
-608,444	429,022	-0,018	-0,028
-607,430	-200,000	0,003	-0,032
-606,415	24,993	-0,052	0,031
-605,401	109,418	0,087	-0,075
-604,386	-200,000	0,002	-0,072
-603,371	535,923	0,027	-0,046
-602,357	52,549	-0,151	-0,104
-601,342	-200,000	0,017	-0,073
-600,328	800,000	-0,015	0,045
-599,313	-51,585	-0,052	-0,018
-598,298	-200,000	0,010	-0,096
-597,284	53,017	0,072	0,050
-596,269	1,946	0,092	0,048
-595,255	-33,549	-0,044	0,017
-594,240	-200,000	0,009	0,083
-593,225	-95,358	0,022	0,004
-592,211	-200,000	-0,070	-0,237
-591,196	324,501	0,072	-0,099
-590,182	113,697	-0,089	0,078
-589,167	300,774	0,038	-0,050
-588,152	106,701	0,079	0,068
-587,138	18,059	0,097	-0,055
-586,123	-200,000	-0,017	-0,158
-585,109	-120,271	-0,117	-0,014
-584,094	-54,518	0,086	0,028
-583,079	73,109	-0,051	0,039
-582,065	116,684	0,045	0,040
-581,050	800,000	0,019	-0,057
-580,036	157,179	-0,118	-0,117
-579,021	-104,355	-0,166	-0,027
-578,006	-97,427	-0,113	-0,021
-576,992	-52,015	-0,085	-0,028
-575,977	135,540	-0,062	0,058
-574,963	-200,000	-0,009	0,028
-573,948	-3,048	0,091	0,046
-572,934	-200,000	0,009	0,082
-571,919	800,000	-0,022	-0,058
-570,904	370,519	-0,091	-0,133
-569,890	800,000	0,056	-0,164
-568,875	-200,000	-0,035	-0,113
-567,861	800,000	0,026	-0,079
-566,846	-75,753	-0,052	-0,013
-565,831	-46,643	0,104	0,036
-564,817	-103,579	0,041	-0,007
-563,802	-143,896	-0,095	0,006
-562,788	-46,496	-0,083	0,029
-561,773	-200,000	0,009	0,035
-560,758	-90,584	0,089	-0,018
-559,744	202,710	0,131	0,146
-558,729	800,000	-0,022	-0,044
-557,715	272,858	-0,065	-0,082
-556,700	156,234	-0,153	-0,152
-555,685	-200,000	-0,001	-0,080
-554,671	-154,198	0,039	-0,002
-553,656	800,000	0,045	0,103
-552,642	619,932	-0,031	0,055
-551,627	-200,000	-0,009	0,082
-550,612	-92,680	0,060	0,012
-549,598	-132,414	0,085	-0,008
-548,583	800,000	-0,022	-0,053
-547,569	-73,733	-0,114	-0,030
-546,554	-200,000	0,007	0,028
-545,539	800,000	-0,015	0,032
-544,525	-70,255	-0,059	0,016
-543,510	-200,000	-0,016	0,090
-542,496	-90,952	-0,110	0,023
-541,481	-168,173	-0,091	0,002
-540,466	531,517	-0,047	-0,081
-539,452	-200,000	-0,004	-0,080
-538,437	-90,208	0,095	0,020
-537,423	326,198	-0,076	0,105
-536,408	-30,416	-0,078	0,032
-535,393	211,920	-0,063	-0,072
-534,379	505,680	-0,083	0,139
-533,364	-200,000	0,003	-0,027
-532,350	275,460	0,081	-0,104
-531,335	145,868	-0,150	0,144
-530,321	800,000	-0,012	-0,033
-529,306	-49,805	-0,069	0,023
-528,291	148,596	0,017	0,017
-527,277	166,381	-0,072	-0,073
-526,262	240,066	0,014	-0,017
-525,248	-37,596	0,072	-0,028
-524,233	45,555	-0,047	-0,031
-523,218	-118,870	0,035	-0,004
-522,204	800,000	0,013	-0,040
-521,189	-200,000	0,006	-0,159
-520,175	41,135	-0,047	0,031
-519,160	-65,701	-0,120	-0,034
-518,145	39,491	0,090	-0,058
-517,131	-200,000	0,011	-0,042
-516,116	-61,258	-0,107	0,032
-515,102	-200,000	0,003	-0,044
-514,087	800,000	0,056	-0,117
-513,072	689,593	0,095	-0,180
-512,058	800,000	-0,029	0,060
-511,043	-147,457	0,072	0,004
-510,029	-200,000	-0,007	0,045
-509,014	129,870	0,094	0,086
-507,999	-200,000	0,006	0,119
-506,985	406,711	-0,049	-0,075
-505,970	53,586	-0,140	0,097
-504,956	-200,000	-0,011	0,092
-503,941	-93,266	0,031	0,006
-502,926	475,873	0,042	-0,068
-501,912	800,000	-0,034	-0,083
-500,897	-187,878	-0,059	-0,001
-499,883	-22,918	0,040	-0,017
-498,868	22,880	-0,083	0,049
-497,853	800,000	0,083	-0,182
-496,839	800,000	0,027	-0,080
-495,824	-68,969	0,084	-0,023
-494,810	-200,000	-0,013	0,131
-493,795	773,925	0,046	-0,090
-492,781	211,021	-0,050	-0,056
-491,766	-200,000	-0,007	-0,045
-490,751	-200,000	0,013	-0,131
-489,737	800,000	0,041	-0,117
-488,722	628,196	0,077	0,141
-487,708	710,122	0,040	0,076
-486,693	668,489	0,080	-0,149
-485,678	-114,374	0,070	-0,010
-484,664	-200,000	-0,016	-0,133
-483,649	86,154	-0,017	0,013
-482,635	-200,000	-0,010	0,047
-481,620	21,483	0,043	-0,025
-480,605	126,281	0,049	-0,044
-479,591	-200,000	0,018	0,084
-478,576	4,780	0,116	0,061
-477,562	800,000	-0,050	-0,134
-476,547	-200,000	0,003	-0,062
-475,532	327,152	0,111	0,153
-474,518	-180,803	0,038	-0,001
-473,503	343,713	0,053	0,075
-472,489	26,430	-0,069	0,041
-471,474	-200,000	-0,001	-0,041
-470,459	-3,463	0,072	0,036
-469,445	26,151	-0,057	-0,034
-468,430	-200,000	-0,003	0,038
-467,416	522,740	-0,043	-0,072
-466,401	87,757	0,026	-0,021
-465,386	-200,000	-0,011	0,050
-464,372	13,514	-0,028	0,015
-463,357	148,127	0,048	-0,047
-462,343	-2,583	-0,127	-0,064
-461,328	559,589	-0,090	0,157
-460,313	224,703	0,061	0,071
-459,299	-200,000	0,037	0,194
-458,284	377,503	0,030	0,044
-457,270	-200,000	0,010	-0,063
-456,255	150,366	-0,008	-0,007
-455,241	-200,000	-0,004	-0,097
-454,226	-200,000	-0,009	-0,066
-453,211	-200,000	-0,005	0,137
-452,197	-81,152	0,146	0,034
-451,182	800,000	-0,038	0,096
-450,168	100,723	0,076	0,064
-449,153	-119,729	-0,070	0,009
-448,138	-200,000	-0,011	0,162
-447,124	52,800	-0,043	0,029
-446,109	800,000	0,029	0,077
-445,095	-44,898	0,078	-0,028
-444,080	111,726	0,054	-0,047
-443,065	31,971	-0,041	-0,025
-442,051	156,398	-0,052	-0,051
-441,036	754,667	0,013	-0,025
-440,022	-88,421	-0,050	-0,011
-439,007	32,800	0,047	-0,029
-437,992	378,554	0,018	-0,026
-436,978	800,000	0,052	0,119
-435,963	-0,113	-0,027	-0,014
-434,949	-8,526	0,076	0,036
-433,934	-65,783	0,086	-0,025
-432,919	-200,000	-0,008	0,036
-431,905	-200,000	-0,034	-0,125
-430,890	102,752	0,021	-0,017
-429,876	-124,571	-0,079	-0,009
-428,861	-138,315	0,086	0,007
-427,846	-171,732	0,056	-0,001
-426,832	393,357	0,042	-0,062
-425,817	-116,344	0,030	-0,004
-424,803	1,820	-0,099	0,051
-423,788	-200,000	-0,022	0,100
-422,773	743,652	-0,063	0,122
-421,759	40,664	-0,064	-0,041
-420,744	-200,000	-0,024	-0,094
-419,730	270,599	-0,041	-0,052
-418,715	112,907	-0,056	0,049
-417,701	-200,000	0,013	-0,058
-416,686	415,208	0,052	-0,079
-415,671	565,501	0,066	-0,115
-414,657	129,101	-0,020	0,018
-413,642	522,136	0,074	-0,126
-412,628	-62,812	0,091	-0,027
-411,613	-200,000	-0,015	0,253
-410,598	-200,000	-0,061	-0,234
-409,584	-44,013	-0,128	-0,046
-408,569	488,253	-0,025	0,041
-407,555	-200,000	0,026	-0,139
-406,540	38,589	-0,094	-0,060
-405,525	-200,000	-0,024	0,088
-404,511	-200,000	-0,023	-0,086
-403,496	800,000	0,022	0,045
-402,482	-200,000	0,039	0,161
-401,467	-200,000	0,026	0,087
-400,452	-200,000	0,003	0,076
-399,438	24,613	-0,053	0,031
-398,423	-4,734	0,093	-0,046
-397,409	10,161	-0,120	-0,065
-396,394	-82,621	-0,050	-0,011
-395,379	800,000	0,047	0,122
-394,365	4,810	-0,021	-0,011
-393,350	-126,675	0,156	0,016
-392,336	-48,820	-0,054	-0,018
-391,321	-200,000	0,001	0,037
-390,306	-123,836	0,056	0,006
-389,292	61,680	-0,181	-0,129
-388,277	-50,524	0,055	0,018
-387,263	-200,000	0,004	-0,019
-386,248	-175,657	0,010	0,000
-385,233	800,000	-0,061	0,150
-384,219	-200,000	0,045	-0,170
-383,204	115,447	-0,078	-0,068
-382,190	-2,742	-0,112	-0,056
-381,175	117,096	-0,059	-0,051
-380,160	-200,000	0,015	0,073
-379,146	-200,000	-0,027	0,109
-378,131	-120,302	0,035	-0,004
-377,117	-71,800	-0,034	0,009
-376,102	308,833	-0,078	0,104
-375,088	800,000	-0,033	-0,092
-374,073	-149,411	-0,019	0,001
-373,058	164,633	-0,038	0,038
-372,044	-200,000	0,035	0,129
-371,029	113,316	0,041	-0,035
-370,015	-61,420	0,120	-0,036
-369,000	-200,000	0,004	0,024
-367,985	-147,416	-0,072	0,004
-366,971	292,807	0,018	-0,024
-365,956	410,803	0,041	0,063
-364,942	339,854	-0,083	-0,117
-363,927	152,234	0,078	0,076
-362,912	-75,446	0,186	-0,047
-361,898	220,718	0,133	-0,152
-360,883	-79,146	-0,055	-0,013
-359,869	70,577	-0,156	0,115
-358,854	553,553	0,041	0,070
-357,839	586,171	0,094	0,166
-356,825	-200,000	-0,007	0,139
-355,810	-9,493	-0,100	-0,047
-354,796	97,766	0,109	0,090
-353,781	60,672	-0,122	0,086
-352,766	501,003	0,030	-0,050
-351,752	552,612	-0,033	0,056
-350,737	598,960	0,079	0,140
-349,723	200,124	-0,034	0,038
-348,708	-200,000	-0,002	-0,031
-347,693	190,201	-0,093	-0,100
-346,679	64,437	-0,110	0,079
-345,664	70,587	-0,097	-0,071
-344,650	-111,340	0,046	0,007
-343,635	-200,000	-0,023	0,142
-342,620	45,963	-0,064	0,042
-341,606	-87,632	-0,089	-0,019
-340,591	58,071	0,048	-0,034
-339,577	800,000	-0,061	-0,122
-338,562	800,000	-0,026	-0,070
-337,548	41,052	-0,060	-0,039
-336,533	-79,684	0,130	0,031
-335,518	800,000	0,033	0,073
-334,504	-200,000	0,035	0,144
-333,489	-108,106	-0,087	-0,013
-332,475	168,492	0,048	-0,049
-331,460	800,000	-0,020	-0,052
-330,445	-54,083	0,112	0,036
-329,431	-30,895	0,204	0,082
-328,416	800,000	-0,005	0,012
-327,402	161,013	0,070	0,070
-326,387	267,395	-0,098	-0,123
-325,372	-146,470	0,065	0,004
-324,358	800,000	0,018	-0,047
-323,343	-61,875	0,076	-0,023
-322,329	-200,000	-0,015	0,060
-321,314	223,208	0,042	-0,048
-320,299	-200,000	-0,009	0,037
-319,285	115,875	0,117	0,102
-318,270	-32,020	-0,109	0,043
-317,256	-149,561	-0,136	0,008
-316,241	86,032	0,104	-0,082
-315,226	-200,000	0,005	-0,027
-314,212	5,731	0,035	0,019
-313,197	-200,000	-0,000	0,063
-312,183	76,976	0,082	-0,062
-311,168	-149,255	-0,087	-0,005
-310,153	46,171	-0,042	0,028
-309,139	173,044	-0,107	0,110
-308,124	22,963	0,061	0,036
-307,110	-37,697	0,114	0,043
-306,095	-42,708	0,078	-0,028
-305,080	70,070	0,108	0,079
-304,066	-9,816	-0,043	-0,021
-303,051	-54,300	-0,074	-0,024
-302,037	69,382	0,087	0,064
-301,022	46,431	0,043	-0,029
-300,008	352,661	0,064	0,091
-298,993	-200,000	0,012	0,108
-297,978	210,889	-0,033	-0,037
-296,964	46,976	-0,057	0,038
-295,949	-31,993	0,024	0,010
-294,935	-146,702	-0,044	0,003
-293,920	-49,518	-0,028	0,009
-292,905	-200,000	0,026	-0,100
-291,891	13,270	0,136	-0,075
-290,876	-200,000	0,008	0,087
-289,862	88,559	-0,055	0,044
-288,847	-142,556	0,099	-0,007
-287,832	-77,744	0,094	-0,023
-286,818	250,377	-0,047	0,057
-285,803	224,236	-0,047	-0,054
-284,789	5,698	0,076	-0,040
-283,774	800,000	-0,066	0,157
-282,759	800,000	-0,018	0,052
-281,745	-163,977	-0,070	0,002
-280,730	-142,433	-0,158	-0,011
-279,716	-56,422	0,089	-0,028
-278,701	455,370	-0,065	0,102
-277,686	-46,847	0,096	-0,033
-276,672	82,622	-0,043	-0,033
-275,657	800,000	-0,060	0,127
-274,643	-200,000	0,011	0,074
-273,628	-154,302	-0,202	-0,010
-272,613	-32,736	0,095	-0,037
-271,599	-106,974	0,051	-0,008
-270,584	800,000	-0,034	0,069
-269,570	-16,210	-0,093	-0,042
-268,555	-4,464	0,083	-0,041
-267,540	800,000	-0,017	0,051
-266,526	-200,000	-0,022	-0,097
-265,511	-131,053	-0,043	-0,004
-264,497	543,084	0,052	0,088
-263,482	-80,399	-0,057	-0,013
-262,467	-70,407	0,107	0,029
-261,453	-143,434	-0,114	-0,008
-260,438	-124,721	-0,042	-0,005
-259,424	466,760	0,025	-0,040
-258,409	64,771	-0,041	-0,029
-257,395	-173,766	0,031	-0,001
-256,380	-200,000	0,023	0,159
-255,365	344,842	0,056	0,078
-254,351	-61,369	0,118	0,035
-253,336	800,000	-0,026	-0,080
-252,322	-200,000	0,001	-0,055
-251,307	298,144	-0,058	-0,077
-250,292	-200,000	0,027	0,096
-249,278	72,573	-0,106	0,079
-248,263	-200,000	0,018	0,200
-247,249	337,819	0,023	-0,032
-246,234	-109,284	0,046	-0,007
-245,219	-63,489	-0,110	-0,032
-244,205	99,034	0,041	-0,033
-243,190	405,677	0,037	0,055
-242,176	-200,000	0,033	-0,144
-241,161	800,000	0,047	0,138
-240,146	351,146	-0,048	0,067
-239,132	-200,000	0,001	-0,066
-238,117	-85,736	-0,094	-0,021
-237,103	147,170	0,013	0,013
-236,088	-162,708	-0,105	-0,004
-235,073	246,074	0,075	-0,090
-234,059	-200,000	-0,001	0,018
-233,044	200,780	-0,054	-0,059
-232,030	127,111	0,082	0,074
-231,015	-200,000	0,015	-0,073
-230,000	-102,144	-0,185	0,031
-228,986	28,851	-0,061	0,037
-227,971	800,000	0,078	0,155
-226,957	-28,105	0,039	-0,016
-225,942	85,048	0,103	0,080
-224,927	-200,000	0,010	0,110
-223,913	145,632	-0,129	-0,123
-222,898	48,796	0,077	0,051
-221,884	-200,000	0,023	-0,080
-220,869	-200,000	0,019	0,116
-219,855	312,340	0,013	-0,017
-218,840	79,387	0,111	0,084
-217,825	18,761	-0,023	0,013
-216,811	-104,336	0,025	0,004
-215,796	-7,105	-0,067	-0,032
-214,782	-200,000	-0,009	0,038
-213,767	430,205	0,018	-0,029
-212,752	-200,000	0,019	0,146
-211,738	-38,028	0,185	0,069
-210,723	655,171	0,046	-0,084
-209,709	314,492	-0,064	-0,086
-208,694	607,875	-0,021	-0,038
-207,679	506,419	0,049	0,082
-206,665	9,132	0,151	0,081
-205,650	-37,870	0,070	0,026
-204,636	-111,994	-0,021	0,003
-203,621	145,746	-0,096	-0,091
-202,606	144,787	-0,008	-0,008
-201,592	-29,117	-0,066	-0,027
-200,577	-32,467	0,119	0,047
-199,563	-47,071	-0,067	-0,023
-198,548	162,558	0,041	-0,041
-197,533	800,000	-0,016	0,038
-196,519	800,000	0,033	0,087
-195,504	719,692	0,039	-0,073
-194,490	-83,314	-0,110	0,025
-193,475	-200,000	-0,001	-0,139
-192,460	800,000	0,050	-0,102
-191,446	263,113	0,044	-0,054
-190,431	90,858	0,034	0,027
-189,417	-200,000	0,038	-0,169
-188,402	36,799	-0,085	0,053
-187,387	800,000	-0,045	-0,108
-186,373	-98,065	-0,097	-0,017
-185,358	-11,362	0,159	-0,074
-184,344	-65,364	-0,131	-0,037
-183,329	-200,000	-0,027	0,106
-182,315	800,000	0,081	0,190
-181,300	23,209	0,125	0,073
-180,285	25,380	-0,118	-0,069
-179,271	-115,949	-0,122	0,016
-178,256	-15,088	0,164	-0,074
-177,242	-200,000	-0,034	0,000
-176,227	264,656	0,036	-0,044
-175,212	85,251	0,095	0,074
-174,198	-163,834	-0,080	-0,003
-173,183	-93,702	0,072	0,014
-172,169	377,212	0,045	-0,065
-171,154	23,857	0,055	0,032
-170,139	-116,977	0,112	-0,014
-169,125	-91,581	0,133	0,027
-168,110	356,934	0,017	0,024
-167,096	-200,000	-0,044	-0,141
-166,081	800,000	-0,007	0,015
-165,066	373,701	0,029	-0,042
-164,052	-95,642	-0,097	0,018
-163,037	-200,000	0,021	-0,082
-162,023	-200,000	0,019	0,066
-161,008	-2,515	-0,025	-0,012
-159,993	685,633	-0,067	-0,124
-158,979	-200,000	-0,027	-0,153
-157,964	-177,515	-0,064	-0,001
-156,950	181,260	0,016	0,017
-155,935	427,843	0,007	0,010
-154,920	-58,805	0,162	-0,049
-153,906	48,413	0,073	0,048
-152,891	-165,484	-0,196	-0,006
-151,877	-200,000	-0,028	0,128
-150,862	-79,806	0,048	-0,011
-149,847	-200,000	-0,007	-0,179
-148,833	-57,511	0,066	0,020
-147,818	16,905	0,080	0,045
-146,804	167,938	-0,161	0,162
-145,789	2,272	0,044	-0,023
-144,775	-200,000	0,026	-0,179
-143,760	51,744	0,061	-0,041
-142,745	-200,000	0,006	-0,023
-141,731	-200,000	0,004	-0,082
-140,716	800,000	0,056	0,174
-139,702	-200,000	0,003	0,088
-138,687	556,138	-0,011	0,018
-137,672	640,016	-0,073	-0,132
-136,658	228,557	0,160	-0,185
-135,643	-29,586	0,052	-0,021
-134,629	-25,289	-0,047	0,020
-133,614	-114,169	0,111	0,015
-132,599	-200,000	-0,020	0,134
-131,585	-16,719	0,101	0,045
-130,570	303,498	-0,085	-0,112
-129,556	800,000	-0,003	-0,009
-128,541	122,483	-0,103	-0,091
-127,526	800,000	-0,011	0,035
-126,512	800,000	-0,031	0,074
-125,497	-200,000	0,174	-0,000
-124,483	-98,553	-0,193	0,035
-123,468	135,742	-0,011	0,010
-122,453	607,992	0,025	-0,044
-121,439	-133,788	-0,088	0,008
-120,424	137,857	0,026	0,024
-119,410	81,567	0,041	0,031
-118,395	-39,761	0,084	-0,031
-117,380	144,412	0,026	0,025
-116,366	1,300	-0,055	0,028
-115,351	-200,000	0,014	0,046
-114,337	-200,000	0,002	-0,062
-113,322	284,365	0,107	-0,136
-112,307	-200,000	0,008	0,099
-111,293	-200,000	0,004	0,112
-110,278	-200,000	0,025	0,096
-109,264	800,000	0,044	-0,123
-108,249	800,000	-0,053	-0,123
-107,234	-32,935	-0,088	-0,034
-106,220	-200,000	0,033	-0,164
-105,205	659,040	-0,052	0,095
-104,191	-54,016	0,135	0,043
-103,176	490,538	-0,028	0,046
-102,162	800,000	0,057	0,115
-101,147	-200,000	-0,009	0,166
-100,132	-83,073	-0,042	0,009
-99,118	543,376	-0,057	0,097
-98,103	-35,138	-0,219	0,084
-97,089	800,000	-0,020	-0,049
-96,074	-200,000	-0,018	0,139
-95,059	692,715	0,047	0,088
-94,045	-200,000	0,000	0,035
-93,030	150,737	-0,039	-0,037
-92,016	-107,237	-0,085	0,013
-91,001	-200,000	0,010	-0,039
-89,986	129,861	0,089	0,080
-88,972	119,451	0,051	0,045
-87,957	65,626	-0,098	0,070
-86,943	181,020	-0,063	-0,065
-85,928	-16,615	-0,041	-0,018
-84,913	478,951	0,070	0,113
-83,899	-101,208	-0,182	0,031
-82,884	-79,036	0,129	0,031
-81,870	110,727	-0,050	-0,043
-80,855	-86,149	-0,128	0,028
-79,840	800,000	-0,038	0,078
-78,826	180,802	-0,037	-0,038
-77,811	27,993	-0,041	-0,024
-76,797	169,153	0,092	0,093
-75,782	-162,639	0,050	0,002
-74,767	-112,165	0,114	0,016
-73,753	-146,241	-0,098	-0,006
-72,738	-3,537	-0,031	-0,015
-71,724	274,660	0,020	0,025
-70,709	-200,000	-0,012	-0,068
-69,694	800,000	-0,011	-0,027
-68,680	800,000	-0,019	0,046
-67,665	-45,239	-0,002	-0,001
-66,651	781,501	-0,035	0,068
-65,636	-200,000	0,025	0,110
-64,622	112,597	-0,094	-0,080
-63,607	561,175	-0,033	-0,057
-62,592	-200,000	-0,006	-0,102
-61,578	210,679	-0,073	0,081
-60,563	192,500	0,080	0,085
-59,549	492,862	-0,054	0,088
-58,534	12,209	-1,899	-1,029
-57,519	495,079	-1,199	-1,951
-56,505	-200,000	-0,300	-4,379
-55,490	457,641	0,918	1,445
-54,476	800,000	5,063	11,160
-53,461	-200,000	20,886	329,969
-52,446	800,000	757,966	2324,343
-51,432	549,850	1662,426	2824,866
-50,417	73,434	1663,635	1227,991
-49,403	18,629	1537,000	865,570
-48,388	12,662	1459,759	793,193
-47,373	19,073	1450,650	819,003
-46,359	15,836	1440,004	797,554
-45,344	10,899	1435,894	771,723
-44,330	10,872	1433,877	770,481
-43,315	10,865	1432,014	769,414
-42,300	10,835	1430,419	768,386
-41,286	10,871	1428,999	767,763
-40,271	10,827	1427,906	766,934
-39,257	10,835	1426,468	766,173
-38,242	10,860	1425,444	765,709
-37,227	10,869	1424,286	765,100
-36,213	10,893	1423,167	764,581
-35,198	10,922	1422,042	764,082
-34,184	10,927	1421,205	763,625
-33,169	10,833	1419,847	762,423
-32,154	10,928	1418,702	762,228
-31,140	10,932	1417,438	761,537
-30,125	10,988	1416,498	761,264
-29,111	10,918	1415,406	760,318
-28,096	10,914	1414,085	759,558
-27,082	10,856	1413,025	758,689
-26,067	10,797	1412,051	757,858
-25,052	10,853	1410,837	757,437
-24,038	10,859	1409,910	756,936
-23,023	10,868	1408,772	756,339
-22,009	10,855	1407,727	755,689
-20,994	10,810	1406,598	754,842
-19,979	10,839	1405,843	754,542
-18,965	10,834	1404,955	754,011
-17,950	10,803	1404,085	753,372
-16,936	10,791	1403,281	752,856
-15,921	10,734	1402,390	752,081
-14,906	10,711	1401,589	751,515
-13,892	10,749	1400,481	751,065
-12,877	10,731	1399,568	750,464
-11,863	10,752	1398,671	750,049
-10,848	10,728	1397,773	749,427
-9,833	10,687	1396,803	748,687
-8,819	10,660	1396,123	748,168
-7,804	10,671	1395,124	747,653
-6,790	10,676	1394,249	747,181
-5,775	10,675	1393,239	746,603
-4,760	10,654	1392,166	745,903
-3,746	10,646	1391,385	745,415
-2,731	10,664	1390,728	745,119
-1,717	10,626	1389,621	744,318
-0,702	10,647	1387,673	743,342
0,313	14,619	1301,414	715,351
1,327	30,797	692,537	417,452
2,342	47,543	120,187	78,928
3,356	-0,079	16,397	8,207
4,371	-0,414	3,450	1,723
5,386	8,742	0,930	0,493
6,400	800,000	0,237	0,492
7,415	-25,190	-0,277	-0,115
8,429	-62,412	-0,335	-0,098
9,444	75,862	-0,182	-0,136
10,459	-115,269	-0,268	-0,035
11,473	3,381	-0,340	-0,174
12,488	84,943	-0,243	-0,187
13,502	-19,424	-0,365	-0,159
14,517	249,721	-0,217	-0,260
15,531	-23,368	-0,412	-0,174
16,546	-1,494	-0,424	-0,210
17,561	72,690	-0,380	-0,279
18,575	-79,849	-0,168	0,039
19,590	193,560	-0,181	-0,193
20,604	-98,226	-0,267	-0,048
21,619	26,644	-0,365	-0,215
22,634	111,018	-0,475	-0,403
23,648	95,966	-0,442	-0,356
24,663	25,412	-0,412	-0,240
25,677	49,721	-0,352	-0,233
26,692	53,435	-0,340	-0,229
27,707	206,332	-0,273	-0,300
28,721	116,232	-0,387	-0,333
29,736	105,875	-0,357	-0,297
30,750	90,027	-0,391	-0,307
31,765	94,086	-0,362	-0,289
32,780	84,380	-0,281	-0,216
33,794	-28,009	-0,366	-0,148
34,809	284,828	-0,333	-0,423
35,823	85,258	-0,468	-0,361
36,838	346,785	-0,332	-0,460
37,853	156,812	-0,280	-0,272
38,867	73,145	-0,433	-0,318
39,882	-32,614	-0,497	-0,194
40,896	112,753	-0,326	-0,278
41,911	209,795	-0,226	-0,249
42,926	-49,673	-0,311	-0,104
43,940	75,442	-0,285	-0,211
44,955	63,917	-0,393	-0,277
45,969	225,178	-0,274	-0,313
46,984	32,480	-0,393	-0,238
47,999	22,054	-0,315	-0,180
49,013	-17,823	-0,313	-0,137
50,028	31,921	-0,296	-0,179
51,042	51,943	-0,306	-0,204
52,057	107,976	-0,326	-0,273
53,071	166,026	-0,196	-0,195
54,086	183,309	-0,294	-0,305
55,101	135,093	-0,253	-0,231
56,115	277,897	-0,286	-0,358
57,130	0,898	-0,340	-0,170
58,144	-19,094	-0,371	-0,161
59,159	-15,963	-0,405	-0,180
60,174	-48,239	-0,377	-0,127
61,188	7,157	-0,380	-0,199
62,203	80,337	-0,305	-0,230
63,217	210,850	-0,220	-0,243
64,232	-17,771	-0,391	-0,172
65,247	229,140	-0,334	-0,383
66,261	-12,179	-0,345	-0,158
67,276	-35,080	-0,354	-0,135
68,290	-51,760	-0,325	-0,106
69,305	130,642	-0,219	-0,197
70,320	-9,994	-0,299	-0,139
71,334	-21,476	-0,350	-0,149
72,349	-63,642	-0,428	-0,122
73,363	-1,042	-0,352	-0,174
74,378	244,680	-0,309	-0,364
75,393	-22,607	-0,308	-0,130
76,407	0,133	-0,213	-0,106
77,422	110,973	-0,268	-0,226
78,436	3,208	-0,304	-0,155
79,451	91,110	-0,257	-0,202
80,466	60,801	-0,362	-0,251
81,480	381,657	-0,251	-0,362
82,495	36,959	-0,362	-0,224
83,509	52,761	-0,204	-0,136
84,524	-98,948	-0,313	-0,055
85,539	26,121	-0,281	-0,164
86,553	95,407	-0,324	-0,258
87,568	22,006	-0,246	-0,140
88,582	39,286	-0,200	-0,125
89,597	-124,236	-0,357	-0,039
90,611	309,071	-0,201	-0,263
91,626	93,179	-0,296	-0,234
92,641	-27,156	-0,134	-0,054
93,655	96,203	-0,235	-0,188
94,670	64,598	-0,325	-0,229
95,684	59,896	-0,232	-0,160
96,699	10,757	-0,323	-0,172
97,714	233,004	-0,171	-0,197
98,728	95,417	-0,196	-0,156
99,743	60,651	-0,294	-0,203
100,757	49,859	-0,259	-0,170
101,772	-54,512	-0,393	-0,124
102,787	146,485	-0,341	-0,320
103,801	12,753	-0,324	-0,174
104,816	201,285	-0,084	-0,090
105,830	-103,952	-0,412	-0,067
106,845	-43,588	-0,333	-0,117
107,860	-61,816	-0,321	-0,093
108,874	141,733	-0,260	-0,240
109,889	146,156	-0,297	-0,278
110,903	26,300	-0,341	-0,198
111,918	19,049	-0,290	-0,162
112,933	162,212	-0,178	-0,175
113,947	116,447	-0,163	-0,140
114,962	-108,692	-0,334	-0,049
115,976	178,569	-0,275	-0,281
116,991	-145,772	-0,237	-0,014
118,006	81,473	-0,175	-0,132
119,020	124,390	-0,267	-0,235
120,035	36,204	-0,274	-0,168
121,049	99,398	-0,235	-0,190
122,064	125,097	-0,194	-0,171
123,079	154,995	-0,177	-0,170
124,093	202,138	-0,137	-0,148
125,108	-79,538	-0,257	-0,060
126,122	85,594	-0,240	-0,184
127,137	91,582	-0,155	-0,121
128,151	-20,940	-0,215	-0,091
129,166	-24,656	-0,335	-0,138
130,181	26,169	-0,195	-0,113
131,195	40,814	-0,303	-0,190
132,210	214,662	-0,246	-0,273
133,224	19,803	-0,228	-0,128
134,239	-11,922	-0,292	-0,133
135,254	-150,748	-0,141	-0,007
136,268	325,673	-0,159	-0,213
137,283	75,535	-0,189	-0,139
138,297	-106,307	-0,414	-0,064
139,312	89,495	-0,221	-0,172
140,327	8,153	-0,396	-0,206
141,341	122,220	-0,198	-0,172
142,356	-158,141	-0,275	-0,011
143,370	174,858	-0,247	-0,249
144,385	20,996	-0,233	-0,131
145,400	25,856	-0,210	-0,122
146,414	7,129	-0,305	-0,158
147,429	146,022	-0,229	-0,214
148,443	157,650	-0,135	-0,131
149,458	0,527	-0,195	-0,097
150,473	52,079	-0,244	-0,161
151,487	-129,188	-0,308	-0,029
152,502	-13,706	-0,299	-0,134
153,516	602,307	-0,133	-0,232
154,531	63,836	-0,224	-0,156
155,546	497,775	-0,117	-0,188
156,560	800,000	-0,074	-0,154
157,575	-62,690	-0,154	-0,044
158,589	97,382	-0,214	-0,171
159,604	69,705	-0,248	-0,178
160,619	418,724	-0,153	-0,229
161,633	519,799	-0,168	-0,275
162,648	13,273	-0,221	-0,119
163,662	-2,771	-0,212	-0,103
164,677	146,336	-0,216	-0,202
165,692	83,088	-0,223	-0,168
166,706	57,734	-0,139	-0,095
167,721	53,324	-0,273	-0,182
168,735	30,640	-0,233	-0,139
169,750	299,680	-0,182	-0,233
170,764	-48,145	-0,276	-0,092
171,779	59,474	-0,205	-0,140
172,794	373,934	-0,139	-0,198
173,808	-88,665	-0,210	-0,043
174,823	107,877	-0,339	-0,281
175,837	-200,000	-0,062	-0,254
176,852	-5,391	-0,326	-0,155
177,867	-10,020	-0,295	-0,136
178,881	102,980	-0,254	-0,206
179,896	-170,964	-0,125	0,003
180,910	445,457	-0,106	-0,163
181,925	288,117	-0,203	-0,256
182,940	54,561	-0,253	-0,169
183,954	29,383	-0,399	-0,235
184,969	21,257	-0,247	-0,139
185,983	102,721	-0,221	-0,179
186,998	-200,000	-0,063	-0,217
188,013	42,804	-0,149	-0,094
189,027	7,265	-0,209	-0,108
190,042	-14,047	-0,310	-0,138
191,056	476,543	-0,180	-0,283
192,071	138,921	-0,221	-0,201
193,086	-38,790	-0,216	-0,079
194,100	280,535	-0,129	-0,160
195,115	-67,852	-0,230	-0,062
196,129	20,378	-0,180	-0,101
197,144	111,169	-0,249	-0,208
198,159	162,823	-0,236	-0,230
199,173	47,006	-0,280	-0,180
200,188	131,092	-0,178	-0,159
201,202	-90,177	-0,173	-0,035
202,217	76,317	-0,276	-0,202
203,232	-58,085	-0,241	-0,072
204,246	-200,000	-0,109	-0,338
205,261	89,209	-0,244	-0,188
206,275	800,000	-0,055	-0,134
207,290	-31,354	-0,239	-0,093
208,304	800,000	-0,119	-0,302
209,319	-91,381	-0,094	-0,018
210,334	-32,291	-0,235	-0,090
211,348	-35,760	-0,187	-0,070
212,363	-134,100	-0,274	0,023
213,377	209,736	-0,204	-0,222
214,392	-19,773	-0,164	-0,070
215,407	51,355	-0,193	-0,127
216,421	104,215	-0,081	-0,066
217,436	-32,873	-0,271	-0,104
218,450	-53,731	-0,242	-0,076
219,465	58,611	-0,244	-0,166
220,480	-40,187	-0,148	-0,053
221,494	355,856	-0,055	-0,076
222,509	-200,000	-0,114	-0,000
223,523	-34,505	-0,121	-0,046
224,538	-31,217	-0,248	-0,096
225,553	36,287	-0,142	-0,087
226,567	-116,528	-0,261	-0,033
227,582	275,156	-0,191	-0,235
228,596	-60,336	-0,165	-0,048
229,611	152,948	-0,127	-0,120
230,626	131,492	-0,181	-0,160
231,640	174,457	-0,205	-0,205
232,655	114,487	-0,217	-0,182
233,669	193,210	-0,147	-0,153
234,684	122,740	-0,305	-0,264
235,699	-18,095	-0,145	-0,063
236,713	294,683	-0,066	-0,084
237,728	-137,151	-0,263	-0,020
238,742	220,349	-0,079	-0,087
239,757	79,023	-0,225	-0,166
240,772	-47,259	-0,157	-0,052
241,786	63,946	-0,158	-0,109
242,801	-71,600	-0,234	-0,060
243,815	-57,590	-0,095	-0,029
244,830	-12,158	-0,222	-0,100
245,844	800,000	-0,048	-0,108
246,859	131,552	-0,190	-0,169
247,874	14,900	-0,182	-0,098
248,888	277,707	-0,253	-0,312
249,903	-49,823	-0,147	0,048
250,917	-159,823	-0,212	-0,008
251,932	-200,000	-0,086	-0,274
252,947	53,575	-0,175	-0,116
253,961	174,474	-0,162	-0,162
254,976	-94,266	-0,151	0,028
255,990	64,009	-0,146	-0,102
257,005	87,257	-0,270	-0,206
258,020	193,151	-0,075	-0,078
259,034	-71,024	-0,241	-0,062
260,049	278,142	-0,061	-0,075
261,063	-8,236	-0,214	-0,099
262,078	63,663	-0,180	-0,124
263,093	800,000	-0,060	-0,179
264,107	7,565	-0,144	-0,074
265,122	-200,000	-0,048	0,000
266,136	22,462	-0,142	-0,080
267,151	12,624	-0,126	-0,067
268,166	153,988	-0,148	-0,140
269,180	66,969	-0,140	-0,098
270,195	36,550	-0,290	-0,176
271,209	307,747	-0,075	-0,097
272,224	366,975	-0,080	-0,111
273,239	148,744	-0,117	-0,109
274,253	36,367	-0,150	-0,091
275,268	423,204	-0,054	-0,081
276,282	44,244	-0,230	-0,145
277,297	-200,000	-0,049	-0,166
278,312	10,910	-0,178	-0,093
279,326	-39,682	-0,131	-0,047
280,341	127,883	-0,145	-0,127
281,355	-1,560	-0,142	-0,069
282,370	-116,170	-0,214	-0,027
283,384	800,000	-0,175	-0,353
284,399	266,909	-0,179	-0,215
285,414	49,333	-0,214	-0,138
286,428	24,106	-0,110	-0,063
287,443	138,213	-0,092	-0,083
288,457	97,653	-0,079	-0,062
289,472	37,365	-0,184	-0,112
290,487	219,947	-0,142	-0,157
291,501	518,599	-0,143	-0,230
292,516	2,106	-0,294	-0,146
293,530	157,884	-0,120	-0,115
294,545	197,301	-0,110	0,115
295,560	-43,438	-0,197	-0,068
296,574	86,129	-0,099	-0,075
297,589	639,213	-0,128	-0,224
298,603	542,158	-0,153	-0,251
299,618	48,472	-0,208	-0,134
300,633	-200,000	-0,040	-0,147
301,647	404,866	-0,162	-0,235
302,662	530,674	-0,087	-0,141
303,676	-18,948	-0,180	0,077
304,691	444,997	-0,057	-0,086
305,706	233,389	-0,141	-0,160
306,720	161,102	-0,173	-0,167
307,735	-110,960	-0,206	0,029
308,749	657,061	-0,069	-0,122
309,764	15,940	-0,156	-0,084
310,779	-73,384	-0,133	-0,033
311,793	154,413	-0,215	-0,203
312,808	-38,288	-0,221	-0,080
313,822	41,617	-0,175	-0,109
314,837	-200,000	-0,084	-0,273
315,852	-14,722	-0,124	-0,054
316,866	375,004	-0,124	-0,174
317,881	311,050	-0,112	-0,144
318,895	99,297	-0,133	-0,105
319,910	-200,000	-0,007	-0,086
320,925	-200,000	-0,028	-0,324
321,939	-200,000	-0,041	-0,149
322,954	-200,000	-0,045	-0,165
323,968	-200,000	0,017	-0,163
324,983	800,000	-0,047	0,118
325,997	363,852	-0,095	-0,131
327,012	344,942	-0,144	-0,194
328,027	350,657	-0,204	-0,277
329,041	-51,576	-0,198	-0,063
330,056	213,520	-0,108	-0,118
331,070	449,224	-0,018	-0,027
332,085	-160,646	-0,111	0,004
333,100	-39,264	-0,138	-0,049
334,114	50,809	-0,197	-0,128
335,129	63,226	-0,137	-0,094
336,143	-31,452	-0,271	-0,104
337,158	-47,878	0,049	0,016
338,173	1,084	-0,184	-0,090
339,187	-55,743	-0,112	-0,034
340,202	196,621	-0,069	-0,073
341,216	-126,140	-0,146	-0,015
342,231	513,483	-0,110	-0,176
343,246	27,527	-0,232	-0,133
344,260	-94,703	-0,203	0,037
345,275	-109,197	-0,185	0,027
346,289	484,403	-0,089	-0,139
347,304	800,000	-0,080	-0,183
348,319	800,000	-0,061	-0,154
349,333	97,899	-0,085	-0,067
350,348	-6,149	-0,108	0,051
351,362	256,447	-0,193	-0,227
352,377	800,000	-0,033	-0,069
353,392	-93,668	-0,149	-0,028
354,406	123,053	-0,150	-0,128
355,421	206,919	1307,882	1395,986
356,435	159,155	1467,745	1396,462
