DTS Sentinel unit serial number:	SN410029Multiplexer serial number:	ORYXHardware model number:	OX2-SRSoftware version number:	ORYX F/W v4,00 Oryx Data Collector v3.7.2.0data status	okinstallation	B3 Nyhavnadifferential loss correction	single-endedforward channel	channel 1reverse channel	N/Adate	2023/12/01time	23:12:30forward acquisition time	300,00reverse acquisition time	0,00gamma	499,1914k internal	0,3197k external	0,3197temperature offset calibration	1,0000default loss term (dB/km)	0,3820temperature slope calibration	1,0000multiplexer offset coefficient	1,0000multiplexer slope coefficient	1,0000fibre end	0,00T internal ref (°C)	15,87T ext. ref 1 (°C)	1,21T ext. ref 2 (°C)	1,18length (m)	temperature (°C)	Stokes	anti-Stokes-744,400	146,981	-0,277	-0,271
-743,385	-200,000	0,027	0,309
-742,371	60,608	-0,171	-0,123
-741,356	400,474	0,238	0,364
-740,342	644,443	-0,113	-0,211
-739,327	-200,000	-0,014	0,295
-738,312	408,430	-0,217	-0,335
-737,298	-200,000	0,036	0,392
-736,283	111,166	-0,228	-0,200
-735,269	-200,000	-0,085	0,351
-734,254	317,793	-0,197	-0,272
-733,239	234,697	-0,147	0,177
-732,225	642,710	-0,052	-0,097
-731,210	-81,547	0,083	0,020
-730,196	-131,042	-0,089	0,009
-729,181	-131,230	0,219	0,021
-728,167	326,497	0,083	0,116
-727,152	-126,309	-0,060	-0,006
-726,137	38,473	-0,055	-0,036
-725,123	202,149	-0,110	-0,123
-724,108	-39,651	-0,148	0,056
-723,094	-17,110	-0,050	-0,023
-722,079	67,451	0,027	-0,020
-721,064	580,873	0,022	-0,040
-720,050	800,000	-0,041	0,097
-719,035	-200,000	-0,010	-0,105
-718,021	3,607	0,115	-0,061
-717,006	210,385	0,049	0,056
-715,991	172,682	-0,136	-0,142
-714,977	-26,347	-0,142	-0,060
-713,962	-200,000	0,004	-0,053
-712,948	691,459	0,009	-0,017
-711,933	-200,000	-0,025	-0,124
-710,918	143,587	-0,097	0,094
-709,904	-93,120	-0,150	-0,030
-708,889	102,888	-0,062	-0,052
-707,875	-71,053	-0,085	-0,023
-706,860	-200,000	0,013	0,055
-705,845	-158,483	0,118	0,005
-704,831	102,682	0,122	0,104
-703,816	-200,000	0,011	-0,053
-702,802	-200,000	-0,005	-0,042
-701,787	228,374	-0,109	-0,130
-700,772	293,821	-0,181	-0,241
-699,758	-60,523	0,109	-0,033
-698,743	-200,000	0,026	0,136
-697,729	-92,613	-0,059	0,012
-696,714	-126,928	-0,062	0,006
-695,699	-200,000	0,013	-0,096
-694,685	-200,000	0,006	-0,067
-693,670	560,546	-0,059	-0,104
-692,656	652,652	-0,023	0,043
-691,641	102,509	0,017	0,015
-690,627	800,000	0,029	-0,074
-689,612	-127,877	-0,067	0,007
-688,597	250,080	-0,045	-0,056
-687,583	112,367	-0,052	0,046
-686,568	800,000	0,025	-0,050
-685,554	-84,040	0,080	-0,018
-684,539	-37,948	-0,070	0,027
-683,524	-37,194	-0,044	0,017
-682,510	-129,393	-0,110	-0,011
-681,495	243,578	-0,019	-0,023
-680,481	81,611	0,026	0,021
-679,466	-200,000	0,005	0,026
-678,451	-14,474	-0,118	0,055
-677,437	800,000	0,026	-0,062
-676,422	-200,000	0,027	0,119
-675,408	800,000	-0,047	-0,144
-674,393	-68,131	-0,069	-0,020
-673,378	800,000	-0,021	-0,058
-672,364	-52,020	-0,167	0,056
-671,349	744,699	-0,062	-0,121
-670,335	800,000	-0,005	-0,014
-669,320	212,960	-0,067	0,077
-668,305	100,902	0,115	0,097
-667,291	130,599	0,085	0,079
-666,276	800,000	-0,058	-0,136
-665,262	27,407	-0,130	0,079
-664,247	800,000	-0,006	-0,017
-663,232	65,806	0,017	0,013
-662,218	-43,454	0,112	0,041
-661,203	-200,000	0,054	0,216
-660,189	800,000	-0,031	0,072
-659,174	-149,519	-0,117	0,007
-658,159	-200,000	-0,033	-0,190
-657,145	2,181	-0,077	-0,040
-656,130	184,826	0,077	-0,083
-655,116	-79,204	0,112	-0,027
-654,101	-200,000	-0,018	-0,108
-653,086	-91,079	0,087	0,018
-652,072	56,089	-0,081	-0,057
-651,057	460,731	0,031	-0,050
-650,043	192,128	-0,070	-0,077
-649,028	31,868	-0,108	-0,067
-648,014	7,308	-0,129	-0,070
-646,999	140,804	0,091	-0,088
-645,984	800,000	-0,013	0,040
-644,970	188,872	-0,086	-0,094
-643,955	-60,767	-0,098	-0,030
-642,941	-200,000	0,065	-0,000
-641,926	-200,000	0,018	-0,138
-640,911	67,843	0,075	0,056
-639,897	32,507	-0,037	0,023
-638,882	-200,000	0,002	0,015
-637,868	-200,000	0,009	-0,073
-636,853	-200,000	0,019	-0,094
-635,838	353,882	-0,072	0,104
-634,824	-200,000	0,004	-0,016
-633,809	-24,281	0,083	0,036
-632,795	-89,482	0,061	-0,013
-631,780	800,000	0,032	0,065
-630,765	233,862	-0,039	-0,047
-629,751	800,000	0,011	0,030
-628,736	299,214	-0,109	-0,146
-627,722	562,597	0,038	-0,068
-626,707	-123,454	0,048	0,005
-625,692	334,069	0,086	0,121
-624,678	142,618	0,141	0,136
-623,663	-200,000	0,006	0,033
-622,649	84,857	-0,063	0,050
-621,634	95,188	0,101	-0,083
-620,619	15,044	-0,125	0,071
-619,605	-13,943	0,097	0,045
-618,590	-200,000	-0,000	0,091
-617,576	200,839	-0,041	0,046
-616,561	250,535	0,059	0,072
-615,546	196,061	-0,088	0,097
-614,532	800,000	-0,028	-0,064
-613,517	800,000	-0,070	-0,152
-612,503	84,930	0,164	-0,130
-611,488	107,879	-0,067	0,057
-610,474	324,067	0,069	0,095
-609,459	-154,746	0,060	0,003
-608,444	-51,789	0,115	0,039
-607,430	102,301	0,125	-0,106
-606,415	147,675	0,133	-0,129
-605,401	629,656	0,043	0,079
-604,386	-200,000	0,004	0,103
-603,371	-164,712	0,095	0,003
-602,357	-200,000	-0,002	0,047
-601,342	-200,000	0,009	0,046
-600,328	800,000	0,040	0,084
-599,313	-200,000	0,004	0,064
-598,298	73,035	-0,018	0,014
-597,284	-200,000	0,032	0,200
-596,269	24,007	-0,035	0,021
-595,255	-200,000	0,000	-0,030
-594,240	91,861	-0,262	-0,213
-593,225	783,386	-0,037	-0,073
-592,211	800,000	0,065	-0,137
-591,196	-200,000	-0,004	-0,027
-590,182	317,203	0,065	0,089
-589,167	401,807	-0,041	0,063
-588,152	800,000	-0,011	0,028
-587,138	512,054	0,023	0,039
-586,123	-25,878	-0,073	-0,031
-585,109	800,000	0,060	-0,169
-584,094	800,000	-0,003	0,009
-583,079	390,071	0,031	0,047
-582,065	-24,653	0,103	0,044
-581,050	172,431	-0,072	-0,075
-580,036	800,000	0,091	0,185
-579,021	-200,000	0,012	-0,043
-578,006	105,739	0,127	-0,108
-576,992	-151,807	0,029	0,002
-575,977	25,906	0,160	-0,096
-574,963	-200,000	0,025	0,096
-573,948	-89,881	0,120	0,025
-572,934	62,212	-0,071	-0,051
-571,919	800,000	-0,051	-0,152
-570,904	690,826	0,054	0,103
-569,890	-138,120	-0,096	0,008
-568,875	-200,000	0,026	0,085
-567,861	-200,000	0,014	0,066
-566,846	800,000	0,043	0,110
-565,831	201,558	-0,092	0,103
-564,817	321,285	-0,041	0,057
-563,802	-69,653	-0,091	-0,025
-562,788	55,860	-0,143	0,100
-561,773	-155,098	0,026	0,001
-560,758	-187,469	-0,025	0,000
-559,744	800,000	0,026	-0,072
-558,729	126,324	0,073	0,067
-557,715	-200,000	-0,000	-0,005
-556,700	-129,769	-0,166	0,016
-555,685	-9,399	-0,086	-0,041
-554,671	-116,419	0,100	-0,013
-553,656	-105,087	-0,101	-0,017
-552,642	-200,000	-0,033	-0,119
-551,627	-79,548	-0,071	0,017
-550,612	800,000	-0,021	-0,060
-549,598	-200,000	-0,011	-0,044
-548,583	800,000	-0,041	0,121
-547,569	-200,000	-0,043	-0,160
-546,554	-107,967	-0,030	-0,005
-545,539	109,189	-0,048	0,042
-544,525	27,824	-0,050	-0,030
-543,510	230,336	0,036	0,042
-542,496	-200,000	0,000	-0,061
-541,481	800,000	-0,044	-0,107
-540,466	-12,998	0,071	-0,033
-539,452	-17,768	-0,043	-0,019
-538,437	585,424	0,069	0,123
-537,423	-44,568	0,050	0,018
-536,408	9,849	0,080	0,044
-535,393	-200,000	-0,013	-0,057
-534,379	-51,856	-0,116	-0,039
-533,364	-200,000	0,006	-0,094
-532,350	-157,358	0,030	-0,001
-531,335	34,015	-0,060	-0,038
-530,321	259,205	-0,106	-0,132
-529,306	-2,486	0,081	0,041
-528,291	-36,459	0,065	0,025
-527,277	572,609	-0,080	-0,141
-526,262	-200,000	-0,016	-0,074
-525,248	6,052	-0,060	0,032
-524,233	733,558	0,029	0,056
-523,218	800,000	0,046	-0,094
-522,204	118,732	0,046	-0,041
-521,189	414,859	0,065	-0,100
-520,175	296,056	-0,105	-0,139
-519,160	12,517	0,071	0,039
-518,145	-200,000	0,008	-0,082
-517,131	-140,241	0,098	-0,007
-516,116	-44,522	-0,082	0,030
-515,102	-99,990	0,052	0,009
-514,087	48,899	-0,020	-0,013
-513,072	-200,000	-0,000	0,061
-512,058	-58,352	-0,049	0,015
-511,043	-200,000	0,024	-0,107
-510,029	-200,000	0,004	-0,053
-509,014	-4,328	-0,068	0,034
-507,999	-31,916	-0,130	-0,052
-506,985	800,000	-0,027	0,085
-505,970	800,000	-0,014	0,045
-504,956	800,000	-0,009	0,025
-503,941	348,984	0,103	0,147
-502,926	-151,325	-0,046	0,002
-501,912	97,786	-0,089	0,074
-500,897	-62,184	0,073	0,022
-499,883	-135,603	-0,025	-0,002
-498,868	135,104	-0,076	-0,072
-497,853	159,852	-0,108	0,109
-496,839	-29,878	-0,073	-0,030
-495,824	-51,022	0,046	-0,015
-494,810	202,210	-0,025	-0,028
-493,795	-200,000	0,000	0,094
-492,781	800,000	-0,051	-0,103
-491,766	800,000	0,055	-0,149
-490,751	320,965	0,003	0,005
-489,737	120,579	0,019	0,017
-488,722	68,919	-0,031	-0,023
-487,708	-140,330	0,066	0,005
-486,693	-144,692	-0,043	0,003
-485,678	-200,000	-0,009	-0,053
-484,664	-200,000	0,001	0,094
-483,649	800,000	-0,035	-0,091
-482,635	60,045	-0,200	-0,142
-481,620	800,000	0,052	0,120
-480,605	310,765	0,124	0,167
-479,591	764,602	-0,099	0,195
-478,576	87,826	-0,096	0,077
-477,562	-200,000	0,003	-0,027
-476,547	-200,000	0,028	-0,123
-475,532	661,495	-0,040	-0,074
-474,518	-54,485	0,164	-0,053
-473,503	607,935	0,047	0,085
-472,489	-132,863	0,027	0,002
-471,474	800,000	0,001	0,002
-470,459	-39,971	-0,038	-0,014
-469,445	678,316	0,052	0,098
-468,430	-103,348	-0,180	-0,030
-467,416	-144,815	-0,010	-0,001
-466,401	93,593	-0,023	-0,019
-465,386	-200,000	-0,000	-0,220
-464,372	-63,818	-0,058	-0,017
-463,357	-200,000	-0,018	0,060
-462,343	368,471	-0,049	0,072
-461,328	-87,638	0,078	0,017
-460,313	509,271	-0,062	-0,104
-459,299	140,741	-0,143	-0,137
-458,284	439,705	0,122	0,193
-457,270	-200,000	0,001	0,048
-456,255	-158,170	-0,131	0,005
-455,241	100,593	0,132	-0,111
-454,226	545,490	-0,062	0,108
-453,211	-189,551	-0,069	0,001
-452,197	23,840	-0,054	-0,032
-451,182	-200,000	0,032	0,170
-450,168	800,000	0,012	0,026
-449,153	-200,000	0,017	0,102
-448,138	-200,000	-0,017	-0,102
-447,124	800,000	-0,050	-0,128
-446,109	-200,000	0,012	0,045
-445,095	7,119	-0,044	-0,024
-444,080	194,016	0,078	-0,085
-443,065	800,000	0,038	0,098
-442,051	409,004	-0,057	-0,086
-441,036	-0,557	0,019	-0,010
-440,022	173,698	-0,070	-0,073
-439,007	-181,755	-0,079	-0,001
-437,992	157,670	0,106	-0,105
-436,978	340,861	0,066	-0,093
-435,963	-52,162	0,081	-0,027
-434,949	-200,000	0,022	0,098
-433,934	-200,000	-0,012	0,164
-432,919	92,013	-0,098	-0,079
-431,905	297,810	0,009	0,012
-430,890	-57,457	0,048	-0,015
-429,876	284,969	0,060	-0,078
-428,861	-200,000	-0,004	-0,101
-427,846	-87,173	0,044	0,010
-426,832	119,986	-0,128	-0,114
-425,817	-113,366	-0,159	-0,022
-424,803	45,358	0,054	0,036
-423,788	129,649	-0,061	-0,056
-422,773	800,000	-0,027	0,072
-421,759	516,003	0,039	0,065
-420,744	26,402	-0,100	-0,060
-419,730	74,789	0,050	0,038
-418,715	547,401	0,061	-0,105
-417,701	172,382	-0,133	0,137
-416,686	24,338	0,146	0,087
-415,671	-200,000	0,015	0,113
-414,657	25,807	0,127	0,076
-413,642	175,073	0,069	0,072
-412,628	727,951	0,039	-0,075
-411,613	37,869	-0,040	-0,026
-410,598	630,313	0,044	-0,081
-409,584	800,000	-0,029	-0,079
-408,569	71,884	0,025	-0,019
-407,555	-106,172	0,155	0,025
-406,540	144,351	-0,082	0,079
-405,525	-107,647	0,081	0,013
-404,511	78,968	-0,140	-0,108
-403,496	-22,636	0,180	-0,078
-402,482	800,000	-0,041	0,085
-401,467	-138,766	0,122	-0,009
-400,452	-28,086	0,122	0,051
-399,438	-200,000	0,009	0,036
-398,423	-200,000	-0,018	-0,099
-397,409	683,767	0,052	-0,099
-396,394	800,000	-0,045	0,121
-395,379	-119,951	-0,041	-0,005
-394,365	-200,000	0,020	0,082
-393,350	-117,805	0,138	0,018
-392,336	800,000	0,060	0,131
-391,321	-7,327	-0,119	0,058
-390,306	234,373	-0,035	0,042
-389,292	-200,000	-0,023	0,093
-388,277	21,555	-0,046	-0,027
-387,263	-7,702	0,089	-0,043
-386,248	79,279	-0,127	-0,098
-385,233	-149,959	-0,048	-0,003
-384,219	-200,000	0,002	-0,029
-383,204	246,738	-0,019	-0,023
-382,190	-35,581	-0,071	-0,027
-381,175	-200,000	0,016	-0,089
-380,160	-21,987	-0,041	0,018
-379,146	-102,149	0,205	0,035
-378,131	-200,000	0,000	0,067
-377,117	-200,000	0,021	-0,112
-376,102	283,230	-0,106	-0,137
-375,088	575,188	0,017	-0,029
-374,073	800,000	0,011	-0,023
-373,058	-36,846	0,034	-0,013
-372,044	-200,000	0,033	0,117
-371,029	-200,000	-0,006	-0,021
-370,015	-22,096	0,116	0,050
-369,000	24,500	-0,216	-0,128
-367,985	84,233	-0,055	-0,043
-366,971	-124,565	-0,225	0,025
-365,956	-200,000	-0,005	-0,142
-364,942	-200,000	0,014	0,080
-363,927	-126,856	0,182	-0,019
-362,912	261,388	-0,039	-0,049
-361,898	56,900	0,049	-0,034
-360,883	96,327	0,132	0,108
-359,869	407,948	0,050	-0,076
-358,854	-41,179	-0,143	0,053
-357,839	20,120	0,056	0,032
-356,825	429,656	-0,023	0,036
-355,810	800,000	-0,028	0,058
-354,796	-20,812	0,055	0,024
-353,781	-58,116	0,029	0,009
-352,766	-47,203	-0,134	-0,047
-351,752	-60,843	-0,066	0,020
-350,737	667,046	-0,016	-0,029
-349,723	17,361	0,051	0,029
-348,708	112,002	0,021	-0,018
-347,693	800,000	0,041	-0,127
-346,679	181,052	-0,033	0,034
-345,664	-200,000	0,000	-0,046
-344,650	76,698	-0,058	-0,044
-343,635	152,788	0,101	0,099
-342,620	-200,000	0,023	0,106
-341,606	-19,098	-0,047	-0,021
-340,591	135,567	0,019	-0,017
-339,577	-200,000	-0,004	0,019
-338,562	-200,000	-0,025	-0,157
-337,548	-153,863	0,101	0,005
-336,533	146,768	-0,043	0,042
-335,518	-200,000	0,020	0,066
-334,504	188,974	-0,070	-0,075
-333,489	-200,000	-0,003	0,041
-332,475	-99,324	-0,119	0,021
-331,460	-33,231	0,060	-0,024
-330,445	369,541	0,068	0,098
-329,431	716,575	0,065	0,124
-328,416	111,358	-0,076	0,066
-327,402	-181,788	-0,071	-0,001
-326,387	682,369	-0,025	0,046
-325,372	800,000	-0,068	-0,190
-324,358	63,030	0,037	-0,027
-323,343	-1,763	0,005	-0,003
-322,329	51,582	0,058	0,039
-321,314	70,549	0,023	0,017
-320,299	800,000	-0,038	0,076
-319,285	800,000	-0,041	-0,112
-318,270	-163,148	0,031	-0,001
-317,256	157,256	-0,087	-0,086
-316,241	-16,683	-0,059	-0,027
-315,226	65,040	0,078	0,056
-314,212	-200,000	-0,003	0,094
-313,197	224,272	0,045	0,052
-312,183	-47,856	-0,063	0,022
-311,168	20,692	0,051	0,029
-310,153	-97,444	0,058	0,011
-309,139	-200,000	-0,029	-0,121
-308,124	-113,825	-0,051	-0,007
-307,110	146,190	-0,058	-0,056
-306,095	266,694	0,053	-0,066
-305,080	95,915	0,087	-0,071
-304,066	-32,858	-0,016	-0,006
-303,051	-200,000	-0,071	-0,227
-302,037	80,653	0,095	-0,074
-301,022	-63,072	-0,073	-0,022
-300,008	800,000	0,041	0,091
-298,993	280,792	0,022	0,029
-297,978	531,089	-0,074	0,126
-296,964	-36,643	-0,046	0,018
-295,949	-139,956	0,110	-0,008
-294,935	3,901	0,046	-0,024
-293,920	19,098	-0,038	-0,022
-292,905	1,559	-0,019	0,010
-291,891	-200,000	-0,020	0,191
-290,876	-200,000	-0,017	-0,061
-289,862	96,231	-0,057	0,046
-288,847	-55,342	0,046	-0,015
-287,832	25,375	0,024	-0,014
-286,818	-200,000	0,005	0,031
-285,803	415,310	-0,029	-0,045
-284,789	-200,000	-0,061	0,225
-283,774	800,000	0,018	0,055
-282,759	800,000	-0,056	-0,138
-281,745	-200,000	0,005	0,044
-280,730	44,391	-0,045	-0,029
-279,716	-200,000	-0,012	0,065
-278,701	30,963	0,135	0,083
-277,686	-200,000	-0,007	-0,106
-276,672	-33,102	0,189	0,075
-275,657	-123,215	0,010	0,001
-274,643	718,207	-0,036	-0,068
-273,628	4,505	-0,101	0,053
-272,613	-110,279	0,079	0,012
-271,599	-170,267	0,124	0,003
-270,584	146,458	0,050	0,048
-269,570	161,227	0,028	0,028
-268,555	800,000	0,056	-0,116
-267,540	122,165	-0,080	-0,071
-266,526	800,000	0,055	-0,164
-265,511	-36,084	0,052	0,020
-264,497	6,792	0,020	-0,011
-263,482	800,000	-0,055	0,122
-262,467	-54,331	-0,010	0,003
-261,453	-65,557	0,084	0,024
-260,438	166,056	-0,048	0,048
-259,424	-83,472	-0,074	-0,017
-258,409	505,182	-0,127	-0,212
-257,395	-200,000	0,002	0,013
-256,380	-184,154	0,179	0,002
-255,365	91,037	-0,087	-0,070
-254,351	41,435	-0,013	-0,008
-253,336	-67,633	0,106	-0,029
-252,322	-200,000	-0,032	0,103
-251,307	619,450	0,071	-0,127
-250,292	-89,057	0,022	-0,005
-249,278	-53,800	-0,057	-0,018
-248,263	800,000	0,052	0,109
-247,249	800,000	0,051	0,105
-246,234	-27,179	-0,060	-0,025
-245,219	-127,212	-0,054	0,006
-244,205	-162,578	0,054	0,002
-243,190	-21,412	0,132	-0,057
-242,176	-102,337	-0,093	-0,016
-241,161	-200,000	-0,042	0,178
-240,146	128,272	0,110	0,100
-239,132	177,053	0,040	0,042
-238,117	67,180	-0,106	-0,077
-237,103	150,891	0,074	-0,072
-236,088	175,267	0,062	-0,064
-235,073	-200,000	0,038	0,140
-234,059	660,601	0,030	0,056
-233,044	-139,726	-0,018	0,001
-232,030	-200,000	0,008	-0,040
-231,015	-45,788	-0,114	-0,040
-230,000	-200,000	-0,006	-0,083
-228,986	450,564	-0,030	0,048
-227,971	-200,000	0,026	0,092
-226,957	110,298	-0,114	0,098
-225,942	152,813	0,024	0,023
-224,927	-97,055	0,094	-0,017
-223,913	23,211	-0,141	0,082
-222,898	-200,000	-0,015	-0,083
-221,884	800,000	-0,025	0,049
-220,869	-127,251	0,069	-0,007
-219,855	-28,002	-0,088	0,036
-218,840	-124,254	-0,022	-0,002
-217,825	-200,000	-0,000	0,029
-216,811	-176,905	-0,059	-0,001
-215,796	-200,000	0,007	0,077
-214,782	-200,000	-0,027	-0,161
-213,767	-200,000	0,019	-0,095
-212,752	-79,881	-0,097	-0,023
-211,738	631,883	-0,049	0,090
-210,723	-110,786	-0,012	-0,002
-209,709	-137,777	-0,109	-0,009
-208,694	255,076	0,064	0,079
-207,679	800,000	-0,028	-0,070
-206,665	40,494	-0,023	0,015
-205,650	312,407	0,035	-0,047
-204,636	-200,000	-0,008	0,096
-203,621	800,000	0,065	-0,153
-202,606	-171,143	-0,052	0,001
-201,592	310,873	-0,025	0,034
-200,577	541,069	0,045	0,078
-199,563	-125,297	-0,092	-0,010
-198,548	800,000	-0,021	0,045
-197,533	-200,000	0,010	0,055
-196,519	-90,812	-0,057	0,012
-195,504	337,118	-0,094	-0,131
-194,490	-200,000	-0,009	-0,121
-193,475	-64,747	-0,063	-0,018
-192,460	800,000	-0,009	0,023
-191,446	10,920	0,036	0,020
-190,431	-98,065	0,085	0,015
-189,417	-200,000	-0,029	0,111
-188,402	-103,735	0,040	-0,007
-187,387	209,103	-0,016	-0,018
-186,373	-27,558	-0,089	-0,037
-185,358	-98,178	-0,141	0,026
-184,344	270,976	-0,041	0,051
-183,329	47,448	-0,066	0,044
-182,315	286,999	0,094	0,121
-181,300	56,451	0,044	-0,030
-180,285	101,422	0,105	0,087
-179,271	-200,000	0,016	0,072
-178,256	678,367	-0,033	-0,062
-177,242	-95,928	0,164	-0,031
-176,227	92,699	0,093	0,075
-175,212	296,527	-0,102	0,133
-174,198	-154,044	0,069	0,003
-173,183	328,212	-0,097	0,133
-172,169	-200,000	0,008	-0,088
-171,154	-200,000	-0,001	-0,047
-170,139	-200,000	0,027	-0,084
-169,125	603,132	0,027	0,048
-168,110	692,546	0,061	0,115
-167,096	447,478	0,030	-0,047
-166,081	800,000	-0,089	-0,192
-165,066	-200,000	-0,009	-0,136
-164,052	82,298	0,131	-0,101
-163,037	-200,000	0,006	0,029
-162,023	-200,000	0,026	0,144
-161,008	-38,096	0,037	-0,014
-159,993	-62,470	0,085	0,025
-158,979	-44,675	0,057	0,020
-157,964	22,131	-0,024	-0,014
-156,950	-53,437	0,069	-0,022
-155,935	6,913	0,040	-0,021
-154,920	33,716	0,183	0,113
-153,906	-200,000	-0,040	0,222
-152,891	-88,709	-0,040	0,008
-151,877	-200,000	-0,029	-0,131
-150,862	-49,360	-0,016	0,005
-149,847	-114,598	-0,156	-0,021
-148,833	-200,000	0,000	-0,076
-147,818	800,000	-0,016	0,037
-146,804	57,217	-0,038	-0,027
-145,789	800,000	0,056	0,151
-144,775	135,118	-0,024	0,022
-143,760	188,099	-0,054	-0,057
-142,745	-36,457	-0,043	0,016
-141,731	-130,022	-0,124	-0,012
-140,716	140,418	0,097	-0,091
-139,702	-200,000	0,032	0,104
-138,687	800,000	-0,044	-0,105
-137,672	-115,121	-0,109	-0,015
-136,658	8,159	-0,208	-0,111
-135,643	390,568	-0,078	-0,116
-134,629	21,524	0,053	-0,030
-133,614	482,115	-0,044	0,072
-132,599	372,115	0,042	-0,062
-131,585	78,527	-0,032	0,024
-130,570	-127,867	-0,189	-0,019
-129,556	496,720	-0,060	-0,098
-128,541	-200,000	-0,001	-0,077
-127,526	800,000	-0,020	0,058
-126,512	-200,000	0,037	-0,179
-125,497	-200,000	-0,005	-0,116
-124,483	-200,000	-0,002	0,091
-123,468	-48,061	-0,023	0,008
-122,453	100,048	-0,105	-0,087
-121,439	-77,089	-0,091	0,022
-120,424	-113,835	0,080	-0,011
-119,410	-35,790	-0,096	0,037
-118,395	-28,184	0,082	0,034
-117,380	-200,000	0,005	-0,123
-116,366	-133,955	0,089	-0,008
-115,351	-158,385	-0,036	-0,001
-114,337	49,317	-0,019	-0,013
-113,322	-200,000	-0,003	0,041
-112,307	-104,990	-0,041	-0,007
-111,293	52,062	0,080	0,054
-110,278	233,610	0,035	0,041
-109,264	-49,427	0,110	-0,037
-108,249	-61,620	-0,016	-0,005
-107,234	48,213	0,051	-0,034
-106,220	355,016	-0,059	0,083
-105,205	-200,000	0,000	0,051
-104,191	-200,000	0,005	0,040
-103,176	89,012	0,067	0,053
-102,162	-200,000	-0,001	0,125
-101,147	-200,000	0,014	-0,081
-100,132	-189,610	-0,179	0,001
-99,118	66,057	-0,045	-0,032
-98,103	-200,000	0,017	0,108
-97,089	-35,799	0,022	0,009
-96,074	-130,667	0,081	0,008
-95,059	-104,660	-0,180	-0,029
-94,045	8,828	0,110	0,059
-93,030	366,633	0,039	-0,056
-92,016	-148,121	0,178	0,010
-91,001	198,013	-0,028	0,031
-89,986	-47,508	0,034	0,012
-88,972	142,408	0,081	0,076
-87,957	800,000	-0,029	-0,067
-86,943	72,747	0,120	0,089
-85,928	278,284	0,007	-0,008
-84,913	-200,000	0,003	0,018
-83,899	-76,262	0,058	0,014
-82,884	-200,000	0,022	0,102
-81,870	800,000	0,035	0,107
-80,855	444,026	0,056	0,087
-79,840	-186,974	-0,013	0,000
-78,826	-200,000	0,024	-0,113
-77,811	800,000	-0,050	-0,100
-76,797	-116,836	-0,041	-0,005
-75,782	-165,920	0,095	0,003
-74,767	31,095	-0,079	0,048
-73,753	209,770	0,084	0,094
-72,738	280,314	0,081	-0,104
-71,724	-22,019	0,028	0,012
-70,709	171,187	-0,021	0,021
-69,694	-200,000	-0,004	-0,050
-68,680	535,007	0,026	0,043
-67,665	92,609	0,238	0,190
-66,651	-95,417	-0,025	0,005
-65,636	-200,000	0,003	-0,061
-64,622	-200,000	-0,001	0,039
-63,607	-105,626	-0,092	-0,015
-62,592	562,265	-0,037	0,064
-61,578	24,835	0,100	0,059
-60,563	-50,219	-0,032	0,011
-59,549	323,658	-0,030	0,041
-58,534	-64,072	-1,551	-0,446
-57,519	367,425	-1,578	-2,266
-56,505	-200,000	-0,382	-4,545
-55,490	145,599	0,887	0,842
-54,476	800,000	4,936	11,333
-53,461	-200,000	17,722	282,880
-52,446	800,000	720,900	2227,395
-51,432	563,399	1635,037	2817,589
-50,417	80,929	1658,673	1267,556
-49,403	23,738	1532,832	892,765
-48,388	17,701	1456,326	819,079
-47,373	18,255	1445,874	815,826
-46,359	17,805	1436,449	808,334
-45,344	16,018	1431,881	797,231
-44,330	15,868	1429,995	795,438
-43,315	15,899	1428,171	794,540
-42,300	15,908	1426,525	793,634
-41,286	15,997	1425,287	793,336
-40,271	15,953	1424,007	792,385
-39,257	15,918	1422,892	791,564
-38,242	16,012	1421,256	791,070
-37,227	15,953	1420,326	790,240
-36,213	15,958	1418,835	789,403
-35,198	15,975	1417,826	788,891
-34,184	15,998	1416,907	788,458
-33,169	15,959	1415,634	787,536
-32,154	15,976	1414,647	787,035
-31,140	15,982	1413,241	786,249
-30,125	15,997	1412,053	785,628
-29,111	15,977	1410,924	784,873
-28,096	15,951	1409,870	784,133
-27,082	15,902	1408,679	783,210
-26,067	15,928	1407,520	782,658
-25,052	15,901	1406,525	781,949
-24,038	15,897	1405,693	781,437
-23,023	15,882	1404,553	780,698
-22,009	15,890	1403,539	780,142
-20,994	15,847	1402,624	779,403
-19,979	15,855	1401,619	778,853
-18,965	15,833	1400,668	778,187
-17,950	15,851	1399,654	777,679
-16,936	15,815	1398,905	777,064
-15,921	15,829	1397,467	776,299
-14,906	15,812	1396,530	775,667
-13,892	15,797	1395,808	775,168
-12,877	15,806	1394,804	774,621
-11,863	15,807	1394,001	774,151
-10,848	15,778	1393,132	773,501
-9,833	15,815	1391,867	772,942
-8,819	15,715	1391,274	772,118
-7,804	15,705	1390,169	771,427
-6,790	15,700	1389,321	770,902
-5,775	15,666	1388,228	770,112
-4,760	15,681	1387,364	769,670
-3,746	15,686	1386,532	769,201
-2,731	15,745	1385,558	768,899
-1,717	15,665	1384,724	768,040
-0,702	15,708	1382,759	767,115
0,313	19,420	1303,641	740,373
1,327	35,751	706,295	438,950
2,342	54,963	125,158	85,496
3,356	2,828	16,570	8,491
4,371	18,482	2,994	1,691
5,386	-65,715	0,531	0,150
6,400	-0,393	0,147	0,074
7,415	175,340	-0,202	-0,208
8,429	46,020	-0,375	-0,245
9,444	575,047	-0,171	-0,297
10,459	288,717	-0,211	-0,271
11,473	119,595	-0,213	-0,186
12,488	-78,885	-0,338	-0,081
13,502	39,951	-0,377	-0,239
14,517	95,443	-0,352	-0,284
15,531	440,009	-0,179	-0,277
16,546	25,641	-0,405	-0,238
17,561	565,576	-0,255	-0,439
18,575	-35,815	-0,269	-0,102
19,590	128,626	-0,245	-0,221
20,604	52,263	-0,136	-0,091
21,619	258,262	-0,358	-0,437
22,634	131,510	-0,388	-0,353
23,648	347,237	-0,376	-0,525
24,663	105,052	-0,407	-0,339
25,677	98,195	-0,343	-0,279
26,692	42,497	-0,422	-0,271
27,707	38,919	-0,386	-0,243
28,721	10,416	-0,329	-0,176
29,736	5,415	-0,454	-0,236
30,750	61,147	-0,469	-0,329
31,765	51,154	-0,356	-0,238
32,780	189,786	-0,422	-0,448
33,794	77,256	-0,363	-0,273
34,809	107,737	-0,387	-0,325
35,823	94,365	-0,369	-0,296
36,838	108,485	-0,423	-0,357
37,853	127,069	-0,311	-0,278
38,867	303,039	-0,210	-0,276
39,882	173,971	-0,248	-0,254
40,896	126,569	-0,329	-0,295
41,911	89,704	-0,317	-0,250
42,926	-16,723	-0,477	-0,212
43,940	31,962	-0,351	-0,213
44,955	-16,381	-0,417	-0,186
45,969	65,421	-0,328	-0,234
46,984	204,286	-0,161	-0,176
47,999	148,508	-0,242	-0,230
49,013	39,746	-0,274	-0,173
50,028	113,698	-0,213	-0,182
51,042	83,123	-0,418	-0,321
52,057	248,038	-0,370	-0,443
53,071	-28,764	-0,369	-0,149
54,086	-7,521	-0,314	-0,149
55,101	125,851	-0,318	-0,284
56,115	91,446	-0,283	-0,224
57,130	64,761	-0,391	-0,278
58,144	52,412	-0,328	-0,221
59,159	-8,271	-0,365	-0,172
60,174	157,154	-0,301	-0,293
61,188	273,634	-0,309	-0,386
62,203	194,683	-0,317	-0,339
63,217	217,823	-0,229	-0,258
64,232	55,879	-0,330	-0,225
65,247	82,453	-0,370	-0,283
66,261	23,893	-0,328	-0,190
67,276	34,238	-0,375	-0,230
68,290	15,840	-0,407	-0,225
69,305	56,279	-0,303	-0,207
70,320	19,663	-0,322	-0,182
71,334	-167,824	-0,404	-0,011
72,349	1,775	-0,282	-0,143
73,363	-71,516	-0,323	-0,085
74,378	-151,892	-0,443	-0,022
75,393	-82,843	-0,485	-0,109
76,407	21,873	-0,256	-0,146
77,422	-5,994	-0,219	-0,105
78,436	105,151	-0,232	-0,193
79,451	-64,126	-0,372	-0,106
80,466	-9,155	-0,372	-0,174
81,480	-13,431	-0,406	-0,185
82,495	46,132	-0,344	-0,224
83,509	-28,199	-0,240	-0,097
84,524	162,684	-0,219	-0,216
85,539	-26,496	-0,322	-0,132
86,553	-45,959	-0,186	-0,064
87,568	12,560	-0,239	-0,130
88,582	89,112	-0,307	-0,240
89,597	210,119	-0,243	-0,268
90,611	374,484	-0,158	-0,227
91,626	185,340	-0,174	-0,182
92,641	-3,517	-0,330	-0,161
93,655	4,941	-0,273	-0,141
94,670	168,677	-0,278	-0,279
95,684	73,539	-0,403	-0,296
96,699	293,932	-0,193	-0,249
97,714	341,067	-0,181	-0,249
98,728	800,000	-0,115	-0,244
99,743	-61,121	-0,363	-0,107
100,757	81,094	-0,235	-0,178
101,772	111,657	-0,203	-0,172
102,787	20,180	-0,272	-0,154
103,801	28,398	-0,215	-0,128
104,816	36,334	-0,307	-0,190
105,830	60,686	-0,255	-0,177
106,845	249,945	-0,207	-0,247
107,860	83,828	-0,153	-0,117
108,874	238,857	-0,169	-0,197
109,889	219,109	-0,328	-0,369
110,903	165,246	-0,296	-0,293
111,918	23,344	-0,373	-0,214
112,933	91,187	-0,231	-0,182
113,947	52,138	-0,256	-0,171
114,962	-34,239	-0,305	-0,117
115,976	161,241	-0,218	-0,214
116,991	-10,314	-0,318	-0,147
118,006	296,011	-0,171	-0,220
119,020	204,410	-0,178	-0,194
120,035	119,586	-0,307	-0,267
121,049	-105,517	-0,142	-0,022
122,064	45,554	-0,214	-0,138
123,079	54,335	-0,306	-0,207
124,093	257,090	-0,235	-0,283
125,108	60,365	-0,218	-0,151
126,122	249,511	-0,194	-0,231
127,137	5,263	-0,221	-0,114
128,151	129,609	-0,156	-0,140
129,166	57,808	-0,198	-0,135
130,181	605,555	-0,160	-0,281
131,195	57,843	-0,184	-0,126
132,210	-79,373	-0,350	-0,082
133,224	87,284	-0,306	-0,236
134,239	509,435	-0,177	-0,289
135,254	72,185	-0,210	-0,153
136,268	30,412	-0,251	-0,150
137,283	-19,041	-0,227	-0,098
138,297	-96,950	-0,334	-0,061
139,312	101,334	-0,308	-0,251
140,327	129,640	-0,181	-0,162
141,341	26,247	-0,258	-0,150
142,356	107,526	-0,251	-0,209
143,370	132,081	-0,268	-0,241
144,385	-7,391	-0,213	-0,100
145,400	87,302	-0,263	-0,204
146,414	81,853	-0,251	-0,190
147,429	225,989	-0,305	-0,346
148,443	-14,586	-0,283	-0,127
149,458	249,283	-0,216	-0,256
150,473	200,607	-0,128	-0,138
151,487	-31,345	-0,310	-0,121
152,502	247,029	-0,231	-0,273
153,516	4,611	-0,317	-0,162
154,531	328,666	-0,154	-0,207
155,546	155,693	-0,147	-0,142
156,560	74,470	-0,187	-0,137
157,575	77,878	-0,170	-0,126
158,589	113,783	-0,287	-0,244
159,604	276,894	-0,237	-0,295
160,619	31,678	-0,305	-0,183
161,633	80,119	-0,216	-0,162
162,648	9,890	-0,334	-0,177
163,662	55,854	-0,182	-0,123
164,677	10,827	-0,164	-0,087
165,692	24,371	-0,200	-0,115
166,706	800,000	-0,109	-0,263
167,721	-49,918	-0,368	-0,121
168,735	147,096	-0,287	-0,270
169,750	49,143	-0,261	-0,171
170,764	-44,351	-0,209	-0,073
171,779	209,158	-0,126	-0,138
172,794	464,425	-0,166	-0,260
173,808	230,830	-0,127	-0,145
174,823	18,991	-0,246	-0,137
175,837	321,707	-0,203	-0,270
176,852	51,395	-0,334	-0,221
177,867	316,454	-0,131	-0,174
178,881	800,000	-0,100	-0,226
179,896	23,105	-0,137	-0,078
180,910	148,042	-0,173	-0,162
181,925	52,845	-0,311	-0,207
182,940	53,864	-0,302	-0,202
183,954	297,419	-0,209	-0,269
184,969	241,128	-0,200	-0,233
185,983	124,618	-0,173	-0,152
186,998	294,226	-0,180	-0,230
188,013	-200,000	-0,042	-0,157
189,027	242,043	-0,139	-0,162
190,042	348,331	-0,175	-0,241
191,056	89,600	-0,263	-0,204
192,071	71,050	-0,193	-0,139
193,086	30,497	-0,303	-0,180
194,100	681,696	-0,071	-0,129
195,115	19,358	-0,378	-0,211
196,129	21,904	-0,289	-0,164
197,144	-13,067	-0,294	-0,132
198,159	481,341	-0,165	-0,262
199,173	163,975	-0,169	-0,165
200,188	800,000	-0,094	-0,211
201,202	167,326	-0,220	-0,218
202,217	112,350	-0,192	-0,161
203,232	345,173	-0,138	-0,189
204,246	212,997	-0,188	-0,207
205,261	94,741	-0,254	-0,201
206,275	-13,992	-0,147	-0,066
207,290	-68,210	-0,132	-0,036
208,304	157,571	-0,096	-0,092
209,319	51,572	-0,159	-0,105
210,334	47,334	-0,227	-0,147
211,348	122,142	-0,165	-0,143
212,363	466,636	-0,160	-0,250
213,377	-31,580	-0,172	-0,067
214,392	115,968	-0,145	-0,123
215,407	141,542	-0,152	-0,140
216,421	-12,259	-0,168	-0,076
217,436	-91,701	-0,101	-0,020
218,450	485,091	-0,138	-0,219
219,465	287,746	-0,168	-0,211
220,480	275,624	-0,109	-0,135
221,494	800,000	-0,057	-0,172
222,509	-8,829	-0,193	-0,090
223,523	27,516	-0,210	-0,122
224,538	-27,615	-0,225	-0,090
225,553	90,363	-0,113	-0,088
226,567	559,121	-0,116	-0,196
227,582	544,063	-0,167	-0,278
228,596	-200,000	0,021	-0,232
229,611	301,314	-0,101	-0,130
230,626	454,171	-0,108	-0,166
231,640	800,000	-0,063	-0,147
232,655	50,767	-0,195	-0,128
233,669	606,607	-0,123	-0,214
234,684	36,229	-0,174	-0,106
235,699	63,429	-0,347	-0,241
236,713	-200,000	-0,010	-0,035
237,728	137,487	-0,191	-0,173
238,742	133,521	-0,191	-0,171
239,757	800,000	-0,082	-0,169
240,772	-200,000	-0,072	-0,262
241,786	285,105	-0,136	-0,170
242,801	800,000	-0,084	-0,185
243,815	-200,000	-0,027	-0,121
244,830	303,754	-0,172	-0,221
245,844	113,310	-0,154	-0,130
246,859	271,072	-0,074	-0,090
247,874	300,734	-0,189	-0,243
248,888	509,145	-0,096	-0,155
249,903	-77,885	-0,126	-0,030
250,917	115,195	-0,084	-0,071
251,932	-200,000	-0,021	-0,199
252,947	212,757	-0,115	-0,126
253,961	-10,767	-0,260	-0,119
254,976	-32,412	-0,169	-0,065
255,990	107,215	-0,170	-0,140
257,005	237,464	-0,181	-0,208
258,020	-200,000	0,010	-0,055
259,034	-101,600	-0,072	-0,012
260,049	133,926	-0,157	-0,141
261,063	748,501	-0,137	-0,257
262,078	161,137	-0,204	-0,198
263,093	108,046	-0,178	-0,147
264,107	-7,699	-0,223	-0,104
265,122	-137,281	-0,037	-0,003
266,136	65,218	-0,184	-0,128
267,151	-9,550	-0,134	-0,062
268,166	-154,194	-0,297	-0,014
269,180	-16,229	-0,142	-0,062
270,195	-78,802	-0,221	-0,052
271,209	70,528	-0,252	-0,180
272,224	124,144	-0,144	-0,125
273,239	7,578	-0,060	-0,031
274,253	316,441	-0,133	-0,174
275,268	141,474	-0,165	-0,151
276,282	3,239	-0,187	-0,094
277,297	-3,458	-0,111	-0,053
278,312	-43,781	-0,178	-0,062
279,326	-200,000	-0,027	-0,161
280,341	-200,000	0,020	-0,116
281,355	179,833	-0,101	-0,103
282,370	102,461	-0,206	-0,166
283,384	710,475	-0,095	-0,175
284,399	-122,776	-0,168	0,018
285,414	-45,104	-0,100	-0,034
286,428	387,164	-0,142	-0,203
287,443	689,698	-0,097	-0,177
288,457	110,810	-0,141	-0,117
289,472	-62,045	-0,242	-0,069
290,487	246,557	-0,098	-0,114
291,501	284,263	-0,096	-0,120
292,516	38,237	-0,251	-0,154
293,530	-30,643	-0,214	-0,083
294,545	800,000	-0,047	-0,105
295,560	95,036	-0,165	-0,130
296,574	175,973	-0,195	-0,196
297,589	673,221	-0,089	-0,160
298,603	-98,534	-0,241	-0,042
299,618	-9,270	-0,289	-0,133
300,633	-200,000	-0,038	-0,365
301,647	800,000	-0,046	-0,122
302,662	85,560	-0,144	-0,109
303,676	275,075	-0,120	-0,147
304,691	330,569	-0,152	-0,203
305,706	66,802	-0,147	-0,103
306,720	8,621	-0,179	-0,093
307,735	-200,000	-0,009	0,028
308,749	298,438	-0,098	0,125
309,764	-125,858	-0,277	-0,028
310,779	410,371	-0,107	-0,158
311,793	6,852	-0,132	-0,068
312,808	194,269	-0,104	-0,108
313,822	800,000	-0,085	-0,213
314,837	109,520	-0,169	-0,139
315,852	-28,555	-0,169	-0,067
316,866	47,524	-0,206	-0,132
317,881	10,431	-0,152	-0,080
318,895	11,566	-0,221	-0,116
319,910	-200,000	-0,038	-0,149
320,925	96,527	-0,199	-0,157
321,939	-7,596	-0,121	-0,056
322,954	-26,928	-0,093	-0,037
323,968	-4,165	-0,131	-0,062
324,983	-15,564	-0,256	-0,112
325,997	-85,728	-0,312	-0,066
327,012	800,000	-0,095	-0,206
328,027	800,000	-0,066	-0,187
329,041	678,086	-0,033	0,060
330,056	109,138	-0,156	-0,128
331,070	167,083	-0,096	-0,094
332,085	-23,865	-0,241	-0,099
333,100	-152,056	-0,126	0,006
334,114	-75,826	-0,194	-0,047
335,129	369,710	-0,075	-0,105
336,143	139,947	-0,179	-0,162
337,158	130,631	-0,087	-0,077
338,173	-140,310	-0,070	0,005
339,187	220,395	-0,100	-0,111
340,202	189,648	-0,125	-0,129
341,216	800,000	-0,080	-0,184
342,231	-200,000	-0,005	-0,173
343,246	7,187	-0,254	-0,130
344,260	24,589	-0,222	-0,126
345,275	-57,194	-0,181	-0,054
346,289	-98,191	-0,171	-0,030
347,304	301,988	-0,068	0,087
348,319	-77,281	-0,127	-0,030
349,333	-27,205	-0,219	-0,087
350,348	-55,254	-0,208	-0,064
351,362	-32,322	-0,130	-0,050
352,377	-29,422	-0,091	-0,036
353,392	-17,730	-0,096	-0,041
354,406	-92,002	-0,059	-0,011
355,421	209,898	1312,423	1415,792
356,435	161,566	1472,906	1416,324
