DTS Sentinel unit serial number:	SN410029Multiplexer serial number:	ORYXHardware model number:	OX2-SRSoftware version number:	ORYX F/W v4,00 Oryx Data Collector v3.7.2.0data status	okinstallation	B3 Nyhavnadifferential loss correction	single-endedforward channel	channel 1reverse channel	N/Adate	2023/11/29time	04:02:30forward acquisition time	300,00reverse acquisition time	0,00gamma	499,1914k internal	0,3211k external	0,3211temperature offset calibration	1,0000default loss term (dB/km)	0,3820temperature slope calibration	1,0000multiplexer offset coefficient	1,0000multiplexer slope coefficient	1,0000fibre end	0,00T internal ref (°C)	9,39T ext. ref 1 (°C)	-6,01T ext. ref 2 (°C)	-6,11length (m)	temperature (°C)	Stokes	anti-Stokes-744,400	223,468	-0,217	-0,255
-743,385	-200,000	0,018	0,251
-742,371	559,998	-0,104	-0,184
-741,356	-200,000	0,073	0,325
-740,342	456,061	-0,157	-0,254
-739,327	317,907	-0,040	0,054
-738,312	800,000	-0,142	-0,317
-737,298	800,000	-0,119	0,245
-736,283	126,724	-0,218	-0,200
-735,269	-200,000	-0,039	0,227
-734,254	112,783	-0,180	-0,158
-733,239	80,519	-0,158	0,123
-732,225	800,000	-0,070	-0,223
-731,210	124,947	0,114	0,104
-730,196	723,507	0,050	0,097
-729,181	800,000	0,071	-0,148
-728,167	277,010	-0,062	-0,080
-727,152	-103,284	-0,106	-0,018
-726,137	-187,698	-0,197	-0,002
-725,123	-103,010	-0,113	-0,019
-724,108	800,000	-0,036	-0,100
-723,094	94,811	0,084	-0,069
-722,079	-159,975	-0,217	0,008
-721,064	800,000	-0,022	-0,048
-720,050	-200,000	0,030	-0,118
-719,035	431,278	-0,080	0,126
-718,021	693,444	-0,067	-0,127
-717,006	169,197	-0,096	-0,100
-715,991	46,574	-0,131	-0,088
-714,977	-200,000	-0,008	-0,179
-713,962	522,870	0,078	-0,134
-712,948	-186,714	0,072	-0,001
-711,933	800,000	0,022	-0,067
-710,918	-45,025	0,075	0,027
-709,904	82,764	-0,061	-0,048
-708,889	-110,611	-0,087	0,013
-707,875	-200,000	-0,019	-0,068
-706,860	800,000	0,023	-0,049
-705,845	800,000	0,028	-0,088
-704,831	10,955	0,082	0,045
-703,816	57,069	-0,073	-0,051
-702,802	-39,055	-0,095	-0,036
-701,787	147,150	0,066	-0,065
-700,772	-200,000	0,002	-0,057
-699,758	31,871	-0,006	-0,003
-698,743	-200,000	0,020	-0,066
-697,729	70,478	0,120	-0,090
-696,714	-200,000	-0,009	-0,104
-695,699	76,927	-0,059	-0,045
-694,685	185,636	-0,096	-0,103
-693,670	799,553	-0,090	-0,181
-692,656	43,494	-0,113	-0,075
-691,641	729,922	0,023	-0,044
-690,627	431,203	0,102	0,160
-689,612	-200,000	-0,022	0,080
-688,597	275,770	0,098	-0,126
-687,583	54,156	-0,031	-0,021
-686,568	183,046	0,019	-0,020
-685,554	800,000	-0,065	-0,136
-684,539	800,000	-0,076	-0,169
-683,524	84,108	0,085	-0,067
-682,510	-129,940	-0,097	0,009
-681,495	24,402	-0,040	-0,024
-680,481	134,086	-0,107	-0,100
-679,466	-17,804	-0,180	-0,081
-678,451	800,000	0,029	-0,060
-677,437	-200,000	0,004	-0,077
-676,422	-131,882	-0,070	-0,007
-675,408	-200,000	0,026	-0,125
-674,393	-200,000	-0,015	0,074
-673,378	800,000	-0,039	-0,081
-672,364	-200,000	-0,043	-0,201
-671,349	800,000	-0,074	-0,197
-670,335	58,103	0,063	0,044
-669,320	-200,000	0,003	0,131
-668,305	-128,262	-0,051	0,005
-667,291	-200,000	-0,050	-0,186
-666,276	-200,000	0,006	-0,068
-665,262	166,779	-0,093	-0,096
-664,247	211,061	-0,040	-0,045
-663,232	148,070	-0,051	-0,049
-662,218	350,205	0,038	0,055
-661,203	-176,515	0,059	-0,001
-660,189	533,991	-0,030	-0,051
-659,174	-200,000	-0,004	-0,123
-658,159	-142,998	-0,194	-0,013
-657,145	800,000	-0,083	-0,171
-656,130	227,943	-0,008	-0,010
-655,116	-160,864	-0,052	-0,002
-654,101	143,716	-0,051	0,049
-653,086	-29,833	-0,048	0,020
-652,072	-141,709	-0,115	0,008
-651,057	-141,786	-0,076	-0,005
-650,043	-198,316	-0,145	0,001
-649,028	-200,000	-0,005	0,026
-648,014	-33,277	-0,126	-0,050
-646,999	-45,894	0,070	-0,025
-645,984	800,000	-0,036	0,082
-644,970	-6,226	0,079	0,039
-643,955	613,521	0,033	-0,060
-642,941	-118,586	-0,050	-0,006
-641,926	-73,968	0,096	-0,025
-640,911	800,000	0,006	-0,015
-639,897	-65,329	0,144	0,042
-638,882	-200,000	0,007	-0,045
-637,868	116,499	-0,034	0,030
-636,853	-200,000	-0,038	-0,141
-635,838	-73,279	-0,070	0,018
-634,824	23,130	-0,212	0,125
-633,809	194,372	0,093	0,101
-632,795	398,191	-0,028	0,042
-631,780	603,297	0,011	0,020
-630,765	-69,976	-0,051	0,014
-629,751	347,784	-0,066	-0,094
-628,736	50,863	-0,188	0,129
-627,722	645,599	-0,016	0,030
-626,707	-12,073	0,051	0,024
-625,692	-200,000	0,015	-0,082
-624,678	515,665	0,062	-0,105
-623,663	-200,000	0,020	0,067
-622,649	-200,000	0,028	-0,111
-621,634	-200,000	0,016	-0,138
-620,619	-200,000	0,025	-0,120
-619,605	15,820	0,083	-0,047
-618,590	800,000	0,029	0,088
-617,576	-111,406	0,216	-0,031
-616,561	-113,416	-0,103	-0,014
-615,546	-200,000	-0,019	-0,112
-614,532	315,528	-0,074	-0,101
-613,517	-143,754	-0,009	0,001
-612,503	221,686	-0,024	-0,028
-611,488	127,115	-0,027	0,025
-610,474	-200,000	0,020	0,159
-609,459	-1,805	0,069	0,035
-608,444	500,287	-0,074	-0,123
-607,430	800,000	0,032	0,074
-606,415	126,350	-0,054	-0,049
-605,401	151,359	0,108	-0,107
-604,386	-104,846	-0,042	0,007
-603,371	-16,413	0,029	-0,013
-602,357	-200,000	-0,001	-0,050
-601,342	800,000	-0,069	-0,145
-600,328	-200,000	0,017	-0,058
-599,313	30,176	-0,077	0,047
-598,298	800,000	-0,064	-0,144
-597,284	-98,461	0,106	-0,019
-596,269	-16,770	0,096	0,044
-595,255	-177,004	-0,094	0,002
-594,240	800,000	0,002	0,004
-593,225	58,706	-0,120	-0,084
-592,211	-28,443	-0,064	-0,027
-591,196	-200,000	-0,007	-0,030
-590,182	-6,232	0,087	-0,043
-589,167	264,330	0,051	0,065
-588,152	-200,000	-0,041	0,137
-587,138	296,877	-0,012	0,016
-586,123	740,152	0,045	-0,087
-585,109	502,030	-0,031	0,052
-584,094	800,000	0,017	-0,050
-583,079	10,046	0,106	0,058
-582,065	-200,000	0,007	-0,056
-581,050	156,351	-0,092	0,091
-580,036	800,000	0,035	-0,090
-579,021	800,000	0,053	-0,134
-578,006	83,114	-0,043	-0,033
-576,992	517,687	-0,044	-0,075
-575,977	-200,000	0,043	0,161
-574,963	-98,971	-0,116	-0,021
-573,948	162,342	-0,057	0,057
-572,934	-200,000	0,008	0,138
-571,919	-154,007	-0,038	-0,002
-570,904	245,937	-0,017	-0,021
-569,890	-200,000	0,007	0,128
-568,875	-83,053	0,064	0,015
-567,861	-103,186	-0,167	0,028
-566,846	148,453	-0,025	-0,024
-565,831	-200,000	-0,014	0,046
-564,817	-45,348	-0,133	-0,047
-563,802	1,726	-0,008	0,004
-562,788	284,878	-0,050	-0,065
-561,773	632,344	-0,045	-0,083
-560,758	86,642	0,045	-0,036
-559,744	-200,000	0,029	0,158
-558,729	-200,000	0,002	-0,034
-557,715	-10,274	-0,037	-0,017
-556,700	-84,807	0,036	-0,008
-555,685	247,849	-0,066	-0,081
-554,671	-85,151	0,123	0,027
-553,656	-57,175	-0,056	-0,018
-552,642	-9,654	0,034	-0,016
-551,627	36,847	-0,085	0,054
-550,612	800,000	-0,011	0,028
-549,598	-128,044	-0,104	0,011
-548,583	343,897	0,063	-0,089
-547,569	-68,603	-0,080	0,022
-546,554	-200,000	0,005	-0,077
-545,539	-36,046	0,126	-0,049
-544,525	9,942	0,078	-0,043
-543,510	339,104	0,038	-0,054
-542,496	-200,000	0,013	0,049
-541,481	74,738	-0,097	-0,073
-540,466	-200,000	0,006	0,026
-539,452	-42,701	0,064	-0,023
-538,437	562,934	0,056	0,098
-537,423	19,158	0,112	-0,064
-536,408	52,278	0,028	-0,019
-535,393	238,133	-0,053	-0,063
-534,379	88,804	-0,073	0,058
-533,364	140,314	-0,112	0,106
-532,350	-200,000	-0,015	0,145
-531,335	-200,000	-0,006	0,095
-530,321	181,740	0,062	-0,066
-529,306	-200,000	-0,013	-0,052
-528,291	322,084	0,032	-0,044
-527,277	-200,000	0,008	-0,137
-526,262	202,788	0,080	0,089
-525,248	-70,659	-0,006	0,002
-524,233	-200,000	0,004	0,056
-523,218	16,148	0,028	0,016
-522,204	142,496	0,060	0,057
-521,189	179,706	0,099	-0,104
-520,175	800,000	-0,032	-0,095
-519,160	-200,000	-0,017	0,088
-518,145	-200,000	-0,004	-0,076
-517,131	-200,000	0,006	0,030
-516,116	800,000	-0,043	0,098
-515,102	70,977	-0,114	0,084
-514,087	105,985	0,026	-0,023
-513,072	98,793	0,077	0,064
-512,058	-200,000	-0,005	-0,212
-511,043	-154,801	-0,062	0,003
-510,029	800,000	-0,051	0,106
-509,014	-200,000	0,035	0,129
-507,999	183,118	-0,026	0,027
-506,985	37,569	-0,135	0,086
-505,970	-200,000	0,036	-0,122
-504,956	-200,000	0,002	0,008
-503,941	-0,649	0,103	-0,052
-502,926	-200,000	-0,000	-0,096
-501,912	4,216	0,061	0,032
-500,897	25,012	-0,079	-0,047
-499,883	-117,918	0,159	-0,020
-498,868	-200,000	-0,011	-0,091
-497,853	-32,385	0,046	-0,019
-496,839	-24,848	-0,021	-0,009
-495,824	180,496	-0,056	0,060
-494,810	-56,140	0,064	0,020
-493,795	378,723	0,110	0,162
-492,781	-200,000	0,009	-0,049
-491,766	647,892	-0,110	-0,202
-490,751	-200,000	0,003	-0,030
-489,737	800,000	0,021	-0,044
-488,722	-200,000	-0,000	-0,027
-487,708	800,000	-0,066	-0,142
-486,693	250,924	0,039	-0,048
-485,678	198,858	-0,048	-0,053
-484,664	-200,000	-0,013	-0,089
-483,649	-129,987	-0,097	0,009
-482,635	-200,000	-0,015	-0,067
-481,620	800,000	-0,039	0,111
-480,605	-64,256	-0,041	0,012
-479,591	800,000	0,042	0,098
-478,576	-9,110	0,099	-0,047
-477,562	-82,214	-0,188	0,044
-476,547	422,299	-0,052	-0,080
-475,532	800,000	-0,023	-0,064
-474,518	-200,000	0,039	-0,124
-473,503	-192,172	0,120	0,001
-472,489	-200,000	0,008	0,101
-471,474	71,150	0,148	0,110
-470,459	364,256	-0,006	-0,009
-469,445	665,511	-0,011	-0,020
-468,430	400,387	0,083	0,125
-467,416	160,384	0,096	0,096
-466,401	219,781	0,015	0,018
-465,386	38,289	-0,048	0,031
-464,372	-200,000	-0,010	-0,085
-463,357	26,318	0,007	0,004
-462,343	-200,000	-0,050	-0,170
-461,328	61,298	-0,034	-0,024
-460,313	-66,639	0,072	0,020
-459,299	-59,335	0,139	0,042
-458,284	647,821	0,080	0,148
-457,270	627,832	0,057	-0,104
-456,255	-200,000	-0,005	0,023
-455,241	-96,415	0,049	-0,009
-454,226	-200,000	0,015	0,052
-453,211	493,581	-0,080	-0,133
-452,197	242,773	0,050	-0,060
-451,182	-10,082	0,067	0,032
-450,168	292,546	-0,069	-0,090
-449,153	174,581	-0,054	-0,056
-448,138	800,000	0,030	-0,084
-447,124	-200,000	0,009	0,060
-446,109	800,000	-0,018	0,036
-445,095	-200,000	0,019	0,088
-444,080	-200,000	-0,015	0,155
-443,065	800,000	0,029	0,069
-442,051	24,848	-0,035	0,021
-441,036	396,235	-0,049	0,074
-440,022	800,000	0,053	0,161
-439,007	111,983	0,099	-0,086
-437,992	252,543	-0,091	-0,111
-436,978	-200,000	-0,020	0,207
-435,963	105,142	-0,039	0,033
-434,949	-140,639	0,163	-0,012
-433,934	-200,000	-0,009	-0,159
-432,919	7,192	-0,109	-0,058
-431,905	84,410	-0,166	-0,130
-430,890	-49,760	0,136	-0,046
-429,876	-200,000	-0,005	-0,077
-428,861	161,424	0,049	0,049
-427,846	76,140	0,027	0,020
-426,832	800,000	-0,085	-0,254
-425,817	-41,610	0,043	0,016
-424,803	242,726	0,020	-0,024
-423,788	-31,879	0,138	-0,055
-422,773	800,000	0,020	-0,046
-421,759	-150,565	-0,042	-0,002
-420,744	24,409	0,121	-0,071
-419,730	332,327	-0,037	0,051
-418,715	-200,000	-0,024	-0,118
-417,701	32,722	0,011	0,007
-416,686	800,000	0,027	-0,056
-415,671	-98,441	0,117	0,021
-414,657	64,454	-0,062	0,044
-413,642	-91,034	-0,048	-0,010
-412,628	800,000	0,068	-0,140
-411,613	265,157	0,033	0,041
-410,598	-63,560	0,133	-0,039
-409,584	800,000	-0,017	-0,038
-408,569	258,649	0,053	0,065
-407,555	-200,000	0,011	0,000
-406,540	776,737	0,033	-0,064
-405,525	-6,557	-0,138	-0,067
-404,511	-28,809	-0,144	-0,059
-403,496	-106,815	0,180	-0,028
-402,482	487,276	0,068	-0,112
-401,467	-118,783	0,072	-0,009
-400,452	-200,000	-0,010	0,063
-399,438	800,000	0,037	0,109
-398,423	800,000	-0,080	-0,194
-397,409	102,039	0,058	-0,048
-396,394	330,457	0,023	-0,032
-395,379	-6,240	0,011	-0,005
-394,365	307,361	-0,087	0,117
-393,350	67,766	0,104	-0,076
-392,336	-22,866	-0,094	0,041
-391,321	97,377	0,049	0,040
-390,306	163,831	0,077	-0,078
-389,292	-12,394	-0,158	0,074
-388,277	-183,345	0,067	-0,001
-387,263	110,409	-0,121	-0,104
-386,248	-119,965	0,098	-0,012
-385,233	-200,000	-0,036	0,130
-384,219	800,000	-0,036	-0,092
-383,204	-200,000	0,001	0,058
-382,190	225,228	0,050	-0,058
-381,175	-0,624	-0,056	0,028
-380,160	800,000	0,034	-0,081
-379,146	79,336	0,139	0,107
-378,131	-200,000	0,001	0,014
-377,117	40,464	0,046	-0,030
-376,102	-75,964	-0,111	0,028
-375,088	132,028	-0,052	0,048
-374,073	800,000	-0,023	-0,069
-373,058	-144,475	0,060	0,004
-372,044	134,478	0,141	0,130
-371,029	-163,785	0,128	0,004
-370,015	-200,000	-0,025	-0,102
-369,000	-200,000	-0,004	0,038
-367,985	62,313	-0,084	-0,060
-366,971	225,301	-0,038	-0,045
-365,956	589,430	-0,058	0,103
-364,942	-136,837	0,157	-0,013
-363,927	717,558	0,030	-0,057
-362,912	-200,000	0,006	-0,026
-361,898	800,000	-0,031	0,090
-360,883	-200,000	0,032	-0,104
-359,869	-70,095	0,048	0,013
-358,854	-99,170	0,115	0,021
-357,839	246,154	0,057	0,069
-356,825	-126,901	0,075	0,008
-355,810	-200,000	-0,018	0,171
-354,796	-30,009	-0,081	0,033
-353,781	800,000	0,017	-0,049
-352,766	-27,209	-0,131	-0,054
-351,752	78,036	-0,092	-0,070
-350,737	-200,000	0,002	0,047
-349,723	375,472	0,103	0,150
-348,708	95,573	0,061	-0,049
-347,693	800,000	-0,024	0,055
-346,679	-200,000	-0,003	0,059
-345,664	-200,000	-0,035	0,155
-344,650	-16,166	0,155	0,070
-343,635	-200,000	0,006	-0,082
-342,620	561,870	0,052	0,090
-341,606	-200,000	0,011	0,106
-340,591	800,000	0,026	0,056
-339,577	-26,522	-0,145	-0,060
-338,562	-124,276	-0,101	-0,011
-337,548	800,000	0,031	0,069
-336,533	282,663	0,126	0,162
-335,518	800,000	0,020	0,048
-334,504	465,516	0,003	0,004
-333,489	33,400	-0,114	0,070
-332,475	17,051	-0,053	0,030
-331,460	457,909	-0,090	-0,143
-330,445	-200,000	-0,003	-0,045
-329,431	800,000	0,040	-0,123
-328,416	-44,282	0,044	0,016
-327,402	476,619	0,114	0,184
-326,387	632,229	-0,038	0,068
-325,372	131,783	-0,075	-0,069
-324,358	-200,000	0,003	-0,023
-323,343	-200,000	0,010	-0,109
-322,329	-44,635	0,174	0,062
-321,314	353,053	-0,081	0,115
-320,299	-200,000	0,007	0,055
-319,285	613,149	0,016	0,028
-318,270	59,634	-0,083	-0,058
-317,256	306,105	-0,090	0,119
-316,241	-200,000	-0,001	0,109
-315,226	-68,742	0,045	0,012
-314,212	278,207	0,055	-0,070
-313,197	-81,562	0,200	0,046
-312,183	-83,505	-0,101	-0,023
-311,168	545,279	-0,065	-0,111
-310,153	679,509	-0,041	-0,077
-309,139	29,846	0,063	0,038
-308,124	54,348	-0,035	-0,024
-307,110	217,934	-0,033	-0,038
-306,095	-49,234	0,077	-0,026
-305,080	800,000	-0,033	0,076
-304,066	-162,596	-0,044	0,002
-303,051	-126,327	0,032	0,003
-302,037	-121,055	0,194	0,023
-301,022	-87,184	0,109	0,023
-300,008	-200,000	0,011	0,075
-298,993	-200,000	-0,015	0,180
-297,978	-21,036	-0,048	0,021
-296,964	-200,000	-0,001	0,007
-295,949	-200,000	0,006	-0,033
-294,935	165,503	-0,065	-0,066
-293,920	-200,000	0,022	0,085
-292,905	129,688	0,077	-0,070
-291,891	134,580	0,048	-0,044
-290,876	213,942	0,052	0,059
-289,862	-101,042	-0,130	-0,022
-288,847	251,413	-0,058	-0,071
-287,832	72,338	0,037	-0,028
-286,818	-200,000	-0,028	-0,106
-285,803	-200,000	0,014	-0,081
-284,789	70,906	0,138	0,102
-283,774	75,727	-0,028	0,021
-282,759	36,339	0,069	-0,043
-281,745	-104,831	0,057	-0,009
-280,730	380,480	-0,032	-0,047
-279,716	-200,000	-0,030	-0,134
-278,701	-200,000	-0,022	0,189
-277,686	749,245	0,066	-0,127
-276,672	15,231	0,037	0,020
-275,657	198,529	-0,134	0,146
-274,643	-124,364	0,098	0,011
-273,628	-200,000	-0,013	-0,057
-272,613	800,000	0,032	-0,074
-271,599	73,098	-0,077	0,057
-270,584	-200,000	-0,025	0,107
-269,570	-200,000	0,007	-0,037
-268,555	-40,760	-0,155	0,057
-267,540	-11,931	0,085	0,040
-266,526	23,268	-0,169	-0,099
-265,511	-188,583	-0,151	-0,001
-264,497	-52,796	-0,067	0,022
-263,482	-200,000	-0,001	0,040
-262,467	170,200	0,109	0,111
-261,453	-200,000	-0,032	0,142
-260,438	-200,000	-0,005	0,174
-259,424	-200,000	-0,001	0,059
-258,409	348,256	0,027	0,037
-257,395	356,575	0,083	-0,117
-256,380	-158,383	-0,129	-0,005
-255,365	629,212	0,069	0,124
-254,351	-200,000	-0,015	0,124
-253,336	-200,000	0,052	-0,169
-252,322	-200,000	-0,015	-0,115
-251,307	65,066	-0,162	0,117
-250,292	-200,000	-0,003	-0,010
-249,278	136,281	0,040	0,037
-248,263	-92,803	0,155	-0,031
-247,249	435,951	0,074	0,114
-246,234	-61,928	0,116	-0,034
-245,219	-200,000	-0,004	-0,037
-244,205	90,076	-0,059	0,047
-243,190	-111,993	0,081	-0,012
-242,176	129,765	0,075	0,068
-241,161	-200,000	-0,029	0,106
-240,146	-49,710	-0,110	0,037
-239,132	800,000	-0,039	0,081
-238,117	-43,363	-0,097	-0,035
-237,103	800,000	0,038	-0,088
-236,088	-58,432	-0,089	0,027
-235,073	800,000	-0,025	-0,074
-234,059	547,897	0,014	-0,024
-233,044	-200,000	-0,000	0,147
-232,030	0,110	-0,132	0,067
-231,015	-68,904	-0,082	0,022
-230,000	-49,945	-0,077	-0,026
-228,986	800,000	0,039	0,118
-227,971	130,615	-0,145	0,132
-226,957	800,000	-0,076	0,158
-225,942	16,614	-0,055	0,031
-224,927	-96,979	-0,059	-0,011
-223,913	234,302	0,099	-0,117
-222,898	-200,000	0,015	-0,053
-221,884	-200,000	-0,024	0,128
-220,869	21,151	0,189	0,109
-219,855	-51,244	-0,041	-0,014
-218,840	43,155	-0,071	0,046
-217,825	-66,112	-0,154	-0,043
-216,811	-200,000	0,019	-0,068
-215,796	-17,118	-0,100	-0,045
-214,782	242,532	-0,013	0,015
-213,767	54,582	-0,127	0,087
-212,752	-200,000	-0,018	0,122
-211,738	800,000	0,031	0,092
-210,723	742,636	-0,063	0,121
-209,709	800,000	0,001	0,003
-208,694	-200,000	-0,004	-0,089
-207,679	220,551	-0,077	-0,088
-206,665	-200,000	-0,001	-0,095
-205,650	218,991	-0,055	0,063
-204,636	68,287	0,018	0,013
-203,621	255,919	0,043	-0,053
-202,606	245,729	0,123	-0,147
-201,592	283,058	-0,109	-0,139
-200,577	-30,693	-0,123	0,049
-199,563	800,000	0,030	0,065
-198,548	195,493	0,017	-0,018
-197,533	-103,192	0,124	0,021
-196,519	146,456	-0,040	0,039
-195,504	-200,000	0,002	0,051
-194,490	14,971	-0,042	-0,023
-193,475	39,961	-0,147	-0,094
-192,460	-144,577	-0,090	-0,006
-191,446	-132,353	-0,085	-0,008
-190,431	-137,700	0,045	-0,004
-189,417	-141,372	-0,086	-0,006
-188,402	571,539	0,016	-0,028
-187,387	636,257	-0,050	-0,091
-186,373	-200,000	-0,014	-0,107
-185,358	127,129	0,044	0,040
-184,344	-200,000	0,034	0,179
-183,329	-24,536	-0,081	0,034
-182,315	39,734	-0,058	-0,037
-181,300	199,317	-0,011	-0,012
-180,285	133,472	-0,083	-0,076
-179,271	776,878	-0,014	-0,027
-178,256	100,169	-0,029	-0,024
-177,242	800,000	-0,085	0,172
-176,227	800,000	-0,024	-0,052
-175,212	69,493	0,090	-0,065
-174,198	-98,594	0,110	0,020
-173,183	-200,000	-0,009	0,044
-172,169	266,236	0,070	-0,087
-171,154	216,631	-0,023	-0,026
-170,139	800,000	0,004	-0,009
-169,125	-150,977	0,106	-0,006
-168,110	129,573	0,073	0,066
-167,096	-49,147	-0,184	-0,062
-166,081	528,859	0,081	-0,136
-165,066	181,359	-0,051	0,054
-164,052	800,000	-0,037	0,100
-163,037	22,113	-0,044	0,026
-162,023	297,354	0,074	0,096
-161,008	122,570	0,041	-0,037
-159,993	-200,000	-0,008	-0,143
-158,979	-200,000	0,031	-0,102
-157,964	97,537	0,082	-0,067
-156,950	143,801	-0,075	-0,071
-155,935	800,000	0,049	0,109
-154,920	38,857	0,075	0,048
-153,906	32,550	0,084	-0,051
-152,891	800,000	0,057	0,127
-151,877	731,822	-0,046	0,087
-150,862	41,014	-0,188	-0,120
-149,847	-106,695	-0,112	0,017
-148,833	-58,237	0,061	-0,019
-147,818	774,396	-0,018	-0,036
-146,804	-128,068	0,077	-0,008
-145,789	-200,000	-0,034	0,138
-144,775	800,000	-0,023	-0,069
-143,760	-200,000	-0,011	-0,117
-142,745	-9,825	-0,032	0,015
-141,731	800,000	0,033	-0,065
-140,716	255,911	0,049	0,059
-139,702	386,802	-0,045	-0,066
-138,687	-133,260	0,104	-0,009
-137,672	57,698	-0,098	0,068
-136,658	-118,101	-0,098	0,012
-135,643	-200,000	-0,009	0,055
-134,629	234,162	-0,044	0,051
-133,614	613,872	0,051	0,091
-132,599	-88,552	0,021	0,004
-131,585	158,870	-0,023	0,023
-130,570	-200,000	0,010	0,035
-129,556	-200,000	0,018	-0,264
-128,541	-200,000	-0,003	0,031
-127,526	-114,354	0,121	0,016
-126,512	-7,623	-0,079	0,038
-125,497	-47,755	0,172	0,059
-124,483	-200,000	0,014	0,049
-123,468	519,937	0,020	0,033
-122,453	570,508	-0,037	-0,064
-121,439	35,733	-0,079	-0,049
-120,424	-4,700	-0,028	0,013
-119,410	-140,141	0,114	0,008
-118,395	800,000	-0,059	-0,128
-117,380	-200,000	0,007	-0,128
-116,366	800,000	-0,012	-0,034
-115,351	-92,816	-0,141	-0,028
-114,337	800,000	-0,066	-0,150
-113,322	800,000	-0,027	-0,075
-112,307	-159,134	-0,098	-0,004
-111,293	186,210	0,072	0,075
-110,278	-200,000	-0,017	-0,069
-109,264	-200,000	-0,006	-0,120
-108,249	-29,014	-0,213	0,086
-107,234	38,220	-0,126	-0,079
-106,220	453,236	-0,064	-0,101
-105,205	103,282	0,058	-0,048
-104,191	-130,584	-0,096	-0,009
-103,176	63,782	0,107	0,076
-102,162	-200,000	0,012	0,070
-101,147	131,279	-0,042	-0,038
-100,132	-42,280	-0,054	0,019
-99,118	46,506	0,067	0,044
-98,103	-97,729	0,189	-0,034
-97,089	-122,317	-0,006	-0,001
-96,074	97,045	-0,088	0,071
-95,059	-200,000	-0,000	0,009
-94,045	75,509	-0,015	0,011
-93,030	11,021	0,182	-0,098
-92,016	-119,057	-0,154	-0,019
-91,001	97,939	-0,026	-0,021
-89,986	594,449	0,064	-0,112
-88,972	74,779	-0,052	0,039
-87,957	212,388	-0,033	0,037
-86,943	-108,874	0,051	0,008
-85,928	191,068	-0,016	-0,018
-84,913	-36,997	-0,012	-0,005
-83,899	-146,508	0,117	0,007
-82,884	-200,000	0,029	0,119
-81,870	-200,000	0,014	0,114
-80,855	800,000	0,029	-0,067
-79,840	138,225	0,040	0,037
-78,826	465,905	0,063	-0,100
-77,811	184,381	-0,056	-0,059
-76,797	-51,809	0,128	-0,042
-75,782	75,123	-0,138	0,103
-74,767	68,499	0,078	0,056
-73,753	117,671	-0,018	0,016
-72,738	-200,000	-0,001	-0,083
-71,724	126,462	0,078	-0,070
-70,709	-200,000	-0,018	-0,115
-69,694	-134,349	-0,130	-0,011
-68,680	-53,883	0,028	0,009
-67,665	-200,000	-0,006	0,049
-66,651	-54,769	0,032	-0,010
-65,636	-158,297	-0,018	-0,001
-64,622	-45,623	-0,039	-0,014
-63,607	124,113	-0,092	-0,082
-62,592	71,619	-0,079	-0,058
-61,578	-200,000	0,007	0,101
-60,563	149,865	-0,065	0,062
-59,549	-200,000	-0,015	-0,058
-58,534	53,874	-1,978	-1,340
-57,519	597,866	-1,138	-2,000
-56,505	-200,000	-0,323	-4,314
-55,490	757,855	0,839	1,611
-54,476	800,000	5,122	11,144
-53,461	-200,000	21,659	341,245
-52,446	800,000	761,904	2332,985
-51,432	544,628	1659,345	2807,954
-50,417	71,035	1655,884	1209,728
-49,403	17,170	1529,337	853,643
-48,388	11,201	1453,228	782,376
-47,373	19,252	1444,960	816,416
-46,359	14,700	1434,032	788,632
-45,344	9,495	1429,875	761,596
-44,330	9,460	1427,957	760,382
-43,315	9,403	1426,362	759,229
-42,300	9,458	1424,515	758,475
-41,286	9,496	1423,282	757,972
-40,271	9,426	1422,082	756,970
-39,257	9,431	1421,089	756,436
-38,242	9,504	1419,800	756,064
-37,227	9,473	1418,490	755,191
-36,213	9,444	1417,524	754,508
-35,198	9,454	1416,400	753,930
-34,184	9,570	1415,080	753,740
-33,169	9,410	1413,643	752,194
-32,154	9,449	1412,914	751,961
-31,140	9,494	1411,513	751,394
-30,125	9,465	1410,561	750,721
-29,111	9,489	1409,286	750,126
-28,096	9,475	1408,117	749,407
-27,082	9,429	1406,859	748,497
-26,067	9,417	1405,854	747,872
-25,052	9,415	1404,876	747,315
-24,038	9,449	1404,194	747,083
-23,023	9,398	1403,263	746,317
-22,009	9,433	1401,760	745,653
-20,994	9,451	1401,041	745,325
-19,979	9,452	1399,866	744,674
-18,965	9,404	1399,099	744,011
-17,950	9,383	1398,124	743,369
-16,936	9,318	1397,488	742,699
-15,921	9,261	1396,683	741,978
-14,906	9,359	1395,422	741,731
-13,892	9,389	1394,334	741,264
-12,877	9,375	1393,667	740,814
-11,863	9,344	1392,839	740,203
-10,848	9,351	1391,802	739,651
-9,833	9,286	1390,985	738,887
-8,819	9,239	1390,107	738,175
-7,804	9,238	1389,120	737,618
-6,790	9,240	1388,119	737,065
-5,775	9,241	1387,181	736,543
-4,760	9,198	1386,250	735,822
-3,746	9,250	1385,316	735,536
-2,731	9,256	1384,269	734,976
-1,717	9,248	1383,435	734,468
-0,702	9,234	1381,752	733,485
0,313	13,350	1293,936	705,600
1,327	29,625	685,437	410,439
2,342	46,029	118,211	77,037
3,356	0,904	16,547	8,334
4,371	8,297	3,600	1,902
5,386	17,058	1,182	0,659
6,400	800,000	0,311	0,634
7,415	189,186	-0,078	-0,082
8,429	-17,490	-0,338	-0,149
9,444	128,945	-0,202	-0,182
10,459	73,251	-0,216	-0,159
11,473	101,162	-0,343	-0,281
12,488	-94,627	-0,190	-0,036
13,502	-78,213	-0,385	-0,092
14,517	-17,590	-0,281	-0,124
15,531	80,781	-0,310	-0,236
16,546	202,087	-0,309	-0,336
17,561	93,961	-0,295	-0,236
18,575	-18,146	-0,258	-0,113
19,590	121,591	-0,285	-0,251
20,604	-13,608	-0,272	-0,124
21,619	108,383	-0,365	-0,307
22,634	173,152	-0,425	-0,431
23,648	143,501	-0,422	-0,396
24,663	42,075	-0,406	-0,259
25,677	369,336	-0,186	-0,266
26,692	124,598	-0,320	-0,283
27,707	31,638	-0,390	-0,236
28,721	159,342	-0,303	-0,297
29,736	-14,374	-0,406	-0,183
30,750	116,789	-0,433	-0,374
31,765	98,241	-0,390	-0,316
32,780	320,736	-0,244	-0,327
33,794	-57,924	-0,392	-0,120
34,809	-114,609	-0,322	-0,043
35,823	73,150	-0,342	-0,251
36,838	13,410	-0,373	-0,203
37,853	86,751	-0,315	-0,244
38,867	34,848	-0,472	-0,290
39,882	360,753	-0,254	-0,359
40,896	93,216	-0,440	-0,350
41,911	332,878	-0,214	-0,291
42,926	28,188	-0,290	-0,171
43,940	355,846	-0,296	-0,415
44,955	6,823	-0,469	-0,245
45,969	368,831	-0,205	-0,292
46,984	126,342	-0,241	-0,214
47,999	81,968	-0,253	-0,192
49,013	401,136	-0,244	-0,361
50,028	153,104	-0,340	-0,327
51,042	77,925	-0,303	-0,227
52,057	157,044	-0,289	-0,281
53,071	18,533	-0,435	-0,244
54,086	-87,742	-0,304	-0,064
55,101	-31,944	-0,405	-0,158
56,115	118,917	-0,269	-0,233
57,130	536,032	-0,264	-0,442
58,144	120,549	-0,327	-0,285
59,159	82,032	-0,312	-0,237
60,174	8,709	-0,413	-0,218
61,188	-63,583	-0,406	-0,116
62,203	55,747	-0,333	-0,226
63,217	60,029	-0,341	-0,236
64,232	78,408	-0,230	-0,172
65,247	135,121	-0,347	-0,316
66,261	186,760	-0,253	-0,265
67,276	9,029	-0,420	-0,222
68,290	69,466	-0,382	-0,275
69,305	-20,478	-0,292	-0,125
70,320	-72,982	-0,427	-0,109
71,334	26,379	-0,355	-0,208
72,349	62,280	-0,292	-0,204
73,363	251,138	-0,262	-0,313
74,378	70,524	-0,296	-0,214
75,393	116,871	-0,148	-0,128
76,407	-72,545	-0,196	-0,050
77,422	-23,152	-0,276	-0,116
78,436	208,144	-0,231	-0,253
79,451	23,550	-0,360	-0,207
80,466	-20,766	-0,368	-0,157
81,480	166,567	-0,253	-0,251
82,495	108,490	-0,281	-0,235
83,509	208,619	-0,237	-0,260
84,524	-22,144	-0,311	-0,132
85,539	62,141	-0,231	-0,161
86,553	159,900	-0,291	-0,284
87,568	-19,558	-0,291	-0,126
88,582	111,049	-0,311	-0,262
89,597	420,602	-0,257	-0,387
90,611	215,550	-0,297	-0,330
91,626	-100,124	-0,392	-0,068
92,641	62,400	-0,191	-0,134
93,655	126,042	-0,340	-0,301
94,670	95,850	-0,290	-0,232
95,684	280,579	-0,319	-0,400
96,699	47,504	-0,275	-0,179
97,714	227,098	-0,244	-0,277
98,728	285,115	-0,184	-0,233
99,743	139,389	-0,268	-0,247
100,757	141,080	-0,140	-0,130
101,772	137,353	-0,293	-0,268
102,787	171,964	-0,347	-0,349
103,801	141,463	-0,378	-0,350
104,816	18,164	-0,208	-0,115
105,830	230,829	-0,141	-0,161
106,845	-0,304	-0,290	-0,144
107,860	51,489	-0,238	-0,158
108,874	92,528	-0,194	-0,153
109,889	225,147	-0,265	-0,301
110,903	20,771	-0,322	-0,182
111,918	-48,207	-0,358	-0,120
112,933	170,668	-0,214	-0,214
113,947	86,538	-0,224	-0,173
114,962	217,215	-0,182	-0,203
115,976	297,015	-0,245	-0,314
116,991	-77,615	-0,361	-0,087
118,006	133,058	-0,255	-0,230
119,020	58,708	-0,224	-0,153
120,035	247,309	-0,105	-0,124
121,049	-19,978	-0,333	-0,143
122,064	104,561	-0,281	-0,231
123,079	11,468	-0,259	-0,138
124,093	1,810	-0,218	-0,109
125,108	79,928	-0,211	-0,158
126,122	-60,310	-0,361	-0,107
127,137	-164,761	-0,241	-0,007
128,151	71,747	-0,202	-0,146
129,166	151,030	-0,226	-0,214
130,181	168,206	-0,245	-0,244
131,195	52,717	-0,307	-0,204
132,210	194,898	-0,264	-0,280
133,224	153,221	-0,191	-0,182
134,239	131,452	-0,208	-0,187
135,254	53,775	-0,256	-0,171
136,268	118,499	-0,170	-0,146
137,283	-81,935	-0,325	-0,073
138,297	-89,039	-0,179	-0,037
139,312	108,995	-0,305	-0,254
140,327	-29,817	-0,243	-0,096
141,341	-7,655	-0,332	-0,156
142,356	-11,255	-0,364	-0,166
143,370	-5,600	-0,340	-0,162
144,385	-40,212	-0,136	-0,049
145,400	187,035	-0,244	-0,253
146,414	466,862	-0,163	-0,255
147,429	40,628	-0,408	-0,256
148,443	156,974	-0,224	-0,215
149,458	351,156	-0,150	-0,208
150,473	4,220	-0,304	-0,155
151,487	117,613	-0,173	-0,148
152,502	-28,264	-0,324	-0,130
153,516	33,369	-0,281	-0,169
154,531	117,311	-0,255	-0,218
155,546	45,768	-0,301	-0,193
156,560	469,637	-0,128	-0,200
157,575	144,421	-0,211	-0,196
158,589	362,041	-0,190	-0,266
159,604	179,040	-0,225	-0,229
160,619	-88,211	-0,270	-0,056
161,633	110,262	-0,329	-0,275
162,648	120,033	-0,195	-0,168
163,662	154,594	-0,193	-0,184
164,677	-159,285	-0,302	-0,012
165,692	188,684	-0,220	-0,229
166,706	-6,499	-0,309	-0,146
167,721	34,612	-0,167	-0,101
168,735	309,326	-0,224	-0,291
169,750	7,558	-0,296	-0,153
170,764	26,746	-0,090	-0,052
171,779	305,911	-0,186	-0,241
172,794	-6,851	-0,145	-0,068
173,808	119,406	-0,216	-0,186
174,823	115,184	-0,158	-0,134
175,837	15,491	-0,247	-0,135
176,852	71,137	-0,302	-0,217
177,867	5,954	-0,171	-0,088
178,881	46,444	-0,250	-0,160
179,896	-37,746	-0,273	-0,100
180,910	-18,155	-0,286	-0,124
181,925	49,525	-0,246	-0,160
182,940	567,666	-0,133	-0,225
183,954	-37,019	-0,224	-0,083
184,969	10,940	-0,221	-0,117
185,983	32,777	-0,224	-0,134
186,998	-3,055	-0,256	-0,123
188,013	45,314	-0,197	-0,126
189,027	-200,000	-0,069	-0,243
190,042	290,576	-0,259	-0,328
191,056	-15,083	-0,273	-0,121
192,071	24,260	-0,230	-0,131
193,086	800,000	-0,117	-0,248
194,100	-19,430	-0,265	-0,114
195,115	46,258	-0,181	-0,116
196,129	268,714	-0,170	-0,207
197,144	800,000	-0,079	-0,163
198,159	-28,984	-0,147	-0,058
199,173	137,773	-0,231	-0,210
200,188	-17,210	-0,153	-0,067
201,202	-187,426	-0,071	-0,001
202,217	93,051	-0,200	-0,156
203,232	62,805	-0,133	-0,092
204,246	-65,012	-0,126	-0,035
205,261	12,318	-0,290	-0,154
206,275	-22,495	-0,149	-0,062
207,290	449,076	-0,146	-0,224
208,304	800,000	-0,084	-0,166
209,319	157,040	-0,257	-0,247
210,334	161,394	-0,137	-0,133
211,348	-27,486	-0,201	-0,081
212,363	-184,759	-0,056	-0,001
213,377	6,250	-0,309	-0,158
214,392	-125,511	-0,247	0,026
215,407	183,403	-0,103	-0,106
216,421	-110,096	-0,157	-0,022
217,436	238,595	-0,201	-0,232
218,450	-200,000	-0,096	-0,312
219,465	253,945	-0,247	-0,292
220,480	76,210	-0,147	-0,108
221,494	223,206	-0,165	-0,184
222,509	106,994	-0,180	-0,147
223,523	165,819	-0,229	-0,224
224,538	108,780	-0,129	-0,107
225,553	800,000	-0,133	-0,353
226,567	364,709	-0,130	-0,182
227,582	58,180	-0,174	-0,118
228,596	50,559	-0,113	-0,074
229,611	73,959	-0,207	-0,150
230,626	558,862	-0,100	-0,167
231,640	115,592	-0,128	-0,109
232,655	522,121	-0,153	-0,249
233,669	310,070	-0,269	-0,349
234,684	190,984	-0,125	-0,130
235,699	16,990	-0,274	-0,149
236,713	105,787	-0,092	-0,076
237,728	-12,093	-0,221	-0,100
238,742	-54,405	-0,154	-0,048
239,757	-1,218	-0,294	-0,143
240,772	64,655	-0,269	-0,187
241,786	120,748	-0,233	-0,200
242,801	174,584	-0,190	-0,190
243,815	161,731	-0,204	-0,197
244,830	132,810	-0,180	-0,160
245,844	215,165	-0,110	-0,120
246,859	229,906	-0,114	-0,129
247,874	-200,000	-0,069	-0,345
248,888	41,918	-0,142	-0,089
249,903	583,090	-0,088	-0,150
250,917	800,000	-0,035	-0,098
251,932	-119,765	-0,251	-0,029
252,947	21,036	-0,119	-0,067
253,961	115,837	-0,197	-0,166
254,976	118,953	-0,205	-0,175
255,990	800,000	-0,045	-0,118
257,005	-170,417	-0,163	-0,004
258,020	296,962	-0,110	-0,139
259,034	143,506	-0,124	-0,114
260,049	220,256	-0,186	-0,206
261,063	436,062	-0,125	-0,188
262,078	756,860	-0,134	-0,251
263,093	48,686	-0,265	-0,171
264,107	38,861	-0,296	-0,182
265,122	-128,368	-0,140	0,014
266,136	800,000	-0,098	-0,192
267,151	120,483	-0,168	-0,144
268,166	535,231	-0,171	-0,281
269,180	800,000	-0,135	-0,301
270,195	-80,934	-0,210	-0,048
271,209	-95,237	-0,179	-0,033
272,224	128,174	-0,180	-0,158
273,239	136,348	-0,198	-0,178
274,253	-101,241	-0,123	0,021
275,268	800,000	-0,080	-0,227
276,282	3,476	-0,247	-0,123
277,297	114,228	-0,264	-0,221
278,312	-30,916	-0,267	-0,103
279,326	66,670	-0,187	-0,131
280,341	-41,502	-0,202	-0,071
281,355	132,765	-0,219	-0,194
282,370	162,066	-0,179	-0,172
283,384	0,301	-0,173	-0,085
284,399	141,855	-0,255	-0,232
285,414	-5,464	-0,212	-0,100
286,428	-30,425	-0,235	-0,091
287,443	800,000	-0,076	-0,199
288,457	-24,287	-0,187	-0,076
289,472	302,838	-0,115	-0,147
290,487	116,860	-0,204	-0,173
291,501	800,000	-0,138	-0,380
292,516	211,380	-0,155	-0,167
293,530	-75,860	-0,162	-0,039
294,545	-127,476	-0,131	-0,013
295,560	297,541	-0,186	-0,236
296,574	136,803	-0,211	-0,189
297,589	283,014	-0,186	-0,230
298,603	233,817	-0,164	-0,186
299,618	-19,900	-0,185	-0,078
300,633	230,140	-0,075	-0,084
301,647	-178,134	-0,146	0,002
302,662	-0,054	-0,187	-0,091
303,676	285,728	-0,075	-0,092
304,691	148,743	-0,137	-0,127
305,706	800,000	-0,080	-0,186
306,720	-200,000	-0,087	-0,272
307,735	191,829	-0,159	-0,165
308,749	125,107	-0,180	-0,156
309,764	318,267	-0,214	-0,279
310,779	-35,221	-0,154	-0,057
311,793	-200,000	-0,014	-0,197
312,808	800,000	-0,094	-0,230
313,822	494,785	-0,077	-0,122
314,837	141,181	-0,215	-0,195
315,852	-200,000	0,037	-0,119
316,866	-26,781	-0,140	-0,056
317,881	-35,549	-0,152	-0,056
318,895	15,179	-0,150	-0,080
319,910	-149,450	-0,261	-0,014
320,925	41,309	-0,150	-0,093
321,939	800,000	-0,069	-0,165
322,954	800,000	-0,049	-0,107
323,968	222,903	-0,070	-0,077
324,983	310,081	-0,093	-0,120
325,997	-200,000	-0,039	-0,173
327,012	-20,404	-0,158	-0,066
328,027	-14,262	-0,218	-0,096
329,041	800,000	-0,085	-0,207
330,056	-141,430	-0,099	-0,007
331,070	26,936	-0,133	-0,076
332,085	-178,670	-0,200	0,003
333,100	217,148	-0,052	-0,056
334,114	6,273	-0,242	-0,123
335,129	183,798	-0,143	-0,145
336,143	-17,825	-0,222	-0,095
337,158	232,973	-0,150	-0,169
338,173	-32,877	-0,117	-0,044
339,187	73,856	-0,193	-0,138
340,202	265,128	-0,118	-0,142
341,216	800,000	-0,144	-0,304
342,231	-74,623	-0,174	0,043
343,246	474,829	-0,094	-0,146
344,260	-24,061	-0,102	0,042
345,275	74,473	-0,086	-0,062
346,289	-46,497	-0,132	-0,044
347,304	800,000	-0,075	-0,145
348,319	234,098	-0,116	-0,131
349,333	-200,000	-0,019	-0,179
350,348	800,000	-0,023	-0,050
351,362	424,775	-0,114	-0,168
352,377	-46,388	0,052	0,017
353,392	150,761	-0,017	-0,016
354,406	-200,000	-0,021	-0,161
355,421	208,445	1306,236	1398,442
356,435	160,399	1465,877	1398,926
