DTS Sentinel unit serial number:	SN410029Multiplexer serial number:	ORYXHardware model number:	OX2-SRSoftware version number:	ORYX F/W v4,00 Oryx Data Collector v3.7.2.0data status	okinstallation	B3 Nyhavnadifferential loss correction	single-endedforward channel	channel 1reverse channel	N/Adate	2023/12/04time	11:17:30forward acquisition time	300,00reverse acquisition time	0,00gamma	499,1914k internal	0,3202k external	0,3202temperature offset calibration	1,0000default loss term (dB/km)	0,3820temperature slope calibration	1,0000multiplexer offset coefficient	1,0000multiplexer slope coefficient	1,0000fibre end	0,00T internal ref (°C)	13,93T ext. ref 1 (°C)	-0,36T ext. ref 2 (°C)	-0,37length (m)	temperature (°C)	Stokes	anti-Stokes-744,400	66,633	-0,152	-0,112
-743,385	800,000	-0,106	0,329
-742,371	-59,374	-0,198	-0,061
-741,356	-200,000	-0,013	0,332
-740,342	109,553	-0,172	-0,149
-739,327	-200,000	0,011	0,253
-738,312	-200,000	-0,113	-0,380
-737,298	-200,000	0,050	0,164
-736,283	491,058	-0,169	-0,283
-735,269	196,637	-0,090	0,100
-734,254	44,201	-0,244	-0,162
-733,239	800,000	-0,079	0,195
-732,225	15,675	-0,166	-0,095
-731,210	800,000	0,078	0,186
-730,196	-66,924	0,075	-0,021
-729,181	-200,000	0,036	0,148
-728,167	49,652	-0,060	0,041
-727,152	16,263	0,036	-0,021
-726,137	800,000	-0,052	-0,129
-725,123	377,664	0,074	-0,110
-724,108	-128,316	-0,072	0,007
-723,094	-200,000	-0,002	-0,123
-722,079	-200,000	0,004	-0,182
-721,064	138,438	-0,057	-0,054
-720,050	-200,000	0,009	0,128
-719,035	7,243	-0,150	-0,081
-718,021	800,000	0,012	0,037
-717,006	-200,000	-0,024	-0,149
-715,991	-200,000	-0,033	-0,202
-714,977	-200,000	-0,013	-0,063
-713,962	97,093	0,053	-0,044
-712,948	800,000	-0,035	-0,110
-711,933	-71,492	-0,171	0,046
-710,918	87,849	0,051	-0,041
-709,904	-200,000	-0,019	-0,087
-708,889	343,011	0,027	0,039
-707,875	141,075	0,051	-0,049
-706,860	96,631	-0,131	-0,109
-705,845	-200,000	-0,005	-0,045
-704,831	525,272	0,029	0,050
-703,816	-200,000	-0,013	0,052
-702,802	800,000	0,034	0,080
-701,787	32,032	-0,068	-0,042
-700,772	236,965	-0,047	0,057
-699,758	800,000	-0,008	-0,021
-698,743	581,341	0,026	-0,046
-697,729	17,223	0,068	0,039
-696,714	-13,352	0,080	0,037
-695,699	625,149	-0,067	0,123
-694,685	536,062	-0,060	-0,104
-693,670	209,609	-0,071	0,080
-692,656	800,000	0,026	0,065
-691,641	-14,742	0,142	0,066
-690,627	800,000	-0,057	0,154
-689,612	135,438	0,081	-0,076
-688,597	230,263	-0,089	-0,105
-687,583	397,494	-0,018	-0,028
-686,568	296,136	0,029	0,039
-685,554	221,330	0,056	0,065
-684,539	292,375	-0,047	-0,063
-683,524	800,000	0,063	0,185
-682,510	-200,000	-0,009	0,090
-681,495	-172,822	-0,146	-0,003
-680,481	-200,000	0,021	-0,172
-679,466	544,991	0,025	-0,043
-678,451	-170,151	0,098	0,002
-677,437	-200,000	0,016	0,126
-676,422	800,000	-0,013	-0,026
-675,408	-200,000	0,016	-0,059
-674,393	-6,552	-0,071	-0,035
-673,378	-200,000	-0,011	0,084
-672,364	15,182	-0,038	-0,021
-671,349	422,076	0,076	-0,118
-670,335	-22,394	0,107	0,047
-669,320	506,926	-0,034	0,058
-668,305	104,624	0,027	-0,023
-667,291	552,123	-0,034	-0,059
-666,276	800,000	-0,038	-0,105
-665,262	-34,010	-0,113	-0,045
-664,247	800,000	0,020	0,054
-663,232	-50,497	-0,071	0,024
-662,218	457,796	-0,031	-0,050
-661,203	-42,229	-0,047	-0,017
-660,189	259,911	0,068	-0,086
-659,174	-36,486	-0,028	0,011
-658,159	99,786	0,058	-0,049
-657,145	-60,191	-0,059	-0,018
-656,130	-200,000	-0,038	-0,151
-655,116	-200,000	0,010	0,063
-654,101	-200,000	-0,004	-0,050
-653,086	546,859	0,013	-0,022
-652,072	57,509	0,112	-0,079
-651,057	-102,990	-0,032	0,005
-650,043	-200,000	0,002	-0,011
-649,028	754,340	0,061	0,120
-648,014	-64,710	0,147	0,043
-646,999	236,753	0,124	0,149
-645,984	-92,121	-0,159	0,032
-644,970	85,397	0,026	-0,020
-643,955	-200,000	0,033	0,158
-642,941	-200,000	-0,031	-0,167
-641,926	-200,000	0,022	-0,112
-640,911	-200,000	0,002	-0,062
-639,897	-85,392	-0,131	-0,029
-638,882	-111,270	-0,015	-0,002
-637,868	-14,194	0,034	-0,016
-636,853	800,000	-0,024	-0,051
-635,838	461,188	0,042	-0,068
-634,824	800,000	0,015	-0,029
-633,809	-200,000	-0,035	-0,112
-632,795	-200,000	-0,019	0,070
-631,780	-155,355	-0,120	-0,006
-630,765	73,899	-0,023	-0,017
-629,751	236,477	-0,080	-0,096
-628,736	800,000	0,024	-0,066
-627,722	-171,528	-0,093	-0,002
-626,707	519,783	0,010	0,018
-625,692	252,475	0,019	0,024
-624,678	34,166	-0,070	0,044
-623,663	104,900	0,076	-0,065
-622,649	37,096	-0,080	0,051
-621,634	-90,344	-0,056	0,012
-620,619	-154,535	-0,039	0,002
-619,605	-200,000	-0,002	0,049
-618,590	-200,000	0,027	0,126
-617,576	-42,701	-0,107	0,039
-616,561	-200,000	-0,011	0,095
-615,546	800,000	-0,007	-0,019
-614,532	577,461	0,075	-0,134
-613,517	-36,561	0,094	0,036
-612,503	113,202	0,091	0,080
-611,488	245,849	0,046	-0,056
-610,474	-200,000	-0,020	0,107
-609,459	-97,713	-0,200	-0,037
-608,444	91,851	0,017	-0,014
-607,430	521,326	0,009	-0,016
-606,415	-52,677	0,159	-0,053
-605,401	-3,473	0,088	0,044
-604,386	-151,055	0,099	0,005
-603,371	14,713	-0,090	-0,051
-602,357	-71,385	0,013	-0,003
-601,342	-200,000	0,005	-0,086
-600,328	-131,143	-0,101	0,010
-599,313	-164,691	0,024	-0,001
-598,298	-200,000	0,054	-0,179
-597,284	41,134	-0,024	-0,016
-596,269	-127,167	0,170	0,018
-595,255	539,869	-0,074	-0,129
-594,240	98,096	-0,082	-0,068
-593,225	-38,129	0,124	0,047
-592,211	-200,000	0,010	-0,046
-591,196	800,000	-0,069	0,141
-590,182	355,032	0,082	0,118
-589,167	-200,000	-0,010	0,154
-588,152	570,855	0,035	0,062
-587,138	-76,311	0,093	0,023
-586,123	-83,955	0,108	-0,025
-585,109	547,149	-0,019	0,033
-584,094	800,000	-0,037	-0,075
-583,079	-98,010	0,038	0,007
-582,065	-0,306	-0,158	-0,081
-581,050	221,987	-0,046	0,054
-580,036	-24,679	-0,149	-0,064
-579,021	-9,525	-0,047	0,022
-578,006	800,000	-0,049	-0,121
-576,992	-37,359	0,113	0,043
-575,977	9,958	0,090	-0,049
-574,963	-113,825	-0,116	-0,016
-573,948	37,053	-0,161	0,103
-572,934	-200,000	-0,017	-0,057
-571,919	18,388	-0,089	0,051
-570,904	-200,000	-0,012	-0,052
-569,890	-156,043	-0,067	-0,003
-568,875	-27,282	0,073	-0,030
-567,861	-166,468	0,069	-0,002
-566,846	-152,236	-0,105	0,005
-565,831	205,661	-0,092	-0,104
-564,817	-58,926	-0,022	0,007
-563,802	10,358	-0,182	-0,100
-562,788	-121,952	-0,137	0,016
-561,773	63,161	0,120	-0,086
-560,758	800,000	-0,015	-0,030
-559,744	800,000	0,040	0,083
-558,729	-50,063	0,163	-0,055
-557,715	-200,000	-0,024	-0,110
-556,700	-80,006	-0,059	-0,014
-555,685	800,000	0,048	-0,128
-554,671	-200,000	-0,026	-0,136
-553,656	140,372	-0,060	-0,057
-552,642	-51,677	0,100	0,033
-551,627	-7,489	0,107	0,052
-550,612	-200,000	-0,009	0,102
-549,598	4,720	-0,127	-0,067
-548,583	-79,785	0,157	-0,038
-547,569	-30,009	-0,123	0,050
-546,554	140,508	0,046	-0,044
-545,539	-200,000	0,007	0,026
-544,525	-84,733	0,150	0,034
-543,510	75,760	0,062	-0,047
-542,496	-60,269	0,023	0,007
-541,481	-200,000	-0,047	-0,175
-540,466	106,411	-0,039	-0,033
-539,452	102,050	-0,056	0,047
-538,437	-200,000	-0,001	0,025
-537,423	-200,000	0,005	0,064
-536,408	-200,000	0,012	0,049
-535,393	26,028	-0,111	-0,067
-534,379	-57,031	-0,072	0,023
-533,364	53,560	0,080	-0,055
-532,350	-200,000	-0,014	0,074
-531,335	39,474	-0,064	0,042
-530,321	-200,000	0,002	0,109
-529,306	-48,097	-0,071	-0,025
-528,291	239,703	-0,030	0,036
-527,277	336,279	-0,073	-0,102
-526,262	753,718	0,047	0,093
-525,248	142,998	-0,024	0,023
-524,233	-200,000	-0,006	-0,145
-523,218	3,939	-0,109	-0,057
-522,204	422,003	0,021	0,032
-521,189	-135,540	-0,116	-0,010
-520,175	308,084	0,058	-0,078
-519,160	-53,617	0,104	-0,034
-518,145	262,999	0,033	0,042
-517,131	-76,549	0,178	0,045
-516,116	205,589	0,049	0,054
-515,102	800,000	0,029	-0,078
-514,087	-74,497	-0,029	0,008
-513,072	-200,000	0,006	0,080
-512,058	800,000	-0,009	0,023
-511,043	-30,344	0,110	0,045
-510,029	107,119	0,071	0,061
-509,014	444,608	0,030	-0,047
-507,999	-77,590	-0,053	0,013
-506,985	205,996	-0,087	-0,098
-505,970	39,390	-0,033	-0,021
-504,956	389,906	0,011	-0,017
-503,941	-200,000	0,016	0,057
-502,926	-200,000	-0,014	-0,074
-501,912	-43,733	0,080	0,029
-500,897	800,000	-0,021	0,057
-499,883	-72,216	-0,160	0,042
-498,868	617,722	0,062	0,113
-497,853	800,000	0,031	0,085
-496,839	-200,000	0,001	-0,035
-495,824	-200,000	-0,014	0,107
-494,810	-72,744	0,086	0,023
-493,795	-200,000	-0,027	0,138
-492,781	-107,680	-0,200	0,031
-491,766	-200,000	-0,007	-0,030
-490,751	-84,695	-0,047	0,011
-489,737	63,936	0,158	0,114
-488,722	41,449	0,101	0,066
-487,708	-26,417	-0,106	0,045
-486,693	436,286	-0,057	0,090
-485,678	123,110	-0,086	0,077
-484,664	71,158	-0,076	-0,057
-483,649	304,655	-0,045	0,061
-482,635	372,648	-0,032	0,046
-481,620	-200,000	0,025	0,224
-480,605	378,590	0,015	0,021
-479,591	800,000	0,025	-0,066
-478,576	-133,990	-0,118	-0,010
-477,562	-61,759	-0,088	-0,026
-476,547	692,294	-0,039	-0,074
-475,532	393,266	-0,067	-0,100
-474,518	-200,000	0,018	-0,099
-473,503	-89,296	0,099	-0,021
-472,489	411,153	-0,031	-0,048
-471,474	-200,000	-0,016	-0,252
-470,459	800,000	-0,036	-0,076
-469,445	-200,000	0,016	0,060
-468,430	-51,445	0,046	-0,015
-467,416	-200,000	0,010	0,113
-466,401	192,758	-0,105	0,114
-465,386	265,682	0,010	-0,012
-464,372	-32,044	-0,059	-0,024
-463,357	328,570	0,034	-0,047
-462,343	-81,087	-0,099	-0,023
-461,328	204,862	-0,070	-0,078
-460,313	190,558	0,045	-0,049
-459,299	-200,000	-0,009	0,117
-458,284	-138,668	0,220	-0,017
-457,270	-200,000	0,017	0,148
-456,255	67,783	-0,048	0,035
-455,241	-42,111	-0,026	0,010
-454,226	-21,504	-0,133	-0,058
-453,211	-200,000	-0,021	0,071
-452,197	88,768	0,076	0,061
-451,182	-55,660	-0,074	-0,024
-450,168	-95,664	-0,030	0,006
-449,153	13,490	0,066	0,037
-448,138	201,881	-0,052	0,058
-447,124	166,862	0,053	-0,054
-446,109	-11,122	0,091	-0,043
-445,095	238,380	-0,056	-0,067
-444,080	-35,512	-0,097	-0,038
-443,065	275,298	0,035	0,045
-442,051	10,578	0,095	0,052
-441,036	208,943	-0,086	-0,097
-440,022	477,058	0,057	-0,093
-439,007	-200,000	-0,002	-0,076
-437,992	-37,135	0,057	0,022
-436,978	-67,970	0,029	0,008
-435,963	126,544	0,038	0,034
-434,949	57,693	-0,015	-0,010
-433,934	6,481	-0,091	-0,048
-432,919	590,068	-0,121	-0,215
-431,905	69,638	0,070	0,052
-430,890	-110,543	-0,049	0,007
-429,876	117,561	-0,094	0,083
-428,861	-4,742	0,116	0,057
-427,846	800,000	-0,062	-0,134
-426,832	21,191	-0,140	0,082
-425,817	340,686	0,043	-0,060
-424,803	-200,000	-0,031	-0,147
-423,788	37,673	-0,094	-0,060
-422,773	251,232	0,030	-0,037
-421,759	113,369	0,141	0,123
-420,744	-14,551	0,021	0,010
-419,730	-155,094	-0,056	-0,003
-418,715	247,332	-0,087	-0,105
-417,701	361,497	0,046	-0,067
-416,686	-200,000	-0,028	-0,099
-415,671	265,544	-0,037	0,047
-414,657	12,251	0,134	-0,074
-413,642	516,161	-0,097	0,163
-412,628	-137,403	-0,057	-0,005
-411,613	144,741	-0,206	-0,198
-410,598	-100,804	0,055	0,010
-409,584	170,750	0,061	0,062
-408,569	127,843	-0,090	0,082
-407,555	-143,318	0,067	0,005
-406,540	-200,000	0,012	-0,040
-405,525	396,987	-0,048	0,072
-404,511	127,896	-0,047	0,043
-403,496	-131,146	-0,018	-0,002
-402,482	-51,686	-0,182	0,061
-401,467	-200,000	-0,030	0,169
-400,452	22,079	0,097	0,057
-399,438	376,760	-0,078	-0,115
-398,423	35,448	0,047	0,029
-397,409	-111,124	-0,013	0,002
-396,394	-5,185	-0,186	-0,092
-395,379	157,864	0,093	-0,093
-394,365	-158,925	0,090	-0,004
-393,350	-34,130	0,077	-0,030
-392,336	-94,270	0,111	-0,022
-391,321	-128,661	-0,147	-0,015
-390,306	368,395	0,091	-0,132
-389,292	800,000	-0,021	-0,043
-388,277	-91,930	0,148	-0,030
-387,263	10,372	0,094	0,051
-386,248	800,000	-0,009	0,027
-385,233	-27,434	0,028	0,012
-384,219	-200,000	0,010	0,096
-383,204	-5,537	0,037	-0,018
-382,190	393,100	-0,038	-0,057
-381,175	84,297	0,055	0,043
-380,160	-60,091	0,164	-0,050
-379,146	39,912	0,095	0,061
-378,131	97,178	0,121	0,099
-377,117	-200,000	0,004	0,168
-376,102	254,786	0,023	0,029
-375,088	-200,000	0,030	-0,132
-374,073	720,809	-0,064	0,123
-373,058	-200,000	0,005	0,033
-372,044	800,000	-0,033	-0,101
-371,029	-121,038	0,084	0,010
-370,015	16,842	0,068	0,038
-369,000	-170,759	-0,071	-0,002
-367,985	387,720	-0,049	0,073
-366,971	-157,034	0,038	-0,002
-365,956	-200,000	-0,005	-0,043
-364,942	-200,000	0,010	0,043
-363,927	234,084	0,025	0,029
-362,912	-63,093	0,062	-0,018
-361,898	-159,458	-0,074	0,003
-360,883	800,000	0,051	-0,132
-359,869	297,527	-0,056	-0,074
-358,854	-25,190	0,081	-0,034
-357,839	-18,235	0,044	0,020
-356,825	255,065	0,090	0,110
-355,810	400,435	0,063	0,095
-354,796	800,000	-0,032	0,082
-353,781	-200,000	-0,010	0,082
-352,766	293,193	0,024	0,031
-351,752	-200,000	0,017	0,148
-350,737	-200,000	-0,006	0,080
-349,723	351,369	-0,048	-0,068
-348,708	185,644	-0,035	-0,037
-347,693	707,345	-0,044	-0,084
-346,679	800,000	-0,016	0,047
-345,664	-30,855	-0,037	-0,015
-344,650	-200,000	0,013	0,072
-343,635	800,000	0,035	0,070
-342,620	-13,533	-0,050	0,023
-341,606	800,000	-0,028	-0,058
-340,591	794,602	-0,034	-0,068
-339,577	-0,630	-0,071	0,036
-338,562	25,517	0,052	-0,031
-337,548	491,851	-0,017	0,028
-336,533	-200,000	0,009	0,066
-335,518	287,184	-0,084	-0,109
-334,504	-10,905	0,214	0,101
-333,489	-200,000	0,006	-0,050
-332,475	212,344	-0,066	-0,074
-331,460	800,000	0,037	-0,077
-330,445	-79,496	-0,144	0,034
-329,431	-2,779	0,028	-0,014
-328,416	-9,771	0,093	0,044
-327,402	-77,627	-0,055	0,014
-326,387	-116,195	-0,074	-0,010
-325,372	542,872	-0,034	0,058
-324,358	190,861	-0,108	-0,116
-323,343	28,193	-0,141	-0,085
-322,329	-130,052	0,080	0,008
-321,314	240,496	0,106	0,127
-320,299	-149,840	0,075	0,004
-319,285	-163,111	0,124	0,004
-318,270	-200,000	-0,024	-0,096
-317,256	-126,495	0,063	-0,007
-316,241	800,000	-0,032	-0,073
-315,226	645,358	-0,025	0,046
-314,212	-15,314	0,115	-0,052
-313,197	41,952	0,080	0,052
-312,183	800,000	-0,040	0,092
-311,168	144,551	0,046	-0,044
-310,153	0,407	-0,024	0,012
-309,139	-200,000	0,002	-0,030
-308,124	183,085	0,014	0,015
-307,110	-123,001	0,116	-0,013
-306,095	75,196	0,105	0,079
-305,080	119,938	-0,100	0,088
-304,066	-186,026	0,106	0,001
-303,051	-200,000	-0,001	0,028
-302,037	-42,943	-0,014	0,005
-301,022	-63,964	-0,088	0,025
-300,008	800,000	0,019	0,043
-298,993	-200,000	0,002	-0,103
-297,978	80,857	0,021	0,017
-296,964	-32,820	0,069	-0,027
-295,949	294,518	-0,131	-0,171
-294,935	668,090	0,086	-0,160
-293,920	-69,995	-0,060	-0,016
-292,905	21,323	0,082	-0,047
-291,891	-200,000	0,005	0,071
-290,876	61,347	0,131	0,093
-289,862	-20,456	-0,154	0,068
-288,847	118,247	-0,135	-0,119
-287,832	-200,000	-0,022	-0,083
-286,818	800,000	-0,036	-0,099
-285,803	-135,340	0,118	0,010
-284,789	-111,830	-0,117	-0,017
-283,774	16,275	0,070	-0,039
-282,759	-105,914	-0,166	-0,026
-281,745	-122,483	0,141	-0,016
-280,730	-200,000	-0,002	0,074
-279,716	43,988	0,089	0,058
-278,701	-119,738	0,093	-0,011
-277,686	-4,379	-0,034	0,017
-276,672	-200,000	-0,001	-0,040
-275,657	155,867	0,074	0,073
-274,643	646,185	0,096	-0,176
-273,628	800,000	-0,032	-0,068
-272,613	-200,000	-0,020	-0,084
-271,599	262,055	0,023	0,029
-270,584	-52,532	0,092	0,030
-269,570	-200,000	0,018	0,150
-268,555	558,310	0,016	0,027
-267,540	-132,995	0,130	-0,012
-266,526	-60,517	0,050	-0,015
-265,511	-200,000	-0,010	-0,039
-264,497	800,000	0,017	0,049
-263,482	-200,000	0,038	0,126
-262,467	-200,000	0,021	-0,083
-261,453	162,093	0,043	-0,043
-260,438	800,000	-0,053	-0,119
-259,424	3,087	0,011	0,006
-258,409	-79,415	-0,102	-0,024
-257,395	-200,000	0,001	-0,064
-256,380	800,000	0,035	0,099
-255,365	128,148	-0,116	0,105
-254,351	-19,947	-0,024	0,010
-253,336	495,174	0,034	-0,056
-252,322	-32,150	-0,111	-0,044
-251,307	59,302	-0,118	-0,083
-250,292	-200,000	0,018	0,131
-249,278	-200,000	0,021	0,071
-248,263	46,312	0,106	0,070
-247,249	-200,000	0,020	0,141
-246,234	-1,268	-0,052	0,026
-245,219	800,000	-0,004	-0,011
-244,205	316,418	0,093	-0,126
-243,190	238,693	-0,046	0,055
-242,176	-200,000	-0,006	0,096
-241,161	444,517	0,049	0,077
-240,146	9,125	0,103	0,055
-239,132	40,331	-0,041	0,026
-238,117	122,352	0,080	0,072
-237,103	-58,064	-0,103	0,032
-236,088	-36,601	0,053	-0,020
-235,073	-11,923	0,051	-0,024
-234,059	-200,000	-0,032	0,146
-233,044	33,090	0,029	0,018
-232,030	-200,000	-0,023	0,080
-231,015	159,870	-0,019	0,019
-230,000	218,041	0,042	-0,048
-228,986	800,000	-0,022	-0,066
-227,971	-111,359	0,119	-0,017
-226,957	800,000	0,024	0,055
-225,942	-200,000	-0,011	0,167
-224,927	395,220	0,024	0,035
-223,913	-65,836	-0,064	0,018
-222,898	800,000	-0,077	-0,179
-221,884	-200,000	0,015	-0,087
-220,869	-200,000	0,003	-0,011
-219,855	-76,593	-0,135	0,034
-218,840	-22,145	-0,042	-0,018
-217,825	130,201	-0,081	-0,073
-216,811	-107,548	0,211	-0,033
-215,796	334,097	-0,061	-0,085
-214,782	182,849	-0,066	0,069
-213,767	-6,337	0,057	-0,028
-212,752	-200,000	0,021	-0,087
-211,738	277,360	0,072	0,091
-210,723	-200,000	0,069	0,218
-209,709	383,324	0,032	-0,048
-208,694	96,570	-0,132	-0,107
-207,679	-55,375	-0,030	-0,010
-206,665	293,141	0,073	0,095
-205,650	-132,688	-0,084	-0,008
-204,636	171,576	0,053	0,054
-203,621	332,649	-0,050	0,068
-202,606	284,299	0,051	0,066
-201,592	-200,000	-0,041	-0,140
-200,577	800,000	0,064	-0,133
-199,563	-177,783	0,050	0,001
-198,548	-200,000	-0,001	0,153
-197,533	-16,199	-0,090	-0,041
-196,519	-200,000	0,007	-0,079
-195,504	388,998	-0,036	0,054
-194,490	-23,371	0,115	-0,049
-193,475	-31,126	0,083	-0,033
-192,460	160,038	0,136	0,135
-191,446	-38,648	0,056	-0,021
-190,431	11,307	-0,047	-0,026
-189,417	561,009	0,037	0,065
-188,402	-66,630	0,061	0,017
-187,387	32,989	-0,026	-0,016
-186,373	-23,337	-0,183	0,078
-185,358	419,183	0,006	0,009
-184,344	-200,000	-0,035	0,153
-183,329	-34,713	-0,056	-0,022
-182,315	161,921	-0,078	-0,078
-181,300	405,060	0,011	0,017
-180,285	-200,000	0,015	0,173
-179,271	42,524	-0,024	-0,015
-178,256	347,653	-0,047	0,067
-177,242	348,000	0,088	0,123
-176,227	-43,854	-0,025	-0,009
-175,212	252,325	-0,027	-0,033
-174,198	25,997	-0,099	0,059
-173,183	-88,548	0,090	-0,019
-172,169	387,993	0,049	-0,072
-171,154	442,697	-0,017	-0,027
-170,139	-200,000	0,001	0,002
-169,125	-200,000	-0,008	0,045
-168,110	800,000	0,018	0,049
-167,096	-93,632	0,052	-0,010
-166,081	306,215	0,033	0,044
-165,066	-200,000	-0,030	0,109
-164,052	230,841	-0,082	-0,096
-163,037	137,159	0,040	-0,037
-162,023	800,000	0,032	-0,070
-161,008	135,416	0,062	0,058
-159,993	207,195	-0,076	-0,085
-158,979	800,000	-0,071	-0,192
-157,964	168,115	0,019	-0,020
-156,950	669,152	0,067	-0,124
-155,935	-200,000	-0,024	-0,126
-154,920	-200,000	0,009	-0,058
-153,906	-118,291	0,030	-0,004
-152,891	800,000	0,024	-0,053
-151,877	-16,714	-0,047	0,021
-150,862	45,900	-0,077	-0,051
-149,847	-138,835	0,183	-0,014
-148,833	-200,000	0,024	-0,100
-147,818	101,777	-0,078	-0,065
-146,804	181,377	0,066	-0,069
-145,789	800,000	0,015	0,042
-144,775	-200,000	0,014	-0,153
-143,760	-200,000	-0,023	-0,126
-142,745	64,530	-0,045	0,032
-141,731	611,527	-0,031	-0,056
-140,716	-200,000	0,000	-0,027
-139,702	-101,817	0,060	0,010
-138,687	-200,000	0,011	0,055
-137,672	22,977	-0,065	0,038
-136,658	41,644	-0,029	0,019
-135,643	191,635	-0,099	0,106
-134,629	771,271	-0,032	0,062
-133,614	220,896	-0,027	-0,030
-132,599	-200,000	0,024	0,110
-131,585	-91,850	-0,096	-0,019
-130,570	-141,379	-0,041	0,003
-129,556	-18,140	-0,051	0,022
-128,541	16,501	0,092	0,052
-127,526	141,391	0,025	0,023
-126,512	316,490	-0,054	-0,073
-125,497	-16,846	0,109	0,049
-124,483	166,257	0,046	0,047
-123,468	-14,663	0,094	-0,043
-122,453	-200,000	0,022	0,124
-121,439	-53,570	-0,008	-0,003
-120,424	-200,000	-0,015	-0,086
-119,410	-200,000	0,006	-0,075
-118,395	16,461	-0,074	-0,041
-117,380	-200,000	-0,020	0,157
-116,366	800,000	0,059	-0,147
-115,351	119,044	0,067	-0,058
-114,337	777,349	-0,076	-0,148
-113,322	356,464	-0,051	0,073
-112,307	-200,000	-0,005	-0,115
-111,293	781,175	0,080	-0,155
-110,278	-78,981	0,013	0,003
-109,264	373,895	-0,018	0,026
-108,249	-79,869	0,177	0,042
-107,234	668,380	-0,039	0,072
-106,220	-200,000	-0,003	0,032
-105,205	117,783	-0,022	-0,019
-104,191	-200,000	-0,001	-0,033
-103,176	17,930	0,164	0,092
-102,162	-18,209	-0,031	0,014
-101,147	-200,000	-0,005	0,037
-100,132	-200,000	-0,016	-0,060
-99,118	130,714	-0,049	-0,045
-98,103	-84,219	-0,065	-0,014
-97,089	263,430	-0,067	0,083
-96,074	-200,000	0,022	0,076
-95,059	215,972	-0,076	0,086
-94,045	-200,000	0,017	-0,065
-93,030	96,541	-0,069	-0,056
-92,016	-73,731	-0,162	-0,041
-91,001	-129,048	0,195	-0,019
-89,986	145,043	-0,040	0,038
-88,972	-200,000	0,009	0,041
-87,957	147,054	0,050	0,048
-86,943	121,638	0,085	-0,075
-85,928	-200,000	0,045	-0,155
-84,913	441,519	0,044	-0,069
-83,899	-200,000	-0,008	0,034
-82,884	-94,549	0,070	0,013
-81,870	-5,746	-0,047	-0,023
-80,855	-111,196	-0,093	-0,013
-79,840	231,302	-0,079	-0,092
-78,826	800,000	-0,018	-0,037
-77,811	800,000	-0,009	0,020
-76,797	329,671	0,066	0,090
-75,782	211,369	0,033	-0,036
-74,767	-38,463	0,133	0,050
-73,753	397,658	0,012	0,018
-72,738	49,537	0,025	-0,017
-71,724	520,864	-0,050	-0,084
-70,709	-200,000	-0,014	-0,106
-69,694	-200,000	0,004	-0,149
-68,680	-93,859	0,070	0,014
-67,665	-200,000	0,010	0,073
-66,651	125,200	-0,008	-0,007
-65,636	800,000	-0,023	0,047
-64,622	-63,862	0,112	-0,032
-63,607	67,199	0,083	0,060
-62,592	37,619	0,091	-0,057
-61,578	-200,000	-0,017	-0,055
-60,563	-75,081	0,049	0,012
-59,549	156,203	0,124	0,122
-58,534	-32,613	-1,543	-0,605
-57,519	416,806	-1,303	-1,974
-56,505	-200,000	-0,576	-4,520
-55,490	269,589	0,934	1,163
-54,476	800,000	4,735	10,891
-53,461	-200,000	18,904	307,959
-52,446	800,000	737,736	2302,249
-51,432	569,783	1653,409	2856,907
-50,417	78,894	1669,880	1263,442
-49,403	21,906	1542,698	887,547
-48,388	15,837	1465,509	813,675
-47,373	17,813	1455,455	817,600
-46,359	16,826	1445,420	807,202
-45,344	14,074	1441,072	791,577
-44,330	13,970	1438,961	789,889
-43,315	13,963	1437,366	788,946
-42,300	13,989	1435,752	788,156
-41,286	14,034	1434,456	787,627
-40,271	13,969	1433,441	786,727
-39,257	13,976	1431,967	785,919
-38,242	14,032	1430,717	785,469
-37,227	14,004	1429,605	784,694
-36,213	14,030	1428,217	784,024
-35,198	14,026	1426,985	783,300
-34,184	14,064	1426,156	782,992
-33,169	14,054	1424,494	782,001
-32,154	14,086	1423,442	781,546
-31,140	14,040	1422,518	780,790
-30,125	14,047	1421,332	780,141
-29,111	14,099	1419,969	779,608
-28,096	14,077	1418,954	778,915
-27,082	13,977	1417,913	777,843
-26,067	13,969	1417,064	777,308
-25,052	13,956	1415,952	776,606
-24,038	13,946	1414,929	775,964
-23,023	13,955	1413,872	775,396
-22,009	13,962	1412,951	774,897
-20,994	13,894	1412,120	774,090
-19,979	13,919	1411,114	773,624
-18,965	13,877	1410,128	772,856
-17,950	13,889	1409,198	772,372
-16,936	13,900	1408,326	771,913
-15,921	13,830	1407,294	770,991
-14,906	13,837	1406,454	770,532
-13,892	13,871	1405,421	770,098
-12,877	13,855	1404,536	769,505
-11,863	13,900	1403,502	769,120
-10,848	13,823	1402,767	768,326
-9,833	13,834	1401,936	767,892
-8,819	13,769	1401,016	767,057
-7,804	13,750	1400,008	766,385
-6,790	13,761	1398,877	765,786
-5,775	13,791	1397,889	765,353
-4,760	13,766	1397,027	764,738
-3,746	13,769	1396,116	764,222
-2,731	13,747	1395,505	763,757
-1,717	13,741	1394,553	763,177
-0,702	13,766	1392,762	762,281
0,313	17,699	1310,378	735,376
1,327	34,152	705,280	433,853
2,342	52,665	123,913	83,588
3,356	-0,115	16,617	8,335
4,371	0,445	3,203	1,613
5,386	16,818	0,568	0,317
6,400	-200,000	0,024	0,106
7,415	-65,093	-0,182	-0,051
8,429	430,430	-0,223	-0,342
9,444	31,965	-0,352	-0,214
10,459	81,977	-0,317	-0,242
11,473	-143,352	-0,324	0,022
12,488	199,466	-0,169	-0,183
13,502	22,807	-0,252	-0,145
14,517	77,039	-0,398	-0,298
15,531	108,934	-0,284	-0,240
16,546	97,211	-0,393	-0,319
17,561	125,556	-0,419	-0,374
18,575	-57,649	-0,262	-0,081
19,590	90,226	-0,311	-0,245
20,604	60,398	-0,260	-0,182
21,619	102,757	-0,361	-0,299
22,634	227,174	-0,364	-0,418
23,648	95,277	-0,385	-0,310
24,663	76,843	-0,294	-0,220
25,677	46,496	-0,354	-0,231
26,692	94,380	-0,358	-0,287
27,707	-59,636	-0,239	-0,072
28,721	238,899	-0,359	-0,422
29,736	60,819	-0,485	-0,339
30,750	35,979	-0,344	-0,213
31,765	95,522	-0,335	-0,269
32,780	15,067	-0,426	-0,235
33,794	76,839	-0,320	-0,239
34,809	0,037	-0,402	-0,202
35,823	82,773	-0,349	-0,267
36,838	-23,388	-0,325	-0,137
37,853	82,574	-0,385	-0,294
38,867	198,162	-0,304	-0,328
39,882	205,229	-0,271	-0,298
40,896	155,409	-0,327	-0,318
41,911	222,694	-0,236	-0,269
42,926	16,470	-0,386	-0,214
43,940	397,110	-0,175	-0,258
44,955	84,804	-0,273	-0,211
45,969	-40,364	-0,403	-0,147
46,984	-7,160	-0,259	-0,123
47,999	110,162	-0,373	-0,315
49,013	71,712	-0,377	-0,275
50,028	35,137	-0,382	-0,235
51,042	10,714	-0,354	-0,190
52,057	-3,210	-0,332	-0,162
53,071	2,950	-0,315	-0,161
54,086	86,502	-0,355	-0,276
55,101	68,843	-0,242	-0,175
56,115	91,099	-0,369	-0,291
57,130	71,722	-0,377	-0,275
58,144	290,443	-0,329	-0,422
59,159	245,358	-0,317	-0,376
60,174	-20,915	-0,415	-0,178
61,188	100,327	-0,225	-0,184
62,203	218,043	-0,274	-0,308
63,217	441,805	-0,153	-0,237
64,232	176,904	-0,310	-0,318
65,247	82,950	-0,352	-0,269
66,261	-3,470	-0,330	-0,161
67,276	62,903	-0,261	-0,184
68,290	98,822	-0,347	-0,281
69,305	199,400	-0,197	-0,212
70,320	-133,574	-0,284	-0,025
71,334	-4,481	-0,378	-0,183
72,349	41,437	-0,347	-0,221
73,363	181,628	-0,346	-0,358
74,378	-1,775	-0,394	-0,194
75,393	1,436	-0,411	-0,207
76,407	-34,337	-0,222	-0,085
77,422	140,375	-0,199	-0,185
78,436	98,811	-0,302	-0,245
79,451	37,470	-0,298	-0,186
80,466	-15,780	-0,301	-0,134
81,480	-6,889	-0,483	-0,230
82,495	-18,222	-0,323	-0,141
83,509	80,824	-0,220	-0,166
84,524	33,485	-0,351	-0,214
85,539	-74,437	-0,340	-0,086
86,553	42,361	-0,281	-0,179
87,568	81,867	-0,194	-0,147
88,582	155,929	-0,251	-0,243
89,597	148,078	-0,261	-0,247
90,611	17,967	-0,364	-0,203
91,626	-42,294	-0,235	-0,084
92,641	-122,565	-0,237	-0,027
93,655	-72,604	-0,442	-0,114
94,670	74,315	-0,259	-0,191
95,684	73,953	-0,423	-0,311
96,699	405,217	-0,200	-0,296
97,714	-77,780	-0,374	-0,090
98,728	-91,020	-0,204	-0,041
99,743	-7,779	-0,310	-0,146
100,757	-91,076	-0,306	-0,061
101,772	10,326	-0,284	-0,151
102,787	102,697	-0,334	-0,274
103,801	6,811	-0,271	-0,141
104,816	-7,419	-0,426	-0,201
105,830	-176,116	-0,221	-0,004
106,845	23,304	-0,213	-0,122
107,860	321,786	-0,164	-0,219
108,874	29,401	-0,239	-0,142
109,889	173,703	-0,229	-0,232
110,903	47,092	-0,232	-0,151
111,918	-1,746	-0,192	-0,094
112,933	89,196	-0,261	-0,204
113,947	354,864	-0,142	-0,198
114,962	161,513	-0,175	-0,171
115,976	-41,146	-0,286	-0,103
116,991	800,000	-0,137	-0,281
118,006	74,497	-0,254	-0,187
119,020	-97,285	-0,217	-0,039
120,035	-148,752	-0,203	0,011
121,049	800,000	-0,089	-0,227
122,064	28,704	-0,345	-0,204
123,079	32,116	-0,265	-0,159
124,093	1,993	-0,253	-0,128
125,108	172,625	-0,204	-0,206
126,122	-79,949	-0,354	-0,083
127,137	100,224	-0,246	-0,199
128,151	90,928	-0,235	-0,184
129,166	-13,534	-0,175	-0,079
130,181	-65,185	-0,333	-0,093
131,195	4,375	-0,377	-0,193
132,210	314,464	-0,327	-0,431
133,224	182,976	-0,300	-0,310
134,239	60,116	-0,331	-0,228
135,254	287,674	-0,188	-0,238
136,268	-41,567	-0,260	-0,093
137,283	95,625	-0,320	-0,255
138,297	149,578	-0,240	-0,227
139,312	23,299	-0,273	-0,157
140,327	33,710	-0,264	-0,160
141,341	161,446	-0,255	-0,250
142,356	-132,612	-0,155	-0,014
143,370	-8,517	-0,225	-0,105
144,385	19,336	-0,075	-0,042
145,400	26,977	-0,209	-0,122
146,414	3,383	-0,281	-0,143
147,429	3,745	-0,252	-0,128
148,443	19,678	-0,214	-0,120
149,458	68,038	-0,225	-0,160
150,473	-68,114	-0,222	-0,060
151,487	154,576	-0,184	-0,177
152,502	33,939	-0,246	-0,149
153,516	-108,707	-0,342	-0,051
154,531	800,000	-0,163	-0,384
155,546	415,175	-0,144	-0,214
156,560	-30,715	-0,283	-0,111
157,575	427,581	-0,090	-0,136
158,589	218,701	-0,133	-0,149
159,604	377,403	-0,087	-0,124
160,619	22,624	-0,330	-0,188
161,633	-162,618	-0,214	0,007
162,648	-2,016	-0,301	-0,147
163,662	77,793	-0,144	-0,107
164,677	106,471	-0,192	-0,159
165,692	29,855	-0,271	-0,160
166,706	83,222	-0,250	-0,189
167,721	66,799	-0,302	-0,214
168,735	175,090	-0,263	-0,266
169,750	-88,868	-0,179	0,037
170,764	-88,248	-0,260	0,054
171,779	377,259	-0,116	-0,166
172,794	-84,797	-0,111	0,024
173,808	-66,880	-0,123	-0,034
174,823	244,596	-0,215	-0,252
175,837	487,105	-0,161	-0,257
176,852	55,050	-0,168	-0,113
177,867	-200,000	-0,054	-0,331
178,881	39,613	-0,289	-0,180
179,896	227,931	-0,156	-0,177
180,910	88,497	-0,180	-0,139
181,925	34,674	-0,292	-0,177
182,940	145,029	-0,272	-0,253
183,954	434,376	-0,173	-0,262
184,969	299,036	-0,136	-0,175
185,983	-78,766	-0,290	-0,068
186,998	75,243	-0,178	-0,130
188,013	16,197	-0,325	-0,178
189,027	181,576	-0,265	-0,271
190,042	86,265	-0,208	-0,160
191,056	109,530	-0,197	-0,164
192,071	-67,089	-0,235	-0,064
193,086	82,260	-0,144	-0,108
194,100	-81,465	-0,248	-0,056
195,115	56,529	-0,220	-0,148
196,129	166,290	-0,166	-0,163
197,144	497,492	-0,173	-0,277
198,159	40,390	-0,203	-0,127
199,173	-99,108	-0,198	-0,034
200,188	112,828	-0,139	-0,117
201,202	55,076	-0,152	-0,102
202,217	-82,177	-0,225	-0,050
203,232	35,998	-0,290	-0,177
204,246	-114,871	-0,222	-0,029
205,261	55,200	-0,182	-0,122
206,275	-20,912	-0,212	-0,090
207,290	-13,297	-0,171	-0,077
208,304	5,286	-0,233	-0,119
209,319	68,790	-0,126	-0,090
210,334	-136,965	-0,194	-0,015
211,348	-50,823	-0,201	-0,065
212,363	-87,224	-0,305	-0,064
213,377	-47,764	-0,272	-0,091
214,392	409,669	-0,081	-0,119
215,407	146,255	-0,294	-0,274
216,421	-40,383	-0,243	-0,087
217,436	243,708	-0,194	-0,226
218,450	-7,731	-0,188	-0,088
219,465	31,270	-0,161	-0,096
220,480	792,840	-0,123	-0,236
221,494	-64,477	-0,225	-0,063
222,509	800,000	-0,116	-0,239
223,523	-50,909	-0,073	0,024
224,538	800,000	-0,082	-0,195
225,553	147,647	-0,257	-0,240
226,567	52,981	-0,139	-0,092
227,582	265,036	-0,117	-0,141
228,596	-200,000	-0,054	-0,207
229,611	24,115	-0,197	-0,112
230,626	-200,000	-0,009	-0,173
231,640	63,984	-0,199	-0,139
232,655	533,067	-0,174	-0,286
233,669	271,277	-0,155	-0,190
234,684	154,485	-0,205	-0,195
235,699	312,682	-0,147	-0,192
236,713	678,184	-0,125	-0,226
237,728	94,759	-0,102	-0,081
238,742	-134,428	-0,217	0,018
239,757	-29,316	-0,256	-0,101
240,772	141,446	-0,197	-0,181
241,786	800,000	-0,127	-0,320
242,801	439,333	-0,139	-0,211
243,815	76,137	-0,165	-0,121
244,830	3,547	-0,190	-0,096
245,844	-119,477	-0,261	-0,031
246,859	182,558	-0,190	-0,194
247,874	142,065	-0,210	-0,193
248,888	-101,578	-0,261	-0,043
249,903	90,005	-0,149	-0,115
250,917	-42,631	-0,149	-0,052
251,932	800,000	-0,076	-0,155
252,947	-200,000	-0,039	-0,226
253,961	-21,254	-0,286	-0,120
254,976	-10,400	-0,169	-0,077
255,990	65,763	-0,256	-0,179
257,005	-42,625	-0,245	-0,086
258,020	324,911	-0,142	-0,188
259,034	17,553	-0,162	0,089
260,049	79,525	-0,048	0,035
261,063	11,347	-0,180	-0,095
262,078	144,101	-0,156	-0,144
263,093	389,302	-0,197	-0,283
264,107	-200,000	-0,050	-0,251
265,122	46,891	-0,142	-0,091
266,136	346,576	-0,141	-0,193
267,151	-131,127	-0,135	0,012
268,166	75,427	-0,124	-0,090
269,180	294,340	-0,169	-0,214
270,195	58,944	-0,276	-0,187
271,209	180,991	-0,093	-0,094
272,224	689,106	-0,120	-0,218
273,239	-30,101	-0,281	-0,110
274,253	42,051	-0,190	-0,119
275,268	-57,396	-0,192	-0,058
276,282	44,966	-0,197	-0,125
277,297	66,079	-0,137	-0,096
278,312	75,931	-0,142	-0,104
279,326	-14,090	-0,202	-0,090
280,341	319,856	-0,144	-0,189
281,355	-126,176	-0,175	-0,018
282,370	-111,848	-0,163	-0,022
283,384	268,730	-0,127	-0,153
284,399	77,887	-0,290	-0,213
285,414	-0,861	-0,231	-0,112
286,428	800,000	-0,062	-0,124
287,443	350,572	-0,064	-0,088
288,457	26,806	-0,181	-0,104
289,472	-76,658	-0,188	-0,045
290,487	70,212	-0,126	-0,090
291,501	472,857	-0,116	-0,181
292,516	257,292	-0,137	-0,162
293,530	-84,732	-0,217	-0,047
294,545	-173,388	-0,138	0,003
295,560	644,515	-0,070	-0,123
296,574	-49,445	-0,206	-0,067
297,589	74,179	-0,197	-0,142
298,603	175,108	-0,188	-0,188
299,618	764,986	-0,085	-0,160
300,633	-1,887	-0,146	-0,071
301,647	150,690	-0,087	-0,081
302,662	75,426	-0,145	-0,105
303,676	-62,947	-0,151	-0,043
304,691	97,491	-0,038	0,030
305,706	-31,487	-0,070	-0,027
306,720	107,227	-0,213	-0,174
307,735	-140,683	-0,096	-0,007
308,749	-29,512	-0,128	-0,050
309,764	591,693	-0,048	-0,081
310,779	214,084	-0,147	-0,160
311,793	62,112	-0,104	-0,071
312,808	20,290	-0,255	-0,141
313,822	147,825	-0,237	-0,220
314,837	-200,000	-0,057	-0,175
315,852	83,801	-0,057	-0,043
316,866	201,786	-0,138	-0,147
317,881	136,291	-0,138	-0,124
318,895	92,836	-0,064	-0,049
319,910	-17,471	-0,163	-0,070
320,925	56,483	-0,252	-0,168
321,939	20,462	-0,120	-0,066
322,954	-20,442	-0,088	-0,037
323,968	193,012	-0,064	-0,066
324,983	-31,384	-0,068	-0,026
325,997	800,000	-0,057	-0,146
327,012	800,000	-0,082	-0,237
328,027	103,552	-0,181	-0,146
329,041	800,000	-0,035	-0,099
330,056	405,860	-0,127	-0,184
331,070	800,000	-0,015	-0,038
332,085	103,380	-0,086	-0,069
333,100	-200,000	-0,226	0,001
334,114	60,512	-0,176	-0,119
335,129	468,243	-0,072	-0,112
336,143	2,542	-0,049	0,024
337,158	54,168	-0,143	-0,095
338,173	-56,240	-0,075	-0,023
339,187	-179,936	-0,144	0,002
340,202	756,621	-0,095	-0,177
341,216	355,991	-0,092	-0,126
342,231	135,075	-0,161	-0,144
343,246	124,367	-0,114	-0,098
344,260	97,483	-0,121	-0,095
345,275	258,621	-0,117	-0,139
346,289	0,946	-0,124	-0,061
347,304	-12,493	-0,174	-0,078
348,319	29,043	-0,172	-0,100
349,333	242,227	-0,138	-0,159
350,348	20,884	-0,195	-0,108
351,362	-83,639	-0,237	-0,052
352,377	194,483	-0,103	-0,107
353,392	635,121	-0,081	-0,142
354,406	282,422	-0,070	-0,086
355,421	209,415	1316,452	1416,068
356,435	161,169	1477,390	1416,546
