DTS Sentinel unit serial number:	SN410029Multiplexer serial number:	ORYXHardware model number:	OX2-SRSoftware version number:	ORYX F/W v4,00 Oryx Data Collector v3.7.2.0data status	okinstallation	B3 Nyhavnadifferential loss correction	single-endedforward channel	channel 1reverse channel	N/Adate	2023/11/28time	23:52:30forward acquisition time	300,00reverse acquisition time	0,00gamma	499,1914k internal	0,3212k external	0,3212temperature offset calibration	1,0000default loss term (dB/km)	0,3820temperature slope calibration	1,0000multiplexer offset coefficient	1,0000multiplexer slope coefficient	1,0000fibre end	0,00T internal ref (°C)	8,92T ext. ref 1 (°C)	-5,34T ext. ref 2 (°C)	-5,49length (m)	temperature (°C)	Stokes	anti-Stokes-744,400	200,006	-0,203	-0,226
-743,385	476,510	-0,109	0,179
-742,371	800,000	-0,038	-0,119
-741,356	-200,000	0,022	0,306
-740,342	171,494	-0,260	-0,270
-739,327	286,169	0,154	0,202
-738,312	211,233	-0,213	-0,243
-737,298	368,468	-0,073	0,108
-736,283	445,432	-0,188	-0,301
-735,269	800,000	0,115	0,238
-734,254	224,081	-0,147	-0,172
-733,239	34,343	-0,135	0,085
-732,225	-200,000	0,032	-0,194
-731,210	385,335	-0,062	0,093
-730,196	119,098	-0,057	-0,051
-729,181	800,000	-0,047	-0,111
-728,167	123,947	-0,033	0,030
-727,152	800,000	-0,028	0,073
-726,137	-50,862	-0,071	-0,024
-725,123	-200,000	-0,017	-0,155
-724,108	418,150	-0,084	-0,131
-723,094	18,332	-0,136	-0,078
-722,079	-200,000	-0,012	-0,052
-721,064	-193,176	-0,022	-0,000
-720,050	0,791	0,113	-0,059
-719,035	221,473	0,051	0,060
-718,021	-35,500	-0,056	-0,022
-717,006	-5,138	-0,061	-0,030
-715,991	-145,208	-0,106	-0,007
-714,977	-200,000	-0,026	-0,124
-713,962	71,176	0,037	-0,028
-712,948	-160,862	-0,156	-0,006
-711,933	-142,620	-0,116	0,008
-710,918	5,575	0,069	-0,037
-709,904	46,237	-0,163	-0,109
-708,889	698,074	-0,052	-0,100
-707,875	727,223	-0,081	-0,158
-706,860	-112,346	0,123	0,018
-705,845	-200,000	-0,003	0,123
-704,831	115,177	0,074	0,065
-703,816	155,948	0,060	0,060
-702,802	777,196	0,031	0,062
-701,787	-51,826	-0,051	-0,017
-700,772	-29,260	-0,052	0,021
-699,758	-93,356	-0,150	0,030
-698,743	-200,000	0,011	-0,084
-697,729	800,000	0,018	0,045
-696,714	-200,000	-0,005	0,163
-695,699	100,944	0,071	-0,060
-694,685	800,000	-0,071	-0,164
-693,670	0,409	-0,090	-0,047
-692,656	800,000	-0,042	-0,108
-691,641	-200,000	-0,004	0,118
-690,627	29,857	-0,075	0,046
-689,612	30,936	0,179	0,111
-688,597	150,064	0,089	-0,087
-687,583	-24,919	-0,166	-0,071
-686,568	203,702	0,029	-0,032
-685,554	800,000	0,061	-0,127
-684,539	-64,492	0,164	-0,048
-683,524	426,048	-0,074	0,115
-682,510	-200,000	0,030	0,101
-681,495	-200,000	-0,014	-0,090
-680,481	104,268	-0,095	-0,081
-679,466	14,223	0,073	0,041
-678,451	173,677	-0,073	0,076
-677,437	-96,400	-0,079	0,015
-676,422	-200,000	-0,005	-0,147
-675,408	-80,299	-0,100	-0,024
-674,393	800,000	0,030	-0,088
-673,378	-97,233	0,027	0,005
-672,364	-76,384	0,073	0,018
-671,349	-40,133	-0,078	-0,029
-670,335	-200,000	-0,004	0,049
-669,320	190,136	-0,042	0,046
-668,305	-75,724	-0,086	-0,022
-667,291	1,559	-0,143	0,074
-666,276	-0,374	-0,054	0,028
-665,262	84,982	0,109	-0,086
-664,247	39,162	-0,124	0,080
-663,232	51,390	-0,024	0,017
-662,218	345,930	0,072	-0,103
-661,203	-148,853	-0,043	-0,002
-660,189	243,507	0,120	-0,146
-659,174	-8,810	0,076	-0,037
-658,159	80,960	0,012	-0,010
-657,145	51,915	-0,022	-0,015
-656,130	191,045	0,027	-0,029
-655,116	-200,000	0,014	-0,120
-654,101	-79,855	0,076	-0,018
-653,086	-101,961	-0,041	-0,007
-652,072	-157,847	-0,128	0,005
-651,057	-58,915	-0,040	0,012
-650,043	181,091	0,021	-0,022
-649,028	488,750	0,035	0,058
-648,014	-200,000	-0,003	0,056
-646,999	-200,000	-0,020	0,068
-645,984	13,877	0,114	0,064
-644,970	213,750	0,078	-0,090
-643,955	317,389	-0,059	-0,081
-642,941	16,989	-0,091	-0,052
-641,926	-200,000	0,005	-0,113
-640,911	800,000	0,018	-0,051
-639,897	-14,017	0,001	0,001
-638,882	40,059	-0,077	-0,050
-637,868	-71,475	-0,056	-0,015
-636,853	322,175	-0,041	-0,057
-635,838	42,567	-0,037	-0,025
-634,824	-123,676	-0,078	-0,009
-633,809	-200,000	-0,006	0,106
-632,795	800,000	0,018	0,045
-631,780	134,661	-0,022	0,021
-630,765	57,915	-0,075	-0,053
-629,751	87,496	-0,003	-0,003
-628,736	-27,206	-0,013	-0,006
-627,722	-151,784	-0,048	-0,003
-626,707	-4,595	0,063	0,031
-625,692	219,726	0,092	0,106
-624,678	-200,000	-0,019	0,095
-623,663	-36,146	-0,081	0,031
-622,649	510,121	-0,022	-0,037
-621,634	-200,000	-0,009	0,041
-620,619	-136,910	-0,050	0,004
-619,605	-200,000	0,013	0,044
-618,590	-157,087	0,157	0,007
-617,576	-24,094	-0,095	0,041
-616,561	-61,269	0,054	0,016
-615,546	-130,745	-0,105	0,010
-614,532	121,044	-0,097	0,087
-613,517	336,626	0,037	-0,052
-612,503	215,060	0,034	-0,039
-611,488	800,000	-0,040	-0,092
-610,474	-11,527	-0,029	-0,014
-609,459	103,389	0,027	-0,022
-608,444	800,000	-0,042	0,100
-607,430	51,990	-0,165	-0,113
-606,415	-200,000	-0,013	-0,156
-605,401	-9,849	0,122	0,058
-604,386	-17,036	-0,066	0,030
-603,371	138,901	-0,054	-0,052
-602,357	60,069	0,098	0,070
-601,342	-7,093	0,080	-0,039
-600,328	800,000	-0,070	-0,156
-599,313	616,603	-0,083	-0,151
-598,298	626,488	-0,030	-0,055
-597,284	-132,131	-0,093	-0,009
-596,269	-30,002	-0,024	-0,010
-595,255	-51,765	-0,149	0,050
-594,240	341,930	0,110	0,156
-593,225	-56,412	0,139	-0,044
-592,211	-16,460	-0,081	-0,037
-591,196	-101,306	0,018	-0,003
-590,182	109,589	0,096	-0,083
-589,167	800,000	-0,027	0,067
-588,152	-200,000	0,017	0,057
-587,138	137,911	-0,066	0,062
-586,123	26,006	0,049	0,029
-585,109	786,247	0,047	-0,093
-584,094	105,475	0,018	-0,015
-583,079	-124,423	0,040	-0,004
-582,065	4,600	-0,133	0,070
-581,050	-154,211	-0,053	-0,003
-580,036	132,098	0,067	0,062
-579,021	380,712	-0,061	-0,090
-578,006	199,786	-0,045	-0,049
-576,992	-8,028	0,059	-0,029
-575,977	800,000	0,007	0,018
-574,963	157,255	0,053	0,053
-573,948	-50,923	0,104	-0,035
-572,934	195,760	0,098	-0,107
-571,919	-200,000	0,002	0,008
-570,904	-200,000	-0,046	0,161
-569,890	-200,000	-0,025	-0,092
-568,875	603,123	0,048	-0,087
-567,861	114,804	0,116	0,101
-566,846	800,000	-0,013	0,028
-565,831	22,735	-0,052	-0,031
-564,817	228,791	-0,018	0,021
-563,802	-200,000	-0,028	-0,110
-562,788	314,936	-0,022	-0,030
-561,773	800,000	-0,034	-0,088
-560,758	713,048	0,024	0,046
-559,744	48,121	0,125	-0,084
-558,729	533,765	-0,079	-0,134
-557,715	-70,943	-0,120	0,032
-556,700	-128,025	-0,152	0,016
-555,685	607,944	0,024	-0,043
-554,671	-200,000	-0,028	0,099
-553,656	235,223	0,014	0,017
-552,642	-200,000	-0,001	-0,060
-551,627	-200,000	0,011	-0,065
-550,612	188,012	0,048	-0,052
-549,598	-157,991	-0,117	-0,005
-548,583	245,606	-0,042	0,051
-547,569	-200,000	0,005	-0,061
-546,554	183,081	0,046	-0,049
-545,539	276,783	-0,086	0,110
-544,525	39,431	0,137	0,088
-543,510	800,000	-0,043	-0,103
-542,496	-126,913	0,107	0,011
-541,481	-200,000	-0,030	-0,124
-540,466	-152,641	0,127	-0,006
-539,452	-70,750	0,252	0,068
-538,437	-127,689	0,090	0,009
-537,423	582,998	0,114	0,203
-536,408	147,275	0,041	-0,040
-535,393	-144,276	-0,087	-0,006
-534,379	-200,000	-0,034	-0,117
-533,364	-200,000	-0,001	0,031
-532,350	-27,287	-0,061	-0,025
-531,335	-200,000	0,036	0,129
-530,321	168,168	-0,075	-0,077
-529,306	18,011	0,144	-0,082
-528,291	244,812	-0,024	0,029
-527,277	278,419	-0,032	-0,041
-526,262	-90,245	0,113	-0,023
-525,248	-91,535	-0,128	-0,026
-524,233	-200,000	-0,006	0,081
-523,218	-7,164	-0,035	0,017
-522,204	-101,161	0,097	0,017
-521,189	69,947	0,144	-0,107
-520,175	800,000	0,020	0,054
-519,160	800,000	-0,046	-0,101
-518,145	-200,000	-0,018	0,084
-517,131	271,491	0,044	-0,056
-516,116	-91,859	0,067	0,013
-515,102	142,047	-0,044	-0,042
-514,087	-105,683	0,022	0,004
-513,072	508,612	0,032	-0,054
-512,058	569,162	-0,021	-0,036
-511,043	82,926	0,022	0,017
-510,029	-56,017	0,079	0,025
-509,014	-11,618	0,135	-0,063
-507,999	-200,000	0,010	0,043
-506,985	-200,000	-0,011	0,086
-505,970	635,464	0,041	-0,075
-504,956	315,929	-0,099	0,134
-503,941	-200,000	0,033	-0,140
-502,926	273,799	0,019	0,025
-501,912	-200,000	-0,014	0,116
-500,897	60,431	-0,020	-0,014
-499,883	-200,000	-0,001	0,024
-498,868	-200,000	-0,011	-0,093
-497,853	-17,155	-0,044	-0,020
-496,839	-200,000	-0,032	0,108
-495,824	17,623	0,199	0,113
-494,810	266,044	0,069	0,086
-493,795	-200,000	-0,002	-0,028
-492,781	-200,000	-0,004	-0,032
-491,766	-121,811	0,140	0,016
-490,751	-49,561	-0,251	-0,085
-489,737	7,440	0,115	-0,062
-488,722	167,232	0,142	0,145
-487,708	329,753	-0,078	0,108
-486,693	93,425	-0,056	-0,045
-485,678	-200,000	-0,004	0,023
-484,664	593,263	-0,012	0,021
-483,649	244,672	-0,150	-0,181
-482,635	-53,936	-0,157	-0,051
-481,620	50,872	0,116	0,079
-480,605	93,231	0,076	-0,061
-479,591	764,621	-0,013	-0,025
-478,576	-200,000	-0,002	0,067
-477,562	78,619	-0,112	0,086
-476,547	800,000	0,020	0,053
-475,532	-200,000	0,015	0,069
-474,518	-200,000	0,008	0,121
-473,503	45,660	0,080	0,053
-472,489	147,638	-0,114	-0,110
-471,474	619,042	-0,019	-0,035
-470,459	-73,807	0,119	-0,031
-469,445	-158,655	-0,109	0,004
-468,430	596,255	0,003	0,005
-467,416	800,000	-0,029	0,079
-466,401	-58,348	-0,119	-0,037
-465,386	645,181	0,085	-0,156
-464,372	271,449	0,093	0,118
-463,357	243,589	-0,102	0,123
-462,343	-200,000	-0,002	0,090
-461,328	264,835	0,045	0,057
-460,313	800,000	-0,029	0,079
-459,299	331,740	0,060	0,083
-458,284	-200,000	-0,015	0,111
-457,270	800,000	-0,069	0,162
-456,255	800,000	-0,013	-0,028
-455,241	363,913	0,047	-0,068
-454,226	282,656	-0,018	-0,023
-453,211	430,443	0,031	0,048
-452,197	800,000	0,007	-0,019
-451,182	382,372	-0,032	0,047
-450,168	105,620	0,051	-0,043
-449,153	129,509	-0,161	-0,147
-448,138	-8,786	-0,012	-0,006
-447,124	-200,000	0,003	-0,021
-446,109	1,970	0,061	-0,032
-445,095	-200,000	-0,023	-0,106
-444,080	726,082	0,066	0,128
-443,065	118,306	0,090	-0,080
-442,051	800,000	0,017	-0,048
-441,036	-76,037	-0,069	0,017
-440,022	201,290	-0,066	-0,073
-439,007	293,640	0,019	0,025
-437,992	-200,000	0,002	-0,033
-436,978	800,000	0,027	0,055
-435,963	437,065	0,137	0,214
-434,949	503,253	0,044	0,073
-433,934	-108,177	-0,173	0,027
-432,919	-50,893	-0,065	-0,022
-431,905	144,639	-0,040	-0,039
-430,890	180,064	-0,027	-0,028
-429,876	-6,808	0,080	0,039
-428,861	246,269	0,054	0,066
-427,846	-84,321	0,030	-0,007
-426,832	-10,000	-0,015	-0,007
-425,817	-181,430	0,039	0,001
-424,803	-125,983	0,062	-0,007
-423,788	178,951	0,034	0,036
-422,773	565,912	0,017	-0,029
-421,759	740,705	-0,056	0,107
-420,744	116,231	0,082	-0,072
-419,730	403,671	-0,014	-0,020
-418,715	800,000	-0,022	0,067
-417,701	-60,527	-0,095	0,029
-416,686	-200,000	0,019	-0,062
-415,671	-138,390	-0,063	-0,005
-414,657	-200,000	0,022	-0,090
-413,642	800,000	0,049	0,107
-412,628	253,983	0,023	0,028
-411,613	-200,000	-0,007	-0,137
-410,598	-39,587	-0,118	-0,044
-409,584	50,399	-0,093	-0,063
-408,569	557,164	0,091	0,158
-407,555	459,606	0,069	0,110
-406,540	296,660	0,052	0,068
-405,525	-64,942	0,128	-0,037
-404,511	-60,068	-0,104	0,031
-403,496	-200,000	-0,016	0,050
-402,482	-200,000	0,009	0,130
-401,467	-145,405	0,046	0,003
-400,452	-200,000	-0,013	0,065
-399,438	-63,561	0,043	0,012
-398,423	-132,547	-0,102	0,009
-397,409	37,170	-0,028	-0,018
-396,394	-200,000	-0,022	-0,085
-395,379	142,065	-0,064	0,060
-394,365	-200,000	0,010	-0,074
-393,350	90,940	-0,033	0,026
-392,336	-113,423	0,151	0,021
-391,321	121,436	0,139	0,124
-390,306	62,121	-0,127	-0,091
-389,292	334,722	-0,056	0,078
-388,277	-200,000	0,003	0,012
-387,263	800,000	-0,016	-0,036
-386,248	-32,028	0,216	-0,086
-385,233	93,571	0,119	0,096
-384,219	-200,000	-0,004	0,048
-383,204	466,379	0,079	-0,128
-382,190	322,841	-0,086	-0,117
-381,175	-200,000	-0,022	-0,151
-380,160	800,000	0,006	0,019
-379,146	800,000	0,027	0,079
-378,131	800,000	-0,043	0,110
-377,117	-11,667	0,073	-0,034
-376,102	-200,000	-0,004	-0,016
-375,088	33,413	0,102	0,063
-374,073	-200,000	-0,050	-0,231
-373,058	-200,000	-0,005	-0,116
-372,044	-48,991	0,055	-0,019
-371,029	-200,000	-0,006	-0,093
-370,015	173,633	-0,057	-0,058
-369,000	95,550	-0,068	-0,055
-367,985	113,585	-0,123	0,107
-366,971	114,323	-0,073	-0,063
-365,956	225,505	0,110	0,128
-364,942	-176,199	-0,054	-0,001
-363,927	800,000	0,025	-0,057
-362,912	-144,403	-0,005	0,000
-361,898	139,191	0,059	-0,055
-360,883	-44,436	0,007	-0,003
-359,869	-200,000	0,001	-0,054
-358,854	-148,751	0,104	0,006
-357,839	-184,167	-0,031	-0,000
-356,825	321,341	0,053	-0,072
-355,810	128,741	-0,077	0,070
-354,796	101,121	0,053	-0,044
-353,781	-90,213	-0,071	0,015
-352,766	-39,748	-0,142	-0,053
-351,752	106,632	-0,093	-0,079
-350,737	-124,285	0,128	-0,014
-349,723	-200,000	0,016	-0,074
-348,708	267,261	-0,099	-0,124
-347,693	21,330	-0,096	0,056
-346,679	800,000	0,061	-0,131
-345,664	262,270	-0,091	-0,113
-344,650	-200,000	0,001	0,123
-343,635	189,521	0,020	-0,021
-342,620	800,000	0,062	0,138
-341,606	-200,000	0,001	0,128
-340,591	140,745	0,040	0,037
-339,577	-60,180	-0,087	-0,026
-338,562	-112,810	-0,191	-0,027
-337,548	-200,000	-0,020	-0,107
-336,533	180,127	0,076	-0,080
-335,518	-167,149	0,094	0,003
-334,504	255,194	-0,015	-0,018
-333,489	800,000	0,011	-0,027
-332,475	94,232	-0,044	0,036
-331,460	-185,104	0,023	-0,000
-330,445	-200,000	-0,017	0,115
-329,431	199,152	0,024	-0,026
-328,416	185,487	0,117	0,124
-327,402	-89,787	0,053	-0,011
-326,387	39,057	-0,097	-0,062
-325,372	800,000	-0,033	-0,071
-324,358	-200,000	0,021	-0,160
-323,343	35,532	0,068	-0,043
-322,329	-200,000	-0,031	-0,109
-321,314	95,796	-0,092	-0,075
-320,299	800,000	0,016	0,049
-319,285	162,107	0,019	-0,019
-318,270	67,949	-0,102	-0,074
-317,256	732,539	-0,047	-0,091
-316,241	800,000	0,040	-0,109
-315,226	87,968	0,065	0,051
-314,212	-200,000	0,003	0,019
-313,197	77,262	0,022	0,017
-312,183	284,120	-0,050	-0,064
-311,168	-200,000	-0,012	0,052
-310,153	-200,000	0,006	-0,091
-309,139	207,219	0,116	-0,129
-308,124	800,000	-0,043	-0,131
-307,110	-25,580	-0,067	-0,028
-306,095	800,000	0,036	0,099
-305,080	-200,000	-0,034	0,152
-304,066	-200,000	-0,017	-0,072
-303,051	-18,158	0,124	-0,055
-302,037	209,611	-0,088	-0,098
-301,022	-200,000	-0,034	0,198
-300,008	547,580	-0,053	0,091
-298,993	677,702	-0,070	0,130
-297,978	800,000	-0,045	-0,106
-296,964	-17,184	-0,130	-0,058
-295,949	-200,000	-0,022	-0,109
-294,935	80,344	0,069	0,053
-293,920	-200,000	0,056	-0,201
-292,905	-200,000	0,006	-0,125
-291,891	800,000	0,043	0,127
-290,876	-40,043	-0,028	-0,010
-289,862	-67,905	-0,195	0,054
-288,847	-200,000	0,056	-0,179
-287,832	-64,009	-0,153	0,044
-286,818	-200,000	0,019	-0,126
-285,803	-200,000	-0,013	0,112
-284,789	98,492	0,113	0,093
-283,774	297,649	-0,074	-0,097
-282,759	-175,394	-0,058	-0,001
-281,745	-57,188	-0,098	-0,031
-280,730	-200,000	0,022	-0,083
-279,716	-200,000	-0,009	0,171
-278,701	-200,000	0,024	-0,078
-277,686	-59,918	-0,103	0,031
-276,672	-71,000	0,061	-0,016
-275,657	29,480	-0,105	0,063
-274,643	-137,444	0,147	0,012
-273,628	288,858	0,037	-0,048
-272,613	-200,000	-0,007	0,036
-271,599	25,193	0,033	0,020
-270,584	-200,000	0,004	0,185
-269,570	-15,522	0,088	0,040
-268,555	194,365	0,054	-0,058
-267,540	-127,740	-0,099	-0,010
-266,526	-44,882	-0,128	0,045
-265,511	128,605	0,058	0,052
-264,497	473,960	0,041	0,066
-263,482	-200,000	0,000	-0,040
-262,467	-200,000	0,012	0,067
-261,453	-200,000	-0,028	0,092
-260,438	478,214	-0,066	-0,106
-259,424	248,875	0,120	-0,144
-258,409	-102,196	0,049	-0,008
-257,395	0,029	0,069	-0,035
-256,380	-111,910	0,168	0,024
-255,365	-28,910	-0,098	0,040
-254,351	-1,801	0,038	0,019
-253,336	728,376	-0,039	0,074
-252,322	536,534	-0,113	-0,192
-251,307	106,242	-0,006	-0,005
-250,292	110,792	0,082	0,070
-249,278	-57,021	0,143	0,045
-248,263	-200,000	0,003	0,046
-247,249	-61,168	0,069	0,021
-246,234	326,808	-0,073	0,100
-245,219	18,931	-0,143	-0,081
-244,205	40,442	-0,030	-0,019
-243,190	737,163	0,047	0,089
-242,176	-200,000	-0,021	-0,107
-241,161	-28,514	0,060	0,025
-240,146	-12,111	0,102	0,047
-239,132	121,579	-0,051	-0,045
-238,117	367,869	-0,113	-0,162
-237,103	-200,000	-0,016	-0,088
-236,088	83,025	-0,050	-0,038
-235,073	-179,487	0,077	0,001
-234,059	-200,000	0,038	-0,147
-233,044	74,879	0,062	0,047
-232,030	-200,000	0,012	0,146
-231,015	-0,491	-0,201	-0,101
-230,000	-136,420	-0,081	0,007
-228,986	312,272	-0,032	0,042
-227,971	-97,042	0,071	0,013
-226,957	673,125	0,024	-0,044
-225,942	-59,721	-0,060	0,018
-224,927	800,000	0,002	0,007
-223,913	800,000	-0,094	-0,200
-222,898	800,000	0,014	-0,032
-221,884	108,861	0,077	0,065
-220,869	51,929	-0,150	-0,101
-219,855	246,747	0,075	0,090
-218,840	-200,000	0,010	0,034
-217,825	95,366	-0,080	0,064
-216,811	277,428	0,086	0,109
-215,796	465,329	0,028	-0,045
-214,782	800,000	0,027	-0,078
-213,767	240,740	0,073	0,086
-212,752	-200,000	-0,008	0,106
-211,738	657,857	-0,049	0,090
-210,723	97,091	0,086	0,070
-209,709	800,000	0,076	-0,160
-208,694	800,000	-0,044	-0,137
-207,679	453,306	0,073	0,114
-206,665	281,683	-0,014	-0,018
-205,650	-200,000	-0,001	-0,008
-204,636	-200,000	-0,004	0,031
-203,621	182,091	0,108	0,113
-202,606	351,674	0,104	0,147
-201,592	-123,538	-0,078	0,009
-200,577	-16,184	-0,009	0,004
-199,563	-26,866	-0,048	-0,020
-198,548	371,177	0,091	0,131
-197,533	594,844	-0,083	0,147
-196,519	-40,973	0,133	0,049
-195,504	-127,341	0,121	-0,012
-194,490	200,801	0,084	-0,092
-193,475	357,458	-0,048	-0,069
-192,460	-135,723	-0,086	-0,007
-191,446	-36,173	0,065	0,025
-190,431	800,000	0,082	0,241
-189,417	25,880	-0,062	0,037
-188,402	332,037	-0,029	0,039
-187,387	-200,000	0,018	-0,180
-186,373	157,828	0,148	0,145
-185,358	604,061	-0,028	0,050
-184,344	-200,000	0,007	0,053
-183,329	209,785	0,069	-0,077
-182,315	-58,620	0,015	-0,005
-181,300	800,000	-0,077	0,160
-180,285	303,773	0,055	-0,073
-179,271	66,498	-0,076	-0,055
-178,256	292,195	-0,094	-0,121
-177,242	-103,581	-0,088	-0,014
-176,227	800,000	0,052	0,151
-175,212	-200,000	0,003	0,056
-174,198	-200,000	0,013	0,041
-173,183	26,080	-0,097	0,057
-172,169	800,000	0,013	0,034
-171,154	-36,266	0,053	-0,020
-170,139	-15,817	0,097	-0,044
-169,125	-59,457	-0,043	0,013
-168,110	-200,000	0,001	0,025
-167,096	444,596	-0,057	0,090
-166,081	-65,050	-0,083	-0,024
-165,066	32,668	-0,083	-0,051
-164,052	405,223	0,055	-0,083
-163,037	70,809	-0,030	-0,022
-162,023	-55,422	-0,104	0,033
-161,008	-200,000	0,059	0,204
-159,993	138,637	0,087	-0,081
-158,979	140,448	-0,146	0,136
-157,964	-85,660	0,071	-0,015
-156,950	-200,000	0,009	0,099
-155,935	8,653	-0,121	0,064
-154,920	800,000	0,003	-0,008
-153,906	254,267	-0,012	0,015
-152,891	20,578	0,112	-0,064
-151,877	496,712	0,034	-0,055
-150,862	-200,000	0,002	0,087
-149,847	-200,000	0,028	-0,098
-148,833	18,287	-0,103	-0,058
-147,818	759,473	0,094	0,181
-146,804	-133,137	-0,141	0,012
-145,789	678,093	0,082	0,151
-144,775	-119,188	-0,188	0,023
-143,760	800,000	-0,029	-0,063
-142,745	-200,000	0,020	-0,168
-141,731	83,977	0,153	0,118
-140,716	-51,319	0,171	0,056
-139,702	800,000	-0,046	0,120
-138,687	-14,125	-0,049	0,022
-137,672	-73,743	-0,083	-0,021
-136,658	483,289	-0,068	-0,110
-135,643	-107,412	0,082	-0,013
-134,629	143,970	0,039	-0,037
-133,614	105,850	-0,123	0,103
-132,599	435,635	0,079	0,122
-131,585	800,000	-0,035	0,073
-130,570	-153,634	-0,048	-0,002
-129,556	312,971	-0,023	-0,030
-128,541	-200,000	-0,035	-0,113
-127,526	-200,000	0,018	0,135
-126,512	133,809	0,154	0,141
-125,497	-200,000	0,002	0,082
-124,483	-129,019	-0,074	-0,007
-123,468	137,822	0,062	-0,057
-122,453	-67,180	-0,108	0,030
-121,439	95,019	0,085	-0,068
-120,424	-200,000	-0,009	-0,074
-119,410	150,314	-0,080	-0,077
-118,395	800,000	0,065	-0,143
-117,380	-10,870	0,131	-0,061
-116,366	669,266	-0,040	-0,074
-115,351	-200,000	0,008	-0,089
-114,337	119,724	-0,034	0,030
-113,322	-70,614	-0,077	-0,021
-112,307	-59,425	0,060	0,018
-111,293	-200,000	0,023	0,164
-110,278	467,742	-0,052	0,082
-109,264	438,254	0,045	0,069
-108,249	-4,651	0,035	0,017
-107,234	-193,455	0,052	0,000
-106,220	-200,000	-0,012	0,183
-105,205	800,000	0,016	0,036
-104,191	800,000	-0,012	0,034
-103,176	800,000	0,056	0,138
-102,162	-152,151	-0,142	-0,007
-101,147	529,825	-0,042	-0,070
-100,132	228,459	-0,121	-0,140
-99,118	27,191	-0,038	-0,022
-98,103	-136,281	-0,123	-0,010
-97,089	12,871	0,052	-0,029
-96,074	-200,000	0,012	-0,082
-95,059	-200,000	0,012	0,051
-94,045	4,209	-0,051	-0,026
-93,030	-45,392	0,147	0,051
-92,016	796,525	-0,079	-0,154
-91,001	-8,468	0,101	0,048
-89,986	-96,466	0,064	0,012
-88,972	-200,000	0,007	0,047
-87,957	171,135	0,096	0,097
-86,943	132,283	-0,088	0,080
-85,928	-33,491	-0,142	-0,055
-84,913	-60,678	-0,019	-0,006
-83,899	-91,709	0,065	0,013
-82,884	171,170	0,031	0,032
-81,870	147,290	0,065	0,062
-80,855	-185,417	0,216	-0,002
-79,840	-90,249	-0,105	0,021
-78,826	-200,000	0,019	0,106
-77,811	-200,000	0,014	-0,193
-76,797	-200,000	-0,029	0,127
-75,782	-200,000	0,020	0,097
-74,767	80,258	-0,030	-0,022
-73,753	95,492	-0,108	-0,087
-72,738	-200,000	-0,021	0,097
-71,724	126,197	-0,111	-0,099
-70,709	24,343	-0,131	-0,076
-69,694	-200,000	-0,024	-0,085
-68,680	396,806	-0,057	0,084
-67,665	318,609	-0,026	-0,034
-66,651	-82,188	0,219	-0,050
-65,636	361,898	0,027	-0,039
-64,622	-80,350	-0,112	-0,026
-63,607	-76,653	-0,028	-0,007
-62,592	-138,315	0,044	-0,003
-61,578	760,991	-0,073	0,141
-60,563	149,109	0,072	0,069
-59,549	-200,000	-0,034	0,224
-58,534	35,041	-2,217	-1,367
-57,519	580,368	-1,144	-1,985
-56,505	-200,000	-0,276	-4,233
-55,490	733,005	0,934	1,771
-54,476	800,000	5,048	11,084
-53,461	-200,000	21,841	337,761
-52,446	800,000	758,589	2295,837
-51,432	533,004	1652,307	2770,422
-50,417	69,207	1650,086	1195,709
-49,403	16,573	1524,745	847,729
-48,388	10,766	1448,982	777,677
-47,373	19,063	1441,117	813,018
-46,359	14,124	1430,269	783,514
-45,344	9,081	1425,717	757,114
-44,330	8,984	1424,171	755,801
-43,315	9,009	1422,408	754,953
-42,300	8,994	1420,542	753,865
-41,286	9,036	1419,410	753,429
-40,271	8,942	1418,232	752,330
-39,257	8,970	1416,972	751,767
-38,242	8,980	1416,028	751,280
-37,227	8,994	1414,814	750,672
-36,213	9,029	1413,358	750,038
-35,198	9,022	1411,953	749,227
-34,184	9,075	1411,257	749,077
-33,169	8,919	1409,975	747,636
-32,154	9,021	1408,768	747,445
-31,140	8,955	1407,856	746,621
-30,125	9,010	1406,485	746,124
-29,111	8,979	1405,358	745,350
-28,096	9,006	1404,238	744,854
-27,082	8,926	1403,091	743,841
-26,067	8,924	1402,207	743,333
-25,052	8,987	1400,874	742,892
-24,038	8,998	1399,760	742,323
-23,023	8,905	1399,087	741,504
-22,009	8,922	1398,006	740,977
-20,994	8,944	1397,059	740,549
-19,979	8,958	1396,062	740,059
-18,965	8,958	1395,147	739,541
-17,950	8,873	1394,055	738,540
-16,936	8,856	1393,299	738,031
-15,921	8,819	1392,407	737,359
-14,906	8,865	1391,274	736,942
-13,892	8,949	1390,224	736,744
-12,877	8,885	1389,646	736,116
-11,863	8,834	1388,931	735,469
-10,848	8,866	1387,864	735,025
-9,833	8,780	1386,985	734,134
-8,819	8,775	1385,996	733,558
-7,804	8,784	1384,964	733,026
-6,790	8,746	1384,124	732,374
-5,775	8,754	1383,089	731,837
-4,760	8,816	1381,995	731,511
-3,746	8,769	1381,254	730,874
-2,731	8,784	1380,245	730,383
-1,717	8,804	1379,328	729,961
-0,702	8,775	1377,738	728,956
0,313	12,825	1289,379	700,586
1,327	28,745	681,916	406,208
2,342	44,318	117,533	75,922
3,356	0,782	16,503	8,302
4,371	-2,972	3,698	1,814
5,386	-10,507	1,304	0,606
6,400	398,936	0,368	0,545
7,415	-17,959	-0,122	-0,054
8,429	101,834	-0,269	-0,221
9,444	111,479	-0,299	-0,254
10,459	-59,484	-0,289	-0,087
11,473	107,976	-0,246	-0,207
12,488	39,031	-0,352	-0,221
13,502	124,395	-0,248	-0,219
14,517	25,372	-0,297	-0,173
15,531	-58,000	-0,368	-0,112
16,546	218,359	-0,201	-0,226
17,561	144,207	-0,255	-0,240
18,575	-61,729	-0,259	-0,076
19,590	-37,051	-0,258	-0,097
20,604	-2,721	-0,261	-0,128
21,619	171,986	-0,292	-0,295
22,634	120,375	-0,411	-0,359
23,648	157,539	-0,317	-0,309
24,663	256,861	-0,293	-0,355
25,677	7,069	-0,327	-0,171
26,692	17,035	-0,340	-0,189
27,707	40,360	-0,290	-0,183
28,721	19,836	-0,451	-0,255
29,736	168,300	-0,368	-0,368
30,750	42,534	-0,403	-0,257
31,765	118,824	-0,360	-0,313
32,780	29,497	-0,368	-0,220
33,794	3,774	-0,393	-0,201
34,809	-16,143	-0,305	-0,136
35,823	-31,465	-0,484	-0,191
36,838	156,524	-0,361	-0,350
37,853	383,385	-0,233	-0,338
38,867	36,264	-0,412	-0,255
39,882	64,454	-0,190	-0,134
40,896	180,437	-0,310	-0,320
41,911	79,697	-0,372	-0,281
42,926	8,135	-0,257	-0,135
43,940	249,741	-0,337	-0,402
44,955	265,201	-0,307	-0,376
45,969	-21,052	-0,314	-0,134
46,984	213,925	-0,248	-0,276
47,999	-78,337	-0,403	-0,096
49,013	29,593	-0,202	-0,120
50,028	144,381	-0,298	-0,279
51,042	62,810	-0,299	-0,210
52,057	81,146	-0,372	-0,282
53,071	145,337	-0,158	-0,149
54,086	-5,857	-0,349	-0,167
55,101	-39,336	-0,288	-0,106
56,115	23,095	-0,293	-0,168
57,130	-37,916	-0,382	-0,142
58,144	-29,316	-0,367	-0,147
59,159	122,794	-0,384	-0,337
60,174	-28,793	-0,287	-0,115
61,188	210,669	-0,330	-0,364
62,203	-67,398	-0,349	-0,096
63,217	35,091	-0,273	-0,167
64,232	40,677	-0,296	-0,187
65,247	-21,395	-0,376	-0,160
66,261	119,439	-0,354	-0,307
67,276	-1,939	-0,394	-0,194
68,290	-44,552	-0,258	-0,090
69,305	47,647	-0,188	-0,123
70,320	164,809	-0,214	-0,212
71,334	62,577	-0,268	-0,187
72,349	-44,313	-0,380	-0,133
73,363	109,516	-0,379	-0,318
74,378	143,974	-0,269	-0,251
75,393	25,720	-0,256	-0,149
76,407	-13,509	-0,387	-0,175
77,422	84,181	-0,236	-0,181
78,436	16,539	-0,297	-0,164
79,451	94,143	-0,324	-0,258
80,466	449,875	-0,179	-0,277
81,480	25,691	-0,337	-0,196
82,495	152,552	-0,205	-0,196
83,509	148,934	-0,091	-0,087
84,524	-83,077	-0,252	-0,056
85,539	-37,273	-0,210	-0,078
86,553	-72,212	-0,240	-0,062
87,568	-41,518	-0,397	-0,142
88,582	88,001	-0,328	-0,254
89,597	428,864	-0,178	-0,270
90,611	56,430	-0,244	-0,165
91,626	71,161	-0,234	-0,169
92,641	-110,073	-0,282	-0,041
93,655	-21,128	-0,277	-0,118
94,670	-59,293	-0,331	-0,099
95,684	87,614	-0,275	-0,213
96,699	102,918	-0,254	-0,208
97,714	176,743	-0,227	-0,231
98,728	-102,190	-0,227	-0,038
99,743	-19,743	-0,350	-0,151
100,757	-136,160	-0,374	-0,030
101,772	13,132	-0,296	-0,160
102,787	185,436	-0,210	-0,218
103,801	-111,576	-0,258	-0,036
104,816	-106,019	-0,340	-0,053
105,830	-37,057	-0,198	-0,074
106,845	194,728	-0,175	-0,186
107,860	-73,318	-0,310	-0,079
108,874	-29,546	-0,428	-0,170
109,889	26,627	-0,328	-0,192
110,903	50,113	-0,261	-0,172
111,918	582,223	-0,102	-0,176
112,933	80,045	-0,281	-0,211
113,947	67,073	-0,212	-0,151
114,962	-156,864	-0,281	0,012
115,976	57,559	-0,315	-0,214
116,991	91,614	-0,298	-0,233
118,006	-60,025	-0,228	-0,067
119,020	66,312	-0,222	-0,157
120,035	-45,431	-0,165	-0,057
121,049	227,165	-0,222	-0,252
122,064	132,902	-0,130	-0,117
123,079	63,522	-0,210	-0,147
124,093	-81,714	-0,275	-0,062
125,108	-50,968	-0,392	-0,128
126,122	-37,739	-0,177	-0,065
127,137	58,115	-0,253	-0,173
128,151	467,029	-0,081	-0,127
129,166	31,547	-0,187	-0,112
130,181	93,045	-0,311	-0,245
131,195	69,042	-0,240	-0,171
132,210	48,651	-0,231	-0,151
133,224	-84,641	-0,141	-0,031
134,239	70,256	-0,178	-0,128
135,254	-60,063	-0,308	-0,091
136,268	10,987	-0,254	-0,135
137,283	25,812	-0,272	-0,157
138,297	252,533	-0,248	-0,295
139,312	-78,457	-0,336	-0,080
140,327	526,485	-0,141	-0,233
141,341	95,982	-0,310	-0,247
142,356	-101,713	-0,321	-0,054
143,370	-21,990	-0,263	-0,111
144,385	79,170	-0,226	-0,169
145,400	442,637	-0,136	-0,208
146,414	214,861	-0,272	-0,300
147,429	476,056	-0,216	-0,341
148,443	111,175	-0,301	-0,252
149,458	52,551	-0,145	-0,096
150,473	-50,534	-0,341	-0,111
151,487	25,944	-0,242	-0,140
152,502	-21,794	-0,253	-0,107
153,516	89,481	-0,300	-0,233
154,531	415,100	-0,166	-0,246
155,546	186,610	-0,173	-0,179
156,560	22,893	-0,225	-0,128
157,575	-30,626	-0,358	-0,140
158,589	23,859	-0,197	-0,113
159,604	16,765	-0,286	-0,157
160,619	381,115	-0,147	-0,210
161,633	105,052	-0,125	-0,102
162,648	35,023	-0,178	-0,108
163,662	59,304	-0,167	-0,114
164,677	-111,731	-0,274	0,038
165,692	28,432	-0,159	-0,093
166,706	3,773	-0,373	-0,189
167,721	-3,817	-0,312	-0,150
168,735	168,141	-0,252	-0,249
169,750	-30,742	-0,200	-0,078
170,764	336,304	-0,150	-0,203
171,779	-33,085	-0,196	-0,075
172,794	205,019	-0,104	0,112
173,808	131,538	-0,163	-0,146
174,823	40,469	-0,346	-0,216
175,837	335,848	-0,102	-0,138
176,852	418,060	-0,178	-0,265
177,867	-84,872	-0,236	0,051
178,881	-69,910	-0,205	-0,054
179,896	279,028	-0,174	-0,216
180,910	180,150	-0,241	-0,246
181,925	27,290	-0,283	-0,164
182,940	127,372	-0,202	-0,178
183,954	-112,150	-0,259	-0,036
184,969	85,076	-0,192	-0,146
185,983	252,539	-0,157	-0,187
186,998	278,264	-0,076	-0,094
188,013	-98,187	-0,304	-0,054
189,027	257,103	-0,157	-0,187
190,042	31,627	-0,233	-0,138
191,056	451,153	-0,185	-0,284
192,071	105,912	-0,179	-0,147
193,086	-21,748	-0,290	-0,122
194,100	-67,946	-0,223	-0,060
195,115	-102,865	-0,265	-0,043
196,129	-20,763	-0,290	-0,123
197,144	-24,694	-0,351	-0,144
198,159	800,000	-0,056	-0,125
199,173	43,398	-0,207	-0,131
200,188	303,735	-0,167	-0,216
201,202	-15,313	-0,094	-0,042
202,217	247,109	-0,092	-0,108
203,232	48,811	-0,264	-0,172
204,246	-9,597	-0,386	-0,178
205,261	70,992	-0,201	-0,144
206,275	-28,143	-0,143	-0,057
207,290	-40,769	-0,082	-0,029
208,304	36,095	-0,195	-0,119
209,319	40,875	-0,206	-0,128
210,334	-74,911	-0,207	-0,051
211,348	-26,493	-0,254	-0,103
212,363	21,437	-0,206	-0,115
213,377	55,544	-0,241	-0,161
214,392	800,000	-0,059	-0,179
215,407	199,530	-0,210	-0,223
216,421	89,634	-0,121	-0,094
217,436	-82,497	-0,177	-0,039
218,450	187,829	-0,099	-0,103
219,465	99,540	-0,143	-0,114
220,480	800,000	-0,081	-0,201
221,494	-200,000	0,036	-0,215
222,509	416,299	-0,077	-0,113
223,523	-79,725	-0,085	0,020
224,538	56,677	-0,181	-0,122
225,553	619,412	-0,106	-0,186
226,567	30,072	-0,231	-0,136
227,582	171,967	-0,189	-0,188
228,596	111,260	-0,247	-0,205
229,611	-35,659	-0,153	-0,057
230,626	-4,918	-0,158	-0,075
231,640	-52,302	-0,129	-0,041
232,655	-88,202	-0,310	-0,064
233,669	297,070	-0,151	-0,191
234,684	-61,263	-0,244	-0,070
235,699	-28,710	-0,212	-0,084
236,713	800,000	-0,064	-0,150
237,728	708,647	-0,043	-0,078
238,742	-95,976	-0,076	0,014
239,757	-200,000	-0,054	-0,323
240,772	6,495	-0,158	-0,081
241,786	800,000	-0,084	-0,199
242,801	-67,701	-0,242	-0,065
243,815	231,514	-0,148	-0,168
244,830	785,556	-0,047	-0,090
245,844	-66,448	-0,259	0,070
246,859	800,000	-0,066	-0,190
247,874	800,000	-0,079	-0,189
248,888	138,158	-0,172	-0,156
249,903	155,987	-0,154	-0,147
250,917	-63,832	-0,072	-0,020
251,932	800,000	-0,072	-0,145
252,947	30,019	-0,274	-0,161
253,961	-137,478	-0,253	-0,019
254,976	45,588	-0,207	-0,132
255,990	33,336	-0,203	-0,121
257,005	127,924	-0,111	-0,097
258,020	94,738	-0,215	-0,168
259,034	800,000	-0,044	-0,111
260,049	158,045	-0,154	-0,147
261,063	112,647	-0,180	-0,150
262,078	362,841	-0,088	-0,122
263,093	378,422	-0,083	-0,117
264,107	105,495	-0,244	-0,198
265,122	361,250	-0,086	-0,119
266,136	43,498	-0,243	-0,152
267,151	-118,945	-0,161	-0,019
268,166	800,000	-0,052	-0,158
269,180	-52,312	-0,147	-0,047
270,195	800,000	-0,127	-0,289
271,209	-47,604	-0,194	-0,064
272,224	139,251	-0,119	-0,108
273,239	-67,908	-0,208	-0,055
274,253	-117,091	-0,110	0,014
275,268	309,412	-0,112	-0,145
276,282	342,267	-0,115	-0,156
277,297	-81,529	-0,185	-0,041
278,312	56,261	-0,113	-0,075
279,326	199,903	-0,126	-0,133
280,341	150,425	-0,094	-0,088
281,355	-23,044	0,071	0,029
282,370	36,036	-0,187	-0,113
283,384	138,779	-0,122	-0,111
284,399	556,918	-0,126	-0,209
285,414	16,306	-0,189	-0,102
286,428	-128,626	-0,127	0,012
287,443	171,815	-0,126	-0,124
288,457	-60,741	-0,121	0,035
289,472	61,171	-0,026	-0,018
290,487	69,109	-0,169	-0,119
291,501	-200,000	-0,056	-0,233
292,516	218,951	-0,093	-0,102
293,530	41,126	-0,070	0,043
294,545	477,308	-0,072	-0,112
295,560	-123,534	-0,129	-0,014
296,574	87,843	-0,145	-0,110
297,589	523,763	-0,111	-0,180
298,603	36,310	-0,179	-0,108
299,618	-134,553	-0,197	-0,016
300,633	145,593	-0,201	-0,185
301,647	206,002	-0,123	-0,131
302,662	218,713	-0,094	-0,104
303,676	73,217	-0,101	-0,073
304,691	0,826	-0,199	-0,098
305,706	-56,516	-0,160	-0,048
306,720	86,488	-0,158	-0,120
307,735	116,525	-0,039	0,033
308,749	37,154	-0,089	-0,054
309,764	15,184	-0,091	0,049
310,779	-117,503	-0,139	-0,017
311,793	99,620	-0,139	-0,110
312,808	178,896	-0,196	-0,197
313,822	201,659	-0,087	-0,092
314,837	-69,440	-0,079	-0,021
315,852	736,322	-0,033	-0,061
316,866	33,155	-0,064	0,038
317,881	302,751	-0,085	-0,108
318,895	-127,137	-0,311	0,031
319,910	-58,598	-0,116	0,034
320,925	25,065	-0,191	-0,108
321,939	800,000	-0,065	-0,177
322,954	78,849	-0,171	-0,125
323,968	800,000	-0,044	-0,101
324,983	260,995	-0,099	-0,117
325,997	-76,454	-0,126	-0,030
327,012	731,758	-0,057	-0,105
328,027	141,087	-0,050	-0,045
329,041	102,963	-0,191	-0,153
330,056	-107,122	-0,052	0,008
331,070	212,186	-0,109	-0,117
332,085	-175,653	-0,231	0,004
333,100	517,054	-0,086	-0,139
334,114	213,358	-0,174	-0,189
335,129	-171,841	-0,202	0,004
336,143	178,233	-0,138	-0,138
337,158	141,365	-0,071	-0,064
338,173	-200,000	-0,034	-0,121
339,187	-70,768	-0,204	-0,052
340,202	0,385	-0,085	-0,042
341,216	624,967	-0,131	-0,228
342,231	374,516	-0,177	-0,248
343,246	106,983	-0,156	-0,127
344,260	444,243	-0,112	-0,168
345,275	28,122	-0,207	-0,119
346,289	-130,971	-0,185	-0,017
347,304	-33,254	-0,206	-0,078
348,319	800,000	-0,073	-0,198
349,333	85,389	-0,111	-0,084
350,348	-200,000	0,027	-0,115
351,362	800,000	-0,070	-0,167
352,377	800,000	-0,069	-0,131
353,392	-76,548	-0,114	0,027
354,406	713,897	-0,064	-0,116
355,421	206,887	1306,455	1393,415
356,435	159,133	1466,130	1393,894
