DTS Sentinel unit serial number:	SN410029Multiplexer serial number:	ORYXHardware model number:	OX2-SRSoftware version number:	ORYX F/W v4,00 Oryx Data Collector v3.7.2.0data status	okinstallation	B3 Nyhavnadifferential loss correction	single-endedforward channel	channel 1reverse channel	N/Adate	2023/12/04time	02:32:30forward acquisition time	300,00reverse acquisition time	0,00gamma	499,1914k internal	0,3205k external	0,3205temperature offset calibration	1,0000default loss term (dB/km)	0,3820temperature slope calibration	1,0000multiplexer offset coefficient	1,0000multiplexer slope coefficient	1,0000fibre end	0,00T internal ref (°C)	12,26T ext. ref 1 (°C)	-2,92T ext. ref 2 (°C)	-2,95length (m)	temperature (°C)	Stokes	anti-Stokes-744,400	49,257	-0,308	-0,210
-743,385	-200,000	0,016	0,379
-742,371	269,239	-0,193	-0,247
-741,356	-200,000	-0,117	0,380
-740,342	654,517	-0,145	-0,272
-739,327	-200,000	-0,061	0,294
-738,312	800,000	-0,103	-0,299
-737,298	800,000	-0,156	0,348
-736,283	86,595	-0,260	-0,208
-735,269	-200,000	0,003	0,255
-734,254	465,667	-0,183	-0,299
-733,239	800,000	-0,036	-0,085
-732,225	800,000	-0,063	-0,191
-731,210	800,000	0,107	0,234
-730,196	-30,460	-0,030	-0,012
-729,181	800,000	-0,018	-0,055
-728,167	-200,000	-0,005	-0,024
-727,152	7,987	0,076	-0,041
-726,137	377,913	0,020	-0,030
-725,123	-200,000	-0,033	-0,187
-724,108	384,147	-0,069	-0,104
-723,094	344,173	-0,092	-0,131
-722,079	-200,000	-0,012	-0,091
-721,064	-200,000	-0,011	0,036
-720,050	296,307	-0,091	0,122
-719,035	-200,000	0,004	-0,038
-718,021	-200,000	0,001	-0,037
-717,006	-200,000	0,010	-0,106
-715,991	-152,711	-0,079	0,004
-714,977	-19,804	-0,106	0,048
-713,962	90,349	0,026	-0,021
-712,948	-87,445	-0,081	0,018
-711,933	154,213	-0,099	-0,099
-710,918	226,023	0,032	-0,038
-709,904	272,423	-0,059	0,075
-708,889	561,948	0,042	-0,074
-707,875	18,516	-0,063	-0,036
-706,860	-200,000	0,043	-0,166
-705,845	187,098	-0,070	-0,076
-704,831	710,222	-0,054	-0,105
-703,816	-118,780	-0,220	0,028
-702,802	212,274	-0,112	0,128
-701,787	-200,000	-0,035	-0,145
-700,772	-35,945	-0,070	-0,027
-699,758	800,000	0,007	-0,021
-698,743	-200,000	0,059	0,294
-697,729	-111,174	0,079	-0,012
-696,714	33,468	0,021	-0,013
-695,699	-98,874	-0,146	0,027
-694,685	-44,256	0,079	-0,029
-693,670	800,000	-0,058	-0,133
-692,656	76,593	-0,138	-0,106
-691,641	800,000	-0,076	-0,153
-690,627	-200,000	-0,001	-0,007
-689,612	124,068	0,123	0,112
-688,597	398,290	-0,129	-0,196
-687,583	-200,000	-0,016	-0,130
-686,568	800,000	-0,067	-0,153
-685,554	46,985	-0,131	-0,088
-684,539	-200,000	-0,010	-0,138
-683,524	-200,000	0,012	-0,044
-682,510	-30,126	0,165	0,068
-681,495	42,625	-0,106	-0,070
-680,481	800,000	-0,022	-0,060
-679,466	800,000	-0,044	0,136
-678,451	-7,373	-0,085	0,041
-677,437	-125,003	0,044	-0,005
-676,422	800,000	0,034	0,086
-675,408	-200,000	-0,024	0,111
-674,393	455,106	0,011	-0,017
-673,378	48,535	0,076	-0,052
-672,364	-46,003	-0,135	0,048
-671,349	-140,792	-0,179	-0,013
-670,335	586,637	-0,022	-0,039
-669,320	-200,000	0,007	0,033
-668,305	-200,000	0,039	0,159
-667,291	-109,424	-0,126	0,019
-666,276	-126,066	-0,147	0,016
-665,262	481,918	-0,033	0,054
-664,247	800,000	-0,020	-0,064
-663,232	141,998	0,087	-0,084
-662,218	331,583	0,100	0,140
-661,203	800,000	0,054	0,122
-660,189	-140,225	-0,105	-0,008
-659,174	-108,381	-0,105	-0,016
-658,159	-98,284	-0,066	0,012
-657,145	220,151	-0,025	-0,029
-656,130	-53,298	-0,175	0,058
-655,116	800,000	0,025	0,077
-654,101	-37,272	0,046	-0,018
-653,086	-163,436	-0,086	-0,003
-652,072	-130,810	-0,025	0,002
-651,057	537,150	0,032	-0,056
-650,043	-84,213	-0,086	0,020
-649,028	-200,000	0,028	-0,131
-648,014	-200,000	0,041	-0,213
-646,999	-200,000	-0,013	0,094
-645,984	-200,000	-0,010	0,047
-644,970	-200,000	0,012	0,073
-643,955	42,296	0,018	0,012
-642,941	-109,124	0,100	0,015
-641,926	-19,717	0,106	-0,047
-640,911	175,268	-0,030	0,032
-639,897	39,188	0,163	0,105
-638,882	-82,116	-0,157	-0,037
-637,868	-170,484	-0,106	0,003
-636,853	158,171	-0,123	-0,123
-635,838	-70,428	0,063	-0,017
-634,824	-200,000	-0,021	-0,082
-633,809	-110,106	0,054	-0,008
-632,795	118,343	-0,039	0,035
-631,780	800,000	-0,040	0,106
-630,765	6,938	0,122	-0,065
-629,751	37,533	0,022	-0,014
-628,736	800,000	-0,027	-0,068
-627,722	184,849	-0,060	0,064
-626,707	-200,000	-0,001	0,018
-625,692	20,010	0,064	-0,037
-624,678	4,105	-0,023	0,012
-623,663	800,000	0,047	0,129
-622,649	44,718	-0,079	-0,052
-621,634	142,502	0,089	-0,086
-620,619	-158,968	-0,126	0,005
-619,605	-114,632	0,029	0,004
-618,590	-141,660	-0,125	-0,009
-617,576	800,000	-0,062	-0,145
-616,561	-200,000	0,016	-0,057
-615,546	800,000	-0,043	0,109
-614,532	448,183	0,011	0,017
-613,517	-200,000	0,039	-0,153
-612,503	143,085	-0,066	0,063
-611,488	-82,464	0,128	0,030
-610,474	-200,000	0,007	0,093
-609,459	-8,934	-0,162	-0,078
-608,444	404,163	-0,030	0,047
-607,430	216,643	0,055	-0,064
-606,415	174,610	-0,097	-0,101
-605,401	50,089	-0,058	-0,040
-604,386	510,634	-0,047	-0,079
-603,371	23,726	0,106	-0,063
-602,357	-200,000	-0,014	0,049
-601,342	-111,478	-0,041	-0,006
-600,328	66,937	0,046	-0,033
-599,313	-14,747	0,017	-0,008
-598,298	316,842	-0,075	-0,102
-597,284	128,114	0,098	0,090
-596,269	102,924	0,057	-0,048
-595,255	300,717	-0,027	0,037
-594,240	20,209	-0,078	-0,046
-593,225	696,677	-0,088	-0,167
-592,211	296,265	-0,095	-0,126
-591,196	-76,459	-0,112	0,028
-590,182	800,000	-0,013	-0,039
-589,167	-146,096	-0,054	0,003
-588,152	536,989	-0,003	0,005
-587,138	-200,000	-0,002	0,021
-586,123	-200,000	-0,015	0,069
-585,109	-34,868	-0,051	0,020
-584,094	77,875	-0,055	-0,042
-583,079	-200,000	-0,005	-0,051
-582,065	-76,868	0,090	-0,022
-581,050	86,307	-0,085	0,068
-580,036	-33,907	-0,022	-0,009
-579,021	10,983	0,094	-0,052
-578,006	-80,004	-0,148	0,036
-576,992	20,886	-0,006	0,004
-575,977	-200,000	0,057	0,221
-574,963	86,399	0,177	0,141
-573,948	238,039	0,050	0,061
-572,934	-57,820	-0,052	-0,016
-571,919	9,214	-0,065	-0,035
-570,904	-48,441	0,042	-0,014
-569,890	-200,000	0,026	-0,131
-568,875	800,000	0,067	0,194
-567,861	147,248	-0,016	0,016
-566,846	-146,523	-0,066	-0,004
-565,831	-200,000	0,002	-0,018
-564,817	-146,492	-0,146	-0,009
-563,802	-200,000	-0,001	-0,121
-562,788	-94,989	-0,092	0,018
-561,773	-200,000	-0,001	-0,020
-560,758	-13,131	-0,017	0,008
-559,744	-121,805	-0,083	-0,010
-558,729	800,000	-0,045	0,105
-557,715	-110,598	0,049	0,007
-556,700	800,000	-0,021	-0,054
-555,685	69,179	-0,092	0,068
-554,671	268,002	0,166	-0,210
-553,656	-57,867	-0,109	0,034
-552,642	178,623	0,160	0,169
-551,627	-175,042	-0,100	0,002
-550,612	522,537	-0,024	-0,041
-549,598	-140,612	-0,242	0,018
-548,583	133,937	-0,060	-0,056
-547,569	-200,000	0,024	-0,115
-546,554	-138,737	0,196	0,015
-545,539	-21,501	0,032	-0,014
-544,525	582,888	-0,037	-0,066
-543,510	570,643	-0,081	-0,143
-542,496	-200,000	-0,026	-0,129
-541,481	800,000	-0,006	-0,015
-540,466	-34,778	0,096	0,038
-539,452	-200,000	0,014	0,091
-538,437	-200,000	0,015	0,142
-537,423	-200,000	0,001	-0,027
-536,408	-200,000	-0,011	-0,076
-535,393	764,792	-0,028	0,055
-534,379	800,000	0,041	-0,109
-533,364	-49,185	0,031	-0,011
-532,350	-200,000	-0,051	0,243
-531,335	-23,701	-0,054	-0,023
-530,321	-200,000	0,010	-0,062
-529,306	635,977	-0,056	0,103
-528,291	-121,347	-0,075	0,009
-527,277	171,695	-0,041	-0,043
-526,262	-52,895	-0,080	0,026
-525,248	92,106	0,052	-0,042
-524,233	-200,000	-0,011	0,076
-523,218	-79,901	-0,068	0,016
-522,204	272,365	0,005	-0,006
-521,189	422,428	0,090	-0,140
-520,175	800,000	-0,029	-0,064
-519,160	800,000	0,084	0,185
-518,145	-200,000	-0,005	0,038
-517,131	800,000	0,024	-0,057
-516,116	100,602	0,021	0,018
-515,102	6,207	-0,031	-0,016
-514,087	59,522	-0,024	-0,017
-513,072	-200,000	-0,013	-0,059
-512,058	651,598	-0,049	-0,090
-511,043	800,000	-0,011	0,031
-510,029	143,359	0,041	-0,039
-509,014	-200,000	-0,027	-0,237
-507,999	-23,648	0,105	0,045
-506,985	102,708	-0,047	0,040
-505,970	242,481	-0,023	-0,028
-504,956	-200,000	0,013	0,128
-503,941	800,000	-0,045	-0,116
-502,926	151,875	-0,108	0,106
-501,912	94,255	0,134	0,109
-500,897	-200,000	-0,045	0,224
-499,883	-90,113	-0,090	0,019
-498,868	-200,000	0,007	0,091
-497,853	64,021	-0,150	-0,109
-496,839	120,762	-0,057	-0,051
-495,824	-14,216	-0,097	0,045
-494,810	-200,000	-0,021	-0,232
-493,795	-200,000	-0,028	0,096
-492,781	376,920	-0,062	-0,092
-491,766	-200,000	-0,029	-0,119
-490,751	-62,224	0,057	-0,017
-489,737	800,000	0,013	-0,040
-488,722	157,961	0,078	-0,078
-487,708	130,192	0,089	0,082
-486,693	-28,353	0,171	0,071
-485,678	138,296	0,010	0,009
-484,664	-42,833	-0,058	-0,021
-483,649	-157,991	-0,143	0,006
-482,635	-200,000	0,034	-0,155
-481,620	800,000	-0,023	-0,051
-480,605	-200,000	0,008	-0,030
-479,591	529,948	0,079	0,134
-478,576	-15,501	-0,137	0,063
-477,562	399,930	0,037	0,056
-476,547	-187,743	-0,166	0,002
-475,532	-162,084	-0,060	-0,002
-474,518	0,777	0,139	0,072
-473,503	754,718	0,068	0,132
-472,489	-200,000	0,001	0,017
-471,474	800,000	-0,075	0,159
-470,459	-200,000	-0,016	-0,083
-469,445	-145,916	-0,069	0,004
-468,430	-200,000	0,025	-0,183
-467,416	173,488	-0,041	-0,042
-466,401	-39,329	0,084	0,032
-465,386	-2,733	0,014	-0,007
-464,372	-200,000	-0,019	0,110
-463,357	6,486	-0,052	-0,028
-462,343	696,025	-0,064	-0,121
-461,328	333,975	-0,084	-0,117
-460,313	274,670	0,030	-0,039
-459,299	-200,000	0,024	0,077
-458,284	800,000	0,027	0,081
-457,270	-200,000	-0,005	0,021
-456,255	-144,464	-0,061	-0,004
-455,241	-28,002	-0,074	0,031
-454,226	190,150	0,048	0,052
-453,211	-68,057	0,031	-0,009
-452,197	59,539	-0,072	-0,051
-451,182	357,618	0,019	-0,028
-450,168	26,805	0,150	-0,090
-449,153	-17,919	0,041	-0,018
-448,138	-80,277	0,046	0,011
-447,124	-137,343	-0,051	0,004
-446,109	-118,741	0,091	-0,011
-445,095	800,000	0,039	-0,118
-444,080	51,211	-0,018	-0,012
-443,065	-200,000	-0,010	0,165
-442,051	77,127	-0,054	0,041
-441,036	-153,319	-0,076	-0,004
-440,022	800,000	-0,027	-0,067
-439,007	-200,000	0,025	-0,139
-437,992	43,717	0,059	0,039
-436,978	800,000	0,042	0,086
-435,963	120,339	0,194	0,173
-434,949	-121,125	-0,079	-0,009
-433,934	-200,000	-0,010	-0,149
-432,919	-200,000	0,006	0,180
-431,905	800,000	0,055	0,145
-430,890	142,187	-0,113	-0,108
-429,876	800,000	0,003	-0,009
-428,861	-200,000	0,029	0,150
-427,846	52,053	0,057	0,039
-426,832	-200,000	0,006	-0,192
-425,817	-23,466	0,110	-0,047
-424,803	72,691	0,124	0,093
-423,788	800,000	-0,036	0,082
-422,773	-111,133	-0,095	0,014
-421,759	-55,233	0,124	0,040
-420,744	269,366	0,055	-0,069
-419,730	119,386	-0,015	-0,013
-418,715	-156,590	-0,114	0,005
-417,701	-200,000	-0,006	-0,021
-416,686	15,475	-0,058	0,033
-415,671	-179,639	0,013	-0,000
-414,657	-91,133	-0,085	-0,017
-413,642	24,441	0,129	0,077
-412,628	-200,000	0,038	-0,133
-411,613	62,130	-0,046	-0,033
-410,598	2,733	0,065	-0,034
-409,584	-52,239	-0,060	-0,020
-408,569	800,000	0,051	0,113
-407,555	-200,000	0,014	0,209
-406,540	137,636	0,099	0,093
-405,525	800,000	-0,019	-0,055
-404,511	-107,825	-0,122	0,019
-403,496	-7,847	0,037	0,018
-402,482	-104,705	-0,132	-0,022
-401,467	253,198	0,128	0,157
-400,452	298,672	0,076	-0,100
-399,438	800,000	0,070	0,150
-398,423	29,570	0,075	0,045
-397,409	-41,155	-0,075	-0,028
-396,394	-91,266	0,055	-0,011
-395,379	-146,081	0,021	-0,001
-394,365	-122,556	0,073	0,008
-393,350	-200,000	0,016	-0,072
-392,336	-43,275	-0,091	-0,033
-391,321	-200,000	-0,021	-0,077
-390,306	-47,517	0,059	0,021
-389,292	-149,328	-0,115	-0,006
-388,277	-200,000	0,012	-0,057
-387,263	66,525	0,057	-0,041
-386,248	48,264	0,107	-0,072
-385,233	-57,397	0,198	0,062
-384,219	185,118	-0,063	0,067
-383,204	112,819	0,133	0,115
-382,190	81,838	0,115	-0,089
-381,175	114,474	-0,049	0,043
-380,160	1,938	0,064	0,033
-379,146	155,594	0,037	0,037
-378,131	312,360	-0,022	-0,030
-377,117	-71,787	-0,090	-0,024
-376,102	284,720	0,063	-0,081
-375,088	-105,413	-0,053	-0,009
-374,073	-200,000	-0,002	0,009
-373,058	71,190	0,067	-0,050
-372,044	400,101	0,110	0,165
-371,029	41,368	0,053	-0,034
-370,015	396,113	-0,031	0,047
-369,000	416,466	0,059	0,090
-367,985	639,148	-0,065	-0,119
-366,971	-109,935	-0,032	0,005
-365,956	-56,869	0,100	-0,032
-364,942	-200,000	-0,004	-0,082
-363,927	-61,889	-0,190	-0,057
-362,912	-200,000	0,009	0,070
-361,898	151,054	0,027	-0,027
-360,883	800,000	0,020	-0,057
-359,869	-152,144	-0,059	-0,003
-358,854	-15,349	0,038	-0,017
-357,839	-120,209	-0,129	0,016
-356,825	800,000	-0,035	0,086
-355,810	-84,323	-0,033	0,007
-354,796	-173,061	-0,091	0,002
-353,781	800,000	-0,014	-0,042
-352,766	-200,000	0,024	0,082
-351,752	-149,510	-0,031	-0,002
-350,737	-162,707	0,117	0,004
-349,723	721,518	0,042	0,081
-348,708	800,000	0,047	0,107
-347,693	-200,000	0,012	-0,051
-346,679	-200,000	0,000	-0,003
-345,664	59,607	-0,174	0,123
-344,650	314,727	0,017	-0,023
-343,635	800,000	0,048	0,129
-342,620	254,046	0,054	0,067
-341,606	-200,000	-0,029	0,279
-340,591	800,000	0,096	-0,195
-339,577	-200,000	-0,006	-0,102
-338,562	-200,000	0,007	-0,090
-337,548	-200,000	0,015	-0,134
-336,533	197,018	0,012	-0,013
-335,518	-200,000	-0,005	0,116
-334,504	-146,143	0,058	0,004
-333,489	-200,000	0,019	-0,068
-332,475	97,529	0,160	0,131
-331,460	-138,530	-0,087	0,007
-330,445	-134,618	0,089	-0,008
-329,431	-49,431	0,091	-0,031
-328,416	-98,557	0,039	-0,007
-327,402	381,293	0,043	0,064
-326,387	-36,831	0,071	0,027
-325,372	228,730	-0,078	-0,091
-324,358	-71,759	-0,043	0,011
-323,343	-144,838	-0,200	0,013
-322,329	34,582	0,083	-0,052
-321,314	-200,000	0,003	0,095
-320,299	-135,402	0,106	-0,009
-319,285	1,671	0,075	0,038
-318,270	211,358	-0,041	-0,046
-317,256	111,971	-0,035	-0,030
-316,241	-30,021	0,065	0,026
-315,226	-46,086	-0,157	0,055
-314,212	193,778	0,096	0,104
-313,197	-200,000	-0,001	0,076
-312,183	133,353	0,019	0,018
-311,168	-200,000	-0,024	0,100
-310,153	-13,421	-0,068	-0,031
-309,139	304,918	-0,030	-0,039
-308,124	-39,309	-0,074	-0,028
-307,110	-37,937	0,146	-0,055
-306,095	-200,000	0,003	0,140
-305,080	-78,152	0,031	-0,008
-304,066	698,207	-0,052	0,097
-303,051	108,635	0,083	-0,071
-302,037	-200,000	0,002	0,067
-301,022	108,190	-0,057	0,049
-300,008	-200,000	0,029	-0,125
-298,993	-200,000	0,010	-0,054
-297,978	-128,486	-0,049	0,005
-296,964	307,076	-0,019	-0,026
-295,949	-200,000	0,024	-0,111
-294,935	-200,000	-0,011	-0,103
-293,920	800,000	-0,028	-0,072
-292,905	280,510	0,049	-0,063
-291,891	-200,000	-0,006	-0,022
-290,876	800,000	-0,013	0,039
-289,862	-102,385	-0,195	0,033
-288,847	19,487	0,057	-0,033
-287,832	-196,682	-0,027	0,000
-286,818	82,010	0,109	-0,084
-285,803	-104,587	-0,101	0,017
-284,789	336,952	-0,018	0,025
-283,774	212,473	-0,087	0,098
-282,759	-58,187	-0,049	-0,015
-281,745	41,873	-0,095	-0,062
-280,730	800,000	-0,032	0,070
-279,716	226,487	0,064	0,074
-278,701	150,293	-0,060	0,059
-277,686	-74,095	-0,025	-0,006
-276,672	-200,000	-0,008	0,076
-275,657	800,000	0,066	0,132
-274,643	-71,241	-0,104	-0,028
-273,628	-87,512	-0,076	0,016
-272,613	-86,053	-0,101	0,022
-271,599	159,807	-0,064	-0,063
-270,584	-21,842	0,116	-0,050
-269,570	-14,729	0,108	0,049
-268,555	-200,000	0,029	0,102
-267,540	119,379	-0,068	0,060
-266,526	-200,000	0,018	-0,135
-265,511	-26,343	0,087	0,036
-264,497	-151,173	0,090	-0,005
-263,482	58,099	0,136	0,095
-262,467	-34,961	-0,035	0,014
-261,453	-200,000	-0,017	-0,111
-260,438	339,355	-0,010	0,014
-259,424	-200,000	-0,001	0,044
-258,409	-200,000	-0,018	-0,118
-257,395	-132,678	-0,068	-0,006
-256,380	201,744	0,049	0,054
-255,365	140,180	0,115	0,108
-254,351	-200,000	-0,018	0,125
-253,336	102,753	0,003	-0,003
-252,322	41,604	-0,132	0,085
-251,307	-200,000	0,025	0,081
-250,292	-200,000	0,008	0,074
-249,278	628,516	0,054	0,097
-248,263	442,081	0,061	0,096
-247,249	394,437	0,021	-0,031
-246,234	-200,000	-0,006	-0,081
-245,219	-52,396	-0,065	0,021
-244,205	-134,802	0,039	-0,003
-243,190	800,000	0,042	-0,110
-242,176	-47,089	-0,061	-0,021
-241,161	-200,000	0,003	0,015
-240,146	335,700	0,058	-0,081
-239,132	800,000	-0,042	-0,122
-238,117	800,000	0,068	-0,202
-237,103	-128,533	0,029	-0,003
-236,088	800,000	0,036	-0,089
-235,073	185,587	-0,050	-0,053
-234,059	-200,000	0,025	-0,103
-233,044	24,180	-0,035	-0,021
-232,030	-117,232	-0,078	0,010
-231,015	583,788	-0,056	-0,098
-230,000	103,162	0,072	-0,060
-228,986	63,455	0,074	0,053
-227,971	800,000	0,021	0,065
-226,957	-62,213	0,045	0,013
-225,942	36,422	0,204	-0,128
-224,927	175,756	-0,050	-0,051
-223,913	800,000	0,006	-0,017
-222,898	-52,792	-0,160	-0,052
-221,884	263,634	0,035	0,044
-220,869	800,000	-0,033	-0,099
-219,855	551,536	0,039	-0,068
-218,840	-200,000	-0,011	0,074
-217,825	323,090	-0,075	0,102
-216,811	754,979	-0,050	0,096
-215,796	463,164	-0,077	-0,122
-214,782	277,664	-0,037	0,047
-213,767	-188,420	0,110	-0,001
-212,752	46,695	0,138	0,091
-211,738	59,212	0,119	0,083
-210,723	233,580	0,037	-0,043
-209,709	205,509	-0,013	0,014
-208,694	-161,800	-0,088	-0,003
-207,679	285,124	-0,050	0,064
-206,665	-200,000	0,001	0,014
-205,650	-122,574	0,042	0,005
-204,636	800,000	-0,027	0,057
-203,621	-37,140	-0,066	-0,025
-202,606	218,693	-0,123	-0,140
-201,592	208,003	-0,047	-0,052
-200,577	-75,316	-0,077	0,019
-199,563	-126,053	0,057	0,006
-198,548	-183,713	0,181	-0,002
-197,533	108,494	-0,024	-0,020
-196,519	129,308	-0,080	0,073
-195,504	-54,645	0,039	0,012
-194,490	568,095	-0,040	0,069
-193,475	-200,000	0,008	0,039
-192,460	136,758	0,077	0,071
-191,446	76,787	0,011	0,009
-190,431	-73,945	0,158	-0,040
-189,417	800,000	0,083	-0,203
-188,402	-200,000	0,018	0,138
-187,387	-64,223	-0,167	0,048
-186,373	223,512	0,059	-0,068
-185,358	1,681	0,099	0,051
-184,344	-200,000	-0,011	-0,047
-183,329	372,263	-0,111	0,161
-182,315	-43,453	0,035	0,012
-181,300	203,886	0,067	-0,074
-180,285	542,506	-0,074	-0,127
-179,271	-200,000	0,023	-0,203
-178,256	456,763	0,011	0,017
-177,242	-116,376	0,033	0,004
-176,227	-101,930	-0,068	0,012
-175,212	-200,000	0,043	0,137
-174,198	63,646	0,018	-0,013
-173,183	800,000	0,038	-0,105
-172,169	591,722	-0,024	-0,042
-171,154	800,000	0,011	-0,033
-170,139	-10,771	0,116	-0,054
-169,125	-64,604	0,067	0,019
-168,110	142,283	-0,071	-0,067
-167,096	54,841	0,109	0,074
-166,081	402,236	-0,009	-0,013
-165,066	45,010	-0,036	0,023
-164,052	-200,000	-0,007	0,090
-163,037	-200,000	0,000	0,008
-162,023	-200,000	0,006	0,033
-161,008	-41,689	-0,048	0,017
-159,993	-23,570	0,039	0,016
-158,979	213,521	-0,012	0,013
-157,964	381,049	-0,047	-0,069
-156,950	-56,934	-0,167	0,052
-155,935	142,847	0,088	-0,083
-154,920	800,000	0,055	0,143
-153,906	-28,420	0,151	0,062
-152,891	800,000	-0,037	-0,099
-151,877	-200,000	-0,024	-0,197
-150,862	-49,810	-0,149	0,050
-149,847	-22,837	-0,039	-0,017
-148,833	282,791	0,031	-0,039
-147,818	-33,538	-0,121	0,047
-146,804	-59,519	0,056	0,017
-145,789	-84,518	-0,131	0,029
-144,775	-78,951	0,072	0,017
-143,760	53,145	-0,121	0,082
-142,745	-104,522	0,087	0,014
-141,731	551,121	0,031	-0,054
-140,716	-200,000	-0,011	0,042
-139,702	-145,890	0,086	0,005
-138,687	315,235	-0,034	0,045
-137,672	-200,000	-0,001	0,043
-136,658	-119,838	0,192	0,023
-135,643	224,059	-0,049	-0,056
-134,629	-48,274	-0,016	0,005
-133,614	-111,255	-0,094	0,014
-132,599	462,726	-0,083	0,132
-131,585	-0,891	0,061	0,030
-130,570	188,012	-0,056	0,060
-129,556	-0,291	0,108	-0,054
-128,541	85,872	-0,104	0,081
-127,526	-200,000	-0,022	-0,088
-126,512	800,000	0,041	0,084
-125,497	-42,500	0,100	0,036
-124,483	-38,780	0,154	0,057
-123,468	-152,373	-0,170	-0,009
-122,453	-200,000	0,006	-0,028
-121,439	800,000	0,014	0,031
-120,424	-200,000	0,012	-0,044
-119,410	-77,919	0,085	0,021
-118,395	342,552	0,017	0,023
-117,380	-106,866	-0,075	0,012
-116,366	310,869	-0,108	-0,143
-115,351	111,046	0,184	-0,157
-114,337	309,992	-0,132	-0,175
-113,322	-77,832	0,061	0,015
-112,307	-200,000	-0,000	0,003
-111,293	-59,290	-0,067	-0,020
-110,278	-59,096	0,147	0,045
-109,264	-161,999	-0,043	-0,001
-108,249	606,465	-0,043	-0,077
-107,234	26,635	0,078	-0,046
-106,220	-200,000	-0,007	0,096
-105,205	324,104	-0,041	-0,056
-104,191	-75,123	0,051	-0,013
-103,176	220,466	0,046	-0,052
-102,162	800,000	0,080	-0,174
-101,147	191,733	-0,078	-0,083
-100,132	-68,982	-0,139	-0,038
-99,118	-113,127	-0,067	0,009
-98,103	-200,000	0,054	0,221
-97,089	-7,121	0,128	-0,061
-96,074	800,000	0,025	0,078
-95,059	153,318	0,017	-0,017
-94,045	-142,295	-0,075	-0,005
-93,030	-86,263	0,069	0,015
-92,016	153,733	-0,130	-0,126
-91,001	-48,396	-0,202	0,069
-89,986	314,975	0,079	0,106
-88,972	27,899	0,093	0,055
-87,957	-200,000	0,038	0,199
-86,943	227,175	0,021	-0,024
-85,928	-121,580	-0,083	0,010
-84,913	153,652	0,105	-0,102
-83,899	-200,000	0,005	-0,082
-82,884	-200,000	0,052	-0,167
-81,870	48,800	0,092	-0,061
-80,855	-200,000	0,020	0,099
-79,840	168,855	0,057	-0,058
-78,826	-200,000	0,003	-0,045
-77,811	800,000	-0,112	-0,269
-76,797	-125,156	0,043	0,005
-75,782	-197,939	0,084	0,000
-74,767	-106,399	0,035	0,006
-73,753	-200,000	-0,001	0,149
-72,738	-32,694	0,109	-0,043
-71,724	-111,848	-0,179	-0,025
-70,709	-200,000	-0,039	0,158
-69,694	202,734	-0,039	-0,043
-68,680	-50,089	0,095	0,032
-67,665	-120,389	0,085	-0,010
-66,651	-159,652	0,194	-0,007
-65,636	-200,000	-0,019	-0,061
-64,622	406,620	-0,055	-0,083
-63,607	-184,672	-0,105	-0,001
-62,592	14,614	-0,062	-0,034
-61,578	550,222	0,076	0,129
-60,563	-128,329	0,038	-0,004
-59,549	56,997	0,114	0,078
-58,534	-2,873	-1,800	-0,886
-57,519	421,209	-1,346	-2,047
-56,505	-200,000	-0,501	-4,504
-55,490	308,282	1,007	1,332
-54,476	800,000	5,044	11,382
-53,461	-200,000	20,162	324,319
-52,446	800,000	752,025	2313,435
-51,432	549,569	1663,588	2830,916
-50,417	75,210	1672,321	1245,549
-49,403	20,121	1545,007	879,134
-48,388	14,100	1467,254	805,595
-47,373	18,327	1457,648	820,716
-46,359	16,381	1446,983	805,352
-45,344	12,394	1442,472	783,716
-44,330	12,274	1440,931	782,269
-43,315	12,309	1439,029	781,375
-42,300	12,337	1437,178	780,473
-41,286	12,330	1436,051	779,797
-40,271	12,305	1434,975	779,063
-39,257	12,287	1433,573	778,185
-38,242	12,364	1432,211	777,781
-37,227	12,329	1431,069	776,965
-36,213	12,343	1429,934	776,381
-35,198	12,372	1428,638	775,786
-34,184	12,415	1427,763	775,484
-33,169	12,337	1426,109	774,186
-32,154	12,423	1425,100	774,016
-31,140	12,356	1423,864	772,996
-30,125	12,362	1422,787	772,410
-29,111	12,347	1421,520	771,619
-28,096	12,344	1420,444	770,990
-27,082	12,285	1419,396	770,110
-26,067	12,310	1418,248	769,577
-25,052	12,303	1417,332	769,017
-24,038	12,269	1416,366	768,303
-23,023	12,269	1415,293	767,688
-22,009	12,278	1414,183	767,099
-20,994	12,261	1413,273	766,493
-19,979	12,253	1412,531	766,026
-18,965	12,220	1411,456	765,256
-17,950	12,246	1410,656	764,915
-16,936	12,237	1409,720	764,331
-15,921	12,163	1408,723	763,415
-14,906	12,200	1407,792	763,053
-13,892	12,186	1406,687	762,359
-12,877	12,159	1406,056	761,862
-11,863	12,187	1405,089	761,437
-10,848	12,177	1404,233	760,895
-9,833	12,177	1403,000	760,197
-8,819	12,121	1402,522	759,648
-7,804	12,052	1401,595	758,796
-6,790	12,114	1400,489	758,456
-5,775	12,113	1399,392	757,826
-4,760	12,119	1398,497	757,338
-3,746	12,128	1397,424	756,769
-2,731	12,137	1396,661	756,367
-1,717	12,055	1395,931	755,564
-0,702	12,047	1394,296	754,610
0,313	16,021	1309,081	726,836
1,327	32,152	700,202	425,862
2,342	50,278	121,945	81,277
3,356	-0,501	16,666	8,332
4,371	-0,851	3,295	1,644
5,386	60,811	0,588	0,411
6,400	-200,000	0,082	0,408
7,415	27,398	-0,237	-0,141
8,429	22,390	-0,258	-0,149
9,444	-48,051	-0,422	-0,143
10,459	106,388	-0,245	-0,205
11,473	800,000	-0,123	-0,307
12,488	-44,120	-0,362	-0,128
13,502	223,484	-0,285	-0,325
14,517	232,095	-0,307	-0,356
15,531	-3,681	-0,299	-0,146
16,546	72,462	-0,353	-0,260
17,561	56,097	-0,380	-0,260
18,575	-180,180	-0,170	-0,002
19,590	74,717	-0,254	-0,188
20,604	-70,321	-0,282	-0,075
21,619	0,626	-0,488	-0,245
22,634	66,093	-0,452	-0,323
23,648	254,575	-0,357	-0,431
24,663	70,455	-0,482	-0,351
25,677	221,323	-0,303	-0,344
26,692	-3,821	-0,468	-0,228
27,707	227,062	-0,223	-0,256
28,721	65,437	-0,378	-0,269
29,736	345,448	-0,305	-0,423
30,750	73,310	-0,309	-0,228
31,765	78,033	-0,430	-0,323
32,780	110,126	-0,276	-0,233
33,794	194,366	-0,216	-0,231
34,809	-64,327	-0,337	-0,096
35,823	178,741	-0,258	-0,265
36,838	17,785	-0,365	-0,204
37,853	114,367	-0,347	-0,298
38,867	363,477	-0,184	-0,261
39,882	26,568	-0,363	-0,213
40,896	31,126	-0,286	-0,172
41,911	-14,861	-0,397	-0,178
42,926	103,266	-0,369	-0,305
43,940	197,260	-0,257	-0,276
44,955	76,307	-0,413	-0,308
45,969	84,352	-0,335	-0,258
46,984	28,202	-0,442	-0,262
47,999	4,630	-0,300	-0,154
49,013	66,674	-0,369	-0,264
50,028	19,800	-0,343	-0,194
51,042	36,904	-0,291	-0,181
52,057	63,986	-0,305	-0,216
53,071	37,769	-0,366	-0,228
54,086	5,683	-0,340	-0,176
55,101	280,088	-0,256	-0,322
56,115	25,106	-0,271	-0,158
57,130	-8,734	-0,410	-0,193
58,144	98,337	-0,355	-0,287
59,159	168,259	-0,373	-0,374
60,174	50,461	-0,484	-0,321
61,188	207,406	-0,192	-0,211
62,203	103,970	-0,324	-0,268
63,217	122,505	-0,341	-0,300
64,232	-73,985	-0,352	-0,089
65,247	147,741	-0,302	-0,286
66,261	-0,733	-0,360	-0,179
67,276	9,166	-0,319	-0,169
68,290	38,344	-0,292	-0,182
69,305	-15,408	-0,360	-0,161
70,320	21,744	-0,349	-0,199
71,334	366,347	-0,202	-0,286
72,349	79,950	-0,251	-0,189
73,363	-7,535	-0,318	-0,150
74,378	-58,599	-0,449	-0,136
75,393	49,670	-0,314	-0,207
76,407	155,895	-0,195	-0,189
77,422	68,321	-0,287	-0,206
78,436	80,978	-0,251	-0,190
79,451	1,555	-0,362	-0,182
80,466	31,267	-0,300	-0,180
81,480	185,222	-0,282	-0,294
82,495	68,430	-0,265	-0,191
83,509	-10,598	-0,207	-0,096
84,524	-97,792	-0,249	-0,045
85,539	17,666	-0,242	-0,135
86,553	119,093	-0,305	-0,264
87,568	181,679	-0,289	-0,299
88,582	34,808	-0,251	-0,154
89,597	-184,846	-0,377	-0,004
90,611	88,396	-0,321	-0,250
91,626	137,723	-0,354	-0,325
92,641	-67,391	-0,170	-0,047
93,655	14,663	-0,337	-0,184
94,670	-15,152	-0,394	-0,176
95,684	5,070	-0,319	-0,164
96,699	121,736	-0,264	-0,231
97,714	165,385	-0,249	-0,247
98,728	-44,307	-0,138	-0,048
99,743	144,771	-0,277	-0,259
100,757	6,565	-0,341	-0,177
101,772	86,071	-0,265	-0,204
102,787	-35,813	-0,356	-0,134
103,801	24,153	-0,273	-0,158
104,816	-30,446	-0,294	-0,116
105,830	785,998	-0,151	-0,292
106,845	-101,006	-0,247	-0,042
107,860	371,979	-0,085	-0,120
108,874	-19,399	-0,296	-0,128
109,889	21,785	-0,230	-0,131
110,903	-3,967	-0,327	-0,158
111,918	-9,491	-0,262	-0,122
112,933	-18,500	-0,275	-0,120
113,947	-38,629	-0,299	-0,110
114,962	133,118	-0,271	-0,245
115,976	456,375	-0,214	-0,334
116,991	-2,759	-0,402	-0,196
118,006	159,123	-0,361	-0,351
119,020	216,948	-0,187	-0,208
120,035	-32,224	-0,192	-0,075
121,049	-13,143	-0,352	-0,159
122,064	-76,268	-0,215	-0,053
123,079	5,672	-0,308	-0,159
124,093	108,868	-0,356	-0,297
125,108	404,821	-0,214	-0,316
126,122	67,212	-0,289	-0,206
127,137	221,936	-0,155	-0,175
128,151	-65,168	-0,268	0,075
129,166	53,896	-0,229	-0,154
130,181	-1,856	-0,413	-0,202
131,195	-39,974	-0,283	-0,103
132,210	254,908	-0,172	-0,206
133,224	-200,000	0,009	-0,228
134,239	59,709	-0,212	-0,146
135,254	-16,484	-0,246	-0,109
136,268	51,734	-0,221	-0,147
137,283	97,708	-0,174	-0,140
138,297	176,654	-0,187	-0,190
139,312	203,045	-0,201	-0,218
140,327	118,042	-0,295	-0,253
141,341	40,263	-0,262	-0,164
142,356	583,555	-0,146	-0,252
143,370	-33,487	-0,211	-0,081
144,385	87,441	-0,300	-0,231
145,400	-2,441	-0,344	-0,167
146,414	-7,045	-0,246	-0,116
147,429	-116,556	-0,293	-0,037
148,443	275,170	-0,298	-0,369
149,458	-33,412	-0,326	-0,125
150,473	-121,706	-0,141	0,016
151,487	-171,506	-0,313	-0,007
152,502	59,388	-0,268	-0,184
153,516	42,041	-0,334	-0,211
154,531	56,259	-0,218	-0,148
155,546	92,982	-0,213	-0,167
156,560	270,465	-0,194	-0,239
157,575	-60,832	-0,261	-0,076
158,589	89,706	-0,137	-0,106
159,604	-147,458	-0,342	-0,020
160,619	-33,112	-0,249	-0,096
161,633	-104,075	-0,244	-0,039
162,648	88,417	-0,260	-0,201
163,662	51,423	-0,136	-0,090
164,677	98,182	-0,135	-0,108
165,692	143,024	-0,299	-0,277
166,706	15,404	-0,262	-0,143
167,721	20,209	-0,258	-0,145
168,735	139,221	-0,103	-0,094
169,750	218,375	-0,129	-0,143
170,764	16,727	-0,238	-0,131
171,779	-143,501	-0,234	-0,015
172,794	59,949	-0,049	-0,034
173,808	-89,403	-0,205	-0,042
174,823	55,734	-0,233	-0,157
175,837	-8,940	-0,191	-0,089
176,852	153,740	-0,229	-0,218
177,867	-48,574	-0,209	-0,070
178,881	356,419	-0,158	-0,220
179,896	-11,847	-0,216	-0,098
180,910	1,163	-0,290	-0,145
181,925	-140,048	-0,196	-0,014
182,940	501,238	-0,203	-0,328
183,954	4,352	-0,378	-0,192
184,969	-6,519	-0,137	-0,064
185,983	-200,000	-0,097	-0,297
186,998	-12,682	-0,203	-0,092
188,013	166,185	-0,222	-0,219
189,027	-14,448	-0,207	-0,092
190,042	-116,918	-0,371	-0,047
191,056	107,092	-0,215	-0,178
192,071	800,000	-0,089	-0,247
193,086	3,269	-0,245	-0,123
194,100	40,561	-0,269	-0,168
195,115	-98,374	-0,279	-0,049
196,129	78,146	-0,229	-0,170
197,144	322,451	-0,196	-0,260
198,159	104,095	-0,313	-0,255
199,173	-127,334	-0,215	0,022
200,188	-104,356	-0,223	-0,036
201,202	122,393	-0,170	-0,147
202,217	64,283	-0,236	-0,165
203,232	48,378	-0,248	-0,161
204,246	-31,417	-0,366	-0,142
205,261	302,121	-0,156	-0,201
206,275	196,615	-0,126	-0,133
207,290	-200,000	-0,005	-0,155
208,304	255,012	-0,108	-0,128
209,319	59,897	-0,119	-0,082
210,334	378,867	-0,170	-0,243
211,348	130,255	-0,210	-0,186
212,363	112,146	-0,199	-0,167
213,377	621,574	-0,115	-0,201
214,392	288,827	-0,129	-0,162
215,407	-200,000	-0,055	-0,196
216,421	71,356	-0,242	-0,174
217,436	105,595	-0,182	-0,149
218,450	-128,779	-0,136	0,013
219,465	223,060	-0,167	-0,187
220,480	192,370	-0,216	-0,226
221,494	187,294	-0,163	-0,169
222,509	-160,080	-0,239	-0,009
223,523	-9,694	-0,241	-0,111
224,538	167,241	-0,152	-0,150
225,553	-172,377	-0,196	0,004
226,567	107,478	-0,155	-0,128
227,582	150,943	-0,119	-0,112
228,596	28,296	-0,098	-0,057
229,611	186,059	-0,194	-0,200
230,626	38,445	-0,201	-0,124
231,640	-60,564	-0,231	-0,068
232,655	124,167	-0,261	-0,227
233,669	61,631	-0,214	-0,147
234,684	233,345	-0,112	-0,128
235,699	122,057	-0,092	-0,080
236,713	800,000	-0,084	-0,170
237,728	217,135	-0,209	-0,231
238,742	-13,445	-0,248	-0,111
239,757	309,443	-0,118	-0,153
240,772	-65,631	-0,299	-0,082
241,786	228,803	-0,173	-0,196
242,801	189,211	-0,082	-0,085
243,815	200,896	-0,178	-0,190
244,830	-19,684	-0,214	-0,091
245,844	-200,000	-0,016	-0,125
246,859	-128,732	-0,165	-0,016
247,874	97,102	-0,178	-0,141
248,888	44,994	-0,268	-0,170
249,903	-24,000	-0,209	-0,086
250,917	-42,519	-0,054	-0,019
251,932	397,546	-0,124	-0,180
252,947	199,019	-0,125	-0,132
253,961	13,842	-0,118	-0,063
254,976	190,281	-0,172	-0,179
255,990	15,185	-0,168	-0,091
257,005	681,522	-0,118	-0,213
258,020	-153,370	-0,206	0,010
259,034	74,575	-0,220	-0,159
260,049	-17,385	-0,154	-0,067
261,063	15,949	-0,102	0,055
262,078	227,856	-0,200	-0,225
263,093	326,535	-0,144	-0,191
264,107	21,782	-0,150	-0,084
265,122	-200,000	-0,015	-0,115
266,136	-57,938	-0,197	-0,059
267,151	120,952	-0,073	-0,063
268,166	-125,969	-0,110	-0,011
269,180	52,865	-0,165	-0,109
270,195	-35,677	-0,253	-0,094
271,209	47,046	-0,180	-0,116
272,224	-2,329	-0,086	-0,042
273,239	99,172	-0,115	-0,091
274,253	-84,565	-0,203	-0,044
275,268	643,164	-0,121	-0,213
276,282	217,080	-0,214	-0,235
277,297	61,208	-0,126	-0,086
278,312	154,651	-0,149	-0,141
279,326	-19,305	-0,176	-0,075
280,341	-70,475	-0,235	-0,061
281,355	96,897	-0,124	-0,098
282,370	182,521	-0,103	-0,105
283,384	-140,637	-0,221	-0,016
284,399	-200,000	-0,120	-0,401
285,414	-84,225	-0,371	-0,080
286,428	800,000	-0,087	-0,196
287,443	103,496	-0,228	-0,184
288,457	584,544	-0,050	-0,085
289,472	191,880	-0,212	-0,220
290,487	317,111	-0,088	-0,115
291,501	52,475	-0,199	-0,130
292,516	455,908	-0,091	-0,139
293,530	10,269	-0,028	-0,015
294,545	210,703	-0,121	-0,131
295,560	-94,485	-0,186	0,035
296,574	235,042	-0,134	-0,153
297,589	-69,848	-0,069	-0,018
298,603	137,279	-0,085	-0,077
299,618	-49,846	-0,144	-0,047
300,633	-31,314	-0,188	-0,072
301,647	10,310	-0,163	-0,085
302,662	-200,000	-0,052	-0,165
303,676	91,568	-0,179	-0,138
304,691	101,691	-0,069	-0,055
305,706	305,765	-0,064	-0,082
306,720	-17,497	-0,328	-0,141
307,735	576,085	-0,151	-0,256
308,749	553,848	-0,104	-0,173
309,764	-200,000	-0,056	-0,201
310,779	51,012	-0,211	-0,138
311,793	324,928	-0,110	-0,145
312,808	45,643	-0,268	-0,170
313,822	28,360	-0,208	-0,121
314,837	-111,331	-0,280	-0,039
315,852	800,000	-0,054	-0,122
316,866	233,371	-0,109	-0,124
317,881	33,821	-0,106	-0,063
318,895	115,760	-0,154	-0,129
319,910	162,385	-0,105	-0,101
320,925	-200,000	-0,060	-0,192
321,939	-200,000	-0,048	-0,259
322,954	101,544	-0,024	-0,019
323,968	205,438	-0,077	-0,082
324,983	-94,450	-0,209	0,039
325,997	-120,842	-0,208	-0,024
327,012	-88,327	-0,158	-0,032
328,027	-100,843	-0,253	0,042
329,041	191,506	-0,086	-0,089
330,056	-200,000	-0,022	-0,097
331,070	-156,325	-0,058	-0,002
332,085	-74,313	-0,088	-0,022
333,100	510,665	-0,127	-0,203
334,114	47,058	-0,211	-0,135
335,129	306,107	-0,164	-0,210
336,143	-55,651	-0,175	0,053
337,158	-49,362	-0,200	-0,065
338,173	51,535	-0,164	-0,107
339,187	-200,000	-0,070	-0,230
340,202	-2,976	-0,172	0,082
341,216	45,356	-0,129	-0,082
342,231	800,000	-0,080	-0,180
343,246	287,865	-0,130	-0,162
344,260	371,195	-0,131	-0,183
345,275	-47,561	-0,133	-0,044
346,289	-200,000	0,000	-0,103
347,304	-90,444	-0,160	0,032
348,319	800,000	-0,122	-0,284
349,333	148,038	-0,061	-0,056
350,348	-137,147	-0,152	-0,012
351,362	709,932	-0,102	-0,186
352,377	505,801	-0,067	-0,107
353,392	127,078	-0,138	-0,120
354,406	-85,895	-0,213	-0,045
355,421	207,846	1314,115	1407,771
356,435	159,902	1474,757	1408,248
