DTS Sentinel unit serial number:	SN410029Multiplexer serial number:	ORYXHardware model number:	OX2-SRSoftware version number:	ORYX F/W v4,00 Oryx Data Collector v3.7.2.0data status	okinstallation	B3 Nyhavnadifferential loss correction	single-endedforward channel	channel 1reverse channel	N/Adate	2023/12/03time	08:02:30forward acquisition time	300,00reverse acquisition time	0,00gamma	499,1914k internal	0,3201k external	0,3201temperature offset calibration	1,0000default loss term (dB/km)	0,3820temperature slope calibration	1,0000multiplexer offset coefficient	1,0000multiplexer slope coefficient	1,0000fibre end	0,00T internal ref (°C)	13,32T ext. ref 1 (°C)	-1,66T ext. ref 2 (°C)	-1,68length (m)	temperature (°C)	Stokes	anti-Stokes-744,400	315,963	-0,223	-0,307
-743,385	577,451	-0,149	0,266
-742,371	368,302	-0,139	-0,204
-741,356	-200,000	-0,061	0,342
-740,342	-50,744	-0,199	-0,068
-739,327	-200,000	-0,030	0,239
-738,312	-34,728	-0,238	-0,094
-737,298	-200,000	0,089	0,337
-736,283	177,320	-0,273	-0,289
-735,269	-200,000	-0,016	0,206
-734,254	154,752	-0,249	-0,249
-733,239	-200,000	-0,269	-0,000
-732,225	-200,000	-0,020	-0,233
-731,210	378,252	0,075	0,113
-730,196	-200,000	0,004	-0,080
-729,181	-200,000	-0,008	-0,048
-728,167	-200,000	-0,017	-0,137
-727,152	288,818	-0,091	0,119
-726,137	-174,080	-0,073	-0,002
-725,123	-200,000	0,023	-0,094
-724,108	457,139	-0,057	-0,092
-723,094	-16,182	-0,159	-0,073
-722,079	-200,000	-0,015	0,073
-721,064	-200,000	0,015	0,074
-720,050	287,401	-0,008	0,010
-719,035	123,193	-0,032	0,029
-718,021	-111,858	-0,154	-0,022
-717,006	-200,000	-0,010	-0,097
-715,991	60,663	-0,080	-0,058
-714,977	-200,000	-0,010	0,044
-713,962	-142,000	0,242	-0,017
-712,948	-200,000	0,007	-0,088
-711,933	210,861	-0,101	0,115
-710,918	-200,000	-0,004	-0,039
-709,904	411,350	-0,014	-0,021
-708,889	-200,000	0,044	-0,244
-707,875	224,570	-0,057	-0,067
-706,860	-200,000	-0,018	-0,097
-705,845	-200,000	-0,004	0,049
-704,831	626,512	-0,055	0,101
-703,816	-19,126	-0,103	0,046
-702,802	-200,000	0,006	0,022
-701,787	-70,667	-0,150	-0,041
-700,772	27,900	-0,088	-0,054
-699,758	800,000	-0,021	-0,055
-698,743	-107,098	0,144	-0,023
-697,729	800,000	0,021	-0,050
-696,714	800,000	-0,060	0,166
-695,699	-200,000	-0,011	0,038
-694,685	800,000	-0,013	-0,034
-693,670	-200,000	0,002	0,009
-692,656	800,000	0,054	-0,109
-691,641	206,272	0,054	0,061
-690,627	286,525	-0,009	0,012
-689,612	800,000	0,026	-0,070
-688,597	-200,000	-0,016	0,080
-687,583	-200,000	0,001	-0,024
-686,568	-200,000	0,015	0,071
-685,554	274,445	-0,127	-0,163
-684,539	96,855	0,103	0,085
-683,524	141,080	-0,083	0,080
-682,510	-78,362	-0,039	0,010
-681,495	-200,000	-0,040	-0,131
-680,481	-82,756	-0,058	-0,013
-679,466	-131,001	-0,078	-0,007
-678,451	138,295	-0,071	-0,068
-677,437	-200,000	-0,024	0,113
-676,422	800,000	0,005	0,011
-675,408	-200,000	0,018	-0,071
-674,393	796,664	0,075	-0,150
-673,378	402,706	0,080	-0,122
-672,364	800,000	-0,061	-0,153
-671,349	155,974	-0,059	-0,059
-670,335	476,102	-0,064	0,106
-669,320	-135,662	0,004	0,000
-668,305	370,858	-0,051	0,075
-667,291	7,893	-0,044	-0,024
-666,276	-114,009	-0,117	0,016
-665,262	27,337	-0,291	-0,177
-664,247	3,157	-0,048	-0,025
-663,232	145,016	-0,054	0,052
-662,218	8,828	-0,143	-0,078
-661,203	-200,000	-0,001	-0,181
-660,189	-200,000	0,022	-0,120
-659,174	183,102	-0,098	-0,105
-658,159	-29,976	0,032	-0,013
-657,145	169,507	0,068	-0,071
-656,130	369,980	0,036	-0,054
-655,116	-200,000	-0,011	0,092
-654,101	10,589	-0,043	0,024
-653,086	757,260	-0,018	0,035
-652,072	-32,825	-0,062	-0,025
-651,057	800,000	-0,025	-0,069
-650,043	800,000	-0,027	-0,083
-649,028	592,396	-0,066	0,119
-648,014	61,877	0,107	-0,077
-646,999	800,000	0,030	-0,073
-645,984	-129,697	0,079	0,008
-644,970	31,081	-0,170	0,105
-643,955	53,926	-0,060	0,042
-642,941	-200,000	-0,017	0,079
-641,926	-67,291	0,113	0,032
-640,911	22,161	-0,073	0,043
-639,897	800,000	0,022	-0,052
-638,882	278,611	0,031	-0,040
-637,868	-106,912	-0,120	-0,019
-636,853	-77,113	-0,083	0,021
-635,838	-81,054	-0,093	-0,022
-634,824	-190,534	-0,084	0,001
-633,809	179,402	0,091	0,097
-632,795	800,000	0,019	-0,041
-631,780	-200,000	0,001	0,093
-630,765	800,000	-0,037	-0,087
-629,751	-200,000	-0,008	-0,049
-628,736	800,000	0,055	-0,119
-627,722	-29,703	-0,021	0,009
-626,707	-80,536	0,035	-0,008
-625,692	315,970	-0,076	0,104
-624,678	-200,000	0,011	0,041
-623,663	280,037	0,029	-0,038
-622,649	254,325	-0,039	-0,048
-621,634	90,534	-0,080	-0,065
-620,619	371,014	-0,069	-0,101
-619,605	-200,000	0,002	-0,040
-618,590	-170,269	0,155	0,004
-617,576	-15,102	0,045	-0,021
-616,561	-200,000	-0,006	0,120
-615,546	-134,040	-0,068	-0,006
-614,532	-112,845	-0,169	-0,024
-613,517	-11,123	-0,088	0,042
-612,503	800,000	-0,036	-0,105
-611,488	800,000	0,097	0,263
-610,474	581,520	-0,022	0,038
-609,459	-114,993	-0,070	0,010
-608,444	90,700	0,138	-0,112
-607,430	-95,047	-0,114	-0,022
-606,415	-158,354	-0,251	0,010
-605,401	-200,000	-0,027	-0,112
-604,386	-200,000	0,015	0,130
-603,371	-200,000	0,011	-0,161
-602,357	458,290	-0,067	0,108
-601,342	-36,594	-0,134	-0,052
-600,328	-50,530	-0,083	-0,028
-599,313	574,183	-0,050	-0,089
-598,298	-118,076	0,065	0,008
-597,284	29,172	0,033	-0,020
-596,269	-118,290	0,093	-0,012
-595,255	-6,102	-0,052	0,025
-594,240	-106,272	-0,043	-0,007
-593,225	-77,492	-0,035	0,009
-592,211	800,000	-0,082	-0,187
-591,196	216,504	0,107	-0,123
-590,182	-200,000	-0,008	0,089
-589,167	800,000	0,024	0,051
-588,152	214,585	-0,039	-0,045
-587,138	141,327	0,039	-0,037
-586,123	107,785	-0,113	0,097
-585,109	-200,000	-0,011	-0,129
-584,094	238,705	-0,043	-0,051
-583,079	-127,918	0,093	0,010
-582,065	800,000	0,024	0,066
-581,050	731,659	0,041	0,080
-580,036	45,174	-0,094	-0,063
-579,021	800,000	-0,017	-0,037
-578,006	-200,000	0,000	-0,118
-576,992	-200,000	-0,021	-0,074
-575,977	174,753	0,051	-0,053
-574,963	-200,000	-0,015	0,196
-573,948	-142,078	0,041	0,003
-572,934	800,000	0,023	0,047
-571,919	-200,000	-0,009	0,088
-570,904	234,533	-0,032	-0,038
-569,890	-200,000	-0,014	0,082
-568,875	235,626	-0,062	0,074
-567,861	800,000	0,030	-0,073
-566,846	76,184	0,050	-0,038
-565,831	386,440	0,090	-0,134
-564,817	-35,645	0,058	0,023
-563,802	-200,000	0,004	-0,153
-562,788	-3,411	-0,052	-0,026
-561,773	120,372	0,143	0,128
-560,758	800,000	0,016	0,036
-559,744	-61,985	0,043	-0,013
-558,729	648,286	0,057	0,105
-557,715	61,419	-0,061	-0,043
-556,700	800,000	-0,016	-0,038
-555,685	497,474	0,038	-0,064
-554,671	-62,103	0,092	0,027
-553,656	-36,272	0,208	-0,081
-552,642	800,000	-0,016	0,035
-551,627	-200,000	-0,025	0,081
-550,612	147,194	0,055	-0,054
-549,598	800,000	-0,081	-0,216
-548,583	269,199	-0,041	-0,052
-547,569	-135,981	0,084	0,007
-546,554	-200,000	0,037	-0,148
-545,539	800,000	0,019	-0,041
-544,525	800,000	0,026	0,065
-543,510	-20,007	-0,065	-0,029
-542,496	57,602	-0,041	-0,029
-541,481	800,000	0,033	0,069
-540,466	-200,000	-0,002	0,070
-539,452	305,527	0,035	0,047
-538,437	-13,414	-0,045	0,021
-537,423	-98,231	0,224	-0,041
-536,408	-25,977	-0,175	0,074
-535,393	50,628	-0,103	-0,070
-534,379	456,034	0,065	-0,105
-533,364	235,285	0,081	0,097
-532,350	622,298	0,032	0,058
-531,335	4,538	-0,013	-0,007
-530,321	95,783	-0,028	-0,023
-529,306	139,428	-0,094	0,089
-528,291	651,779	-0,044	-0,082
-527,277	-32,048	0,081	-0,033
-526,262	334,270	0,034	-0,047
-525,248	469,993	-0,018	0,029
-524,233	-200,000	0,005	0,033
-523,218	-200,000	0,000	-0,104
-522,204	800,000	0,063	-0,164
-521,189	46,593	-0,052	0,035
-520,175	202,462	0,099	-0,110
-519,160	-200,000	-0,000	-0,130
-518,145	77,914	0,046	-0,035
-517,131	-18,167	0,066	-0,030
-516,116	800,000	-0,047	0,109
-515,102	-200,000	0,003	0,084
-514,087	800,000	0,028	-0,073
-513,072	-200,000	0,020	0,078
-512,058	-200,000	0,011	-0,042
-511,043	-24,912	0,037	0,016
-510,029	-79,079	0,049	-0,012
-509,014	-200,000	-0,027	0,094
-507,999	-145,771	0,127	0,008
-506,985	-150,951	-0,072	0,004
-505,970	-184,859	-0,140	0,002
-504,956	80,202	-0,052	-0,040
-503,941	-200,000	-0,004	-0,094
-502,926	44,736	-0,158	-0,105
-501,912	-200,000	-0,023	0,089
-500,897	58,497	0,090	0,063
-499,883	87,231	0,020	-0,016
-498,868	-200,000	-0,052	-0,214
-497,853	-79,640	-0,140	0,034
-496,839	195,172	0,050	-0,054
-495,824	77,627	0,067	-0,051
-494,810	271,649	-0,045	-0,057
-493,795	-200,000	0,013	0,053
-492,781	-200,000	0,008	0,079
-491,766	746,582	-0,018	-0,036
-490,751	-89,281	-0,057	0,012
-489,737	-200,000	0,015	0,056
-488,722	-50,554	0,021	0,007
-487,708	-98,547	0,078	-0,014
-486,693	-163,813	-0,095	-0,003
-485,678	14,444	-0,098	0,055
-484,664	180,690	0,087	-0,092
-483,649	55,571	-0,184	0,128
-482,635	504,118	-0,049	0,082
-481,620	28,251	0,137	-0,083
-480,605	291,270	0,068	0,089
-479,591	136,948	0,101	-0,095
-478,576	568,443	-0,031	0,054
-477,562	-125,761	-0,201	-0,022
-476,547	-3,409	-0,135	-0,068
-475,532	423,040	-0,043	0,066
-474,518	-200,000	0,010	0,089
-473,503	-200,000	0,041	0,162
-472,489	-175,638	0,091	-0,002
-471,474	138,327	0,026	0,025
-470,459	-116,888	-0,076	0,010
-469,445	219,661	0,027	0,031
-468,430	-200,000	-0,003	-0,168
-467,416	-19,733	-0,057	-0,025
-466,401	-200,000	0,034	0,111
-465,386	-59,284	0,106	0,033
-464,372	-200,000	-0,001	-0,079
-463,357	-200,000	-0,020	-0,125
-462,343	-34,472	-0,104	-0,041
-461,328	79,145	-0,075	-0,058
-460,313	699,813	-0,008	0,016
-459,299	-47,127	0,009	-0,003
-458,284	224,923	0,015	-0,017
-457,270	-200,000	0,031	0,101
-456,255	-200,000	-0,015	-0,071
-455,241	-57,065	-0,132	0,042
-454,226	-28,892	0,031	0,013
-453,211	420,701	-0,044	0,068
-452,197	435,372	-0,085	-0,133
-451,182	800,000	-0,048	0,144
-450,168	-200,000	0,011	0,128
-449,153	800,000	0,040	0,081
-448,138	162,756	0,062	0,062
-447,124	-72,559	-0,090	-0,024
-446,109	-102,245	0,021	0,004
-445,095	-200,000	-0,005	0,118
-444,080	17,202	0,141	0,080
-443,065	-200,000	-0,000	-0,074
-442,051	323,823	-0,004	-0,005
-441,036	-200,000	0,001	-0,020
-440,022	-159,542	-0,060	0,002
-439,007	24,368	-0,108	-0,064
-437,992	-87,052	0,095	0,021
-436,978	-42,969	0,014	-0,005
-435,963	-200,000	-0,009	0,091
-434,949	714,031	0,064	0,123
-433,934	-200,000	-0,020	-0,080
-432,919	-134,916	0,083	-0,007
-431,905	-32,143	-0,112	0,045
-430,890	641,538	-0,023	-0,042
-429,876	-200,000	-0,006	0,060
-428,861	-130,588	-0,064	0,006
-427,846	-200,000	-0,018	-0,131
-426,832	794,645	-0,032	0,064
-425,817	800,000	0,042	0,129
-424,803	800,000	0,044	0,097
-423,788	-200,000	-0,001	0,107
-422,773	75,518	-0,060	-0,045
-421,759	-70,213	0,120	-0,033
-420,744	-200,000	0,000	-0,045
-419,730	235,941	-0,027	-0,032
-418,715	147,808	-0,067	-0,065
-417,701	71,955	0,127	-0,095
-416,686	19,062	0,060	-0,034
-415,671	-40,429	-0,112	0,042
-414,657	203,570	-0,107	-0,119
-413,642	800,000	-0,033	0,069
-412,628	-200,000	0,000	-0,082
-411,613	69,255	-0,100	0,074
-410,598	-130,125	-0,056	-0,005
-409,584	138,777	0,054	0,051
-408,569	-200,000	0,003	0,125
-407,555	-200,000	0,004	0,092
-406,540	800,000	-0,014	0,036
-405,525	21,911	-0,093	-0,054
-404,511	-43,002	-0,049	-0,018
-403,496	406,257	-0,015	0,022
-402,482	-113,056	0,103	0,014
-401,467	800,000	0,023	0,064
-400,452	172,161	0,107	0,111
-399,438	-124,152	-0,114	-0,013
-398,423	84,192	-0,140	-0,109
-397,409	-32,111	-0,071	-0,028
-396,394	-200,000	0,018	0,069
-395,379	800,000	0,035	-0,094
-394,365	800,000	0,025	-0,063
-393,350	-79,274	0,123	-0,030
-392,336	-110,210	0,106	0,016
-391,321	800,000	-0,021	-0,047
-390,306	768,446	-0,044	0,086
-389,292	426,687	0,027	-0,041
-388,277	631,700	0,074	0,135
-387,263	800,000	-0,038	0,105
-386,248	77,001	0,110	0,083
-385,233	15,610	-0,009	-0,005
-384,219	-68,970	-0,038	0,010
-383,204	-81,143	-0,107	-0,025
-382,190	-48,700	-0,105	-0,036
-381,175	800,000	0,015	-0,037
-380,160	-200,000	-0,013	-0,110
-379,146	224,016	0,059	0,068
-378,131	578,341	-0,035	0,062
-377,117	215,093	0,035	0,040
-376,102	-82,639	-0,088	-0,020
-375,088	800,000	-0,027	0,057
-374,073	254,923	-0,097	-0,119
-373,058	239,409	0,065	-0,078
-372,044	-109,078	0,174	-0,026
-371,029	230,661	0,097	0,114
-370,015	-131,284	0,116	0,011
-369,000	-200,000	0,010	-0,044
-367,985	70,378	0,070	0,051
-366,971	-170,993	-0,082	-0,002
-365,956	-56,661	-0,104	0,033
-364,942	0,812	0,241	0,123
-363,927	630,367	0,032	-0,058
-362,912	-200,000	-0,015	-0,093
-361,898	800,000	0,036	0,085
-360,883	729,902	0,054	-0,104
-359,869	-128,061	-0,145	-0,015
-358,854	244,609	0,043	0,052
-357,839	-200,000	0,000	0,095
-356,825	54,757	0,140	0,097
-355,810	569,357	0,069	-0,121
-354,796	-99,291	-0,053	0,009
-353,781	-200,000	0,001	-0,127
-352,766	-82,148	-0,111	-0,026
-351,752	-121,640	0,117	0,014
-350,737	-94,365	-0,043	-0,008
-349,723	-171,734	0,068	0,002
-348,708	439,279	0,074	0,115
-347,693	565,456	0,014	0,024
-346,679	-90,029	-0,067	0,014
-345,664	526,069	-0,056	-0,095
-344,650	716,618	0,052	-0,098
-343,635	144,595	-0,022	-0,021
-342,620	125,883	0,113	0,102
-341,606	-93,170	0,030	0,006
-340,591	-200,000	-0,020	-0,083
-339,577	-200,000	-0,007	-0,156
-338,562	357,015	0,067	0,096
-337,548	-200,000	-0,023	0,085
-336,533	-79,802	0,216	0,052
-335,518	-18,088	-0,057	-0,026
-334,504	362,059	0,044	0,063
-333,489	-80,911	-0,064	0,015
-332,475	-71,413	0,105	0,028
-331,460	800,000	-0,030	0,090
-330,445	232,647	-0,015	-0,017
-329,431	-200,000	-0,015	0,073
-328,416	19,543	0,128	0,074
-327,402	800,000	-0,044	0,136
-326,387	-183,257	0,107	-0,001
-325,372	-200,000	-0,015	-0,115
-324,358	-47,771	-0,040	0,014
-323,343	-156,736	-0,054	-0,002
-322,329	800,000	0,005	0,013
-321,314	800,000	0,026	0,082
-320,299	800,000	0,027	0,076
-319,285	-173,444	0,023	0,000
-318,270	-132,328	-0,185	-0,017
-317,256	306,516	-0,043	0,058
-316,241	227,168	-0,063	-0,073
-315,226	-46,296	0,047	0,016
-314,212	-112,380	0,046	0,006
-313,197	-55,897	0,208	0,066
-312,183	800,000	-0,014	-0,031
-311,168	-25,877	-0,066	0,028
-310,153	559,017	-0,039	0,068
-309,139	-200,000	0,000	-0,128
-308,124	800,000	0,031	-0,070
-307,110	800,000	0,042	0,118
-306,095	-200,000	0,007	-0,066
-305,080	-48,072	0,012	0,004
-304,066	-200,000	-0,009	-0,029
-303,051	-169,084	-0,052	-0,001
-302,037	-200,000	-0,001	0,086
-301,022	800,000	0,047	0,104
-300,008	-60,683	-0,054	0,016
-298,993	-200,000	-0,009	0,069
-297,978	-62,395	-0,109	0,032
-296,964	-70,993	-0,049	-0,013
-295,949	96,062	0,064	0,052
-294,935	-200,000	0,000	0,089
-293,920	165,917	0,139	0,141
-292,905	353,205	0,060	0,085
-291,891	80,529	0,115	-0,089
-290,876	100,611	-0,065	0,054
-289,862	-102,035	0,074	0,013
-288,847	-105,474	0,122	-0,020
-287,832	800,000	0,016	0,041
-286,818	339,379	0,072	-0,100
-285,803	-200,000	0,010	-0,099
-284,789	296,273	0,031	-0,041
-283,774	69,111	0,102	0,075
-282,759	-130,265	0,094	-0,009
-281,745	349,308	-0,044	0,062
-280,730	238,466	-0,021	-0,025
-279,716	634,167	0,053	0,096
-278,701	-151,240	0,069	-0,004
-277,686	62,810	0,165	-0,118
-276,672	-200,000	0,009	0,056
-275,657	-200,000	0,042	0,154
-274,643	-168,622	-0,108	-0,003
-273,628	-61,362	-0,048	-0,014
-272,613	-200,000	-0,048	-0,198
-271,599	-200,000	-0,006	-0,022
-270,584	310,890	0,060	0,080
-269,570	-39,395	-0,009	-0,003
-268,555	-9,065	-0,018	-0,009
-267,540	498,112	0,035	0,058
-266,526	-54,908	-0,135	0,043
-265,511	800,000	0,030	0,094
-264,497	-84,341	0,068	0,015
-263,482	-6,249	-0,141	-0,068
-262,467	395,740	0,041	-0,062
-261,453	360,496	-0,016	-0,022
-260,438	-98,538	0,098	-0,018
-259,424	-200,000	-0,031	-0,141
-258,409	304,876	0,021	-0,028
-257,395	154,929	0,012	-0,012
-256,380	-200,000	0,040	0,188
-255,365	-200,000	0,008	-0,034
-254,351	640,422	0,090	0,164
-253,336	-97,869	-0,120	-0,022
-252,322	800,000	-0,040	-0,106
-251,307	-99,270	-0,109	0,020
-250,292	-200,000	0,016	-0,185
-249,278	-45,960	0,072	-0,025
-248,263	171,159	0,065	0,067
-247,249	-200,000	0,000	-0,102
-246,234	-200,000	-0,008	-0,064
-245,219	123,819	0,055	0,049
-244,205	-43,352	0,037	-0,013
-243,190	162,379	0,106	-0,106
-242,176	49,046	0,016	-0,011
-241,161	74,112	0,054	-0,040
-240,146	514,400	0,085	0,141
-239,132	-37,046	0,057	0,022
-238,117	273,145	-0,152	-0,192
-237,103	-25,007	0,128	-0,054
-236,088	113,485	0,094	0,082
-235,073	-200,000	0,029	0,122
-234,059	-136,755	-0,063	-0,005
-233,044	299,892	0,053	-0,069
-232,030	49,437	0,018	0,012
-231,015	-22,286	-0,026	0,011
-230,000	47,306	0,051	0,034
-228,986	-200,000	0,010	-0,040
-227,971	-126,176	0,105	0,011
-226,957	425,905	-0,038	0,058
-225,942	800,000	-0,026	0,068
-224,927	-150,264	0,056	0,003
-223,913	800,000	-0,028	-0,062
-222,898	-200,000	-0,024	-0,130
-221,884	192,832	0,090	-0,097
-220,869	-200,000	-0,030	0,102
-219,855	387,621	-0,025	-0,037
-218,840	55,129	-0,144	0,099
-217,825	158,071	-0,006	0,006
-216,811	-200,000	0,014	-0,102
-215,796	-29,890	-0,089	0,036
-214,782	-60,065	-0,132	0,040
-213,767	85,765	0,062	-0,049
-212,752	594,104	-0,063	0,112
-211,738	124,424	-0,035	0,031
-210,723	7,322	0,045	0,024
-209,709	55,038	0,043	0,030
-208,694	-1,288	-0,097	-0,048
-207,679	693,939	-0,013	-0,024
-206,665	61,645	0,084	-0,059
-205,650	-97,089	0,154	0,028
-204,636	-200,000	-0,008	0,027
-203,621	332,439	0,049	-0,068
-202,606	-82,422	0,068	-0,016
-201,592	135,217	-0,093	-0,086
-200,577	-33,561	-0,093	-0,036
-199,563	130,032	-0,025	-0,023
-198,548	723,715	-0,054	0,103
-197,533	134,343	-0,064	0,059
-196,519	-177,619	-0,146	0,002
-195,504	800,000	0,041	0,088
-194,490	408,519	0,105	-0,158
-193,475	-57,223	-0,161	-0,050
-192,460	107,115	-0,049	0,041
-191,446	-53,151	0,087	-0,028
-190,431	27,308	-0,032	-0,019
-189,417	432,917	0,029	0,044
-188,402	-165,171	-0,105	0,003
-187,387	800,000	-0,067	-0,176
-186,373	-20,802	-0,119	-0,052
-185,358	-200,000	0,023	-0,075
-184,344	-145,970	-0,005	0,000
-183,329	339,680	0,045	-0,062
-182,315	392,673	0,081	-0,120
-181,300	-134,229	0,049	-0,004
-180,285	-82,478	-0,138	-0,032
-179,271	-44,245	-0,074	0,026
-178,256	726,367	-0,009	-0,016
-177,242	-131,292	-0,017	0,002
-176,227	131,585	0,062	-0,057
-175,212	-200,000	-0,006	0,068
-174,198	183,907	0,072	0,076
-173,183	-126,479	-0,027	0,003
-172,169	-200,000	0,013	-0,110
-171,154	194,936	0,101	0,109
-170,139	-117,198	-0,082	0,010
-169,125	176,306	-0,077	0,080
-168,110	-200,000	0,032	-0,121
-167,096	93,645	-0,155	-0,125
-166,081	382,143	-0,075	0,109
-165,066	-200,000	0,019	-0,132
-164,052	800,000	-0,054	0,121
-163,037	309,386	-0,033	-0,044
-162,023	800,000	0,029	0,087
-161,008	197,793	-0,025	0,027
-159,993	-20,548	-0,068	-0,029
-158,979	-49,605	0,040	0,013
-157,964	-69,089	-0,049	0,013
-156,950	167,425	-0,045	-0,045
-155,935	404,859	0,066	-0,100
-154,920	256,067	0,116	0,141
-153,906	-200,000	0,041	0,163
-152,891	-200,000	-0,037	-0,154
-151,877	-34,000	0,020	0,008
-150,862	-200,000	-0,053	-0,180
-149,847	-57,583	0,065	-0,020
-148,833	-132,878	0,085	-0,008
-147,818	800,000	0,060	-0,123
-146,804	-102,522	0,043	0,007
-145,789	-200,000	-0,046	0,169
-144,775	25,804	-0,179	-0,106
-143,760	23,831	0,068	-0,040
-142,745	-200,000	-0,005	0,023
-141,731	800,000	-0,047	-0,142
-140,716	-200,000	0,067	0,000
-139,702	560,625	0,054	0,093
-138,687	-13,384	0,080	0,037
-137,672	141,056	0,076	0,071
-136,658	800,000	0,026	0,058
-135,643	43,706	-0,070	0,046
-134,629	284,103	-0,039	0,050
-133,614	-200,000	-0,000	0,065
-132,599	800,000	0,031	0,093
-131,585	-90,782	0,045	-0,009
-130,570	5,450	0,070	-0,037
-129,556	-58,209	-0,044	-0,013
-128,541	-50,894	0,161	-0,054
-127,526	454,744	0,035	0,055
-126,512	800,000	0,029	-0,077
-125,497	-200,000	-0,017	0,093
-124,483	245,745	-0,118	0,142
-123,468	-200,000	0,003	-0,022
-122,453	800,000	-0,010	-0,023
-121,439	-151,339	-0,112	0,006
-120,424	800,000	-0,011	-0,028
-119,410	-60,437	0,099	0,030
-118,395	800,000	-0,032	-0,067
-117,380	-119,539	0,177	-0,021
-116,366	-1,188	-0,106	0,053
-115,351	518,666	-0,036	-0,059
-114,337	-28,132	-0,092	0,037
-113,322	-140,121	0,068	-0,005
-112,307	676,841	-0,064	-0,119
-111,293	-16,834	-0,061	0,027
-110,278	515,842	-0,044	0,073
-109,264	-200,000	-0,008	0,062
-108,249	186,581	-0,134	-0,142
-107,234	-200,000	-0,005	0,017
-106,220	800,000	0,051	0,119
-105,205	-36,387	0,079	-0,030
-104,191	800,000	0,051	0,109
-103,176	800,000	0,061	-0,174
-102,162	-200,000	-0,015	-0,064
-101,147	52,718	-0,066	-0,045
-100,132	146,459	-0,038	-0,036
-99,118	-88,511	0,148	-0,031
-98,103	800,000	0,021	0,043
-97,089	800,000	-0,034	0,081
-96,074	-88,012	0,079	-0,017
-95,059	-200,000	0,012	-0,221
-94,045	-83,616	-0,157	-0,035
-93,030	-200,000	-0,006	-0,067
-92,016	-200,000	0,046	0,148
-91,001	474,083	-0,040	0,065
-89,986	74,298	-0,057	0,043
-88,972	800,000	0,041	0,127
-87,957	51,352	-0,082	-0,055
-86,943	-1,538	-0,046	-0,023
-85,928	61,854	0,154	0,109
-84,913	105,433	-0,054	-0,045
-83,899	-96,141	-0,199	-0,037
-82,884	-200,000	0,014	0,117
-81,870	-42,566	0,057	-0,020
-80,855	387,545	-0,036	-0,053
-79,840	83,394	0,025	0,019
-78,826	-200,000	0,013	-0,094
-77,811	-136,755	0,128	-0,010
-76,797	206,882	0,016	0,018
-75,782	800,000	0,031	0,077
-74,767	-200,000	0,007	0,030
-73,753	-200,000	-0,030	-0,114
-72,738	-77,933	-0,070	-0,017
-71,724	-200,000	-0,009	-0,043
-70,709	-200,000	-0,012	-0,057
-69,694	-197,394	-0,036	0,000
-68,680	-200,000	0,024	0,155
-67,665	800,000	0,075	0,172
-66,651	-200,000	0,019	0,179
-65,636	84,623	0,118	0,091
-64,622	-134,229	-0,064	0,005
-63,607	-200,000	0,004	-0,035
-62,592	-135,035	-0,041	0,003
-61,578	-200,000	0,017	-0,151
-60,563	424,049	-0,065	-0,100
-59,549	800,000	-0,016	0,049
-58,534	-4,719	-1,500	-0,730
-57,519	383,840	-1,440	-2,106
-56,505	-200,000	-0,585	-4,525
-55,490	204,775	1,047	1,151
-54,476	800,000	4,947	11,480
-53,461	-200,000	19,167	319,473
-52,446	-200,000	740,438	2333,881
-51,432	574,116	1655,206	2870,016
-50,417	78,294	1671,315	1262,056
-49,403	21,316	1544,111	885,764
-48,388	15,191	1466,613	811,518
-47,373	17,937	1456,812	819,339
-46,359	16,685	1446,593	807,552
-45,344	13,415	1441,863	789,218
-44,330	13,344	1439,976	787,812
-43,315	13,360	1438,156	786,862
-42,300	13,416	1436,465	786,173
-41,286	13,411	1435,263	785,461
-40,271	13,364	1433,998	784,513
-39,257	13,370	1432,691	783,797
-38,242	13,384	1431,394	783,121
-37,227	13,436	1430,042	782,598
-36,213	13,399	1428,838	781,733
-35,198	13,411	1427,707	781,140
-34,184	13,448	1426,893	780,838
-33,169	13,387	1425,398	779,700
-32,154	13,451	1424,464	779,461
-31,140	13,431	1423,101	778,588
-30,125	13,446	1422,137	778,104
-29,111	13,412	1420,936	777,256
-28,096	13,422	1419,751	776,622
-27,082	13,353	1418,682	775,683
-26,067	13,342	1417,549	774,980
-25,052	13,343	1416,626	774,448
-24,038	13,316	1415,540	773,696
-23,023	13,309	1414,554	773,096
-22,009	13,349	1413,498	772,675
-20,994	13,273	1412,660	771,828
-19,979	13,275	1411,806	771,339
-18,965	13,274	1410,784	770,746
-17,950	13,276	1409,746	770,159
-16,936	13,275	1408,898	769,661
-15,921	13,279	1407,568	768,925
-14,906	13,259	1406,854	768,407
-13,892	13,258	1405,916	767,860
-12,877	13,240	1405,200	767,353
-11,863	13,305	1404,009	766,978
-10,848	13,258	1403,161	766,263
-9,833	13,243	1402,478	765,794
-8,819	13,204	1401,548	765,071
-7,804	13,187	1400,714	764,507
-6,790	13,154	1399,840	763,845
-5,775	13,206	1398,466	763,306
-4,760	13,159	1397,684	762,633
-3,746	13,195	1396,743	762,258
-2,731	13,149	1396,073	761,647
-1,717	13,137	1394,916	760,929
-0,702	13,096	1393,455	759,910
0,313	17,004	1310,169	732,579
1,327	33,326	703,867	431,292
2,342	51,388	123,224	82,662
3,356	4,813	16,577	8,593
4,371	10,262	3,234	1,735
5,386	-43,548	0,602	0,214
6,400	-200,000	0,056	0,291
7,415	8,498	-0,324	-0,172
8,429	120,006	-0,220	-0,193
9,444	744,103	-0,166	-0,317
10,459	-12,811	-0,260	-0,119
11,473	45,598	-0,385	-0,251
12,488	104,617	-0,176	-0,147
13,502	-12,483	-0,317	-0,146
14,517	65,678	-0,331	-0,237
15,531	45,988	-0,367	-0,240
16,546	136,118	-0,314	-0,289
17,561	240,890	-0,387	-0,457
18,575	86,660	-0,318	-0,247
19,590	80,805	-0,193	-0,147
20,604	83,282	-0,316	-0,243
21,619	19,693	-0,410	-0,233
22,634	155,075	-0,364	-0,353
23,648	9,961	-0,511	-0,273
24,663	78,582	-0,399	-0,301
25,677	69,628	-0,469	-0,341
26,692	-85,391	-0,364	-0,079
27,707	52,727	-0,259	-0,174
28,721	123,631	-0,347	-0,307
29,736	114,701	-0,285	-0,245
30,750	97,886	-0,416	-0,338
31,765	48,632	-0,367	-0,243
32,780	1,002	-0,320	-0,161
33,794	104,704	-0,312	-0,259
34,809	321,921	-0,261	-0,352
35,823	52,725	-0,420	-0,283
36,838	59,070	-0,454	-0,315
37,853	248,880	-0,369	-0,441
38,867	107,962	-0,377	-0,317
39,882	123,240	-0,455	-0,402
40,896	46,518	-0,298	-0,195
41,911	-158,913	-0,289	-0,011
42,926	109,575	-0,374	-0,316
43,940	21,109	-0,409	-0,233
44,955	121,295	-0,406	-0,356
45,969	36,729	-0,314	-0,195
46,984	129,406	-0,225	-0,202
47,999	-59,307	-0,372	-0,112
49,013	-9,111	-0,296	-0,139
50,028	-23,312	-0,252	-0,106
51,042	90,426	-0,339	-0,267
52,057	92,392	-0,310	-0,246
53,071	275,987	-0,354	-0,444
54,086	-26,572	-0,378	-0,155
55,101	-26,091	-0,343	-0,141
56,115	227,532	-0,274	-0,314
57,130	216,752	-0,247	-0,278
58,144	170,655	-0,317	-0,319
59,159	115,050	-0,377	-0,324
60,174	63,352	-0,344	-0,242
61,188	96,920	-0,304	-0,245
62,203	154,654	-0,276	-0,267
63,217	120,962	-0,284	-0,248
64,232	-69,795	-0,338	-0,090
65,247	0,268	-0,217	-0,109
66,261	27,692	-0,313	-0,185
67,276	38,031	-0,396	-0,247
68,290	104,663	-0,307	-0,254
69,305	-59,206	-0,422	-0,127
70,320	27,546	-0,303	-0,179
71,334	65,078	-0,251	-0,178
72,349	68,418	-0,392	-0,282
73,363	143,584	-0,280	-0,262
74,378	133,717	-0,349	-0,317
75,393	416,094	-0,237	-0,356
76,407	-0,297	-0,286	-0,142
77,422	-11,612	-0,323	-0,149
78,436	69,718	-0,433	-0,313
79,451	182,621	-0,169	-0,175
80,466	-21,752	-0,336	-0,143
81,480	303,103	-0,170	-0,222
82,495	136,646	-0,320	-0,294
83,509	64,825	-0,221	-0,157
84,524	-33,743	-0,266	-0,102
85,539	-51,875	-0,197	-0,064
86,553	9,949	-0,374	-0,199
87,568	161,502	-0,352	-0,346
88,582	-42,399	-0,336	-0,120
89,597	-7,524	-0,345	-0,163
90,611	206,980	-0,226	-0,248
91,626	-178,907	-0,376	-0,006
92,641	171,231	-0,239	-0,241
93,655	14,694	-0,242	-0,132
94,670	83,690	-0,205	-0,157
95,684	3,963	-0,311	-0,159
96,699	24,117	-0,246	-0,142
97,714	-26,207	-0,276	-0,113
98,728	152,677	-0,183	-0,175
99,743	66,044	-0,334	-0,237
100,757	-4,003	-0,427	-0,207
101,772	453,007	-0,200	-0,311
102,787	241,151	-0,192	-0,225
103,801	85,887	-0,305	-0,235
104,816	179,876	-0,254	-0,261
105,830	400,889	-0,091	-0,134
106,845	-97,444	-0,258	0,047
107,860	40,973	-0,314	-0,198
108,874	42,650	-0,384	-0,245
109,889	87,266	-0,329	-0,255
110,903	8,604	-0,300	-0,158
111,918	87,859	-0,251	-0,195
112,933	-94,231	-0,234	-0,044
113,947	-60,548	-0,286	-0,084
114,962	-80,711	-0,279	-0,065
115,976	86,647	-0,236	-0,182
116,991	40,126	-0,361	-0,227
118,006	30,150	-0,354	-0,211
119,020	84,406	-0,207	-0,159
120,035	110,939	-0,274	-0,231
121,049	158,800	-0,178	-0,174
122,064	57,821	-0,180	-0,123
123,079	140,053	-0,187	-0,172
124,093	112,651	-0,184	-0,156
125,108	800,000	-0,154	-0,324
126,122	-22,052	-0,371	-0,157
127,137	114,486	-0,212	-0,181
128,151	-95,874	-0,166	0,031
129,166	674,172	-0,031	-0,056
130,181	-62,313	-0,280	-0,081
131,195	114,129	-0,186	-0,158
132,210	-35,332	-0,336	-0,127
133,224	24,796	-0,197	-0,114
134,239	467,689	-0,151	-0,238
135,254	77,496	-0,226	-0,168
136,268	-19,549	-0,247	-0,107
137,283	128,894	-0,272	-0,243
138,297	573,558	-0,224	-0,384
139,312	9,293	-0,346	-0,182
140,327	188,280	-0,258	-0,269
141,341	1,255	-0,203	-0,102
142,356	-179,084	-0,212	-0,003
143,370	-45,718	-0,257	-0,088
144,385	41,426	-0,132	-0,083
145,400	135,802	-0,320	-0,291
146,414	414,547	-0,219	-0,327
147,429	159,983	-0,286	-0,278
148,443	0,919	-0,397	-0,198
149,458	111,760	-0,160	-0,135
150,473	150,066	-0,167	-0,158
151,487	-4,869	-0,310	-0,149
152,502	266,637	-0,198	-0,242
153,516	12,061	-0,356	-0,191
154,531	7,411	-0,259	-0,135
155,546	-30,013	-0,227	-0,090
156,560	125,965	-0,243	-0,214
157,575	22,492	-0,385	-0,219
158,589	8,256	-0,226	-0,118
159,604	21,728	-0,245	-0,139
160,619	116,303	-0,282	-0,241
161,633	180,949	-0,230	-0,236
162,648	100,642	-0,204	-0,165
163,662	-82,878	-0,277	-0,062
164,677	-117,331	-0,285	-0,036
165,692	-48,414	-0,131	-0,044
166,706	107,121	-0,211	-0,175
167,721	-12,633	-0,329	-0,149
168,735	272,519	-0,138	-0,170
169,750	170,690	-0,258	-0,258
170,764	15,385	-0,278	-0,152
171,779	70,843	-0,231	-0,166
172,794	-200,000	-0,007	-0,127
173,808	-7,510	-0,080	-0,038
174,823	3,824	-0,323	-0,164
175,837	221,018	-0,251	-0,281
176,852	75,814	-0,255	-0,187
177,867	-18,402	-0,261	-0,113
178,881	-47,330	-0,142	0,048
179,896	-56,850	-0,181	-0,055
180,910	141,088	-0,314	-0,290
181,925	454,690	-0,139	-0,215
182,940	374,489	-0,197	-0,281
183,954	783,592	-0,118	-0,227
184,969	-20,069	-0,276	-0,118
185,983	-43,765	-0,270	0,094
186,998	743,580	-0,119	-0,225
188,013	101,562	-0,244	-0,198
189,027	93,672	-0,201	-0,158
190,042	133,540	-0,173	-0,155
191,056	100,529	-0,218	-0,176
192,071	260,761	-0,213	-0,257
193,086	-200,000	-0,050	-0,260
194,100	-106,979	-0,203	-0,031
195,115	800,000	-0,081	-0,174
196,129	18,269	-0,276	-0,153
197,144	289,371	-0,242	-0,306
198,159	31,751	-0,275	-0,164
199,173	-158,183	-0,268	-0,011
200,188	-111,434	-0,112	-0,016
201,202	160,511	-0,217	-0,211
202,217	1,793	-0,215	-0,107
203,232	80,712	-0,191	-0,143
204,246	358,013	-0,201	-0,280
205,261	279,116	-0,129	-0,161
206,275	-34,509	-0,192	-0,073
207,290	215,807	-0,142	-0,157
208,304	59,345	-0,268	-0,183
209,319	-69,083	-0,309	-0,082
210,334	18,277	-0,237	-0,131
211,348	231,664	-0,240	-0,273
212,363	206,655	-0,270	-0,293
213,377	267,134	-0,169	-0,206
214,392	7,548	-0,162	-0,084
215,407	47,044	-0,189	-0,122
216,421	375,816	-0,104	-0,148
217,436	-18,901	-0,206	-0,089
218,450	-73,614	-0,233	-0,058
219,465	466,473	-0,198	-0,309
220,480	99,593	-0,251	-0,202
221,494	3,493	-0,143	-0,072
222,509	174,440	-0,124	-0,124
223,523	-107,036	-0,247	-0,037
224,538	-43,865	-0,219	-0,076
225,553	265,780	-0,177	-0,214
226,567	800,000	-0,120	-0,246
227,582	193,675	-0,229	-0,241
228,596	537,088	-0,146	-0,241
229,611	52,897	-0,134	-0,089
230,626	354,964	-0,159	-0,219
231,640	179,967	-0,155	-0,157
232,655	800,000	-0,042	-0,094
233,669	-26,129	-0,270	-0,110
234,684	420,683	-0,178	-0,265
235,699	335,611	-0,094	-0,127
236,713	-0,031	-0,067	0,033
237,728	76,824	-0,227	-0,167
238,742	65,511	-0,224	-0,157
239,757	95,155	-0,183	-0,144
240,772	140,105	-0,204	-0,186
241,786	165,951	-0,162	-0,159
242,801	135,556	-0,153	-0,138
243,815	54,830	-0,114	-0,076
244,830	31,345	-0,343	-0,204
245,844	363,077	-0,087	-0,122
246,859	59,491	-0,124	-0,084
247,874	87,384	-0,237	-0,182
248,888	-200,000	0,002	-0,085
249,903	258,064	-0,137	-0,164
250,917	800,000	-0,098	-0,254
251,932	-106,204	-0,216	0,033
252,947	226,639	-0,234	-0,263
253,961	-110,744	-0,226	-0,032
254,976	-34,819	-0,166	-0,062
255,990	107,434	-0,249	-0,205
257,005	-90,191	-0,217	-0,043
258,020	655,371	-0,064	-0,114
259,034	-200,000	-0,053	-0,170
260,049	800,000	-0,098	-0,221
261,063	424,179	-0,106	-0,158
262,078	241,882	-0,215	-0,249
263,093	138,432	-0,187	-0,170
264,107	44,294	-0,221	-0,140
265,122	-200,000	-0,015	-0,217
266,136	351,683	-0,098	-0,135
267,151	528,501	-0,093	-0,153
268,166	-120,627	-0,291	-0,034
269,180	-38,610	-0,269	-0,098
270,195	308,870	-0,124	-0,160
271,209	226,234	-0,192	-0,215
272,224	-167,287	-0,048	-0,001
273,239	-74,744	-0,187	-0,046
274,253	-37,769	-0,110	-0,040
275,268	141,428	-0,223	-0,204
276,282	271,790	-0,144	-0,175
277,297	-65,230	-0,264	-0,073
278,312	-24,074	-0,150	-0,062
279,326	-94,814	-0,130	-0,024
280,341	-128,039	-0,239	0,023
281,355	-39,935	-0,144	-0,052
282,370	-19,050	-0,219	-0,093
283,384	74,321	-0,284	-0,205
284,399	80,813	-0,238	-0,177
285,414	117,940	-0,216	-0,183
286,428	800,000	-0,092	-0,180
287,443	129,698	-0,046	0,040
288,457	-46,623	-0,166	-0,056
289,472	90,835	-0,166	-0,129
290,487	255,393	-0,181	-0,215
291,501	236,990	-0,274	-0,314
292,516	73,795	-0,161	-0,117
293,530	-18,191	-0,164	-0,070
294,545	27,455	-0,164	-0,095
295,560	715,357	-0,165	-0,302
296,574	800,000	-0,086	-0,200
297,589	-171,281	-0,145	0,003
298,603	-172,406	-0,261	0,006
299,618	-200,000	0,008	-0,079
300,633	97,455	-0,148	-0,117
301,647	-200,000	0,003	-0,098
302,662	244,883	-0,114	-0,132
303,676	-35,717	-0,112	-0,042
304,691	-1,093	-0,215	-0,104
305,706	257,451	-0,178	-0,212
306,720	67,334	-0,220	-0,155
307,735	-106,080	-0,185	-0,028
308,749	800,000	-0,052	-0,129
309,764	800,000	-0,083	-0,167
310,779	556,444	-0,073	-0,122
311,793	-43,226	-0,260	-0,090
312,808	706,209	-0,107	-0,195
313,822	-200,000	-0,008	-0,182
314,837	17,827	-0,206	-0,112
315,852	-77,438	-0,102	-0,024
316,866	-82,913	-0,096	-0,021
317,881	-110,027	-0,148	-0,021
318,895	241,587	-0,138	-0,159
319,910	75,555	-0,204	-0,148
320,925	-56,731	-0,090	0,027
321,939	603,695	-0,081	-0,139
322,954	166,568	-0,163	-0,159
323,968	385,860	-0,074	0,106
324,983	62,133	-0,138	-0,095
325,997	-71,328	-0,192	-0,049
327,012	800,000	-0,051	-0,120
328,027	256,937	-0,205	-0,243
329,041	798,665	-0,074	-0,141
330,056	-200,000	-0,036	-0,170
331,070	-44,216	-0,206	-0,071
332,085	591,908	-0,077	-0,131
333,100	92,164	-0,012	0,009
334,114	167,976	-0,152	-0,149
335,129	194,883	-0,214	-0,224
336,143	43,488	-0,084	-0,053
337,158	210,748	-0,066	-0,072
338,173	173,335	-0,159	-0,157
339,187	-200,000	-0,032	-0,161
340,202	-10,480	-0,259	-0,117
341,216	668,619	-0,092	-0,164
342,231	193,510	-0,190	-0,198
343,246	-200,000	-0,055	-0,248
344,260	800,000	-0,059	-0,170
345,275	526,036	-0,030	-0,049
346,289	132,681	-0,149	-0,132
347,304	-15,078	-0,109	-0,048
348,319	568,000	-0,077	-0,128
349,333	342,522	-0,037	-0,050
350,348	562,109	-0,163	-0,271
351,362	127,669	-0,132	-0,115
352,377	26,724	-0,085	-0,049
353,392	-36,190	-0,154	-0,057
354,406	229,566	-0,135	-0,152
355,421	209,871	1313,209	1414,615
356,435	161,544	1473,746	1415,109
