DTS Sentinel unit serial number:	SN410029Multiplexer serial number:	ORYXHardware model number:	OX2-SRSoftware version number:	ORYX F/W v4,00 Oryx Data Collector v3.7.2.0data status	okinstallation	B3 Nyhavnadifferential loss correction	single-endedforward channel	channel 1reverse channel	N/Adate	2023/12/04time	23:02:30forward acquisition time	300,00reverse acquisition time	0,00gamma	499,1914k internal	0,3200k external	0,3200temperature offset calibration	1,0000default loss term (dB/km)	0,3820temperature slope calibration	1,0000multiplexer offset coefficient	1,0000multiplexer slope coefficient	1,0000fibre end	0,00T internal ref (°C)	14,32T ext. ref 1 (°C)	-0,94T ext. ref 2 (°C)	-0,95length (m)	temperature (°C)	Stokes	anti-Stokes-744,400	193,842	-0,283	-0,312
-743,385	-200,000	-0,013	0,343
-742,371	174,905	-0,301	-0,318
-741,356	-200,000	-0,006	0,252
-740,342	-200,000	0,051	-0,218
-739,327	800,000	-0,050	0,118
-738,312	72,841	-0,296	-0,225
-737,298	-200,000	0,006	0,278
-736,283	800,000	-0,113	-0,358
-735,269	-200,000	0,119	0,391
-734,254	-24,283	-0,300	-0,130
-733,239	-109,268	-0,194	0,030
-732,225	800,000	-0,070	-0,188
-731,210	-60,054	0,126	0,039
-730,196	93,080	-0,031	-0,025
-729,181	800,000	-0,060	-0,158
-728,167	213,623	0,034	0,039
-727,152	-47,220	0,119	-0,042
-726,137	-85,048	-0,133	0,030
-725,123	183,275	-0,096	-0,103
-724,108	-200,000	0,000	-0,045
-723,094	-107,816	-0,159	0,025
-722,079	6,779	-0,059	0,032
-721,064	53,796	0,076	0,053
-720,050	598,970	-0,076	-0,138
-719,035	740,606	-0,068	-0,133
-718,021	428,549	-0,015	0,024
-717,006	-137,110	-0,083	0,007
-715,991	163,480	-0,082	-0,084
-714,977	23,373	-0,175	-0,105
-713,962	445,818	-0,038	-0,060
-712,948	-200,000	0,004	-0,038
-711,933	90,660	0,067	0,055
-710,918	49,545	0,056	0,038
-709,904	760,808	-0,033	-0,065
-708,889	-70,465	-0,049	-0,013
-707,875	350,209	0,090	-0,129
-706,860	-36,881	0,061	-0,024
-705,845	-200,000	-0,023	0,122
-704,831	-200,000	0,002	0,125
-703,816	268,087	-0,056	0,071
-702,802	233,360	-0,067	-0,080
-701,787	-200,000	0,001	0,071
-700,772	-200,000	-0,015	0,069
-699,758	-200,000	-0,024	-0,110
-698,743	-197,480	0,121	-0,001
-697,729	-200,000	-0,005	-0,069
-696,714	79,818	-0,164	0,128
-695,699	-200,000	-0,002	0,098
-694,685	-79,659	-0,128	-0,031
-693,670	452,910	0,020	-0,032
-692,656	246,823	-0,048	-0,059
-691,641	59,683	0,072	-0,051
-690,627	750,512	0,013	-0,026
-689,612	-142,527	0,043	-0,003
-688,597	608,245	-0,033	-0,060
-687,583	281,277	-0,020	0,026
-686,568	-3,060	-0,130	-0,066
-685,554	36,178	-0,076	-0,049
-684,539	-200,000	-0,028	-0,106
-683,524	423,991	0,014	0,021
-682,510	708,422	-0,027	-0,052
-681,495	189,490	-0,039	-0,043
-680,481	-106,269	0,061	0,010
-679,466	-86,739	-0,022	0,005
-678,451	40,133	-0,050	-0,033
-677,437	-25,213	-0,120	0,051
-676,422	-200,000	0,014	0,110
-675,408	-200,000	0,003	0,143
-674,393	144,644	-0,087	-0,084
-673,378	558,467	-0,083	-0,147
-672,364	98,900	-0,018	-0,015
-671,349	232,951	-0,057	0,069
-670,335	-149,544	-0,190	0,011
-669,320	-70,846	0,050	-0,014
-668,305	-200,000	-0,004	-0,076
-667,291	-118,791	-0,110	0,014
-666,276	-200,000	-0,019	-0,085
-665,262	445,763	-0,057	-0,091
-664,247	-200,000	-0,069	-0,230
-663,232	232,649	-0,096	-0,115
-662,218	-42,036	-0,099	0,037
-661,203	555,774	0,029	-0,051
-660,189	-61,645	-0,085	-0,026
-659,174	800,000	-0,037	0,085
-658,159	800,000	-0,067	0,135
-657,145	800,000	0,067	0,137
-656,130	201,489	-0,058	-0,065
-655,116	-200,000	0,024	0,082
-654,101	-200,000	0,006	0,056
-653,086	123,663	-0,080	-0,073
-652,072	102,404	-0,067	0,057
-651,057	-37,364	-0,128	0,049
-650,043	38,298	-0,090	-0,058
-649,028	-200,000	0,039	0,127
-648,014	257,264	-0,093	0,116
-646,999	-200,000	0,003	0,014
-645,984	-200,000	0,009	0,062
-644,970	-200,000	-0,020	-0,099
-643,955	-200,000	-0,014	-0,206
-642,941	61,925	-0,184	-0,133
-641,926	-159,590	-0,080	0,003
-640,911	-123,997	0,047	0,005
-639,897	5,247	0,113	-0,060
-638,882	299,485	0,033	0,044
-637,868	69,833	0,008	-0,006
-636,853	47,399	0,045	0,030
-635,838	-93,137	-0,064	-0,013
-634,824	-41,736	0,004	-0,002
-633,809	-200,000	0,026	-0,098
-632,795	-54,121	0,095	-0,031
-631,780	-200,000	0,021	0,096
-630,765	570,864	0,068	0,120
-629,751	-200,000	0,015	-0,140
-628,736	23,380	-0,115	-0,068
-627,722	13,105	-0,158	0,088
-626,707	-200,000	0,028	0,113
-625,692	800,000	0,027	0,068
-624,678	-200,000	-0,006	0,137
-623,663	8,305	-0,034	0,019
-622,649	-46,847	-0,008	-0,003
-621,634	-200,000	-0,006	-0,149
-620,619	-8,231	-0,097	0,047
-619,605	138,468	0,079	-0,075
-618,590	800,000	-0,026	0,083
-617,576	-200,000	-0,002	0,117
-616,561	-192,031	-0,079	-0,001
-615,546	-200,000	0,031	0,152
-614,532	-200,000	0,051	-0,230
-613,517	410,113	0,045	-0,070
-612,503	-200,000	0,003	-0,154
-611,488	-200,000	-0,020	-0,100
-610,474	-114,571	-0,102	0,014
-609,459	800,000	-0,023	-0,052
-608,444	-200,000	-0,001	0,068
-607,430	-200,000	-0,003	-0,151
-606,415	800,000	-0,052	-0,155
-605,401	182,054	0,005	-0,005
-604,386	-52,195	-0,062	0,021
-603,371	-55,189	0,090	0,029
-602,357	-200,000	0,004	0,021
-601,342	-200,000	-0,011	0,041
-600,328	337,392	-0,034	0,048
-599,313	-84,959	-0,081	0,018
-598,298	-200,000	0,030	-0,110
-597,284	-96,059	-0,048	0,009
-596,269	98,024	-0,100	-0,083
-595,255	251,947	-0,047	0,058
-594,240	-115,865	0,039	0,005
-593,225	-200,000	0,002	0,078
-592,211	386,812	-0,078	0,117
-591,196	58,520	0,086	0,061
-590,182	-110,517	0,098	0,015
-589,167	800,000	-0,043	-0,116
-588,152	113,718	-0,122	-0,107
-587,138	2,208	-0,046	-0,024
-586,123	136,202	-0,075	0,071
-585,109	-116,428	-0,157	-0,021
-584,094	-200,000	0,014	-0,066
-583,079	-4,889	0,168	0,083
-582,065	210,666	-0,066	0,075
-581,050	-74,799	0,026	0,007
-580,036	27,099	-0,083	0,050
-579,021	-50,417	-0,034	-0,011
-578,006	-181,305	-0,093	-0,001
-576,992	800,000	0,006	0,017
-575,977	16,622	0,021	-0,012
-574,963	584,554	-0,057	0,102
-573,948	-200,000	-0,012	0,045
-572,934	-200,000	-0,002	0,057
-571,919	-131,697	-0,088	-0,008
-570,904	-124,196	0,048	0,005
-569,890	800,000	-0,028	-0,066
-568,875	-200,000	0,129	0,000
-567,861	732,642	0,045	-0,087
-566,846	165,354	0,118	-0,121
-565,831	-7,718	-0,118	0,057
-564,817	727,724	-0,040	-0,078
-563,802	800,000	-0,054	-0,122
-562,788	800,000	-0,089	-0,188
-561,773	800,000	0,026	-0,076
-560,758	800,000	0,057	0,135
-559,744	189,910	0,143	0,155
-558,729	800,000	-0,016	0,033
-557,715	-80,659	-0,091	-0,022
-556,700	-200,000	-0,030	0,100
-555,685	-200,000	0,019	-0,139
-554,671	417,724	0,023	0,035
-553,656	530,927	-0,018	0,030
-552,642	-200,000	-0,035	0,165
-551,627	800,000	-0,039	0,116
-550,612	220,440	-0,052	0,060
-549,598	-200,000	0,005	-0,089
-548,583	-200,000	-0,010	-0,050
-547,569	54,996	-0,124	0,086
-546,554	-200,000	-0,024	0,095
-545,539	-95,103	-0,037	-0,007
-544,525	-200,000	0,017	0,069
-543,510	126,623	-0,022	-0,020
-542,496	-142,653	-0,061	0,004
-541,481	-200,000	0,002	0,094
-540,466	465,039	-0,069	-0,111
-539,452	-200,000	-0,034	0,132
-538,437	-46,775	0,097	0,034
-537,423	16,403	-0,115	0,065
-536,408	-160,262	0,085	0,003
-535,393	-56,832	0,017	-0,005
-534,379	109,834	0,028	-0,024
-533,364	178,009	-0,097	-0,102
-532,350	-200,000	0,001	0,016
-531,335	98,679	-0,089	-0,074
-530,321	104,022	0,144	0,122
-529,306	-200,000	-0,004	0,111
-528,291	591,442	0,115	-0,206
-527,277	800,000	-0,063	-0,167
-526,262	-200,000	-0,014	-0,069
-525,248	-130,486	0,136	-0,013
-524,233	178,438	0,060	-0,063
-523,218	22,885	0,108	-0,064
-522,204	-200,000	0,012	0,108
-521,189	708,615	-0,042	0,081
-520,175	-200,000	-0,014	0,059
-519,160	-65,779	0,062	0,018
-518,145	-14,864	-0,105	-0,049
-517,131	-81,487	0,039	0,009
-516,116	567,822	-0,033	0,058
-515,102	-128,190	-0,120	-0,012
-514,087	-41,904	-0,126	0,046
-513,072	-166,437	-0,128	0,004
-512,058	56,173	-0,114	-0,079
-511,043	-200,000	0,007	-0,060
-510,029	-84,752	0,146	-0,033
-509,014	-195,979	0,045	0,000
-507,999	298,328	0,055	-0,073
-506,985	4,409	-0,083	-0,044
-505,970	-94,002	-0,065	-0,013
-504,956	199,277	0,047	-0,052
-503,941	800,000	0,052	0,105
-502,926	170,057	0,063	0,065
-501,912	340,059	0,031	-0,044
-500,897	687,417	-0,004	-0,008
-499,883	58,278	-0,036	-0,025
-498,868	-112,141	-0,097	0,014
-497,853	-111,237	-0,039	0,006
-496,839	-53,427	0,064	0,021
-495,824	-3,974	-0,079	0,039
-494,810	-200,000	-0,043	-0,164
-493,795	-40,570	0,080	0,030
-492,781	22,931	0,053	0,031
-491,766	483,991	-0,029	0,048
-490,751	-200,000	-0,005	-0,025
-489,737	346,801	0,040	-0,057
-488,722	-129,431	-0,057	0,006
-487,708	-200,000	-0,012	0,104
-486,693	-54,011	-0,096	-0,031
-485,678	629,042	-0,049	-0,090
-484,664	800,000	-0,009	-0,024
-483,649	-200,000	-0,008	0,045
-482,635	-18,591	-0,092	0,041
-481,620	695,572	0,031	-0,059
-480,605	304,086	0,027	0,037
-479,591	215,492	0,079	0,090
-478,576	-200,000	0,010	0,075
-477,562	-200,000	0,011	-0,056
-476,547	-116,285	-0,069	-0,009
-475,532	-200,000	-0,049	-0,155
-474,518	-200,000	0,056	-0,195
-473,503	488,702	-0,065	-0,107
-472,489	800,000	0,044	0,089
-471,474	-95,349	0,133	-0,025
-470,459	-200,000	0,002	0,099
-469,445	-29,449	-0,078	-0,032
-468,430	-110,277	-0,082	0,012
-467,416	284,898	0,064	0,083
-466,401	-134,593	0,141	0,012
-465,386	-94,585	-0,050	0,010
-464,372	672,074	-0,036	0,068
-463,357	-200,000	0,016	-0,162
-462,343	-200,000	-0,017	0,057
-461,328	147,847	-0,089	-0,087
-460,313	226,853	-0,062	-0,073
-459,299	-135,931	0,149	0,012
-458,284	-200,000	-0,009	0,038
-457,270	97,473	-0,117	0,096
-456,255	-54,002	-0,081	0,026
-455,241	-85,347	-0,094	-0,021
-454,226	-200,000	-0,002	-0,149
-453,211	-200,000	0,006	0,030
-452,197	800,000	0,078	0,180
-451,182	84,083	-0,063	0,049
-450,168	207,225	0,041	0,046
-449,153	-200,000	0,006	-0,221
-448,138	436,925	0,037	-0,058
-447,124	105,431	-0,135	-0,115
-446,109	-32,382	0,057	0,023
-445,095	-200,000	-0,006	0,049
-444,080	81,868	0,092	0,071
-443,065	-200,000	0,005	-0,035
-442,051	-200,000	-0,030	-0,126
-441,036	-200,000	-0,041	-0,147
-440,022	17,221	0,124	-0,071
-439,007	800,000	-0,010	0,023
-437,992	321,272	-0,060	-0,083
-436,978	800,000	-0,065	0,140
-435,963	37,801	0,062	-0,039
-434,949	-200,000	-0,010	-0,056
-433,934	-200,000	-0,022	-0,120
-432,919	24,233	-0,163	0,096
-431,905	1,867	0,060	0,031
-430,890	59,004	0,097	0,069
-429,876	800,000	0,048	0,117
-428,861	115,061	0,032	-0,029
-427,846	-200,000	-0,031	-0,171
-426,832	9,476	-0,061	-0,033
-425,817	-15,937	-0,167	-0,076
-424,803	-200,000	-0,036	-0,179
-423,788	-62,842	-0,077	0,023
-422,773	196,960	0,093	0,102
-421,759	-98,329	0,139	-0,025
-420,744	-23,500	0,129	-0,056
-419,730	305,234	0,083	-0,111
-418,715	11,243	0,071	0,039
-417,701	298,861	-0,099	-0,132
-416,686	84,073	0,064	-0,050
-415,671	595,081	-0,034	-0,061
-414,657	245,347	-0,017	0,021
-413,642	-40,084	0,077	-0,029
-412,628	-200,000	-0,021	-0,091
-411,613	145,766	0,083	-0,080
-410,598	-92,027	-0,063	0,013
-409,584	454,053	0,086	-0,137
-408,569	73,370	0,138	-0,104
-407,555	800,000	-0,023	-0,067
-406,540	-102,538	-0,083	0,014
-405,525	167,630	0,058	0,059
-404,511	-0,382	-0,094	-0,048
-403,496	148,930	0,055	-0,053
-402,482	800,000	-0,044	0,097
-401,467	32,043	0,100	0,061
-400,452	800,000	0,049	0,138
-399,438	-200,000	0,056	0,204
-398,423	-200,000	0,000	-0,051
-397,409	306,998	0,066	-0,088
-396,394	144,399	-0,019	-0,018
-395,379	58,603	-0,074	-0,052
-394,365	-110,415	0,099	-0,015
-393,350	800,000	0,054	0,127
-392,336	-177,665	0,057	-0,001
-391,321	778,875	-0,031	0,060
-390,306	800,000	0,003	-0,007
-389,292	85,227	0,039	0,030
-388,277	678,173	-0,065	0,121
-387,263	342,336	-0,037	0,052
-386,248	-48,663	0,055	0,019
-385,233	-14,928	0,115	0,052
-384,219	574,303	0,053	0,094
-383,204	800,000	0,037	0,089
-382,190	800,000	-0,023	-0,059
-381,175	-143,064	0,036	-0,002
-380,160	493,840	0,042	0,070
-379,146	-30,688	0,168	-0,068
-378,131	-111,770	0,091	-0,013
-377,117	800,000	-0,048	0,102
-376,102	570,461	-0,035	-0,062
-375,088	9,150	0,103	-0,055
-374,073	542,088	-0,017	0,029
-373,058	-65,088	0,065	0,019
-372,044	-200,000	-0,004	0,013
-371,029	87,493	0,040	0,032
-370,015	-123,503	-0,129	0,014
-369,000	233,199	0,034	-0,040
-367,985	-1,892	-0,098	-0,049
-366,971	-5,256	-0,125	-0,062
-365,956	-200,000	0,032	0,104
-364,942	9,518	0,033	-0,018
-363,927	409,054	0,074	-0,113
-362,912	193,970	0,066	0,072
-361,898	8,469	-0,180	-0,097
-360,883	-200,000	-0,004	-0,120
-359,869	-200,000	-0,003	0,013
-358,854	-80,049	0,095	0,023
-357,839	266,294	0,017	0,022
-356,825	66,385	-0,108	-0,079
-355,810	-200,000	-0,006	0,125
-354,796	800,000	-0,086	0,178
-353,781	-200,000	-0,004	-0,028
-352,766	-90,795	-0,169	0,035
-351,752	-200,000	0,009	-0,104
-350,737	800,000	0,034	-0,088
-349,723	108,456	0,076	0,065
-348,708	-128,327	-0,027	0,003
-347,693	463,545	0,083	0,133
-346,679	59,724	0,150	-0,106
-345,664	-101,484	-0,004	-0,001
-344,650	-200,000	0,021	-0,128
-343,635	-30,682	0,106	0,043
-342,620	-129,688	0,120	0,012
-341,606	35,000	-0,014	-0,009
-340,591	-11,008	-0,073	0,035
-339,577	-107,951	-0,076	-0,012
-338,562	-97,906	-0,053	0,010
-337,548	-116,805	0,044	0,006
-336,533	-115,166	0,056	-0,008
-335,518	800,000	0,029	-0,079
-334,504	21,635	0,054	0,031
-333,489	607,167	-0,035	-0,063
-332,475	73,398	-0,109	0,082
-331,460	217,122	-0,089	-0,102
-330,445	-103,264	-0,093	0,016
-329,431	30,270	0,101	0,062
-328,416	-38,045	-0,119	0,045
-327,402	6,711	-0,090	-0,048
-326,387	176,547	0,053	-0,056
-325,372	-86,159	-0,082	0,018
-324,358	661,392	-0,016	0,030
-323,343	-200,000	-0,006	-0,064
-322,329	-21,844	0,042	-0,018
-321,314	-200,000	-0,005	0,078
-320,299	-200,000	0,014	-0,045
-319,285	2,527	0,065	-0,033
-318,270	-200,000	0,010	-0,070
-317,256	-200,000	0,007	-0,059
-316,241	-41,089	0,067	-0,025
-315,226	800,000	0,031	0,073
-314,212	-91,047	-0,245	-0,050
-313,197	10,922	0,166	0,091
-312,183	2,068	0,118	0,061
-311,168	-90,518	0,156	0,032
-310,153	-200,000	0,025	-0,083
-309,139	14,881	-0,141	-0,079
-308,124	-3,228	-0,063	-0,031
-307,110	-200,000	-0,007	0,031
-306,095	-190,446	0,158	0,001
-305,080	171,201	0,037	0,038
-304,066	60,205	-0,076	-0,054
-303,051	-200,000	0,021	-0,100
-302,037	-155,929	0,065	0,003
-301,022	-200,000	0,028	0,091
-300,008	-200,000	-0,035	0,120
-298,993	353,807	0,045	0,064
-297,978	103,652	0,136	0,114
-296,964	800,000	0,025	-0,071
-295,949	151,799	-0,098	-0,096
-294,935	-200,000	0,012	-0,110
-293,920	188,260	0,036	-0,039
-292,905	399,108	0,107	-0,161
-291,891	800,000	0,006	0,013
-290,876	-93,770	-0,048	-0,009
-289,862	250,955	-0,043	0,052
-288,847	209,374	-0,060	0,067
-287,832	-113,747	-0,022	0,003
-286,818	76,287	0,106	0,080
-285,803	-107,684	-0,072	-0,011
-284,789	-167,823	0,043	-0,001
-283,774	800,000	0,036	0,088
-282,759	-77,545	0,102	0,025
-281,745	-130,786	-0,123	-0,012
-280,730	312,416	-0,081	-0,109
-279,716	65,192	0,024	0,017
-278,701	800,000	0,052	0,104
-277,686	-16,035	-0,042	-0,019
-276,672	101,526	0,089	0,074
-275,657	-200,000	-0,024	0,123
-274,643	-200,000	-0,027	-0,100
-273,628	-100,055	0,092	0,016
-272,613	-13,980	-0,069	0,032
-271,599	-200,000	0,006	0,141
-270,584	-98,145	-0,126	-0,023
-269,570	-200,000	0,006	0,036
-268,555	207,964	0,092	-0,103
-267,540	800,000	-0,029	-0,086
-266,526	520,181	0,037	-0,062
-265,511	-49,981	-0,070	0,023
-264,497	-22,921	-0,014	0,006
-263,482	-62,667	0,065	-0,019
-262,467	124,692	-0,073	0,065
-261,453	291,777	0,098	0,127
-260,438	190,691	-0,051	0,054
-259,424	-134,004	-0,088	0,008
-258,409	-118,457	-0,060	-0,008
-257,395	148,890	0,109	0,105
-256,380	180,349	0,067	0,071
-255,365	-73,730	0,194	0,050
-254,351	-200,000	0,038	0,127
-253,336	-200,000	0,023	-0,125
-252,322	-200,000	-0,023	-0,160
-251,307	-17,186	-0,097	-0,043
-250,292	56,898	0,084	0,058
-249,278	-200,000	-0,033	0,184
-248,263	-49,748	0,076	0,026
-247,249	142,237	-0,071	-0,067
-246,234	800,000	0,022	0,044
-245,219	107,698	-0,082	0,070
-244,205	59,101	-0,032	-0,022
-243,190	-96,886	0,081	0,015
-242,176	-97,405	-0,100	-0,018
-241,161	132,546	0,056	0,052
-240,146	-200,000	0,042	0,173
-239,132	-153,137	-0,035	-0,002
-238,117	800,000	-0,036	-0,105
-237,103	81,778	0,110	-0,085
-236,088	800,000	-0,047	-0,097
-235,073	-200,000	0,000	0,074
-234,059	-163,707	-0,046	-0,002
-233,044	-64,884	0,062	0,018
-232,030	-135,320	0,065	-0,005
-231,015	197,495	0,039	0,043
-230,000	60,096	-0,091	-0,064
-228,986	800,000	0,003	0,009
-227,971	21,889	0,158	-0,092
-226,957	-200,000	0,016	-0,098
-225,942	370,145	0,077	-0,112
-224,927	96,419	-0,023	-0,019
-223,913	266,599	-0,080	-0,100
-222,898	121,686	-0,020	-0,018
-221,884	-200,000	0,000	0,068
-220,869	-200,000	-0,005	-0,114
-219,855	66,875	-0,043	0,031
-218,840	-200,000	-0,021	-0,074
-217,825	-200,000	-0,020	0,116
-216,811	-14,859	-0,047	-0,021
-215,796	-200,000	0,004	0,033
-214,782	61,095	0,023	-0,017
-213,767	800,000	-0,056	0,147
-212,752	120,875	-0,029	0,026
-211,738	149,019	0,061	-0,059
-210,723	98,257	-0,121	0,099
-209,709	-105,473	0,153	0,025
-208,694	135,964	-0,051	-0,047
-207,679	140,425	-0,090	0,084
-206,665	345,744	-0,010	-0,014
-205,650	125,058	0,072	0,064
-204,636	-200,000	0,031	0,171
-203,621	-200,000	0,045	0,202
-202,606	548,943	-0,051	-0,087
-201,592	-200,000	0,000	-0,013
-200,577	-200,000	-0,002	-0,053
-199,563	-103,583	0,160	0,026
-198,548	-87,352	0,114	0,024
-197,533	-200,000	0,023	0,115
-196,519	11,252	-0,047	0,025
-195,504	-60,806	0,026	0,008
-194,490	77,762	-0,081	-0,061
-193,475	-200,000	-0,001	-0,052
-192,460	-2,253	0,089	0,044
-191,446	105,429	-0,073	0,061
-190,431	335,617	0,116	0,161
-189,417	-30,985	-0,038	0,015
-188,402	101,452	-0,020	0,017
-187,387	-200,000	-0,010	-0,068
-186,373	161,241	0,039	0,039
-185,358	-133,913	0,068	0,006
-184,344	-29,039	0,101	0,041
-183,329	-92,323	-0,045	-0,009
-182,315	60,923	0,152	0,107
-181,300	-20,603	0,018	-0,008
-180,285	707,459	0,030	0,057
-179,271	-180,828	-0,076	-0,001
-178,256	-200,000	0,012	0,106
-177,242	231,625	-0,050	0,058
-176,227	230,223	-0,048	-0,056
-175,212	800,000	-0,059	-0,167
-174,198	-120,970	0,041	-0,005
-173,183	112,307	0,043	-0,037
-172,169	-99,524	0,077	-0,014
-171,154	20,051	-0,128	-0,073
-170,139	-132,288	-0,078	-0,007
-169,125	-123,960	-0,062	0,007
-168,110	565,557	0,053	-0,092
-167,096	-200,000	-0,012	0,042
-166,081	800,000	0,035	0,096
-165,066	236,728	-0,055	-0,064
-164,052	-200,000	-0,045	-0,165
-163,037	-200,000	0,030	0,142
-162,023	-15,285	0,117	0,053
-161,008	-106,029	-0,097	-0,015
-159,993	-25,149	0,023	-0,010
-158,979	36,140	-0,110	-0,069
-157,964	-95,830	0,075	-0,014
-156,950	-200,000	0,017	0,114
-155,935	119,337	0,041	0,036
-154,920	-200,000	0,017	0,102
-153,906	-189,043	-0,092	0,001
-152,891	800,000	0,024	0,068
-151,877	12,096	0,108	-0,059
-150,862	-200,000	-0,019	-0,128
-149,847	563,037	0,063	-0,110
-148,833	791,415	-0,045	-0,089
-147,818	-128,191	0,089	-0,009
-146,804	-82,763	0,105	0,024
-145,789	-200,000	0,005	0,020
-144,775	45,083	0,152	0,099
-143,760	184,957	-0,028	0,030
-142,745	-23,593	-0,140	0,060
-141,731	800,000	0,015	0,038
-140,716	-200,000	0,002	0,124
-139,702	392,677	0,035	0,051
-138,687	-200,000	0,017	-0,071
-137,672	-104,783	-0,089	0,014
-136,658	-200,000	-0,024	-0,077
-135,643	61,712	0,088	-0,062
-134,629	8,003	-0,139	-0,074
-133,614	21,701	0,161	0,093
-132,599	198,059	-0,075	0,082
-131,585	146,429	0,103	0,098
-130,570	227,190	0,068	-0,079
-129,556	800,000	0,008	-0,018
-128,541	412,869	0,062	-0,094
-127,526	800,000	0,048	-0,131
-126,512	-200,000	-0,026	0,105
-125,497	800,000	0,018	-0,049
-124,483	71,717	0,063	0,046
-123,468	800,000	-0,035	0,109
-122,453	-18,689	-0,120	0,053
-121,439	-200,000	0,008	0,054
-120,424	-125,744	-0,125	-0,013
-119,410	-200,000	0,022	0,104
-118,395	62,660	-0,037	0,027
-117,380	-200,000	-0,018	-0,057
-116,366	333,249	-0,042	0,058
-115,351	-200,000	-0,003	0,106
-114,337	-200,000	-0,005	0,068
-113,322	-9,067	-0,110	0,052
-112,307	-200,000	-0,009	0,076
-111,293	-38,648	0,097	0,036
-110,278	179,897	-0,023	-0,024
-109,264	-1,424	-0,030	0,015
-108,249	800,000	0,023	-0,049
-107,234	-200,000	-0,014	0,070
-106,220	-108,277	-0,060	-0,009
-105,205	461,697	0,051	0,081
-104,191	285,778	0,038	0,049
-103,176	518,111	0,069	0,115
-102,162	800,000	-0,056	0,142
-101,147	-126,479	-0,158	-0,016
-100,132	430,650	-0,006	0,010
-99,118	-57,270	0,105	-0,033
-98,103	-200,000	0,019	-0,162
-97,089	-101,741	0,143	-0,024
-96,074	-113,628	0,096	0,013
-95,059	-200,000	-0,005	-0,028
-94,045	-192,611	0,033	-0,000
-93,030	-200,000	-0,029	-0,150
-92,016	73,873	-0,053	-0,039
-91,001	-200,000	0,009	0,152
-89,986	247,554	0,037	0,045
-88,972	-114,544	0,082	0,011
-87,957	317,500	0,048	-0,064
-86,943	-132,355	-0,172	-0,016
-85,928	279,975	-0,064	0,081
-84,913	-200,000	0,059	-0,189
-83,899	-200,000	0,023	-0,072
-82,884	574,669	-0,060	-0,104
-81,870	-200,000	0,003	0,021
-80,855	471,686	0,079	-0,126
-79,840	185,833	-0,051	0,054
-78,826	800,000	0,045	-0,099
-77,811	-96,439	0,116	-0,022
-76,797	800,000	0,031	0,075
-75,782	-200,000	-0,012	0,097
-74,767	143,243	-0,053	0,050
-73,753	-97,372	-0,092	0,017
-72,738	-34,981	0,019	-0,007
-71,724	800,000	-0,071	-0,164
-70,709	347,564	0,057	0,080
-69,694	-200,000	0,007	0,153
-68,680	-200,000	-0,010	0,069
-67,665	-200,000	0,026	0,151
-66,651	-200,000	-0,026	-0,100
-65,636	270,407	-0,068	0,085
-64,622	-136,370	0,068	0,006
-63,607	65,738	-0,039	0,028
-62,592	-11,890	0,130	-0,060
-61,578	800,000	-0,077	-0,162
-60,563	17,568	0,063	0,035
-59,549	-150,350	0,036	-0,002
-58,534	-40,041	-1,491	-0,548
-57,519	410,334	-1,386	-2,088
-56,505	-200,000	-0,582	-4,522
-55,490	179,469	0,929	0,964
-54,476	800,000	4,817	11,255
-53,461	-200,000	18,544	300,455
-52,446	800,000	733,857	2273,422
-51,432	562,599	1650,461	2839,746
-50,417	78,905	1668,976	1263,890
-49,403	22,235	1542,315	889,757
-48,388	16,232	1465,027	816,024
-47,373	17,751	1454,996	817,737
-46,359	16,947	1445,352	808,428
-45,344	14,477	1440,580	793,910
-44,330	14,373	1438,759	792,376
-43,315	14,410	1437,026	791,568
-42,300	14,386	1435,285	790,464
-41,286	14,404	1434,238	789,940
-40,271	14,384	1432,999	789,133
-39,257	14,420	1431,550	788,476
-38,242	14,431	1430,310	787,811
-37,227	14,433	1429,259	787,209
-36,213	14,445	1427,790	786,427
-35,198	14,401	1426,766	785,622
-34,184	14,467	1425,723	785,331
-33,169	14,394	1424,604	784,337
-32,154	14,456	1423,432	783,955
-31,140	14,426	1421,848	782,911
-30,125	14,452	1421,009	782,541
-29,111	14,454	1419,743	781,819
-28,096	14,383	1418,933	781,009
-27,082	14,351	1417,716	780,159
-26,067	14,345	1416,682	779,531
-25,052	14,353	1415,677	778,984
-24,038	14,321	1414,734	778,281
-23,023	14,315	1413,654	777,631
-22,009	14,370	1412,609	777,281
-20,994	14,310	1411,569	776,399
-19,979	14,319	1410,724	775,942
-18,965	14,250	1409,856	775,112
-17,950	14,283	1408,832	774,673
-16,936	14,272	1408,022	774,143
-15,921	14,252	1406,866	773,384
-14,906	14,249	1406,071	772,902
-13,892	14,290	1405,045	772,501
-12,877	14,238	1404,300	771,816
-11,863	14,230	1403,152	771,120
-10,848	14,232	1402,357	770,663
-9,833	14,232	1401,405	770,108
-8,819	14,177	1400,703	769,433
-7,804	14,188	1399,587	768,841
-6,790	14,164	1398,635	768,178
-5,775	14,179	1397,462	767,572
-4,760	14,136	1396,860	767,012
-3,746	14,164	1395,894	766,581
-2,731	14,152	1394,820	765,904
-1,717	14,162	1393,977	765,456
-0,702	14,191	1392,205	764,587
0,313	18,023	1310,572	737,516
1,327	34,379	706,076	435,233
2,342	52,635	124,239	83,867
3,356	0,767	16,652	8,409
4,371	-2,299	3,265	1,615
5,386	16,163	0,560	0,312
6,400	470,690	0,072	0,115
7,415	160,752	-0,149	-0,148
8,429	-16,227	-0,235	-0,105
9,444	-36,864	-0,360	-0,136
10,459	14,280	-0,323	-0,178
11,473	122,968	-0,195	-0,172
12,488	-79,077	-0,206	-0,049
13,502	3,143	-0,372	-0,191
14,517	176,966	-0,267	-0,275
15,531	78,701	-0,318	-0,240
16,546	56,174	-0,301	-0,206
17,561	45,984	-0,326	-0,213
18,575	-34,344	-0,196	0,075
19,590	225,386	-0,310	-0,356
20,604	-54,294	-0,169	-0,054
21,619	92,733	-0,480	-0,383
22,634	49,141	-0,536	-0,356
23,648	76,293	-0,419	-0,313
24,663	-5,849	-0,404	-0,195
25,677	24,800	-0,323	-0,188
26,692	73,895	-0,329	-0,243
27,707	67,908	-0,304	-0,220
28,721	51,642	-0,405	-0,272
29,736	56,238	-0,343	-0,235
30,750	6,781	-0,429	-0,225
31,765	148,159	-0,322	-0,307
32,780	88,003	-0,386	-0,302
33,794	13,754	-0,352	-0,192
34,809	70,541	-0,394	-0,287
35,823	44,117	-0,396	-0,256
36,838	8,320	-0,378	-0,200
37,853	114,889	-0,381	-0,328
38,867	243,000	-0,261	-0,309
39,882	63,478	-0,345	-0,244
40,896	5,210	-0,351	-0,182
41,911	130,170	-0,306	-0,277
42,926	125,553	-0,258	-0,230
43,940	-23,455	-0,502	-0,212
44,955	223,431	-0,348	-0,397
45,969	-29,758	-0,343	-0,137
46,984	52,855	-0,369	-0,249
47,999	191,908	-0,293	-0,312
49,013	429,733	-0,211	-0,322
50,028	34,751	-0,282	-0,173
51,042	31,981	-0,441	-0,267
52,057	150,045	-0,373	-0,356
53,071	-5,352	-0,309	-0,149
54,086	12,533	-0,298	-0,161
55,101	-31,818	-0,344	-0,135
56,115	76,456	-0,277	-0,207
57,130	-0,077	-0,327	-0,163
58,144	6,003	-0,494	-0,257
59,159	15,638	-0,365	-0,202
60,174	23,454	-0,461	-0,266
61,188	9,285	-0,473	-0,251
62,203	-55,327	-0,328	-0,103
63,217	-26,562	-0,389	-0,160
64,232	93,847	-0,322	-0,257
65,247	211,072	-0,319	-0,354
66,261	125,765	-0,379	-0,337
67,276	72,527	-0,372	-0,273
68,290	20,536	-0,388	-0,220
69,305	-75,340	-0,359	-0,089
70,320	61,223	-0,224	-0,156
71,334	-26,870	-0,197	-0,081
72,349	122,741	-0,282	-0,248
73,363	-164,148	-0,346	-0,011
74,378	-86,175	-0,324	-0,070
75,393	70,552	-0,378	-0,275
76,407	4,201	-0,337	-0,173
77,422	631,681	-0,112	-0,199
78,436	-9,916	-0,252	-0,118
79,451	2,821	-0,325	-0,165
80,466	160,305	-0,340	-0,333
81,480	349,077	-0,202	-0,281
82,495	-6,051	-0,298	-0,142
83,509	15,987	-0,304	-0,168
84,524	-39,272	-0,354	-0,130
85,539	-104,815	-0,159	-0,025
86,553	6,011	-0,381	-0,198
87,568	42,300	-0,343	-0,218
88,582	29,652	-0,293	-0,175
89,597	67,336	-0,191	-0,137
90,611	253,056	-0,250	-0,300
91,626	-32,039	-0,153	-0,060
92,641	246,230	-0,209	-0,248
93,655	38,020	-0,218	-0,136
94,670	-105,391	-0,319	-0,050
95,684	19,202	-0,309	-0,173
96,699	129,781	-0,157	-0,141
97,714	52,362	-0,251	-0,168
98,728	-54,980	-0,204	-0,064
99,743	199,019	-0,167	-0,179
100,757	156,516	-0,202	-0,196
101,772	-16,662	-0,360	-0,159
102,787	79,332	-0,326	-0,245
103,801	277,407	-0,160	-0,200
104,816	51,374	-0,260	-0,173
105,830	122,738	-0,195	-0,171
106,845	24,267	-0,267	-0,155
107,860	92,586	-0,302	-0,239
108,874	-92,815	-0,283	0,055
109,889	364,433	-0,245	-0,347
110,903	21,312	-0,353	-0,201
111,918	-53,042	-0,127	-0,041
112,933	-14,911	-0,267	-0,120
113,947	73,594	-0,206	-0,151
114,962	13,829	-0,213	-0,116
115,976	83,645	-0,193	-0,147
116,991	474,673	-0,208	-0,329
118,006	149,617	-0,341	-0,324
119,020	20,135	-0,368	-0,207
120,035	116,901	-0,235	-0,202
121,049	-154,035	-0,261	0,012
122,064	-73,665	-0,178	-0,045
123,079	45,848	-0,380	-0,246
124,093	155,254	-0,304	-0,293
125,108	241,377	-0,142	-0,166
126,122	-33,861	-0,269	-0,103
127,137	50,372	-0,310	-0,205
128,151	405,371	-0,123	-0,182
129,166	48,004	-0,199	-0,130
130,181	318,532	-0,178	-0,237
131,195	-41,194	-0,201	-0,072
132,210	-8,842	-0,243	-0,114
133,224	61,212	-0,329	-0,229
134,239	317,993	-0,178	-0,236
135,254	-1,871	-0,216	-0,106
136,268	12,273	-0,309	-0,166
137,283	89,870	-0,196	-0,153
138,297	275,080	-0,185	-0,230
139,312	205,400	-0,231	-0,252
140,327	-1,981	-0,232	-0,114
141,341	170,452	-0,168	-0,168
142,356	83,683	-0,167	-0,127
143,370	-64,308	-0,216	-0,061
144,385	24,000	-0,273	-0,157
145,400	193,367	-0,179	-0,190
146,414	-45,758	-0,286	-0,098
147,429	-51,440	-0,195	-0,063
148,443	315,511	-0,231	-0,305
149,458	76,731	-0,210	-0,156
150,473	222,562	-0,214	-0,241
151,487	3,011	-0,223	-0,113
152,502	27,331	-0,268	-0,157
153,516	438,952	-0,147	-0,225
154,531	83,752	-0,200	-0,152
155,546	12,613	-0,272	-0,146
156,560	-29,938	-0,391	-0,155
157,575	-37,266	-0,332	-0,123
158,589	77,812	-0,199	-0,148
159,604	800,000	-0,132	-0,328
160,619	93,665	-0,349	-0,276
161,633	800,000	-0,117	-0,346
162,648	41,185	-0,189	-0,119
163,662	53,086	-0,247	-0,165
164,677	253,208	-0,127	-0,152
165,692	255,858	-0,113	-0,136
166,706	-51,843	-0,343	-0,111
167,721	93,692	-0,293	-0,231
168,735	233,536	-0,169	-0,194
169,750	89,897	-0,244	-0,190
170,764	55,099	-0,214	-0,144
171,779	346,335	-0,149	-0,205
172,794	185,826	-0,190	-0,197
173,808	156,381	-0,207	-0,199
174,823	-31,538	-0,188	-0,073
175,837	98,320	-0,193	-0,155
176,852	143,970	-0,356	-0,331
177,867	213,596	-0,139	-0,153
178,881	550,744	-0,195	-0,327
179,896	168,169	-0,215	-0,214
180,910	195,394	-0,208	-0,220
181,925	-2,588	-0,183	-0,089
182,940	80,476	-0,271	-0,203
183,954	35,752	-0,298	-0,182
184,969	-84,483	-0,172	-0,037
185,983	-94,972	-0,245	-0,046
186,998	61,413	-0,246	-0,170
188,013	109,235	-0,184	-0,153
189,027	253,112	-0,235	-0,280
190,042	139,963	-0,210	-0,193
191,056	59,638	-0,203	-0,139
192,071	137,386	-0,234	-0,213
193,086	49,162	-0,056	-0,037
194,100	75,515	-0,225	-0,165
195,115	-0,199	-0,206	-0,102
196,129	64,176	-0,200	-0,140
197,144	43,468	-0,263	-0,167
198,159	276,981	-0,166	-0,206
199,173	236,837	-0,153	-0,177
200,188	22,252	-0,232	-0,132
201,202	287,318	-0,197	-0,248
202,217	800,000	-0,085	-0,177
203,232	76,093	-0,232	-0,170
204,246	172,794	-0,269	-0,269
205,261	400,440	-0,190	-0,278
206,275	217,744	-0,217	-0,241
207,290	-37,126	-0,135	-0,050
208,304	86,448	-0,166	-0,127
209,319	-71,966	-0,232	-0,060
210,334	13,280	-0,182	-0,098
211,348	285,333	-0,275	-0,345
212,363	800,000	-0,096	-0,187
213,377	533,650	-0,122	-0,202
214,392	43,753	-0,194	-0,123
215,407	131,534	-0,149	-0,133
216,421	61,815	-0,244	-0,168
217,436	125,943	-0,232	-0,204
218,450	21,607	-0,199	-0,112
219,465	-87,741	-0,263	-0,055
220,480	406,004	-0,186	-0,273
221,494	-62,550	-0,198	-0,057
222,509	-63,927	-0,215	0,061
223,523	130,116	-0,115	-0,103
224,538	276,430	-0,118	-0,146
225,553	14,523	-0,208	-0,113
226,567	290,437	-0,158	-0,199
227,582	59,713	-0,250	-0,171
228,596	258,694	-0,170	-0,204
229,611	105,155	-0,254	-0,208
230,626	193,174	-0,254	-0,267
231,640	259,140	-0,174	-0,208
232,655	7,544	-0,299	-0,155
233,669	309,719	-0,205	-0,267
234,684	179,919	-0,135	-0,137
235,699	373,560	-0,116	-0,165
236,713	168,177	-0,152	-0,151
237,728	348,738	-0,148	-0,203
238,742	314,723	-0,205	-0,268
239,757	127,958	-0,153	-0,135
240,772	307,499	-0,148	-0,191
241,786	361,089	-0,153	-0,213
242,801	357,247	-0,158	-0,220
243,815	-22,166	-0,142	-0,060
244,830	50,987	-0,168	-0,110
245,844	-28,058	-0,153	-0,061
246,859	-20,475	-0,282	-0,120
247,874	156,908	-0,246	-0,236
248,888	85,138	-0,248	-0,188
249,903	97,626	-0,114	-0,091
250,917	203,384	-0,127	-0,136
251,932	126,963	-0,167	-0,147
252,947	102,434	-0,241	-0,195
253,961	37,229	-0,209	-0,128
254,976	117,879	-0,186	-0,158
255,990	65,888	-0,226	-0,159
257,005	146,967	-0,114	-0,106
258,020	-200,000	-0,003	-0,011
259,034	-93,089	-0,136	-0,026
260,049	68,201	-0,228	-0,162
261,063	800,000	-0,114	-0,274
262,078	790,040	-0,079	-0,151
263,093	566,742	-0,084	-0,141
264,107	571,939	-0,111	-0,188
265,122	-133,741	-0,136	-0,012
266,136	66,971	-0,183	-0,129
267,151	48,779	-0,110	-0,071
268,166	-78,605	-0,179	-0,042
269,180	487,244	-0,210	-0,333
270,195	-13,906	-0,243	-0,108
271,209	44,637	-0,201	-0,127
272,224	68,306	-0,109	-0,077
273,239	-25,986	-0,182	-0,074
274,253	-143,726	-0,047	0,003
275,268	139,929	-0,149	-0,136
276,282	200,825	-0,109	-0,116
277,297	-25,982	-0,200	-0,081
278,312	-125,195	-0,213	-0,022
279,326	82,056	-0,211	-0,158
280,341	-137,658	-0,100	-0,008
281,355	-13,350	-0,173	-0,077
282,370	-43,448	-0,204	-0,071
283,384	-47,862	-0,203	-0,068
284,399	-17,620	-0,245	-0,106
285,414	-140,506	-0,208	-0,015
286,428	-105,126	-0,064	0,010
287,443	-20,845	-0,136	-0,057
288,457	-95,628	-0,022	0,004
289,472	-27,440	-0,146	-0,058
290,487	255,953	-0,106	-0,125
291,501	42,668	-0,227	-0,142
292,516	347,861	-0,197	-0,269
293,530	479,579	-0,158	-0,248
294,545	-91,362	-0,256	-0,050
295,560	800,000	-0,095	-0,198
296,574	-172,766	-0,077	-0,002
297,589	158,498	-0,153	-0,146
298,603	333,921	-0,164	-0,219
299,618	-176,811	-0,196	0,003
300,633	273,952	-0,209	-0,255
301,647	-159,620	-0,109	-0,004
302,662	71,322	-0,116	-0,083
303,676	-42,822	-0,183	-0,064
304,691	133,791	-0,116	-0,104
305,706	186,138	-0,106	-0,109
306,720	76,804	-0,073	-0,054
307,735	114,263	-0,140	-0,117
308,749	330,320	-0,082	-0,109
309,764	-74,461	-0,208	-0,051
310,779	225,757	-0,146	-0,163
311,793	-52,470	-0,126	-0,040
312,808	-74,321	-0,212	-0,052
313,822	612,007	-0,125	-0,217
314,837	45,055	-0,178	-0,113
315,852	-41,374	-0,214	-0,076
316,866	-9,889	-0,208	-0,095
317,881	-6,780	-0,137	-0,064
318,895	-91,540	-0,261	-0,051
319,910	517,711	-0,116	-0,187
320,925	800,000	-0,073	-0,165
321,939	190,200	-0,116	-0,120
322,954	-72,810	-0,124	0,031
323,968	-80,927	-0,069	0,016
324,983	393,754	-0,051	0,074
325,997	115,954	-0,088	-0,074
327,012	-34,335	-0,208	-0,078
328,027	110,416	-0,129	-0,107
329,041	59,595	-0,132	-0,089
330,056	357,659	-0,089	-0,123
331,070	275,966	-0,118	-0,145
332,085	-31,436	-0,146	-0,056
333,100	453,571	-0,104	-0,159
334,114	-182,211	-0,129	-0,002
335,129	345,873	-0,148	-0,200
336,143	330,890	-0,106	-0,140
337,158	246,722	-0,115	-0,133
338,173	-89,747	-0,087	-0,017
339,187	-200,000	-0,009	-0,109
340,202	115,958	-0,095	-0,080
341,216	-52,148	-0,110	0,035
342,231	303,222	-0,075	-0,096
343,246	107,190	-0,165	-0,134
344,260	139,142	-0,136	-0,123
345,275	-200,000	-0,011	-0,208
346,289	310,704	-0,026	-0,034
347,304	332,396	-0,089	-0,119
348,319	-147,887	-0,130	-0,007
349,333	800,000	-0,087	-0,179
350,348	141,151	-0,085	-0,078
351,362	5,439	-0,240	-0,121
352,377	-13,793	-0,103	-0,046
353,392	129,959	-0,150	-0,132
354,406	-87,172	-0,149	0,031
355,421	209,021	1316,418	1416,038
356,435	160,853	1477,354	1416,530
