DTS Sentinel unit serial number:	SN410029Multiplexer serial number:	ORYXHardware model number:	OX2-SRSoftware version number:	ORYX F/W v4,00 Oryx Data Collector v3.7.2.0data status	okinstallation	B3 Nyhavnadifferential loss correction	single-endedforward channel	channel 1reverse channel	N/Adate	2023/11/30time	23:42:30forward acquisition time	300,00reverse acquisition time	0,00gamma	499,1914k internal	0,3211k external	0,3211temperature offset calibration	1,0000default loss term (dB/km)	0,3820temperature slope calibration	1,0000multiplexer offset coefficient	1,0000multiplexer slope coefficient	1,0000fibre end	0,00T internal ref (°C)	9,51T ext. ref 1 (°C)	-5,56T ext. ref 2 (°C)	-5,69length (m)	temperature (°C)	Stokes	anti-Stokes-744,400	188,369	-0,206	-0,223
-743,385	-200,000	0,036	0,233
-742,371	712,792	-0,118	-0,227
-741,356	-200,000	0,031	0,175
-740,342	-200,000	-0,026	-0,332
-739,327	-200,000	-0,032	0,178
-738,312	800,000	-0,104	-0,309
-737,298	800,000	-0,090	0,239
-736,283	89,583	-0,233	-0,189
-735,269	-200,000	-0,004	0,163
-734,254	96,079	-0,271	-0,224
-733,239	-20,872	-0,165	0,073
-732,225	227,964	-0,106	-0,126
-731,210	800,000	0,073	0,181
-730,196	-52,777	-0,100	-0,033
-729,181	47,905	0,027	-0,018
-728,167	-200,000	0,005	-0,120
-727,152	-200,000	0,042	-0,148
-726,137	21,932	-0,101	-0,059
-725,123	349,909	-0,088	-0,126
-724,108	800,000	-0,011	-0,031
-723,094	-142,129	-0,208	-0,015
-722,079	97,483	-0,168	-0,140
-721,064	800,000	-0,030	-0,090
-720,050	242,044	-0,076	0,093
-719,035	125,783	-0,125	0,115
-718,021	17,383	-0,120	0,069
-717,006	521,031	-0,062	-0,106
-715,991	-158,320	-0,082	0,003
-714,977	-50,496	-0,144	0,049
-713,962	118,204	-0,058	-0,052
-712,948	42,523	0,012	-0,008
-711,933	-54,248	-0,187	-0,061
-710,918	-158,251	0,124	0,005
-709,904	-81,533	-0,121	-0,029
-708,889	-200,000	-0,032	-0,127
-707,875	80,722	-0,050	0,039
-706,860	-173,953	-0,039	0,001
-705,845	128,695	0,146	0,135
-704,831	254,728	0,038	0,047
-703,816	-44,814	0,037	0,013
-702,802	-82,829	0,016	0,004
-701,787	-40,767	-0,045	0,017
-700,772	-200,000	-0,035	0,117
-699,758	414,027	-0,027	-0,042
-698,743	261,326	-0,056	-0,070
-697,729	113,843	-0,078	0,069
-696,714	-200,000	0,012	-0,131
-695,699	-148,267	-0,080	0,005
-694,685	-148,688	0,031	-0,002
-693,670	-156,296	-0,115	-0,005
-692,656	0,329	-0,019	-0,010
-691,641	-122,822	0,117	0,014
-690,627	-123,213	0,076	0,009
-689,612	18,504	-0,127	0,073
-688,597	150,284	-0,145	-0,143
-687,583	-14,883	-0,100	0,046
-686,568	260,609	-0,116	-0,145
-685,554	749,711	0,042	-0,083
-684,539	-200,000	-0,007	-0,151
-683,524	800,000	0,024	0,051
-682,510	-41,711	0,073	-0,027
-681,495	468,043	-0,037	-0,060
-680,481	-200,000	0,019	-0,078
-679,466	3,432	0,006	0,003
-678,451	-200,000	-0,006	-0,027
-677,437	206,571	-0,089	-0,101
-676,422	29,292	0,050	-0,030
-675,408	320,999	-0,043	0,060
-674,393	-154,147	-0,104	0,005
-673,378	800,000	-0,013	-0,039
-672,364	800,000	-0,027	-0,054
-671,349	-200,000	0,026	-0,136
-670,335	-115,145	-0,074	0,010
-669,320	-200,000	0,022	0,114
-668,305	507,168	0,036	0,060
-667,291	345,301	-0,040	-0,058
-666,276	-108,174	0,034	-0,005
-665,262	-2,096	-0,163	-0,082
-664,247	3,432	-0,109	-0,057
-663,232	-122,811	0,076	-0,009
-662,218	-200,000	-0,009	0,095
-661,203	514,993	-0,013	0,021
-660,189	69,751	-0,080	-0,060
-659,174	-200,000	0,000	-0,097
-658,159	-95,441	-0,037	0,007
-657,145	-94,751	0,042	-0,008
-656,130	-128,276	-0,007	0,001
-655,116	-200,000	-0,052	0,172
-654,101	-24,628	0,069	-0,030
-653,086	-144,167	-0,038	0,003
-652,072	-37,605	0,033	-0,013
-651,057	-7,931	-0,101	-0,049
-650,043	2,360	-0,083	-0,043
-649,028	18,283	0,075	-0,043
-648,014	-134,615	-0,069	0,006
-646,999	491,728	-0,076	0,126
-645,984	58,038	-0,076	0,054
-644,970	-200,000	-0,011	-0,063
-643,955	-9,967	-0,062	-0,030
-642,941	309,947	-0,004	0,005
-641,926	106,333	-0,109	-0,094
-640,911	156,757	-0,078	0,078
-639,897	-200,000	0,003	0,021
-638,882	61,775	-0,068	0,049
-637,868	-200,000	0,041	0,170
-636,853	-79,845	-0,056	-0,014
-635,838	303,596	-0,098	-0,131
-634,824	405,223	-0,050	0,076
-633,809	218,737	-0,045	-0,052
-632,795	-200,000	-0,013	-0,146
-631,780	-82,312	0,058	-0,013
-630,765	122,650	0,041	0,037
-629,751	-200,000	0,033	-0,243
-628,736	-200,000	0,007	0,120
-627,722	800,000	-0,005	-0,013
-626,707	800,000	0,019	0,051
-625,692	335,934	0,038	0,053
-624,678	189,821	0,057	0,061
-623,663	64,701	-0,135	-0,098
-622,649	607,497	-0,050	0,091
-621,634	-200,000	-0,006	-0,148
-620,619	800,000	0,024	-0,053
-619,605	-152,680	-0,046	-0,002
-618,590	-64,088	-0,109	0,032
-617,576	22,197	0,077	0,045
-616,561	135,048	0,035	-0,032
-615,546	-200,000	-0,009	-0,038
-614,532	-12,007	-0,146	-0,069
-613,517	-152,855	-0,132	-0,007
-612,503	209,590	-0,087	0,099
-611,488	-200,000	-0,029	0,201
-610,474	-97,013	0,104	0,019
-609,459	-39,767	-0,076	0,029
-608,444	220,404	0,043	-0,050
-607,430	76,799	-0,049	0,037
-606,415	-200,000	-0,031	0,137
-605,401	-200,000	-0,035	-0,141
-604,386	177,940	0,019	-0,019
-603,371	-67,779	0,127	-0,036
-602,357	104,184	-0,053	0,045
-601,342	-200,000	0,006	0,027
-600,328	-200,000	0,038	-0,171
-599,313	800,000	0,055	-0,134
-598,298	36,565	-0,073	0,046
-597,284	800,000	0,022	0,051
-596,269	-200,000	0,011	0,165
-595,255	62,652	0,105	0,075
-594,240	26,751	-0,109	-0,066
-593,225	-200,000	-0,019	-0,148
-592,211	272,317	-0,079	-0,101
-591,196	800,000	-0,023	-0,066
-590,182	-200,000	0,012	0,042
-589,167	-33,648	0,080	0,031
-588,152	198,248	0,026	0,029
-587,138	-200,000	0,016	-0,092
-586,123	-200,000	-0,001	-0,064
-585,109	-2,051	-0,072	0,037
-584,094	-200,000	0,001	0,042
-583,079	-89,713	0,151	-0,032
-582,065	739,140	0,052	0,100
-581,050	136,755	-0,039	0,037
-580,036	23,308	0,048	-0,028
-579,021	89,587	-0,101	-0,081
-578,006	432,781	-0,015	0,024
-576,992	-8,557	-0,069	-0,033
-575,977	19,517	0,051	0,030
-574,963	800,000	0,073	0,151
-573,948	-102,871	-0,109	0,019
-572,934	-92,144	-0,046	0,009
-571,919	243,795	-0,111	-0,135
-570,904	115,485	-0,021	-0,018
-569,890	81,108	-0,059	0,046
-568,875	-200,000	-0,000	-0,071
-567,861	265,468	0,101	0,127
-566,846	171,674	0,047	0,048
-565,831	800,000	0,028	0,085
-564,817	146,436	-0,067	0,065
-563,802	-14,269	-0,094	0,043
-562,788	-200,000	-0,003	0,047
-561,773	316,727	0,059	-0,080
-560,758	168,150	0,068	-0,070
-559,744	161,302	0,074	0,074
-558,729	-200,000	0,038	0,128
-557,715	-183,617	0,040	-0,000
-556,700	800,000	-0,029	-0,068
-555,685	218,503	-0,021	0,025
-554,671	106,416	-0,126	0,107
-553,656	-48,766	0,103	0,035
-552,642	800,000	-0,014	-0,028
-551,627	-126,163	-0,170	0,018
-550,612	101,568	0,119	-0,100
-549,598	-38,163	-0,102	-0,039
-548,583	-148,478	-0,107	0,006
-547,569	154,339	0,073	-0,073
-546,554	343,371	0,060	0,085
-545,539	7,537	-0,138	-0,074
-544,525	-96,956	0,110	0,021
-543,510	179,758	0,043	0,046
-542,496	395,066	-0,075	-0,113
-541,481	-60,281	-0,034	-0,010
-540,466	713,579	-0,008	-0,014
-539,452	-200,000	-0,025	0,100
-538,437	-200,000	0,005	0,032
-537,423	-124,768	-0,037	0,004
-536,408	-92,137	0,091	0,018
-535,393	148,716	-0,095	-0,093
-534,379	-65,464	0,124	0,036
-533,364	486,061	0,041	0,068
-532,350	264,624	0,095	-0,119
-531,335	20,506	0,101	-0,058
-530,321	112,585	-0,021	0,018
-529,306	-72,794	0,035	0,009
-528,291	-62,698	0,051	0,015
-527,277	86,039	-0,078	0,062
-526,262	-43,969	-0,049	0,018
-525,248	-200,000	0,013	-0,083
-524,233	-55,901	-0,066	-0,021
-523,218	347,015	0,106	0,151
-522,204	-200,000	-0,005	-0,030
-521,189	-200,000	0,023	-0,078
-520,175	800,000	0,031	-0,076
-519,160	459,268	0,029	-0,047
-518,145	558,368	-0,036	-0,063
-517,131	-42,933	0,146	-0,053
-516,116	-200,000	0,011	0,181
-515,102	766,086	-0,069	0,135
-514,087	-112,392	-0,032	0,004
-513,072	20,680	0,071	-0,041
-512,058	270,912	-0,045	0,057
-511,043	739,559	0,068	0,133
-510,029	220,844	-0,078	-0,090
-509,014	-11,955	0,099	0,046
-507,999	111,204	-0,052	-0,045
-506,985	-200,000	-0,003	-0,089
-505,970	800,000	-0,013	0,038
-504,956	-89,490	0,120	0,025
-503,941	241,753	-0,073	0,088
-502,926	169,048	-0,054	-0,055
-501,912	-200,000	0,020	0,114
-500,897	145,090	-0,104	0,100
-499,883	357,781	-0,127	0,183
-498,868	487,308	0,059	-0,097
-497,853	-56,244	-0,107	0,034
-496,839	-200,000	0,035	0,156
-495,824	-200,000	-0,028	0,187
-494,810	-200,000	-0,018	0,118
-493,795	-97,311	-0,146	0,027
-492,781	-145,521	-0,077	-0,005
-491,766	756,516	0,061	0,120
-490,751	-93,828	0,027	-0,005
-489,737	13,772	-0,035	0,019
-488,722	521,035	-0,013	0,022
-487,708	145,810	0,116	0,112
-486,693	-200,000	-0,006	0,056
-485,678	69,961	-0,064	0,048
-484,664	-11,695	0,029	0,014
-483,649	-140,891	0,047	-0,003
-482,635	281,607	-0,035	-0,046
-481,620	-200,000	-0,010	-0,060
-480,605	-150,493	0,189	0,010
-479,591	-48,661	0,054	-0,018
-478,576	245,754	-0,039	-0,048
-477,562	357,881	-0,032	0,045
-476,547	800,000	-0,035	-0,075
-475,532	149,535	0,157	-0,152
-474,518	800,000	-0,072	0,217
-473,503	-62,999	0,097	0,029
-472,489	-200,000	0,023	0,108
-471,474	356,368	-0,075	-0,107
-470,459	144,521	-0,071	0,068
-469,445	-6,119	0,062	0,031
-468,430	368,562	-0,024	0,035
-467,416	800,000	0,023	0,061
-466,401	-200,000	0,027	0,101
-465,386	271,029	-0,015	0,018
-464,372	105,248	-0,092	-0,078
-463,357	263,215	-0,012	0,016
-462,343	738,782	-0,011	0,021
-461,328	-91,949	-0,103	-0,021
-460,313	527,815	0,053	0,089
-459,299	287,183	-0,006	0,007
-458,284	325,609	-0,016	0,021
-457,270	93,676	0,035	0,028
-456,255	281,886	-0,029	0,038
-455,241	74,680	-0,109	-0,082
-454,226	-105,752	-0,060	-0,010
-453,211	-86,008	0,109	0,024
-452,197	-200,000	0,021	0,133
-451,182	-200,000	-0,020	0,075
-450,168	121,925	0,044	-0,039
-449,153	-137,241	-0,017	-0,001
-448,138	-200,000	0,006	-0,050
-447,124	163,534	-0,094	-0,095
-446,109	-200,000	-0,003	0,089
-445,095	-73,644	0,076	-0,020
-444,080	756,638	-0,018	-0,036
-443,065	90,347	0,157	0,125
-442,051	-200,000	0,009	-0,031
-441,036	480,547	-0,041	-0,067
-440,022	46,521	0,065	0,043
-439,007	43,288	-0,048	-0,031
-437,992	-200,000	0,000	0,064
-436,978	484,659	0,027	0,044
-435,963	38,684	0,099	0,063
-434,949	-200,000	0,006	0,100
-433,934	135,350	0,014	0,013
-432,919	-96,357	-0,022	-0,004
-431,905	-167,360	-0,009	-0,000
-430,890	800,000	-0,029	0,078
-429,876	-43,136	0,093	0,033
-428,861	-200,000	0,005	-0,049
-427,846	-200,000	-0,005	-0,030
-426,832	292,894	-0,026	-0,034
-425,817	-72,042	0,096	-0,025
-424,803	-200,000	0,007	-0,042
-423,788	86,126	-0,077	0,061
-422,773	-182,231	-0,029	-0,000
-421,759	89,932	0,052	-0,041
-420,744	207,488	-0,071	-0,079
-419,730	-200,000	0,017	-0,118
-418,715	505,186	0,035	0,059
-417,701	-52,362	0,038	-0,012
-416,686	-3,832	0,107	0,053
-415,671	-200,000	-0,013	0,165
-414,657	99,286	-0,050	0,042
-413,642	-15,381	-0,047	0,021
-412,628	-37,098	-0,053	-0,020
-411,613	-200,000	-0,038	-0,125
-410,598	800,000	-0,027	0,080
-409,584	-142,643	0,115	0,008
-408,569	595,237	0,014	0,025
-407,555	579,980	0,019	0,034
-406,540	-53,765	-0,013	-0,004
-405,525	396,318	-0,041	0,062
-404,511	800,000	0,037	0,086
-403,496	42,203	-0,112	0,073
-402,482	800,000	-0,053	0,114
-401,467	-200,000	-0,012	0,089
-400,452	800,000	0,086	0,177
-399,438	-155,496	0,189	0,009
-398,423	-200,000	-0,003	-0,017
-397,409	112,001	-0,078	-0,067
-396,394	14,178	-0,127	-0,071
-395,379	533,388	0,045	0,076
-394,365	85,535	-0,074	0,058
-393,350	-62,802	0,036	0,011
-392,336	-200,000	0,010	0,075
-391,321	185,292	-0,038	-0,040
-390,306	233,704	-0,038	-0,045
-389,292	-133,199	0,009	0,001
-388,277	-11,461	-0,077	-0,036
-387,263	800,000	0,051	-0,112
-386,248	172,063	0,109	0,112
-385,233	151,746	-0,118	-0,115
-384,219	-200,000	0,011	0,040
-383,204	-200,000	-0,007	-0,113
-382,190	95,370	0,026	0,021
-381,175	123,635	-0,071	0,064
-380,160	800,000	-0,034	0,100
-379,146	-5,273	0,122	0,060
-378,131	-200,000	-0,018	0,061
-377,117	258,726	0,044	0,054
-376,102	4,862	-0,118	0,062
-375,088	98,335	-0,075	-0,062
-374,073	51,653	-0,060	0,041
-373,058	69,991	0,134	0,099
-372,044	-136,920	0,150	0,012
-371,029	520,449	-0,057	-0,095
-370,015	-10,695	0,161	0,076
-369,000	30,199	-0,031	-0,019
-367,985	-200,000	-0,029	-0,124
-366,971	-200,000	-0,016	-0,159
-365,956	-144,824	-0,073	-0,005
-364,942	-68,131	-0,075	0,021
-363,927	12,772	0,070	0,039
-362,912	800,000	0,048	-0,149
-361,898	82,883	0,028	0,022
-360,883	101,161	0,034	-0,029
-359,869	-200,000	-0,025	-0,139
-358,854	800,000	0,035	-0,081
-357,839	223,449	-0,095	0,110
-356,825	-49,925	0,051	0,017
-355,810	800,000	-0,040	-0,081
-354,796	800,000	0,027	-0,081
-353,781	-200,000	0,018	-0,093
-352,766	207,417	-0,027	0,030
-351,752	-6,839	0,091	-0,044
-350,737	252,386	0,051	0,062
-349,723	-200,000	0,030	0,120
-348,708	164,000	-0,067	0,067
-347,693	-200,000	-0,006	0,105
-346,679	800,000	0,021	0,055
-345,664	-200,000	-0,005	-0,148
-344,650	-200,000	-0,006	-0,028
-343,635	-42,958	0,135	-0,049
-342,620	-200,000	0,022	0,129
-341,606	-175,950	-0,026	0,000
-340,591	770,854	-0,023	-0,044
-339,577	-200,000	0,000	0,030
-338,562	-200,000	0,045	-0,169
-337,548	-200,000	-0,023	-0,092
-336,533	-200,000	0,021	-0,075
-335,518	43,434	0,053	0,035
-334,504	85,404	-0,064	-0,050
-333,489	-200,000	-0,013	0,041
-332,475	157,249	-0,037	-0,036
-331,460	17,137	-0,103	0,058
-330,445	800,000	0,035	0,093
-329,431	271,104	0,035	0,044
-328,416	1,284	0,068	0,035
-327,402	-8,141	0,037	0,018
-326,387	43,710	-0,048	-0,031
-325,372	-200,000	0,006	-0,119
-324,358	203,100	-0,030	0,033
-323,343	-31,195	0,122	0,049
-322,329	310,127	0,021	-0,028
-321,314	-87,568	0,105	-0,023
-320,299	800,000	-0,014	0,038
-319,285	-197,592	0,114	0,000
-318,270	623,203	-0,061	-0,110
-317,256	-95,627	0,113	-0,021
-316,241	-80,539	-0,070	-0,016
-315,226	800,000	0,048	0,098
-314,212	42,283	0,066	0,043
-313,197	-200,000	0,030	-0,133
-312,183	-113,199	-0,124	0,017
-311,168	57,099	-0,034	-0,024
-310,153	389,517	-0,120	-0,178
-309,139	-200,000	-0,030	0,139
-308,124	-58,602	0,091	0,028
-307,110	-200,000	0,000	-0,027
-306,095	-200,000	-0,006	0,035
-305,080	800,000	0,045	0,114
-304,066	130,481	0,062	-0,057
-303,051	-99,072	-0,135	-0,024
-302,037	36,870	-0,145	-0,091
-301,022	-194,535	0,068	0,000
-300,008	-161,423	0,166	0,006
-298,993	-130,546	-0,029	-0,003
-297,978	-200,000	-0,044	-0,161
-296,964	-115,479	-0,062	-0,008
-295,949	392,649	0,049	-0,073
-294,935	-180,754	0,027	-0,000
-293,920	-61,366	-0,023	0,007
-292,905	19,592	-0,093	0,053
-291,891	-83,939	-0,066	0,015
-290,876	-7,303	-0,125	0,060
-289,862	-51,466	0,104	-0,034
-288,847	-151,821	-0,049	-0,003
-287,832	-97,416	-0,172	-0,032
-286,818	-92,844	-0,025	-0,005
-285,803	-56,773	-0,039	0,012
-284,789	-169,609	0,096	0,002
-283,774	-65,565	-0,133	0,038
-282,759	800,000	0,044	-0,094
-281,745	-200,000	-0,015	-0,143
-280,730	-103,141	-0,140	-0,023
-279,716	64,641	0,141	-0,101
-278,701	35,035	0,097	-0,061
-277,686	-200,000	0,020	-0,120
-276,672	-200,000	0,002	0,024
-275,657	144,336	-0,035	-0,034
-274,643	77,432	0,071	0,054
-273,628	-200,000	0,024	-0,104
-272,613	193,196	-0,100	0,108
-271,599	128,499	0,101	-0,092
-270,584	345,813	-0,017	0,024
-269,570	177,807	0,064	0,067
-268,555	-58,397	0,160	-0,049
-267,540	800,000	-0,061	-0,137
-266,526	769,611	-0,057	-0,111
-265,511	-200,000	0,010	0,043
-264,497	-155,760	0,117	0,005
-263,482	38,573	0,092	0,059
-262,467	-29,595	0,078	0,032
-261,453	433,010	0,028	-0,044
-260,438	800,000	0,034	-0,081
-259,424	-98,062	-0,116	0,021
-258,409	63,537	-0,145	-0,103
-257,395	325,979	0,029	-0,040
-256,380	-200,000	-0,001	-0,045
-255,365	-200,000	0,020	0,130
-254,351	359,584	0,072	-0,103
-253,336	343,652	-0,070	-0,098
-252,322	-98,302	-0,067	0,012
-251,307	7,086	-0,059	0,031
-250,292	-40,343	0,154	-0,057
-249,278	-0,581	0,028	-0,014
-248,263	-106,230	0,054	0,008
-247,249	-200,000	0,022	-0,077
-246,234	-200,000	0,005	0,123
-245,219	105,319	-0,057	-0,048
-244,205	-5,029	0,050	-0,024
-243,190	-108,228	0,048	-0,007
-242,176	-200,000	-0,011	0,116
-241,161	33,445	0,096	0,059
-240,146	-200,000	-0,003	-0,068
-239,132	800,000	-0,031	0,065
-238,117	-200,000	0,019	-0,124
-237,103	311,208	-0,070	-0,094
-236,088	262,442	0,045	0,056
-235,073	-200,000	0,009	0,125
-234,059	254,931	-0,038	0,046
-233,044	800,000	-0,027	-0,056
-232,030	-69,257	0,109	-0,030
-231,015	386,629	-0,041	-0,061
-230,000	-63,549	-0,106	-0,031
-228,986	-142,802	0,129	0,009
-227,971	405,310	-0,030	-0,045
-226,957	378,068	0,059	0,086
-225,942	-43,174	-0,060	-0,021
-224,927	5,038	0,130	0,068
-223,913	-135,333	-0,132	-0,011
-222,898	19,588	-0,078	0,045
-221,884	-113,842	0,045	0,006
-220,869	-123,593	-0,027	-0,003
-219,855	-32,563	0,035	-0,014
-218,840	800,000	-0,020	0,047
-217,825	-200,000	-0,014	-0,110
-216,811	800,000	-0,063	-0,128
-215,796	-200,000	0,020	-0,072
-214,782	800,000	-0,026	-0,075
-213,767	-76,432	-0,127	0,031
-212,752	-127,010	0,211	0,022
-211,738	-92,113	0,057	-0,011
-210,723	-150,042	-0,116	-0,006
-209,709	-200,000	0,000	0,050
-208,694	800,000	0,020	-0,052
-207,679	9,024	-0,043	-0,023
-206,665	103,143	0,051	0,043
-205,650	-63,812	-0,169	0,049
-204,636	-200,000	-0,044	0,183
-203,621	-200,000	0,009	0,065
-202,606	800,000	-0,027	-0,077
-201,592	-200,000	0,011	-0,097
-200,577	75,592	0,036	-0,027
-199,563	130,205	0,087	-0,079
-198,548	-200,000	0,018	0,171
-197,533	800,000	0,031	-0,065
-196,519	415,545	0,062	0,095
-195,504	227,867	0,062	0,072
-194,490	249,260	-0,086	-0,104
-193,475	-180,176	-0,129	0,002
-192,460	261,016	0,025	-0,031
-191,446	182,576	0,043	-0,046
-190,431	297,885	-0,063	-0,083
-189,417	-98,509	0,149	-0,027
-188,402	298,709	0,067	0,088
-187,387	-200,000	-0,042	-0,254
-186,373	-200,000	-0,008	-0,147
-185,358	7,603	0,132	0,070
-184,344	168,389	0,049	0,050
-183,329	386,607	-0,090	-0,132
-182,315	-200,000	-0,012	-0,073
-181,300	113,470	-0,040	-0,034
-180,285	300,149	-0,041	-0,053
-179,271	-119,660	0,135	0,016
-178,256	101,589	-0,018	0,015
-177,242	609,333	-0,017	-0,030
-176,227	-89,120	0,102	-0,021
-175,212	-150,992	0,026	0,001
-174,198	288,691	0,021	-0,027
-173,183	217,417	-0,135	-0,153
-172,169	-200,000	-0,001	-0,109
-171,154	-200,000	-0,023	0,105
-170,139	-114,209	-0,114	-0,015
-169,125	-200,000	-0,030	-0,128
-168,110	-14,584	0,148	-0,067
-167,096	62,553	0,032	0,023
-166,081	496,724	0,062	-0,101
-165,066	184,025	0,035	-0,037
-164,052	-200,000	-0,001	-0,096
-163,037	41,593	0,096	0,062
-162,023	-200,000	-0,003	-0,093
-161,008	73,691	0,051	0,038
-159,993	800,000	0,025	0,078
-158,979	15,318	-0,056	-0,031
-157,964	-120,568	-0,075	-0,009
-156,950	356,704	0,031	-0,044
-155,935	583,073	-0,080	0,140
-154,920	78,414	0,082	-0,062
-153,906	-200,000	-0,004	0,026
-152,891	-200,000	0,031	0,109
-151,877	-40,178	-0,124	0,045
-150,862	-200,000	-0,033	-0,201
-149,847	-200,000	-0,039	-0,131
-148,833	-62,700	0,045	0,013
-147,818	-200,000	0,014	0,073
-146,804	800,000	0,051	-0,147
-145,789	800,000	0,041	-0,090
-144,775	-65,441	0,095	-0,027
-143,760	-41,049	-0,086	0,031
-142,745	800,000	-0,047	-0,118
-141,731	-114,965	0,053	-0,007
-140,716	168,712	0,065	-0,065
-139,702	78,492	0,031	0,023
-138,687	-200,000	-0,012	0,092
-137,672	-48,795	0,032	-0,011
-136,658	-96,474	0,089	-0,017
-135,643	-200,000	0,034	-0,155
-134,629	800,000	0,045	-0,108
-133,614	-200,000	-0,001	-0,134
-132,599	17,026	0,118	0,066
-131,585	-102,708	0,031	0,005
-130,570	97,217	-0,060	0,049
-129,556	800,000	0,018	-0,054
-128,541	-76,200	0,053	-0,013
-127,526	800,000	-0,045	-0,122
-126,512	-200,000	0,016	0,057
-125,497	-35,611	0,069	-0,027
-124,483	32,070	0,019	-0,011
-123,468	52,291	0,058	0,039
-122,453	312,302	-0,096	0,127
-121,439	-200,000	0,015	-0,126
-120,424	-200,000	0,025	-0,245
-119,410	572,496	0,024	0,042
-118,395	-200,000	0,000	0,069
-117,380	89,609	-0,055	-0,044
-116,366	800,000	-0,068	0,178
-115,351	-200,000	0,009	-0,069
-114,337	800,000	-0,046	-0,099
-113,322	-0,233	-0,086	0,043
-112,307	148,246	0,159	-0,152
-111,293	-200,000	0,036	0,177
-110,278	-200,000	-0,026	0,105
-109,264	-200,000	0,015	0,190
-108,249	30,041	0,085	0,051
-107,234	428,664	-0,000	0,001
-106,220	304,701	0,037	-0,049
-105,205	-14,985	0,063	-0,028
-104,191	271,378	-0,082	0,102
-103,176	63,516	0,097	0,069
-102,162	800,000	-0,006	0,012
-101,147	-200,000	0,005	0,102
-100,132	471,634	-0,033	0,053
-99,118	800,000	-0,036	0,074
-98,103	371,672	-0,094	0,135
-97,089	-200,000	-0,020	-0,097
-96,074	-200,000	-0,002	-0,055
-95,059	323,173	0,069	0,094
-94,045	57,997	0,039	-0,027
-93,030	800,000	-0,043	-0,113
-92,016	314,474	-0,046	-0,062
-91,001	-200,000	0,029	0,105
-89,986	-191,846	0,072	0,000
-88,972	-99,245	-0,103	-0,018
-87,957	-200,000	0,008	-0,103
-86,943	93,606	0,043	0,034
-85,928	120,641	-0,057	-0,050
-84,913	196,782	-0,099	-0,107
-83,899	-124,406	-0,110	-0,012
-82,884	-200,000	0,047	0,194
-81,870	-200,000	-0,031	0,149
-80,855	800,000	0,033	0,103
-79,840	648,501	-0,045	-0,081
-78,826	-109,376	0,089	-0,013
-77,811	-200,000	-0,026	-0,135
-76,797	-200,000	-0,016	-0,089
-75,782	-200,000	0,017	0,208
-74,767	320,176	0,060	0,081
-73,753	-200,000	-0,006	0,195
-72,738	148,390	0,038	-0,036
-71,724	-200,000	-0,001	0,021
-70,709	104,889	0,049	0,041
-69,694	87,778	-0,026	0,020
-68,680	215,303	-0,018	-0,020
-67,665	800,000	0,050	-0,115
-66,651	-145,067	0,044	0,003
-65,636	588,483	0,035	0,060
-64,622	-90,219	-0,047	-0,010
-63,607	657,114	-0,048	-0,088
-62,592	-200,000	0,001	-0,036
-61,578	213,664	-0,077	0,086
-60,563	-200,000	0,028	0,105
-59,549	800,000	0,057	-0,123
-58,534	51,894	-1,950	-1,309
-57,519	683,959	-1,102	-2,039
-56,505	-200,000	-0,368	-4,565
-55,490	359,619	0,986	1,396
-54,476	800,000	5,332	12,099
-53,461	-200,000	21,689	342,650
-52,446	800,000	762,893	2333,992
-51,432	543,833	1662,146	2811,415
-50,417	71,202	1658,752	1212,845
-49,403	17,272	1532,400	855,990
-48,388	11,310	1456,462	784,754
-47,373	19,273	1448,174	818,447
-46,359	14,785	1436,980	790,765
-45,344	9,621	1433,014	763,978
-44,330	9,523	1431,197	762,514
-43,315	9,552	1429,233	761,572
-42,300	9,558	1427,651	760,729
-41,286	9,584	1426,315	760,111
-40,271	9,531	1425,391	759,337
-39,257	9,560	1423,994	758,700
-38,242	9,577	1422,723	758,070
-37,227	9,555	1421,857	757,476
-36,213	9,550	1420,337	756,613
-35,198	9,616	1418,977	756,171
-34,184	9,642	1418,123	755,809
-33,169	9,550	1416,819	754,649
-32,154	9,592	1415,910	754,334
-31,140	9,607	1414,658	753,704
-30,125	9,644	1413,224	753,084
-29,111	9,589	1412,444	752,383
-28,096	9,566	1411,013	751,483
-27,082	9,516	1409,940	750,646
-26,067	9,494	1408,867	749,944
-25,052	9,549	1407,745	749,573
-24,038	9,575	1406,792	749,158
-23,023	9,554	1405,986	748,601
-22,009	9,526	1404,931	747,877
-20,994	9,548	1403,858	747,382
-19,979	9,540	1402,995	746,852
-18,965	9,507	1401,975	746,128
-17,950	9,524	1401,077	745,698
-16,936	9,476	1400,245	745,005
-15,921	9,446	1399,374	744,371
-14,906	9,469	1398,183	743,812
-13,892	9,499	1397,241	743,424
-12,877	9,453	1396,776	742,930
-11,863	9,430	1395,922	742,341
-10,848	9,404	1395,009	741,707
-9,833	9,371	1394,243	741,116
-8,819	9,367	1393,231	740,529
-7,804	9,332	1392,342	739,865
-6,790	9,390	1391,035	739,410
-5,775	9,336	1390,022	738,596
-4,760	9,363	1389,134	738,216
-3,746	9,387	1388,078	737,735
-2,731	9,377	1387,252	737,223
-1,717	9,378	1386,398	736,744
-0,702	9,376	1384,656	735,781
0,313	13,369	1297,067	707,486
1,327	29,402	687,616	411,301
2,342	45,748	118,891	77,385
3,356	2,735	16,581	8,454
4,371	10,598	3,553	1,905
5,386	-46,168	1,268	0,438
6,400	800,000	0,295	0,620
7,415	-81,760	-0,233	-0,053
8,429	53,308	-0,341	-0,230
9,444	76,126	-0,261	-0,195
10,459	-24,831	-0,324	-0,135
11,473	-115,867	-0,371	-0,048
12,488	-59,224	-0,326	-0,098
13,502	149,265	-0,216	-0,206
14,517	62,272	-0,313	-0,220
15,531	-57,758	-0,343	-0,105
16,546	52,464	-0,329	-0,221
17,561	82,251	-0,397	-0,303
18,575	33,807	-0,192	-0,117
19,590	240,820	-0,185	-0,218
20,604	31,569	-0,240	-0,145
21,619	46,115	-0,464	-0,302
22,634	133,887	-0,436	-0,397
23,648	20,030	-0,430	-0,244
24,663	227,928	-0,282	-0,323
25,677	153,742	-0,314	-0,303
26,692	40,498	-0,288	-0,182
27,707	45,374	-0,320	-0,207
28,721	128,690	-0,386	-0,346
29,736	115,873	-0,438	-0,377
30,750	36,602	-0,406	-0,252
31,765	29,292	-0,452	-0,270
32,780	105,378	-0,389	-0,323
33,794	236,002	-0,287	-0,334
34,809	101,550	-0,374	-0,306
35,823	10,153	-0,345	-0,184
36,838	18,814	-0,303	-0,170
37,853	59,372	-0,360	-0,249
38,867	170,976	-0,238	-0,240
39,882	0,166	-0,336	-0,168
40,896	136,725	-0,283	-0,260
41,911	89,981	-0,265	-0,208
42,926	65,113	-0,290	-0,205
43,940	28,002	-0,385	-0,228
44,955	87,842	-0,361	-0,281
45,969	177,364	-0,376	-0,385
46,984	52,370	-0,282	-0,189
47,999	91,094	-0,292	-0,230
49,013	23,315	-0,358	-0,206
50,028	21,934	-0,373	-0,213
51,042	48,614	-0,345	-0,227
52,057	156,761	-0,432	-0,420
53,071	138,266	-0,348	-0,321
54,086	137,602	-0,291	-0,268
55,101	-22,923	-0,235	-0,099
56,115	40,589	-0,318	-0,201
57,130	554,208	-0,197	-0,334
58,144	89,627	-0,348	-0,272
59,159	6,228	-0,209	-0,109
60,174	134,568	-0,385	-0,351
61,188	-20,942	-0,433	-0,185
62,203	48,556	-0,317	-0,208
63,217	230,162	-0,200	-0,230
64,232	205,138	-0,289	-0,315
65,247	113,557	-0,349	-0,297
66,261	199,905	-0,407	-0,439
67,276	11,276	-0,319	-0,171
68,290	69,564	-0,317	-0,229
69,305	48,351	-0,332	-0,217
70,320	-3,350	-0,308	-0,150
71,334	56,270	-0,267	-0,181
72,349	2,068	-0,386	-0,195
73,363	119,604	-0,302	-0,262
74,378	35,631	-0,369	-0,227
75,393	-14,984	-0,416	-0,186
76,407	40,357	-0,313	-0,197
77,422	228,950	-0,203	-0,232
78,436	69,425	-0,261	-0,188
79,451	-56,607	-0,201	-0,062
80,466	-5,235	-0,319	-0,153
81,480	0,633	-0,287	-0,143
82,495	-20,721	-0,418	-0,179
83,509	68,600	-0,292	-0,210
84,524	277,226	-0,221	-0,276
85,539	-51,960	-0,247	-0,080
86,553	-42,426	-0,431	-0,153
87,568	168,165	-0,256	-0,256
88,582	208,808	-0,329	-0,361
89,597	100,365	-0,366	-0,297
90,611	38,517	-0,226	-0,141
91,626	-31,686	-0,204	-0,080
92,641	229,144	-0,246	-0,281
93,655	-8,317	-0,311	-0,146
94,670	27,563	-0,347	-0,204
95,684	593,996	-0,194	-0,337
96,699	-57,152	-0,342	-0,105
97,714	600,929	-0,160	-0,279
98,728	-148,231	-0,224	-0,013
99,743	33,012	-0,307	-0,186
100,757	-59,630	-0,296	-0,088
101,772	207,855	-0,191	-0,209
102,787	437,328	-0,271	-0,414
103,801	1,743	-0,364	-0,183
104,816	-95,397	-0,235	-0,044
105,830	42,824	-0,185	-0,117
106,845	-24,709	-0,274	-0,113
107,860	206,330	-0,166	-0,181
108,874	1,101	-0,318	-0,159
109,889	5,464	-0,446	-0,229
110,903	219,608	-0,140	-0,157
111,918	119,405	-0,322	-0,279
112,933	800,000	-0,032	-0,064
113,947	-58,118	-0,305	-0,092
114,962	800,000	-0,104	-0,257
115,976	12,912	-0,233	-0,125
116,991	-99,248	-0,198	-0,035
118,006	587,941	-0,133	-0,229
119,020	3,986	-0,269	-0,137
120,035	39,134	-0,283	-0,176
121,049	-21,962	-0,358	-0,151
122,064	294,589	-0,115	-0,147
123,079	23,967	-0,303	-0,174
124,093	184,521	-0,170	-0,175
125,108	-71,094	-0,262	-0,068
126,122	-38,598	-0,279	-0,102
127,137	59,165	-0,183	-0,125
128,151	-70,504	-0,132	-0,035
129,166	-111,854	-0,243	-0,034
130,181	-92,357	-0,255	-0,050
131,195	-87,688	-0,227	-0,047
132,210	-4,346	-0,218	-0,105
133,224	-37,753	-0,304	-0,112
134,239	-28,605	-0,184	-0,074
135,254	1,524	-0,275	-0,138
136,268	-62,811	-0,291	-0,084
137,283	362,934	-0,129	-0,181
138,297	-98,517	-0,281	-0,050
139,312	40,436	-0,290	-0,182
140,327	43,983	-0,263	-0,168
141,341	683,876	-0,129	-0,236
142,356	251,646	-0,180	-0,214
143,370	10,929	-0,192	-0,102
144,385	362,157	-0,178	-0,249
145,400	26,883	-0,196	-0,114
146,414	354,084	-0,241	-0,334
147,429	11,513	-0,276	-0,147
148,443	130,495	-0,294	-0,263
149,458	-0,506	-0,193	-0,095
150,473	-11,343	-0,291	-0,133
151,487	105,147	-0,157	-0,129
152,502	12,887	-0,264	-0,142
153,516	-35,788	-0,227	-0,085
154,531	91,423	-0,305	-0,239
155,546	-79,752	-0,229	-0,053
156,560	-60,162	-0,123	-0,036
157,575	269,828	-0,113	-0,139
158,589	9,479	-0,232	-0,122
159,604	135,412	-0,241	-0,218
160,619	100,203	-0,177	-0,143
161,633	71,059	-0,282	-0,203
162,648	-18,711	-0,337	-0,146
163,662	-95,985	-0,136	-0,025
164,677	62,690	-0,130	-0,090
165,692	26,265	-0,199	-0,115
166,706	-101,989	-0,312	-0,052
167,721	147,623	-0,200	-0,188
168,735	-2,482	-0,265	-0,128
169,750	311,313	-0,210	-0,274
170,764	389,850	-0,091	-0,132
171,779	-84,628	-0,200	-0,043
172,794	43,465	-0,134	-0,085
173,808	203,437	-0,169	-0,182
174,823	134,326	-0,321	-0,289
175,837	53,092	-0,255	-0,170
176,852	52,436	-0,254	-0,168
177,867	59,689	-0,218	-0,149
178,881	63,961	-0,250	-0,174
179,896	45,670	-0,167	-0,107
180,910	141,393	-0,159	-0,146
181,925	-67,204	-0,286	-0,078
182,940	93,385	-0,268	-0,210
183,954	157,970	-0,112	-0,107
184,969	150,094	-0,159	-0,150
185,983	267,999	-0,163	-0,198
186,998	166,476	-0,219	-0,215
188,013	33,836	-0,192	-0,116
189,027	166,855	-0,199	-0,196
190,042	51,647	-0,367	-0,242
191,056	-100,245	-0,302	-0,052
192,071	800,000	-0,073	-0,186
193,086	-155,426	-0,217	0,010
194,100	-90,582	-0,265	-0,053
195,115	632,686	-0,128	-0,226
196,129	309,129	-0,158	-0,206
197,144	129,251	-0,298	-0,264
198,159	281,206	-0,137	-0,171
199,173	134,198	-0,293	-0,263
200,188	800,000	-0,084	-0,183
201,202	209,871	-0,020	0,021
202,217	-59,959	-0,163	-0,048
203,232	-20,555	-0,158	-0,067
204,246	131,561	-0,225	-0,201
205,261	278,360	-0,173	-0,215
206,275	221,319	-0,092	-0,103
207,290	293,469	-0,157	-0,199
208,304	-62,150	-0,171	-0,049
209,319	384,155	-0,157	-0,225
210,334	634,957	-0,086	-0,152
211,348	7,492	-0,320	-0,165
212,363	-31,048	-0,156	-0,061
213,377	382,638	-0,123	-0,176
214,392	-98,993	-0,239	-0,042
215,407	79,460	-0,151	0,112
216,421	-156,001	-0,194	-0,008
217,436	-183,851	-0,232	-0,003
218,450	127,168	-0,206	-0,181
219,465	800,000	-0,105	-0,217
220,480	-66,600	-0,224	-0,061
221,494	-2,868	-0,179	-0,086
222,509	-181,216	-0,174	-0,002
223,523	-97,045	-0,122	-0,022
224,538	16,453	-0,157	-0,086
225,553	147,917	-0,215	-0,200
226,567	63,004	-0,243	-0,168
227,582	16,637	-0,245	-0,133
228,596	-114,708	-0,224	-0,029
229,611	1,335	-0,128	-0,063
230,626	39,831	-0,136	-0,084
231,640	-82,756	-0,248	-0,055
232,655	-128,793	-0,234	-0,023
233,669	7,257	-0,285	-0,146
234,684	108,016	-0,134	-0,110
235,699	169,869	-0,170	-0,168
236,713	235,283	-0,101	-0,115
237,728	33,014	-0,204	-0,122
238,742	-43,402	-0,195	-0,068
239,757	-129,689	-0,265	-0,025
240,772	214,671	-0,165	-0,181
241,786	22,453	-0,178	-0,100
242,801	241,868	-0,172	-0,199
243,815	-50,695	-0,052	-0,017
244,830	53,476	-0,206	-0,136
245,844	28,394	-0,140	-0,082
246,859	-30,283	-0,221	-0,086
247,874	350,593	-0,164	-0,224
248,888	48,019	-0,258	-0,166
249,903	372,732	-0,126	-0,178
250,917	800,000	0,005	0,012
251,932	44,223	-0,191	-0,121
252,947	135,633	-0,139	-0,125
253,961	268,781	-0,249	-0,302
254,976	650,141	-0,116	-0,206
255,990	541,427	-0,136	-0,225
257,005	296,163	-0,124	-0,158
258,020	19,321	-0,144	-0,080
259,034	133,160	-0,079	-0,070
260,049	-181,945	-0,182	0,002
261,063	72,923	-0,171	-0,123
262,078	132,979	-0,152	-0,135
263,093	33,129	-0,194	-0,116
264,107	36,921	-0,190	-0,116
265,122	800,000	-0,044	-0,110
266,136	-182,528	-0,206	-0,003
267,151	-86,958	-0,075	0,016
268,166	22,997	-0,231	-0,130
269,180	-68,602	-0,205	-0,054
270,195	-55,551	-0,281	-0,086
271,209	247,717	-0,179	-0,209
272,224	138,621	-0,126	-0,114
273,239	-200,000	-0,008	-0,108
274,253	-200,000	-0,033	-0,124
275,268	538,731	-0,080	-0,131
276,282	85,486	-0,113	-0,085
277,297	-16,832	-0,243	-0,105
278,312	35,361	-0,214	-0,129
279,326	-165,993	-0,126	-0,004
280,341	-200,000	-0,036	-0,126
281,355	-64,424	-0,114	-0,032
282,370	-53,793	-0,251	-0,078
283,384	-15,521	-0,301	-0,132
284,399	800,000	-0,074	-0,191
285,414	241,174	-0,173	-0,199
286,428	11,272	-0,144	-0,076
287,443	-70,058	0,100	-0,026
288,457	3,712	-0,121	-0,061
289,472	-105,490	-0,311	-0,048
290,487	490,824	-0,109	-0,173
291,501	-62,988	-0,251	-0,071
292,516	485,560	-0,135	-0,212
293,530	76,912	-0,096	-0,070
294,545	99,043	-0,081	0,064
295,560	390,949	0,060	-0,086
296,574	-39,749	-0,163	-0,058
297,589	800,000	-0,015	0,046
298,603	-77,630	-0,081	-0,019
299,618	-200,000	-0,039	-0,218
300,633	-21,962	-0,133	0,055
301,647	-200,000	-0,155	0,000
302,662	67,011	-0,105	0,073
303,676	-102,232	-0,196	0,032
304,691	-6,049	-0,135	-0,063
305,706	211,473	-0,113	-0,123
306,720	-200,000	-0,026	-0,082
307,735	111,226	-0,136	0,112
308,749	554,099	-0,131	-0,218
309,764	325,098	-0,043	-0,057
310,779	418,955	-0,084	-0,123
311,793	221,095	-0,132	-0,145
312,808	142,666	-0,101	-0,092
313,822	-16,284	-0,122	-0,053
314,837	47,177	-0,107	-0,068
315,852	478,767	-0,048	-0,074
316,866	409,235	-0,055	-0,081
317,881	18,289	-0,042	0,023
318,895	143,595	-0,201	-0,183
319,910	-97,288	-0,169	-0,030
320,925	502,945	-0,103	-0,164
321,939	146,202	-0,206	-0,189
322,954	353,125	-0,035	0,048
323,968	192,351	-0,116	-0,120
324,983	-200,000	-0,055	-0,167
325,997	-14,283	-0,142	-0,063
327,012	-128,305	-0,057	-0,005
328,027	143,822	-0,174	-0,159
329,041	375,929	-0,093	-0,130
330,056	-200,000	0,005	-0,151
331,070	74,775	-0,170	-0,122
332,085	423,423	-0,104	-0,154
333,100	275,857	-0,093	-0,114
334,114	800,000	-0,081	-0,178
335,129	-127,560	-0,150	0,015
336,143	30,069	-0,191	-0,111
337,158	208,584	-0,095	0,102
338,173	-35,141	-0,118	-0,044
339,187	40,780	0,053	-0,033
340,202	-42,985	-0,156	-0,054
341,216	646,524	-0,086	-0,151
342,231	-200,000	-0,029	-0,127
343,246	-84,300	-0,136	-0,029
344,260	215,548	-0,087	-0,094
345,275	179,212	-0,157	-0,157
346,289	612,213	-0,042	-0,072
347,304	303,926	-0,074	-0,094
348,319	129,876	-0,177	-0,155
349,333	-10,078	-0,213	-0,097
350,348	5,143	-0,164	-0,082
351,362	591,489	-0,112	-0,190
352,377	-31,799	-0,054	0,021
353,392	800,000	-0,051	-0,109
354,406	110,524	-0,164	-0,135
355,421	207,090	1311,713	1400,400
356,435	159,293	1472,029	1400,859
