DTS Sentinel unit serial number:	SN410029Multiplexer serial number:	ORYXHardware model number:	OX2-SRSoftware version number:	ORYX F/W v4,00 Oryx Data Collector v3.7.2.0data status	okinstallation	B3 Nyhavnadifferential loss correction	single-endedforward channel	channel 1reverse channel	N/Adate	2023/12/05time	04:07:30forward acquisition time	300,00reverse acquisition time	0,00gamma	499,1914k internal	0,3201k external	0,3201temperature offset calibration	1,0000default loss term (dB/km)	0,3820temperature slope calibration	1,0000multiplexer offset coefficient	1,0000multiplexer slope coefficient	1,0000fibre end	0,00T internal ref (°C)	14,15T ext. ref 1 (°C)	-0,77T ext. ref 2 (°C)	-0,79length (m)	temperature (°C)	Stokes	anti-Stokes-744,400	62,068	-0,249	-0,180
-743,385	-200,000	-0,051	0,269
-742,371	154,967	-0,105	-0,105
-741,356	-200,000	0,015	0,319
-740,342	247,304	-0,232	-0,286
-739,327	-200,000	0,002	0,324
-738,312	76,606	-0,246	-0,189
-737,298	441,206	0,106	0,169
-736,283	-3,308	-0,075	-0,038
-735,269	800,000	0,120	0,288
-734,254	5,428	-0,326	-0,174
-733,239	56,193	-0,194	0,137
-732,225	347,927	-0,133	-0,191
-731,210	-40,570	0,134	0,050
-730,196	-160,072	-0,086	0,003
-729,181	-189,980	-0,128	-0,001
-728,167	800,000	0,054	0,156
-727,152	-106,015	-0,192	0,031
-726,137	800,000	-0,022	-0,061
-725,123	548,391	-0,046	-0,080
-724,108	800,000	-0,031	-0,066
-723,094	-160,617	-0,130	0,005
-722,079	-92,161	-0,139	-0,028
-721,064	-168,716	-0,051	0,001
-720,050	-101,246	-0,052	0,009
-719,035	69,880	-0,153	0,115
-718,021	-200,000	0,005	-0,095
-717,006	-3,539	0,049	-0,024
-715,991	48,537	-0,115	-0,078
-714,977	151,047	-0,049	-0,049
-713,962	91,016	0,110	-0,089
-712,948	128,480	-0,056	0,052
-711,933	782,230	0,050	-0,100
-710,918	800,000	-0,028	0,066
-709,904	-82,564	-0,251	-0,059
-708,889	-162,310	-0,120	-0,004
-707,875	394,098	-0,017	-0,026
-706,860	111,359	-0,115	-0,101
-705,845	51,534	0,081	-0,056
-704,831	767,957	-0,075	0,149
-703,816	800,000	0,016	0,035
-702,802	-200,000	-0,005	0,030
-701,787	206,162	-0,077	-0,087
-700,772	-200,000	0,025	-0,116
-699,758	-27,490	-0,022	0,009
-698,743	-162,168	-0,107	-0,004
-697,729	25,542	0,180	0,108
-696,714	-41,889	0,027	0,010
-695,699	800,000	-0,043	0,106
-694,685	63,501	0,081	-0,059
-693,670	-41,351	0,074	0,027
-692,656	473,312	-0,042	0,069
-691,641	800,000	0,014	0,036
-690,627	488,788	0,055	0,092
-689,612	-200,000	-0,005	-0,060
-688,597	48,864	-0,087	-0,059
-687,583	-33,341	-0,150	-0,060
-686,568	353,871	0,104	-0,151
-685,554	336,212	0,050	0,071
-684,539	-33,095	0,100	0,040
-683,524	298,053	0,029	0,039
-682,510	-200,000	-0,028	-0,143
-681,495	-153,291	-0,083	-0,004
-680,481	77,419	0,079	-0,061
-679,466	158,216	-0,087	-0,087
-678,451	248,114	0,061	0,075
-677,437	234,490	0,086	-0,103
-676,422	-24,526	0,053	-0,023
-675,408	217,418	0,102	-0,118
-674,393	336,214	-0,016	0,023
-673,378	-164,698	0,064	-0,002
-672,364	-200,000	-0,051	-0,280
-671,349	-41,806	-0,055	0,020
-670,335	343,403	0,066	0,095
-669,320	-32,677	-0,144	0,058
-668,305	3,040	-0,036	0,019
-667,291	-83,124	-0,013	-0,003
-666,276	110,250	-0,154	-0,134
-665,262	228,277	0,010	-0,012
-664,247	-200,000	-0,003	-0,059
-663,232	266,527	-0,034	0,043
-662,218	-200,000	0,029	-0,153
-661,203	-169,009	-0,113	0,003
-660,189	-41,147	-0,070	-0,026
-659,174	11,741	-0,102	0,057
-658,159	6,099	-0,130	0,070
-657,145	266,869	-0,066	0,084
-656,130	-200,000	-0,012	-0,109
-655,116	49,290	-0,072	0,049
-654,101	-101,888	-0,047	-0,008
-653,086	-108,621	-0,063	0,010
-652,072	-69,977	-0,136	0,037
-651,057	-200,000	0,007	-0,170
-650,043	-200,000	-0,040	0,166
-649,028	800,000	0,045	-0,108
-648,014	-115,580	-0,114	-0,015
-646,999	267,189	0,102	0,129
-645,984	-200,000	0,012	0,072
-644,970	-200,000	0,014	-0,047
-643,955	13,231	-0,021	0,012
-642,941	-89,962	-0,084	0,018
-641,926	7,858	-0,107	0,058
-640,911	21,838	0,100	-0,059
-639,897	86,153	0,119	0,095
-638,882	-200,000	0,034	0,117
-637,868	800,000	-0,056	0,156
-636,853	354,857	0,039	0,057
-635,838	-76,737	-0,120	-0,030
-634,824	18,132	0,040	-0,023
-633,809	800,000	0,014	-0,043
-632,795	-41,677	-0,081	0,030
-631,780	13,374	0,077	-0,043
-630,765	160,969	-0,037	0,038
-629,751	582,572	0,036	-0,064
-628,736	82,448	0,031	-0,024
-627,722	449,510	-0,072	0,116
-626,707	-122,356	-0,069	0,008
-625,692	217,767	0,085	-0,098
-624,678	-200,000	0,010	0,095
-623,663	245,161	-0,031	0,038
-622,649	800,000	0,029	-0,077
-621,634	18,696	0,018	0,010
-620,619	-200,000	-0,016	-0,157
-619,605	-200,000	0,005	0,018
-618,590	-200,000	-0,004	-0,036
-617,576	-200,000	-0,008	-0,104
-616,561	467,781	-0,040	-0,064
-615,546	271,795	-0,028	0,035
-614,532	522,388	-0,140	-0,239
-613,517	224,034	-0,100	-0,117
-612,503	755,572	0,047	-0,093
-611,488	473,311	0,052	-0,085
-610,474	-200,000	0,003	0,051
-609,459	-200,000	0,003	0,055
-608,444	34,250	0,090	-0,057
-607,430	84,408	-0,074	0,059
-606,415	53,825	-0,114	0,079
-605,401	-102,901	-0,124	0,021
-604,386	-200,000	-0,005	0,031
-603,371	-200,000	0,003	0,025
-602,357	308,361	-0,038	0,051
-601,342	-200,000	0,012	0,067
-600,328	-200,000	0,008	0,063
-599,313	-95,262	0,146	-0,028
-598,298	800,000	-0,033	-0,089
-597,284	800,000	0,024	0,055
-596,269	800,000	0,025	0,076
-595,255	-200,000	-0,014	0,052
-594,240	275,784	-0,097	-0,125
-593,225	-146,032	-0,061	-0,004
-592,211	-2,900	-0,156	-0,078
-591,196	223,641	0,080	-0,093
-590,182	-200,000	-0,000	0,010
-589,167	692,481	-0,041	0,077
-588,152	-200,000	0,020	-0,160
-587,138	-200,000	0,002	0,014
-586,123	-200,000	-0,015	0,067
-585,109	32,779	-0,042	0,027
-584,094	-200,000	-0,001	0,052
-583,079	-200,000	-0,013	-0,078
-582,065	249,472	0,064	0,078
-581,050	285,823	-0,070	-0,092
-580,036	-200,000	-0,004	0,058
-579,021	-150,678	0,055	-0,003
-578,006	1,434	-0,139	0,072
-576,992	-85,502	-0,101	-0,023
-575,977	447,233	0,066	0,105
-574,963	168,172	-0,052	0,054
-573,948	-160,217	0,107	0,004
-572,934	800,000	-0,033	-0,096
-571,919	133,412	0,060	-0,056
-570,904	34,136	0,115	-0,072
-569,890	-146,041	-0,203	-0,013
-568,875	-200,000	0,001	-0,131
-567,861	-200,000	0,019	0,077
-566,846	-156,238	0,188	0,008
-565,831	-200,000	-0,004	-0,051
-564,817	224,743	0,074	-0,086
-563,802	-137,837	-0,152	0,012
-562,788	-18,461	-0,068	-0,030
-561,773	-200,000	-0,007	0,071
-560,758	800,000	-0,023	0,051
-559,744	459,819	0,042	0,067
-558,729	-200,000	-0,019	0,241
-557,715	-200,000	-0,006	0,119
-556,700	800,000	0,047	-0,131
-555,685	-131,641	-0,039	0,004
-554,671	3,079	-0,102	0,053
-553,656	110,542	0,080	0,070
-552,642	800,000	0,061	0,145
-551,627	43,164	0,065	0,043
-550,612	-121,286	-0,140	-0,017
-549,598	-84,755	0,158	-0,036
-548,583	-200,000	-0,016	-0,072
-547,569	800,000	0,031	0,084
-546,554	-200,000	0,009	0,093
-545,539	12,921	0,201	0,112
-544,525	-18,911	-0,169	0,076
-543,510	43,490	-0,096	0,063
-542,496	-49,000	-0,076	-0,026
-541,481	-200,000	-0,038	-0,216
-540,466	589,746	0,069	-0,123
-539,452	800,000	0,037	0,099
-538,437	475,568	0,049	-0,080
-537,423	425,587	0,020	0,031
-536,408	-68,594	-0,150	0,042
-535,393	-110,638	0,086	-0,013
-534,379	-34,588	0,043	-0,017
-533,364	446,775	-0,016	-0,026
-532,350	-200,000	-0,013	0,099
-531,335	262,247	0,049	0,061
-530,321	-155,554	-0,096	-0,004
-529,306	800,000	-0,008	-0,022
-528,291	-200,000	0,008	0,083
-527,277	800,000	-0,085	-0,170
-526,262	460,169	-0,006	0,009
-525,248	281,622	-0,006	-0,008
-524,233	-24,067	0,063	-0,027
-523,218	-20,077	-0,076	-0,034
-522,204	800,000	0,016	-0,044
-521,189	-21,048	0,073	-0,032
-520,175	682,532	-0,042	0,079
-519,160	800,000	0,058	-0,171
-518,145	-90,901	0,069	-0,014
-517,131	162,589	0,119	0,120
-516,116	-200,000	-0,004	0,075
-515,102	-200,000	0,046	0,197
-514,087	-125,880	-0,092	-0,010
-513,072	-200,000	0,008	-0,031
-512,058	800,000	-0,014	-0,030
-511,043	99,436	0,025	0,021
-510,029	800,000	0,012	-0,031
-509,014	419,041	0,042	0,065
-507,999	580,936	-0,013	-0,023
-506,985	-200,000	0,053	0,189
-505,970	73,429	-0,046	0,035
-504,956	380,374	-0,083	-0,123
-503,941	-104,367	0,117	-0,019
-502,926	136,954	0,086	-0,081
-501,912	108,837	0,065	0,056
-500,897	-127,552	0,212	-0,022
-499,883	521,585	-0,009	0,015
-498,868	-200,000	-0,007	-0,189
-497,853	124,605	-0,168	-0,152
-496,839	-200,000	0,014	-0,067
-495,824	-90,710	-0,073	0,015
-494,810	57,690	0,048	0,034
-493,795	800,000	-0,010	0,023
-492,781	-200,000	-0,002	-0,093
-491,766	118,983	-0,108	-0,096
-490,751	326,933	-0,018	-0,025
-489,737	-84,548	-0,021	-0,005
-488,722	-114,575	0,062	-0,008
-487,708	-81,031	0,158	0,037
-486,693	-200,000	-0,017	0,174
-485,678	-200,000	0,003	-0,020
-484,664	95,222	-0,072	-0,059
-483,649	-177,918	-0,015	-0,000
-482,635	-48,287	0,100	0,035
-481,620	-200,000	0,014	-0,045
-480,605	800,000	-0,020	-0,055
-479,591	-12,256	0,088	0,041
-478,576	328,299	-0,023	-0,032
-477,562	800,000	-0,025	-0,077
-476,547	685,527	-0,020	-0,038
-475,532	-200,000	-0,000	-0,047
-474,518	-116,427	-0,035	-0,005
-473,503	103,703	-0,100	0,085
-472,489	-200,000	-0,012	0,069
-471,474	7,060	-0,075	0,040
-470,459	-121,748	-0,084	-0,010
-469,445	240,760	0,080	-0,096
-468,430	189,009	-0,057	0,061
-467,416	-200,000	0,034	0,184
-466,401	796,403	-0,066	-0,132
-465,386	134,073	-0,072	-0,067
-464,372	-24,716	0,087	-0,037
-463,357	-113,197	-0,125	0,018
-462,343	78,611	-0,102	0,079
-461,328	70,392	-0,029	-0,022
-460,313	174,215	0,057	0,059
-459,299	800,000	0,007	-0,013
-458,284	-130,789	-0,137	0,013
-457,270	800,000	0,044	-0,132
-456,255	-59,865	-0,194	0,059
-455,241	409,183	0,009	0,014
-454,226	-200,000	-0,038	-0,173
-453,211	539,188	0,032	0,055
-452,197	115,054	0,150	0,132
-451,182	97,318	-0,076	0,063
-450,168	800,000	0,032	0,080
-449,153	800,000	0,017	0,042
-448,138	756,223	-0,074	-0,144
-447,124	800,000	-0,037	-0,076
-446,109	800,000	0,085	-0,174
-445,095	171,024	0,109	-0,112
-444,080	526,108	-0,033	-0,057
-443,065	-29,461	-0,049	-0,020
-442,051	187,154	0,078	-0,084
-441,036	-113,400	0,191	0,027
-440,022	-200,000	-0,034	-0,179
-439,007	127,264	0,055	-0,051
-437,992	-200,000	0,009	0,066
-436,978	-61,468	0,065	0,019
-435,963	207,173	0,087	0,098
-434,949	151,931	-0,110	0,107
-433,934	-66,917	-0,112	-0,031
-432,919	471,494	0,027	-0,043
-431,905	-72,891	-0,057	0,015
-430,890	-200,000	-0,001	0,012
-429,876	-200,000	0,009	0,118
-428,861	800,000	0,031	0,091
-427,846	-162,489	0,055	0,002
-426,832	800,000	-0,060	-0,190
-425,817	-200,000	0,023	-0,122
-424,803	-46,916	-0,054	-0,019
-423,788	-34,821	-0,120	0,047
-422,773	800,000	0,032	0,067
-421,759	-57,507	-0,111	0,035
-420,744	318,357	0,058	0,079
-419,730	-200,000	0,004	0,017
-418,715	-0,927	-0,067	-0,034
-417,701	-200,000	0,000	-0,067
-416,686	418,070	0,018	-0,028
-415,671	-3,358	-0,075	-0,037
-414,657	-119,318	0,115	0,014
-413,642	-200,000	-0,002	0,117
-412,628	-174,706	-0,074	0,001
-411,613	64,354	-0,031	-0,023
-410,598	50,876	0,115	0,078
-409,584	181,397	-0,047	-0,049
-408,569	-200,000	-0,020	0,087
-407,555	-58,486	0,073	-0,023
-406,540	304,452	0,104	0,139
-405,525	58,043	0,085	0,060
-404,511	8,696	-0,069	0,037
-403,496	-74,385	-0,158	0,041
-402,482	-200,000	0,048	0,161
-401,467	174,243	0,008	-0,008
-400,452	800,000	-0,009	0,020
-399,438	-19,887	-0,073	0,032
-398,423	152,716	0,097	0,095
-397,409	12,201	0,027	-0,015
-396,394	106,991	-0,061	-0,052
-395,379	4,898	0,065	0,034
-394,365	-200,000	0,017	0,084
-393,350	486,394	0,048	-0,079
-392,336	-200,000	0,001	-0,035
-391,321	-56,218	-0,114	0,036
-390,306	-200,000	-0,017	-0,100
-389,292	39,499	-0,113	-0,072
-388,277	-0,283	0,044	0,022
-387,263	48,689	0,058	-0,039
-386,248	-137,749	0,126	0,010
-385,233	-200,000	0,025	0,097
-384,219	-159,054	-0,115	0,005
-383,204	396,849	-0,035	0,053
-382,190	-200,000	-0,024	-0,103
-381,175	319,149	0,083	0,113
-380,160	159,964	-0,083	-0,083
-379,146	35,089	0,103	0,065
-378,131	371,850	-0,043	0,063
-377,117	394,470	0,039	-0,058
-376,102	800,000	0,034	0,073
-375,088	20,947	-0,070	0,040
-374,073	-200,000	-0,007	0,026
-373,058	34,484	0,128	0,080
-372,044	-200,000	-0,008	0,071
-371,029	15,079	-0,085	-0,048
-370,015	-180,345	0,005	0,000
-369,000	800,000	-0,021	-0,045
-367,985	487,249	-0,084	0,139
-366,971	-52,148	-0,092	0,030
-365,956	60,056	0,029	0,021
-364,942	-143,911	-0,070	0,005
-363,927	54,772	-0,123	-0,085
-362,912	289,284	-0,031	-0,041
-361,898	-138,855	0,127	-0,010
-360,883	800,000	0,035	0,100
-359,869	165,862	0,038	0,038
-358,854	34,872	0,086	0,054
-357,839	87,085	-0,081	-0,064
-356,825	330,464	0,054	0,075
-355,810	60,519	-0,094	0,066
-354,796	566,465	-0,048	-0,084
-353,781	-72,113	-0,162	-0,043
-352,766	-200,000	-0,000	-0,148
-351,752	2,089	-0,110	0,057
-350,737	-15,328	0,149	0,068
-349,723	-200,000	-0,015	0,084
-348,708	-17,529	0,105	0,047
-347,693	-58,439	-0,088	-0,027
-346,679	518,084	0,049	0,083
-345,664	-49,166	-0,073	0,025
-344,650	800,000	-0,043	-0,096
-343,635	-46,692	0,144	-0,050
-342,620	-200,000	0,004	0,102
-341,606	-141,158	0,097	0,007
-340,591	-82,916	0,069	0,016
-339,577	-15,724	0,123	-0,056
-338,562	-34,019	0,059	-0,023
-337,548	-112,751	0,064	0,009
-336,533	-62,957	0,129	-0,038
-335,518	-200,000	0,000	-0,004
-334,504	-37,764	-0,091	0,034
-333,489	12,741	0,042	-0,023
-332,475	161,089	-0,062	-0,063
-331,460	416,669	0,062	-0,095
-330,445	146,334	-0,150	0,144
-329,431	-39,014	-0,024	0,009
-328,416	-200,000	0,032	0,138
-327,402	254,089	0,092	0,113
-326,387	-200,000	0,000	0,113
-325,372	-200,000	-0,015	-0,091
-324,358	521,008	-0,025	0,042
-323,343	38,759	0,038	0,024
-322,329	272,090	0,053	-0,068
-321,314	-95,030	0,135	-0,026
-320,299	233,988	0,019	0,022
-319,285	-49,094	0,136	0,046
-318,270	55,632	0,032	0,022
-317,256	-200,000	-0,006	-0,032
-316,241	-127,874	-0,111	0,011
-315,226	43,312	0,159	0,103
-314,212	-200,000	-0,014	0,075
-313,197	280,809	0,123	0,158
-312,183	-200,000	-0,104	0,000
-311,168	647,903	0,087	0,160
-310,153	800,000	-0,084	-0,182
-309,139	4,833	-0,030	-0,016
-308,124	60,659	0,042	-0,030
-307,110	-200,000	0,020	-0,120
-306,095	-200,000	0,005	-0,064
-305,080	60,675	-0,050	-0,036
-304,066	-200,000	0,026	-0,090
-303,051	-200,000	0,007	-0,067
-302,037	102,370	-0,085	0,071
-301,022	-1,366	0,136	-0,069
-300,008	541,284	-0,034	0,058
-298,993	800,000	0,016	-0,033
-297,978	180,926	0,114	-0,119
-296,964	-200,000	-0,054	0,000
-295,949	-130,906	-0,135	0,013
-294,935	239,674	0,220	-0,262
-293,920	199,091	0,092	-0,100
-292,905	187,089	0,065	0,070
-291,891	147,697	-0,085	0,082
-290,876	-200,000	0,017	-0,057
-289,862	232,700	-0,080	0,094
-288,847	119,884	0,131	-0,116
-287,832	111,694	-0,060	0,052
-286,818	-200,000	0,018	0,060
-285,803	686,817	0,065	-0,121
-284,789	295,755	-0,132	-0,173
-283,774	-200,000	0,019	0,095
-282,759	-170,876	-0,152	0,004
-281,745	-35,844	-0,098	0,038
-280,730	-154,202	0,190	0,009
-279,716	177,412	-0,048	0,050
-278,701	-41,904	0,184	-0,067
-277,686	157,205	0,109	0,107
-276,672	-69,617	0,053	-0,014
-275,657	-88,875	-0,163	0,034
-274,643	80,435	-0,047	-0,036
-273,628	-200,000	-0,004	0,040
-272,613	-116,075	-0,024	0,003
-271,599	10,927	0,013	0,007
-270,584	-200,000	0,003	-0,024
-269,570	634,130	0,034	-0,062
-268,555	-200,000	-0,011	0,154
-267,540	-200,000	-0,013	-0,046
-266,526	21,307	0,084	0,048
-265,511	-101,925	0,109	0,019
-264,497	505,374	0,035	0,058
-263,482	448,870	0,034	-0,053
-262,467	58,856	0,055	-0,039
-261,453	-76,898	0,123	-0,030
-260,438	341,282	-0,150	-0,210
-259,424	-200,000	-0,067	-0,249
-258,409	800,000	-0,041	-0,117
-257,395	148,386	-0,028	-0,027
-256,380	-200,000	-0,027	-0,088
-255,365	245,415	0,048	0,057
-254,351	-126,170	-0,105	0,011
-253,336	-42,991	-0,071	0,026
-252,322	450,641	-0,031	-0,049
-251,307	-117,431	-0,099	-0,013
-250,292	-140,205	-0,092	0,007
-249,278	-200,000	-0,005	-0,037
-248,263	553,798	-0,042	0,072
-247,249	800,000	0,023	0,073
-246,234	-200,000	-0,031	0,176
-245,219	286,064	-0,087	0,112
-244,205	44,632	-0,065	-0,043
-243,190	-200,000	0,007	0,124
-242,176	663,726	-0,008	-0,015
-241,161	273,080	0,057	0,072
-240,146	800,000	0,018	0,040
-239,132	315,452	0,062	-0,084
-238,117	7,461	0,108	0,057
-237,103	181,742	-0,069	-0,073
-236,088	-112,127	0,041	-0,006
-235,073	-61,660	0,119	-0,035
-234,059	-200,000	0,027	-0,160
-233,044	800,000	0,030	0,062
-232,030	-62,444	-0,140	0,041
-231,015	-200,000	-0,008	-0,086
-230,000	-143,848	0,110	0,007
-228,986	-163,708	-0,111	0,004
-227,971	41,852	0,090	-0,058
-226,957	-200,000	-0,020	0,103
-225,942	156,174	0,087	-0,086
-224,927	438,037	0,029	0,046
-223,913	-200,000	-0,013	-0,092
-222,898	-106,461	-0,101	0,016
-221,884	800,000	0,018	-0,051
-220,869	-200,000	0,004	0,023
-219,855	141,535	-0,056	0,053
-218,840	10,019	0,124	0,067
-217,825	800,000	-0,019	0,038
-216,811	-143,648	-0,126	0,008
-215,796	-200,000	-0,006	-0,107
-214,782	-200,000	0,007	0,023
-213,767	800,000	0,008	0,021
-212,752	91,111	-0,031	-0,025
-211,738	-149,755	-0,086	0,005
-210,723	152,183	-0,066	0,064
-209,709	362,214	0,087	0,125
-208,694	143,732	0,010	0,009
-207,679	326,330	-0,046	-0,062
-206,665	609,276	-0,106	-0,190
-205,650	-14,075	-0,105	0,048
-204,636	576,771	0,038	0,067
-203,621	20,124	-0,057	0,033
-202,606	-200,000	-0,002	0,044
-201,592	235,325	-0,063	0,074
-200,577	800,000	0,013	-0,026
-199,563	359,295	-0,039	-0,056
-198,548	-93,269	0,065	0,013
-197,533	800,000	0,044	0,118
-196,519	113,698	0,101	-0,087
-195,504	800,000	0,034	-0,072
-194,490	71,319	-0,043	-0,031
-193,475	-200,000	-0,002	0,046
-192,460	-66,404	0,208	0,059
-191,446	179,675	-0,049	-0,051
-190,431	-200,000	0,002	0,008
-189,417	-44,893	0,049	-0,017
-188,402	-187,018	-0,115	-0,001
-187,387	642,105	-0,047	-0,086
-186,373	-200,000	0,019	-0,086
-185,358	-30,694	0,052	0,021
-184,344	10,798	0,124	0,067
-183,329	-108,147	-0,067	0,010
-182,315	15,680	0,069	-0,038
-181,300	800,000	-0,004	-0,012
-180,285	-200,000	0,011	-0,140
-179,271	800,000	-0,021	-0,045
-178,256	761,995	-0,101	-0,196
-177,242	-200,000	0,003	0,149
-176,227	-179,677	0,101	-0,002
-175,212	-200,000	0,013	0,102
-174,198	102,696	-0,040	0,033
-173,183	78,107	-0,116	0,088
-172,169	441,512	-0,032	0,051
-171,154	800,000	-0,030	-0,075
-170,139	-119,763	0,194	0,024
-169,125	204,745	-0,100	0,111
-168,110	800,000	0,024	0,074
-167,096	-26,770	-0,102	0,042
-166,081	97,567	-0,069	-0,056
-165,066	210,504	0,070	-0,078
-164,052	-200,000	-0,007	-0,056
-163,037	-43,815	-0,152	-0,054
-162,023	-92,059	0,123	-0,024
-161,008	96,065	0,154	-0,125
-159,993	-140,403	-0,102	-0,007
-158,979	-2,868	0,122	0,060
-157,964	-200,000	0,017	-0,155
-156,950	-200,000	-0,030	-0,149
-155,935	-10,546	-0,031	0,015
-154,920	186,790	0,085	0,090
-153,906	36,377	0,055	-0,035
-152,891	258,972	0,027	0,033
-151,877	366,894	-0,028	-0,041
-150,862	-10,162	-0,035	0,016
-149,847	800,000	-0,033	-0,066
-148,833	51,484	0,010	-0,007
-147,818	754,694	-0,075	0,144
-146,804	611,477	-0,021	-0,038
-145,789	-151,052	0,099	-0,005
-144,775	109,821	0,014	0,012
-143,760	-33,037	-0,113	-0,044
-142,745	-200,000	0,002	-0,034
-141,731	530,911	0,016	-0,026
-140,716	-66,140	0,064	-0,018
-139,702	-93,940	-0,129	-0,025
-138,687	-200,000	-0,021	0,075
-137,672	-200,000	0,020	0,073
-136,658	303,952	-0,066	-0,087
-135,643	414,937	-0,048	0,073
-134,629	800,000	-0,062	-0,139
-133,614	-200,000	0,012	-0,132
-132,599	131,696	0,140	0,128
-131,585	-200,000	0,022	0,189
-130,570	-200,000	0,002	-0,104
-129,556	293,642	-0,087	-0,113
-128,541	161,579	0,059	-0,059
-127,526	-200,000	-0,001	0,070
-126,512	16,072	0,031	0,017
-125,497	-103,221	0,112	-0,019
-124,483	-200,000	-0,014	0,055
-123,468	-134,819	0,126	0,011
-122,453	538,720	-0,069	0,116
-121,439	375,743	0,044	-0,064
-120,424	-200,000	-0,000	-0,034
-119,410	-4,533	-0,039	-0,019
-118,395	261,273	-0,090	-0,110
-117,380	57,856	0,044	0,030
-116,366	52,288	0,047	0,031
-115,351	800,000	0,039	-0,108
-114,337	52,840	-0,107	-0,072
-113,322	-200,000	0,016	0,053
-112,307	-41,302	-0,052	0,019
-111,293	800,000	0,029	0,076
-110,278	11,835	-0,129	0,070
-109,264	-1,977	0,141	0,070
-108,249	307,308	0,054	-0,072
-107,234	260,415	0,085	-0,105
-106,220	800,000	-0,050	0,102
-105,205	205,308	0,058	-0,064
-104,191	390,483	0,031	-0,046
-103,176	232,974	-0,038	-0,045
-102,162	-177,057	0,128	0,002
-101,147	-200,000	-0,038	0,127
-100,132	-200,000	-0,005	-0,038
-99,118	157,485	-0,033	-0,033
-98,103	-75,039	-0,109	-0,027
-97,089	-82,686	0,126	0,029
-96,074	-54,598	0,107	0,034
-95,059	-92,613	0,081	-0,016
-94,045	-44,986	-0,103	-0,036
-93,030	357,243	-0,101	-0,143
-92,016	289,880	-0,094	-0,122
-91,001	640,378	0,050	-0,091
-89,986	-200,000	0,011	0,103
-88,972	288,609	-0,053	-0,068
-87,957	54,831	-0,041	0,028
-86,943	-56,161	0,190	-0,060
-85,928	383,110	-0,112	0,163
-84,913	789,659	0,010	0,019
-83,899	800,000	0,029	0,080
-82,884	-189,640	0,080	0,001
-81,870	68,647	0,127	0,092
-80,855	232,415	0,032	0,038
-79,840	764,247	0,048	0,093
-78,826	130,147	-0,054	-0,049
-77,811	-85,536	-0,120	0,026
-76,797	139,998	-0,059	0,055
-75,782	-176,629	0,185	-0,003
-74,767	-115,212	0,058	-0,008
-73,753	-176,508	-0,064	0,001
-72,738	-108,341	0,094	-0,014
-71,724	800,000	-0,056	0,159
-70,709	800,000	-0,051	-0,124
-69,694	99,440	0,070	-0,057
-68,680	509,613	0,064	0,105
-67,665	-119,471	0,071	-0,009
-66,651	-139,912	0,067	0,005
-65,636	352,353	0,027	0,037
-64,622	-55,547	-0,038	-0,012
-63,607	289,197	-0,061	-0,079
-62,592	-200,000	-0,021	-0,109
-61,578	-61,782	-0,032	-0,009
-60,563	63,108	0,082	0,058
-59,549	-163,017	-0,101	-0,003
-58,534	-52,666	-1,571	-0,510
-57,519	320,632	-1,458	-1,966
-56,505	-200,000	-0,627	-4,637
-55,490	209,513	0,958	1,065
-54,476	800,000	4,892	11,368
-53,461	-200,000	18,630	304,216
-52,446	800,000	735,829	2287,827
-51,432	566,289	1652,217	2849,059
-50,417	78,984	1669,924	1264,483
-49,403	22,074	1543,013	888,972
-48,388	16,015	1466,109	815,231
-47,373	17,743	1455,785	817,800
-46,359	16,886	1445,896	808,105
-45,344	14,270	1441,351	793,012
-44,330	14,196	1439,470	791,595
-43,315	14,222	1437,726	790,725
-42,300	14,259	1436,039	789,946
-41,286	14,262	1434,898	789,298
-40,271	14,179	1433,692	788,207
-39,257	14,201	1432,454	787,600
-38,242	14,249	1431,113	787,063
-37,227	14,264	1429,953	786,462
-36,213	14,250	1428,699	785,679
-35,198	14,224	1427,722	784,983
-34,184	14,281	1426,500	784,550
-33,169	14,250	1425,208	783,665
-32,154	14,284	1424,072	783,170
-31,140	14,276	1422,910	782,463
-30,125	14,325	1421,590	781,935
-29,111	14,264	1420,576	781,056
-28,096	14,221	1419,618	780,298
-27,082	14,218	1418,495	779,634
-26,067	14,170	1417,150	778,641
-25,052	14,192	1416,330	778,260
-24,038	14,160	1415,423	777,582
-23,023	14,187	1414,194	777,000
-22,009	14,152	1413,379	776,359
-20,994	14,131	1412,526	775,763
-19,979	14,154	1411,425	775,234
-18,965	14,140	1410,393	774,571
-17,950	14,079	1409,689	773,869
-16,936	14,100	1408,712	773,399
-15,921	14,088	1407,546	772,671
-14,906	14,049	1406,896	772,103
-13,892	14,110	1405,562	771,626
-12,877	14,044	1404,900	770,923
-11,863	14,078	1403,956	770,534
-10,848	14,070	1402,969	769,921
-9,833	14,032	1402,119	769,248
-8,819	14,006	1401,398	768,701
-7,804	13,993	1400,505	768,121
-6,790	13,990	1399,406	767,472
-5,775	14,012	1398,169	766,867
-4,760	14,003	1397,055	766,184
-3,746	13,984	1396,525	765,773
-2,731	14,009	1395,652	765,383
-1,717	13,955	1394,936	764,710
-0,702	13,993	1393,033	763,812
0,313	17,734	1311,217	736,319
1,327	33,822	706,541	434,059
2,342	51,961	124,273	83,590
3,356	0,138	16,676	8,383
4,371	7,035	3,183	1,673
5,386	-2,199	0,603	0,298
6,400	-200,000	0,036	0,209
7,415	-67,935	-0,284	-0,078
8,429	403,094	-0,221	-0,330
9,444	16,012	-0,411	-0,228
10,459	-29,155	-0,430	-0,173
11,473	4,407	-0,225	-0,116
12,488	-116,264	-0,363	-0,047
13,502	39,621	-0,350	-0,221
14,517	-13,297	-0,261	-0,119
15,531	11,164	-0,366	-0,197
16,546	12,127	-0,397	-0,215
17,561	77,571	-0,387	-0,291
18,575	-148,379	-0,333	0,019
19,590	-89,739	-0,282	-0,058
20,604	-48,447	-0,255	-0,086
21,619	122,098	-0,329	-0,290
22,634	63,863	-0,482	-0,341
23,648	7,793	-0,530	-0,280
24,663	182,785	-0,350	-0,365
25,677	31,437	-0,370	-0,224
26,692	80,314	-0,306	-0,232
27,707	9,384	-0,377	-0,201
28,721	14,414	-0,462	-0,254
29,736	85,775	-0,329	-0,255
30,750	30,842	-0,500	-0,302
31,765	8,223	-0,487	-0,258
32,780	-1,935	-0,315	-0,156
33,794	102,382	-0,385	-0,317
34,809	86,411	-0,405	-0,314
35,823	194,761	-0,381	-0,409
36,838	117,201	-0,340	-0,295
37,853	119,053	-0,436	-0,380
38,867	341,163	-0,307	-0,424
39,882	517,853	-0,240	-0,398
40,896	104,519	-0,329	-0,273
41,911	442,152	-0,189	-0,292
42,926	115,292	-0,234	-0,202
43,940	-20,135	-0,348	-0,151
44,955	204,833	-0,246	-0,270
45,969	150,242	-0,302	-0,289
46,984	-11,293	-0,428	-0,198
47,999	231,721	-0,221	-0,256
49,013	199,488	-0,292	-0,316
50,028	98,198	-0,409	-0,331
51,042	124,897	-0,269	-0,239
52,057	60,498	-0,450	-0,313
53,071	-0,298	-0,427	-0,213
54,086	181,205	-0,327	-0,338
55,101	149,479	-0,328	-0,313
56,115	12,657	-0,292	-0,158
57,130	2,088	-0,403	-0,204
58,144	99,223	-0,347	-0,282
59,159	71,775	-0,415	-0,304
60,174	2,638	-0,438	-0,223
61,188	171,863	-0,327	-0,331
62,203	-0,816	-0,484	-0,241
63,217	286,793	-0,248	-0,316
64,232	218,842	-0,262	-0,295
65,247	73,986	-0,313	-0,231
66,261	105,255	-0,374	-0,311
67,276	154,540	-0,373	-0,360
68,290	10,829	-0,421	-0,226
69,305	18,822	-0,368	-0,207
70,320	474,526	-0,183	-0,291
71,334	71,415	-0,368	-0,268
72,349	-79,363	-0,272	-0,064
73,363	31,572	-0,268	-0,162
74,378	33,466	-0,357	-0,218
75,393	12,870	-0,406	-0,220
76,407	-46,641	-0,305	-0,105
77,422	-71,956	-0,370	-0,096
78,436	-72,707	-0,222	-0,057
79,451	-84,884	-0,322	-0,070
80,466	135,080	-0,196	-0,179
81,480	-157,247	-0,338	0,014
82,495	109,917	-0,318	-0,268
83,509	151,508	-0,243	-0,232
84,524	-9,883	-0,301	-0,140
85,539	-167,181	-0,243	0,007
86,553	92,752	-0,225	-0,179
87,568	-11,616	-0,329	-0,151
88,582	92,632	-0,243	-0,192
89,597	-23,771	-0,400	-0,167
90,611	-32,610	-0,279	-0,108
91,626	312,779	-0,201	-0,266
92,641	24,481	-0,184	-0,107
93,655	37,281	-0,249	-0,155
94,670	-92,407	-0,412	-0,081
95,684	30,781	-0,286	-0,171
96,699	379,283	-0,203	-0,292
97,714	33,656	-0,295	-0,180
98,728	285,146	-0,115	-0,145
99,743	90,276	-0,313	-0,245
100,757	-36,836	-0,232	-0,087
101,772	35,763	-0,467	-0,287
102,787	147,916	-0,283	-0,268
103,801	30,937	-0,267	-0,160
104,816	112,965	-0,243	-0,207
105,830	67,449	-0,211	-0,151
106,845	-42,918	-0,150	-0,053
107,860	8,662	-0,279	-0,147
108,874	327,599	-0,164	-0,221
109,889	-137,958	-0,329	-0,025
110,903	-0,302	-0,400	-0,199
111,918	87,401	-0,275	-0,213
112,933	79,620	-0,177	-0,133
113,947	68,832	-0,206	-0,148
114,962	-41,334	-0,274	-0,098
115,976	116,277	-0,341	-0,292
116,991	-49,529	-0,252	-0,084
118,006	-107,943	-0,333	-0,050
119,020	130,379	-0,314	-0,282
120,035	-109,082	-0,221	-0,033
121,049	8,093	-0,300	-0,157
122,064	-18,609	-0,336	-0,146
123,079	132,709	-0,245	-0,222
124,093	248,995	-0,148	-0,175
125,108	15,342	-0,243	-0,133
126,122	-13,257	-0,322	-0,146
127,137	90,575	-0,248	-0,194
128,151	-1,896	-0,221	-0,108
129,166	-16,211	-0,353	-0,156
130,181	316,648	-0,218	-0,289
131,195	71,968	-0,302	-0,220
132,210	323,448	-0,196	-0,263
133,224	85,020	-0,247	-0,190
134,239	303,311	-0,192	-0,249
135,254	156,436	-0,230	-0,222
136,268	91,812	-0,291	-0,229
137,283	377,382	-0,189	-0,270
138,297	249,952	-0,222	-0,263
139,312	94,197	-0,208	-0,165
140,327	39,440	-0,253	-0,158
141,341	113,663	-0,192	-0,163
142,356	136,285	-0,276	-0,251
143,370	159,557	-0,066	-0,065
144,385	212,434	-0,125	-0,138
145,400	46,892	-0,308	-0,200
146,414	84,961	-0,269	-0,206
147,429	127,775	-0,201	-0,179
148,443	-155,217	-0,210	0,009
149,458	122,936	-0,201	-0,176
150,473	-3,784	-0,169	-0,082
151,487	-23,663	-0,194	-0,081
152,502	72,732	-0,313	-0,228
153,516	92,842	-0,345	-0,272
154,531	174,124	-0,218	-0,220
155,546	-67,878	-0,307	-0,083
156,560	4,928	-0,199	-0,102
157,575	40,499	-0,187	-0,117
158,589	-16,519	-0,248	-0,109
159,604	220,251	-0,238	-0,266
160,619	-19,361	-0,359	-0,155
161,633	-80,858	-0,186	-0,043
162,648	177,950	-0,186	-0,189
163,662	165,334	-0,145	-0,143
164,677	-41,411	-0,242	-0,087
165,692	21,786	-0,402	-0,228
166,706	800,000	-0,133	-0,284
167,721	89,970	-0,213	-0,166
168,735	78,904	-0,274	-0,204
169,750	10,302	-0,241	-0,127
170,764	18,825	-0,170	-0,095
171,779	115,626	-0,187	-0,160
172,794	-179,716	-0,221	-0,003
173,808	314,527	-0,178	-0,234
174,823	144,456	-0,275	-0,256
175,837	241,279	-0,257	-0,299
176,852	56,586	-0,278	-0,188
177,867	67,747	-0,249	-0,177
178,881	123,455	-0,202	-0,177
179,896	-70,343	-0,257	-0,067
180,910	-9,035	-0,286	-0,133
181,925	-5,048	-0,257	-0,123
182,940	-24,560	-0,236	-0,097
183,954	68,141	-0,296	-0,210
184,969	-71,463	-0,221	-0,057
185,983	-12,851	-0,360	-0,162
186,998	240,536	-0,175	-0,203
188,013	80,047	-0,233	-0,175
189,027	392,390	-0,141	-0,204
190,042	-72,356	-0,198	-0,051
191,056	270,574	-0,186	-0,228
192,071	-114,791	-0,185	-0,024
193,086	64,183	-0,236	-0,165
194,100	28,520	-0,241	-0,142
195,115	116,087	-0,172	-0,146
196,129	-108,450	-0,341	-0,050
197,144	144,891	-0,179	-0,166
198,159	91,487	-0,209	-0,163
199,173	182,496	-0,153	-0,157
200,188	800,000	-0,089	-0,197
201,202	-35,070	-0,233	-0,088
202,217	102,179	-0,145	-0,118
203,232	363,810	-0,155	-0,217
204,246	190,787	-0,183	-0,191
205,261	91,212	-0,218	-0,170
206,275	43,270	-0,163	-0,103
207,290	131,571	-0,122	-0,109
208,304	23,737	-0,160	-0,091
209,319	710,947	-0,036	-0,066
210,334	10,511	-0,189	-0,100
211,348	141,170	-0,216	-0,199
212,363	-43,793	-0,330	-0,115
213,377	773,487	-0,140	-0,266
214,392	694,408	-0,107	-0,197
215,407	-56,032	-0,298	-0,092
216,421	532,152	-0,141	-0,233
217,436	13,733	-0,188	-0,101
218,450	614,181	-0,167	-0,292
219,465	292,146	-0,180	-0,228
220,480	-52,848	-0,126	-0,040
221,494	-47,234	-0,120	-0,040
222,509	-65,988	-0,199	-0,055
223,523	185,520	-0,066	-0,068
224,538	165,882	-0,086	-0,085
225,553	97,300	-0,186	-0,148
226,567	-9,726	-0,303	-0,140
227,582	800,000	-0,073	-0,188
228,596	293,867	-0,074	-0,094
229,611	40,107	-0,154	-0,096
230,626	-79,763	-0,313	-0,073
231,640	-35,849	-0,190	-0,071
232,655	-25,153	-0,154	-0,063
233,669	83,823	-0,225	-0,170
234,684	747,539	-0,084	-0,158
235,699	191,703	-0,171	-0,179
236,713	128,603	-0,124	-0,109
237,728	-145,174	-0,196	-0,012
238,742	51,340	-0,261	-0,172
239,757	244,036	-0,147	-0,172
240,772	-61,342	-0,213	-0,062
241,786	9,119	-0,240	-0,125
242,801	317,072	-0,130	-0,171
243,815	25,451	-0,228	-0,131
244,830	800,000	-0,052	0,112
245,844	-95,704	-0,196	-0,036
246,859	-121,142	-0,199	-0,023
247,874	129,214	-0,240	-0,212
248,888	63,051	-0,229	-0,159
249,903	-25,583	-0,210	-0,086
250,917	-127,467	-0,162	-0,016
251,932	800,000	-0,079	-0,172
252,947	-162,130	-0,281	0,010
253,961	209,304	-0,166	-0,180
254,976	-61,016	-0,194	-0,056
255,990	-51,054	-0,239	-0,077
257,005	-200,000	-0,043	-0,194
258,020	-11,185	-0,155	-0,070
259,034	-200,000	-0,025	-0,116
260,049	-42,382	-0,210	-0,074
261,063	352,309	-0,126	-0,174
262,078	-14,394	-0,190	-0,084
263,093	-88,191	-0,236	0,049
264,107	74,976	-0,232	-0,169
265,122	-145,898	-0,200	0,012
266,136	-77,207	-0,207	-0,049
267,151	-70,805	-0,060	-0,016
268,166	60,957	-0,297	-0,204
269,180	-7,883	-0,137	-0,064
270,195	161,992	-0,171	-0,166
271,209	148,840	-0,132	-0,123
272,224	-53,916	-0,139	-0,044
273,239	343,072	-0,144	-0,195
274,253	163,967	-0,071	-0,069
275,268	21,406	-0,334	-0,187
276,282	194,945	-0,116	-0,122
277,297	93,261	-0,215	-0,168
278,312	-165,532	-0,241	0,007
279,326	85,904	-0,152	-0,116
280,341	-58,488	-0,237	-0,071
281,355	-143,884	-0,272	0,017
282,370	152,480	-0,059	-0,056
283,384	-130,410	-0,235	0,022
284,399	-7,553	-0,311	-0,145
285,414	-42,829	-0,197	-0,069
286,428	232,727	-0,140	-0,159
287,443	661,577	-0,036	-0,064
288,457	111,081	-0,195	-0,162
289,472	66,743	-0,104	-0,073
290,487	373,903	-0,094	-0,132
291,501	323,142	-0,204	-0,269
292,516	117,262	-0,182	-0,155
293,530	-164,971	-0,256	0,008
294,545	81,770	-0,165	-0,123
295,560	39,803	-0,220	-0,136
296,574	127,315	-0,175	-0,153
297,589	-37,487	-0,342	-0,125
298,603	672,351	-0,145	-0,260
299,618	16,842	-0,204	-0,111
300,633	-17,797	-0,185	-0,080
301,647	-200,000	0,013	-0,063
302,662	-172,939	-0,175	0,004
303,676	40,227	-0,073	-0,045
304,691	124,456	-0,259	-0,225
305,706	48,533	-0,241	-0,155
306,720	73,844	-0,159	-0,115
307,735	27,193	-0,207	-0,119
308,749	-200,000	-0,014	-0,191
309,764	87,408	-0,155	-0,118
310,779	-142,599	-0,102	0,007
311,793	800,000	-0,144	-0,293
312,808	183,563	-0,169	-0,172
313,822	73,954	-0,179	-0,129
314,837	-50,456	-0,059	-0,019
315,852	-150,245	-0,199	-0,010
316,866	800,000	-0,047	-0,091
317,881	-39,092	-0,119	-0,043
318,895	-77,554	-0,125	-0,029
319,910	204,969	-0,186	-0,199
320,925	-63,540	-0,237	-0,067
321,939	168,994	-0,151	-0,149
322,954	800,000	-0,132	-0,262
323,968	800,000	-0,035	-0,073
324,983	800,000	-0,074	-0,178
325,997	31,444	-0,212	-0,125
327,012	233,548	-0,183	-0,208
328,027	155,626	-0,194	-0,184
329,041	247,333	-0,106	-0,124
330,056	351,895	-0,087	-0,119
331,070	71,769	-0,106	-0,076
332,085	4,037	-0,131	-0,066
333,100	-21,519	-0,271	-0,113
334,114	-83,132	-0,143	-0,031
335,129	-81,153	-0,141	-0,032
336,143	800,000	-0,075	-0,156
337,158	-36,366	-0,175	-0,064
338,173	72,977	-0,112	-0,080
339,187	800,000	-0,054	-0,107
340,202	-200,000	-0,047	-0,203
341,216	-200,000	-0,072	-0,226
342,231	59,099	-0,178	-0,120
343,246	800,000	-0,049	-0,128
344,260	-200,000	-0,001	-0,090
345,275	3,767	-0,090	-0,045
346,289	-200,000	0,019	-0,181
347,304	68,441	-0,137	-0,096
348,319	-15,122	-0,194	-0,085
349,333	69,425	-0,192	-0,136
350,348	53,260	-0,227	-0,149
351,362	154,101	-0,111	-0,105
352,377	-24,070	-0,084	-0,034
353,392	109,730	-0,123	0,101
354,406	81,508	-0,141	-0,104
355,421	209,702	1315,453	1416,482
356,435	161,406	1476,273	1416,976
