DTS Sentinel unit serial number:	SN410029Multiplexer serial number:	ORYXHardware model number:	OX2-SRSoftware version number:	ORYX F/W v4,00 Oryx Data Collector v3.7.2.0data status	okinstallation	B3 Nyhavnadifferential loss correction	single-endedforward channel	channel 1reverse channel	N/Adate	2023/11/29time	10:52:30forward acquisition time	300,00reverse acquisition time	0,00gamma	499,1914k internal	0,3211k external	0,3211temperature offset calibration	1,0000default loss term (dB/km)	0,3820temperature slope calibration	1,0000multiplexer offset coefficient	1,0000multiplexer slope coefficient	1,0000fibre end	0,00T internal ref (°C)	9,47T ext. ref 1 (°C)	-5,56T ext. ref 2 (°C)	-5,70length (m)	temperature (°C)	Stokes	anti-Stokes-744,400	-132,836	-0,155	-0,014
-743,385	-200,000	-0,044	0,306
-742,371	134,348	-0,202	-0,190
-741,356	-200,000	0,028	0,408
-740,342	-85,431	-0,130	-0,029
-739,327	-200,000	0,003	0,260
-738,312	-22,666	-0,334	-0,146
-737,298	-200,000	0,041	0,159
-736,283	166,543	-0,142	-0,146
-735,269	-200,000	0,016	0,210
-734,254	215,816	-0,123	-0,142
-733,239	258,140	-0,190	0,237
-732,225	-200,000	-0,038	-0,272
-731,210	-31,265	0,108	0,044
-730,196	-78,479	0,052	-0,013
-729,181	-95,496	-0,064	-0,012
-728,167	-151,066	-0,100	-0,005
-727,152	-200,000	-0,011	0,074
-726,137	-200,000	0,007	0,032
-725,123	-200,000	0,016	-0,135
-724,108	-200,000	0,010	-0,123
-723,094	769,655	-0,088	-0,174
-722,079	322,152	-0,067	-0,093
-721,064	39,840	-0,065	0,042
-720,050	-200,000	0,022	0,109
-719,035	-200,000	0,017	-0,092
-718,021	14,788	-0,087	-0,049
-717,006	188,492	-0,069	0,075
-715,991	128,379	-0,108	-0,100
-714,977	-15,505	-0,025	-0,011
-713,962	-200,000	-0,011	0,159
-712,948	456,991	-0,042	-0,069
-711,933	227,852	0,019	-0,023
-710,918	16,765	-0,068	0,039
-709,904	345,018	0,029	-0,041
-708,889	579,029	-0,075	-0,133
-707,875	593,065	-0,063	-0,113
-706,860	-200,000	-0,012	-0,101
-705,845	-136,813	0,069	-0,006
-704,831	-200,000	0,006	0,125
-703,816	-200,000	-0,007	0,042
-702,802	0,857	0,045	0,023
-701,787	66,586	-0,040	-0,029
-700,772	-200,000	0,011	0,057
-699,758	800,000	0,065	0,135
-698,743	223,809	0,018	-0,021
-697,729	140,371	-0,077	-0,074
-696,714	33,424	-0,046	-0,029
-695,699	-200,000	-0,008	-0,066
-694,685	22,147	-0,031	-0,018
-693,670	-200,000	-0,007	-0,045
-692,656	402,822	0,070	-0,107
-691,641	-91,958	0,043	0,009
-690,627	-200,000	0,008	-0,053
-689,612	-80,513	-0,133	0,032
-688,597	-200,000	-0,015	-0,069
-687,583	195,013	-0,097	-0,106
-686,568	-52,907	0,093	0,031
-685,554	-82,860	-0,049	-0,011
-684,539	62,517	0,094	-0,068
-683,524	-113,786	0,150	0,021
-682,510	60,000	-0,086	0,061
-681,495	35,668	-0,096	0,061
-680,481	800,000	0,026	0,073
-679,466	-200,000	-0,038	-0,135
-678,451	800,000	-0,026	-0,061
-677,437	-200,000	0,000	0,010
-676,422	-110,701	0,124	0,018
-675,408	-136,709	-0,140	0,011
-674,393	-200,000	-0,007	-0,075
-673,378	588,640	-0,081	-0,145
-672,364	-200,000	0,016	-0,105
-671,349	-200,000	0,013	-0,098
-670,335	-200,000	-0,008	-0,042
-669,320	66,769	0,095	0,070
-668,305	-200,000	-0,003	0,091
-667,291	-0,938	0,023	0,012
-666,276	-73,336	-0,099	-0,026
-665,262	133,719	0,059	0,055
-664,247	-200,000	0,003	0,160
-663,232	218,522	-0,014	-0,016
-662,218	-200,000	0,044	0,159
-661,203	691,805	-0,056	-0,107
-660,189	-119,618	-0,110	0,014
-659,174	-8,110	0,067	-0,032
-658,159	-33,813	-0,070	-0,028
-657,145	57,286	0,120	0,084
-656,130	147,768	-0,045	-0,044
-655,116	800,000	-0,016	-0,052
-654,101	800,000	-0,027	-0,073
-653,086	-44,412	0,150	0,054
-652,072	364,701	-0,108	-0,158
-651,057	213,215	-0,078	0,089
-650,043	55,796	-0,128	-0,089
-649,028	-8,492	0,135	0,065
-648,014	29,026	0,105	0,064
-646,999	40,456	-0,065	0,042
-645,984	-11,680	0,085	-0,040
-644,970	168,429	-0,051	0,053
-643,955	-45,408	0,026	0,009
-642,941	-200,000	-0,006	-0,085
-641,926	-200,000	0,013	-0,095
-640,911	-200,000	-0,033	0,165
-639,897	800,000	0,099	0,230
-638,882	-89,577	0,129	-0,027
-637,868	18,022	-0,124	-0,071
-636,853	-200,000	-0,006	-0,025
-635,838	800,000	-0,027	-0,070
-634,824	327,565	-0,084	-0,116
-633,809	800,000	-0,022	-0,053
-632,795	515,581	0,069	0,116
-631,780	-66,383	0,141	-0,040
-630,765	-87,260	-0,128	-0,028
-629,751	277,930	0,098	-0,127
-628,736	800,000	-0,028	-0,087
-627,722	561,067	-0,010	-0,017
-626,707	-29,628	0,074	-0,030
-625,692	800,000	-0,024	0,054
-624,678	-140,006	-0,152	-0,011
-623,663	-200,000	-0,033	0,182
-622,649	209,396	-0,060	0,068
-621,634	-117,908	-0,101	-0,013
-620,619	268,981	0,052	-0,066
-619,605	-149,461	-0,126	-0,007
-618,590	-200,000	-0,007	0,165
-617,576	-15,707	-0,140	0,064
-616,561	-136,721	0,100	-0,008
-615,546	-25,252	-0,213	-0,090
-614,532	81,198	-0,027	0,021
-613,517	-34,676	-0,012	-0,005
-612,503	87,437	0,049	-0,039
-611,488	800,000	-0,005	-0,011
-610,474	-200,000	0,003	0,273
-609,459	-200,000	-0,011	0,132
-608,444	-150,434	-0,065	-0,004
-607,430	302,918	0,008	0,011
-606,415	800,000	-0,020	-0,062
-605,401	128,478	0,047	0,043
-604,386	-200,000	0,000	0,070
-603,371	184,646	0,049	0,052
-602,357	800,000	0,022	0,046
-601,342	755,667	0,034	-0,066
-600,328	80,713	0,016	-0,012
-599,313	-200,000	-0,017	-0,113
-598,298	239,440	0,087	-0,105
-597,284	547,349	0,039	-0,067
-596,269	91,400	0,037	-0,030
-595,255	-59,960	-0,114	-0,035
-594,240	-200,000	-0,034	-0,119
-593,225	-155,377	-0,035	-0,002
-592,211	800,000	0,015	-0,036
-591,196	462,793	0,050	-0,081
-590,182	264,335	-0,056	-0,070
-589,167	280,197	0,082	-0,105
-588,152	-200,000	0,006	0,201
-587,138	-45,718	-0,056	-0,020
-586,123	269,569	-0,107	-0,135
-585,109	800,000	0,079	-0,228
-584,094	800,000	0,031	0,085
-583,079	258,755	0,030	0,037
-582,065	-197,467	-0,090	-0,000
-581,050	-180,883	-0,021	-0,000
-580,036	408,537	-0,116	0,177
-579,021	377,003	0,050	-0,074
-578,006	-200,000	0,001	-0,015
-576,992	113,775	0,104	-0,091
-575,977	800,000	0,048	0,137
-574,963	57,234	-0,046	0,033
-573,948	-63,961	0,074	-0,022
-572,934	-35,192	-0,016	-0,006
-571,919	231,954	-0,081	-0,096
-570,904	-77,576	-0,025	0,006
-569,890	800,000	0,052	0,108
-568,875	-26,861	0,059	0,025
-567,861	800,000	0,024	-0,064
-566,846	108,920	0,100	-0,086
-565,831	800,000	-0,033	0,098
-564,817	-118,425	-0,037	-0,005
-563,802	278,328	-0,050	-0,065
-562,788	-200,000	0,014	-0,056
-561,773	2,509	-0,094	0,049
-560,758	-98,451	0,081	-0,015
-559,744	-185,008	0,092	0,001
-558,729	-200,000	0,006	0,095
-557,715	381,131	0,080	0,118
-556,700	-200,000	0,007	0,049
-555,685	145,112	0,018	0,018
-554,671	800,000	-0,030	-0,071
-553,656	-200,000	-0,020	-0,115
-552,642	-200,000	0,017	0,138
-551,627	13,475	-0,067	0,037
-550,612	800,000	-0,048	-0,145
-549,598	129,941	-0,042	0,039
-548,583	-3,300	-0,217	-0,109
-547,569	108,248	-0,047	-0,040
-546,554	10,291	0,127	-0,069
-545,539	800,000	0,072	0,191
-544,525	800,000	0,062	0,155
-543,510	-200,000	-0,031	-0,135
-542,496	357,043	-0,048	0,068
-541,481	61,455	0,073	-0,052
-540,466	-58,688	-0,048	0,015
-539,452	800,000	-0,009	-0,020
-538,437	-138,575	0,041	0,003
-537,423	-140,001	-0,161	0,012
-536,408	-200,000	0,016	-0,091
-535,393	116,178	-0,089	0,078
-534,379	-169,964	-0,143	0,004
-533,364	800,000	0,008	-0,019
-532,350	432,099	0,011	0,018
-531,335	800,000	0,048	0,131
-530,321	28,990	-0,158	0,096
-529,306	-200,000	-0,026	-0,114
-528,291	-22,441	-0,064	-0,028
-527,277	-200,000	0,008	-0,038
-526,262	-105,930	-0,040	-0,006
-525,248	-19,401	-0,115	-0,051
-524,233	268,959	-0,054	-0,068
-523,218	160,138	-0,048	-0,048
-522,204	-46,838	0,152	-0,053
-521,189	-200,000	0,046	-0,163
-520,175	361,749	-0,053	0,076
-519,160	-99,664	-0,106	-0,019
-518,145	450,557	0,034	0,054
-517,131	-88,359	-0,033	0,007
-516,116	368,694	-0,049	0,071
-515,102	364,902	-0,055	-0,080
-514,087	481,312	-0,047	0,077
-513,072	-8,191	-0,172	-0,083
-512,058	-3,133	0,111	-0,055
-511,043	1,643	0,145	0,075
-510,029	197,886	0,090	-0,099
-509,014	-200,000	0,004	-0,036
-507,999	172,850	0,084	0,087
-506,985	-200,000	0,000	0,066
-505,970	65,611	-0,105	-0,076
-504,956	-11,393	-0,052	-0,025
-503,941	-111,097	-0,130	0,019
-502,926	-200,000	-0,018	-0,072
-501,912	178,596	0,023	0,024
-500,897	-200,000	0,002	0,035
-499,883	699,908	0,045	-0,086
-498,868	800,000	0,036	-0,073
-497,853	203,903	0,030	-0,033
-496,839	98,990	0,080	0,066
-495,824	100,009	0,084	0,070
-494,810	-136,670	0,025	-0,002
-493,795	-65,861	-0,052	-0,015
-492,781	150,891	0,069	-0,068
-491,766	-200,000	0,012	-0,151
-490,751	180,228	0,104	-0,110
-489,737	458,135	0,079	0,127
-488,722	25,490	0,143	0,085
-487,708	800,000	0,029	-0,069
-486,693	34,377	0,036	0,023
-485,678	-2,749	-0,079	0,040
-484,664	-93,582	-0,079	0,015
-483,649	29,465	-0,102	0,062
-482,635	305,229	-0,068	-0,091
-481,620	75,505	-0,060	0,045
-480,605	672,394	0,039	0,073
-479,591	-163,749	0,011	0,000
-478,576	-144,872	0,038	-0,002
-477,562	-78,117	-0,125	0,031
-476,547	800,000	-0,042	-0,108
-475,532	-200,000	0,039	0,000
-474,518	-62,624	0,066	0,019
-473,503	-104,461	0,103	0,017
-472,489	-200,000	-0,014	0,086
-471,474	-200,000	-0,008	0,049
-470,459	257,865	-0,030	0,037
-469,445	92,576	-0,079	-0,064
-468,430	359,856	-0,075	-0,107
-467,416	138,605	-0,022	-0,020
-466,401	8,216	0,164	-0,088
-465,386	-200,000	0,072	0,261
-464,372	106,068	-0,121	-0,103
-463,357	88,450	-0,148	-0,117
-462,343	279,986	-0,022	-0,028
-461,328	72,896	0,027	0,020
-460,313	800,000	0,028	0,058
-459,299	-200,000	-0,007	-0,050
-458,284	800,000	-0,050	0,113
-457,270	-137,041	-0,151	-0,012
-456,255	-200,000	-0,006	0,064
-455,241	-200,000	-0,024	-0,080
-454,226	156,163	0,040	-0,040
-453,211	-61,855	0,211	-0,063
-452,197	-130,098	-0,023	-0,002
-451,182	121,854	0,101	0,091
-450,168	800,000	-0,056	0,154
-449,153	201,644	0,076	0,084
-448,138	-146,200	-0,058	0,004
-447,124	800,000	-0,068	-0,139
-446,109	-200,000	-0,030	0,126
-445,095	398,063	0,064	0,096
-444,080	240,020	-0,088	-0,105
-443,065	37,712	0,074	0,047
-442,051	555,995	0,035	-0,061
-441,036	323,171	-0,099	0,136
-440,022	96,547	-0,166	-0,136
-439,007	466,217	-0,023	-0,037
-437,992	8,876	0,129	0,069
-436,978	800,000	0,019	0,053
-435,963	109,504	-0,087	-0,075
-434,949	62,677	-0,021	-0,015
-433,934	-91,920	-0,114	-0,023
-432,919	302,252	-0,049	-0,065
-431,905	-69,434	-0,193	-0,053
-430,890	800,000	0,046	0,142
-429,876	-127,771	-0,137	-0,014
-428,861	-83,915	0,152	-0,034
-427,846	-102,481	-0,085	-0,014
-426,832	800,000	0,010	-0,032
-425,817	-200,000	-0,017	-0,207
-424,803	-150,479	0,041	0,002
-423,788	214,655	0,047	0,054
-422,773	93,658	0,083	0,068
-421,759	-200,000	-0,016	0,198
-420,744	140,061	-0,131	-0,124
-419,730	538,745	-0,031	-0,053
-418,715	68,179	0,102	-0,074
-417,701	-102,713	-0,057	-0,010
-416,686	800,000	0,027	-0,076
-415,671	279,441	-0,046	-0,058
-414,657	-200,000	-0,005	-0,041
-413,642	66,664	0,097	0,071
-412,628	-200,000	-0,018	0,099
-411,613	-145,631	-0,114	0,007
-410,598	222,982	0,026	-0,030
-409,584	277,586	-0,109	0,140
-408,569	-200,000	-0,026	0,203
-407,555	309,068	0,051	0,068
-406,540	518,945	-0,055	-0,093
-405,525	-26,377	-0,056	-0,023
-404,511	800,000	-0,041	-0,095
-403,496	-200,000	0,001	-0,042
-402,482	460,856	-0,027	-0,044
-401,467	107,629	0,118	-0,100
-400,452	-28,898	0,083	0,034
-399,438	484,572	0,112	-0,183
-398,423	18,562	-0,068	-0,039
-397,409	182,478	0,058	0,061
-396,394	467,168	0,029	-0,047
-395,379	-172,678	-0,028	-0,001
-394,365	-150,306	0,062	0,003
-393,350	180,808	0,058	0,061
-392,336	166,246	-0,027	-0,027
-391,321	-38,586	0,190	-0,071
-390,306	401,330	-0,031	-0,046
-389,292	321,060	0,042	-0,058
-388,277	-56,255	0,124	0,039
-387,263	-82,169	0,094	-0,022
-386,248	-200,000	-0,010	-0,036
-385,233	524,773	0,015	-0,025
-384,219	-131,560	-0,093	0,009
-383,204	53,564	-0,085	-0,058
-382,190	-200,000	0,050	-0,206
-381,175	375,531	-0,028	-0,041
-380,160	800,000	-0,027	0,073
-379,146	-200,000	0,041	-0,130
-378,131	33,384	0,192	0,119
-377,117	251,021	-0,053	-0,064
-376,102	800,000	-0,057	0,166
-375,088	-166,547	0,043	-0,001
-374,073	-69,416	-0,114	-0,031
-373,058	194,538	0,077	0,084
-372,044	53,921	-0,063	-0,043
-371,029	-47,023	0,165	-0,057
-370,015	648,824	-0,077	-0,142
-369,000	-4,364	-0,069	0,034
-367,985	-200,000	0,020	-0,189
-366,971	96,598	-0,034	-0,027
-365,956	-92,849	0,063	-0,012
-364,942	800,000	0,050	-0,100
-363,927	-200,000	-0,009	-0,050
-362,912	20,242	0,040	-0,023
-361,898	-8,355	-0,025	0,012
-360,883	19,485	0,078	0,045
-359,869	800,000	-0,027	-0,068
-358,854	-58,896	0,126	-0,039
-357,839	-200,000	-0,006	-0,051
-356,825	800,000	0,058	0,144
-355,810	-200,000	-0,007	0,029
-354,796	800,000	-0,053	-0,118
-353,781	-190,150	-0,038	-0,000
-352,766	-107,407	0,179	0,028
-351,752	-200,000	0,004	0,047
-350,737	800,000	0,018	-0,037
-349,723	282,191	0,055	0,070
-348,708	97,308	0,137	0,113
-347,693	-200,000	-0,051	-0,165
-346,679	303,031	-0,077	0,102
-345,664	378,103	0,090	-0,132
-344,650	-200,000	-0,022	0,084
-343,635	800,000	0,049	0,131
-342,620	-20,589	-0,115	0,050
-341,606	483,173	-0,033	-0,053
-340,591	800,000	-0,025	-0,054
-339,577	-191,725	-0,115	0,001
-338,562	-200,000	0,001	-0,089
-337,548	-14,317	0,121	-0,055
-336,533	800,000	0,047	0,097
-335,518	-147,189	0,087	0,005
-334,504	-18,529	0,109	0,048
-333,489	-115,658	-0,046	0,006
-332,475	147,991	-0,052	0,050
-331,460	-200,000	-0,026	-0,150
-330,445	-200,000	-0,009	-0,037
-329,431	-200,000	0,039	0,185
-328,416	44,960	-0,133	0,087
-327,402	-200,000	-0,018	0,134
-326,387	-106,645	0,079	0,012
-325,372	32,291	-0,097	0,060
-324,358	800,000	0,020	-0,046
-323,343	-40,102	-0,049	-0,018
-322,329	30,997	-0,134	0,082
-321,314	-117,323	0,078	0,010
-320,299	800,000	-0,047	-0,108
-319,285	-40,849	-0,051	0,019
-318,270	-49,837	0,078	-0,026
-317,256	-172,285	-0,061	-0,001
-316,241	-42,590	0,091	0,033
-315,226	800,000	-0,043	-0,086
-314,212	800,000	0,060	0,159
-313,197	-166,694	0,152	-0,004
-312,183	-200,000	0,042	-0,161
-311,168	692,777	0,034	0,064
-310,153	-121,379	-0,108	0,013
-309,139	244,853	0,064	-0,077
-308,124	-75,833	0,033	-0,008
-307,110	800,000	0,004	-0,009
-306,095	-160,649	-0,022	-0,001
-305,080	-125,284	-0,039	0,004
-304,066	-200,000	-0,034	0,133
-303,051	748,553	-0,011	-0,021
-302,037	34,979	-0,100	-0,062
-301,022	-38,589	0,133	0,050
-300,008	-200,000	-0,006	0,149
-298,993	0,853	-0,088	0,045
-297,978	-22,332	0,077	-0,033
-296,964	198,555	-0,114	0,125
-295,949	-200,000	0,025	-0,086
-294,935	-200,000	0,024	0,121
-293,920	-200,000	-0,016	0,093
-292,905	-102,684	-0,052	0,009
-291,891	-200,000	0,005	0,036
-290,876	16,554	-0,060	0,034
-289,862	98,358	-0,102	0,084
-288,847	-200,000	-0,010	0,068
-287,832	-143,412	0,078	0,005
-286,818	29,457	0,130	0,079
-285,803	-14,961	-0,092	0,042
-284,789	-84,061	-0,101	0,023
-283,774	6,871	-0,048	0,025
-282,759	355,558	-0,062	0,088
-281,745	800,000	0,027	-0,074
-280,730	-200,000	-0,016	0,054
-279,716	-200,000	-0,007	0,041
-278,701	-200,000	-0,011	0,075
-277,686	108,016	-0,043	0,037
-276,672	-200,000	0,009	0,087
-275,657	-47,500	0,167	0,058
-274,643	-200,000	-0,028	-0,095
-273,628	-5,679	-0,086	-0,042
-272,613	800,000	-0,032	-0,072
-271,599	800,000	0,017	0,044
-270,584	140,453	0,033	0,031
-269,570	-200,000	0,004	0,197
-268,555	-135,877	0,116	-0,010
-267,540	800,000	0,021	-0,055
-266,526	-152,590	-0,157	-0,008
-265,511	-200,000	0,006	-0,045
-264,497	46,011	0,185	0,122
-263,482	-200,000	-0,021	-0,077
-262,467	198,673	-0,035	0,038
-261,453	114,595	0,083	0,072
-260,438	-35,413	-0,017	0,007
-259,424	800,000	-0,024	-0,068
-258,409	61,222	0,055	-0,039
-257,395	-48,467	0,112	-0,038
-256,380	18,085	-0,133	0,075
-255,365	565,821	0,034	-0,059
-254,351	-97,193	-0,166	-0,031
-253,336	316,973	0,105	-0,141
-252,322	800,000	-0,044	-0,103
-251,307	-200,000	-0,122	0,000
-250,292	-107,141	0,108	-0,017
-249,278	-4,112	-0,087	0,043
-248,263	-200,000	0,012	0,059
-247,249	-21,604	0,037	0,016
-246,234	36,584	-0,073	0,046
-245,219	357,616	0,013	0,019
-244,205	-200,000	0,014	-0,106
-243,190	800,000	0,029	0,082
-242,176	-116,748	0,073	0,009
-241,161	-116,712	0,090	-0,012
-240,146	511,274	0,033	-0,054
-239,132	-38,006	-0,059	-0,022
-238,117	144,886	-0,129	-0,122
-237,103	-41,722	0,015	0,006
-236,088	64,476	0,094	-0,068
-235,073	-40,053	0,046	-0,017
-234,059	-40,587	0,077	0,028
-233,044	-65,438	0,038	-0,011
-232,030	-77,721	0,035	-0,008
-231,015	80,668	-0,036	0,027
-230,000	-200,000	-0,012	-0,045
-228,986	-99,749	0,092	-0,016
-227,971	111,932	0,051	0,043
-226,957	-200,000	-0,018	0,167
-225,942	408,058	0,011	0,017
-224,927	-46,189	-0,206	-0,072
-223,913	-20,054	-0,024	-0,010
-222,898	27,884	-0,059	-0,035
-221,884	48,317	-0,019	-0,012
-220,869	-200,000	0,028	0,103
-219,855	73,802	-0,123	0,091
-218,840	-200,000	0,006	-0,024
-217,825	-142,730	0,292	0,020
-216,811	101,430	-0,082	-0,068
-215,796	294,568	0,046	0,060
-214,782	-70,438	-0,035	-0,009
-213,767	-116,443	0,008	0,001
-212,752	375,000	0,050	-0,073
-211,738	-68,505	0,066	-0,018
-210,723	50,169	-0,110	0,074
-209,709	-200,000	-0,017	-0,094
-208,694	-200,000	0,010	-0,087
-207,679	800,000	0,043	0,094
-206,665	180,979	0,051	0,053
-205,650	-200,000	-0,033	0,123
-204,636	800,000	0,055	0,111
-203,621	-131,356	-0,038	0,003
-202,606	-150,837	0,017	0,001
-201,592	-99,222	-0,128	0,023
-200,577	69,459	0,068	-0,049
-199,563	223,707	0,043	-0,050
-198,548	-154,714	0,081	-0,004
-197,533	310,078	0,098	-0,130
-196,519	286,773	0,022	0,028
-195,504	61,726	0,093	0,066
-194,490	191,727	0,109	-0,116
-193,475	15,929	-0,044	-0,024
-192,460	-90,776	-0,156	0,032
-191,446	-74,090	-0,087	-0,022
-190,431	180,908	0,072	0,075
-189,417	-133,259	0,034	-0,003
-188,402	-144,319	-0,062	-0,004
-187,387	-17,024	-0,018	0,008
-186,373	-111,017	0,114	0,016
-185,358	-200,000	0,006	-0,029
-184,344	451,086	0,081	0,128
-183,329	-94,015	0,087	-0,017
-182,315	294,218	-0,048	-0,062
-181,300	-122,900	0,070	-0,008
-180,285	243,863	-0,082	-0,098
-179,271	50,970	-0,093	-0,062
-178,256	99,881	0,058	0,047
-177,242	635,678	-0,053	0,096
-176,227	536,401	-0,069	0,116
-175,212	800,000	-0,026	0,071
-174,198	-99,547	-0,150	-0,027
-173,183	499,742	-0,052	-0,086
-172,169	-200,000	0,001	-0,188
-171,154	-148,763	-0,100	0,006
-170,139	-12,344	0,215	0,099
-169,125	800,000	0,054	0,128
-168,110	-200,000	-0,011	0,052
-167,096	-200,000	0,001	0,233
-166,081	800,000	0,031	-0,083
-165,066	174,096	-0,065	0,066
-164,052	800,000	0,027	-0,078
-163,037	33,808	0,067	-0,041
-162,023	-90,188	0,031	0,006
-161,008	22,166	-0,043	0,025
-159,993	-115,869	0,163	-0,021
-158,979	-200,000	0,005	-0,097
-157,964	-39,469	-0,069	-0,026
-156,950	177,909	0,043	0,044
-155,935	-200,000	0,031	-0,119
-154,920	800,000	0,021	0,062
-153,906	-5,004	0,064	-0,031
-152,891	14,603	0,081	-0,045
-151,877	-133,811	-0,240	-0,021
-150,862	430,113	0,048	-0,073
-149,847	-157,687	-0,147	0,006
-148,833	-200,000	-0,010	0,032
-147,818	800,000	0,020	0,051
-146,804	611,624	0,038	0,068
-145,789	-33,288	-0,070	0,027
-144,775	108,792	-0,111	-0,094
-143,760	2,748	-0,056	0,028
-142,745	524,083	-0,024	0,040
-141,731	-200,000	0,010	-0,038
-140,716	-144,095	0,110	0,007
-139,702	6,396	0,239	0,126
-138,687	-200,000	-0,006	0,116
-137,672	56,573	-0,016	0,011
-136,658	-200,000	-0,042	-0,140
-135,643	-5,112	-0,054	0,026
-134,629	489,680	-0,067	-0,109
-133,614	173,906	0,074	0,075
-132,599	-200,000	0,001	-0,012
-131,585	184,703	-0,120	0,126
-130,570	-200,000	-0,022	0,118
-129,556	-200,000	0,022	-0,092
-128,541	300,381	0,069	-0,091
-127,526	800,000	-0,027	-0,073
-126,512	657,452	-0,050	0,092
-125,497	-65,775	-0,170	-0,048
-124,483	20,391	-0,034	0,019
-123,468	-200,000	0,006	0,049
-122,453	528,401	-0,033	-0,056
-121,439	-200,000	-0,005	-0,035
-120,424	-200,000	0,024	-0,079
-119,410	26,701	0,111	-0,065
-118,395	-200,000	0,011	0,057
-117,380	75,929	0,024	-0,018
-116,366	-49,728	-0,095	-0,032
-115,351	47,603	0,065	-0,043
-114,337	-200,000	-0,017	-0,086
-113,322	-24,809	0,039	-0,016
-112,307	-90,508	-0,016	-0,003
-111,293	-69,698	0,061	0,016
-110,278	242,071	0,080	-0,095
-109,264	800,000	-0,015	-0,044
-108,249	-200,000	-0,002	-0,066
-107,234	249,742	-0,113	-0,136
-106,220	-200,000	-0,051	-0,198
-105,205	-200,000	-0,024	-0,112
-104,191	-91,293	0,108	-0,022
-103,176	57,656	-0,020	-0,014
-102,162	-200,000	-0,033	-0,104
-101,147	9,646	0,018	0,009
-100,132	-200,000	-0,014	0,097
-99,118	-36,721	-0,037	0,014
-98,103	-200,000	-0,007	0,073
-97,089	44,046	-0,067	-0,043
-96,074	-200,000	-0,041	0,172
-95,059	-200,000	0,044	0,139
-94,045	416,023	0,103	0,156
-93,030	800,000	0,037	-0,098
-92,016	-200,000	-0,002	-0,140
-91,001	7,524	0,116	-0,061
-89,986	-75,663	0,146	-0,036
-88,972	-200,000	-0,010	0,073
-87,957	800,000	0,041	0,113
-86,943	-200,000	0,003	0,021
-85,928	-200,000	-0,027	-0,109
-84,913	-200,000	-0,028	-0,102
-83,899	-200,000	0,010	-0,055
-82,884	53,074	0,050	0,034
-81,870	165,484	-0,124	-0,124
-80,855	-200,000	0,026	0,128
-79,840	470,514	0,042	0,067
-78,826	-38,038	0,050	-0,019
-77,811	-111,092	-0,132	-0,019
-76,797	-56,256	-0,097	0,030
-75,782	40,332	-0,066	-0,042
-74,767	276,312	-0,083	0,104
-73,753	-41,918	-0,222	0,080
-72,738	-200,000	-0,015	-0,131
-71,724	-200,000	0,022	-0,113
-70,709	-159,651	0,064	-0,002
-69,694	501,115	0,036	0,059
-68,680	800,000	-0,044	-0,098
-67,665	1,938	0,103	0,053
-66,651	57,737	-0,024	-0,016
-65,636	-200,000	0,015	0,055
-64,622	-200,000	-0,026	0,106
-63,607	800,000	-0,011	-0,023
-62,592	-200,000	-0,010	-0,045
-61,578	-200,000	0,015	0,074
-60,563	41,543	-0,112	0,072
-59,549	-200,000	0,002	0,120
-58,534	17,945	-2,186	-1,226
-57,519	677,788	-1,095	-2,019
-56,505	-200,000	-0,375	-4,395
-55,490	702,679	0,830	1,550
-54,476	800,000	5,235	11,534
-53,461	-200,000	21,679	343,580
-52,446	800,000	763,363	2345,861
-51,432	548,729	1661,699	2820,156
-50,417	71,576	1657,800	1213,731
-49,403	17,295	1531,226	855,223
-48,388	11,310	1455,121	783,822
-47,373	19,341	1446,978	817,880
-46,359	14,768	1435,782	789,814
-45,344	9,573	1431,694	762,839
-44,330	9,507	1430,024	761,604
-43,315	9,523	1427,899	760,519
-42,300	9,545	1426,245	759,714
-41,286	9,551	1425,092	759,098
-40,271	9,505	1423,826	758,177
-39,257	9,495	1422,468	757,378
-38,242	9,535	1421,537	757,039
-37,227	9,538	1420,609	756,527
-36,213	9,569	1419,132	755,859
-35,198	9,539	1418,106	755,142
-34,184	9,558	1417,226	754,730
-33,169	9,518	1415,574	753,632
-32,154	9,595	1414,647	753,473
-31,140	9,540	1413,301	752,466
-30,125	9,598	1412,147	752,096
-29,111	9,554	1411,180	751,343
-28,096	9,529	1410,098	750,622
-27,082	9,514	1408,753	749,807
-26,067	9,493	1407,675	749,105
-25,052	9,504	1406,519	748,511
-24,038	9,523	1405,719	748,142
-23,023	9,539	1404,585	747,586
-22,009	9,486	1403,819	746,899
-20,994	9,514	1402,634	746,368
-19,979	9,470	1401,976	745,783
-18,965	9,501	1400,824	745,286
-17,950	9,482	1399,767	744,608
-16,936	9,464	1399,098	744,137
-15,921	9,388	1398,249	743,302
-14,906	9,444	1397,153	742,951
-13,892	9,469	1396,090	742,473
-12,877	9,415	1395,526	741,891
-11,863	9,385	1394,848	741,362
-10,848	9,354	1393,749	740,605
-9,833	9,357	1392,758	740,064
-8,819	9,308	1392,062	739,440
-7,804	9,320	1390,863	738,830
-6,790	9,302	1389,967	738,238
-5,775	9,278	1389,064	737,621
-4,760	9,282	1388,020	737,057
-3,746	9,294	1387,042	736,560
-2,731	9,320	1386,075	736,136
-1,717	9,360	1385,264	735,864
-0,702	9,305	1383,541	734,663
0,313	13,413	1295,725	706,755
1,327	29,515	686,770	410,939
2,342	45,877	118,546	77,188
3,356	-0,397	16,526	8,251
4,371	9,435	3,640	1,936
5,386	-23,489	1,170	0,493
6,400	800,000	0,261	0,561
7,415	57,377	-0,301	-0,207
8,429	-35,959	-0,303	-0,115
9,444	50,034	-0,331	-0,220
10,459	-34,585	-0,340	-0,130
11,473	-2,434	-0,418	-0,206
12,488	120,773	-0,224	-0,196
13,502	41,020	-0,253	-0,160
14,517	15,334	-0,314	-0,173
15,531	191,755	-0,258	-0,274
16,546	109,923	-0,354	-0,299
17,561	209,808	-0,258	-0,285
18,575	63,821	-0,262	-0,185
19,590	151,368	-0,218	-0,209
20,604	-28,910	-0,229	-0,092
21,619	40,033	-0,435	-0,274
22,634	93,084	-0,360	-0,286
23,648	113,440	-0,395	-0,337
24,663	32,993	-0,300	-0,183
25,677	163,104	-0,327	-0,323
26,692	-16,794	-0,363	-0,161
27,707	104,425	-0,354	-0,293
28,721	60,219	-0,359	-0,250
29,736	-7,881	-0,400	-0,189
30,750	72,012	-0,337	-0,247
31,765	348,064	-0,261	-0,363
32,780	131,531	-0,378	-0,341
33,794	322,971	-0,199	-0,268
34,809	31,057	-0,263	-0,158
35,823	40,740	-0,372	-0,235
36,838	335,451	-0,250	-0,341
37,853	131,352	-0,313	-0,282
38,867	14,032	-0,428	-0,234
39,882	180,400	-0,317	-0,327
40,896	-57,515	-0,320	-0,098
41,911	-132,368	-0,467	-0,042
42,926	91,234	-0,380	-0,300
43,940	54,594	-0,504	-0,341
44,955	7,272	-0,445	-0,233
45,969	128,518	-0,376	-0,336
46,984	2,669	-0,354	-0,179
47,999	-45,261	-0,363	-0,126
49,013	179,677	-0,218	-0,225
50,028	-3,341	-0,360	-0,175
51,042	-8,067	-0,277	-0,131
52,057	143,035	-0,300	-0,280
53,071	145,969	-0,209	-0,197
54,086	72,482	-0,419	-0,307
55,101	159,886	-0,330	-0,323
56,115	32,112	-0,343	-0,207
57,130	-16,428	-0,471	-0,209
58,144	465,488	-0,210	-0,332
59,159	231,184	-0,285	-0,329
60,174	30,658	-0,401	-0,240
61,188	13,730	-0,318	-0,173
62,203	3,875	-0,433	-0,221
63,217	-78,308	-0,205	-0,049
64,232	174,760	-0,202	-0,205
65,247	-83,253	-0,511	-0,114
66,261	-17,510	-0,311	-0,137
67,276	99,976	-0,372	-0,302
68,290	25,710	-0,276	-0,161
69,305	32,663	-0,259	-0,157
70,320	-10,081	-0,285	-0,132
71,334	-71,954	-0,324	-0,084
72,349	205,075	-0,221	-0,241
73,363	-70,722	-0,414	-0,109
74,378	62,726	-0,325	-0,227
75,393	-32,939	-0,273	-0,106
76,407	-11,173	-0,284	-0,131
77,422	5,800	-0,312	-0,161
78,436	194,460	-0,303	-0,323
79,451	86,337	-0,238	-0,184
80,466	-57,699	-0,349	-0,106
81,480	95,023	-0,346	-0,276
82,495	55,275	-0,273	-0,184
83,509	-58,136	-0,309	-0,094
84,524	-82,351	-0,293	-0,066
85,539	8,905	-0,257	-0,135
86,553	168,870	-0,264	-0,263
87,568	70,957	-0,277	-0,200
88,582	46,901	-0,379	-0,246
89,597	97,720	-0,306	-0,246
90,611	-122,248	-0,305	-0,034
91,626	437,002	-0,193	-0,295
92,641	140,013	-0,174	-0,160
93,655	-35,357	-0,264	-0,100
94,670	-19,739	-0,363	-0,157
95,684	256,243	-0,156	-0,188
96,699	277,726	-0,304	-0,380
97,714	148,556	-0,152	-0,144
98,728	166,614	-0,303	-0,301
99,743	-51,080	-0,266	-0,087
100,757	-92,897	-0,246	-0,048
101,772	80,907	-0,230	-0,173
102,787	-0,608	-0,222	-0,110
103,801	51,646	-0,374	-0,248
104,816	562,844	-0,218	-0,369
105,830	-200,000	-0,026	-0,133
106,845	58,719	-0,306	-0,209
107,860	150,335	-0,118	-0,112
108,874	6,680	-0,311	-0,161
109,889	-2,571	-0,345	-0,168
110,903	94,270	-0,121	-0,096
111,918	299,960	-0,155	-0,201
112,933	275,054	-0,221	-0,274
113,947	130,836	-0,111	-0,100
114,962	-150,707	-0,196	-0,010
115,976	288,977	-0,196	-0,249
116,991	-157,358	-0,434	0,018
118,006	22,439	-0,367	-0,209
119,020	145,994	-0,266	-0,250
120,035	-63,161	-0,329	-0,094
121,049	-175,633	-0,230	0,004
122,064	-36,813	-0,246	-0,092
123,079	124,438	-0,186	-0,163
124,093	446,733	-0,169	-0,260
125,108	16,154	-0,427	-0,234
126,122	79,015	-0,209	-0,156
127,137	222,515	-0,279	-0,314
128,151	346,330	-0,110	-0,151
129,166	-8,370	-0,233	-0,109
130,181	-42,216	-0,266	-0,094
131,195	38,974	-0,322	-0,200
132,210	-7,917	-0,252	-0,118
133,224	43,895	-0,364	-0,232
134,239	241,071	-0,160	-0,186
135,254	800,000	-0,063	-0,137
136,268	-168,762	-0,292	-0,008
137,283	-121,309	-0,252	-0,029
138,297	12,478	-0,199	-0,107
139,312	96,707	-0,206	-0,164
140,327	-40,027	-0,328	-0,118
141,341	239,708	-0,181	-0,210
142,356	401,676	-0,179	-0,262
143,370	-100,770	-0,294	-0,050
144,385	-79,352	-0,179	-0,042
145,400	800,000	-0,055	-0,122
146,414	-44,792	-0,342	-0,118
147,429	172,841	-0,247	-0,248
148,443	165,198	-0,183	-0,180
149,458	-54,969	-0,304	-0,095
150,473	58,979	-0,116	-0,079
151,487	302,965	-0,170	-0,220
152,502	-48,049	-0,254	-0,085
153,516	-137,033	-0,342	-0,027
154,531	-9,891	-0,414	-0,191
155,546	65,257	-0,246	-0,173
156,560	50,882	-0,270	-0,178
157,575	-126,432	-0,163	-0,017
158,589	-96,568	-0,295	-0,054
159,604	163,216	-0,149	-0,146
160,619	-35,278	-0,142	-0,054
161,633	-15,612	-0,337	-0,149
162,648	91,853	-0,245	-0,191
163,662	126,123	-0,224	-0,197
164,677	80,106	-0,138	-0,103
165,692	297,916	-0,099	-0,127
166,706	211,105	-0,207	-0,226
167,721	420,183	-0,164	-0,245
168,735	330,104	-0,203	-0,272
169,750	145,392	-0,220	-0,205
170,764	28,877	-0,161	-0,094
171,779	-50,385	-0,194	-0,063
172,794	157,536	-0,227	-0,218
173,808	32,363	-0,280	-0,168
174,823	-189,663	-0,228	0,002
175,837	-27,148	-0,183	-0,074
176,852	58,325	-0,230	-0,156
177,867	-58,648	-0,175	-0,052
178,881	-163,863	-0,233	-0,007
179,896	-67,689	-0,249	-0,067
180,910	-51,913	-0,183	-0,059
181,925	102,409	-0,217	-0,176
182,940	54,112	-0,214	-0,143
183,954	-43,552	-0,163	-0,057
184,969	-97,383	-0,198	-0,035
185,983	-99,718	-0,243	-0,042
186,998	35,297	-0,170	-0,103
188,013	137,579	-0,174	-0,158
189,027	-1,801	-0,168	-0,082
190,042	83,347	-0,292	-0,221
191,056	145,271	-0,181	-0,168
192,071	106,130	-0,182	-0,149
193,086	169,014	-0,114	-0,112
194,100	39,528	-0,258	-0,160
195,115	-156,207	-0,165	-0,007
196,129	56,566	-0,249	-0,167
197,144	96,771	-0,260	-0,206
198,159	10,225	-0,248	-0,130
199,173	226,331	-0,099	-0,112
200,188	-141,556	-0,381	0,026
201,202	120,427	-0,148	-0,127
202,217	176,357	-0,127	-0,128
203,232	-127,951	-0,194	-0,019
204,246	800,000	-0,129	-0,303
205,261	-16,380	-0,272	-0,119
206,275	-99,371	-0,125	-0,022
207,290	71,088	-0,099	-0,071
208,304	419,056	-0,100	-0,148
209,319	88,005	-0,266	-0,204
210,334	510,858	-0,174	-0,282
211,348	48,446	-0,238	-0,154
212,363	67,212	-0,211	-0,148
213,377	-25,073	-0,212	-0,087
214,392	50,026	-0,225	-0,147
215,407	-200,000	-0,032	-0,196
216,421	61,041	-0,173	-0,118
217,436	246,359	-0,202	-0,236
218,450	-45,763	-0,320	-0,109
219,465	140,285	-0,099	-0,091
220,480	34,325	-0,095	-0,057
221,494	-55,118	-0,109	-0,034
222,509	-200,000	-0,044	-0,201
223,523	314,459	-0,176	-0,230
224,538	-151,855	-0,286	-0,014
225,553	16,220	-0,272	-0,148
226,567	18,204	-0,204	-0,112
227,582	5,129	-0,182	-0,093
228,596	800,000	-0,075	-0,210
229,611	49,938	-0,067	0,044
230,626	-0,638	-0,192	-0,094
231,640	4,989	-0,236	-0,120
232,655	-81,634	-0,243	-0,055
233,669	-23,179	-0,197	-0,081
234,684	-111,994	-0,229	-0,032
235,699	136,956	-0,176	-0,159
236,713	490,581	-0,093	-0,147
237,728	-200,000	-0,048	-0,159
238,742	24,559	-0,136	-0,078
239,757	471,904	-0,103	-0,161
240,772	24,351	-0,232	-0,132
241,786	-86,413	-0,282	-0,059
242,801	303,517	-0,145	-0,186
243,815	-11,733	-0,150	-0,068
244,830	800,000	-0,059	-0,158
245,844	331,864	-0,105	-0,140
246,859	-74,426	-0,259	-0,064
247,874	49,582	-0,286	-0,185
248,888	443,380	-0,147	-0,224
249,903	237,456	-0,158	-0,181
250,917	-104,123	-0,164	-0,026
251,932	368,824	-0,081	-0,113
252,947	-26,823	-0,246	-0,099
253,961	175,998	-0,188	-0,188
254,976	-49,144	-0,148	-0,049
255,990	130,721	-0,140	-0,124
257,005	-110,329	-0,141	-0,020
258,020	-167,687	-0,175	0,005
259,034	213,831	-0,155	-0,169
260,049	-93,857	-0,203	-0,038
261,063	-125,641	-0,248	-0,026
262,078	160,592	-0,158	-0,152
263,093	-47,562	-0,167	-0,056
264,107	110,558	-0,213	-0,176
265,122	-200,000	-0,002	-0,059
266,136	-118,838	-0,235	-0,028
267,151	73,573	-0,189	-0,136
268,166	-86,816	-0,209	-0,044
269,180	43,779	-0,253	-0,159
270,195	128,505	-0,263	-0,231
271,209	203,104	-0,137	-0,146
272,224	79,332	-0,223	-0,165
273,239	-93,459	-0,216	-0,041
274,253	77,599	-0,077	0,056
275,268	87,896	-0,145	-0,110
276,282	-159,157	-0,202	0,008
277,297	-51,388	-0,169	-0,054
278,312	-44,173	-0,318	-0,109
279,326	194,016	-0,109	-0,113
280,341	419,571	-0,096	-0,142
281,355	115,262	-0,105	-0,089
282,370	11,037	-0,286	-0,150
283,384	-200,000	-0,049	-0,192
284,399	-56,857	-0,280	-0,085
285,414	122,985	-0,011	0,010
286,428	117,886	-0,118	-0,100
287,443	-16,312	-0,153	-0,067
288,457	74,228	-0,208	-0,150
289,472	-5,184	-0,174	-0,082
290,487	297,128	-0,098	-0,124
291,501	144,803	-0,183	-0,168
292,516	592,313	-0,093	-0,159
293,530	4,623	-0,094	-0,047
294,545	-139,759	-0,223	-0,016
295,560	-22,496	-0,133	-0,055
296,574	42,843	-0,167	-0,104
297,589	0,631	-0,249	-0,122
298,603	-129,813	-0,163	-0,015
299,618	469,589	-0,078	-0,120
300,633	35,427	-0,092	0,055
301,647	10,486	-0,258	-0,135
302,662	-142,250	-0,174	-0,012
303,676	407,758	-0,122	-0,178
304,691	-66,690	-0,162	-0,044
305,706	121,490	-0,119	-0,102
306,720	215,427	-0,189	-0,206
307,735	84,799	-0,147	-0,110
308,749	-5,677	-0,056	0,026
309,764	-200,000	-0,010	-0,092
310,779	-80,553	-0,114	-0,026
311,793	189,798	-0,193	-0,199
312,808	185,811	-0,177	-0,180
313,822	10,528	-0,168	-0,088
314,837	-74,802	-0,140	0,034
315,852	51,731	-0,154	-0,100
316,866	-119,653	-0,131	0,015
317,881	-200,000	-0,001	0,013
318,895	-200,000	-0,042	-0,215
319,910	-200,000	-0,005	-0,082
320,925	-144,994	-0,203	-0,012
321,939	50,560	-0,068	0,044
322,954	45,631	-0,130	-0,082
323,968	-200,000	-0,001	-0,055
324,983	-82,584	-0,179	-0,039
325,997	-27,921	-0,186	-0,073
327,012	-71,266	-0,214	-0,055
328,027	800,000	-0,091	-0,180
329,041	182,849	-0,167	-0,169
330,056	-200,000	-0,021	-0,145
331,070	800,000	-0,009	-0,024
332,085	-21,814	-0,221	-0,092
333,100	482,050	-0,061	-0,096
334,114	82,993	-0,203	-0,151
335,129	-79,812	-0,189	-0,043
336,143	-200,000	-0,008	-0,103
337,158	587,188	-0,054	-0,092
338,173	-159,398	-0,120	-0,005
339,187	35,818	-0,093	-0,056
340,202	69,996	-0,132	-0,093
341,216	85,744	-0,014	-0,011
342,231	-116,093	-0,219	-0,028
343,246	126,209	-0,083	-0,071
344,260	800,000	-0,055	-0,155
345,275	-26,766	-0,039	-0,016
346,289	60,234	-0,089	-0,060
347,304	402,624	-0,078	-0,112
348,319	309,532	-0,123	-0,157
349,333	442,731	-0,097	-0,146
350,348	-200,000	-0,019	0,058
351,362	-178,753	-0,018	-0,000
352,377	378,615	-0,125	-0,176
353,392	-19,824	-0,150	0,063
354,406	-128,295	0,085	-0,008
355,421	208,468	1306,860	1399,002
356,435	160,416	1466,563	1399,465
