DTS Sentinel unit serial number:	SN410029Multiplexer serial number:	ORYXHardware model number:	OX2-SRSoftware version number:	ORYX F/W v4,00 Oryx Data Collector v3.7.2.0data status	okinstallation	B3 Nyhavnadifferential loss correction	single-endedforward channel	channel 1reverse channel	N/Adate	2023/12/04time	23:42:30forward acquisition time	300,00reverse acquisition time	0,00gamma	499,1914k internal	0,3201k external	0,3201temperature offset calibration	1,0000default loss term (dB/km)	0,3820temperature slope calibration	1,0000multiplexer offset coefficient	1,0000multiplexer slope coefficient	1,0000fibre end	0,00T internal ref (°C)	14,12T ext. ref 1 (°C)	-1,24T ext. ref 2 (°C)	-1,24length (m)	temperature (°C)	Stokes	anti-Stokes-744,400	66,256	-0,252	-0,186
-743,385	-200,000	-0,019	0,385
-742,371	374,824	-0,154	-0,229
-741,356	-200,000	0,082	0,269
-740,342	133,126	-0,288	-0,270
-739,327	165,697	-0,143	0,147
-738,312	182,911	-0,248	-0,267
-737,298	-200,000	0,017	0,166
-736,283	360,300	-0,133	-0,195
-735,269	378,203	0,117	0,174
-734,254	496,934	-0,110	-0,184
-733,239	327,275	-0,177	0,248
-732,225	216,321	-0,135	-0,157
-731,210	-71,217	0,156	-0,042
-730,196	201,218	-0,073	-0,082
-729,181	-200,000	-0,035	0,128
-728,167	800,000	-0,029	-0,091
-727,152	800,000	0,031	-0,074
-726,137	9,138	0,039	-0,021
-725,123	-4,868	-0,030	0,015
-724,108	-157,186	-0,080	-0,003
-723,094	223,294	-0,086	-0,101
-722,079	-200,000	-0,002	-0,090
-721,064	-12,259	-0,072	-0,034
-720,050	401,408	-0,070	0,108
-719,035	-121,403	0,112	-0,013
-718,021	-200,000	-0,005	-0,180
-717,006	642,903	-0,035	-0,065
-715,991	45,695	-0,082	-0,055
-714,977	483,106	-0,077	-0,128
-713,962	-200,000	0,012	-0,121
-712,948	800,000	0,036	-0,079
-711,933	-79,284	-0,148	-0,036
-710,918	-165,795	-0,076	-0,002
-709,904	162,018	-0,057	0,058
-708,889	85,100	-0,080	-0,064
-707,875	197,247	0,071	-0,079
-706,860	-87,224	-0,072	-0,016
-705,845	-98,244	-0,085	0,016
-704,831	-200,000	0,001	-0,048
-703,816	-200,000	0,020	0,179
-702,802	43,646	-0,148	-0,098
-701,787	396,448	-0,028	-0,043
-700,772	353,300	0,068	-0,098
-699,758	-200,000	-0,003	-0,019
-698,743	-136,436	0,068	-0,006
-697,729	157,307	-0,116	-0,117
-696,714	28,526	0,049	0,030
-695,699	-118,467	-0,073	-0,009
-694,685	136,640	-0,045	-0,043
-693,670	133,718	-0,009	-0,009
-692,656	800,000	-0,030	-0,076
-691,641	800,000	0,034	-0,078
-690,627	11,622	-0,127	0,071
-689,612	-200,000	0,005	0,081
-688,597	82,841	-0,061	-0,048
-687,583	2,024	-0,096	-0,050
-686,568	467,082	0,037	-0,060
-685,554	590,228	0,040	0,072
-684,539	-13,903	0,102	0,048
-683,524	137,014	0,099	-0,094
-682,510	134,913	0,078	-0,073
-681,495	-107,833	-0,137	0,021
-680,481	-200,000	0,002	0,021
-679,466	652,549	-0,121	-0,226
-678,451	533,261	0,020	-0,035
-677,437	-37,284	-0,044	-0,017
-676,422	63,975	-0,075	0,054
-675,408	-200,000	0,008	0,114
-674,393	442,824	-0,058	-0,092
-673,378	19,814	-0,120	-0,070
-672,364	-25,375	-0,116	-0,049
-671,349	72,891	-0,072	0,055
-670,335	-45,305	0,084	-0,030
-669,320	-200,000	0,009	-0,094
-668,305	-117,296	-0,097	0,013
-667,291	-193,479	-0,106	-0,001
-666,276	-93,570	0,059	0,012
-665,262	800,000	0,002	0,005
-664,247	182,088	0,035	-0,038
-663,232	-48,434	-0,087	-0,030
-662,218	-75,241	-0,050	-0,013
-661,203	349,915	-0,035	-0,050
-660,189	-200,000	-0,005	-0,061
-659,174	225,060	0,022	0,026
-658,159	204,022	-0,101	-0,113
-657,145	-200,000	0,007	-0,203
-656,130	36,889	0,083	0,053
-655,116	-20,927	-0,061	-0,027
-654,101	800,000	0,030	0,071
-653,086	800,000	0,038	0,113
-652,072	471,528	-0,109	-0,178
-651,057	-200,000	-0,079	-0,261
-650,043	368,754	0,064	-0,094
-649,028	-135,810	0,115	0,010
-648,014	-70,966	0,097	-0,026
-646,999	164,334	0,030	-0,031
-645,984	68,840	0,135	0,100
-644,970	-122,527	-0,144	-0,017
-643,955	-10,344	0,019	-0,009
-642,941	-200,000	-0,009	-0,080
-641,926	-200,000	-0,002	0,116
-640,911	-29,910	-0,049	-0,020
-639,897	-200,000	0,027	-0,129
-638,882	-200,000	0,040	0,136
-637,868	-45,570	-0,079	-0,028
-636,853	-200,000	-0,038	-0,163
-635,838	-29,893	-0,067	0,027
-634,824	91,962	-0,058	-0,047
-633,809	-200,000	0,009	-0,093
-632,795	165,968	-0,053	-0,054
-631,780	-147,394	0,092	0,006
-630,765	-165,475	-0,087	-0,003
-629,751	-185,921	0,149	0,002
-628,736	575,076	-0,069	-0,123
-627,722	-175,964	-0,071	0,001
-626,707	-200,000	-0,010	0,051
-625,692	-200,000	0,006	0,067
-624,678	36,020	-0,088	0,056
-623,663	652,396	0,048	-0,089
-622,649	53,886	-0,123	0,085
-621,634	-139,876	0,106	0,008
-620,619	21,320	-0,115	-0,067
-619,605	-108,602	0,104	0,016
-618,590	673,754	0,050	0,094
-617,576	685,131	0,004	0,008
-616,561	-200,000	-0,020	0,163
-615,546	-23,587	-0,114	-0,049
-614,532	-200,000	-0,003	-0,070
-613,517	-92,543	0,111	0,022
-612,503	-78,458	-0,144	-0,036
-611,488	13,311	0,057	0,032
-610,474	23,078	-0,045	-0,027
-609,459	66,332	0,080	0,059
-608,444	800,000	-0,026	0,073
-607,430	619,044	0,013	0,024
-606,415	657,959	-0,083	-0,155
-605,401	263,470	0,047	-0,060
-604,386	195,507	0,073	0,080
-603,371	-29,198	0,082	-0,034
-602,357	-36,483	0,098	0,038
-601,342	-191,277	0,099	-0,001
-600,328	272,684	-0,101	-0,130
-599,313	-200,000	-0,007	-0,136
-598,298	375,993	-0,035	0,051
-597,284	29,051	-0,102	0,062
-596,269	-3,769	0,025	0,013
-595,255	-65,971	0,157	-0,045
-594,240	-200,000	0,028	-0,095
-593,225	34,884	-0,027	-0,017
-592,211	-137,194	-0,106	0,009
-591,196	-108,541	-0,036	0,006
-590,182	-200,000	-0,021	-0,085
-589,167	-125,779	0,040	-0,004
-588,152	-200,000	0,029	0,112
-587,138	-70,306	-0,055	-0,015
-586,123	-41,277	-0,098	-0,036
-585,109	-41,732	-0,077	0,029
-584,094	-200,000	-0,016	-0,070
-583,079	45,772	0,130	0,087
-582,065	44,093	0,054	-0,036
-581,050	-200,000	-0,027	0,123
-580,036	800,000	-0,019	0,054
-579,021	-86,532	-0,102	0,022
-578,006	-4,389	0,104	-0,052
-576,992	569,062	-0,020	-0,035
-575,977	-200,000	0,009	0,051
-574,963	-200,000	0,042	0,154
-573,948	-200,000	0,006	0,106
-572,934	15,026	-0,076	-0,043
-571,919	-103,804	0,112	0,019
-570,904	-200,000	-0,019	0,110
-569,890	-83,625	0,025	-0,006
-568,875	543,386	0,043	0,074
-567,861	164,598	-0,059	0,060
-566,846	-82,599	0,079	0,018
-565,831	800,000	-0,004	0,010
-564,817	104,376	-0,006	0,005
-563,802	-200,000	0,013	0,124
-562,788	27,653	-0,092	0,056
-561,773	547,902	-0,037	0,064
-560,758	415,447	0,045	-0,069
-559,744	800,000	-0,012	-0,027
-558,729	443,340	0,065	-0,103
-557,715	-123,751	-0,165	-0,019
-556,700	800,000	-0,031	-0,075
-555,685	-200,000	-0,012	-0,152
-554,671	-67,100	0,153	0,043
-553,656	-200,000	-0,008	0,103
-552,642	-200,000	-0,008	0,083
-551,627	331,487	0,041	-0,057
-550,612	420,526	-0,077	0,119
-549,598	71,324	-0,044	0,033
-548,583	-53,411	0,097	0,032
-547,569	-8,807	-0,071	-0,034
-546,554	25,511	0,098	0,058
-545,539	237,431	-0,085	-0,102
-544,525	800,000	0,011	-0,024
-543,510	800,000	0,030	0,088
-542,496	-136,555	0,019	-0,002
-541,481	-103,921	-0,097	0,016
-540,466	137,882	-0,077	-0,073
-539,452	-103,904	0,122	-0,020
-538,437	800,000	-0,049	0,146
-537,423	-28,261	0,060	0,025
-536,408	-63,311	0,082	0,024
-535,393	-102,804	-0,122	0,021
-534,379	329,586	-0,007	0,010
-533,364	800,000	-0,023	0,055
-532,350	-200,000	-0,016	-0,155
-531,335	75,858	-0,113	0,086
-530,321	421,453	0,020	-0,030
-529,306	-200,000	-0,003	0,045
-528,291	368,298	-0,037	-0,054
-527,277	-200,000	-0,014	-0,063
-526,262	138,820	-0,128	-0,121
-525,248	59,833	0,048	-0,034
-524,233	184,715	-0,063	-0,068
-523,218	-200,000	-0,024	-0,091
-522,204	94,047	0,110	0,090
-521,189	-66,071	-0,106	-0,030
-520,175	-200,000	0,033	-0,110
-519,160	-200,000	0,011	-0,042
-518,145	560,209	-0,038	-0,067
-517,131	-75,712	0,096	0,024
-516,116	614,885	0,016	0,029
-515,102	-173,650	0,072	-0,002
-514,087	88,867	-0,141	-0,113
-513,072	-200,000	-0,023	-0,170
-512,058	400,998	-0,088	0,134
-511,043	70,334	-0,090	0,067
-510,029	9,062	0,042	0,023
-509,014	-22,209	0,088	-0,038
-507,999	-69,128	0,140	0,038
-506,985	-40,476	-0,121	-0,045
-505,970	206,116	-0,116	-0,130
-504,956	30,588	0,055	-0,034
-503,941	-156,449	-0,048	-0,002
-502,926	-31,137	0,037	0,015
-501,912	720,351	0,040	-0,077
-500,897	-200,000	0,023	-0,118
-499,883	-200,000	-0,000	-0,133
-498,868	-40,133	-0,049	-0,018
-497,853	607,719	0,032	-0,058
-496,839	448,285	-0,028	-0,045
-495,824	234,815	0,072	-0,086
-494,810	51,933	0,102	-0,070
-493,795	293,569	0,048	-0,063
-492,781	800,000	-0,058	-0,143
-491,766	-200,000	-0,001	-0,121
-490,751	-71,386	0,077	0,021
-489,737	-125,114	-0,140	-0,015
-488,722	85,573	0,098	-0,078
-487,708	370,673	0,063	0,092
-486,693	118,983	0,053	0,047
-485,678	137,882	-0,019	0,018
-484,664	-119,427	0,007	0,001
-483,649	521,319	0,025	0,043
-482,635	-200,000	-0,003	-0,016
-481,620	-200,000	0,028	-0,109
-480,605	257,726	0,059	-0,073
-479,591	47,042	-0,096	-0,064
-478,576	-76,595	-0,026	-0,007
-477,562	257,493	-0,093	-0,115
-476,547	-26,473	0,024	-0,010
-475,532	765,106	-0,071	-0,139
-474,518	-24,364	0,064	0,028
-473,503	-200,000	-0,011	-0,127
-472,489	196,648	0,084	0,092
-471,474	-104,193	-0,011	0,002
-470,459	182,914	-0,114	-0,121
-469,445	16,904	0,040	0,023
-468,430	183,817	0,091	0,097
-467,416	99,465	-0,125	-0,104
-466,401	111,371	0,041	0,036
-465,386	800,000	0,055	0,114
-464,372	740,330	0,001	-0,002
-463,357	800,000	-0,046	-0,126
-462,343	-121,829	0,026	0,003
-461,328	-149,709	-0,022	0,001
-460,313	-200,000	0,010	0,123
-459,299	13,906	0,088	0,049
-458,284	-184,126	0,148	0,002
-457,270	16,827	0,073	0,042
-456,255	23,563	0,109	0,065
-455,241	-3,569	-0,146	-0,073
-454,226	-200,000	-0,023	-0,077
-453,211	297,881	0,024	0,032
-452,197	-200,000	-0,027	0,144
-451,182	-200,000	-0,005	0,148
-450,168	90,995	0,010	-0,008
-449,153	-200,000	0,005	0,057
-448,138	82,646	-0,053	-0,042
-447,124	48,429	-0,104	-0,070
-446,109	800,000	-0,008	0,026
-445,095	-200,000	-0,011	0,069
-444,080	800,000	0,030	-0,071
-443,065	-20,871	-0,094	-0,041
-442,051	-74,804	0,079	-0,020
-441,036	-178,252	-0,095	0,002
-440,022	237,334	0,091	-0,109
-439,007	-200,000	-0,019	-0,128
-437,992	222,563	0,045	-0,052
-436,978	201,224	0,108	0,119
-435,963	-200,000	0,001	0,089
-434,949	-200,000	0,031	0,150
-433,934	-200,000	-0,031	0,166
-432,919	-200,000	-0,029	-0,095
-431,905	77,224	-0,045	0,035
-430,890	-200,000	0,019	-0,100
-429,876	-200,000	0,015	0,092
-428,861	-97,163	0,123	0,023
-427,846	800,000	0,024	0,074
-426,832	135,127	-0,062	-0,058
-425,817	135,610	0,091	-0,086
-424,803	368,174	-0,056	0,081
-423,788	-200,000	0,007	0,086
-422,773	-200,000	-0,003	-0,057
-421,759	159,177	-0,061	-0,061
-420,744	-107,983	0,133	-0,020
-419,730	800,000	0,024	0,053
-418,715	800,000	-0,064	-0,159
-417,701	113,749	-0,027	0,024
-416,686	-74,736	0,079	0,020
-415,671	243,850	0,119	-0,143
-414,657	-200,000	-0,006	0,118
-413,642	800,000	-0,040	0,098
-412,628	508,233	0,070	0,117
-411,613	-200,000	0,025	0,094
-410,598	202,964	-0,116	-0,129
-409,584	800,000	0,050	-0,104
-408,569	18,091	-0,080	0,046
-407,555	115,430	0,174	-0,153
-406,540	205,426	-0,045	-0,050
-405,525	-28,709	-0,176	0,072
-404,511	-200,000	-0,022	0,078
-403,496	-200,000	0,032	-0,128
-402,482	-200,000	0,014	0,100
-401,467	-35,697	0,195	0,075
-400,452	-133,328	-0,032	0,003
-399,438	526,533	-0,047	0,079
-398,423	470,738	0,023	0,038
-397,409	800,000	-0,022	0,048
-396,394	800,000	0,030	0,060
-395,379	-200,000	-0,019	-0,148
-394,365	-169,425	-0,065	0,002
-393,350	800,000	0,052	-0,118
-392,336	119,616	0,089	-0,080
-391,321	93,963	0,077	0,062
-390,306	-143,849	-0,051	0,003
-389,292	-28,757	0,109	-0,045
-388,277	44,038	-0,028	-0,018
-387,263	-140,930	-0,083	0,006
-386,248	-200,000	-0,007	-0,065
-385,233	800,000	0,015	0,036
-384,219	86,786	-0,025	-0,020
-383,204	-87,321	0,098	-0,021
-382,190	12,345	-0,052	0,029
-381,175	103,377	-0,119	0,100
-380,160	-33,267	0,096	0,038
-379,146	800,000	-0,033	0,071
-378,131	800,000	-0,042	0,110
-377,117	570,488	0,037	0,064
-376,102	338,091	0,070	-0,098
-375,088	644,509	-0,057	0,106
-374,073	705,370	-0,027	-0,052
-373,058	133,787	0,055	-0,051
-372,044	-200,000	-0,011	0,069
-371,029	3,478	-0,113	0,059
-370,015	-29,815	-0,099	0,040
-369,000	-84,395	-0,100	0,022
-367,985	-43,036	-0,086	-0,031
-366,971	17,396	0,076	0,043
-365,956	116,890	0,114	0,100
-364,942	-128,104	0,126	-0,013
-363,927	-101,555	0,091	-0,016
-362,912	99,932	0,084	0,070
-361,898	800,000	0,010	-0,024
-360,883	646,919	0,043	-0,078
-359,869	192,015	-0,115	0,124
-358,854	-25,339	0,029	0,012
-357,839	148,473	0,117	0,113
-356,825	-2,707	0,081	0,040
-355,810	-200,000	-0,011	0,064
-354,796	-200,000	-0,018	-0,088
-353,781	-200,000	0,023	-0,092
-352,766	-84,485	-0,031	0,007
-351,752	185,420	-0,057	0,061
-350,737	-27,706	-0,123	-0,051
-349,723	-152,903	0,186	-0,009
-348,708	110,472	-0,061	0,053
-347,693	-200,000	0,027	0,180
-346,679	125,118	0,056	0,051
-345,664	28,006	-0,097	-0,058
-344,650	73,401	0,052	-0,039
-343,635	-200,000	0,005	0,045
-342,620	-54,293	0,055	-0,018
-341,606	800,000	0,039	-0,082
-340,591	143,935	0,024	0,022
-339,577	800,000	0,006	-0,014
-338,562	-125,756	0,071	-0,008
-337,548	59,992	-0,040	-0,028
-336,533	51,923	-0,007	0,004
-335,518	-200,000	-0,013	-0,049
-334,504	-156,189	0,171	-0,008
-333,489	-64,022	-0,102	-0,030
-332,475	13,735	0,082	-0,046
-331,460	800,000	0,041	-0,116
-330,445	339,451	0,051	-0,071
-329,431	36,289	-0,026	0,017
-328,416	800,000	0,004	0,013
-327,402	95,157	0,063	0,051
-326,387	-200,000	-0,006	-0,062
-325,372	11,879	-0,093	0,051
-324,358	-200,000	-0,031	-0,101
-323,343	800,000	0,031	-0,075
-322,329	570,967	-0,040	-0,070
-321,314	800,000	0,042	-0,088
-320,299	347,752	-0,088	-0,125
-319,285	130,004	0,039	0,036
-318,270	800,000	0,011	0,030
-317,256	-145,669	-0,181	0,011
-316,241	31,837	-0,162	-0,100
-315,226	568,098	-0,037	0,065
-314,212	-200,000	-0,025	-0,141
-313,197	-108,857	0,154	-0,023
-312,183	-200,000	0,011	0,066
-311,168	-87,676	-0,157	0,034
-310,153	800,000	-0,023	0,062
-309,139	800,000	0,049	-0,105
-308,124	800,000	0,023	-0,070
-307,110	562,832	-0,058	0,100
-306,095	784,798	-0,083	0,164
-305,080	-16,441	0,124	0,056
-304,066	118,615	0,048	0,042
-303,051	485,172	0,040	-0,066
-302,037	-62,157	-0,125	0,037
-301,022	164,078	0,067	-0,067
-300,008	561,813	0,082	0,142
-298,993	800,000	0,032	0,093
-297,978	65,174	0,011	-0,008
-296,964	87,139	-0,081	0,064
-295,949	17,584	-0,131	-0,074
-294,935	-98,194	0,017	0,003
-293,920	-45,132	0,045	0,016
-292,905	153,107	0,031	0,031
-291,891	-200,000	0,035	0,120
-290,876	-200,000	0,019	0,154
-289,862	522,027	0,021	0,035
-288,847	-148,001	-0,149	0,009
-287,832	-1,297	0,169	-0,085
-286,818	313,251	-0,098	0,131
-285,803	-164,534	0,197	0,006
-284,789	-45,724	-0,098	0,034
-283,774	85,109	-0,039	0,031
-282,759	104,835	-0,074	-0,063
-281,745	47,296	-0,127	0,085
-280,730	-128,510	-0,095	0,010
-279,716	678,651	-0,022	0,042
-278,701	-200,000	0,004	0,097
-277,686	-200,000	-0,011	0,210
-276,672	695,326	-0,045	0,086
-275,657	367,411	0,041	0,059
-274,643	-5,716	-0,053	-0,026
-273,628	-200,000	0,011	0,057
-272,613	225,909	-0,091	-0,105
-271,599	355,795	0,067	-0,096
-270,584	800,000	0,085	0,169
-269,570	800,000	-0,031	0,063
-268,555	201,334	-0,109	0,120
-267,540	-97,264	-0,031	0,006
-266,526	-156,691	-0,044	-0,002
-265,511	-98,893	0,085	0,015
-264,497	800,000	-0,039	0,122
-263,482	49,890	-0,089	0,060
-262,467	-29,086	0,072	-0,029
-261,453	-200,000	-0,001	0,117
-260,438	-3,241	0,098	-0,048
-259,424	-200,000	-0,005	0,047
-258,409	800,000	-0,031	-0,090
-257,395	-53,329	0,142	-0,046
-256,380	800,000	0,016	0,038
-255,365	-119,542	-0,141	-0,017
-254,351	-200,000	0,004	0,035
-253,336	143,603	0,121	-0,115
-252,322	193,001	-0,156	-0,169
-251,307	-200,000	0,009	-0,067
-250,292	-27,969	0,121	-0,050
-249,278	-166,764	-0,067	-0,002
-248,263	-200,000	-0,030	0,120
-247,249	11,900	-0,091	0,050
-246,234	-124,828	0,046	0,005
-245,219	-26,054	-0,049	0,021
-244,205	214,296	0,042	0,047
-243,190	-104,536	0,070	0,011
-242,176	-200,000	0,002	0,072
-241,161	332,644	0,098	0,135
-240,146	-200,000	-0,036	0,226
-239,132	-75,514	-0,039	0,010
-238,117	-200,000	0,003	0,017
-237,103	655,105	-0,036	-0,066
-236,088	-63,100	-0,155	-0,045
-235,073	-21,786	-0,066	0,029
-234,059	338,678	0,048	0,067
-233,044	437,186	0,039	-0,061
-232,030	-76,103	0,177	-0,044
-231,015	-35,157	-0,085	0,033
-230,000	-29,458	0,020	-0,008
-228,986	29,367	-0,030	-0,018
-227,971	-128,671	0,129	-0,013
-226,957	-200,000	-0,012	0,116
-225,942	15,077	-0,113	0,063
-224,927	81,864	0,068	-0,052
-223,913	9,795	-0,081	-0,044
-222,898	114,422	0,028	-0,024
-221,884	-78,842	-0,039	-0,009
-220,869	552,853	0,021	-0,035
-219,855	-110,310	-0,103	-0,015
-218,840	215,726	0,110	0,125
-217,825	-137,006	0,033	0,003
-216,811	561,445	-0,039	0,067
-215,796	-200,000	-0,009	-0,043
-214,782	-67,446	-0,119	-0,033
-213,767	-200,000	-0,006	0,060
-212,752	365,476	0,079	0,114
-211,738	-200,000	-0,033	0,112
-210,723	-2,671	-0,121	-0,060
-209,709	-200,000	0,009	0,080
-208,694	-200,000	0,003	-0,112
-207,679	-3,710	-0,098	0,049
-206,665	234,483	-0,051	0,060
-205,650	363,174	0,072	0,103
-204,636	800,000	-0,030	-0,082
-203,621	159,272	0,066	0,065
-202,606	-200,000	0,019	0,128
-201,592	800,000	-0,050	-0,147
-200,577	-10,649	-0,034	0,016
-199,563	-116,557	0,194	-0,025
-198,548	308,774	0,008	0,010
-197,533	-71,852	0,044	-0,012
-196,519	106,014	0,077	0,065
-195,504	-200,000	0,069	0,000
-194,490	-200,000	-0,034	-0,120
-193,475	-200,000	-0,032	-0,117
-192,460	-84,040	-0,036	-0,008
-191,446	-125,214	0,112	-0,012
-190,431	-200,000	-0,024	-0,099
-189,417	-115,599	-0,064	-0,008
-188,402	-85,365	0,104	-0,023
-187,387	-200,000	-0,004	0,068
-186,373	250,373	0,083	-0,101
-185,358	800,000	-0,122	-0,248
-184,344	-41,672	-0,060	-0,022
-183,329	255,316	0,107	0,131
-182,315	-34,438	0,125	0,048
-181,300	79,970	0,116	0,089
-180,285	272,074	-0,106	0,133
-179,271	-200,000	-0,005	-0,025
-178,256	370,079	-0,072	-0,105
-177,242	-200,000	0,001	0,028
-176,227	-81,939	0,095	-0,022
-175,212	-17,936	-0,052	-0,023
-174,198	275,624	-0,036	0,046
-173,183	404,044	0,037	-0,056
-172,169	-81,525	-0,083	0,019
-171,154	-100,516	-0,015	-0,003
-170,139	-200,000	0,011	-0,080
-169,125	-139,109	-0,079	-0,006
-168,110	-193,790	-0,074	-0,000
-167,096	553,298	0,023	-0,040
-166,081	166,070	-0,123	0,124
-165,066	-200,000	-0,001	-0,143
-164,052	-200,000	-0,004	-0,025
-163,037	24,245	0,067	-0,039
-162,023	-200,000	0,008	-0,031
-161,008	443,278	0,035	-0,055
-159,993	462,509	0,077	-0,122
-158,979	59,905	-0,094	-0,066
-157,964	500,669	-0,096	-0,158
-156,950	-200,000	0,013	-0,181
-155,935	-2,244	-0,080	0,040
-154,920	75,918	-0,064	-0,048
-153,906	-170,905	0,109	-0,003
-152,891	-81,663	0,049	-0,011
-151,877	-69,878	-0,098	0,026
-150,862	800,000	0,047	-0,104
-149,847	74,173	-0,023	-0,017
-148,833	-33,215	0,118	-0,046
-147,818	-42,931	0,150	0,054
-146,804	-200,000	0,046	0,198
-145,789	-22,234	-0,037	0,016
-144,775	-200,000	0,012	-0,093
-143,760	800,000	-0,021	0,062
-142,745	-200,000	-0,019	-0,185
-141,731	144,561	0,038	-0,036
-140,716	79,442	0,095	-0,072
-139,702	19,790	0,064	-0,037
-138,687	-200,000	0,031	0,100
-137,672	120,757	-0,106	0,093
-136,658	68,335	0,026	-0,019
-135,643	-129,383	-0,095	0,009
-134,629	30,347	0,024	0,014
-133,614	497,078	0,057	-0,093
-132,599	689,844	-0,031	0,058
-131,585	-200,000	-0,003	0,094
-130,570	800,000	0,035	0,075
-129,556	-200,000	-0,010	-0,090
-128,541	107,891	-0,053	-0,045
-127,526	-95,710	-0,046	0,009
-126,512	291,549	0,027	-0,035
-125,497	800,000	-0,037	0,075
-124,483	32,075	0,077	0,047
-123,468	-139,592	-0,132	0,010
-122,453	800,000	-0,017	-0,042
-121,439	800,000	0,059	-0,141
-120,424	-82,609	-0,151	-0,035
-119,410	-99,705	0,173	-0,030
-118,395	339,266	0,021	-0,029
-117,380	195,711	-0,052	0,056
-116,366	375,172	0,099	0,143
-115,351	-46,691	-0,098	0,034
-114,337	112,041	0,028	-0,024
-113,322	-16,153	-0,023	-0,010
-112,307	298,505	0,043	0,056
-111,293	800,000	-0,056	0,124
-110,278	391,726	0,010	-0,015
-109,264	800,000	0,015	0,036
-108,249	-139,204	-0,042	0,003
-107,234	-200,000	0,041	-0,130
-106,220	-140,433	0,094	-0,007
-105,205	800,000	0,060	0,132
-104,191	356,128	0,081	0,115
-103,176	800,000	0,025	0,056
-102,162	800,000	-0,034	0,072
-101,147	-200,000	-0,012	0,144
-100,132	-200,000	-0,017	-0,140
-99,118	-200,000	0,012	-0,055
-98,103	374,921	0,036	0,052
-97,089	-200,000	0,000	0,131
-96,074	800,000	-0,074	-0,155
-95,059	742,703	0,029	-0,055
-94,045	363,641	-0,018	-0,026
-93,030	70,413	-0,118	-0,087
-92,016	256,562	0,107	-0,130
-91,001	-200,000	0,008	0,081
-89,986	-25,004	0,019	0,008
-88,972	800,000	0,035	0,088
-87,957	244,733	0,001	0,001
-86,943	84,169	-0,086	-0,067
-85,928	-141,121	0,101	-0,007
-84,913	800,000	0,015	0,044
-83,899	-200,000	0,032	0,124
-82,884	-123,963	-0,113	0,012
-81,870	-107,791	0,079	0,012
-80,855	-200,000	0,010	0,072
-79,840	-77,923	-0,070	-0,017
-78,826	21,766	0,069	-0,040
-77,811	264,851	-0,085	-0,105
-76,797	-200,000	0,006	0,112
-75,782	-118,502	0,016	-0,002
-74,767	800,000	0,109	0,274
-73,753	225,281	0,010	-0,012
-72,738	-107,880	-0,117	0,018
-71,724	-109,741	-0,009	-0,001
-70,709	182,356	-0,127	-0,133
-69,694	800,000	0,029	0,068
-68,680	-200,000	-0,023	0,142
-67,665	-200,000	-0,020	0,095
-66,651	-200,000	0,014	-0,044
-65,636	-200,000	0,014	0,053
-64,622	-84,905	-0,025	0,006
-63,607	54,632	0,068	0,046
-62,592	-107,243	-0,132	0,020
-61,578	523,787	-0,066	0,111
-60,563	34,425	0,109	0,067
-59,549	800,000	0,105	0,243
-58,534	-13,821	-1,590	-0,725
-57,519	372,567	-1,362	-1,966
-56,505	-200,000	-0,688	-4,673
-55,490	188,184	0,986	1,045
-54,476	800,000	4,916	11,379
-53,461	-200,000	18,842	307,259
-52,446	800,000	737,384	2300,413
-51,432	568,870	1654,081	2857,995
-50,417	79,082	1671,140	1266,135
-49,403	22,099	1543,791	889,707
-48,388	16,015	1466,576	815,638
-47,373	17,881	1456,677	819,117
-46,359	16,954	1446,821	809,096
-45,344	14,257	1442,170	793,544
-44,330	14,202	1440,267	792,202
-43,315	14,228	1438,607	791,384
-42,300	14,190	1436,944	790,255
-41,286	14,188	1435,783	789,574
-40,271	14,189	1434,397	788,789
-39,257	14,120	1433,396	787,876
-38,242	14,251	1431,769	787,575
-37,227	14,236	1430,827	786,951
-36,213	14,234	1429,372	786,115
-35,198	14,225	1428,403	785,507
-34,184	14,286	1427,383	785,204
-33,169	14,199	1425,977	783,988
-32,154	14,258	1424,952	783,672
-31,140	14,205	1423,564	782,625
-30,125	14,272	1422,422	782,284
-29,111	14,222	1421,382	781,445
-28,096	14,242	1420,163	780,839
-27,082	14,165	1419,209	779,919
-26,067	14,151	1418,140	779,234
-25,052	14,150	1417,049	778,601
-24,038	14,151	1416,032	778,012
-23,023	14,158	1414,987	777,442
-22,009	14,081	1414,221	776,630
-20,994	14,053	1413,343	775,984
-19,979	14,116	1412,360	775,709
-18,965	14,106	1411,336	775,068
-17,950	14,084	1410,391	774,418
-16,936	14,104	1409,504	773,994
-15,921	14,042	1408,459	773,100
-14,906	14,036	1407,503	772,514
-13,892	14,065	1406,538	772,092
-12,877	14,007	1405,759	771,359
-11,863	14,108	1404,489	771,102
-10,848	14,049	1403,757	770,398
-9,833	14,033	1402,915	769,830
-8,819	13,971	1402,172	769,104
-7,804	14,012	1401,176	768,714
-6,790	13,992	1399,979	767,936
-5,775	13,908	1399,066	767,015
-4,760	13,970	1398,390	766,901
-3,746	13,934	1397,425	766,176
-2,731	13,954	1396,568	765,766
-1,717	13,931	1395,518	765,055
-0,702	13,921	1393,710	763,988
0,313	17,698	1311,703	736,567
1,327	34,006	705,960	434,204
2,342	52,283	124,106	83,620
3,356	1,019	16,822	8,507
4,371	-2,437	3,203	1,582
5,386	-98,578	0,672	0,120
6,400	169,538	0,082	0,083
7,415	-13,649	-0,227	-0,104
8,429	81,910	-0,305	-0,233
9,444	105,517	-0,371	-0,310
10,459	24,589	-0,255	-0,149
11,473	-68,216	-0,316	-0,086
12,488	53,635	-0,222	-0,151
13,502	90,583	-0,235	-0,186
14,517	39,063	-0,427	-0,269
15,531	16,985	-0,326	-0,182
16,546	74,171	-0,315	-0,234
17,561	8,214	-0,410	-0,217
18,575	-11,795	-0,173	-0,080
19,590	17,125	-0,407	-0,227
20,604	-130,334	-0,258	0,024
21,619	-42,699	-0,592	-0,211
22,634	30,195	-0,378	-0,228
23,648	94,007	-0,490	-0,392
24,663	68,902	-0,380	-0,275
25,677	50,345	-0,374	-0,249
26,692	-88,147	-0,340	-0,071
27,707	91,019	-0,324	-0,257
28,721	-24,022	-0,482	-0,203
29,736	165,501	-0,366	-0,365
30,750	68,991	-0,478	-0,346
31,765	38,025	-0,414	-0,259
32,780	295,908	-0,248	-0,321
33,794	-22,186	-0,325	-0,139
34,809	165,217	-0,288	-0,288
35,823	75,081	-0,300	-0,223
36,838	74,147	-0,385	-0,285
37,853	31,740	-0,419	-0,254
38,867	33,690	-0,436	-0,267
39,882	142,915	-0,251	-0,235
40,896	227,236	-0,284	-0,326
41,911	11,520	-0,355	-0,191
42,926	-33,699	-0,411	-0,159
43,940	154,616	-0,276	-0,267
44,955	77,425	-0,337	-0,252
45,969	-13,391	-0,362	-0,165
46,984	-96,739	-0,342	-0,063
47,999	-49,103	-0,412	-0,138
49,013	11,255	-0,355	-0,191
50,028	-51,177	-0,248	-0,081
51,042	71,144	-0,447	-0,326
52,057	84,573	-0,315	-0,243
53,071	165,632	-0,296	-0,295
54,086	161,462	-0,349	-0,344
55,101	69,877	-0,285	-0,207
56,115	266,239	-0,267	-0,329
57,130	-8,562	-0,455	-0,214
58,144	62,604	-0,386	-0,271
59,159	223,465	-0,384	-0,436
60,174	80,256	-0,249	-0,188
61,188	55,961	-0,392	-0,267
62,203	164,479	-0,184	-0,183
63,217	-42,222	-0,317	-0,113
64,232	26,866	-0,399	-0,235
65,247	100,209	-0,351	-0,286
66,261	96,632	-0,362	-0,292
67,276	36,130	-0,437	-0,270
68,290	62,609	-0,299	-0,210
69,305	70,178	-0,308	-0,224
70,320	-0,267	-0,286	-0,143
71,334	-75,449	-0,381	-0,095
72,349	-57,898	-0,379	-0,116
73,363	209,375	-0,345	-0,381
74,378	181,855	-0,245	-0,254
75,393	34,706	-0,337	-0,207
76,407	94,742	-0,323	-0,258
77,422	-3,909	-0,252	-0,123
78,436	7,773	-0,343	-0,180
79,451	97,544	-0,439	-0,354
80,466	160,876	-0,290	-0,284
81,480	54,014	-0,303	-0,204
82,495	213,338	-0,301	-0,335
83,509	-19,578	-0,389	-0,168
84,524	9,683	-0,267	-0,142
85,539	105,956	-0,167	-0,139
86,553	25,189	-0,358	-0,209
87,568	21,252	-0,276	-0,157
88,582	58,250	-0,320	-0,220
89,597	-14,090	-0,237	-0,107
90,611	40,770	-0,200	-0,127
91,626	90,669	-0,223	-0,175
92,641	-50,395	-0,294	-0,097
93,655	375,685	-0,136	-0,195
94,670	170,009	-0,290	-0,291
95,684	77,232	-0,345	-0,257
96,699	27,163	-0,248	-0,146
97,714	-74,990	-0,319	-0,079
98,728	120,460	-0,195	-0,170
99,743	194,436	-0,246	-0,262
100,757	-65,974	-0,299	-0,083
101,772	-6,652	-0,281	-0,134
102,787	121,499	-0,199	-0,174
103,801	69,190	-0,271	-0,195
104,816	-11,629	-0,284	-0,130
105,830	151,188	-0,192	-0,183
106,845	74,856	-0,307	-0,226
107,860	92,389	-0,171	-0,135
108,874	112,996	-0,245	-0,208
109,889	37,754	-0,318	-0,198
110,903	-28,861	-0,369	-0,148
111,918	145,853	-0,261	-0,245
112,933	47,096	-0,232	-0,151
113,947	107,977	-0,220	-0,183
114,962	-67,271	-0,293	-0,080
115,976	181,215	-0,171	-0,176
116,991	33,024	-0,294	-0,178
118,006	173,281	-0,225	-0,227
119,020	366,164	-0,218	-0,309
120,035	232,481	-0,192	-0,221
121,049	257,874	-0,100	-0,121
122,064	31,693	-0,197	-0,118
123,079	-20,449	-0,312	-0,134
124,093	73,704	-0,335	-0,245
125,108	13,395	-0,244	-0,132
126,122	71,757	-0,240	-0,174
127,137	23,522	-0,182	-0,105
128,151	-127,637	-0,270	-0,027
129,166	-25,805	-0,342	-0,140
130,181	20,978	-0,272	-0,154
131,195	88,503	-0,300	-0,233
132,210	159,967	-0,312	-0,305
133,224	78,591	-0,233	-0,174
134,239	21,081	-0,219	-0,124
135,254	2,560	-0,306	-0,154
136,268	252,275	-0,232	-0,277
137,283	-3,875	-0,258	-0,125
138,297	800,000	-0,105	-0,269
139,312	326,153	-0,268	-0,360
140,327	122,391	-0,176	-0,153
141,341	-95,215	-0,224	0,042
142,356	411,528	-0,205	-0,305
143,370	417,387	-0,140	-0,210
144,385	142,290	-0,205	-0,190
145,400	-7,459	-0,284	-0,134
146,414	88,020	-0,239	-0,185
147,429	-8,401	-0,226	-0,106
148,443	175,434	-0,167	-0,169
149,458	-166,885	-0,190	-0,005
150,473	26,403	-0,232	-0,135
151,487	147,539	-0,282	-0,265
152,502	12,313	-0,377	-0,202
153,516	232,214	-0,281	-0,322
154,531	278,871	-0,125	-0,156
155,546	243,987	-0,200	-0,235
156,560	90,972	-0,224	-0,175
157,575	134,158	-0,232	-0,210
158,589	533,828	-0,169	-0,280
159,604	424,989	-0,167	-0,252
160,619	451,842	-0,216	-0,335
161,633	1,299	-0,284	-0,142
162,648	88,131	-0,234	-0,181
163,662	800,000	-0,120	-0,254
164,677	800,000	-0,141	-0,294
165,692	99,766	-0,221	-0,178
166,706	142,696	-0,333	-0,308
167,721	142,478	-0,241	-0,223
168,735	37,794	-0,217	-0,134
169,750	13,772	-0,384	-0,207
170,764	218,821	-0,165	-0,184
171,779	-54,619	-0,252	-0,079
172,794	142,550	-0,197	-0,182
173,808	97,413	-0,242	-0,194
174,823	136,809	-0,197	-0,179
175,837	800,000	-0,103	-0,265
176,852	-91,317	-0,323	-0,064
177,867	243,380	-0,057	-0,067
178,881	7,107	-0,193	0,100
179,896	93,133	-0,147	-0,116
180,910	296,220	-0,209	-0,267
181,925	72,792	-0,300	-0,218
182,940	800,000	-0,108	-0,239
183,954	610,362	-0,145	-0,253
184,969	32,217	-0,272	-0,163
185,983	178,365	-0,174	-0,177
186,998	244,242	-0,101	-0,119
188,013	197,029	-0,118	-0,125
189,027	57,783	-0,238	-0,162
190,042	366,042	-0,138	-0,194
191,056	225,613	-0,160	-0,181
192,071	52,373	-0,171	-0,113
193,086	7,764	-0,232	-0,121
194,100	26,447	-0,186	-0,108
195,115	188,430	-0,184	-0,191
196,129	-9,696	-0,141	-0,065
197,144	49,327	-0,249	-0,163
198,159	-8,619	-0,207	-0,096
199,173	101,666	-0,312	-0,253
200,188	575,745	-0,091	-0,155
201,202	62,030	-0,206	-0,143
202,217	38,402	-0,178	-0,110
203,232	301,788	-0,155	-0,200
204,246	317,665	-0,253	-0,333
205,261	107,788	-0,239	-0,198
206,275	800,000	-0,132	-0,283
207,290	585,543	-0,087	-0,149
208,304	-3,716	-0,142	-0,068
209,319	-8,128	-0,341	-0,159
210,334	30,072	-0,247	-0,146
211,348	9,541	-0,186	-0,098
212,363	131,318	-0,273	-0,243
213,377	-9,909	-0,345	-0,159
214,392	425,707	-0,170	-0,255
215,407	394,604	-0,132	-0,192
216,421	-41,095	-0,283	-0,101
217,436	-200,000	-0,039	-0,169
218,450	174,265	-0,202	-0,203
219,465	31,600	-0,246	-0,147
220,480	69,702	-0,219	-0,157
221,494	800,000	-0,129	-0,264
222,509	143,318	-0,118	-0,109
223,523	-99,145	-0,150	-0,026
224,538	184,561	-0,189	-0,194
225,553	93,060	-0,171	-0,134
226,567	35,677	-0,278	-0,169
227,582	447,074	-0,135	-0,207
228,596	107,040	-0,311	-0,257
229,611	-83,704	-0,191	0,042
230,626	-39,774	-0,104	-0,037
231,640	139,481	-0,112	-0,102
232,655	200,750	-0,125	-0,134
233,669	263,012	-0,238	-0,287
234,684	330,611	-0,173	-0,232
235,699	110,607	-0,153	-0,128
236,713	-42,731	-0,136	0,048
237,728	-33,626	-0,219	-0,083
238,742	184,547	-0,223	-0,230
239,757	115,247	-0,147	-0,124
240,772	131,938	-0,228	-0,203
241,786	267,964	-0,231	-0,281
242,801	49,685	-0,198	-0,129
243,815	-200,000	-0,072	-0,285
244,830	71,902	-0,184	-0,133
245,844	-107,754	-0,125	0,019
246,859	-14,217	-0,240	-0,107
247,874	472,171	-0,134	-0,209
248,888	42,829	-0,235	-0,148
249,903	353,994	-0,128	-0,177
250,917	86,649	-0,197	-0,150
251,932	22,349	-0,155	-0,087
252,947	2,413	-0,223	-0,111
253,961	581,482	-0,106	-0,181
254,976	123,546	-0,172	-0,150
255,990	-128,505	-0,216	-0,021
257,005	130,555	-0,099	-0,088
258,020	123,797	-0,144	-0,125
259,034	30,803	-0,168	-0,099
260,049	-32,956	-0,046	0,018
261,063	123,202	-0,145	-0,126
262,078	800,000	-0,090	-0,266
263,093	41,384	-0,270	-0,169
264,107	359,645	-0,177	-0,245
265,122	-21,728	-0,127	-0,053
266,136	-116,028	-0,157	-0,020
267,151	-200,000	-0,079	-0,319
268,166	40,329	-0,137	-0,085
269,180	45,892	-0,167	-0,107
270,195	259,442	-0,144	-0,172
271,209	440,696	-0,105	-0,159
272,224	-45,929	-0,195	-0,066
273,239	29,852	-0,150	-0,088
274,253	-66,891	-0,133	-0,036
275,268	131,325	-0,163	-0,144
276,282	119,092	-0,202	-0,173
277,297	80,548	-0,234	-0,174
278,312	23,729	-0,176	-0,100
279,326	-2,290	-0,236	-0,114
280,341	-29,656	-0,204	-0,080
281,355	-89,150	-0,206	-0,042
282,370	32,738	-0,120	-0,071
283,384	152,665	-0,121	-0,114
284,399	800,000	-0,033	-0,099
285,414	92,789	-0,179	-0,140
286,428	77,534	-0,189	-0,138
287,443	-142,045	-0,202	-0,014
288,457	73,787	-0,178	-0,129
289,472	-200,000	0,023	-0,103
290,487	116,088	-0,204	-0,172
291,501	182,356	-0,196	-0,199
292,516	441,857	-0,087	-0,132
293,530	61,264	-0,112	-0,077
294,545	-8,239	-0,189	-0,087
295,560	73,057	-0,228	-0,164
296,574	-44,643	-0,176	-0,060
297,589	50,895	-0,178	-0,116
298,603	102,333	-0,176	-0,142
299,618	-5,970	-0,248	-0,116
300,633	96,075	-0,176	-0,138
301,647	113,036	-0,097	-0,081
302,662	87,059	-0,151	-0,115
303,676	800,000	-0,093	-0,185
304,691	446,850	-0,049	-0,075
305,706	57,389	-0,139	-0,093
306,720	-200,000	-0,025	-0,085
307,735	80,095	-0,134	-0,100
308,749	-72,655	-0,212	-0,053
309,764	-12,418	-0,055	-0,024
310,779	9,776	-0,133	-0,069
311,793	440,086	-0,110	-0,166
312,808	-86,134	-0,320	-0,067
313,822	447,704	-0,077	-0,117
314,837	158,662	-0,150	-0,144
315,852	-95,866	-0,097	-0,018
316,866	-200,000	-0,004	-0,120
317,881	-74,580	-0,143	-0,035
318,895	-114,741	-0,135	-0,017
319,910	-76,696	-0,220	-0,053
320,925	18,942	-0,116	-0,064
321,939	-200,000	-0,035	-0,216
322,954	-110,510	-0,064	-0,009
323,968	-200,000	-0,020	-0,086
324,983	111,612	-0,068	-0,056
325,997	52,264	-0,067	-0,044
327,012	-6,042	-0,166	-0,078
328,027	-158,294	-0,265	0,010
329,041	350,785	-0,110	-0,150
330,056	148,797	-0,093	-0,087
331,070	-6,071	-0,131	-0,061
332,085	-137,930	-0,104	-0,008
333,100	-72,578	-0,118	-0,030
334,114	20,089	-0,207	-0,115
335,129	203,888	-0,126	-0,134
336,143	506,240	-0,119	-0,190
337,158	197,988	-0,138	-0,145
338,173	793,790	-0,096	-0,182
339,187	-161,440	-0,236	-0,008
340,202	390,846	-0,030	0,043
341,216	147,147	-0,185	-0,171
342,231	284,751	-0,187	-0,231
343,246	446,210	-0,110	-0,167
344,260	-200,000	-0,011	-0,214
345,275	41,639	-0,083	0,051
346,289	-200,000	-0,016	-0,135
347,304	-200,000	-0,006	0,048
348,319	96,639	-0,223	-0,175
349,333	-37,890	-0,163	-0,059
350,348	180,749	-0,141	-0,142
351,362	187,056	-0,149	-0,153
352,377	13,237	-0,154	-0,081
353,392	327,730	-0,105	-0,139
354,406	-73,320	-0,060	-0,015
355,421	207,525	1316,075	1410,786
356,435	159,641	1476,968	1411,274
