DTS Sentinel unit serial number:	SN410029Multiplexer serial number:	ORYXHardware model number:	OX2-SRSoftware version number:	ORYX F/W v4,00 Oryx Data Collector v3.7.2.0data status	okinstallation	B3 Nyhavnadifferential loss correction	single-endedforward channel	channel 1reverse channel	N/Adate	2023/11/30time	20:02:30forward acquisition time	300,00reverse acquisition time	0,00gamma	499,1914k internal	0,3207k external	0,3207temperature offset calibration	1,0000default loss term (dB/km)	0,3820temperature slope calibration	1,0000multiplexer offset coefficient	1,0000multiplexer slope coefficient	1,0000fibre end	0,00T internal ref (°C)	11,57T ext. ref 1 (°C)	-3,74T ext. ref 2 (°C)	-3,87length (m)	temperature (°C)	Stokes	anti-Stokes-744,400	327,499	-0,202	-0,282
-743,385	305,879	0,144	0,195
-742,371	800,000	-0,082	-0,173
-741,356	-200,000	-0,038	0,398
-740,342	-200,000	-0,043	-0,156
-739,327	800,000	-0,137	0,363
-738,312	-200,000	-0,059	-0,333
-737,298	-200,000	0,004	0,293
-736,283	-124,277	-0,142	0,016
-735,269	-200,000	-0,005	0,331
-734,254	140,720	-0,120	-0,115
-733,239	-17,107	-0,224	0,102
-732,225	241,645	-0,191	-0,232
-731,210	-200,000	0,076	0,300
-730,196	111,262	-0,070	-0,061
-729,181	428,904	0,054	-0,085
-728,167	-200,000	0,000	0,068
-727,152	374,868	-0,031	-0,046
-726,137	800,000	0,068	-0,193
-725,123	53,606	-0,109	-0,076
-724,108	227,632	-0,093	-0,110
-723,094	168,222	-0,090	-0,093
-722,079	-26,661	-0,152	-0,064
-721,064	800,000	-0,088	0,184
-720,050	-91,915	-0,053	-0,011
-719,035	108,647	0,097	0,084
-718,021	-23,386	-0,075	-0,033
-717,006	-171,441	-0,070	-0,002
-715,991	-28,833	-0,156	0,065
-714,977	86,111	-0,134	-0,107
-713,962	-6,578	-0,139	-0,069
-712,948	91,985	-0,066	-0,054
-711,933	-43,904	-0,176	-0,064
-710,918	124,461	-0,033	-0,030
-709,904	132,171	-0,058	-0,054
-708,889	48,449	-0,035	-0,024
-707,875	-130,365	-0,152	0,015
-706,860	330,045	0,056	0,078
-705,845	176,217	0,003	0,003
-704,831	-47,319	0,012	-0,004
-703,816	800,000	0,019	-0,048
-702,802	-200,000	0,029	0,113
-701,787	93,536	0,037	-0,030
-700,772	-6,659	0,081	-0,040
-699,758	-93,404	0,029	0,006
-698,743	229,413	-0,047	0,055
-697,729	800,000	0,056	0,133
-696,714	36,135	-0,053	-0,034
-695,699	800,000	-0,045	-0,131
-694,685	326,146	-0,076	-0,105
-693,670	-200,000	0,012	-0,049
-692,656	800,000	0,051	0,112
-691,641	114,885	-0,055	-0,049
-690,627	132,808	-0,068	0,064
-689,612	-63,387	-0,106	0,031
-688,597	-71,062	-0,146	-0,040
-687,583	246,522	-0,124	-0,151
-686,568	-200,000	-0,040	-0,140
-685,554	-29,757	-0,066	0,027
-684,539	-17,217	0,068	-0,031
-683,524	-113,336	0,162	0,023
-682,510	-54,145	0,114	-0,037
-681,495	356,543	-0,086	0,124
-680,481	109,934	-0,109	-0,094
-679,466	-200,000	-0,020	-0,076
-678,451	113,777	0,017	0,015
-677,437	-142,129	-0,120	0,009
-676,422	129,875	-0,088	0,081
-675,408	-200,000	-0,027	0,143
-674,393	235,274	-0,115	0,138
-673,378	183,916	0,049	-0,053
-672,364	-200,000	-0,032	-0,116
-671,349	-200,000	-0,034	-0,131
-670,335	193,832	-0,081	-0,089
-669,320	-132,556	-0,057	0,005
-668,305	-101,210	-0,107	0,019
-667,291	446,636	-0,047	-0,076
-666,276	69,278	-0,088	0,065
-665,262	-68,111	0,100	0,028
-664,247	-41,113	-0,093	-0,034
-663,232	800,000	-0,028	-0,084
-662,218	702,071	0,034	-0,064
-661,203	46,819	-0,132	0,088
-660,189	294,451	0,085	0,112
-659,174	-200,000	0,010	-0,189
-658,159	656,095	0,064	-0,119
-657,145	383,819	0,028	0,042
-656,130	48,738	-0,093	0,063
-655,116	595,581	0,063	-0,113
-654,101	50,379	-0,053	0,036
-653,086	59,117	0,086	-0,061
-652,072	-120,807	-0,068	-0,008
-651,057	331,664	-0,052	-0,073
-650,043	780,069	-0,034	-0,068
-649,028	85,568	0,007	0,006
-648,014	-200,000	-0,019	-0,086
-646,999	-200,000	-0,001	0,005
-645,984	-200,000	0,005	0,060
-644,970	15,219	-0,114	-0,065
-643,955	-200,000	-0,030	-0,104
-642,941	-96,948	0,121	-0,023
-641,926	800,000	0,020	0,042
-640,911	182,389	0,032	-0,034
-639,897	24,197	-0,034	-0,020
-638,882	-36,976	-0,059	-0,023
-637,868	-180,719	0,057	0,001
-636,853	-90,210	0,084	0,017
-635,838	800,000	-0,023	-0,070
-634,824	707,771	0,073	-0,141
-633,809	189,568	-0,099	-0,107
-632,795	800,000	0,032	0,068
-631,780	-177,836	0,138	0,002
-630,765	589,005	-0,030	-0,053
-629,751	-200,000	-0,007	-0,122
-628,736	-200,000	0,024	-0,088
-627,722	123,539	0,031	0,028
-626,707	-40,376	0,055	0,020
-625,692	9,831	0,113	-0,062
-624,678	384,084	-0,006	0,009
-623,663	296,371	-0,056	0,074
-622,649	13,559	-0,064	-0,036
-621,634	91,649	-0,169	0,137
-620,619	111,588	-0,035	0,031
-619,605	-200,000	-0,005	-0,049
-618,590	-120,873	0,050	-0,006
-617,576	425,322	0,037	0,058
-616,561	800,000	0,032	-0,075
-615,546	-30,013	-0,088	-0,036
-614,532	-108,302	-0,150	-0,023
-613,517	-200,000	-0,008	-0,133
-612,503	800,000	0,012	0,031
-611,488	-200,000	-0,018	-0,161
-610,474	155,639	-0,046	0,046
-609,459	622,065	-0,038	-0,069
-608,444	-200,000	0,000	-0,094
-607,430	-200,000	-0,024	-0,121
-606,415	-200,000	-0,014	-0,052
-605,401	385,386	-0,057	0,085
-604,386	-7,378	0,138	0,067
-603,371	-200,000	0,028	0,152
-602,357	-200,000	-0,009	-0,061
-601,342	439,718	-0,047	0,075
-600,328	-70,161	-0,168	0,046
-599,313	-50,334	-0,059	-0,020
-598,298	-1,840	0,142	-0,072
-597,284	-117,506	-0,069	0,009
-596,269	49,120	0,048	0,033
-595,255	-179,034	0,270	0,004
-594,240	64,455	0,047	-0,034
-593,225	-93,322	-0,024	-0,005
-592,211	13,487	-0,132	-0,074
-591,196	-200,000	-0,013	-0,088
-590,182	168,713	0,072	0,074
-589,167	-200,000	0,016	0,070
-588,152	23,628	0,063	0,037
-587,138	-200,000	0,015	0,096
-586,123	121,316	0,078	0,070
-585,109	-125,277	-0,213	0,023
-584,094	18,558	-0,072	0,042
-583,079	-200,000	0,008	-0,121
-582,065	800,000	0,071	0,143
-581,050	-80,943	-0,123	-0,029
-580,036	-69,028	-0,096	0,026
-579,021	-161,353	0,117	0,004
-578,006	-68,815	-0,125	-0,035
-576,992	-67,281	-0,137	0,039
-575,977	-17,553	-0,063	-0,028
-574,963	411,821	0,087	-0,134
-573,948	-167,665	-0,065	0,002
-572,934	60,503	0,104	0,074
-571,919	-48,800	0,071	0,024
-570,904	52,744	-0,017	-0,011
-569,890	-114,191	0,032	-0,004
-568,875	20,236	0,150	0,087
-567,861	-57,707	0,045	-0,014
-566,846	800,000	0,065	0,138
-565,831	-200,000	-0,028	-0,126
-564,817	-200,000	-0,008	0,070
-563,802	-104,462	-0,034	0,006
-562,788	-200,000	0,005	0,077
-561,773	-120,145	0,037	-0,004
-560,758	-113,330	0,055	0,008
-559,744	668,132	-0,047	-0,088
-558,729	333,798	0,019	0,026
-557,715	-135,182	-0,136	-0,012
-556,700	800,000	0,026	-0,068
-555,685	58,164	-0,106	-0,075
-554,671	-129,338	0,071	0,007
-553,656	6,764	0,170	0,091
-552,642	800,000	-0,022	0,070
-551,627	-200,000	0,007	0,213
-550,612	260,377	-0,060	-0,075
-549,598	2,633	-0,055	0,028
-548,583	3,540	-0,012	-0,006
-547,569	131,050	0,069	-0,064
-546,554	-195,803	0,078	0,000
-545,539	800,000	0,035	-0,083
-544,525	219,053	0,081	-0,093
-543,510	351,663	-0,098	0,140
-542,496	800,000	-0,014	0,029
-541,481	-89,473	-0,118	0,025
-540,466	-77,083	0,035	0,009
-539,452	800,000	-0,027	0,056
-538,437	-200,000	0,029	0,139
-537,423	-200,000	0,000	0,070
-536,408	186,428	-0,037	-0,039
-535,393	197,783	-0,073	-0,080
-534,379	800,000	0,041	0,115
-533,364	-3,023	-0,170	-0,085
-532,350	149,218	0,085	0,083
-531,335	-200,000	-0,054	-0,183
-530,321	144,377	0,168	0,162
-529,306	-200,000	0,004	0,060
-528,291	-44,854	-0,085	-0,030
-527,277	-200,000	-0,013	-0,068
-526,262	-90,652	0,153	-0,031
-525,248	114,919	0,076	0,067
-524,233	-101,377	0,131	-0,023
-523,218	-141,020	0,067	-0,005
-522,204	-11,107	-0,132	0,062
-521,189	207,872	-0,056	0,063
-520,175	-165,399	-0,069	0,002
-519,160	499,494	-0,035	0,059
-518,145	679,035	-0,023	0,044
-517,131	-21,173	-0,065	0,028
-516,116	53,022	0,057	0,039
-515,102	800,000	0,050	0,114
-514,087	-200,000	0,047	0,177
-513,072	-54,557	0,100	0,032
-512,058	-0,797	-0,122	-0,062
-511,043	1,703	-0,058	-0,030
-510,029	-21,390	0,117	0,051
-509,014	18,880	0,091	0,052
-507,999	-200,000	-0,009	-0,054
-506,985	356,874	-0,066	-0,095
-505,970	290,858	0,086	-0,112
-504,956	-20,155	0,123	-0,054
-503,941	-37,257	-0,033	-0,012
-502,926	572,136	0,071	0,124
-501,912	382,918	-0,044	0,066
-500,897	-98,358	-0,094	0,017
-499,883	-200,000	-0,020	-0,069
-498,868	-200,000	0,008	-0,168
-497,853	32,534	-0,151	-0,093
-496,839	-200,000	0,005	0,049
-495,824	-23,420	0,033	0,014
-494,810	31,278	0,045	0,028
-493,795	-200,000	-0,019	-0,103
-492,781	-200,000	0,005	0,066
-491,766	800,000	-0,055	-0,132
-490,751	219,714	0,073	0,084
-489,737	405,349	-0,037	-0,056
-488,722	-100,770	-0,050	0,009
-487,708	186,011	-0,057	0,061
-486,693	324,586	0,053	0,073
-485,678	339,640	-0,007	-0,010
-484,664	-61,678	-0,114	-0,034
-483,649	708,375	-0,043	-0,082
-482,635	10,432	-0,133	-0,073
-481,620	-200,000	0,003	0,020
-480,605	-68,528	0,139	0,038
-479,591	-18,565	-0,167	0,074
-478,576	23,458	0,089	-0,052
-477,562	152,503	0,047	-0,046
-476,547	-200,000	-0,006	-0,099
-475,532	79,777	-0,118	0,091
-474,518	-45,115	0,017	0,006
-473,503	227,517	0,076	-0,088
-472,489	-130,414	0,112	0,011
-471,474	107,409	-0,036	-0,030
-470,459	800,000	-0,100	-0,205
-469,445	-61,449	0,146	0,044
-468,430	-157,536	0,148	0,006
-467,416	-200,000	-0,001	0,053
-466,401	38,440	0,097	-0,062
-465,386	3,882	-0,024	-0,012
-464,372	226,817	-0,041	0,048
-463,357	-29,601	-0,075	-0,031
-462,343	609,778	-0,021	-0,038
-461,328	-75,011	-0,067	0,017
-460,313	116,205	0,105	0,093
-459,299	372,375	0,045	0,066
-458,284	38,152	0,117	0,074
-457,270	307,101	0,055	0,073
-456,255	800,000	-0,020	-0,049
-455,241	-122,522	0,035	-0,004
-454,226	-75,884	-0,013	-0,003
-453,211	-200,000	-0,035	0,112
-452,197	11,525	-0,138	-0,076
-451,182	153,577	-0,054	-0,053
-450,168	376,136	-0,057	0,083
-449,153	126,446	0,019	0,017
-448,138	359,844	-0,103	-0,149
-447,124	-200,000	-0,009	0,036
-446,109	-85,990	0,068	-0,015
-445,095	760,334	0,034	0,066
-444,080	11,648	0,125	0,069
-443,065	-200,000	-0,000	0,119
-442,051	177,107	0,016	0,016
-441,036	716,307	-0,013	-0,026
-440,022	99,666	-0,049	-0,041
-439,007	-200,000	0,001	0,146
-437,992	-157,937	0,186	0,008
-436,978	393,430	0,089	0,133
-435,963	3,304	-0,054	-0,028
-434,949	-200,000	0,002	0,040
-433,934	-85,963	-0,040	0,009
-432,919	-25,436	-0,072	0,031
-431,905	34,741	-0,120	-0,075
-430,890	481,966	0,039	-0,064
-429,876	77,978	0,082	0,063
-428,861	-200,000	-0,004	-0,032
-427,846	-200,000	-0,013	-0,109
-426,832	800,000	0,087	-0,196
-425,817	-200,000	-0,033	-0,160
-424,803	-36,669	0,158	0,061
-423,788	216,168	-0,089	0,101
-422,773	257,996	0,090	0,111
-421,759	-200,000	-0,016	0,091
-420,744	-125,909	-0,156	-0,017
-419,730	50,371	0,014	0,010
-418,715	-22,434	-0,108	-0,047
-417,701	113,789	0,072	0,062
-416,686	278,784	-0,057	0,073
-415,671	800,000	0,050	-0,121
-414,657	661,184	-0,066	0,123
-413,642	314,645	-0,042	-0,057
-412,628	-200,000	0,028	0,114
-411,613	146,493	-0,095	-0,091
-410,598	660,112	-0,042	-0,077
-409,584	-130,037	0,111	0,011
-408,569	-62,210	0,136	0,040
-407,555	108,277	-0,115	0,098
-406,540	800,000	-0,040	0,118
-405,525	200,754	-0,022	-0,025
-404,511	-200,000	-0,021	-0,085
-403,496	-200,000	0,015	-0,071
-402,482	-57,299	-0,170	0,053
-401,467	-200,000	0,103	0,000
-400,452	800,000	-0,021	-0,051
-399,438	-55,279	-0,078	-0,025
-398,423	46,745	-0,043	-0,029
-397,409	381,699	-0,041	0,061
-396,394	349,150	-0,098	-0,138
-395,379	-200,000	0,015	-0,075
-394,365	335,807	0,026	0,036
-393,350	-200,000	0,002	0,008
-392,336	800,000	0,030	0,068
-391,321	-95,270	-0,146	0,028
-390,306	-200,000	-0,013	-0,115
-389,292	-200,000	0,018	0,072
-388,277	-113,744	-0,082	-0,011
-387,263	-88,246	0,135	0,029
-386,248	-79,662	0,066	-0,016
-385,233	800,000	0,043	0,087
-384,219	-200,000	-0,003	0,101
-383,204	800,000	-0,045	-0,128
-382,190	79,691	0,143	0,110
-381,175	200,752	-0,085	0,093
-380,160	-33,191	0,060	-0,024
-379,146	-200,000	0,023	0,114
-378,131	292,242	0,050	0,065
-377,117	225,052	-0,018	0,021
-376,102	-172,527	-0,164	0,004
-375,088	-164,199	-0,034	-0,001
-374,073	262,076	-0,107	-0,134
-373,058	-111,979	-0,125	-0,018
-372,044	158,766	0,059	-0,058
-371,029	108,475	0,095	0,081
-370,015	316,122	0,043	-0,058
-369,000	800,000	-0,019	-0,038
-367,985	645,910	-0,079	0,145
-366,971	31,223	0,052	0,032
-365,956	-21,115	0,054	0,023
-364,942	235,665	0,018	0,021
-363,927	-43,403	0,069	0,025
-362,912	800,000	0,048	0,119
-361,898	243,339	-0,043	-0,051
-360,883	-80,919	0,046	-0,011
-359,869	800,000	0,032	0,096
-358,854	800,000	-0,009	-0,026
-357,839	-58,919	0,155	0,047
-356,825	-2,763	0,119	-0,059
-355,810	-38,199	0,093	-0,035
-354,796	82,877	-0,162	0,126
-353,781	30,005	0,015	0,009
-352,766	-45,550	-0,078	0,027
-351,752	800,000	-0,044	-0,087
-350,737	800,000	0,014	-0,031
-349,723	800,000	0,067	0,148
-348,708	-200,000	-0,035	0,112
-347,693	-200,000	0,006	-0,034
-346,679	95,762	0,068	-0,056
-345,664	-141,975	-0,121	-0,008
-344,650	-200,000	0,018	0,106
-343,635	-72,330	0,098	-0,026
-342,620	336,001	0,068	0,095
-341,606	458,139	-0,048	0,076
-340,591	-200,000	0,004	0,052
-339,577	-34,954	-0,081	-0,032
-338,562	68,263	-0,063	0,046
-337,548	-42,417	-0,072	-0,026
-336,533	92,886	-0,029	-0,024
-335,518	184,103	0,041	0,043
-334,504	-200,000	0,039	-0,140
-333,489	-109,696	-0,071	-0,011
-332,475	218,069	-0,022	-0,025
-331,460	-95,811	0,050	0,009
-330,445	422,068	-0,020	-0,031
-329,431	-62,792	0,126	-0,037
-328,416	-200,000	0,000	0,076
-327,402	-25,819	0,183	-0,077
-326,387	-157,074	0,040	0,002
-325,372	193,308	-0,105	-0,113
-324,358	-200,000	-0,002	-0,049
-323,343	158,985	0,079	-0,078
-322,329	-99,164	0,149	-0,027
-321,314	-17,368	-0,086	0,039
-320,299	177,625	-0,135	0,141
-319,285	-200,000	0,001	-0,054
-318,270	142,698	-0,034	0,032
-317,256	800,000	0,035	-0,106
-316,241	-200,000	-0,033	0,122
-315,226	-200,000	-0,011	0,162
-314,212	-9,182	0,006	-0,003
-313,197	238,933	0,034	0,040
-312,183	-200,000	-0,001	-0,126
-311,168	11,920	-0,048	-0,026
-310,153	-200,000	-0,006	-0,051
-309,139	-139,133	0,093	0,007
-308,124	-47,907	-0,034	0,012
-307,110	-46,828	0,078	-0,027
-306,095	-200,000	0,019	0,150
-305,080	10,325	0,156	0,084
-304,066	375,250	0,037	0,054
-303,051	127,496	-0,157	-0,142
-302,037	175,911	0,059	-0,061
-301,022	-175,083	-0,175	-0,003
-300,008	10,606	0,113	0,061
-298,993	-17,202	0,146	-0,065
-297,978	-200,000	0,005	0,126
-296,964	-200,000	0,000	0,027
-295,949	488,417	0,029	-0,048
-294,935	-200,000	-0,056	-0,192
-293,920	-126,908	0,049	0,005
-292,905	63,944	0,082	0,059
-291,891	-200,000	-0,003	0,015
-290,876	800,000	0,029	-0,061
-289,862	797,722	0,034	0,067
-288,847	-60,496	-0,076	0,023
-287,832	188,806	-0,037	-0,039
-286,818	800,000	0,020	-0,042
-285,803	83,831	-0,105	-0,082
-284,789	-121,025	0,166	0,020
-283,774	-89,212	0,102	0,021
-282,759	-25,054	-0,146	0,061
-281,745	-45,176	-0,047	-0,017
-280,730	347,183	0,043	-0,060
-279,716	-200,000	-0,038	-0,167
-278,701	-200,000	0,001	0,064
-277,686	-200,000	0,034	0,170
-276,672	-136,060	0,077	0,006
-275,657	-200,000	0,002	0,100
-274,643	21,457	0,090	0,052
-273,628	600,963	0,025	0,045
-272,613	15,040	-0,128	-0,071
-271,599	800,000	0,013	-0,036
-270,584	456,713	0,049	0,078
-269,570	-56,859	0,150	0,047
-268,555	42,811	-0,049	0,032
-267,540	9,414	0,059	-0,032
-266,526	-19,191	-0,125	-0,055
-265,511	-25,532	0,068	0,028
-264,497	800,000	0,051	0,133
-263,482	-200,000	-0,030	-0,134
-262,467	-122,094	-0,055	0,006
-261,453	-200,000	-0,003	0,068
-260,438	-200,000	0,036	-0,199
-259,424	15,040	-0,137	-0,076
-258,409	-200,000	-0,030	-0,100
-257,395	254,619	-0,019	0,023
-256,380	-80,904	0,120	-0,028
-255,365	33,365	-0,024	-0,015
-254,351	-116,850	0,083	0,011
-253,336	550,456	-0,041	-0,071
-252,322	314,107	-0,106	-0,143
-251,307	-200,000	-0,054	-0,178
-250,292	193,220	-0,102	-0,110
-249,278	-106,841	0,027	0,004
-248,263	-57,963	0,086	-0,027
-247,249	54,628	0,140	-0,096
-246,234	800,000	0,011	0,034
-245,219	-200,000	-0,019	-0,079
-244,205	-200,000	0,013	-0,091
-243,190	-120,193	0,112	-0,013
-242,176	242,406	-0,055	0,065
-241,161	-200,000	0,031	0,097
-240,146	-200,000	0,012	0,039
-239,132	-200,000	0,018	0,080
-238,117	10,818	-0,047	0,026
-237,103	-200,000	0,044	-0,187
-236,088	543,225	0,017	0,029
-235,073	-156,093	0,114	0,005
-234,059	800,000	-0,032	0,096
-233,044	14,243	0,045	-0,025
-232,030	51,077	-0,074	0,050
-231,015	17,034	-0,093	-0,052
-230,000	-200,000	-0,035	-0,117
-228,986	-200,000	-0,001	0,030
-227,971	624,295	-0,034	-0,060
-226,957	-171,320	-0,064	0,001
-225,942	617,154	0,074	0,132
-224,927	63,442	-0,024	0,017
-223,913	-4,883	-0,056	-0,027
-222,898	-200,000	-0,020	0,160
-221,884	-34,254	0,073	0,028
-220,869	800,000	-0,009	0,023
-219,855	800,000	0,021	-0,061
-218,840	-200,000	-0,004	0,131
-217,825	407,521	-0,091	0,137
-216,811	-33,281	-0,149	0,059
-215,796	-200,000	0,014	-0,085
-214,782	371,400	-0,107	-0,155
-213,767	-81,095	-0,071	-0,017
-212,752	59,099	-0,054	-0,038
-211,738	-200,000	-0,001	-0,035
-210,723	-100,507	0,050	-0,009
-209,709	-32,555	-0,042	-0,016
-208,694	772,951	-0,043	0,083
-207,679	800,000	0,031	-0,063
-206,665	-200,000	0,009	-0,117
-205,650	-107,311	0,132	-0,020
-204,636	233,224	0,070	-0,082
-203,621	-200,000	0,005	0,103
-202,606	-81,371	-0,196	0,045
-201,592	28,742	-0,100	0,060
-200,577	-38,514	0,049	0,018
-199,563	-47,901	0,123	-0,042
-198,548	275,702	-0,084	0,107
-197,533	406,437	-0,053	-0,080
-196,519	-77,194	-0,059	0,014
-195,504	-200,000	0,019	-0,061
-194,490	8,673	0,154	-0,082
-193,475	-131,170	-0,164	-0,015
-192,460	129,856	0,047	-0,043
-191,446	8,378	-0,038	-0,020
-190,431	-82,709	0,116	-0,026
-189,417	-200,000	-0,015	0,092
-188,402	10,189	-0,050	0,027
-187,387	-35,951	-0,061	0,023
-186,373	58,847	0,041	0,029
-185,358	-200,000	0,017	-0,143
-184,344	188,204	-0,032	-0,034
-183,329	-200,000	-0,018	0,128
-182,315	-200,000	-0,005	0,098
-181,300	-200,000	0,010	-0,121
-180,285	800,000	-0,055	-0,171
-179,271	-200,000	-0,027	-0,122
-178,256	-95,782	0,063	-0,012
-177,242	-91,440	0,015	0,003
-176,227	186,908	0,105	0,111
-175,212	-200,000	0,011	0,111
-174,198	-200,000	-0,011	0,040
-173,183	-128,477	0,089	-0,009
-172,169	800,000	-0,038	-0,104
-171,154	-200,000	0,007	0,043
-170,139	130,196	-0,105	0,095
-169,125	229,663	0,053	0,062
-168,110	85,949	0,174	0,136
-167,096	-53,255	-0,081	0,026
-166,081	-200,000	0,017	-0,093
-165,066	72,106	-0,109	-0,080
-164,052	197,113	-0,039	-0,042
-163,037	-153,026	0,040	-0,002
-162,023	47,241	-0,086	-0,057
-161,008	229,544	0,083	0,096
-159,993	-46,130	-0,106	-0,037
-158,979	-36,488	-0,153	-0,058
-157,964	379,706	-0,010	-0,015
-156,950	800,000	0,055	-0,139
-155,935	45,642	0,050	0,033
-154,920	705,044	0,078	0,146
-153,906	38,155	-0,055	-0,035
-152,891	-200,000	-0,014	-0,082
-151,877	800,000	0,034	-0,101
-150,862	-200,000	-0,015	-0,049
-149,847	-200,000	0,025	-0,166
-148,833	42,182	0,053	0,034
-147,818	800,000	-0,041	0,091
-146,804	800,000	0,038	0,119
-145,789	-119,263	-0,024	-0,003
-144,775	-200,000	0,001	-0,004
-143,760	-200,000	0,001	-0,050
-142,745	-200,000	-0,011	-0,118
-141,731	-200,000	-0,032	-0,122
-140,716	23,233	0,073	0,042
-139,702	368,623	-0,071	0,102
-138,687	571,849	-0,018	-0,031
-137,672	-155,789	-0,145	0,006
-136,658	-200,000	0,029	-0,100
-135,643	745,903	-0,042	-0,081
-134,629	-88,533	0,111	0,023
-133,614	-80,202	0,214	-0,050
-132,599	-200,000	-0,002	0,113
-131,585	-98,123	0,009	-0,002
-130,570	-200,000	-0,008	-0,129
-129,556	5,706	0,027	0,014
-128,541	-200,000	0,011	0,086
-127,526	-200,000	-0,006	-0,034
-126,512	98,029	-0,158	0,129
-125,497	478,690	-0,073	0,117
-124,483	-200,000	0,005	0,088
-123,468	0,496	-0,030	-0,015
-122,453	-59,769	-0,017	0,005
-121,439	-0,273	-0,146	-0,073
-120,424	-200,000	-0,006	0,058
-119,410	77,050	0,078	0,058
-118,395	-200,000	0,010	0,069
-117,380	800,000	0,029	0,064
-116,366	-120,581	-0,021	0,002
-115,351	31,652	-0,058	0,036
-114,337	318,079	-0,019	-0,026
-113,322	-200,000	0,004	-0,173
-112,307	726,010	0,025	0,048
-111,293	-200,000	-0,006	0,034
-110,278	-200,000	0,020	0,135
-109,264	-22,276	-0,081	-0,035
-108,249	127,537	-0,090	-0,081
-107,234	800,000	0,038	-0,095
-106,220	-174,925	-0,091	-0,002
-105,205	310,551	0,022	0,029
-104,191	-200,000	-0,013	0,065
-103,176	800,000	0,021	0,053
-102,162	22,734	-0,084	0,048
-101,147	800,000	0,092	0,189
-100,132	-200,000	-0,012	-0,052
-99,118	-50,343	-0,053	-0,018
-98,103	101,496	0,070	0,058
-97,089	43,524	0,029	-0,019
-96,074	-38,811	0,131	-0,049
-95,059	800,000	0,026	0,068
-94,045	6,309	-0,073	-0,038
-93,030	800,000	0,029	-0,065
-92,016	79,982	-0,109	-0,083
-91,001	-190,373	0,104	-0,001
-89,986	78,527	-0,018	0,013
-88,972	662,434	0,028	0,051
-87,957	-97,932	-0,073	-0,013
-86,943	153,646	0,019	0,019
-85,928	-92,943	-0,139	0,027
-84,913	149,236	-0,046	0,044
-83,899	800,000	-0,026	0,079
-82,884	348,729	0,029	0,041
-81,870	-200,000	-0,013	-0,073
-80,855	-200,000	0,006	0,123
-79,840	123,510	-0,044	0,039
-78,826	800,000	-0,032	0,070
-77,811	-31,402	-0,012	-0,005
-76,797	-95,608	0,067	-0,013
-75,782	-15,274	-0,142	0,064
-74,767	585,054	0,038	-0,066
-73,753	435,031	-0,085	0,131
-72,738	335,947	-0,035	0,048
-71,724	129,986	-0,081	-0,073
-70,709	-200,000	-0,019	-0,189
-69,694	-57,139	-0,092	-0,028
-68,680	-200,000	-0,000	-0,039
-67,665	-140,076	0,102	-0,007
-66,651	800,000	-0,045	0,100
-65,636	241,398	0,026	-0,031
-64,622	256,687	-0,054	0,066
-63,607	-200,000	-0,017	-0,109
-62,592	800,000	0,047	-0,120
-61,578	-200,000	-0,018	-0,106
-60,563	-200,000	-0,002	-0,060
-59,549	-104,591	0,131	-0,021
-58,534	39,608	-1,875	-1,186
-57,519	391,176	-1,358	-1,998
-56,505	-200,000	-0,239	-4,388
-55,490	416,142	0,815	1,233
-54,476	800,000	5,009	11,426
-53,461	-200,000	20,671	332,276
-52,446	800,000	753,246	2322,156
-51,432	551,719	1660,329	2827,771
-50,417	74,363	1667,171	1236,481
-49,403	19,416	1540,549	872,371
-48,388	13,444	1463,058	799,516
-47,373	19,194	1453,705	822,059
-46,359	16,439	1443,105	802,884
-45,344	11,718	1438,568	777,789
-44,330	11,619	1436,815	776,338
-43,315	11,630	1434,994	775,373
-42,300	11,599	1433,387	774,326
-41,286	11,661	1432,063	773,878
-40,271	11,595	1430,716	772,804
-39,257	11,578	1429,617	772,100
-38,242	11,644	1428,306	771,673
-37,227	11,622	1427,221	770,952
-36,213	11,667	1425,821	770,381
-35,198	11,633	1424,967	769,727
-34,184	11,730	1423,748	769,497
-33,169	11,634	1422,300	768,230
-32,154	11,674	1421,262	767,826
-31,140	11,703	1420,072	767,289
-30,125	11,729	1419,030	766,819
-29,111	11,671	1418,105	766,015
-28,096	11,684	1416,717	765,296
-27,082	11,649	1415,558	764,475
-26,067	11,594	1414,664	763,704
-25,052	11,604	1413,498	763,090
-24,038	11,605	1412,622	762,594
-23,023	11,640	1411,497	762,121
-22,009	11,602	1410,331	761,280
-20,994	11,611	1409,313	760,743
-19,979	11,619	1408,599	760,366
-18,965	11,510	1408,090	759,551
-17,950	11,548	1407,027	759,123
-16,936	11,565	1405,982	758,612
-15,921	11,531	1404,959	757,872
-14,906	11,504	1403,974	757,182
-13,892	11,526	1403,059	756,763
-12,877	11,503	1402,192	756,158
-11,863	11,527	1401,328	755,775
-10,848	11,493	1400,508	755,143
-9,833	11,426	1399,515	754,265
-8,819	11,366	1398,948	753,650
-7,804	11,398	1397,805	753,156
-6,790	11,429	1396,777	752,713
-5,775	11,469	1395,802	752,343
-4,760	11,449	1394,741	751,652
-3,746	11,450	1393,788	751,111
-2,731	11,373	1393,338	750,483
-1,717	11,374	1392,444	749,976
-0,702	11,401	1390,496	749,023
0,313	15,314	1304,656	720,795
1,327	31,485	696,327	421,682
2,342	48,887	121,322	80,265
3,356	-1,040	16,508	8,217
4,371	0,897	3,330	1,679
5,386	-53,166	0,883	0,285
6,400	-200,000	0,120	0,476
7,415	-74,918	-0,213	-0,053
8,429	189,578	-0,240	-0,254
9,444	151,653	-0,297	-0,285
10,459	55,635	-0,380	-0,260
11,473	-42,797	-0,236	-0,084
12,488	84,787	-0,305	-0,235
13,502	-107,023	-0,374	-0,058
14,517	-0,638	-0,364	-0,182
15,531	32,553	-0,361	-0,220
16,546	109,425	-0,312	-0,264
17,561	38,295	-0,183	-0,115
18,575	-67,837	-0,169	-0,046
19,590	165,727	-0,189	-0,189
20,604	31,542	-0,256	-0,155
21,619	158,887	-0,329	-0,322
22,634	189,859	-0,361	-0,382
23,648	350,504	-0,287	-0,401
24,663	26,181	-0,368	-0,216
25,677	114,147	-0,282	-0,242
26,692	250,833	-0,244	-0,293
27,707	96,839	-0,418	-0,338
28,721	72,273	-0,365	-0,268
29,736	22,438	-0,433	-0,249
30,750	420,145	-0,345	-0,522
31,765	38,304	-0,367	-0,230
32,780	85,517	-0,373	-0,288
33,794	70,339	-0,326	-0,237
34,809	189,939	-0,206	-0,218
35,823	111,962	-0,325	-0,277
36,838	81,656	-0,443	-0,337
37,853	168,318	-0,366	-0,367
38,867	60,615	-0,531	-0,370
39,882	47,149	-0,355	-0,232
40,896	-43,455	-0,344	-0,122
41,911	76,470	-0,332	-0,247
42,926	-13,312	-0,334	-0,152
43,940	399,176	-0,259	-0,383
44,955	-36,515	-0,355	-0,134
45,969	-135,728	-0,448	-0,037
46,984	27,225	-0,378	-0,222
47,999	36,112	-0,333	-0,206
49,013	80,235	-0,234	-0,177
50,028	41,965	-0,264	-0,168
51,042	6,320	-0,421	-0,219
52,057	11,682	-0,437	-0,235
53,071	597,053	-0,268	-0,468
54,086	30,141	-0,387	-0,231
55,101	135,864	-0,229	-0,210
56,115	28,451	-0,322	-0,191
57,130	-22,760	-0,426	-0,180
58,144	99,735	-0,311	-0,253
59,159	160,039	-0,261	-0,256
60,174	49,003	-0,288	-0,190
61,188	60,861	-0,285	-0,198
62,203	104,136	-0,323	-0,267
63,217	203,468	-0,188	-0,205
64,232	-20,584	-0,446	-0,191
65,247	96,082	-0,320	-0,257
66,261	52,049	-0,348	-0,233
67,276	173,607	-0,332	-0,337
68,290	43,675	-0,245	-0,157
69,305	417,611	-0,123	-0,185
70,320	51,182	-0,386	-0,256
71,334	105,308	-0,171	-0,142
72,349	43,323	-0,304	-0,194
73,363	-29,742	-0,334	-0,133
74,378	-3,879	-0,214	-0,104
75,393	194,001	-0,304	-0,324
76,407	365,325	-0,182	-0,258
77,422	216,038	-0,233	-0,260
78,436	264,649	-0,206	-0,253
79,451	-109,190	-0,382	-0,056
80,466	-70,923	-0,330	-0,087
81,480	-8,445	-0,406	-0,191
82,495	251,409	-0,309	-0,370
83,509	-59,188	-0,324	-0,097
84,524	43,366	-0,237	-0,151
85,539	-5,485	-0,223	-0,107
86,553	36,274	-0,247	-0,152
87,568	54,424	-0,324	-0,218
88,582	16,933	-0,233	-0,129
89,597	124,922	-0,190	-0,168
90,611	6,299	-0,227	-0,117
91,626	-54,181	-0,316	-0,100
92,641	-19,430	-0,246	-0,106
93,655	100,670	-0,353	-0,287
94,670	93,718	-0,326	-0,258
95,684	-54,402	-0,413	-0,130
96,699	24,805	-0,209	-0,121
97,714	75,163	-0,232	-0,171
98,728	-40,302	-0,308	-0,111
99,743	256,538	-0,174	-0,209
100,757	14,105	-0,242	-0,131
101,772	215,271	-0,192	-0,214
102,787	43,547	-0,235	-0,150
103,801	152,566	-0,173	-0,165
104,816	131,068	-0,155	-0,139
105,830	116,274	-0,172	-0,147
106,845	-13,914	-0,238	-0,107
107,860	55,914	-0,282	-0,191
108,874	156,180	-0,194	-0,187
109,889	116,492	-0,326	-0,280
110,903	160,787	-0,281	-0,275
111,918	93,881	-0,218	-0,173
112,933	-162,947	-0,235	-0,008
113,947	186,951	-0,161	-0,168
114,962	-5,572	-0,320	-0,153
115,976	-164,323	-0,214	-0,007
116,991	-170,398	-0,309	0,007
118,006	-33,543	-0,401	-0,154
119,020	137,822	-0,236	-0,216
120,035	-77,274	-0,202	-0,049
121,049	39,156	-0,203	-0,126
122,064	-101,584	-0,355	-0,060
123,079	245,636	-0,250	-0,295
124,093	46,012	-0,203	-0,131
125,108	35,964	-0,196	-0,120
126,122	-22,568	-0,351	-0,148
127,137	131,082	-0,194	-0,174
128,151	37,167	-0,267	-0,165
129,166	-51,706	-0,241	-0,078
130,181	800,000	-0,112	-0,261
131,195	41,945	-0,301	-0,190
132,210	161,722	-0,156	-0,153
133,224	8,054	-0,285	-0,149
134,239	-49,784	-0,172	-0,057
135,254	-104,663	-0,201	-0,032
136,268	79,327	-0,290	-0,216
137,283	800,000	-0,072	-0,147
138,297	50,711	-0,234	-0,154
139,312	46,934	-0,269	-0,174
140,327	107,182	-0,245	-0,203
141,341	31,883	-0,190	-0,114
142,356	-34,000	-0,196	-0,075
143,370	43,678	-0,155	-0,099
144,385	41,076	-0,241	-0,151
145,400	130,614	-0,329	-0,294
146,414	122,715	-0,281	-0,245
147,429	181,099	-0,271	-0,278
148,443	288,509	-0,206	-0,261
149,458	-93,406	-0,277	-0,053
150,473	-200,000	-0,063	-0,247
151,487	407,129	-0,186	-0,275
152,502	231,595	-0,248	-0,284
153,516	32,411	-0,188	-0,113
154,531	44,487	-0,286	-0,183
155,546	239,786	-0,188	-0,218
156,560	-76,017	-0,173	-0,042
157,575	48,210	-0,225	-0,146
158,589	-10,172	-0,277	-0,128
159,604	256,218	-0,282	-0,337
160,619	300,026	-0,218	-0,280
161,633	131,589	-0,220	-0,197
162,648	46,171	-0,241	-0,155
163,662	-57,422	-0,293	-0,089
164,677	21,807	-0,195	-0,110
165,692	71,628	-0,212	-0,153
166,706	51,080	-0,289	-0,190
167,721	-61,831	-0,359	-0,104
168,735	207,221	-0,325	-0,353
169,750	29,067	-0,099	-0,058
170,764	61,650	-0,256	-0,177
171,779	-81,796	-0,299	0,068
172,794	17,256	-0,179	-0,099
173,808	32,095	-0,271	-0,162
174,823	420,439	-0,148	-0,222
175,837	6,732	-0,287	-0,148
176,852	88,203	-0,204	-0,157
177,867	-102,296	-0,136	0,022
178,881	-200,000	-0,012	-0,240
179,896	-73,541	-0,232	-0,058
180,910	26,308	-0,171	-0,099
181,925	135,163	-0,199	-0,180
182,940	87,406	-0,159	-0,122
183,954	265,542	-0,131	-0,159
184,969	800,000	-0,124	-0,247
185,983	-114,133	-0,221	0,029
186,998	29,369	-0,269	-0,158
188,013	-200,000	-0,051	-0,176
189,027	387,619	-0,222	-0,320
190,042	-20,557	-0,218	-0,093
191,056	2,118	-0,258	-0,129
192,071	-110,862	-0,052	-0,007
193,086	133,861	-0,182	-0,164
194,100	19,611	-0,308	-0,172
195,115	-56,909	-0,226	-0,069
196,129	26,463	-0,181	-0,105
197,144	374,354	-0,192	-0,273
198,159	380,976	-0,123	-0,175
199,173	300,204	-0,212	-0,272
200,188	191,358	-0,229	-0,239
201,202	38,762	-0,201	-0,124
202,217	-1,846	-0,207	-0,101
203,232	40,309	-0,268	-0,167
204,246	38,904	-0,158	-0,098
205,261	-200,000	-0,064	-0,325
206,275	67,450	-0,167	-0,118
207,290	800,000	-0,061	-0,144
208,304	-52,847	-0,219	-0,070
209,319	168,480	-0,182	-0,180
210,334	288,256	-0,146	-0,184
211,348	417,071	-0,148	-0,220
212,363	195,842	-0,217	-0,229
213,377	199,744	-0,164	-0,175
214,392	-168,360	-0,163	-0,004
215,407	204,041	-0,092	-0,099
216,421	-5,435	-0,141	-0,067
217,436	96,145	-0,183	-0,145
218,450	48,216	-0,310	-0,201
219,465	-16,621	-0,207	-0,091
220,480	7,763	-0,307	-0,159
221,494	183,377	-0,214	-0,220
222,509	-162,621	-0,137	-0,005
223,523	-81,749	-0,167	-0,038
224,538	11,998	-0,214	-0,114
225,553	497,306	-0,155	-0,249
226,567	797,120	-0,097	-0,185
227,582	201,941	-0,247	-0,264
228,596	2,213	-0,187	-0,093
229,611	-200,000	-0,218	-0,001
230,626	-46,156	-0,184	-0,062
231,640	374,280	-0,210	-0,297
232,655	260,203	-0,206	-0,247
233,669	-70,547	-0,290	-0,076
234,684	104,252	-0,182	-0,148
235,699	166,084	-0,181	-0,177
236,713	116,817	-0,175	-0,149
237,728	117,104	-0,147	-0,125
238,742	108,251	-0,243	-0,201
239,757	267,510	-0,249	-0,302
240,772	353,023	-0,130	-0,179
241,786	-200,000	-0,104	-0,348
242,801	159,865	-0,253	-0,244
243,815	-200,000	-0,013	-0,097
244,830	381,702	-0,095	-0,135
245,844	280,043	-0,067	-0,083
246,859	-36,643	-0,169	0,062
247,874	-74,747	-0,099	-0,024
248,888	145,467	-0,318	-0,294
249,903	157,215	-0,134	-0,128
250,917	-95,430	-0,191	-0,035
251,932	402,519	-0,065	-0,094
252,947	-165,342	-0,154	-0,005
253,961	91,688	-0,162	-0,126
254,976	5,262	-0,181	-0,092
255,990	-135,729	-0,211	-0,017
257,005	-9,926	-0,069	-0,031
258,020	53,417	-0,194	-0,129
259,034	134,244	-0,147	-0,132
260,049	-21,011	-0,214	-0,090
261,063	222,611	-0,151	-0,168
262,078	-137,487	-0,265	0,020
263,093	156,310	-0,203	-0,193
264,107	242,843	-0,164	-0,190
265,122	-70,809	-0,144	-0,037
266,136	144,981	-0,157	-0,145
267,151	-33,326	-0,155	-0,059
268,166	-38,569	-0,155	-0,056
269,180	-88,642	-0,165	-0,034
270,195	514,276	-0,092	-0,148
271,209	40,314	-0,130	-0,081
272,224	-126,942	-0,052	-0,005
273,239	-38,617	-0,148	-0,054
274,253	-102,345	-0,125	-0,021
275,268	-120,884	-0,129	0,015
276,282	13,539	-0,116	-0,062
277,297	199,671	-0,223	-0,236
278,312	415,470	-0,115	-0,170
279,326	328,866	-0,054	-0,072
280,341	546,377	-0,105	-0,173
281,355	196,334	-0,173	-0,181
282,370	-112,373	-0,201	-0,027
283,384	86,714	-0,272	-0,206
284,399	154,435	-0,148	-0,140
285,414	85,787	-0,121	-0,092
286,428	20,737	-0,088	-0,049
287,443	-27,521	-0,100	-0,040
288,457	89,267	-0,046	-0,035
289,472	-200,000	-0,059	-0,195
290,487	-41,439	-0,229	-0,081
291,501	-41,394	-0,138	-0,049
292,516	-84,601	-0,270	-0,058
293,530	-13,506	-0,142	-0,063
294,545	35,448	-0,149	-0,090
295,560	-41,243	-0,146	-0,052
296,574	101,606	-0,109	-0,087
297,589	703,758	-0,201	-0,367
298,603	6,944	-0,248	-0,127
299,618	43,707	-0,091	-0,057
300,633	77,730	-0,170	-0,125
301,647	-118,707	-0,135	0,016
302,662	8,056	-0,055	-0,028
303,676	45,610	-0,079	-0,050
304,691	-148,854	-0,145	-0,008
305,706	285,511	-0,167	-0,207
306,720	31,397	-0,165	-0,097
307,735	-116,866	-0,155	0,019
308,749	111,275	-0,100	-0,083
309,764	442,110	-0,126	-0,191
310,779	-200,000	-0,028	-0,122
311,793	88,933	-0,154	-0,117
312,808	135,095	-0,041	-0,037
313,822	-28,383	-0,159	-0,063
314,837	800,000	-0,078	-0,225
315,852	-80,028	-0,199	-0,046
316,866	24,265	-0,077	-0,044
317,881	800,000	-0,126	-0,277
318,895	-200,000	-0,049	-0,185
319,910	800,000	-0,070	-0,208
320,925	238,777	-0,176	-0,201
321,939	202,194	-0,155	-0,164
322,954	-84,990	-0,156	-0,033
323,968	-200,000	-0,005	-0,056
324,983	457,435	-0,071	-0,109
325,997	-132,639	-0,227	-0,020
327,012	8,960	-0,131	-0,068
328,027	287,802	-0,216	-0,269
329,041	52,316	-0,114	-0,075
330,056	268,414	-0,031	-0,037
331,070	-22,466	-0,102	0,042
332,085	-200,000	-0,002	-0,111
333,100	-200,000	-0,104	0,000
334,114	-30,139	-0,190	-0,074
335,129	70,179	-0,259	-0,183
336,143	126,917	-0,235	-0,204
337,158	-76,555	-0,171	-0,041
338,173	73,674	-0,180	-0,129
339,187	178,259	-0,084	-0,084
340,202	180,774	-0,177	-0,178
341,216	681,948	-0,164	-0,294
342,231	110,018	-0,215	-0,177
343,246	535,810	-0,132	-0,215
344,260	-61,143	-0,082	-0,024
345,275	-53,123	-0,165	-0,052
346,289	710,694	-0,076	-0,138
347,304	471,718	-0,061	-0,094
348,319	-142,103	-0,180	0,012
349,333	267,279	-0,107	-0,128
350,348	-133,032	-0,153	-0,013
351,362	210,376	-0,108	-0,116
352,377	800,000	-0,036	-0,098
353,392	-200,000	0,007	0,031
354,406	-27,717	-0,195	-0,077
355,421	207,686	1311,423	1403,374
356,435	159,777	1471,738	1403,869
