DTS Sentinel unit serial number:	SN410029Multiplexer serial number:	ORYXHardware model number:	OX2-SRSoftware version number:	ORYX F/W v4,00 Oryx Data Collector v3.7.2.0data status	okinstallation	B3 Nyhavnadifferential loss correction	single-endedforward channel	channel 1reverse channel	N/Adate	2023/11/30time	12:42:30forward acquisition time	300,00reverse acquisition time	0,00gamma	499,1914k internal	0,3213k external	0,3213temperature offset calibration	1,0000default loss term (dB/km)	0,3820temperature slope calibration	1,0000multiplexer offset coefficient	1,0000multiplexer slope coefficient	1,0000fibre end	0,00T internal ref (°C)	9,87T ext. ref 1 (°C)	-4,13T ext. ref 2 (°C)	-4,20length (m)	temperature (°C)	Stokes	anti-Stokes-744,400	145,399	-0,164	-0,159
-743,385	-200,000	-0,060	0,240
-742,371	371,111	-0,157	-0,232
-741,356	-200,000	0,043	0,327
-740,342	213,140	-0,123	-0,141
-739,327	-200,000	0,045	0,247
-738,312	189,144	-0,193	-0,210
-737,298	800,000	-0,138	0,379
-736,283	1,117	-0,148	-0,077
-735,269	-200,000	0,041	0,271
-734,254	678,836	-0,108	-0,204
-733,239	-33,506	-0,179	0,071
-732,225	800,000	-0,098	-0,301
-731,210	88,790	0,131	0,105
-730,196	298,459	-0,115	0,153
-729,181	428,480	0,022	-0,035
-728,167	800,000	-0,054	-0,132
-727,152	659,709	-0,040	-0,074
-726,137	491,420	-0,064	0,106
-725,123	10,791	-0,160	-0,088
-724,108	-62,255	-0,230	-0,069
-723,094	-172,621	-0,170	-0,004
-722,079	-151,118	-0,229	-0,012
-721,064	-42,571	-0,142	0,052
-720,050	121,196	0,036	-0,033
-719,035	318,969	-0,022	0,030
-718,021	6,269	0,058	-0,031
-717,006	-150,823	-0,030	-0,002
-715,991	21,632	-0,196	-0,115
-714,977	-200,000	-0,011	-0,104
-713,962	-200,000	-0,024	0,094
-712,948	627,245	0,051	-0,094
-711,933	152,679	-0,080	0,079
-710,918	-200,000	0,005	0,024
-709,904	12,071	-0,190	-0,105
-708,889	800,000	0,056	-0,128
-707,875	800,000	-0,049	-0,117
-706,860	290,449	-0,038	0,050
-705,845	220,117	-0,053	-0,062
-704,831	66,228	0,126	0,092
-703,816	148,209	-0,104	-0,102
-702,802	-200,000	0,000	-0,060
-701,787	18,288	-0,171	-0,099
-700,772	-108,398	0,053	0,008
-699,758	32,026	-0,124	-0,077
-698,743	800,000	0,039	-0,086
-697,729	-200,000	-0,006	-0,022
-696,714	-200,000	0,014	0,045
-695,699	275,307	0,065	-0,083
-694,685	-200,000	0,002	-0,024
-693,670	-6,362	-0,122	-0,060
-692,656	44,255	-0,057	-0,038
-691,641	100,006	0,082	0,069
-690,627	-126,760	0,079	0,008
-689,612	280,438	-0,030	0,039
-688,597	-112,923	-0,080	-0,011
-687,583	-200,000	0,015	-0,151
-686,568	-200,000	-0,008	-0,084
-685,554	-200,000	-0,016	0,114
-684,539	153,791	0,055	-0,055
-683,524	-200,000	0,015	0,197
-682,510	-168,262	-0,070	0,002
-681,495	45,581	-0,099	-0,066
-680,481	-200,000	-0,028	-0,132
-679,466	-50,583	0,067	-0,023
-678,451	270,694	0,036	0,046
-677,437	-200,000	0,094	0,000
-676,422	226,879	0,118	-0,138
-675,408	23,345	-0,053	-0,031
-674,393	-99,644	-0,056	-0,010
-673,378	316,465	-0,023	-0,032
-672,364	-58,202	-0,083	-0,026
-671,349	-200,000	-0,002	0,093
-670,335	206,580	0,016	0,019
-669,320	-57,129	0,125	-0,040
-668,305	231,485	-0,059	-0,070
-667,291	59,443	-0,064	0,046
-666,276	-200,000	0,014	-0,085
-665,262	174,532	-0,098	-0,103
-664,247	-126,465	-0,148	0,016
-663,232	800,000	0,058	0,142
-662,218	668,109	-0,029	-0,054
-661,203	800,000	0,044	-0,135
-660,189	-139,864	-0,050	0,004
-659,174	51,216	-0,123	0,084
-658,159	-200,000	-0,008	-0,069
-657,145	-143,367	-0,185	0,013
-656,130	108,804	0,090	-0,078
-655,116	-135,763	-0,095	0,008
-654,101	-200,000	0,011	0,078
-653,086	-75,052	-0,101	0,026
-652,072	-145,462	-0,009	-0,001
-651,057	-200,000	-0,018	-0,072
-650,043	-28,771	-0,120	-0,050
-649,028	-125,775	-0,026	-0,003
-648,014	423,391	0,097	-0,151
-646,999	800,000	0,057	-0,127
-645,984	-55,752	0,232	0,074
-644,970	683,593	-0,016	0,031
-643,955	-13,369	0,027	0,013
-642,941	-107,542	-0,165	-0,026
-641,926	3,456	-0,034	0,018
-640,911	317,988	0,101	0,139
-639,897	225,762	0,032	0,037
-638,882	-69,652	0,056	-0,015
-637,868	800,000	0,019	-0,055
-636,853	377,645	0,088	-0,130
-635,838	-13,906	-0,078	-0,036
-634,824	75,939	-0,099	0,075
-633,809	17,190	0,104	-0,060
-632,795	-32,087	0,119	-0,048
-631,780	-111,723	-0,137	-0,020
-630,765	-200,000	-0,025	-0,149
-629,751	-200,000	-0,007	-0,071
-628,736	274,441	0,060	-0,076
-627,722	26,747	-0,153	-0,092
-626,707	-200,000	-0,010	-0,125
-625,692	290,143	0,090	0,118
-624,678	-25,645	-0,068	0,029
-623,663	800,000	0,012	0,030
-622,649	-12,916	-0,015	-0,007
-621,634	-200,000	0,056	-0,188
-620,619	-78,922	-0,071	-0,017
-619,605	-83,472	0,041	0,009
-618,590	-192,406	-0,127	0,001
-617,576	-200,000	-0,003	-0,036
-616,561	-26,761	0,030	-0,012
-615,546	-200,000	0,007	-0,040
-614,532	800,000	-0,033	-0,073
-613,517	-200,000	-0,045	-0,145
-612,503	150,528	0,044	-0,043
-611,488	287,411	0,102	-0,134
-610,474	328,410	0,028	-0,039
-609,459	233,816	-0,054	0,065
-608,444	-105,792	-0,046	-0,007
-607,430	-200,000	-0,009	-0,041
-606,415	22,537	-0,069	-0,040
-605,401	123,735	-0,041	-0,037
-604,386	21,041	0,097	-0,056
-603,371	-164,828	0,136	0,004
-602,357	-200,000	-0,008	-0,045
-601,342	155,276	-0,121	0,120
-600,328	-200,000	0,019	-0,082
-599,313	-200,000	-0,035	-0,125
-598,298	-7,711	0,029	-0,014
-597,284	27,864	-0,060	-0,036
-596,269	-139,088	0,110	-0,008
-595,255	-200,000	0,009	0,121
-594,240	283,029	-0,127	0,164
-593,225	800,000	-0,013	0,035
-592,211	800,000	-0,031	-0,072
-591,196	62,015	-0,018	-0,013
-590,182	800,000	0,016	0,032
-589,167	211,325	-0,076	0,087
-588,152	496,098	0,093	0,155
-587,138	175,034	-0,038	0,039
-586,123	-40,791	-0,042	0,016
-585,109	800,000	-0,038	-0,077
-584,094	36,484	-0,063	0,040
-583,079	800,000	-0,015	-0,035
-582,065	-200,000	0,006	0,055
-581,050	-56,785	0,128	0,040
-580,036	194,043	-0,119	0,130
-579,021	-200,000	0,006	-0,023
-578,006	-200,000	-0,025	-0,095
-576,992	-81,439	0,025	-0,006
-575,977	-200,000	0,004	0,025
-574,963	-107,046	-0,086	0,014
-573,948	-136,763	0,114	-0,009
-572,934	-101,521	-0,194	-0,034
-571,919	-24,183	0,070	-0,030
-570,904	-93,004	-0,137	-0,027
-569,890	-200,000	-0,016	0,090
-568,875	344,715	-0,045	0,064
-567,861	-115,698	0,039	0,005
-566,846	-38,825	0,108	-0,041
-565,831	-200,000	0,002	-0,122
-564,817	550,877	-0,122	-0,211
-563,802	-51,389	-0,068	-0,023
-562,788	776,762	0,043	0,086
-561,773	9,491	0,032	-0,018
-560,758	800,000	0,034	-0,069
-559,744	-200,000	0,014	-0,064
-558,729	-25,646	-0,072	-0,030
-557,715	100,562	-0,132	-0,110
-556,700	66,842	0,070	-0,051
-555,685	153,170	-0,048	0,047
-554,671	-200,000	0,000	-0,018
-553,656	-200,000	-0,000	0,043
-552,642	-97,504	0,080	0,015
-551,627	138,654	-0,078	0,074
-550,612	-85,415	0,038	-0,008
-549,598	132,581	-0,131	-0,121
-548,583	800,000	-0,013	-0,032
-547,569	30,442	-0,118	0,072
-546,554	134,618	0,039	-0,037
-545,539	60,800	0,104	-0,074
-544,525	181,291	-0,139	0,147
-543,510	126,298	-0,076	0,069
-542,496	-36,606	-0,114	0,044
-541,481	1,526	-0,262	-0,135
-540,466	-200,000	-0,034	-0,167
-539,452	372,986	0,112	0,165
-538,437	20,603	0,181	0,105
-537,423	-124,639	-0,043	0,005
-536,408	123,390	-0,033	-0,030
-535,393	-180,051	-0,194	0,003
-534,379	18,025	0,097	-0,055
-533,364	99,151	0,053	-0,044
-532,350	492,694	-0,044	-0,073
-531,335	-200,000	0,018	0,100
-530,321	-101,434	-0,023	-0,004
-529,306	-200,000	0,006	-0,189
-528,291	9,750	-0,106	-0,057
-527,277	247,170	-0,077	-0,094
-526,262	-119,675	0,127	0,016
-525,248	-8,604	0,042	-0,020
-524,233	-81,584	0,093	0,022
-523,218	166,326	-0,135	0,137
-522,204	-200,000	-0,004	-0,041
-521,189	-66,585	-0,064	-0,018
-520,175	-189,890	-0,043	-0,000
-519,160	-87,000	-0,091	0,020
-518,145	122,902	0,066	0,059
-517,131	800,000	0,047	0,097
-516,116	-200,000	0,022	-0,145
-515,102	742,546	-0,028	-0,055
-514,087	-200,000	-0,007	0,030
-513,072	16,399	0,131	-0,074
-512,058	-200,000	0,008	-0,052
-511,043	800,000	-0,038	-0,082
-510,029	-45,929	-0,051	-0,018
-509,014	-31,600	-0,044	0,018
-507,999	-200,000	0,012	-0,078
-506,985	-54,786	-0,185	-0,060
-505,970	68,510	-0,005	-0,004
-504,956	-200,000	-0,026	-0,265
-503,941	-200,000	0,007	0,143
-502,926	-200,000	-0,005	-0,098
-501,912	-200,000	0,005	0,097
-500,897	80,387	0,066	0,051
-499,883	93,602	-0,028	0,023
-498,868	-200,000	-0,012	-0,155
-497,853	800,000	0,029	-0,070
-496,839	583,461	-0,064	0,113
-495,824	-54,770	0,077	0,025
-494,810	157,723	0,087	-0,087
-493,795	305,196	-0,028	0,037
-492,781	-200,000	0,016	0,077
-491,766	142,340	0,049	-0,047
-490,751	429,840	0,018	0,028
-489,737	-51,604	0,065	0,022
-488,722	10,874	0,119	-0,065
-487,708	800,000	-0,059	0,136
-486,693	-165,224	0,081	-0,003
-485,678	-200,000	0,022	0,116
-484,664	7,488	-0,073	-0,039
-483,649	-103,270	0,153	0,026
-482,635	-200,000	0,002	0,084
-481,620	195,230	0,091	0,099
-480,605	800,000	-0,019	-0,053
-479,591	-86,307	0,006	-0,001
-478,576	-90,528	0,064	0,013
-477,562	136,665	-0,093	-0,087
-476,547	800,000	-0,012	-0,026
-475,532	91,772	-0,058	-0,047
-474,518	-97,625	-0,054	0,010
-473,503	800,000	0,027	0,068
-472,489	43,246	0,092	0,060
-471,474	-200,000	-0,006	0,079
-470,459	-27,927	0,150	0,062
-469,445	-200,000	-0,003	0,090
-468,430	800,000	-0,027	0,075
-467,416	-200,000	0,014	0,121
-466,401	120,923	0,046	0,041
-465,386	201,437	0,044	-0,048
-464,372	-32,335	-0,109	0,043
-463,357	280,055	-0,114	-0,146
-462,343	-29,929	0,063	0,026
-461,328	173,982	-0,062	-0,064
-460,313	44,128	-0,019	0,013
-459,299	310,908	0,123	0,166
-458,284	112,254	0,029	-0,025
-457,270	561,844	-0,027	-0,048
-456,255	-21,592	-0,022	-0,010
-455,241	-200,000	0,010	-0,066
-454,226	-148,255	0,149	-0,009
-453,211	418,333	0,090	0,138
-452,197	278,932	-0,046	0,059
-451,182	101,951	0,096	0,081
-450,168	219,127	-0,111	0,127
-449,153	-56,077	0,031	-0,010
-448,138	800,000	-0,046	-0,141
-447,124	-200,000	-0,031	-0,149
-446,109	45,995	0,054	-0,036
-445,095	-200,000	-0,011	-0,042
-444,080	276,876	0,046	0,059
-443,065	105,860	-0,028	0,024
-442,051	800,000	-0,060	-0,139
-441,036	-200,000	0,007	-0,055
-440,022	-29,530	-0,018	-0,007
-439,007	791,603	0,080	0,159
-437,992	800,000	-0,006	0,015
-436,978	222,700	-0,007	-0,009
-435,963	-200,000	0,002	0,063
-434,949	-43,184	0,045	0,016
-433,934	-98,541	0,023	-0,004
-432,919	-176,897	-0,030	0,001
-431,905	-200,000	-0,003	0,086
-430,890	20,448	0,154	0,089
-429,876	-200,000	-0,006	0,059
-428,861	562,731	-0,058	0,102
-427,846	35,712	0,071	0,045
-426,832	61,091	-0,140	-0,099
-425,817	-200,000	0,008	-0,102
-424,803	90,205	-0,051	-0,041
-423,788	-200,000	0,002	0,027
-422,773	-200,000	-0,011	0,080
-421,759	38,026	0,153	-0,097
-420,744	153,523	-0,082	0,080
-419,730	354,446	-0,034	0,049
-418,715	-200,000	-0,001	0,018
-417,701	-44,163	0,205	-0,073
-416,686	-200,000	0,001	0,133
-415,671	59,066	0,109	0,077
-414,657	-200,000	0,013	0,059
-413,642	-200,000	-0,024	-0,132
-412,628	686,131	0,031	0,058
-411,613	101,524	-0,129	-0,108
-410,598	692,999	-0,035	0,067
-409,584	85,474	-0,046	-0,036
-408,569	468,605	0,076	-0,122
-407,555	-34,084	-0,055	0,022
-406,540	680,053	0,042	0,078
-405,525	-59,614	-0,058	0,018
-404,511	-99,205	-0,158	-0,028
-403,496	-200,000	-0,016	0,072
-402,482	-200,000	0,006	0,036
-401,467	172,257	0,045	0,047
-400,452	323,717	0,108	0,148
-399,438	-200,000	-0,010	0,054
-398,423	563,896	0,029	0,050
-397,409	511,830	-0,058	-0,097
-396,394	170,640	-0,072	-0,074
-395,379	-200,000	0,092	-0,000
-394,365	800,000	0,014	0,038
-393,350	-200,000	0,022	0,088
-392,336	-176,272	0,101	-0,002
-391,321	222,355	0,030	-0,035
-390,306	-4,603	-0,159	-0,078
-389,292	23,536	0,043	0,025
-388,277	130,709	0,077	-0,071
-387,263	351,471	-0,031	-0,043
-386,248	-179,101	0,082	0,001
-385,233	800,000	-0,033	0,086
-384,219	-200,000	-0,028	0,105
-383,204	-58,107	-0,117	0,036
-382,190	-200,000	-0,001	0,065
-381,175	108,039	0,059	0,051
-380,160	800,000	0,029	0,080
-379,146	-200,000	0,004	0,060
-378,131	-200,000	-0,013	0,064
-377,117	-14,076	0,040	-0,018
-376,102	-41,926	-0,053	-0,019
-375,088	175,354	0,075	0,078
-374,073	308,039	-0,062	0,083
-373,058	528,442	0,090	0,152
-372,044	-200,000	-0,011	0,109
-371,029	-200,000	0,005	0,063
-370,015	-179,684	0,030	-0,000
-369,000	755,683	-0,045	-0,088
-367,985	-65,421	0,078	-0,022
-366,971	-200,000	-0,011	-0,077
-365,956	-26,217	0,003	-0,001
-364,942	-200,000	0,024	0,087
-363,927	19,160	0,076	0,043
-362,912	-106,280	0,103	0,016
-361,898	120,164	-0,014	0,012
-360,883	-200,000	0,004	-0,023
-359,869	-200,000	0,007	-0,038
-358,854	256,113	-0,051	0,063
-357,839	689,540	0,062	0,117
-356,825	247,761	-0,072	0,086
-355,810	-6,212	0,086	0,042
-354,796	134,249	0,071	-0,066
-353,781	272,693	0,133	-0,168
-352,766	345,013	0,036	-0,050
-351,752	364,646	-0,010	-0,015
-350,737	304,663	0,059	0,079
-349,723	122,772	-0,055	0,049
-348,708	10,007	-0,100	-0,054
-347,693	800,000	-0,030	-0,072
-346,679	-200,000	0,021	-0,109
-345,664	-109,400	0,077	0,011
-344,650	26,400	-0,077	0,046
-343,635	24,999	0,131	0,077
-342,620	-200,000	0,005	0,080
-341,606	-200,000	0,045	0,000
-340,591	-200,000	-0,007	-0,176
-339,577	-18,608	-0,150	-0,067
-338,562	346,815	-0,068	0,096
-337,548	-141,418	-0,147	-0,010
-336,533	356,990	0,023	0,032
-335,518	35,941	0,069	0,043
-334,504	34,822	0,063	0,039
-333,489	182,811	-0,124	-0,131
-332,475	-152,127	-0,053	0,003
-331,460	227,020	-0,098	-0,114
-330,445	-81,155	-0,047	0,011
-329,431	201,608	0,075	-0,083
-328,416	-87,645	0,122	0,026
-327,402	-74,247	0,046	0,012
-326,387	-98,881	-0,114	-0,020
-325,372	800,000	0,042	0,110
-324,358	-120,229	-0,110	0,013
-323,343	704,243	-0,052	-0,099
-322,329	-22,222	0,128	0,055
-321,314	181,427	0,036	-0,038
-320,299	-187,578	-0,085	-0,001
-319,285	-200,000	-0,039	0,128
-318,270	241,879	0,124	-0,148
-317,256	17,257	-0,125	-0,071
-316,241	800,000	-0,027	0,073
-315,226	284,634	0,122	-0,157
-314,212	252,615	0,021	-0,026
-313,197	-111,580	0,157	-0,022
-312,183	-200,000	0,007	-0,099
-311,168	-84,218	-0,166	0,037
-310,153	-200,000	0,007	-0,100
-309,139	143,544	0,052	-0,049
-308,124	-61,484	0,086	-0,026
-307,110	-200,000	0,017	0,117
-306,095	15,893	-0,051	-0,029
-305,080	-23,464	0,085	0,036
-304,066	-41,216	-0,177	0,065
-303,051	-200,000	-0,007	-0,037
-302,037	6,748	-0,057	-0,030
-301,022	-200,000	0,020	-0,110
-300,008	-65,924	0,071	0,020
-298,993	-200,000	-0,018	0,129
-297,978	7,655	0,082	0,044
-296,964	-155,374	-0,072	-0,003
-295,949	-200,000	-0,006	0,033
-294,935	346,908	-0,086	0,120
-293,920	-200,000	-0,012	0,077
-292,905	131,951	0,081	0,074
-291,891	-200,000	-0,029	0,135
-290,876	-200,000	-0,007	-0,023
-289,862	800,000	-0,055	0,117
-288,847	227,100	-0,085	-0,099
-287,832	-142,523	-0,070	0,005
-286,818	424,930	-0,031	-0,048
-285,803	-155,059	0,039	0,002
-284,789	24,905	-0,171	0,101
-283,774	11,943	0,059	-0,032
-282,759	339,937	0,040	-0,055
-281,745	-75,694	0,019	0,005
-280,730	800,000	-0,017	0,035
-279,716	-200,000	-0,013	0,106
-278,701	707,922	-0,085	0,160
-277,686	-0,964	0,056	0,028
-276,672	-200,000	-0,013	-0,041
-275,657	-94,907	0,058	-0,011
-274,643	-102,218	-0,024	0,004
-273,628	-73,696	-0,024	-0,006
-272,613	-18,043	-0,091	0,040
-271,599	419,571	0,031	0,047
-270,584	-107,050	0,093	-0,014
-269,570	41,637	0,094	-0,060
-268,555	433,247	0,061	-0,095
-267,540	-37,855	0,104	0,039
-266,526	-53,834	0,116	-0,037
-265,511	-90,000	0,101	-0,021
-264,497	-200,000	0,003	-0,023
-263,482	206,116	0,024	-0,026
-262,467	621,373	0,062	-0,112
-261,453	-200,000	0,005	0,076
-260,438	170,858	-0,090	-0,092
-259,424	800,000	-0,099	-0,197
-258,409	-83,389	0,044	-0,010
-257,395	-200,000	-0,008	0,068
-256,380	-200,000	0,003	0,029
-255,365	-82,861	0,106	-0,024
-254,351	-98,623	0,035	0,006
-253,336	-200,000	-0,015	-0,115
-252,322	800,000	-0,080	-0,180
-251,307	265,197	0,034	0,042
-250,292	-79,131	-0,067	0,016
-249,278	-180,842	0,090	0,001
-248,263	-102,122	-0,146	0,025
-247,249	-200,000	-0,008	0,065
-246,234	800,000	-0,050	-0,117
-245,219	46,656	-0,039	0,026
-244,205	-105,878	-0,067	-0,011
-243,190	-34,151	0,133	0,052
-242,176	-200,000	0,008	0,032
-241,161	800,000	0,027	0,054
-240,146	-200,000	0,004	0,081
-239,132	-100,795	0,145	-0,025
-238,117	112,873	-0,072	-0,062
-237,103	-37,884	-0,076	0,029
-236,088	160,579	0,019	-0,018
-235,073	800,000	-0,019	0,047
-234,059	-29,574	0,104	0,042
-233,044	-200,000	-0,003	-0,051
-232,030	249,075	0,103	0,124
-231,015	800,000	-0,004	-0,010
-230,000	231,324	-0,113	-0,132
-228,986	96,264	-0,068	-0,055
-227,971	-46,637	-0,081	-0,028
-226,957	74,843	-0,040	0,030
-225,942	82,681	0,108	0,083
-224,927	259,186	-0,060	0,074
-223,913	349,501	-0,090	-0,127
-222,898	-159,549	-0,139	0,005
-221,884	113,710	-0,149	0,129
-220,869	-200,000	-0,003	0,070
-219,855	-99,935	0,090	0,016
-218,840	-172,642	0,063	0,001
-217,825	0,019	0,156	-0,078
-216,811	800,000	0,028	0,068
-215,796	47,497	-0,112	-0,074
-214,782	456,371	0,026	-0,041
-213,767	12,203	0,083	0,045
-212,752	-200,000	-0,009	-0,148
-211,738	21,108	-0,085	0,049
-210,723	79,330	0,070	0,053
-209,709	-200,000	-0,049	-0,158
-208,694	-200,000	0,027	-0,112
-207,679	323,910	-0,064	-0,086
-206,665	-184,837	0,012	-0,000
-205,650	42,556	0,077	-0,050
-204,636	80,417	0,071	-0,054
-203,621	-200,000	-0,006	0,154
-202,606	467,134	-0,074	-0,118
-201,592	-200,000	0,012	0,048
-200,577	-93,572	-0,102	0,020
-199,563	79,161	0,014	0,011
-198,548	-200,000	0,023	0,118
-197,533	102,417	0,035	0,029
-196,519	-0,394	-0,095	0,048
-195,504	382,116	0,016	-0,023
-194,490	-115,449	-0,171	-0,023
-193,475	-200,000	0,006	0,039
-192,460	154,994	0,043	0,042
-191,446	114,433	0,088	0,076
-190,431	350,836	-0,071	0,099
-189,417	-200,000	-0,016	0,099
-188,402	800,000	0,025	-0,063
-187,387	-174,269	-0,048	0,001
-186,373	800,000	-0,049	-0,153
-185,358	-113,737	0,106	0,014
-184,344	-200,000	0,035	0,134
-183,329	203,421	0,103	0,113
-182,315	58,440	0,052	0,036
-181,300	432,433	-0,029	0,045
-180,285	646,733	0,026	0,048
-179,271	-200,000	-0,006	-0,099
-178,256	406,982	-0,050	-0,075
-177,242	-33,398	0,063	0,024
-176,227	800,000	-0,039	-0,104
-175,212	-200,000	0,004	-0,025
-174,198	275,417	0,032	-0,041
-173,183	-95,736	-0,081	0,015
-172,169	-106,398	0,046	-0,007
-171,154	-200,000	-0,009	-0,041
-170,139	800,000	-0,013	0,038
-169,125	-0,432	0,027	-0,014
-168,110	800,000	0,037	0,101
-167,096	156,223	-0,062	0,061
-166,081	254,309	-0,039	-0,047
-165,066	145,679	-0,123	-0,117
-164,052	183,854	0,092	-0,096
-163,037	-200,000	0,042	0,133
-162,023	22,102	0,077	0,045
-161,008	-79,652	-0,064	-0,015
-159,993	-200,000	0,013	0,090
-158,979	-200,000	-0,001	-0,092
-157,964	128,747	0,079	0,071
-156,950	182,054	0,036	-0,037
-155,935	651,732	-0,077	0,140
-154,920	286,315	-0,052	0,067
-153,906	-95,631	0,129	0,024
-152,891	558,054	0,034	-0,058
-151,877	333,069	0,037	-0,050
-150,862	103,772	-0,092	-0,077
-149,847	800,000	0,040	-0,090
-148,833	800,000	0,022	-0,051
-147,818	-48,910	0,025	0,008
-146,804	800,000	-0,029	0,059
-145,789	-168,527	0,083	-0,002
-144,775	-59,312	0,102	-0,031
-143,760	-200,000	-0,009	-0,042
-142,745	-52,562	-0,084	-0,027
-141,731	336,394	-0,036	-0,050
-140,716	18,586	0,177	0,100
-139,702	-200,000	0,006	-0,020
-138,687	800,000	0,040	-0,120
-137,672	-200,000	-0,013	0,122
-136,658	-54,835	-0,098	0,031
-135,643	-200,000	-0,054	-0,173
-134,629	-200,000	0,004	0,063
-133,614	-72,692	0,092	-0,024
-132,599	210,556	0,009	-0,010
-131,585	-200,000	-0,017	-0,166
-130,570	14,272	-0,050	-0,028
-129,556	-88,693	-0,037	-0,008
-128,541	107,852	0,071	-0,060
-127,526	-200,000	-0,043	-0,187
-126,512	5,367	0,152	-0,079
-125,497	800,000	-0,026	0,053
-124,483	-200,000	-0,000	0,105
-123,468	-37,450	0,144	0,054
-122,453	-82,580	0,061	0,014
-121,439	511,557	0,028	-0,047
-120,424	-200,000	-0,020	-0,065
-119,410	-200,000	-0,015	-0,095
-118,395	-36,719	0,105	0,040
-117,380	-200,000	0,035	-0,147
-116,366	332,904	0,067	-0,092
-115,351	81,514	-0,034	-0,026
-114,337	83,498	0,114	0,088
-113,322	326,449	-0,056	-0,076
-112,307	-91,762	-0,094	-0,019
-111,293	217,626	-0,070	-0,079
-110,278	-17,237	0,041	0,018
-109,264	-200,000	-0,022	-0,082
-108,249	800,000	-0,063	0,136
-107,234	134,673	-0,050	-0,046
-106,220	-55,470	-0,100	0,032
-105,205	168,279	0,056	-0,056
-104,191	-200,000	-0,006	-0,049
-103,176	-27,099	-0,028	-0,011
-102,162	-118,835	0,023	0,003
-101,147	66,908	-0,074	0,053
-100,132	800,000	-0,027	-0,063
-99,118	-58,912	-0,119	-0,036
-98,103	218,556	0,047	0,053
-97,089	-200,000	0,001	0,107
-96,074	303,964	0,111	-0,146
-95,059	800,000	-0,038	-0,079
-94,045	-23,536	0,069	-0,029
-93,030	-177,639	-0,127	0,002
-92,016	800,000	0,014	-0,039
-91,001	638,228	0,045	0,081
-89,986	-200,000	0,004	-0,014
-88,972	800,000	0,040	0,124
-87,957	129,629	0,065	0,059
-86,943	-116,989	0,055	-0,007
-85,928	-77,679	-0,043	-0,010
-84,913	235,073	-0,076	0,089
-83,899	800,000	-0,019	0,038
-82,884	34,468	0,019	0,012
-81,870	-200,000	0,018	0,080
-80,855	140,447	-0,063	-0,059
-79,840	-200,000	-0,018	-0,089
-78,826	-200,000	-0,007	0,049
-77,811	557,114	-0,080	-0,136
-76,797	101,517	0,066	0,054
-75,782	-91,885	0,131	0,026
-74,767	202,546	0,049	0,053
-73,753	-200,000	0,001	0,159
-72,738	-25,940	0,177	-0,073
-71,724	66,548	-0,103	-0,074
-70,709	-200,000	0,010	-0,131
-69,694	-200,000	-0,003	-0,093
-68,680	113,553	-0,033	-0,028
-67,665	-200,000	0,004	-0,086
-66,651	-23,419	-0,118	0,050
-65,636	-16,442	0,071	-0,032
-64,622	63,912	-0,106	-0,075
-63,607	201,532	-0,074	-0,081
-62,592	800,000	-0,056	0,140
-61,578	-200,000	-0,014	-0,058
-60,563	-200,000	0,018	-0,080
-59,549	399,483	-0,108	0,160
-58,534	22,608	-2,089	-1,203
-57,519	583,005	-1,166	-2,028
-56,505	-200,000	-0,430	-4,453
-55,490	564,545	0,884	1,517
-54,476	800,000	5,014	11,218
-53,461	-200,000	21,481	344,114
-52,446	800,000	762,277	2366,297
-51,432	559,029	1664,889	2845,696
-50,417	73,329	1662,239	1225,415
-49,403	17,757	1535,639	859,673
-48,388	11,711	1459,054	787,552
-47,373	19,607	1450,304	820,683
-46,359	15,336	1439,301	794,127
-45,344	9,976	1435,331	766,384
-44,330	9,933	1433,287	765,054
-43,315	9,918	1431,660	764,085
-42,300	9,907	1429,955	763,090
-41,286	9,943	1428,645	762,532
-40,271	9,937	1427,372	761,796
-39,257	9,929	1426,308	761,159
-38,242	9,944	1425,300	760,664
-37,227	9,930	1424,118	759,937
-36,213	9,946	1422,859	759,309
-35,198	9,981	1421,295	758,610
-34,184	9,995	1420,469	758,203
-33,169	9,850	1419,380	756,907
-32,154	9,986	1418,249	756,916
-31,140	9,943	1416,994	756,014
-30,125	10,011	1415,741	755,635
-29,111	9,971	1414,508	754,762
-28,096	9,923	1413,659	754,050
-27,082	9,910	1412,204	753,183
-26,067	9,879	1411,302	752,527
-25,052	9,900	1410,397	752,116
-24,038	9,896	1409,317	751,492
-23,023	9,870	1408,401	750,848
-22,009	9,878	1407,399	750,323
-20,994	9,898	1406,243	749,768
-19,979	9,909	1405,467	749,376
-18,965	9,882	1404,517	748,717
-17,950	9,874	1403,634	748,179
-16,936	9,829	1402,772	747,478
-15,921	9,780	1401,966	746,794
-14,906	9,786	1400,985	746,269
-13,892	9,877	1399,736	745,997
-12,877	9,805	1399,152	745,320
-11,863	9,814	1398,199	744,825
-10,848	9,746	1397,384	744,046
-9,833	9,794	1396,466	743,748
-8,819	9,738	1395,688	743,049
-7,804	9,746	1394,435	742,387
-6,790	9,745	1393,608	741,912
-5,775	9,719	1392,724	741,294
-4,760	9,717	1391,598	740,657
-3,746	9,734	1390,720	740,235
-2,731	9,725	1389,803	739,677
-1,717	9,712	1389,003	739,161
-0,702	9,720	1387,044	738,125
0,313	13,851	1299,834	710,587
1,327	30,182	690,210	414,325
2,342	46,749	119,581	78,163
3,356	-0,572	16,516	8,233
4,371	13,435	3,614	1,970
5,386	7,742	1,015	0,534
6,400	800,000	0,229	0,644
7,415	-117,289	-0,206	0,026
8,429	31,034	-0,307	-0,185
9,444	48,185	-0,320	-0,211
10,459	-44,659	-0,168	-0,059
11,473	53,559	-0,302	-0,204
12,488	-160,170	-0,257	-0,010
13,502	93,551	-0,345	-0,275
14,517	64,601	-0,214	-0,152
15,531	172,584	-0,220	-0,223
16,546	46,041	-0,307	-0,199
17,561	127,083	-0,330	-0,295
18,575	267,516	-0,177	-0,219
19,590	32,990	-0,290	-0,177
20,604	-41,551	-0,064	-0,023
21,619	-8,556	-0,399	-0,188
22,634	-58,377	-0,343	-0,104
23,648	128,715	-0,464	-0,416
24,663	53,578	-0,348	-0,235
25,677	92,070	-0,298	-0,236
26,692	84,696	-0,233	-0,179
27,707	-31,736	-0,406	-0,159
28,721	103,835	-0,347	-0,287
29,736	-22,409	-0,401	-0,170
30,750	84,677	-0,452	-0,348
31,765	371,099	-0,276	-0,395
32,780	83,758	-0,458	-0,351
33,794	-106,342	-0,425	-0,066
34,809	78,790	-0,369	-0,277
35,823	149,444	-0,495	-0,471
36,838	111,430	-0,354	-0,300
37,853	51,092	-0,308	-0,205
38,867	-41,738	-0,354	-0,127
39,882	38,706	-0,233	-0,146
40,896	132,773	-0,287	-0,260
41,911	-61,696	-0,243	-0,071
42,926	-18,830	-0,374	-0,163
43,940	-15,201	-0,298	-0,133
44,955	210,107	-0,285	-0,314
45,969	-69,294	-0,430	-0,115
46,984	-46,226	-0,313	-0,108
47,999	168,379	-0,210	-0,210
49,013	47,813	-0,364	-0,238
50,028	-112,241	-0,450	-0,063
51,042	132,027	-0,289	-0,261
52,057	410,088	-0,229	-0,342
53,071	160,852	-0,258	-0,253
54,086	83,768	-0,297	-0,227
55,101	-30,237	-0,257	-0,102
56,115	309,813	-0,223	-0,293
57,130	-35,084	-0,452	-0,172
58,144	556,170	-0,248	-0,420
59,159	95,687	-0,399	-0,319
60,174	90,554	-0,358	-0,281
61,188	19,510	-0,360	-0,203
62,203	2,943	-0,274	-0,139
63,217	31,283	-0,350	-0,210
64,232	174,767	-0,306	-0,311
65,247	75,910	-0,317	-0,235
66,261	-6,586	-0,440	-0,209
67,276	49,833	-0,302	-0,199
68,290	135,121	-0,322	-0,294
69,305	-41,659	-0,342	-0,123
70,320	3,718	-0,196	-0,100
71,334	165,228	-0,313	-0,310
72,349	-26,237	-0,327	-0,134
73,363	-19,214	-0,293	-0,127
74,378	87,314	-0,349	-0,271
75,393	69,967	-0,358	-0,258
76,407	370,849	-0,156	-0,222
77,422	-102,678	-0,347	-0,057
78,436	12,628	-0,330	-0,178
79,451	-17,322	-0,346	-0,152
80,466	13,735	-0,356	-0,193
81,480	93,596	-0,239	-0,189
82,495	153,817	-0,293	-0,282
83,509	68,228	-0,269	-0,193
84,524	-70,985	-0,421	-0,110
85,539	108,600	-0,204	-0,170
86,553	-69,416	-0,383	-0,102
87,568	156,321	-0,285	-0,276
88,582	70,021	-0,355	-0,256
89,597	65,444	-0,319	-0,226
90,611	667,905	-0,164	-0,298
91,626	-13,591	-0,307	-0,139
92,641	-53,840	-0,337	-0,107
93,655	-146,476	-0,306	0,018
94,670	81,333	-0,370	-0,280
95,684	-132,688	-0,315	-0,028
96,699	-84,676	-0,364	-0,079
97,714	111,561	-0,281	-0,237
98,728	122,680	-0,188	-0,164
99,743	97,370	-0,191	-0,153
100,757	16,836	-0,209	-0,115
101,772	269,600	-0,169	-0,208
102,787	35,621	-0,403	-0,247
103,801	29,393	-0,376	-0,223
104,816	199,854	-0,200	-0,215
105,830	12,345	-0,234	-0,126
106,845	444,493	-0,173	-0,265
107,860	-81,194	-0,207	0,047
108,874	236,753	-0,235	-0,272
109,889	149,947	-0,190	-0,180
110,903	94,192	-0,273	-0,216
111,918	533,880	-0,176	-0,291
112,933	-5,340	-0,307	-0,147
113,947	71,142	-0,239	-0,173
114,962	636,718	-0,117	-0,207
115,976	48,736	-0,271	-0,177
116,991	69,032	-0,266	-0,190
118,006	8,108	-0,325	-0,170
119,020	184,929	-0,186	-0,193
120,035	26,563	-0,235	-0,137
121,049	-52,862	-0,303	-0,097
122,064	7,250	-0,280	-0,145
123,079	-148,935	-0,154	-0,009
124,093	332,963	-0,215	-0,291
125,108	106,117	-0,162	-0,134
126,122	35,022	-0,286	-0,175
127,137	237,561	-0,218	-0,253
128,151	102,407	-0,191	-0,155
129,166	132,208	-0,233	-0,209
130,181	-22,061	-0,273	-0,115
131,195	159,946	-0,191	-0,186
132,210	50,974	-0,298	-0,196
133,224	26,160	-0,280	-0,162
134,239	355,878	-0,154	-0,214
135,254	61,345	-0,197	-0,136
136,268	321,880	-0,080	-0,106
137,283	36,615	-0,143	-0,088
138,297	42,279	-0,172	-0,109
139,312	-91,372	-0,332	-0,066
140,327	0,074	-0,305	-0,151
141,341	-82,902	-0,211	-0,047
142,356	86,191	-0,276	-0,211
143,370	33,429	-0,197	-0,119
144,385	-84,671	-0,346	-0,075
145,400	143,194	-0,219	-0,203
146,414	57,243	-0,274	-0,186
147,429	61,512	-0,284	-0,196
148,443	-200,000	0,002	-0,161
149,458	382,312	-0,108	-0,155
150,473	65,006	-0,211	-0,148
151,487	564,837	-0,155	-0,262
152,502	126,053	-0,222	-0,196
153,516	154,432	-0,229	-0,218
154,531	361,987	-0,196	-0,274
155,546	-7,941	-0,145	-0,068
156,560	68,640	-0,235	-0,168
157,575	-98,665	-0,212	-0,037
158,589	140,889	-0,265	-0,243
159,604	224,299	-0,129	-0,145
160,619	58,389	-0,209	-0,142
161,633	103,649	-0,365	-0,298
162,648	152,987	-0,267	-0,254
163,662	191,165	-0,191	-0,200
164,677	62,889	-0,239	-0,166
165,692	37,963	-0,240	-0,148
166,706	-22,613	-0,245	-0,103
167,721	49,296	-0,299	-0,195
168,735	16,864	-0,302	-0,166
169,750	90,395	-0,302	-0,234
170,764	-50,447	-0,223	-0,073
171,779	480,546	-0,137	-0,217
172,794	-21,338	-0,156	-0,066
173,808	101,065	-0,245	-0,198
174,823	-1,922	-0,237	-0,115
175,837	119,510	-0,285	-0,245
176,852	319,318	-0,176	-0,232
177,867	205,804	-0,126	-0,136
178,881	106,284	-0,176	-0,144
179,896	-7,340	-0,294	-0,138
180,910	38,774	-0,277	-0,171
181,925	-10,592	-0,296	-0,135
182,940	54,888	-0,306	-0,205
183,954	145,582	-0,182	-0,170
184,969	298,121	-0,191	-0,244
185,983	18,291	-0,118	-0,065
186,998	82,869	-0,123	-0,093
188,013	-111,449	-0,261	-0,037
189,027	22,333	-0,251	-0,142
190,042	272,293	-0,145	-0,178
191,056	800,000	-0,111	-0,235
192,071	46,304	-0,235	-0,151
193,086	-25,208	-0,346	-0,141
194,100	216,785	-0,226	-0,250
195,115	143,331	-0,182	-0,168
196,129	113,190	-0,219	-0,184
197,144	89,926	-0,216	-0,167
198,159	20,391	-0,219	-0,122
199,173	213,502	-0,158	-0,173
200,188	570,640	-0,058	-0,098
201,202	571,043	-0,121	-0,205
202,217	1,347	-0,248	-0,123
203,232	262,029	-0,171	-0,206
204,246	-79,307	-0,120	-0,028
205,261	195,916	-0,235	-0,248
206,275	52,588	-0,176	-0,116
207,290	112,597	-0,105	-0,088
208,304	31,590	-0,078	-0,047
209,319	-200,000	-0,015	-0,107
210,334	195,881	-0,155	-0,164
211,348	219,333	-0,230	-0,255
212,363	303,849	-0,238	-0,306
213,377	-44,562	-0,169	-0,058
214,392	625,493	-0,116	-0,204
215,407	215,608	-0,172	-0,190
216,421	-30,185	-0,124	-0,049
217,436	125,304	-0,257	-0,224
218,450	711,448	-0,115	-0,212
219,465	84,424	-0,241	-0,182
220,480	50,734	-0,300	-0,196
221,494	188,804	-0,128	-0,132
222,509	289,356	-0,149	-0,187
223,523	279,158	-0,122	-0,151
224,538	50,828	-0,119	-0,078
225,553	-58,688	-0,270	-0,080
226,567	682,167	-0,106	-0,192
227,582	63,885	-0,145	-0,101
228,596	38,719	-0,150	-0,092
229,611	93,894	-0,216	-0,169
230,626	18,264	-0,177	-0,097
231,640	-36,782	-0,196	-0,072
232,655	-9,843	-0,225	-0,103
233,669	288,999	-0,167	-0,210
234,684	-48,897	-0,225	-0,074
235,699	68,920	-0,197	-0,140
236,713	255,259	-0,035	-0,042
237,728	12,284	-0,166	-0,088
238,742	-142,499	-0,256	-0,017
239,757	-27,676	-0,141	0,056
240,772	628,315	-0,138	-0,241
241,786	235,812	-0,184	-0,210
242,801	-200,000	-0,086	-0,275
243,815	209,353	-0,231	-0,250
244,830	274,348	-0,141	-0,173
245,844	191,524	-0,110	-0,115
246,859	520,856	-0,144	-0,233
247,874	-200,000	-0,054	-0,221
248,888	-130,392	-0,258	-0,024
249,903	181,242	-0,069	-0,070
250,917	486,025	-0,120	-0,189
251,932	103,498	-0,239	-0,193
252,947	192,046	-0,184	-0,192
253,961	134,112	-0,200	-0,178
254,976	-16,795	-0,251	-0,109
255,990	18,259	-0,147	-0,080
257,005	149,129	-0,121	0,113
258,020	-29,909	-0,238	-0,093
259,034	115,693	-0,132	-0,111
260,049	-26,600	-0,252	-0,101
261,063	-132,781	-0,146	-0,013
262,078	196,922	-0,148	-0,156
263,093	136,840	-0,194	-0,175
264,107	2,414	-0,150	-0,074
265,122	800,000	-0,100	-0,194
266,136	-45,450	-0,214	-0,073
267,151	-102,202	-0,254	0,042
268,166	-91,504	-0,258	-0,050
269,180	312,139	-0,161	-0,208
270,195	249,958	-0,204	-0,239
271,209	119,885	-0,232	-0,198
272,224	800,000	-0,057	-0,146
273,239	328,704	-0,083	-0,110
274,253	173,846	-0,175	-0,174
275,268	-132,960	-0,180	0,016
276,282	209,206	-0,123	-0,132
277,297	-2,587	-0,074	-0,036
278,312	53,438	-0,219	-0,145
279,326	800,000	-0,109	-0,240
280,341	-65,008	-0,142	-0,039
281,355	800,000	-0,130	-0,285
282,370	14,594	-0,122	-0,065
283,384	10,029	-0,196	-0,102
284,399	704,284	-0,079	-0,145
285,414	-88,748	-0,119	0,024
286,428	-57,856	-0,170	-0,051
287,443	332,746	-0,071	-0,095
288,457	-107,797	-0,144	-0,021
289,472	-50,247	-0,214	-0,069
290,487	123,580	-0,208	-0,179
291,501	-25,280	-0,260	-0,105
292,516	209,058	-0,086	-0,093
293,530	-5,707	-0,045	-0,021
294,545	304,343	-0,098	-0,126
295,560	-120,752	-0,089	0,010
296,574	88,455	-0,116	-0,089
297,589	-33,274	-0,078	0,029
298,603	289,435	-0,176	-0,220
299,618	-10,780	-0,182	-0,083
300,633	-4,144	-0,179	-0,085
301,647	-151,319	-0,154	0,008
302,662	106,743	-0,210	-0,171
303,676	283,051	-0,138	-0,171
304,691	-86,732	-0,149	0,031
305,706	225,036	-0,114	-0,127
306,720	0,325	-0,140	-0,068
307,735	18,521	-0,169	-0,093
308,749	-200,000	-0,005	-0,060
309,764	29,577	-0,122	-0,071
310,779	202,408	-0,091	-0,096
311,793	127,212	-0,195	-0,170
312,808	241,686	-0,212	-0,243
313,822	148,151	-0,180	-0,167
314,837	88,507	-0,095	-0,072
315,852	49,892	-0,162	-0,104
316,866	235,631	-0,182	-0,206
317,881	271,900	0,055	0,067
318,895	-89,787	-0,128	-0,026
319,910	-200,000	-0,019	-0,082
320,925	706,458	-0,094	-0,170
321,939	-200,000	-0,050	-0,166
322,954	-57,682	0,049	0,015
323,968	6,063	-0,089	-0,045
324,983	-70,416	-0,284	-0,073
325,997	423,389	-0,095	-0,141
327,012	-200,000	-0,071	-0,280
328,027	359,760	-0,122	-0,168
329,041	128,442	-0,151	-0,132
330,056	-148,816	-0,169	-0,009
331,070	115,378	-0,294	-0,246
332,085	175,912	-0,166	-0,165
333,100	-106,582	-0,055	-0,008
334,114	-200,000	-0,023	-0,164
335,129	-200,000	-0,046	-0,309
336,143	516,926	-0,090	-0,145
337,158	-111,917	-0,122	0,017
338,173	-87,888	-0,060	-0,012
339,187	800,000	-0,034	-0,098
340,202	-106,031	-0,081	-0,012
341,216	-141,993	-0,178	0,012
342,231	-52,089	-0,183	-0,058
343,246	84,067	-0,116	-0,086
344,260	330,259	-0,072	-0,096
345,275	800,000	-0,092	-0,249
346,289	455,639	-0,124	-0,189
347,304	-145,776	-0,145	0,009
348,319	658,563	-0,056	-0,100
349,333	800,000	-0,070	-0,141
350,348	38,762	-0,151	-0,092
351,362	-99,710	-0,229	-0,039
352,377	-138,740	-0,043	-0,003
353,392	22,113	0,054	-0,030
354,406	800,000	-0,051	-0,147
355,421	207,468	1311,144	1399,976
356,435	159,601	1471,401	1400,453
