DTS Sentinel unit serial number:	SN410029Multiplexer serial number:	ORYXHardware model number:	OX2-SRSoftware version number:	ORYX F/W v4,00 Oryx Data Collector v3.7.2.0data status	okinstallation	B3 Nyhavnadifferential loss correction	single-endedforward channel	channel 1reverse channel	N/Adate	2023/12/04time	07:37:30forward acquisition time	300,00reverse acquisition time	0,00gamma	499,1914k internal	0,3205k external	0,3205temperature offset calibration	1,0000default loss term (dB/km)	0,3820temperature slope calibration	1,0000multiplexer offset coefficient	1,0000multiplexer slope coefficient	1,0000fibre end	0,00T internal ref (°C)	12,32T ext. ref 1 (°C)	-2,04T ext. ref 2 (°C)	-2,06length (m)	temperature (°C)	Stokes	anti-Stokes-744,400	132,251	-0,190	-0,178
-743,385	-200,000	0,034	0,257
-742,371	460,815	-0,177	-0,288
-741,356	-200,000	0,101	0,452
-740,342	-36,073	-0,202	-0,079
-739,327	-200,000	-0,032	0,367
-738,312	220,479	-0,139	-0,163
-737,298	-200,000	-0,049	0,193
-736,283	229,829	-0,108	-0,129
-735,269	-200,000	0,066	0,300
-734,254	153,426	-0,172	-0,171
-733,239	-56,113	-0,172	0,055
-732,225	800,000	-0,166	-0,354
-731,210	-10,541	0,070	-0,034
-730,196	-200,000	-0,001	0,051
-729,181	-24,134	-0,210	0,091
-728,167	206,790	0,070	-0,079
-727,152	26,935	-0,137	-0,083
-726,137	-67,222	-0,083	0,024
-725,123	195,800	-0,097	-0,107
-724,108	-200,000	0,036	-0,144
-723,094	-200,000	-0,047	-0,175
-722,079	400,643	-0,108	-0,164
-721,064	405,128	-0,056	-0,086
-720,050	800,000	-0,042	0,087
-719,035	-37,366	0,138	-0,053
-718,021	-200,000	0,012	-0,142
-717,006	28,072	-0,068	-0,041
-715,991	-6,165	-0,098	-0,049
-714,977	-25,566	0,096	-0,041
-713,962	94,078	-0,055	-0,045
-712,948	262,818	0,017	-0,022
-711,933	-151,455	-0,078	-0,004
-710,918	-95,324	-0,061	0,012
-709,904	800,000	0,012	-0,033
-708,889	-200,000	-0,004	0,027
-707,875	633,888	-0,046	-0,086
-706,860	87,085	0,041	0,033
-705,845	60,456	0,042	-0,030
-704,831	800,000	-0,042	-0,110
-703,816	30,407	0,029	-0,018
-702,802	181,368	-0,069	-0,074
-701,787	72,874	-0,185	-0,140
-700,772	-200,000	-0,019	-0,110
-699,758	-200,000	0,006	-0,193
-698,743	-47,209	-0,066	0,023
-697,729	97,983	-0,065	-0,054
-696,714	624,750	-0,019	0,036
-695,699	322,244	0,018	0,025
-694,685	-200,000	-0,039	-0,167
-693,670	-60,031	0,076	-0,023
-692,656	688,735	-0,022	-0,041
-691,641	136,496	0,117	-0,111
-690,627	298,940	-0,023	0,031
-689,612	-26,456	-0,111	0,047
-688,597	63,827	-0,013	-0,010
-687,583	4,027	-0,043	-0,023
-686,568	29,954	-0,065	0,040
-685,554	-200,000	-0,023	-0,154
-684,539	-21,747	0,044	-0,019
-683,524	-200,000	0,004	0,050
-682,510	-66,325	-0,097	-0,028
-681,495	-179,107	-0,090	-0,001
-680,481	-200,000	-0,014	-0,075
-679,466	-6,954	-0,052	-0,025
-678,451	22,852	-0,084	-0,050
-677,437	-200,000	0,020	0,081
-676,422	21,868	0,061	0,036
-675,408	-187,874	0,108	-0,001
-674,393	-123,062	-0,127	-0,015
-673,378	-200,000	-0,001	0,085
-672,364	363,600	-0,035	-0,051
-671,349	32,347	0,059	-0,037
-670,335	510,006	-0,090	0,151
-669,320	264,926	0,020	0,025
-668,305	243,695	-0,042	-0,052
-667,291	82,783	0,076	-0,059
-666,276	434,983	-0,034	-0,054
-665,262	401,847	-0,074	-0,113
-664,247	8,265	-0,048	-0,026
-663,232	1,485	0,120	-0,063
-662,218	-102,114	-0,062	-0,011
-661,203	-200,000	0,006	0,023
-660,189	171,152	-0,084	0,087
-659,174	-108,915	-0,060	0,009
-658,159	-200,000	-0,008	-0,034
-657,145	44,163	-0,099	-0,065
-656,130	800,000	-0,008	-0,024
-655,116	-200,000	-0,011	0,046
-654,101	-200,000	-0,008	-0,051
-653,086	28,398	-0,030	-0,018
-652,072	-200,000	-0,012	-0,069
-651,057	586,727	-0,091	-0,162
-650,043	800,000	-0,019	-0,043
-649,028	-71,361	0,044	-0,012
-648,014	8,604	0,043	0,023
-646,999	15,100	0,151	0,085
-645,984	-200,000	-0,030	0,181
-644,970	-5,521	-0,063	-0,031
-643,955	32,172	0,024	-0,015
-642,941	-200,000	-0,006	-0,046
-641,926	-37,233	0,012	-0,005
-640,911	616,023	-0,036	-0,065
-639,897	162,996	0,047	-0,048
-638,882	-122,752	-0,156	-0,018
-637,868	9,362	-0,046	0,025
-636,853	-200,000	0,004	-0,156
-635,838	-200,000	0,019	-0,144
-634,824	800,000	0,027	-0,069
-633,809	800,000	0,042	0,090
-632,795	-17,075	0,131	-0,060
-631,780	6,257	-0,066	-0,035
-630,765	-32,796	-0,143	-0,057
-629,751	76,748	-0,055	-0,042
-628,736	800,000	0,032	-0,074
-627,722	-89,401	-0,062	-0,013
-626,707	200,748	0,035	-0,039
-625,692	100,463	0,173	0,145
-624,678	-200,000	0,015	0,105
-623,663	-200,000	-0,009	0,104
-622,649	-58,620	0,081	-0,025
-621,634	-200,000	0,011	-0,144
-620,619	-200,000	-0,005	0,026
-619,605	-200,000	0,027	0,200
-618,590	800,000	0,015	0,031
-617,576	800,000	-0,012	0,030
-616,561	-200,000	-0,011	-0,136
-615,546	1,042	-0,140	0,072
-614,532	-200,000	0,026	0,136
-613,517	-14,736	-0,004	0,002
-612,503	85,755	0,163	-0,129
-611,488	-200,000	-0,010	0,077
-610,474	-200,000	-0,026	-0,148
-609,459	-200,000	-0,009	0,098
-608,444	-200,000	0,007	0,070
-607,430	800,000	-0,058	-0,131
-606,415	626,870	0,042	-0,076
-605,401	-200,000	-0,000	-0,106
-604,386	-138,345	0,077	-0,006
-603,371	-200,000	0,052	0,230
-602,357	-33,267	-0,035	-0,014
-601,342	-47,979	0,095	0,033
-600,328	31,662	-0,088	-0,054
-599,313	-87,477	-0,200	-0,043
-598,298	463,974	0,109	-0,176
-597,284	-200,000	0,015	-0,067
-596,269	-200,000	-0,045	0,169
-595,255	-102,442	-0,054	-0,009
-594,240	-61,021	-0,155	-0,047
-593,225	196,228	-0,071	-0,078
-592,211	-200,000	-0,018	-0,121
-591,196	-200,000	-0,015	-0,135
-590,182	-145,750	-0,143	-0,009
-589,167	6,572	0,112	-0,060
-588,152	-165,297	0,125	-0,004
-587,138	-121,152	-0,099	-0,012
-586,123	-200,000	0,031	-0,168
-585,109	-200,000	-0,000	-0,075
-584,094	-118,952	0,101	0,013
-583,079	-200,000	0,027	0,165
-582,065	-200,000	-0,023	0,107
-581,050	-200,000	-0,019	0,262
-580,036	304,824	0,045	-0,060
-579,021	342,064	-0,059	-0,084
-578,006	800,000	0,030	-0,086
-576,992	260,733	0,027	-0,034
-575,977	800,000	-0,055	-0,130
-574,963	315,389	0,082	0,112
-573,948	-109,062	-0,108	0,016
-572,934	800,000	0,011	0,023
-571,919	579,999	-0,006	-0,010
-570,904	-200,000	-0,020	-0,076
-569,890	35,864	0,100	-0,063
-568,875	-200,000	0,038	0,158
-567,861	185,266	0,071	0,076
-566,846	19,886	-0,049	-0,028
-565,831	-200,000	0,014	-0,047
-564,817	-12,433	-0,110	-0,052
-563,802	266,316	-0,024	0,030
-562,788	-121,509	-0,148	0,018
-561,773	79,015	-0,021	-0,017
-560,758	-48,061	0,077	0,027
-559,744	371,864	0,046	-0,068
-558,729	166,493	0,035	-0,036
-557,715	-200,000	0,002	-0,012
-556,700	-200,000	0,018	-0,096
-555,685	62,826	-0,065	0,047
-554,671	51,261	-0,071	0,049
-553,656	-47,548	0,108	0,038
-552,642	800,000	0,045	0,117
-551,627	254,686	-0,061	0,076
-550,612	-58,287	-0,035	-0,011
-549,598	-27,846	0,054	-0,022
-548,583	-200,000	0,002	-0,180
-547,569	71,722	-0,065	-0,049
-546,554	-200,000	0,021	0,109
-545,539	-200,000	0,008	0,056
-544,525	800,000	-0,027	-0,056
-543,510	314,228	-0,039	-0,054
-542,496	317,780	-0,052	-0,070
-541,481	152,930	0,079	-0,078
-540,466	800,000	0,043	-0,118
-539,452	-93,535	0,014	-0,003
-538,437	6,412	-0,067	0,035
-537,423	73,028	-0,075	-0,056
-536,408	-200,000	0,021	-0,080
-535,393	-140,065	-0,153	-0,011
-534,379	-11,661	-0,079	-0,037
-533,364	-200,000	0,009	-0,037
-532,350	83,278	-0,031	-0,024
-531,335	-63,121	-0,119	-0,035
-530,321	-200,000	0,038	0,138
-529,306	249,686	-0,025	0,031
-528,291	49,274	-0,059	-0,040
-527,277	-153,878	-0,061	-0,003
-526,262	-104,088	0,108	-0,018
-525,248	132,780	-0,050	0,047
-524,233	270,544	0,015	-0,019
-523,218	-200,000	-0,000	0,086
-522,204	9,407	-0,025	-0,014
-521,189	197,802	-0,019	0,021
-520,175	149,224	-0,056	-0,054
-519,160	-200,000	0,002	0,023
-518,145	-200,000	-0,010	-0,051
-517,131	377,876	0,016	0,023
-516,116	-38,308	-0,012	-0,005
-515,102	-62,298	-0,055	-0,016
-514,087	7,788	0,097	-0,052
-513,072	800,000	-0,065	-0,138
-512,058	321,993	-0,021	-0,029
-511,043	800,000	0,022	0,051
-510,029	14,091	0,077	0,043
-509,014	800,000	-0,022	0,056
-507,999	91,779	0,054	0,044
-506,985	800,000	-0,027	-0,081
-505,970	-75,272	-0,091	0,023
-504,956	283,396	-0,091	0,118
-503,941	540,026	-0,042	-0,073
-502,926	-200,000	0,022	0,097
-501,912	486,054	-0,053	0,088
-500,897	-135,345	0,049	0,004
-499,883	233,363	0,010	-0,012
-498,868	-81,080	0,029	-0,007
-497,853	-200,000	0,015	0,108
-496,839	-42,326	0,082	0,030
-495,824	492,399	0,093	0,155
-494,810	107,661	0,029	-0,025
-493,795	-200,000	0,034	0,137
-492,781	800,000	-0,047	0,093
-491,766	-200,000	0,012	-0,181
-490,751	180,635	-0,028	-0,029
-489,737	197,071	0,030	-0,033
-488,722	-148,048	0,037	-0,002
-487,708	-72,254	-0,042	0,011
-486,693	321,063	-0,039	0,054
-485,678	793,943	0,019	0,039
-484,664	115,216	0,055	0,049
-483,649	342,634	0,014	0,020
-482,635	-83,347	0,069	-0,016
-481,620	-200,000	0,002	0,086
-480,605	-127,836	0,049	-0,005
-479,591	-200,000	-0,003	0,157
-478,576	639,863	0,073	0,134
-477,562	-73,061	-0,062	-0,016
-476,547	55,339	-0,088	-0,061
-475,532	5,265	-0,041	0,021
-474,518	-19,799	0,062	0,027
-473,503	-82,695	0,139	-0,032
-472,489	-200,000	-0,014	-0,110
-471,474	50,415	0,022	-0,015
-470,459	-138,538	-0,089	0,007
-469,445	139,031	0,042	-0,040
-468,430	-200,000	0,004	-0,024
-467,416	98,945	0,062	-0,052
-466,401	-200,000	0,005	0,030
-465,386	-200,000	0,020	-0,072
-464,372	147,691	-0,081	-0,078
-463,357	609,569	-0,048	-0,087
-462,343	-35,495	-0,106	0,041
-461,328	-54,631	-0,161	-0,052
-460,313	-200,000	-0,029	-0,148
-459,299	73,431	0,096	0,072
-458,284	43,506	0,102	-0,067
-457,270	-200,000	-0,001	0,145
-456,255	-200,000	0,032	-0,133
-455,241	231,467	-0,072	-0,085
-454,226	-122,391	0,047	0,005
-453,211	-53,123	0,027	-0,009
-452,197	-12,725	-0,040	-0,019
-451,182	-200,000	-0,028	0,095
-450,168	-200,000	-0,005	-0,145
-449,153	-200,000	0,008	-0,031
-448,138	-78,804	-0,145	-0,035
-447,124	800,000	0,027	-0,083
-446,109	-88,724	0,075	-0,016
-445,095	-59,489	0,022	0,007
-444,080	-59,364	0,160	0,049
-443,065	-200,000	0,027	0,098
-442,051	-118,344	-0,053	0,007
-441,036	13,528	0,165	0,092
-440,022	593,415	0,048	-0,086
-439,007	-200,000	0,008	0,118
-437,992	-200,000	-0,021	0,083
-436,978	166,374	-0,044	-0,044
-435,963	-200,000	0,026	-0,085
-434,949	-104,892	0,131	-0,021
-433,934	-200,000	0,009	-0,085
-432,919	664,245	0,024	-0,045
-431,905	98,450	-0,043	-0,035
-430,890	452,165	0,093	-0,149
-429,876	134,102	0,030	0,028
-428,861	-200,000	-0,007	0,029
-427,846	74,484	0,098	0,074
-426,832	102,877	0,062	-0,052
-425,817	-106,434	-0,151	-0,024
-424,803	15,684	0,018	-0,010
-423,788	103,951	0,057	0,048
-422,773	278,822	0,099	0,127
-421,759	800,000	0,036	-0,114
-420,744	-89,582	-0,102	0,021
-419,730	-36,859	-0,043	0,016
-418,715	-200,000	-0,000	-0,082
-417,701	322,430	0,088	-0,121
-416,686	666,537	0,035	-0,066
-415,671	562,562	0,042	0,074
-414,657	250,715	0,056	0,069
-413,642	149,913	0,037	-0,036
-412,628	748,111	-0,043	-0,083
-411,613	-200,000	0,028	-0,112
-410,598	-200,000	-0,004	-0,066
-409,584	800,000	-0,038	0,098
-408,569	800,000	0,059	0,123
-407,555	800,000	-0,047	0,118
-406,540	743,678	0,057	0,110
-405,525	51,974	-0,047	-0,032
-404,511	-200,000	0,024	-0,086
-403,496	-33,822	0,007	-0,003
-402,482	800,000	-0,020	-0,057
-401,467	800,000	-0,038	0,112
-400,452	800,000	-0,047	0,133
-399,438	162,890	0,081	0,082
-398,423	800,000	-0,064	-0,193
-397,409	-134,154	0,197	-0,017
-396,394	-200,000	0,007	-0,090
-395,379	800,000	0,011	-0,026
-394,365	358,660	0,058	-0,083
-393,350	-165,769	-0,028	0,001
-392,336	-132,171	0,067	-0,006
-391,321	10,455	-0,072	0,039
-390,306	295,487	-0,092	0,121
-389,292	307,269	0,076	-0,102
-388,277	82,775	-0,159	0,123
-387,263	177,350	0,143	-0,149
-386,248	-200,000	0,002	0,048
-385,233	-41,847	0,056	-0,021
-384,219	-200,000	-0,004	0,045
-383,204	9,249	-0,067	0,036
-382,190	653,917	-0,023	0,043
-381,175	511,775	-0,054	-0,091
-380,160	7,330	0,155	-0,083
-379,146	35,189	0,185	0,116
-378,131	800,000	0,038	-0,087
-377,117	-200,000	0,010	0,100
-376,102	-200,000	0,020	0,091
-375,088	-103,822	-0,190	-0,032
-374,073	-200,000	0,077	-0,282
-373,058	131,201	-0,028	0,026
-372,044	-200,000	0,006	0,118
-371,029	-200,000	0,010	0,040
-370,015	385,354	0,049	0,072
-369,000	-130,858	0,056	-0,005
-367,985	55,306	0,050	-0,034
-366,971	449,073	-0,083	0,132
-365,956	-16,228	0,102	0,046
-364,942	-94,307	0,086	-0,017
-363,927	800,000	-0,066	0,160
-362,912	-200,000	0,037	0,172
-361,898	376,571	0,097	-0,142
-360,883	205,289	0,023	0,026
-359,869	-200,000	0,050	-0,210
-358,854	312,062	-0,085	-0,115
-357,839	800,000	-0,019	-0,056
-356,825	-14,459	0,107	0,049
-355,810	-121,484	0,038	0,005
-354,796	-200,000	-0,001	-0,069
-353,781	-161,986	-0,176	0,006
-352,766	800,000	0,068	-0,160
-351,752	73,451	-0,045	-0,034
-350,737	-200,000	0,004	0,064
-349,723	28,930	0,052	0,031
-348,708	28,143	-0,117	0,070
-347,693	-200,000	0,004	0,125
-346,679	-61,388	-0,196	0,059
-345,664	197,124	0,077	-0,084
-344,650	314,033	0,060	0,081
-343,635	-107,833	0,175	-0,027
-342,620	-105,846	0,048	-0,008
-341,606	174,759	0,045	0,046
-340,591	52,558	-0,085	-0,058
-339,577	800,000	0,020	-0,044
-338,562	800,000	-0,031	0,079
-337,548	244,075	0,056	-0,068
-336,533	207,223	0,101	-0,112
-335,518	-33,467	0,058	-0,023
-334,504	271,351	0,119	0,150
-333,489	462,039	0,024	0,039
-332,475	-200,000	-0,018	0,094
-331,460	-90,526	-0,086	0,018
-330,445	-200,000	-0,002	0,078
-329,431	146,662	0,054	-0,052
-328,416	-12,871	0,028	0,013
-327,402	410,269	0,054	0,082
-326,387	138,582	-0,020	-0,019
-325,372	-99,430	-0,084	0,015
-324,358	-200,000	0,006	0,058
-323,343	-65,311	-0,116	0,033
-322,329	-83,005	0,047	-0,011
-321,314	-200,000	0,012	0,116
-320,299	-54,871	0,061	0,020
-319,285	-38,268	-0,061	0,023
-318,270	91,514	0,057	0,045
-317,256	-200,000	-0,004	-0,137
-316,241	476,842	-0,017	0,027
-315,226	-200,000	0,006	0,024
-314,212	-200,000	0,009	0,090
-313,197	104,201	-0,018	0,015
-312,183	-36,338	-0,110	-0,042
-311,168	-200,000	0,041	-0,217
-310,153	-52,844	-0,081	0,026
-309,139	68,485	-0,062	0,045
-308,124	161,812	0,057	0,057
-307,110	242,603	-0,076	0,091
-306,095	800,000	0,039	0,112
-305,080	-116,392	-0,150	-0,020
-304,066	-200,000	0,023	-0,093
-303,051	-26,313	-0,032	0,013
-302,037	204,660	-0,050	-0,056
-301,022	-134,731	-0,066	-0,006
-300,008	-78,129	0,167	-0,041
-298,993	-200,000	0,044	-0,171
-297,978	-200,000	-0,034	0,155
-296,964	157,547	0,079	0,079
-295,949	-75,948	0,125	-0,031
-294,935	-187,856	-0,159	-0,001
-293,920	181,836	0,078	0,082
-292,905	175,675	-0,072	-0,075
-291,891	-94,128	0,194	0,038
-290,876	-119,431	-0,058	-0,007
-289,862	800,000	0,017	-0,039
-288,847	800,000	-0,089	-0,240
-287,832	-200,000	0,027	0,103
-286,818	-200,000	-0,002	-0,041
-285,803	-200,000	-0,021	0,104
-284,789	507,399	0,060	0,100
-283,774	-200,000	0,033	0,117
-282,759	-46,730	0,051	-0,018
-281,745	800,000	-0,052	0,120
-280,730	800,000	0,011	-0,031
-279,716	-109,925	-0,166	0,024
-278,701	10,864	0,040	0,021
-277,686	147,315	0,180	0,173
-276,672	800,000	0,027	0,084
-275,657	453,842	-0,030	-0,047
-274,643	238,940	-0,127	-0,151
-273,628	192,876	-0,056	-0,060
-272,613	-58,401	-0,114	-0,035
-271,599	7,825	-0,076	-0,040
-270,584	-200,000	-0,016	0,075
-269,570	-200,000	-0,011	-0,075
-268,555	800,000	-0,037	0,087
-267,540	800,000	0,031	0,096
-266,526	-200,000	-0,002	-0,054
-265,511	266,978	-0,055	-0,069
-264,497	31,447	0,080	-0,049
-263,482	-1,312	-0,134	0,067
-262,467	269,099	-0,048	0,060
-261,453	-200,000	-0,001	0,037
-260,438	-23,370	-0,047	-0,020
-259,424	-181,984	-0,108	-0,001
-258,409	593,653	0,011	-0,020
-257,395	800,000	0,058	0,142
-256,380	-200,000	0,025	-0,116
-255,365	535,500	0,099	-0,169
-254,351	66,793	-0,130	-0,095
-253,336	348,359	-0,015	-0,021
-252,322	-200,000	-0,011	0,059
-251,307	689,814	-0,070	0,131
-250,292	-29,024	0,042	-0,017
-249,278	576,615	-0,047	0,082
-248,263	399,405	-0,041	0,061
-247,249	-95,268	-0,093	-0,018
-246,234	383,176	0,009	-0,013
-245,219	-129,277	-0,102	-0,010
-244,205	-91,556	0,079	0,016
-243,190	-200,000	-0,007	-0,096
-242,176	-158,047	-0,074	-0,003
-241,161	-200,000	0,014	0,078
-240,146	-99,479	-0,058	0,010
-239,132	2,269	0,082	0,042
-238,117	495,823	0,102	-0,167
-237,103	-200,000	0,002	-0,068
-236,088	-200,000	-0,021	0,099
-235,073	-54,862	0,121	-0,039
-234,059	332,493	0,093	-0,128
-233,044	-137,501	-0,141	0,011
-232,030	367,615	-0,063	-0,090
-231,015	25,822	-0,055	-0,033
-230,000	-40,852	0,092	0,034
-228,986	256,723	-0,080	-0,098
-227,971	247,513	-0,083	0,099
-226,957	-200,000	0,011	-0,057
-225,942	800,000	0,034	0,102
-224,927	-100,673	0,123	-0,021
-223,913	161,443	-0,132	0,131
-222,898	20,304	-0,021	0,012
-221,884	-68,541	-0,091	0,025
-220,869	-200,000	-0,018	0,121
-219,855	-66,806	0,083	0,023
-218,840	79,754	-0,031	0,024
-217,825	-64,118	-0,119	-0,034
-216,811	146,591	-0,055	-0,053
-215,796	219,384	-0,022	-0,026
-214,782	294,833	0,014	0,019
-213,767	48,321	0,036	-0,024
-212,752	800,000	0,072	0,162
-211,738	326,999	0,093	0,127
-210,723	-150,423	-0,076	0,004
-209,709	-200,000	-0,017	0,061
-208,694	80,081	-0,102	-0,078
-207,679	-200,000	-0,009	-0,056
-206,665	-200,000	0,006	0,081
-205,650	800,000	0,037	0,083
-204,636	800,000	-0,005	-0,012
-203,621	149,666	0,064	0,062
-202,606	-7,164	-0,089	0,043
-201,592	242,842	-0,084	0,100
-200,577	104,944	0,030	0,025
-199,563	-148,505	-0,167	-0,010
-198,548	-183,252	0,073	-0,001
-197,533	41,770	0,053	0,034
-196,519	-118,022	-0,022	0,003
-195,504	126,993	0,085	0,076
-194,490	-153,467	-0,098	0,005
-193,475	-65,596	0,036	-0,010
-192,460	800,000	0,011	0,028
-191,446	546,781	0,056	0,096
-190,431	-103,408	-0,149	-0,025
-189,417	454,171	0,074	-0,118
-188,402	-178,823	-0,026	0,000
-187,387	-200,000	0,018	0,067
-186,373	572,821	-0,027	-0,047
-185,358	-27,247	-0,084	-0,035
-184,344	71,505	-0,061	0,045
-183,329	457,491	-0,019	-0,030
-182,315	800,000	-0,049	-0,128
-181,300	-200,000	0,021	-0,078
-180,285	627,635	-0,065	-0,118
-179,271	-4,047	0,078	-0,038
-178,256	-200,000	-0,014	0,109
-177,242	259,919	0,066	0,081
-176,227	-21,958	0,111	-0,048
-175,212	-200,000	0,001	-0,099
-174,198	226,804	0,023	-0,027
-173,183	-7,581	0,013	-0,006
-172,169	464,777	-0,070	-0,112
-171,154	-76,415	0,041	0,010
-170,139	800,000	0,030	0,059
-169,125	-128,391	0,069	-0,007
-168,110	-200,000	-0,017	0,087
-167,096	152,599	-0,042	0,041
-166,081	78,379	0,018	-0,014
-165,066	-200,000	-0,019	-0,096
-164,052	-200,000	-0,002	0,058
-163,037	91,458	0,024	0,019
-162,023	52,662	0,035	0,024
-161,008	187,902	0,048	-0,051
-159,993	-9,650	0,098	0,046
-158,979	42,555	-0,088	0,057
-157,964	47,849	0,071	-0,047
-156,950	61,877	-0,217	-0,153
-155,935	800,000	-0,024	0,071
-154,920	0,921	0,103	0,052
-153,906	403,001	-0,021	0,031
-152,891	258,416	0,027	0,033
-151,877	204,405	0,058	-0,064
-150,862	-25,389	-0,123	-0,051
-149,847	800,000	0,028	-0,062
-148,833	184,776	-0,064	0,067
-147,818	254,724	0,064	0,078
-146,804	-200,000	0,007	-0,024
-145,789	800,000	0,021	-0,047
-144,775	307,422	0,070	0,092
-143,760	403,083	0,017	0,025
-142,745	-139,107	-0,052	-0,004
-141,731	-200,000	0,007	0,101
-140,716	-141,508	-0,106	-0,007
-139,702	-67,446	-0,019	0,005
-138,687	18,120	0,048	-0,027
-137,672	125,932	0,167	-0,150
-136,658	-200,000	-0,006	-0,118
-135,643	-200,000	0,030	-0,163
-134,629	246,740	-0,023	-0,027
-133,614	1,510	-0,055	-0,028
-132,599	-200,000	0,016	0,093
-131,585	-200,000	-0,018	0,115
-130,570	-73,675	-0,089	-0,023
-129,556	800,000	0,027	0,055
-128,541	-200,000	0,005	-0,048
-127,526	782,749	-0,055	-0,107
-126,512	-48,574	0,058	0,020
-125,497	226,944	-0,041	0,047
-124,483	71,583	-0,055	-0,041
-123,468	-28,811	-0,079	0,032
-122,453	-55,967	-0,084	-0,026
-121,439	800,000	0,013	-0,041
-120,424	-95,078	-0,146	-0,028
-119,410	800,000	-0,016	-0,035
-118,395	57,947	0,132	-0,091
-117,380	192,285	0,030	0,032
-116,366	800,000	0,022	0,046
-115,351	-76,154	-0,091	-0,022
-114,337	276,844	-0,122	-0,154
-113,322	35,559	-0,082	-0,051
-112,307	451,890	0,086	0,135
-111,293	-200,000	0,008	0,079
-110,278	800,000	-0,036	0,107
-109,264	-200,000	-0,005	-0,055
-108,249	-200,000	-0,002	-0,075
-107,234	-109,654	-0,055	0,008
-106,220	-23,881	0,021	0,009
-105,205	-200,000	0,003	0,061
-104,191	105,252	0,030	0,025
-103,176	-111,658	0,103	0,015
-102,162	-200,000	-0,029	-0,119
-101,147	115,734	-0,145	0,126
-100,132	-87,494	-0,073	0,016
-99,118	-105,851	-0,165	-0,026
-98,103	800,000	-0,051	-0,102
-97,089	-200,000	0,036	0,137
-96,074	-200,000	-0,004	0,047
-95,059	-143,420	0,102	-0,007
-94,045	262,906	-0,102	-0,125
-93,030	-77,722	-0,034	-0,008
-92,016	800,000	0,050	-0,100
-91,001	59,547	-0,083	0,058
-89,986	341,819	0,065	0,091
-88,972	330,526	0,059	0,081
-87,957	800,000	0,017	0,037
-86,943	800,000	0,028	-0,061
-85,928	-200,000	0,007	-0,050
-84,913	-33,082	-0,097	0,038
-83,899	-98,335	0,118	-0,021
-82,884	-200,000	-0,005	0,053
-81,870	-200,000	-0,009	0,147
-80,855	-200,000	0,012	0,166
-79,840	55,393	0,025	-0,017
-78,826	-200,000	-0,001	-0,043
-77,811	-200,000	0,013	-0,205
-76,797	-130,616	-0,026	0,002
-75,782	324,788	0,052	-0,071
-74,767	-4,039	0,072	0,035
-73,753	161,566	0,042	-0,042
-72,738	-200,000	-0,012	-0,051
-71,724	-200,000	-0,006	0,056
-70,709	-117,311	-0,191	0,024
-69,694	581,656	0,074	0,130
-68,680	534,058	-0,060	-0,101
-67,665	-134,907	-0,071	-0,006
-66,651	-200,000	0,037	0,116
-65,636	86,909	0,130	0,101
-64,622	256,209	-0,102	-0,124
-63,607	-71,824	0,059	-0,015
-62,592	-200,000	0,006	-0,057
-61,578	-200,000	-0,012	0,135
-60,563	-120,613	0,088	-0,010
-59,549	-36,686	0,112	0,042
-58,534	-23,056	-1,781	-0,755
-57,519	473,691	-1,350	-2,160
-56,505	-200,000	-0,638	-4,542
-55,490	283,847	1,042	1,328
-54,476	800,000	4,804	10,961
-53,461	-200,000	19,910	324,692
-52,446	800,000	750,568	2317,270
-51,432	553,522	1661,546	2835,294
-50,417	75,589	1671,250	1246,536
-49,403	20,197	1544,206	878,952
-48,388	14,152	1466,593	805,381
-47,373	18,268	1456,677	819,777
-46,359	16,353	1446,568	804,885
-45,344	12,429	1441,928	783,486
-44,330	12,370	1439,859	782,046
-43,315	12,368	1438,194	781,103
-42,300	12,354	1436,548	780,113
-41,286	12,386	1435,213	779,507
-40,271	12,331	1434,010	778,564
-39,257	12,404	1432,494	778,055
-38,242	12,394	1431,415	777,394
-37,227	12,407	1430,285	776,808
-36,213	12,391	1428,858	775,925
-35,198	12,400	1427,858	775,394
-34,184	12,415	1426,819	774,872
-33,169	12,386	1425,480	773,979
-32,154	12,427	1424,429	773,571
-31,140	12,447	1423,035	772,875
-30,125	12,500	1421,834	772,445
-29,111	12,446	1421,000	771,706
-28,096	12,459	1419,709	771,033
-27,082	12,377	1418,614	770,022
-26,067	12,339	1417,651	769,288
-25,052	12,339	1416,584	768,681
-24,038	12,348	1415,546	768,131
-23,023	12,342	1414,521	767,514
-22,009	12,350	1413,404	766,917
-20,994	12,327	1412,500	766,287
-19,979	12,307	1411,816	765,791
-18,965	12,359	1410,449	765,264
-17,950	12,277	1409,727	764,458
-16,936	12,321	1408,785	764,122
-15,921	12,227	1407,955	763,202
-14,906	12,180	1407,201	762,545
-13,892	12,234	1406,162	762,203
-12,877	12,254	1405,163	761,725
-11,863	12,262	1404,272	761,246
-10,848	12,207	1403,456	760,517
-9,833	12,212	1402,730	760,117
-8,819	12,153	1401,733	759,274
-7,804	12,144	1400,894	758,747
-6,790	12,081	1400,233	758,067
-5,775	12,147	1398,900	757,618
-4,760	12,176	1397,802	757,129
-3,746	12,166	1396,712	756,462
-2,731	12,139	1396,022	755,934
-1,717	12,116	1395,272	755,393
-0,702	12,112	1393,439	754,352
0,313	16,104	1308,609	726,843
1,327	32,492	699,945	426,426
2,342	50,060	122,009	81,224
3,356	1,527	16,681	8,452
4,371	6,836	3,153	1,654
5,386	12,827	0,672	0,366
6,400	800,000	0,132	0,336
7,415	-78,092	-0,247	-0,060
8,429	10,125	-0,311	-0,167
9,444	1,034	-0,328	-0,165
10,459	57,714	-0,192	-0,132
11,473	93,409	-0,182	-0,145
12,488	-26,146	-0,324	-0,134
13,502	-45,072	-0,383	-0,134
14,517	-46,214	-0,327	-0,113
15,531	-39,260	-0,498	-0,184
16,546	196,662	-0,337	-0,363
17,561	191,720	-0,391	-0,416
18,575	120,423	-0,221	-0,193
19,590	22,055	-0,234	-0,134
20,604	43,975	-0,250	-0,161
21,619	91,229	-0,381	-0,301
22,634	102,806	-0,523	-0,432
23,648	48,564	-0,472	-0,311
24,663	31,645	-0,332	-0,201
25,677	56,221	-0,326	-0,223
26,692	-55,892	-0,292	-0,091
27,707	87,213	-0,447	-0,348
28,721	-33,262	-0,403	-0,157
29,736	240,246	-0,295	-0,348
30,750	99,607	-0,449	-0,366
31,765	90,838	-0,284	-0,224
32,780	-19,006	-0,448	-0,195
33,794	43,360	-0,447	-0,287
34,809	155,794	-0,274	-0,266
35,823	26,952	-0,320	-0,189
36,838	58,688	-0,417	-0,288
37,853	162,391	-0,389	-0,384
38,867	66,954	-0,331	-0,237
39,882	669,665	-0,179	-0,327
40,896	167,220	-0,332	-0,333
41,911	208,496	-0,336	-0,370
42,926	93,788	-0,300	-0,240
43,940	164,598	-0,395	-0,393
44,955	20,917	-0,363	-0,206
45,969	164,732	-0,309	-0,308
46,984	84,769	-0,310	-0,239
47,999	-2,408	-0,232	-0,114
49,013	143,904	-0,340	-0,320
50,028	128,807	-0,344	-0,309
51,042	-42,702	-0,351	-0,125
52,057	41,122	-0,296	-0,188
53,071	495,844	-0,167	-0,271
54,086	62,424	-0,368	-0,258
55,101	127,122	-0,332	-0,296
56,115	-14,008	-0,375	-0,170
57,130	457,380	-0,262	-0,410
58,144	170,443	-0,289	-0,291
59,159	3,948	-0,466	-0,239
60,174	107,857	-0,332	-0,278
61,188	-70,703	-0,357	-0,094
62,203	140,943	-0,225	-0,209
63,217	0,696	-0,336	-0,168
64,232	-109,091	-0,482	-0,071
65,247	78,006	-0,320	-0,240
66,261	105,217	-0,286	-0,237
67,276	-38,362	-0,534	-0,198
68,290	17,984	-0,310	-0,173
69,305	-99,670	-0,381	-0,067
70,320	41,048	-0,276	-0,175
71,334	-139,579	-0,449	-0,033
72,349	-12,285	-0,234	-0,107
73,363	31,034	-0,319	-0,192
74,378	120,554	-0,294	-0,256
75,393	86,548	-0,284	-0,220
76,407	93,464	-0,201	-0,160
77,422	-45,933	-0,315	-0,109
78,436	131,322	-0,165	-0,149
79,451	-65,999	-0,394	-0,110
80,466	36,612	-0,292	-0,180
81,480	-39,847	-0,224	-0,082
82,495	70,038	-0,270	-0,195
83,509	-108,636	-0,223	-0,033
84,524	9,813	-0,198	-0,105
85,539	121,725	-0,309	-0,270
86,553	-79,811	-0,397	-0,093
87,568	-75,505	-0,199	-0,049
88,582	19,290	-0,450	-0,252
89,597	-59,836	-0,331	-0,099
90,611	-53,129	-0,319	-0,102
91,626	-46,279	-0,298	-0,102
92,641	-3,748	-0,325	-0,158
93,655	172,962	-0,172	-0,174
94,670	29,779	-0,291	-0,173
95,684	-88,994	-0,406	-0,084
96,699	248,463	-0,193	-0,230
97,714	800,000	-0,139	-0,310
98,728	-72,062	-0,256	-0,066
99,743	18,012	-0,326	-0,181
100,757	112,438	-0,263	-0,223
101,772	130,804	-0,341	-0,307
102,787	-200,000	-0,098	-0,360
103,801	800,000	-0,115	-0,255
104,816	27,322	-0,414	-0,243
105,830	199,292	-0,210	-0,225
106,845	-21,999	-0,277	-0,117
107,860	-69,337	-0,308	-0,082
108,874	84,525	-0,279	-0,214
109,889	407,188	-0,167	-0,247
110,903	-6,050	-0,387	-0,185
111,918	117,829	-0,277	-0,239
112,933	-55,167	-0,274	-0,086
113,947	112,277	-0,167	-0,141
114,962	117,466	-0,155	-0,133
115,976	172,187	-0,173	-0,174
116,991	-70,493	-0,354	-0,093
118,006	159,495	-0,238	-0,232
119,020	800,000	-0,060	-0,181
120,035	-69,291	-0,186	-0,050
121,049	-3,079	-0,289	-0,141
122,064	-44,974	-0,285	-0,099
123,079	489,114	-0,198	-0,318
124,093	-22,903	-0,368	-0,154
125,108	-76,263	-0,281	-0,069
126,122	-31,231	-0,202	-0,079
127,137	70,290	-0,215	-0,155
128,151	234,485	-0,163	-0,188
129,166	166,331	-0,221	-0,219
130,181	38,331	-0,258	-0,160
131,195	138,579	-0,225	-0,207
132,210	42,713	-0,268	-0,170
133,224	-8,010	-0,310	-0,145
134,239	535,766	-0,103	-0,171
135,254	67,133	-0,238	-0,169
136,268	310,008	-0,255	-0,333
137,283	202,148	-0,212	-0,229
138,297	-127,171	-0,248	0,025
139,312	61,802	-0,254	-0,176
140,327	-44,949	-0,321	-0,111
141,341	218,696	-0,151	-0,169
142,356	-15,360	-0,328	-0,146
143,370	23,944	-0,110	-0,063
144,385	446,458	-0,144	-0,222
145,400	26,790	-0,278	-0,162
146,414	93,396	-0,267	-0,211
147,429	87,113	-0,282	-0,217
148,443	-147,498	-0,320	0,019
149,458	5,004	-0,211	-0,108
150,473	11,965	-0,194	-0,104
151,487	-20,827	-0,317	-0,135
152,502	42,361	-0,184	-0,116
153,516	63,888	-0,204	-0,143
154,531	15,911	-0,320	-0,175
155,546	137,995	-0,233	-0,213
156,560	-6,354	-0,272	-0,129
157,575	13,359	-0,222	-0,120
158,589	123,794	-0,183	-0,160
159,604	157,686	-0,293	-0,282
160,619	171,411	-0,311	-0,311
161,633	-3,766	-0,289	-0,139
162,648	105,079	-0,260	-0,213
163,662	82,781	-0,132	-0,099
164,677	-50,596	-0,167	-0,055
165,692	-21,488	-0,268	-0,113
166,706	68,766	-0,204	-0,146
167,721	138,605	-0,187	-0,171
168,735	-37,893	-0,292	-0,107
169,750	76,079	-0,194	-0,143
170,764	243,890	-0,203	-0,238
171,779	179,717	-0,222	-0,226
172,794	-33,809	-0,210	-0,080
173,808	47,148	-0,223	-0,144
174,823	20,733	-0,379	-0,213
175,837	148,576	-0,280	-0,263
176,852	279,969	-0,166	-0,206
177,867	164,173	-0,197	-0,193
178,881	-21,627	-0,212	-0,089
179,896	-26,942	-0,214	-0,086
180,910	-26,494	-0,279	-0,113
181,925	254,010	-0,196	-0,233
182,940	103,529	-0,259	-0,212
183,954	132,390	-0,147	-0,132
184,969	-110,929	-0,134	-0,019
185,983	172,478	-0,191	-0,192
186,998	243,791	-0,203	-0,237
188,013	87,812	-0,197	-0,152
189,027	-120,036	-0,247	0,029
190,042	-0,047	-0,302	-0,149
191,056	194,123	-0,140	-0,147
192,071	-7,895	-0,230	-0,107
193,086	53,471	-0,237	-0,158
194,100	100,664	-0,210	-0,170
195,115	262,009	-0,165	-0,199
196,129	223,392	-0,151	-0,169
197,144	274,178	-0,150	-0,184
198,159	-50,676	-0,214	-0,070
199,173	-87,354	-0,290	-0,060
200,188	335,953	-0,181	-0,245
201,202	3,579	-0,228	-0,115
202,217	800,000	-0,214	-0,427
203,232	283,282	-0,180	-0,225
204,246	102,386	-0,253	-0,205
205,261	273,919	-0,233	-0,286
206,275	-18,922	-0,189	-0,081
207,290	22,633	-0,167	-0,095
208,304	89,586	-0,137	-0,106
209,319	120,136	-0,155	-0,133
210,334	-44,791	-0,217	-0,075
211,348	33,487	-0,279	-0,168
212,363	174,049	-0,226	-0,227
213,377	140,952	-0,164	-0,150
214,392	139,162	-0,224	-0,204
215,407	3,885	-0,126	0,064
216,421	177,421	-0,126	-0,127
217,436	28,280	-0,159	-0,093
218,450	99,556	-0,201	-0,161
219,465	42,817	-0,270	-0,170
220,480	-32,588	-0,192	-0,074
221,494	-200,000	0,026	-0,168
222,509	431,406	-0,119	-0,179
223,523	-150,711	-0,166	0,009
224,538	-180,697	-0,154	0,002
225,553	-200,000	-0,045	-0,228
226,567	71,071	-0,258	-0,185
227,582	133,700	-0,144	-0,129
228,596	27,506	-0,187	-0,109
229,611	288,029	-0,168	-0,212
230,626	-64,328	-0,107	-0,030
231,640	62,482	-0,163	-0,113
232,655	-6,328	-0,265	-0,125
233,669	-2,309	-0,361	-0,175
234,684	-34,405	-0,289	-0,109
235,699	92,941	-0,246	-0,192
236,713	287,465	-0,132	-0,165
237,728	-1,298	-0,233	-0,114
238,742	71,097	-0,150	-0,108
239,757	-17,722	-0,251	-0,109
240,772	73,786	-0,200	-0,145
241,786	112,598	-0,199	-0,167
242,801	93,090	-0,168	-0,131
243,815	-200,000	-0,006	-0,207
244,830	-54,294	-0,089	-0,028
245,844	-71,556	-0,140	-0,036
246,859	800,000	-0,068	-0,164
247,874	-7,655	-0,297	-0,138
248,888	192,200	-0,056	-0,059
249,903	124,732	-0,208	-0,181
250,917	-200,000	-0,273	-0,001
251,932	134,643	-0,165	-0,148
252,947	800,000	-0,108	-0,288
253,961	67,351	-0,259	-0,182
254,976	240,268	-0,131	-0,152
255,990	226,093	-0,169	-0,190
257,005	18,737	-0,104	0,057
258,020	-76,558	-0,189	-0,046
259,034	165,244	-0,145	-0,141
260,049	155,187	-0,186	-0,177
261,063	22,660	-0,148	-0,083
262,078	120,118	-0,280	-0,240
263,093	-8,815	-0,061	-0,028
264,107	64,533	-0,228	-0,159
265,122	90,541	-0,120	-0,093
266,136	81,019	-0,134	-0,100
267,151	800,000	-0,011	-0,027
268,166	140,194	-0,126	-0,115
269,180	251,358	-0,122	-0,143
270,195	754,892	-0,136	-0,255
271,209	-26,665	-0,273	-0,110
272,224	237,329	-0,161	-0,185
273,239	34,588	-0,093	-0,056
274,253	471,287	-0,126	-0,196
275,268	66,545	-0,247	-0,173
276,282	-180,111	-0,138	-0,002
277,297	522,119	-0,137	-0,223
278,312	182,564	-0,214	-0,218
279,326	-5,643	-0,244	-0,115
280,341	-87,792	-0,161	0,033
281,355	0,112	-0,143	-0,070
282,370	-48,343	-0,209	-0,069
283,384	-53,370	-0,177	-0,056
284,399	-101,439	-0,247	-0,041
285,414	-24,786	-0,175	-0,072
286,428	-125,451	-0,127	0,013
287,443	287,623	-0,170	-0,212
288,457	340,957	-0,160	-0,216
289,472	-172,539	-0,186	0,004
290,487	22,254	-0,122	-0,069
291,501	34,326	-0,201	-0,121
292,516	68,735	-0,241	-0,170
293,530	-150,944	-0,144	-0,007
294,545	800,000	-0,052	-0,135
295,560	406,279	-0,079	-0,115
296,574	489,480	-0,113	-0,178
297,589	186,479	-0,111	-0,114
298,603	160,748	-0,118	-0,114
299,618	-24,318	-0,171	0,070
300,633	74,896	-0,108	-0,079
301,647	800,000	-0,105	-0,227
302,662	469,025	-0,120	-0,187
303,676	62,189	-0,213	-0,146
304,691	335,384	-0,170	-0,228
305,706	-22,640	-0,144	-0,060
306,720	800,000	-0,119	-0,230
307,735	-78,343	-0,152	0,035
308,749	-200,000	-0,035	-0,145
309,764	-86,203	-0,162	0,034
310,779	800,000	-0,063	-0,125
311,793	445,952	-0,072	-0,109
312,808	110,198	-0,168	-0,139
313,822	-91,295	-0,182	-0,036
314,837	77,060	-0,100	0,073
315,852	-13,490	-0,101	-0,045
316,866	422,898	-0,123	0,183
317,881	-48,675	-0,101	-0,033
318,895	-37,149	-0,194	-0,071
319,910	-81,020	-0,203	-0,046
320,925	-85,499	-0,097	-0,021
321,939	160,957	-0,075	-0,072
322,954	36,957	-0,145	-0,088
323,968	-111,595	-0,076	0,010
324,983	800,000	-0,071	-0,143
325,997	726,926	-0,077	-0,142
327,012	141,822	-0,163	-0,149
328,027	45,932	-0,274	-0,173
329,041	27,334	-0,109	0,063
330,056	464,087	-0,101	-0,155
331,070	-69,007	-0,076	-0,020
332,085	-123,205	-0,096	-0,010
333,100	48,008	-0,186	-0,119
334,114	-101,316	-0,093	0,015
335,129	182,973	-0,106	-0,108
336,143	-200,000	-0,151	-0,000
337,158	75,475	-0,258	-0,187
338,173	130,384	-0,028	-0,024
339,187	42,840	-0,145	0,090
340,202	-35,511	-0,124	0,046
341,216	800,000	-0,082	-0,173
342,231	-200,000	-0,030	-0,192
343,246	-42,909	-0,115	-0,040
344,260	72,802	-0,068	-0,049
345,275	800,000	-0,074	-0,185
346,289	723,892	-0,102	-0,187
347,304	-66,761	-0,115	-0,031
348,319	179,150	-0,172	-0,173
349,333	24,994	-0,153	-0,087
350,348	-200,000	0,022	-0,166
351,362	-47,751	-0,181	0,060
352,377	228,423	-0,145	-0,162
353,392	-105,284	-0,039	-0,006
354,406	-49,168	-0,179	-0,058
355,421	208,730	1315,763	1412,041
356,435	160,614	1476,611	1412,510
