DTS Sentinel unit serial number:	SN410029Multiplexer serial number:	ORYXHardware model number:	OX2-SRSoftware version number:	ORYX F/W v4,00 Oryx Data Collector v3.7.2.0data status	okinstallation	B3 Nyhavnadifferential loss correction	single-endedforward channel	channel 1reverse channel	N/Adate	2023/12/04time	12:47:30forward acquisition time	300,00reverse acquisition time	0,00gamma	499,1914k internal	0,3202k external	0,3202temperature offset calibration	1,0000default loss term (dB/km)	0,3820temperature slope calibration	1,0000multiplexer offset coefficient	1,0000multiplexer slope coefficient	1,0000fibre end	0,00T internal ref (°C)	14,62T ext. ref 1 (°C)	0,25T ext. ref 2 (°C)	0,23length (m)	temperature (°C)	Stokes	anti-Stokes-744,400	220,280	-0,233	-0,272
-743,385	-200,000	-0,030	0,197
-742,371	-31,832	-0,241	-0,098
-741,356	-200,000	0,045	0,308
-740,342	135,054	-0,210	-0,198
-739,327	-200,000	-0,040	0,326
-738,312	12,292	-0,180	-0,100
-737,298	314,530	-0,171	0,235
-736,283	215,813	-0,228	-0,264
-735,269	800,000	0,089	0,249
-734,254	37,569	-0,256	-0,165
-733,239	99,715	-0,173	0,146
-732,225	58,342	-0,291	-0,207
-731,210	312,623	0,143	0,195
-730,196	-200,000	0,008	-0,036
-729,181	-85,248	-0,167	-0,038
-728,167	130,124	0,105	-0,098
-727,152	3,748	-0,152	0,080
-726,137	420,193	-0,046	0,072
-725,123	49,069	-0,068	-0,046
-724,108	-200,000	0,043	-0,174
-723,094	256,264	-0,089	-0,111
-722,079	800,000	0,006	-0,018
-721,064	96,960	0,047	-0,039
-720,050	389,732	0,023	0,034
-719,035	465,074	-0,050	-0,081
-718,021	323,576	-0,069	-0,095
-717,006	105,436	-0,122	-0,104
-715,991	-200,000	-0,006	-0,071
-714,977	617,682	-0,060	-0,111
-713,962	-200,000	-0,011	-0,130
-712,948	49,455	0,085	0,058
-711,933	481,172	0,020	0,033
-710,918	-51,263	0,061	-0,021
-709,904	785,155	-0,059	-0,118
-708,889	-200,000	0,007	0,059
-707,875	626,791	0,056	-0,102
-706,860	-97,772	0,089	-0,017
-705,845	-33,741	0,101	0,040
-704,831	796,149	0,059	0,120
-703,816	-112,633	-0,070	-0,010
-702,802	171,935	0,081	0,084
-701,787	-200,000	-0,001	-0,032
-700,772	-86,719	0,126	0,028
-699,758	149,239	-0,068	-0,067
-698,743	88,577	0,032	0,026
-697,729	-61,983	0,062	-0,019
-696,714	800,000	-0,033	0,067
-695,699	338,420	-0,066	0,094
-694,685	419,918	0,094	0,147
-693,670	-195,289	-0,098	0,001
-692,656	40,570	-0,087	-0,057
-691,641	-46,330	-0,127	0,045
-690,627	-200,000	0,002	0,107
-689,612	219,301	0,051	0,059
-688,597	403,298	-0,055	-0,085
-687,583	37,315	-0,084	0,054
-686,568	-32,577	0,116	-0,047
-685,554	10,517	0,067	0,037
-684,539	-20,338	0,022	-0,010
-683,524	-164,022	0,017	-0,001
-682,510	-36,033	0,030	0,012
-681,495	112,880	-0,047	0,042
-680,481	-88,452	-0,177	-0,038
-679,466	-200,000	-0,049	-0,163
-678,451	-158,961	-0,077	0,003
-677,437	8,420	-0,107	0,058
-676,422	645,879	-0,007	-0,012
-675,408	800,000	0,019	-0,044
-674,393	800,000	0,024	-0,064
-673,378	-8,752	-0,089	0,043
-672,364	-56,993	0,091	-0,029
-671,349	-200,000	0,016	0,053
-670,335	-100,213	0,188	-0,034
-669,320	109,230	-0,074	0,065
-668,305	800,000	-0,030	0,095
-667,291	-65,942	-0,240	0,069
-666,276	123,954	0,058	-0,053
-665,262	-200,000	0,004	-0,026
-664,247	-37,024	-0,224	-0,087
-663,232	249,899	-0,121	-0,149
-662,218	116,812	0,125	0,111
-661,203	307,029	-0,038	0,052
-660,189	24,476	0,079	0,047
-659,174	10,898	-0,066	-0,036
-658,159	-174,848	0,145	0,003
-657,145	80,082	-0,125	0,097
-656,130	107,156	0,045	0,039
-655,116	-16,512	0,045	-0,021
-654,101	260,735	0,035	0,044
-653,086	-130,544	-0,049	-0,005
-652,072	3,067	-0,132	-0,069
-651,057	-200,000	-0,010	-0,132
-650,043	-134,162	-0,123	0,011
-649,028	800,000	0,032	-0,067
-648,014	-200,000	-0,029	-0,103
-646,999	-200,000	0,011	-0,106
-645,984	-89,104	0,050	-0,011
-644,970	-200,000	0,017	-0,089
-643,955	189,264	0,044	0,048
-642,941	110,742	-0,039	-0,034
-641,926	366,797	-0,091	-0,133
-640,911	49,818	0,085	-0,058
-639,897	-200,000	0,001	0,040
-638,882	-200,000	-0,017	0,160
-637,868	-1,029	-0,021	-0,011
-636,853	-72,370	-0,114	-0,030
-635,838	800,000	0,049	-0,103
-634,824	-200,000	-0,006	-0,115
-633,809	-200,000	-0,002	-0,067
-632,795	-20,448	0,024	0,011
-631,780	-1,911	0,042	-0,021
-630,765	-200,000	-0,014	0,076
-629,751	155,916	-0,082	-0,082
-628,736	-200,000	-0,010	0,100
-627,722	-76,717	-0,071	-0,018
-626,707	800,000	0,044	0,123
-625,692	308,417	-0,002	0,002
-624,678	-26,782	0,082	0,035
-623,663	229,040	0,011	-0,013
-622,649	-200,000	-0,036	-0,180
-621,634	664,071	0,049	-0,091
-620,619	160,172	-0,059	-0,059
-619,605	95,593	0,092	-0,076
-618,590	-200,000	0,003	-0,023
-617,576	175,574	0,098	-0,103
-616,561	49,115	0,055	0,037
-615,546	-22,020	-0,048	0,021
-614,532	-200,000	0,038	0,141
-613,517	30,983	-0,216	-0,134
-612,503	16,375	-0,070	0,040
-611,488	-144,539	0,038	-0,003
-610,474	-84,005	0,059	0,013
-609,459	800,000	-0,030	-0,061
-608,444	-200,000	0,012	-0,105
-607,430	-200,000	0,023	-0,089
-606,415	-200,000	0,034	-0,126
-605,401	-200,000	-0,030	0,203
-604,386	-200,000	-0,016	0,056
-603,371	693,854	-0,028	0,054
-602,357	-200,000	0,011	0,103
-601,342	800,000	-0,080	-0,175
-600,328	112,711	-0,025	-0,022
-599,313	15,913	-0,152	-0,087
-598,298	-200,000	0,016	0,073
-597,284	800,000	0,019	0,054
-596,269	800,000	-0,021	-0,047
-595,255	-128,274	-0,155	0,016
-594,240	254,986	-0,047	0,058
-593,225	-36,343	-0,038	0,015
-592,211	346,324	-0,038	-0,054
-591,196	-200,000	-0,005	-0,217
-590,182	-200,000	-0,014	0,118
-589,167	130,294	-0,087	0,080
-588,152	225,515	0,031	0,036
-587,138	-88,321	-0,107	0,023
-586,123	129,958	0,039	-0,036
-585,109	7,150	-0,078	0,042
-584,094	111,963	-0,065	0,056
-583,079	255,039	0,076	0,094
-582,065	-200,000	0,003	-0,028
-581,050	-200,000	-0,001	0,021
-580,036	800,000	-0,035	0,097
-579,021	186,028	0,131	-0,141
-578,006	-147,152	0,084	-0,005
-576,992	143,398	0,091	0,088
-575,977	-200,000	-0,015	0,057
-574,963	-45,630	0,156	-0,055
-573,948	-140,681	0,055	0,004
-572,934	-200,000	0,002	0,033
-571,919	210,263	-0,044	0,051
-570,904	800,000	0,024	-0,067
-569,890	800,000	-0,018	0,039
-568,875	-162,673	-0,106	-0,004
-567,861	-200,000	-0,015	-0,091
-566,846	-200,000	-0,003	-0,124
-565,831	-42,077	-0,019	0,007
-564,817	14,979	-0,098	-0,055
-563,802	-162,008	0,116	-0,004
-562,788	234,808	-0,124	0,148
-561,773	-200,000	-0,017	-0,107
-560,758	-28,223	0,055	-0,023
-559,744	60,349	0,130	0,093
-558,729	-123,606	0,107	0,012
-557,715	-200,000	0,024	-0,084
-556,700	-66,482	-0,032	-0,009
-555,685	-107,933	0,012	0,002
-554,671	-94,060	-0,076	-0,015
-553,656	190,597	0,032	0,035
-552,642	-91,353	0,016	-0,003
-551,627	62,281	-0,044	0,032
-550,612	-123,879	0,040	-0,004
-549,598	86,325	-0,125	-0,099
-548,583	-200,000	-0,001	-0,007
-547,569	-200,000	0,001	-0,073
-546,554	-200,000	-0,006	0,040
-545,539	-200,000	0,015	-0,116
-544,525	-200,000	0,006	0,077
-543,510	90,896	0,130	-0,105
-542,496	-200,000	-0,049	-0,167
-541,481	95,028	-0,053	-0,043
-540,466	557,230	-0,008	0,015
-539,452	365,656	0,064	-0,093
-538,437	-126,180	-0,114	0,012
-537,423	800,000	0,050	0,148
-536,408	-64,981	-0,102	-0,030
-535,393	-99,097	-0,058	0,010
-534,379	800,000	-0,045	-0,092
-533,364	-200,000	-0,018	0,057
-532,350	263,257	0,048	0,060
-531,335	-200,000	-0,028	0,154
-530,321	-200,000	-0,030	0,214
-529,306	-69,849	-0,051	0,014
-528,291	-200,000	0,014	0,165
-527,277	-154,333	0,031	0,001
-526,262	-180,407	-0,146	0,002
-525,248	-55,672	0,118	0,038
-524,233	359,843	0,041	-0,059
-523,218	-195,180	-0,127	-0,001
-522,204	488,102	0,075	-0,125
-521,189	800,000	0,035	-0,097
-520,175	-200,000	0,007	0,132
-519,160	-19,260	0,077	0,034
-518,145	-44,731	0,089	0,032
-517,131	-167,612	0,164	0,005
-516,116	800,000	-0,044	0,090
-515,102	800,000	0,049	-0,153
-514,087	-200,000	-0,038	-0,127
-513,072	89,754	-0,033	0,026
-512,058	-32,841	-0,127	-0,051
-511,043	800,000	0,016	0,046
-510,029	-69,441	-0,074	0,020
-509,014	-89,369	0,044	0,009
-507,999	31,563	0,062	-0,038
-506,985	140,437	-0,146	-0,139
-505,970	237,558	-0,117	0,140
-504,956	-5,264	-0,094	0,046
-503,941	468,341	0,039	-0,063
-502,926	800,000	0,047	-0,095
-501,912	419,037	-0,011	-0,017
-500,897	-111,953	-0,098	0,014
-499,883	-187,715	-0,073	-0,001
-498,868	58,007	0,083	-0,058
-497,853	51,083	0,039	-0,026
-496,839	-200,000	0,003	-0,042
-495,824	-36,802	-0,046	-0,018
-494,810	795,582	0,081	0,161
-493,795	800,000	0,024	0,052
-492,781	395,007	0,057	0,086
-491,766	-200,000	-0,080	-0,000
-490,751	76,195	-0,101	0,077
-489,737	-200,000	0,002	0,034
-488,722	-200,000	-0,002	0,121
-487,708	-200,000	0,019	-0,100
-486,693	800,000	0,007	-0,014
-485,678	800,000	0,046	-0,142
-484,664	69,250	-0,104	-0,077
-483,649	800,000	-0,046	-0,093
-482,635	5,027	-0,099	-0,052
-481,620	125,013	-0,144	0,130
-480,605	800,000	-0,040	0,096
-479,591	-136,882	0,151	-0,012
-478,576	-66,594	0,148	-0,042
-477,562	800,000	-0,036	-0,079
-476,547	-200,000	0,016	-0,098
-475,532	188,377	-0,012	0,013
-474,518	-200,000	-0,012	0,040
-473,503	-23,599	0,031	0,013
-472,489	800,000	-0,070	0,180
-471,474	800,000	0,058	-0,126
-470,459	-32,694	-0,177	0,070
-469,445	-200,000	-0,010	-0,096
-468,430	-87,787	0,129	-0,028
-467,416	168,085	0,051	-0,052
-466,401	178,782	-0,045	0,047
-465,386	-200,000	0,052	0,183
-464,372	-200,000	-0,015	-0,076
-463,357	-86,988	-0,044	0,010
-462,343	-200,000	-0,003	0,094
-461,328	373,518	-0,088	-0,130
-460,313	28,452	0,052	-0,031
-459,299	773,531	0,061	0,120
-458,284	64,861	-0,083	-0,060
-457,270	-73,673	0,083	0,021
-456,255	-170,737	-0,235	0,006
-455,241	800,000	-0,042	0,110
-454,226	60,743	-0,064	-0,045
-453,211	-41,202	0,087	0,032
-452,197	-200,000	0,011	0,055
-451,182	800,000	-0,005	-0,012
-450,168	-200,000	-0,008	0,092
-449,153	81,118	-0,051	0,039
-448,138	-101,960	-0,088	-0,015
-447,124	241,190	0,063	0,076
-446,109	36,290	0,062	-0,039
-445,095	326,468	-0,079	0,109
-444,080	42,066	0,162	0,106
-443,065	-200,000	-0,005	0,037
-442,051	51,996	-0,033	0,023
-441,036	-27,886	0,118	-0,049
-440,022	218,385	-0,081	-0,093
-439,007	479,971	-0,011	-0,019
-437,992	22,561	0,067	-0,039
-436,978	-200,000	0,003	0,046
-435,963	-32,648	0,123	0,049
-434,949	239,920	0,095	-0,114
-433,934	-0,536	0,206	-0,105
-432,919	183,815	-0,096	0,102
-431,905	-46,481	-0,041	-0,014
-430,890	-200,000	-0,010	-0,062
-429,876	40,444	0,117	0,076
-428,861	467,835	0,096	-0,156
-427,846	437,412	0,042	-0,066
-426,832	-200,000	-0,001	-0,042
-425,817	-200,000	-0,016	-0,070
-424,803	-164,111	0,256	-0,008
-423,788	-28,400	0,014	-0,006
-422,773	434,006	0,010	0,015
-421,759	-200,000	0,020	0,078
-420,744	377,446	0,047	-0,069
-419,730	-94,761	0,087	-0,017
-418,715	79,797	-0,135	-0,104
-417,701	82,901	0,035	-0,027
-416,686	53,363	0,223	0,153
-415,671	176,876	0,035	0,037
-414,657	-175,990	0,068	0,001
-413,642	110,775	-0,055	0,047
-412,628	92,952	-0,038	0,031
-411,613	95,392	0,059	-0,048
-410,598	-66,003	-0,048	0,014
-409,584	-65,901	-0,093	-0,027
-408,569	800,000	0,045	0,130
-407,555	137,327	0,016	0,015
-406,540	143,925	-0,027	0,026
-405,525	-200,000	0,008	-0,125
-404,511	374,866	0,035	-0,051
-403,496	-96,567	0,097	-0,018
-402,482	-29,971	-0,117	0,047
-401,467	294,718	-0,049	0,064
-400,452	187,155	-0,110	0,118
-399,438	-41,651	-0,146	0,054
-398,423	-200,000	-0,023	0,108
-397,409	432,401	0,012	0,019
-396,394	-200,000	-0,003	0,078
-395,379	679,410	-0,122	-0,228
-394,365	-200,000	0,001	-0,041
-393,350	-12,694	-0,154	-0,072
-392,336	71,188	0,089	-0,066
-391,321	-81,866	-0,178	0,042
-390,306	-200,000	-0,002	0,024
-389,292	-200,000	-0,008	0,036
-388,277	-200,000	-0,010	0,043
-387,263	-24,395	-0,137	0,058
-386,248	-83,699	0,130	0,030
-385,233	-200,000	0,016	0,112
-384,219	-200,000	0,052	0,199
-383,204	800,000	0,019	-0,053
-382,190	156,990	-0,021	0,020
-381,175	-169,914	-0,035	-0,001
-380,160	800,000	0,035	0,077
-379,146	-200,000	0,018	0,079
-378,131	-200,000	0,016	0,141
-377,117	-200,000	0,004	-0,021
-376,102	288,236	-0,095	0,123
-375,088	-200,000	-0,042	-0,147
-374,073	-200,000	0,004	-0,043
-373,058	34,430	0,030	-0,019
-372,044	-21,005	0,157	0,069
-371,029	800,000	0,064	0,143
-370,015	-200,000	0,052	-0,196
-369,000	467,103	-0,017	0,027
-367,985	163,162	-0,077	0,077
-366,971	-200,000	-0,001	-0,020
-365,956	1,699	0,156	0,080
-364,942	129,344	0,029	-0,027
-363,927	469,511	0,061	-0,099
-362,912	-160,567	-0,057	0,002
-361,898	-34,967	-0,099	-0,038
-360,883	-144,524	-0,067	0,004
-359,869	347,790	0,066	-0,094
-358,854	54,806	-0,030	0,020
-357,839	315,518	0,043	-0,058
-356,825	-101,929	0,167	-0,029
-355,810	-8,754	-0,068	-0,033
-354,796	-200,000	0,009	-0,064
-353,781	-200,000	0,012	0,190
-352,766	-74,437	-0,165	0,042
-351,752	-67,956	-0,052	0,014
-350,737	-6,939	0,065	0,032
-349,723	216,457	0,077	0,088
-348,708	680,973	-0,027	0,051
-347,693	800,000	0,003	0,009
-346,679	800,000	0,012	-0,027
-345,664	-200,000	0,022	0,109
-344,650	164,913	-0,036	0,037
-343,635	-200,000	0,014	-0,052
-342,620	-14,894	0,049	-0,022
-341,606	-99,061	0,180	0,032
-340,591	222,704	0,124	-0,144
-339,577	69,223	-0,157	-0,115
-338,562	-200,000	-0,024	-0,123
-337,548	27,462	0,053	-0,032
-336,533	-132,684	0,092	-0,008
-335,518	67,593	0,049	-0,036
-334,504	-180,736	0,062	-0,001
-333,489	-200,000	-0,013	-0,075
-332,475	308,046	0,032	-0,043
-331,460	-123,679	-0,051	-0,006
-330,445	536,913	0,027	-0,046
-329,431	144,073	0,075	-0,072
-328,416	-200,000	0,001	-0,080
-327,402	-200,000	-0,011	-0,077
-326,387	13,217	0,054	0,030
-325,372	800,000	0,021	0,063
-324,358	-200,000	-0,040	-0,187
-323,343	-83,669	-0,086	-0,019
-322,329	-71,874	0,101	0,027
-321,314	14,235	-0,076	-0,042
-320,299	-200,000	0,007	0,041
-319,285	-200,000	0,016	-0,093
-318,270	650,881	-0,040	-0,073
-317,256	-28,213	0,132	0,054
-316,241	-58,941	-0,182	0,056
-315,226	41,184	0,099	-0,064
-314,212	-200,000	0,004	0,033
-313,197	800,000	0,079	0,182
-312,183	80,573	-0,086	-0,066
-311,168	55,706	-0,032	0,022
-310,153	35,644	-0,056	0,035
-309,139	-137,981	0,082	0,006
-308,124	103,764	0,063	0,053
-307,110	-164,187	-0,136	0,004
-306,095	106,125	0,088	0,074
-305,080	800,000	0,029	-0,070
-304,066	-41,722	-0,132	0,048
-303,051	300,927	0,035	0,046
-302,037	-152,417	-0,049	0,002
-301,022	309,938	-0,076	0,102
-300,008	-200,000	0,039	0,183
-298,993	187,481	0,051	0,055
-297,978	-200,000	-0,020	0,091
-296,964	800,000	0,045	-0,124
-295,949	212,700	-0,079	-0,089
-294,935	114,221	-0,073	-0,063
-293,920	-4,781	0,081	0,040
-292,905	800,000	0,017	-0,033
-291,891	569,236	0,051	-0,089
-290,876	-70,289	0,044	0,012
-289,862	800,000	-0,017	-0,049
-288,847	386,881	-0,084	0,124
-287,832	-93,262	-0,058	0,011
-286,818	-93,111	-0,068	-0,013
-285,803	-125,300	-0,093	0,010
-284,789	-200,000	-0,021	0,162
-283,774	-200,000	0,016	0,128
-282,759	157,323	-0,040	-0,039
-281,745	469,025	-0,050	-0,081
-280,730	769,897	-0,060	0,118
-279,716	-83,806	0,097	-0,022
-278,701	-200,000	-0,009	0,031
-277,686	92,047	-0,081	-0,065
-276,672	-79,420	-0,090	-0,022
-275,657	359,681	0,033	0,047
-274,643	-69,466	-0,089	-0,024
-273,628	-200,000	0,019	-0,119
-272,613	609,555	-0,052	-0,093
-271,599	115,978	0,040	-0,035
-270,584	206,022	0,143	0,159
-269,570	385,417	0,060	0,088
-268,555	50,453	-0,089	0,060
-267,540	-53,464	0,121	0,039
-266,526	-200,000	-0,000	-0,104
-265,511	111,861	-0,036	-0,031
-264,497	-200,000	0,004	0,021
-263,482	-96,196	0,203	0,038
-262,467	420,061	0,032	0,048
-261,453	800,000	0,029	-0,080
-260,438	-100,071	-0,033	0,006
-259,424	-111,727	0,057	-0,008
-258,409	-27,621	-0,034	-0,014
-257,395	-49,635	-0,048	-0,016
-256,380	724,357	-0,043	0,082
-255,365	-23,873	0,080	0,034
-254,351	85,301	-0,046	-0,036
-253,336	-7,155	0,038	0,018
-252,322	69,655	0,078	0,058
-251,307	-200,000	-0,006	-0,078
-250,292	238,609	-0,024	-0,028
-249,278	-135,395	-0,101	-0,008
-248,263	-38,168	0,094	0,036
-247,249	-7,271	0,143	0,069
-246,234	139,806	-0,123	-0,115
-245,219	149,676	-0,064	-0,062
-244,205	-14,374	0,038	0,017
-243,190	-200,000	-0,037	-0,161
-242,176	754,327	-0,030	-0,058
-241,161	-5,405	-0,024	0,012
-240,146	-33,226	0,050	-0,020
-239,132	127,735	-0,034	0,030
-238,117	-109,895	-0,061	0,009
-237,103	-41,094	-0,125	-0,046
-236,088	-18,795	0,115	-0,051
-235,073	88,632	0,147	-0,117
-234,059	-120,382	-0,052	-0,006
-233,044	639,745	0,050	-0,091
-232,030	589,673	0,056	-0,100
-231,015	-200,000	0,025	-0,108
-230,000	208,622	-0,116	-0,129
-228,986	-200,000	-0,007	-0,059
-227,971	46,162	0,066	0,043
-226,957	-96,933	-0,076	0,014
-225,942	-200,000	0,026	0,123
-224,927	43,961	-0,064	0,042
-223,913	-200,000	-0,020	-0,080
-222,898	128,548	-0,056	0,051
-221,884	-58,792	0,063	0,019
-220,869	336,325	-0,044	0,060
-219,855	76,958	0,105	-0,080
-218,840	42,904	0,066	0,043
-217,825	-200,000	-0,021	0,098
-216,811	253,721	-0,019	-0,024
-215,796	800,000	-0,053	-0,112
-214,782	-114,297	-0,132	0,018
-213,767	419,668	0,012	0,018
-212,752	-200,000	-0,056	0,187
-211,738	-144,537	0,143	0,009
-210,723	-200,000	-0,027	0,220
-209,709	-62,154	-0,115	-0,034
-208,694	573,938	-0,022	-0,038
-207,679	-73,759	-0,059	-0,015
-206,665	-200,000	0,038	-0,123
-205,650	-173,699	0,100	-0,002
-204,636	-200,000	0,012	0,098
-203,621	-200,000	0,029	0,198
-202,606	800,000	0,022	-0,055
-201,592	800,000	-0,027	-0,069
-200,577	127,542	0,054	0,049
-199,563	194,774	-0,077	0,084
-198,548	-79,452	0,116	0,028
-197,533	77,124	-0,109	0,082
-196,519	456,038	-0,045	0,071
-195,504	800,000	-0,024	-0,061
-194,490	151,839	-0,082	0,080
-193,475	800,000	0,046	0,094
-192,460	-200,000	0,002	-0,125
-191,446	104,458	0,197	-0,165
-190,431	238,040	0,056	0,066
-189,417	-63,164	0,088	-0,026
-188,402	408,109	0,069	0,104
-187,387	-73,185	-0,079	-0,020
-186,373	65,750	0,112	-0,081
-185,358	18,009	0,087	-0,049
-184,344	-200,000	0,014	0,071
-183,329	48,470	0,101	0,067
-182,315	147,978	-0,138	0,132
-181,300	-178,578	0,103	-0,002
-180,285	-142,015	0,047	-0,003
-179,271	16,136	0,035	-0,020
-178,256	206,040	-0,014	0,015
-177,242	-122,074	-0,147	-0,017
-176,227	4,706	0,180	-0,094
-175,212	800,000	-0,060	0,147
-174,198	-80,981	-0,148	-0,035
-173,183	-200,000	-0,011	-0,038
-172,169	-11,451	-0,041	-0,019
-171,154	36,343	-0,069	0,043
-170,139	161,740	-0,077	-0,076
-169,125	515,553	0,040	-0,067
-168,110	112,382	0,052	-0,044
-167,096	-200,000	0,011	0,063
-166,081	-200,000	-0,007	0,055
-165,066	800,000	-0,061	-0,159
-164,052	164,231	-0,081	0,081
-163,037	-24,036	-0,057	-0,024
-162,023	-72,862	0,161	0,042
-161,008	522,989	0,041	0,069
-159,993	45,004	-0,081	0,053
-158,979	-75,454	-0,129	0,032
-157,964	-173,423	-0,076	0,002
-156,950	800,000	0,033	0,076
-155,935	138,978	-0,074	0,070
-154,920	-152,815	0,167	0,008
-153,906	71,919	0,098	-0,072
-152,891	270,639	0,037	0,047
-151,877	-67,189	-0,052	-0,014
-150,862	743,060	0,071	-0,137
-149,847	-90,117	-0,164	0,034
-148,833	-17,946	-0,088	0,039
-147,818	382,518	0,101	0,148
-146,804	632,605	-0,034	0,062
-145,789	252,269	-0,070	-0,084
-144,775	89,029	0,105	0,083
-143,760	-44,021	-0,056	-0,020
-142,745	-200,000	-0,003	-0,059
-141,731	336,777	0,070	0,097
-140,716	489,054	-0,038	0,061
-139,702	-200,000	0,006	0,067
-138,687	-200,000	-0,018	0,234
-137,672	800,000	-0,042	-0,115
-136,658	-99,090	-0,192	0,034
-135,643	-69,776	0,140	-0,038
-134,629	-137,358	0,011	-0,001
-133,614	-53,510	0,067	-0,022
-132,599	343,869	-0,049	0,068
-131,585	259,818	0,048	-0,059
-130,570	-112,049	-0,147	0,021
-129,556	-157,742	-0,135	0,006
-128,541	-35,825	0,036	0,014
-127,526	-200,000	-0,022	0,098
-126,512	800,000	0,020	0,055
-125,497	-3,296	0,184	0,091
-124,483	-126,165	-0,140	0,015
-123,468	199,809	0,026	0,028
-122,453	128,147	-0,116	-0,105
-121,439	361,729	-0,112	-0,160
-120,424	-200,000	0,021	-0,090
-119,410	800,000	-0,014	0,043
-118,395	446,087	-0,032	0,050
-117,380	563,708	0,017	-0,029
-116,366	-93,174	-0,085	0,017
-115,351	-200,000	0,015	0,100
-114,337	-153,883	-0,062	-0,003
-113,322	-110,409	-0,013	0,002
-112,307	725,732	-0,017	0,033
-111,293	-136,458	0,053	-0,004
-110,278	-40,363	-0,022	-0,008
-109,264	-43,520	-0,112	0,040
-108,249	60,428	0,049	-0,035
-107,234	-4,388	-0,064	0,032
-106,220	-200,000	0,002	-0,032
-105,205	-33,644	-0,068	-0,026
-104,191	212,355	0,064	-0,071
-103,176	-200,000	0,015	-0,073
-102,162	486,924	-0,045	0,074
-101,147	79,777	-0,133	0,101
-100,132	154,084	-0,034	0,034
-99,118	-22,021	-0,130	0,056
-98,103	-125,116	-0,046	-0,005
-97,089	800,000	0,019	-0,045
-96,074	184,688	0,017	0,018
-95,059	121,832	0,093	0,082
-94,045	-164,768	-0,161	0,005
-93,030	-200,000	-0,011	-0,129
-92,016	800,000	0,057	-0,152
-91,001	352,867	-0,016	0,022
-89,986	-200,000	0,017	0,068
-88,972	-200,000	-0,007	-0,025
-87,957	-200,000	-0,030	0,094
-86,943	-10,236	-0,035	-0,017
-85,928	25,968	0,054	-0,032
-84,913	-153,088	-0,017	0,001
-83,899	-28,821	-0,126	-0,051
-82,884	397,932	0,064	0,096
-81,870	-200,000	-0,020	0,076
-80,855	409,117	-0,027	-0,041
-79,840	800,000	0,044	-0,091
-78,826	372,172	0,062	0,090
-77,811	-35,210	-0,058	0,022
-76,797	-174,795	0,076	0,001
-75,782	199,823	-0,052	-0,057
-74,767	-38,115	0,088	0,033
-73,753	-200,000	-0,001	-0,026
-72,738	-68,721	-0,170	-0,046
-71,724	-200,000	-0,018	-0,074
-70,709	12,071	0,067	0,036
-69,694	-135,667	-0,011	-0,001
-68,680	-127,585	0,139	-0,014
-67,665	148,126	0,130	0,124
-66,651	-200,000	0,008	0,054
-65,636	-200,000	-0,022	0,134
-64,622	-200,000	-0,003	0,026
-63,607	623,859	-0,048	-0,086
-62,592	-21,950	-0,080	-0,034
-61,578	364,635	-0,090	0,129
-60,563	547,450	0,052	0,089
-59,549	-200,000	0,034	0,275
-58,534	-38,968	-1,492	-0,553
-57,519	410,799	-1,426	-2,147
-56,505	-200,000	-0,452	-4,526
-55,490	193,469	1,060	1,136
-54,476	800,000	4,838	10,955
-53,461	-200,000	18,237	293,651
-52,446	800,000	729,143	2246,692
-51,432	558,406	1645,302	2820,607
-50,417	79,070	1666,905	1262,378
-49,403	22,553	1540,193	889,600
-48,388	16,486	1463,351	815,818
-47,373	17,822	1453,152	816,536
-46,359	17,104	1443,657	807,732
-45,344	14,750	1439,032	793,871
-44,330	14,654	1437,009	792,263
-43,315	14,676	1435,516	791,516
-42,300	14,728	1433,634	790,693
-41,286	14,713	1432,653	790,050
-40,271	14,687	1431,372	789,190
-39,257	14,688	1430,077	788,450
-38,242	14,739	1428,689	787,891
-37,227	14,738	1427,627	787,271
-36,213	14,769	1426,169	786,582
-35,198	14,759	1424,980	785,849
-34,184	14,745	1424,261	785,355
-33,169	14,693	1422,893	784,325
-32,154	14,711	1421,785	783,767
-31,140	14,720	1420,570	783,106
-30,125	14,768	1419,460	782,689
-29,111	14,729	1418,265	781,820
-28,096	14,716	1417,136	781,104
-27,082	14,620	1416,318	780,171
-26,067	14,623	1415,064	779,464
-25,052	14,719	1413,783	779,177
-24,038	14,598	1413,254	778,286
-23,023	14,616	1412,038	777,671
-22,009	14,608	1411,118	777,096
-20,994	14,614	1410,125	776,547
-19,979	14,599	1409,230	775,954
-18,965	14,539	1408,392	775,178
-17,950	14,567	1407,472	774,772
-16,936	14,580	1406,356	774,188
-15,921	14,528	1405,272	773,319
-14,906	14,529	1404,327	772,773
-13,892	14,577	1403,431	772,472
-12,877	14,593	1402,299	771,891
-11,863	14,547	1401,616	771,274
-10,848	14,572	1400,667	770,837
-9,833	14,537	1399,582	770,045
-8,819	14,482	1398,871	769,370
-7,804	14,425	1398,161	768,683
-6,790	14,487	1396,945	768,272
-5,775	14,450	1395,938	767,517
-4,760	14,441	1394,954	766,902
-3,746	14,457	1394,154	766,507
-2,731	14,455	1393,470	766,089
-1,717	14,462	1392,417	765,512
-0,702	14,450	1390,791	764,535
0,313	18,296	1309,611	737,703
1,327	34,740	706,372	435,976
2,342	53,536	124,459	84,320
3,356	4,178	16,687	8,613
4,371	12,840	3,101	1,690
5,386	-110,422	0,635	0,092
6,400	-200,000	-0,003	0,135
7,415	25,934	-0,211	-0,124
8,429	17,863	-0,331	-0,186
9,444	65,893	-0,404	-0,289
10,459	9,622	-0,349	-0,186
11,473	-8,392	-0,310	-0,147
12,488	51,719	-0,228	-0,153
13,502	-1,918	-0,399	-0,197
14,517	8,244	-0,284	-0,150
15,531	604,453	-0,245	-0,432
16,546	-66,144	-0,362	-0,101
17,561	84,327	-0,315	-0,243
18,575	257,227	-0,155	-0,189
19,590	609,270	-0,121	-0,215
20,604	119,303	-0,189	-0,165
21,619	-81,825	-0,450	-0,103
22,634	82,054	-0,469	-0,359
23,648	-18,211	-0,448	-0,197
24,663	88,138	-0,466	-0,365
25,677	26,315	-0,331	-0,195
26,692	98,323	-0,335	-0,272
27,707	-11,303	-0,359	-0,166
28,721	309,071	-0,260	-0,344
29,736	44,434	-0,426	-0,276
30,750	119,848	-0,385	-0,337
31,765	-0,248	-0,492	-0,246
32,780	-32,925	-0,342	-0,133
33,794	44,035	-0,262	-0,169
34,809	-8,277	-0,366	-0,173
35,823	80,912	-0,277	-0,210
36,838	274,122	-0,368	-0,461
37,853	29,692	-0,382	-0,229
38,867	145,177	-0,328	-0,309
39,882	39,035	-0,270	-0,170
40,896	-16,417	-0,282	-0,125
41,911	115,779	-0,321	-0,277
42,926	-27,466	-0,438	-0,179
43,940	3,084	-0,331	-0,169
44,955	304,020	-0,271	-0,355
45,969	19,234	-0,343	-0,194
46,984	234,373	-0,250	-0,290
47,999	79,038	-0,368	-0,278
49,013	403,468	-0,219	-0,326
50,028	-73,219	-0,429	-0,110
51,042	24,527	-0,393	-0,228
52,057	-6,217	-0,461	-0,221
53,071	35,272	-0,476	-0,293
54,086	85,426	-0,426	-0,329
55,101	-15,483	-0,289	-0,130
56,115	39,784	-0,244	-0,154
57,130	180,123	-0,305	-0,316
58,144	262,177	-0,292	-0,358
59,159	15,486	-0,294	-0,162
60,174	-10,315	-0,380	-0,177
61,188	33,028	-0,284	-0,173
62,203	-49,733	-0,357	-0,119
63,217	-153,352	-0,317	-0,015
64,232	80,404	-0,286	-0,217
65,247	129,341	-0,303	-0,272
66,261	-36,919	-0,277	-0,104
67,276	330,184	-0,344	-0,467
68,290	24,633	-0,442	-0,257
69,305	-34,327	-0,307	-0,118
70,320	44,425	-0,257	-0,165
71,334	43,516	-0,217	-0,139
72,349	136,951	-0,254	-0,233
73,363	-9,504	-0,386	-0,180
74,378	800,000	-0,223	-0,439
75,393	26,586	-0,262	-0,154
76,407	7,223	-0,274	-0,143
77,422	-14,296	-0,337	-0,152
78,436	30,280	-0,257	-0,154
79,451	173,755	-0,329	-0,334
80,466	125,147	-0,258	-0,228
81,480	227,326	-0,223	-0,256
82,495	184,198	-0,330	-0,344
83,509	142,771	-0,245	-0,229
84,524	110,932	-0,198	-0,168
85,539	81,580	-0,199	-0,151
86,553	28,917	-0,295	-0,175
87,568	52,182	-0,388	-0,260
88,582	31,487	-0,408	-0,245
89,597	12,214	-0,295	-0,159
90,611	-66,284	-0,265	-0,074
91,626	-117,961	-0,398	-0,049
92,641	-31,246	-0,191	-0,075
93,655	72,818	-0,248	-0,182
94,670	122,394	-0,255	-0,223
95,684	140,778	-0,255	-0,236
96,699	-32,620	-0,353	-0,137
97,714	220,414	-0,152	-0,172
98,728	78,270	-0,100	-0,075
99,743	92,911	-0,235	-0,186
100,757	106,811	-0,232	-0,193
101,772	144,536	-0,233	-0,219
102,787	44,296	-0,258	-0,166
103,801	55,650	-0,251	-0,170
104,816	-21,506	-0,218	-0,093
105,830	-9,611	-0,345	-0,161
106,845	204,913	-0,147	-0,160
107,860	110,479	-0,270	-0,227
108,874	286,549	-0,240	-0,304
109,889	800,000	-0,114	-0,258
110,903	193,349	-0,222	-0,235
111,918	100,128	-0,205	-0,167
112,933	-154,642	-0,156	-0,007
113,947	-15,594	-0,367	-0,163
114,962	-39,900	-0,319	-0,116
115,976	296,722	-0,237	-0,305
116,991	3,649	-0,505	-0,257
118,006	316,123	-0,198	-0,263
119,020	47,711	-0,235	-0,153
120,035	-93,489	-0,403	-0,077
121,049	298,660	-0,138	-0,179
122,064	232,706	-0,161	-0,186
123,079	250,374	-0,207	-0,246
124,093	-5,569	-0,346	-0,166
125,108	240,560	-0,128	-0,149
126,122	40,989	-0,239	-0,151
127,137	19,212	-0,300	-0,168
128,151	103,607	-0,244	-0,200
129,166	-31,695	-0,318	-0,124
130,181	-134,952	-0,191	-0,016
131,195	77,179	-0,334	-0,248
132,210	370,403	-0,171	-0,244
133,224	-38,991	-0,263	-0,096
134,239	206,038	-0,157	-0,170
135,254	-3,601	-0,258	-0,125
136,268	18,270	-0,323	-0,180
137,283	-24,773	-0,325	-0,134
138,297	-14,834	-0,332	-0,148
139,312	70,268	-0,304	-0,219
140,327	-9,089	-0,254	-0,118
141,341	-152,024	-0,264	-0,013
142,356	522,641	-0,199	-0,327
143,370	-57,160	-0,218	-0,067
144,385	29,804	-0,320	-0,190
145,400	321,190	-0,097	-0,129
146,414	246,792	-0,206	-0,243
147,429	117,621	-0,284	-0,244
148,443	800,000	-0,077	-0,177
149,458	83,934	-0,256	-0,195
150,473	31,484	-0,225	-0,135
151,487	197,233	-0,101	-0,107
152,502	78,318	-0,311	-0,231
153,516	16,823	-0,324	-0,178
154,531	116,170	-0,249	-0,213
155,546	511,929	-0,190	-0,310
156,560	-89,185	-0,275	-0,056
157,575	-92,833	-0,170	-0,033
158,589	148,998	-0,235	-0,222
159,604	-118,431	-0,237	-0,029
160,619	141,023	-0,310	-0,286
161,633	129,999	-0,117	-0,104
162,648	32,268	-0,315	-0,189
163,662	-25,463	-0,378	-0,155
164,677	96,756	-0,239	-0,191
165,692	35,493	-0,184	-0,112
166,706	31,287	-0,370	-0,221
167,721	102,204	-0,378	-0,307
168,735	28,846	-0,258	-0,152
169,750	-6,382	-0,269	-0,127
170,764	-111,648	-0,098	-0,014
171,779	315,911	-0,111	-0,146
172,794	194,690	-0,101	-0,107
173,808	165,099	-0,126	-0,124
174,823	133,328	-0,098	-0,088
175,837	107,401	-0,208	-0,172
176,852	-113,858	-0,432	-0,058
177,867	30,038	-0,245	-0,145
178,881	205,656	-0,180	-0,195
179,896	19,274	-0,165	-0,092
180,910	-26,822	-0,267	-0,108
181,925	37,419	-0,249	-0,153
182,940	104,377	-0,261	-0,214
183,954	360,760	-0,188	-0,263
184,969	-200,000	-0,084	-0,286
185,983	-155,993	-0,246	0,011
186,998	-149,557	-0,242	-0,013
188,013	-63,090	-0,267	-0,076
189,027	85,523	-0,349	-0,266
190,042	346,969	-0,185	-0,254
191,056	524,743	-0,131	-0,216
192,071	196,109	-0,208	-0,221
193,086	286,126	-0,207	-0,261
194,100	800,000	-0,094	-0,212
195,115	0,300	-0,209	-0,103
196,129	91,258	-0,275	-0,214
197,144	145,257	-0,244	-0,227
198,159	96,032	-0,134	-0,107
199,173	173,401	-0,194	-0,195
200,188	141,607	-0,059	-0,055
201,202	159,123	-0,199	-0,193
202,217	28,249	-0,143	-0,084
203,232	20,142	-0,142	-0,079
204,246	58,724	-0,233	-0,159
205,261	65,666	-0,268	-0,188
206,275	242,734	-0,149	-0,174
207,290	800,000	-0,045	-0,133
208,304	-31,570	-0,167	0,065
209,319	177,226	-0,123	-0,124
210,334	117,581	-0,213	-0,182
211,348	229,737	-0,230	-0,262
212,363	197,905	-0,195	-0,207
213,377	-53,156	-0,209	-0,066
214,392	-129,387	-0,125	-0,012
215,407	-89,936	-0,179	-0,036
216,421	-13,074	-0,105	-0,047
217,436	211,007	-0,166	-0,181
218,450	526,544	-0,148	-0,244
219,465	-200,000	-0,014	-0,044
220,480	26,545	-0,206	-0,119
221,494	-100,463	-0,114	-0,019
222,509	72,038	-0,176	-0,127
223,523	800,000	-0,064	-0,141
224,538	-12,707	-0,169	-0,076
225,553	299,479	-0,152	-0,195
226,567	720,712	-0,128	-0,237
227,582	404,343	-0,156	-0,228
228,596	3,530	-0,175	-0,088
229,611	282,761	-0,116	-0,144
230,626	-43,051	-0,122	0,043
231,640	0,770	-0,213	-0,105
232,655	102,725	-0,106	-0,086
233,669	126,208	-0,271	-0,238
234,684	-93,179	-0,210	-0,040
235,699	-54,409	-0,178	-0,056
236,713	121,733	-0,164	-0,142
237,728	34,660	-0,273	-0,165
238,742	-47,326	-0,104	0,035
239,757	-79,954	-0,179	-0,041
240,772	416,700	-0,175	-0,259
241,786	31,905	-0,331	-0,197
242,801	-11,598	-0,170	-0,077
243,815	-101,316	-0,206	-0,034
244,830	93,976	-0,133	-0,104
245,844	59,365	-0,252	-0,172
246,859	126,715	-0,239	-0,210
247,874	40,118	-0,281	-0,175
248,888	67,079	-0,270	-0,190
249,903	6,667	-0,176	-0,090
250,917	364,126	-0,120	-0,168
251,932	-22,005	-0,146	-0,061
252,947	800,000	-0,116	-0,277
253,961	319,764	-0,151	-0,199
254,976	42,898	-0,183	-0,115
255,990	-56,195	-0,231	-0,071
257,005	5,655	-0,136	-0,069
258,020	-110,424	-0,177	0,025
259,034	-199,796	-0,088	0,000
260,049	318,773	-0,109	-0,143
261,063	93,233	-0,145	-0,114
262,078	72,303	-0,303	-0,218
263,093	153,516	-0,115	-0,109
264,107	147,254	-0,144	-0,134
265,122	480,203	0,010	-0,015
266,136	106,244	-0,233	-0,191
267,151	294,781	-0,181	-0,230
268,166	-71,370	-0,168	-0,043
269,180	94,881	-0,192	-0,151
270,195	-9,931	-0,226	-0,104
271,209	81,509	-0,286	-0,213
272,224	-27,515	-0,150	-0,060
273,239	326,408	-0,207	-0,274
274,253	-70,738	-0,149	-0,038
275,268	-47,628	-0,110	-0,037
276,282	64,237	-0,215	-0,149
277,297	216,197	-0,252	-0,277
278,312	20,180	-0,179	-0,100
279,326	224,962	-0,136	-0,152
280,341	245,778	-0,105	-0,122
281,355	291,549	-0,070	-0,088
282,370	800,000	-0,053	-0,161
283,384	10,297	-0,195	0,102
284,399	107,555	-0,216	-0,178
285,414	-111,543	-0,231	-0,032
286,428	-54,950	-0,224	-0,069
287,443	-200,000	-0,021	-0,083
288,457	-62,458	-0,091	-0,026
289,472	-152,585	-0,288	-0,014
290,487	414,364	-0,109	-0,161
291,501	102,743	-0,212	-0,171
292,516	2,906	-0,150	-0,075
293,530	-21,322	-0,056	-0,023
294,545	405,950	-0,097	-0,141
295,560	-162,240	-0,156	0,005
296,574	-43,476	-0,248	-0,086
297,589	-135,812	-0,157	0,013
298,603	-139,973	-0,182	0,013
299,618	110,538	-0,259	-0,215
300,633	24,169	-0,155	-0,088
301,647	146,607	-0,071	0,066
302,662	395,708	-0,096	0,138
303,676	800,000	-0,041	0,098
304,691	167,773	-0,113	-0,111
305,706	-20,916	-0,233	-0,098
306,720	124,283	-0,235	-0,203
307,735	236,291	-0,121	-0,138
308,749	-188,797	-0,175	-0,001
309,764	-4,107	-0,210	-0,100
310,779	-84,702	-0,219	-0,047
311,793	91,662	-0,163	-0,126
312,808	-42,418	-0,243	-0,085
313,822	-28,392	-0,224	-0,089
314,837	-98,806	-0,184	-0,032
315,852	30,022	-0,070	0,041
316,866	-200,000	-0,190	-0,000
317,881	-102,666	-0,160	-0,026
318,895	-130,892	-0,167	-0,015
319,910	-60,607	-0,172	0,050
320,925	-89,039	-0,136	0,027
321,939	31,300	-0,061	-0,036
322,954	-138,472	-0,143	0,011
323,968	800,000	-0,043	-0,103
324,983	121,161	-0,216	-0,185
325,997	131,382	-0,125	-0,110
327,012	290,700	-0,096	-0,121
328,027	-129,932	-0,136	-0,013
329,041	-138,327	-0,078	-0,006
330,056	-117,893	-0,193	-0,023
331,070	598,918	-0,091	-0,155
332,085	76,873	-0,071	-0,052
333,100	800,000	-0,088	-0,222
334,114	-20,860	-0,153	-0,064
335,129	375,727	-0,118	-0,166
336,143	-4,783	-0,219	-0,103
337,158	-119,530	-0,240	0,028
338,173	-97,746	-0,065	-0,011
339,187	157,361	-0,130	-0,123
340,202	55,890	-0,135	0,090
341,216	69,764	-0,242	-0,171
342,231	-57,166	-0,202	-0,061
343,246	539,939	-0,114	-0,187
344,260	-172,695	-0,071	0,001
345,275	139,331	-0,059	0,054
346,289	-65,007	-0,169	-0,047
347,304	-93,087	-0,184	-0,035
348,319	280,278	-0,140	-0,172
349,333	800,000	-0,087	-0,214
350,348	-200,000	-0,041	-0,190
351,362	384,195	-0,120	-0,170
352,377	-200,000	-0,026	-0,230
353,392	800,000	-0,033	-0,097
354,406	-117,811	-0,101	-0,012
355,421	209,570	1314,885	1415,178
356,435	161,296	1475,652	1415,679
