DTS Sentinel unit serial number:	SN410029Multiplexer serial number:	ORYXHardware model number:	OX2-SRSoftware version number:	ORYX F/W v4,00 Oryx Data Collector v3.7.2.0data status	okinstallation	B3 Nyhavnadifferential loss correction	single-endedforward channel	channel 1reverse channel	N/Adate	2023/11/30time	17:12:30forward acquisition time	300,00reverse acquisition time	0,00gamma	499,1914k internal	0,3204k external	0,3204temperature offset calibration	1,0000default loss term (dB/km)	0,3820temperature slope calibration	1,0000multiplexer offset coefficient	1,0000multiplexer slope coefficient	1,0000fibre end	0,00T internal ref (°C)	13,12T ext. ref 1 (°C)	-1,68T ext. ref 2 (°C)	-1,72length (m)	temperature (°C)	Stokes	anti-Stokes-744,400	-35,925	-0,227	-0,089
-743,385	-200,000	0,025	0,209
-742,371	57,405	-0,240	-0,170
-741,356	-200,000	0,023	0,228
-740,342	107,869	-0,214	-0,185
-739,327	-200,000	-0,091	0,300
-738,312	356,868	-0,182	-0,265
-737,298	-200,000	-0,034	0,249
-736,283	-48,211	-0,297	-0,104
-735,269	-200,000	-0,030	0,375
-734,254	148,427	-0,202	-0,198
-733,239	-70,799	-0,238	0,065
-732,225	-200,000	-0,029	-0,178
-731,210	-200,000	0,010	0,077
-730,196	360,219	-0,140	-0,204
-729,181	138,846	-0,016	-0,016
-728,167	273,657	0,053	-0,068
-727,152	11,024	-0,044	-0,024
-726,137	155,495	-0,101	-0,101
-725,123	-30,253	-0,071	-0,029
-724,108	-159,651	-0,057	0,002
-723,094	9,101	-0,063	-0,034
-722,079	-200,000	-0,001	-0,159
-721,064	-53,184	-0,056	0,019
-720,050	-200,000	-0,017	-0,062
-719,035	279,929	0,018	-0,023
-718,021	49,752	-0,109	0,075
-717,006	800,000	0,033	-0,090
-715,991	-138,732	-0,087	0,007
-714,977	320,348	0,045	-0,063
-713,962	-51,058	-0,148	-0,050
-712,948	-200,000	-0,018	0,071
-711,933	-58,195	0,016	-0,005
-710,918	800,000	0,015	-0,032
-709,904	218,593	-0,031	0,036
-708,889	89,439	-0,049	-0,039
-707,875	194,427	0,036	-0,039
-706,860	-168,139	-0,060	-0,002
-705,845	61,773	-0,031	-0,022
-704,831	145,294	-0,082	0,080
-703,816	782,802	0,069	-0,138
-702,802	54,748	-0,036	-0,025
-701,787	30,771	-0,068	-0,042
-700,772	800,000	0,027	-0,080
-699,758	-200,000	-0,039	0,147
-698,743	-48,068	0,201	0,070
-697,729	-200,000	0,002	-0,017
-696,714	800,000	0,011	0,032
-695,699	106,479	-0,067	0,057
-694,685	-33,608	0,209	-0,083
-693,670	170,811	0,090	-0,093
-692,656	20,357	0,073	0,042
-691,641	59,594	-0,091	0,065
-690,627	800,000	-0,076	0,192
-689,612	787,690	-0,014	0,028
-688,597	54,778	0,042	-0,029
-687,583	-112,542	0,130	-0,019
-686,568	-13,041	-0,051	-0,024
-685,554	-200,000	-0,007	-0,205
-684,539	800,000	0,044	-0,089
-683,524	202,558	0,066	0,075
-682,510	-200,000	0,008	0,121
-681,495	-200,000	-0,004	0,178
-680,481	24,530	0,134	-0,080
-679,466	-84,647	-0,137	-0,031
-678,451	-200,000	-0,019	-0,066
-677,437	128,722	-0,061	0,056
-676,422	-41,305	-0,083	0,031
-675,408	679,764	0,037	0,071
-674,393	-200,000	0,020	0,075
-673,378	-200,000	0,005	0,021
-672,364	21,397	-0,024	0,014
-671,349	131,382	-0,075	-0,070
-670,335	418,315	-0,029	0,045
-669,320	-54,459	-0,055	0,018
-668,305	-75,531	-0,055	-0,014
-667,291	-200,000	0,006	-0,094
-666,276	-137,456	-0,087	0,007
-665,262	-29,021	-0,033	-0,014
-664,247	-19,387	-0,102	-0,046
-663,232	-200,000	0,007	-0,071
-662,218	-200,000	-0,018	0,106
-661,203	-200,000	0,044	-0,156
-660,189	-200,000	-0,004	0,023
-659,174	114,668	0,023	-0,021
-658,159	-200,000	-0,046	-0,180
-657,145	105,606	-0,115	-0,099
-656,130	-69,599	0,106	-0,029
-655,116	-200,000	-0,003	-0,129
-654,101	-70,964	-0,106	0,029
-653,086	-73,816	-0,053	0,014
-652,072	109,180	-0,073	0,063
-651,057	-200,000	-0,001	0,046
-650,043	-170,014	-0,076	0,002
-649,028	80,612	0,051	0,040
-648,014	147,741	0,007	-0,007
-646,999	233,856	0,058	0,069
-645,984	-200,000	0,011	0,117
-644,970	74,369	-0,032	-0,024
-643,955	-200,000	-0,003	-0,027
-642,941	195,787	-0,076	-0,083
-641,926	800,000	-0,049	-0,152
-640,911	-200,000	0,021	-0,086
-639,897	328,169	0,007	0,010
-638,882	-42,245	-0,020	0,007
-637,868	-200,000	-0,001	-0,071
-636,853	-200,000	-0,014	-0,165
-635,838	93,210	-0,120	-0,098
-634,824	436,983	0,029	0,046
-633,809	-200,000	0,015	0,048
-632,795	666,193	0,047	0,088
-631,780	-200,000	0,013	-0,109
-630,765	-200,000	-0,026	0,155
-629,751	800,000	-0,020	-0,050
-628,736	-200,000	-0,016	0,052
-627,722	800,000	0,060	0,182
-626,707	-181,150	-0,031	-0,000
-625,692	85,888	-0,096	0,076
-624,678	715,312	0,033	0,063
-623,663	-200,000	-0,037	-0,125
-622,649	800,000	-0,057	-0,170
-621,634	-200,000	0,003	0,031
-620,619	278,060	0,016	-0,021
-619,605	-71,446	0,056	0,015
-618,590	90,017	0,034	-0,027
-617,576	332,966	-0,074	-0,104
-616,561	800,000	-0,066	-0,168
-615,546	605,745	-0,040	-0,072
-614,532	512,446	-0,069	-0,116
-613,517	-71,128	-0,055	-0,015
-612,503	-1,643	0,122	0,062
-611,488	-33,424	0,084	-0,033
-610,474	-13,660	0,038	0,018
-609,459	12,092	0,126	0,070
-608,444	-172,683	-0,170	0,004
-607,430	18,258	-0,054	-0,031
-606,415	-82,993	-0,022	0,005
-605,401	174,466	-0,048	0,050
-604,386	84,618	0,014	-0,011
-603,371	800,000	-0,058	-0,130
-602,357	381,666	0,027	-0,040
-601,342	-200,000	-0,023	-0,159
-600,328	-200,000	-0,026	-0,088
-599,313	34,402	0,136	-0,086
-598,298	-66,475	-0,218	-0,062
-597,284	-180,284	0,159	0,002
-596,269	39,585	0,043	0,028
-595,255	800,000	0,010	0,028
-594,240	89,677	-0,034	-0,028
-593,225	-200,000	-0,002	-0,043
-592,211	-200,000	0,010	-0,130
-591,196	-87,088	0,130	-0,028
-590,182	732,931	0,052	-0,101
-589,167	105,346	0,220	0,188
-588,152	-41,427	-0,087	0,032
-587,138	-200,000	-0,037	0,128
-586,123	-3,054	-0,060	-0,030
-585,109	426,397	-0,096	-0,151
-584,094	-48,296	-0,107	-0,037
-583,079	-200,000	-0,021	-0,081
-582,065	237,687	0,034	-0,041
-581,050	21,253	0,196	0,115
-580,036	-27,289	-0,124	-0,052
-579,021	800,000	-0,054	-0,111
-578,006	524,998	0,045	-0,076
-576,992	-167,290	-0,054	-0,002
-575,977	258,473	0,067	0,084
-574,963	-124,860	0,026	-0,003
-573,948	800,000	-0,046	0,122
-572,934	-200,000	0,016	0,133
-571,919	-84,526	-0,062	-0,014
-570,904	-200,000	0,002	-0,102
-569,890	-200,000	-0,036	-0,120
-568,875	-84,175	0,099	0,022
-567,861	-55,127	-0,035	-0,011
-566,846	-200,000	-0,035	0,171
-565,831	134,769	-0,018	0,017
-564,817	187,308	0,021	0,022
-563,802	-161,651	-0,036	-0,001
-562,788	-74,536	0,021	-0,005
-561,773	-51,626	0,037	0,012
-560,758	127,042	-0,078	0,072
-559,744	-200,000	-0,012	-0,077
-558,729	-149,302	0,077	-0,004
-557,715	-95,531	-0,144	-0,028
-556,700	-78,339	-0,057	0,014
-555,685	11,389	-0,190	0,105
-554,671	800,000	-0,027	-0,064
-553,656	243,500	-0,005	0,006
-552,642	-142,946	-0,015	0,001
-551,627	212,757	0,008	0,009
-550,612	23,228	0,086	0,051
-549,598	15,333	-0,064	-0,036
-548,583	-200,000	0,003	0,125
-547,569	36,669	-0,057	-0,036
-546,554	724,527	-0,049	0,095
-545,539	167,962	-0,046	0,048
-544,525	173,270	-0,017	0,018
-543,510	-200,000	0,019	-0,075
-542,496	-116,167	0,084	0,011
-541,481	-200,000	0,013	-0,083
-540,466	7,104	0,165	0,089
-539,452	197,857	0,017	0,019
-538,437	-125,048	0,100	0,011
-537,423	-7,885	-0,045	0,022
-536,408	-16,323	-0,078	0,035
-535,393	662,130	0,026	-0,048
-534,379	-74,191	-0,193	0,050
-533,364	800,000	0,030	0,079
-532,350	-34,638	0,037	0,015
-531,335	24,628	0,056	-0,033
-530,321	24,777	-0,080	0,047
-529,306	-59,669	-0,054	0,017
-528,291	66,532	-0,068	-0,049
-527,277	-19,888	-0,085	-0,038
-526,262	388,125	0,049	0,073
-525,248	15,921	-0,050	0,028
-524,233	78,931	0,049	-0,038
-523,218	-200,000	0,008	-0,068
-522,204	341,492	-0,074	0,105
-521,189	16,438	-0,159	0,090
-520,175	800,000	-0,015	-0,031
-519,160	-76,939	-0,043	-0,011
-518,145	-200,000	-0,016	0,114
-517,131	99,665	-0,148	0,123
-516,116	78,931	0,051	0,039
-515,102	58,313	-0,084	0,059
-514,087	-200,000	0,011	-0,035
-513,072	800,000	-0,049	-0,134
-512,058	372,511	0,028	-0,042
-511,043	-200,000	0,012	-0,079
-510,029	-200,000	-0,012	-0,048
-509,014	189,891	0,072	-0,078
-507,999	-200,000	-0,003	0,043
-506,985	258,339	0,099	-0,124
-505,970	800,000	-0,055	-0,161
-504,956	587,552	-0,039	-0,069
-503,941	341,469	0,068	-0,096
-502,926	-200,000	0,012	-0,080
-501,912	-100,182	-0,128	0,023
-500,897	-200,000	-0,001	-0,041
-499,883	117,726	-0,099	-0,087
-498,868	-136,267	0,019	0,002
-497,853	-200,000	-0,014	0,045
-496,839	229,111	0,078	-0,092
-495,824	-57,034	0,060	0,019
-494,810	-200,000	-0,006	0,115
-493,795	-200,000	-0,013	-0,092
-492,781	-76,478	-0,070	-0,018
-491,766	76,122	-0,060	0,046
-490,751	438,994	-0,091	-0,144
-489,737	-200,000	-0,013	-0,043
-488,722	-25,613	0,108	0,045
-487,708	-104,580	-0,078	0,013
-486,693	-200,000	-0,019	-0,101
-485,678	-200,000	-0,006	0,045
-484,664	454,818	0,097	-0,156
-483,649	800,000	-0,031	0,081
-482,635	-200,000	-0,006	0,041
-481,620	-118,153	-0,090	-0,011
-480,605	137,959	0,045	0,042
-479,591	6,456	-0,096	0,051
-478,576	0,951	0,033	0,017
-477,562	-200,000	0,009	-0,109
-476,547	24,946	-0,079	-0,047
-475,532	-200,000	-0,008	0,029
-474,518	-200,000	0,005	0,035
-473,503	-99,392	0,117	0,021
-472,489	800,000	0,048	0,133
-471,474	-200,000	0,004	0,141
-470,459	4,511	0,126	-0,066
-469,445	-200,000	-0,004	-0,142
-468,430	-200,000	0,005	0,064
-467,416	800,000	-0,039	-0,099
-466,401	25,033	0,143	0,085
-465,386	-95,457	0,100	-0,019
-464,372	-65,184	-0,068	-0,020
-463,357	-147,310	-0,116	0,007
-462,343	-58,022	-0,089	0,028
-461,328	246,670	0,031	-0,038
-460,313	404,373	-0,036	0,054
-459,299	-200,000	0,006	0,177
-458,284	-200,000	-0,008	0,091
-457,270	304,847	-0,069	0,092
-456,255	-200,000	-0,005	-0,017
-455,241	800,000	-0,046	-0,113
-454,226	-200,000	0,008	0,071
-453,211	99,057	0,019	0,016
-452,197	436,124	0,082	0,129
-451,182	178,106	0,070	0,073
-450,168	-200,000	-0,013	0,090
-449,153	88,469	-0,111	0,088
-448,138	-55,174	0,066	-0,021
-447,124	289,391	-0,056	-0,073
-446,109	447,014	0,050	-0,079
-445,095	-77,276	0,023	-0,006
-444,080	-200,000	-0,013	0,133
-443,065	-200,000	-0,017	0,120
-442,051	-200,000	-0,015	0,054
-441,036	133,990	-0,056	-0,052
-440,022	-161,173	0,088	0,003
-439,007	-200,000	0,001	-0,109
-437,992	46,766	0,063	0,042
-436,978	-63,229	0,116	0,034
-435,963	800,000	-0,025	0,072
-434,949	-54,641	0,038	-0,012
-433,934	547,822	0,023	0,040
-432,919	-23,589	0,028	0,012
-431,905	800,000	-0,060	0,134
-430,890	-80,658	0,052	0,012
-429,876	800,000	-0,050	0,128
-428,861	189,743	-0,023	0,025
-427,846	-32,294	-0,081	0,032
-426,832	-200,000	-0,002	-0,038
-425,817	-155,447	0,012	-0,001
-424,803	-27,091	-0,155	0,065
-423,788	441,314	0,027	-0,043
-422,773	254,275	0,042	0,051
-421,759	-200,000	0,011	-0,120
-420,744	-99,133	0,110	-0,020
-419,730	-88,820	0,023	-0,005
-418,715	199,147	-0,097	-0,107
-417,701	-67,548	0,080	0,022
-416,686	-200,000	-0,014	0,087
-415,671	174,013	0,088	0,091
-414,657	800,000	-0,035	0,105
-413,642	-73,629	-0,092	0,024
-412,628	309,327	0,019	0,026
-411,613	199,529	-0,061	-0,067
-410,598	32,320	-0,082	-0,050
-409,584	-200,000	0,005	0,026
-408,569	-200,000	-0,009	0,063
-407,555	800,000	0,068	0,164
-406,540	-200,000	0,038	-0,132
-405,525	675,046	-0,041	-0,076
-404,511	2,347	-0,032	0,017
-403,496	-85,891	0,056	0,012
-402,482	96,750	-0,041	0,033
-401,467	577,533	0,061	0,108
-400,452	800,000	-0,059	0,181
-399,438	322,705	-0,017	0,023
-398,423	-126,730	-0,044	0,005
-397,409	-104,970	-0,015	-0,002
-396,394	800,000	-0,046	0,116
-395,379	6,805	-0,120	-0,064
-394,365	157,759	0,106	0,105
-393,350	-200,000	-0,002	0,104
-392,336	800,000	-0,038	0,111
-391,321	-182,196	0,124	-0,002
-390,306	-200,000	-0,038	-0,138
-389,292	9,542	-0,069	0,037
-388,277	800,000	0,066	-0,182
-387,263	-64,123	0,082	-0,024
-386,248	-30,105	0,168	-0,068
-385,233	-200,000	0,039	0,185
-384,219	800,000	-0,036	-0,112
-383,204	-128,320	-0,115	0,012
-382,190	-200,000	0,018	-0,137
-381,175	-200,000	0,010	0,154
-380,160	182,240	0,094	0,100
-379,146	-200,000	-0,014	0,048
-378,131	-200,000	0,039	0,168
-377,117	90,548	-0,055	-0,044
-376,102	-2,478	-0,114	-0,057
-375,088	800,000	0,030	0,082
-374,073	-200,000	0,032	-0,133
-373,058	800,000	-0,017	-0,053
-372,044	-17,984	-0,122	-0,055
-371,029	-200,000	0,031	-0,195
-370,015	722,676	-0,031	0,060
-369,000	714,530	0,047	-0,089
-367,985	288,647	-0,089	-0,116
-366,971	-28,414	0,060	-0,025
-365,956	-200,000	0,011	-0,080
-364,942	-200,000	-0,022	0,112
-363,927	52,658	-0,072	0,049
-362,912	-200,000	0,021	-0,149
-361,898	-100,440	-0,073	-0,013
-360,883	-104,886	-0,160	-0,026
-359,869	800,000	-0,045	-0,107
-358,854	-50,451	0,059	0,020
-357,839	-131,297	0,080	-0,007
-356,825	-120,278	-0,068	0,008
-355,810	-6,246	-0,139	0,068
-354,796	-50,765	-0,039	-0,013
-353,781	7,588	0,094	-0,050
-352,766	-16,703	0,153	-0,069
-351,752	-200,000	-0,010	0,046
-350,737	-200,000	0,013	-0,068
-349,723	460,376	0,008	0,012
-348,708	229,465	-0,045	-0,052
-347,693	-158,156	-0,309	0,013
-346,679	-125,983	-0,033	-0,003
-345,664	800,000	-0,054	-0,115
-344,650	800,000	0,029	0,087
-343,635	-200,000	-0,020	0,141
-342,620	-57,257	0,131	0,041
-341,606	-98,580	-0,050	-0,009
-340,591	-11,956	-0,045	0,021
-339,577	-200,000	0,010	-0,049
-338,562	-200,000	-0,022	-0,132
-337,548	-35,486	0,082	-0,032
-336,533	-37,780	0,178	0,067
-335,518	-90,867	0,133	0,027
-334,504	-117,477	0,147	0,019
-333,489	800,000	-0,014	-0,040
-332,475	490,760	0,056	-0,092
-331,460	-181,256	-0,021	0,000
-330,445	-200,000	0,006	-0,072
-329,431	-119,117	0,108	-0,013
-328,416	-200,000	-0,002	0,053
-327,402	-2,810	-0,017	-0,009
-326,387	-200,000	0,053	0,172
-325,372	188,818	0,063	-0,067
-324,358	-74,374	-0,038	-0,010
-323,343	270,292	0,022	0,027
-322,329	-56,553	0,054	0,017
-321,314	-141,614	-0,086	-0,006
-320,299	-74,256	-0,094	-0,024
-319,285	289,772	-0,079	0,102
-318,270	800,000	0,033	-0,084
-317,256	-124,907	0,121	-0,013
-316,241	-39,002	-0,020	-0,007
-315,226	-200,000	0,001	0,079
-314,212	800,000	0,080	0,185
-313,197	-56,743	0,056	-0,018
-312,183	800,000	0,035	-0,078
-311,168	-28,498	-0,120	-0,049
-310,153	-200,000	-0,005	0,048
-309,139	-200,000	-0,007	-0,057
-308,124	-200,000	-0,028	0,155
-307,110	214,523	0,030	-0,034
-306,095	-11,539	0,095	-0,045
-305,080	-200,000	0,003	0,034
-304,066	800,000	-0,022	0,044
-303,051	438,852	-0,075	-0,117
-302,037	-65,474	0,064	-0,018
-301,022	-200,000	-0,009	0,063
-300,008	278,270	0,027	0,034
-298,993	-200,000	-0,001	0,100
-297,978	-144,449	-0,083	-0,005
-296,964	800,000	0,039	-0,082
-295,949	26,791	0,066	-0,039
-294,935	-157,457	-0,122	0,005
-293,920	-157,567	0,080	0,003
-292,905	-174,213	0,068	0,001
-291,891	2,377	0,073	0,038
-290,876	-200,000	-0,007	-0,061
-289,862	-200,000	-0,026	-0,103
-288,847	0,695	0,051	-0,026
-287,832	800,000	-0,011	-0,032
-286,818	-187,655	-0,126	0,001
-285,803	-1,617	0,056	0,028
-284,789	-200,000	0,035	0,142
-283,774	-200,000	-0,004	-0,093
-282,759	-200,000	0,011	-0,075
-281,745	442,962	0,035	-0,054
-280,730	800,000	-0,051	-0,102
-279,716	491,067	-0,047	-0,077
-278,701	800,000	0,065	0,175
-277,686	-200,000	-0,013	0,053
-276,672	-200,000	0,026	0,159
-275,657	-200,000	0,005	0,017
-274,643	306,242	-0,028	-0,038
-273,628	-106,001	-0,105	0,017
-272,613	-200,000	-0,007	-0,042
-271,599	-200,000	0,007	0,102
-270,584	-112,128	-0,080	0,011
-269,570	-200,000	-0,026	-0,234
-268,555	800,000	0,002	-0,007
-267,540	669,978	-0,026	0,048
-266,526	800,000	-0,036	-0,090
-265,511	169,260	-0,077	-0,079
-264,497	127,699	0,016	0,015
-263,482	34,978	0,094	0,058
-262,467	38,686	-0,044	-0,028
-261,453	-135,916	-0,173	-0,014
-260,438	16,836	-0,082	0,046
-259,424	454,919	0,037	-0,059
-258,409	-147,850	-0,081	0,005
-257,395	800,000	-0,070	0,141
-256,380	392,372	0,108	0,160
-255,365	116,707	-0,098	-0,086
-254,351	77,044	-0,102	0,077
-253,336	-166,608	-0,078	0,002
-252,322	370,412	0,048	-0,069
-251,307	-153,290	0,031	0,002
-250,292	23,297	-0,089	0,052
-249,278	-19,988	-0,082	-0,036
-248,263	-171,545	0,179	-0,004
-247,249	-161,340	-0,057	0,002
-246,234	-200,000	0,002	0,160
-245,219	146,853	-0,051	-0,049
-244,205	-37,157	0,040	0,015
-243,190	-200,000	0,020	0,086
-242,176	63,729	0,165	0,118
-241,161	-200,000	0,013	0,136
-240,146	244,512	0,023	-0,028
-239,132	166,960	-0,032	-0,033
-238,117	-77,397	-0,045	0,011
-237,103	74,116	-0,101	0,076
-236,088	170,951	0,082	0,084
-235,073	-199,287	0,090	-0,000
-234,059	800,000	0,050	0,114
-233,044	-200,000	0,016	0,060
-232,030	-157,984	0,128	0,005
-231,015	-200,000	0,014	-0,076
-230,000	800,000	-0,028	0,087
-228,986	-200,000	-0,019	0,087
-227,971	51,593	0,167	0,113
-226,957	593,674	-0,027	0,047
-225,942	745,214	0,039	0,076
-224,927	-20,396	-0,017	0,007
-223,913	800,000	-0,034	-0,102
-222,898	94,246	0,046	-0,037
-221,884	22,911	-0,212	-0,123
-220,869	800,000	-0,024	0,053
-219,855	-82,469	-0,086	-0,020
-218,840	46,551	-0,014	-0,010
-217,825	-81,165	-0,116	-0,027
-216,811	-89,114	-0,117	-0,024
-215,796	303,286	0,046	-0,061
-214,782	-200,000	0,033	-0,167
-213,767	-38,994	0,038	-0,014
-212,752	175,483	0,067	0,069
-211,738	800,000	0,016	-0,042
-210,723	113,981	0,081	-0,071
-209,709	-200,000	-0,024	-0,186
-208,694	800,000	-0,058	-0,160
-207,679	-76,979	0,112	0,028
-206,665	218,851	0,142	0,161
-205,650	790,525	0,049	0,097
-204,636	372,764	0,046	-0,067
-203,621	-86,679	-0,188	0,041
-202,606	-110,389	0,017	-0,002
-201,592	193,351	0,130	-0,140
-200,577	800,000	-0,048	0,105
-199,563	-51,140	0,061	-0,020
-198,548	380,146	0,094	0,138
-197,533	800,000	0,045	0,093
-196,519	-200,000	0,010	0,053
-195,504	-200,000	0,000	0,095
-194,490	150,745	-0,035	0,034
-193,475	-81,873	0,077	0,018
-192,460	-129,294	0,100	-0,010
-191,446	-20,203	0,165	-0,072
-190,431	177,342	0,025	-0,026
-189,417	-137,832	0,099	0,008
-188,402	-200,000	-0,001	0,070
-187,387	502,078	-0,092	-0,151
-186,373	-200,000	-0,008	-0,075
-185,358	-12,556	0,162	-0,075
-184,344	73,909	0,090	0,067
-183,329	-200,000	-0,004	0,099
-182,315	22,773	0,070	0,041
-181,300	-200,000	-0,027	-0,096
-180,285	130,675	-0,068	-0,062
-179,271	-200,000	-0,003	-0,033
-178,256	163,138	0,140	0,140
-177,242	-115,839	0,176	-0,023
-176,227	210,612	0,108	0,121
-175,212	233,826	0,049	0,058
-174,198	-140,997	0,123	-0,009
-173,183	168,998	-0,104	-0,106
-172,169	-152,085	0,079	0,004
-171,154	-200,000	0,010	-0,047
-170,139	-200,000	0,018	-0,119
-169,125	-33,258	-0,126	-0,049
-168,110	-97,792	-0,058	-0,011
-167,096	-24,269	-0,044	0,019
-166,081	-15,074	0,120	-0,054
-165,066	396,565	0,029	0,043
-164,052	21,951	0,058	-0,033
-163,037	158,932	0,059	-0,058
-162,023	478,252	0,067	0,108
-161,008	33,362	0,078	0,048
-159,993	-200,000	-0,004	-0,051
-158,979	62,782	0,077	0,054
-157,964	54,731	0,015	-0,010
-156,950	344,656	0,083	-0,116
-155,935	715,704	-0,050	-0,095
-154,920	-4,561	-0,047	0,023
-153,906	-0,725	-0,049	-0,025
-152,891	-200,000	-0,045	-0,182
-151,877	83,006	-0,031	-0,024
-150,862	-98,121	-0,156	0,028
-149,847	800,000	-0,047	-0,125
-148,833	-149,882	0,038	-0,002
-147,818	366,876	0,067	-0,097
-146,804	800,000	-0,018	-0,042
-145,789	49,907	0,061	-0,041
-144,775	83,239	0,019	0,014
-143,760	800,000	-0,046	-0,133
-142,745	-200,000	0,005	-0,113
-141,731	119,221	-0,031	0,028
-140,716	98,341	-0,068	0,055
-139,702	203,770	0,079	0,087
-138,687	-200,000	0,006	0,027
-137,672	-200,000	-0,020	0,104
-136,658	181,637	-0,053	-0,055
-135,643	-10,908	-0,100	-0,047
-134,629	800,000	-0,047	0,102
-133,614	-200,000	0,004	-0,015
-132,599	-200,000	0,009	-0,098
-131,585	123,780	-0,043	-0,038
-130,570	505,612	0,070	0,115
-129,556	-200,000	0,032	0,104
-128,541	150,203	-0,075	0,072
-127,526	155,050	-0,097	-0,095
-126,512	800,000	-0,055	0,137
-125,497	-200,000	0,022	0,218
-124,483	-175,964	0,090	-0,002
-123,468	-105,513	-0,037	0,006
-122,453	39,032	0,056	0,035
-121,439	37,742	-0,066	-0,042
-120,424	800,000	0,019	-0,044
-119,410	381,574	0,028	-0,041
-118,395	800,000	-0,057	0,120
-117,380	129,465	-0,021	-0,019
-116,366	-15,390	0,155	-0,070
-115,351	376,461	-0,091	-0,132
-114,337	589,874	0,030	-0,053
-113,322	199,037	-0,063	0,069
-112,307	-200,000	0,036	0,140
-111,293	-200,000	0,009	0,058
-110,278	-200,000	-0,003	0,051
-109,264	102,996	0,074	0,062
-108,249	-200,000	-0,025	-0,095
-107,234	800,000	0,077	-0,219
-106,220	562,545	-0,021	-0,037
-105,205	180,593	0,089	0,093
-104,191	231,132	0,084	0,098
-103,176	67,002	-0,012	0,009
-102,162	213,406	0,033	-0,037
-101,147	-77,356	-0,114	0,028
-100,132	-184,565	0,084	0,001
-99,118	800,000	-0,027	-0,070
-98,103	-200,000	-0,000	-0,032
-97,089	-18,067	0,028	-0,013
-96,074	-200,000	0,025	0,119
-95,059	386,373	0,073	0,107
-94,045	292,293	-0,022	-0,028
-93,030	248,478	0,093	0,111
-92,016	32,459	-0,064	-0,039
-91,001	79,515	-0,039	-0,030
-89,986	749,020	0,044	0,085
-88,972	273,501	0,056	0,070
-87,957	49,931	0,141	0,094
-86,943	-104,977	0,011	0,002
-85,928	-200,000	-0,010	0,137
-84,913	-200,000	-0,020	-0,088
-83,899	-107,414	0,027	-0,004
-82,884	-200,000	-0,021	-0,078
-81,870	-9,378	0,089	-0,042
-80,855	84,597	0,098	-0,076
-79,840	129,926	-0,029	-0,026
-78,826	-102,149	-0,128	-0,022
-77,811	-200,000	-0,213	0,000
-76,797	-200,000	-0,001	0,099
-75,782	109,706	0,042	-0,035
-74,767	547,428	-0,022	0,038
-73,753	29,095	0,130	-0,078
-72,738	800,000	-0,028	0,085
-71,724	800,000	-0,021	-0,047
-70,709	327,627	0,012	-0,016
-69,694	64,631	-0,067	-0,048
-68,680	148,968	-0,040	0,038
-67,665	-99,703	0,047	0,008
-66,651	375,340	-0,073	0,106
-65,636	75,749	-0,054	0,040
-64,622	128,322	-0,126	-0,114
-63,607	408,718	0,022	-0,034
-62,592	-200,000	0,022	-0,112
-61,578	34,026	-0,063	0,039
-60,563	431,986	-0,078	0,120
-59,549	-183,389	-0,069	0,001
-58,534	0,719	-1,620	-0,818
-57,519	379,407	-1,478	-2,148
-56,505	-200,000	-0,343	-4,358
-55,490	235,739	1,005	1,176
-54,476	800,000	4,885	11,269
-53,461	-200,000	19,278	324,220
-52,446	-200,000	739,862	2336,434
-51,432	573,179	1651,613	2859,646
-50,417	78,007	1666,613	1256,044
-49,403	21,111	1539,773	881,533
-48,388	15,018	1462,155	807,572
-47,373	18,276	1452,679	817,993
-46,359	16,793	1442,393	805,088
-45,344	13,265	1437,801	785,650
-44,330	13,149	1435,931	784,044
-43,315	13,148	1434,422	783,187
-42,300	13,169	1432,568	782,241
-41,286	13,207	1431,321	781,708
-40,271	13,185	1429,867	780,781
-39,257	13,109	1428,802	779,809
-38,242	13,178	1427,625	779,460
-37,227	13,214	1426,185	778,813
-36,213	13,168	1425,078	777,960
-35,198	13,233	1423,570	777,416
-34,184	13,241	1422,852	777,031
-33,169	13,177	1421,569	775,997
-32,154	13,279	1420,412	775,815
-31,140	13,217	1419,125	774,789
-30,125	13,263	1418,186	774,464
-29,111	13,218	1417,188	773,673
-28,096	13,187	1415,854	772,770
-27,082	13,177	1414,712	772,069
-26,067	13,118	1413,842	771,286
-25,052	13,157	1412,803	770,871
-24,038	13,175	1411,423	770,174
-23,023	13,145	1410,647	769,577
-22,009	13,080	1409,642	768,694
-20,994	13,055	1408,819	768,100
-19,979	13,103	1408,040	767,868
-18,965	13,033	1407,275	767,091
-17,950	13,080	1406,138	766,664
-16,936	13,109	1405,037	766,166
-15,921	13,097	1403,938	765,479
-14,906	13,066	1403,247	764,927
-13,892	13,094	1402,113	764,410
-12,877	13,038	1401,455	763,764
-11,863	13,045	1400,461	763,224
-10,848	13,052	1399,552	762,729
-9,833	13,032	1398,803	762,200
-8,819	13,013	1397,962	761,621
-7,804	12,989	1397,050	760,983
-6,790	12,976	1395,870	760,249
-5,775	12,962	1394,980	759,668
-4,760	13,010	1393,923	759,287
-3,746	12,962	1393,026	758,544
-2,731	12,935	1392,161	757,921
-1,717	12,965	1391,284	757,549
-0,702	12,904	1389,631	756,340
0,313	16,890	1306,005	729,177
1,327	33,360	700,850	429,179
2,342	51,352	122,797	82,296
3,356	1,488	16,697	8,462
4,371	16,592	3,206	1,786
5,386	52,203	0,622	0,418
6,400	-200,000	0,036	0,372
7,415	-35,901	-0,263	0,100
8,429	-37,003	-0,367	-0,138
9,444	40,558	-0,257	-0,163
10,459	55,834	-0,349	-0,239
11,473	-62,493	-0,315	-0,092
12,488	-21,230	-0,221	-0,095
13,502	4,962	-0,292	-0,151
14,517	142,871	-0,299	-0,281
15,531	261,806	-0,313	-0,384
16,546	-51,322	-0,334	-0,110
17,561	225,024	-0,276	-0,316
18,575	-23,825	-0,174	-0,073
19,590	63,853	-0,282	-0,200
20,604	-150,851	-0,335	-0,018
21,619	-13,850	-0,471	-0,214
22,634	123,720	-0,453	-0,402
23,648	88,837	-0,493	-0,386
24,663	-74,454	-0,411	-0,104
25,677	67,661	-0,379	-0,273
26,692	225,068	-0,259	-0,296
27,707	25,283	-0,356	-0,208
28,721	69,346	-0,333	-0,242
29,736	395,378	-0,213	-0,314
30,750	211,763	-0,345	-0,384
31,765	-32,840	-0,362	-0,141
32,780	90,593	-0,317	-0,250
33,794	110,944	-0,355	-0,301
34,809	-51,441	-0,274	-0,090
35,823	56,598	-0,395	-0,270
36,838	159,547	-0,255	-0,251
37,853	23,629	-0,384	-0,222
38,867	54,046	-0,378	-0,255
39,882	107,549	-0,293	-0,246
40,896	41,773	-0,391	-0,249
41,911	-18,332	-0,329	-0,144
42,926	154,368	-0,373	-0,361
43,940	134,718	-0,312	-0,285
44,955	13,062	-0,414	-0,225
45,969	24,700	-0,391	-0,227
46,984	471,692	-0,217	-0,345
47,999	50,059	-0,348	-0,231
49,013	65,562	-0,316	-0,225
50,028	202,852	-0,212	-0,231
51,042	97,434	-0,360	-0,291
52,057	149,194	-0,270	-0,258
53,071	91,584	-0,376	-0,297
54,086	63,132	-0,365	-0,257
55,101	-6,696	-0,320	-0,153
56,115	83,269	-0,274	-0,210
57,130	-68,050	-0,391	-0,106
58,144	-105,772	-0,363	-0,057
59,159	65,968	-0,410	-0,292
60,174	340,928	-0,282	-0,389
61,188	94,038	-0,410	-0,327
62,203	-71,329	-0,439	-0,115
63,217	46,373	-0,390	-0,254
64,232	21,086	-0,301	-0,171
65,247	78,575	-0,276	-0,207
66,261	96,344	-0,303	-0,244
67,276	25,799	-0,434	-0,254
68,290	60,221	-0,323	-0,224
69,305	162,642	-0,262	-0,259
70,320	-132,313	-0,197	-0,018
71,334	84,118	-0,356	-0,273
72,349	116,092	-0,215	-0,185
73,363	15,673	-0,442	-0,243
74,378	104,914	-0,422	-0,350
75,393	-98,636	-0,313	-0,056
76,407	101,581	-0,286	-0,234
77,422	61,905	-0,319	-0,223
78,436	-30,210	-0,401	-0,159
79,451	44,488	-0,310	-0,200
80,466	36,335	-0,331	-0,204
81,480	129,955	-0,278	-0,250
82,495	25,832	-0,196	-0,115
83,509	10,614	-0,283	-0,151
84,524	-16,987	-0,235	-0,104
85,539	284,435	-0,257	-0,325
86,553	-117,364	-0,443	-0,056
87,568	263,825	-0,276	-0,338
88,582	243,097	-0,243	-0,286
89,597	-83,574	-0,234	-0,052
90,611	90,980	-0,139	-0,109
91,626	69,896	-0,300	-0,217
92,641	15,761	-0,258	-0,142
93,655	-16,769	-0,277	-0,122
94,670	-20,426	-0,341	-0,146
95,684	384,300	-0,185	-0,268
96,699	104,178	-0,199	-0,164
97,714	52,598	-0,172	-0,115
98,728	139,649	-0,163	-0,150
99,743	189,096	-0,227	-0,239
100,757	71,460	-0,178	-0,130
101,772	246,615	-0,241	-0,286
102,787	-4,380	-0,406	-0,196
103,801	-28,750	-0,298	-0,119
104,816	86,558	-0,252	-0,195
105,830	505,009	-0,239	-0,389
106,845	-94,090	-0,253	-0,048
107,860	-37,972	-0,356	-0,132
108,874	424,880	-0,252	-0,382
109,889	24,261	-0,277	-0,160
110,903	29,546	-0,360	-0,214
111,918	40,686	-0,278	-0,175
112,933	200,868	-0,280	-0,301
113,947	-82,370	-0,264	-0,060
114,962	224,711	-0,165	-0,187
115,976	116,856	-0,262	-0,225
116,991	-26,477	-0,313	-0,128
118,006	-21,227	-0,424	-0,181
119,020	118,069	-0,281	-0,243
120,035	23,115	-0,266	-0,153
121,049	22,991	-0,228	-0,130
122,064	115,693	-0,223	-0,191
123,079	60,303	-0,114	-0,078
124,093	27,025	-0,226	-0,133
125,108	35,833	-0,412	-0,253
126,122	72,053	-0,183	-0,133
127,137	-107,918	-0,147	0,022
128,151	-68,675	-0,204	-0,055
129,166	-92,400	-0,280	-0,055
130,181	111,736	-0,127	-0,107
131,195	43,437	-0,210	-0,134
132,210	70,002	-0,265	-0,191
133,224	112,789	-0,194	-0,164
134,239	629,535	-0,111	-0,197
135,254	274,347	-0,167	-0,207
136,268	-97,795	-0,145	-0,026
137,283	49,888	-0,235	-0,155
138,297	268,895	-0,199	-0,245
139,312	219,788	-0,251	-0,281
140,327	711,051	-0,084	-0,157
141,341	616,193	-0,125	-0,219
142,356	459,929	-0,170	-0,265
143,370	-157,683	-0,091	-0,004
144,385	145,456	-0,248	-0,232
145,400	31,452	-0,288	-0,172
146,414	24,213	-0,272	-0,157
147,429	-150,548	-0,290	-0,015
148,443	131,942	-0,249	-0,224
149,458	242,986	-0,095	-0,111
150,473	-43,521	-0,279	-0,098
151,487	310,591	-0,185	-0,242
152,502	110,188	-0,216	-0,181
153,516	67,089	-0,207	-0,147
154,531	429,194	-0,216	-0,327
155,546	492,360	-0,145	-0,233
156,560	331,114	-0,170	-0,229
157,575	-9,382	-0,248	-0,115
158,589	-109,422	-0,348	-0,051
159,604	35,537	-0,286	-0,175
160,619	111,575	-0,204	-0,172
161,633	62,212	-0,244	-0,169
162,648	162,093	-0,237	-0,232
163,662	-68,231	-0,239	-0,064
164,677	-24,827	-0,196	-0,081
165,692	226,416	-0,164	-0,186
166,706	-55,371	-0,267	-0,083
167,721	226,305	-0,211	-0,239
168,735	-4,301	-0,317	-0,152
169,750	407,429	-0,148	-0,219
170,764	14,826	-0,257	-0,140
171,779	-17,016	-0,226	-0,099
172,794	180,113	-0,201	-0,206
173,808	42,790	-0,305	-0,193
174,823	61,747	-0,319	-0,221
175,837	95,133	-0,180	-0,142
176,852	770,980	-0,109	-0,209
177,867	80,244	-0,232	-0,173
178,881	-98,523	-0,234	-0,041
179,896	268,576	-0,200	-0,245
180,910	-115,064	-0,112	-0,015
181,925	-28,320	-0,242	-0,097
182,940	19,459	-0,238	-0,133
183,954	41,896	-0,222	-0,140
184,969	121,884	-0,207	-0,179
185,983	36,983	-0,210	-0,129
186,998	-144,679	-0,281	-0,018
188,013	217,916	-0,188	-0,208
189,027	-154,743	-0,222	-0,010
190,042	364,561	-0,096	-0,134
191,056	153,883	-0,154	-0,147
192,071	25,582	-0,219	-0,127
193,086	58,308	-0,176	-0,120
194,100	255,878	-0,197	-0,236
195,115	197,166	-0,199	-0,211
196,129	-51,831	-0,243	-0,078
197,144	-66,547	-0,288	-0,079
198,159	-4,178	-0,152	-0,073
199,173	43,421	-0,094	-0,059
200,188	240,737	-0,104	-0,121
201,202	139,825	-0,146	-0,134
202,217	637,717	-0,153	-0,272
203,232	-39,371	-0,310	-0,112
204,246	218,945	-0,196	-0,218
205,261	82,082	-0,217	-0,163
206,275	-77,921	-0,180	-0,043
207,290	189,044	-0,198	-0,206
208,304	-74,847	-0,274	-0,068
209,319	158,716	-0,093	-0,090
210,334	319,758	-0,150	-0,198
211,348	293,468	-0,197	-0,251
212,363	62,556	-0,288	-0,199
213,377	51,838	-0,261	-0,172
214,392	-93,665	-0,259	-0,049
215,407	-50,525	0,071	-0,023
216,421	-120,815	-0,235	0,027
217,436	-96,533	-0,192	0,035
218,450	123,420	-0,174	-0,151
219,465	402,148	-0,132	-0,193
220,480	-27,821	-0,255	-0,102
221,494	415,389	-0,155	-0,230
222,509	146,947	-0,136	-0,127
223,523	218,889	-0,101	-0,112
224,538	47,976	-0,216	-0,140
225,553	-53,958	-0,189	-0,059
226,567	-88,912	-0,302	-0,062
227,582	800,000	-0,136	-0,299
228,596	319,059	-0,088	-0,116
229,611	-95,573	-0,222	0,041
230,626	31,842	-0,191	-0,113
231,640	64,001	-0,250	-0,174
232,655	37,931	-0,235	-0,144
233,669	271,129	-0,149	-0,182
234,684	199,745	-0,107	-0,114
235,699	454,598	-0,076	-0,117
236,713	176,234	-0,157	-0,158
237,728	85,755	-0,203	-0,155
238,742	-85,183	-0,199	0,043
239,757	-61,136	-0,093	-0,027
240,772	208,395	-0,177	-0,192
241,786	438,248	-0,102	-0,154
242,801	-22,226	-0,285	-0,119
243,815	32,400	-0,155	-0,093
244,830	196,580	-0,141	-0,148
245,844	-35,977	-0,263	-0,098
246,859	-200,000	-0,029	-0,179
247,874	28,303	-0,194	-0,113
248,888	87,326	-0,185	-0,141
249,903	-90,831	-0,201	-0,040
250,917	326,966	-0,131	-0,175
251,932	-15,697	-0,125	-0,055
252,947	-117,535	-0,145	-0,018
253,961	45,848	-0,263	-0,168
254,976	22,678	-0,237	-0,134
255,990	262,559	-0,140	-0,168
257,005	294,537	-0,159	-0,201
258,020	551,191	-0,176	-0,293
259,034	-96,769	-0,180	-0,032
260,049	163,150	-0,111	-0,108
261,063	-50,756	-0,191	-0,062
262,078	587,091	-0,134	-0,229
263,093	-86,471	-0,199	-0,042
264,107	800,000	-0,096	-0,187
265,122	213,959	-0,076	-0,083
266,136	-200,000	-0,126	0,000
267,151	181,793	-0,205	-0,209
268,166	237,851	-0,113	-0,130
269,180	56,502	-0,188	-0,126
270,195	512,363	-0,116	-0,187
271,209	-66,261	-0,195	-0,053
272,224	178,618	-0,141	-0,143
273,239	-200,000	0,031	-0,200
274,253	-12,830	-0,277	-0,124
275,268	3,147	-0,225	-0,112
276,282	103,540	-0,196	-0,159
277,297	-200,000	-0,070	-0,225
278,312	-42,024	-0,240	-0,084
279,326	10,447	-0,216	-0,113
280,341	74,935	-0,114	-0,083
281,355	772,399	-0,019	-0,037
282,370	-57,317	-0,154	-0,047
283,384	-69,266	-0,117	-0,031
284,399	800,000	-0,092	-0,237
285,414	474,648	-0,161	-0,252
286,428	-158,186	-0,115	-0,005
287,443	278,938	-0,151	-0,186
288,457	-137,367	-0,164	0,013
289,472	463,256	0,060	-0,093
290,487	-100,427	-0,083	-0,014
291,501	-143,413	-0,294	0,019
292,516	-125,951	-0,272	0,028
293,530	-54,271	-0,196	-0,061
294,545	-101,891	-0,188	0,031
295,560	168,931	-0,115	-0,113
296,574	204,666	-0,101	-0,108
297,589	-35,183	-0,296	-0,110
298,603	35,282	-0,211	-0,127
299,618	-200,000	0,025	-0,146
300,633	-125,200	-0,278	0,029
301,647	-136,166	-0,294	-0,023
302,662	153,375	-0,132	-0,124
303,676	501,290	-0,104	-0,166
304,691	-141,534	-0,235	-0,016
305,706	-200,000	-0,037	-0,136
306,720	5,329	-0,191	-0,097
307,735	201,484	-0,163	-0,173
308,749	15,090	-0,062	-0,034
309,764	-125,925	-0,104	0,011
310,779	188,749	-0,129	-0,133
311,793	-200,000	-0,037	-0,135
312,808	115,397	-0,226	-0,190
313,822	78,199	-0,173	-0,127
314,837	105,567	-0,156	-0,126
315,852	302,127	-0,218	-0,277
316,866	-122,730	-0,170	-0,019
317,881	26,374	-0,122	-0,070
318,895	280,105	-0,096	-0,118
319,910	131,600	-0,133	-0,117
320,925	132,758	-0,191	-0,169
321,939	-29,026	-0,188	-0,074
322,954	163,908	-0,113	-0,110
323,968	-40,285	-0,229	-0,081
324,983	-63,094	-0,281	-0,079
325,997	-105,245	-0,112	-0,017
327,012	-18,294	-0,091	0,039
328,027	-43,245	-0,302	-0,104
329,041	117,157	-0,155	-0,130
330,056	-200,000	0,012	-0,124
331,070	-1,765	-0,096	-0,046
332,085	800,000	-0,011	-0,022
333,100	-63,517	-0,121	0,034
334,114	800,000	-0,068	-0,135
335,129	307,446	-0,104	-0,134
336,143	800,000	-0,096	-0,213
337,158	-4,640	-0,175	-0,083
338,173	-200,000	-0,034	-0,229
339,187	-200,000	0,025	-0,089
340,202	-88,298	-0,106	-0,022
341,216	-24,729	-0,087	0,035
342,231	372,033	-0,094	-0,132
343,246	-7,171	-0,172	-0,080
344,260	8,326	-0,168	-0,086
345,275	75,382	-0,054	-0,039
346,289	-46,082	-0,052	-0,018
347,304	72,952	-0,151	-0,108
348,319	-48,504	-0,134	-0,044
349,333	119,751	-0,205	-0,174
350,348	716,045	-0,034	-0,063
351,362	286,395	-0,111	-0,138
352,377	620,047	-0,091	-0,157
353,392	65,399	-0,104	-0,072
354,406	207,286	-0,104	-0,111
355,421	206,194	1311,889	1400,920
356,435	158,568	1472,269	1401,430
