DTS Sentinel unit serial number:	SN410029Multiplexer serial number:	ORYXHardware model number:	OX2-SRSoftware version number:	ORYX F/W v4,00 Oryx Data Collector v3.7.2.0data status	okinstallation	B3 Nyhavnadifferential loss correction	single-endedforward channel	channel 1reverse channel	N/Adate	2023/11/30time	19:07:30forward acquisition time	300,00reverse acquisition time	0,00gamma	499,1914k internal	0,3205k external	0,3205temperature offset calibration	1,0000default loss term (dB/km)	0,3820temperature slope calibration	1,0000multiplexer offset coefficient	1,0000multiplexer slope coefficient	1,0000fibre end	0,00T internal ref (°C)	12,24T ext. ref 1 (°C)	-3,03T ext. ref 2 (°C)	-3,14length (m)	temperature (°C)	Stokes	anti-Stokes-744,400	478,453	-0,142	-0,234
-743,385	800,000	0,110	0,279
-742,371	207,753	-0,155	-0,176
-741,356	-200,000	-0,095	0,408
-740,342	724,561	-0,126	-0,245
-739,327	322,691	0,074	0,103
-738,312	281,324	-0,211	-0,275
-737,298	346,669	0,155	0,222
-736,283	103,281	-0,324	-0,275
-735,269	529,301	0,056	0,096
-734,254	160,623	-0,184	-0,186
-733,239	45,649	-0,149	0,100
-732,225	-200,000	-0,097	-0,334
-731,210	-140,369	0,190	-0,014
-730,196	-116,227	-0,074	0,010
-729,181	236,773	-0,026	-0,031
-728,167	-200,000	0,017	-0,127
-727,152	242,012	-0,059	-0,072
-726,137	-200,000	0,007	-0,070
-725,123	-200,000	-0,008	0,098
-724,108	800,000	-0,044	-0,098
-723,094	383,999	-0,107	-0,160
-722,079	201,593	-0,039	-0,044
-721,064	216,371	-0,085	-0,099
-720,050	-83,089	0,112	-0,026
-719,035	214,279	-0,055	0,064
-718,021	-200,000	-0,000	-0,098
-717,006	-200,000	-0,001	-0,200
-715,991	554,038	-0,095	-0,166
-714,977	710,015	0,034	0,065
-713,962	58,955	-0,043	-0,031
-712,948	-33,264	-0,082	-0,033
-711,933	-6,512	-0,097	-0,048
-710,918	-61,531	0,064	-0,019
-709,904	31,635	0,077	-0,048
-708,889	-200,000	-0,034	-0,148
-707,875	-131,354	-0,054	-0,005
-706,860	-97,876	0,029	-0,005
-705,845	-200,000	0,001	-0,020
-704,831	139,224	0,040	-0,038
-703,816	-76,499	-0,053	-0,013
-702,802	800,000	-0,041	-0,128
-701,787	112,548	-0,037	0,032
-700,772	-200,000	-0,013	-0,057
-699,758	-145,939	-0,103	-0,007
-698,743	-200,000	0,012	0,094
-697,729	-125,905	0,068	0,007
-696,714	300,858	-0,053	-0,072
-695,699	290,085	-0,025	0,033
-694,685	-200,000	-0,020	-0,117
-693,670	-80,816	-0,172	-0,041
-692,656	284,642	0,006	-0,008
-691,641	236,037	0,066	-0,079
-690,627	-113,213	-0,097	0,014
-689,612	-200,000	0,017	0,056
-688,597	800,000	0,062	-0,188
-687,583	19,814	-0,067	0,039
-686,568	-52,471	-0,053	-0,018
-685,554	-200,000	-0,023	-0,171
-684,539	-83,916	-0,007	-0,002
-683,524	-51,812	0,099	-0,033
-682,510	-200,000	0,012	-0,194
-681,495	99,806	-0,060	0,050
-680,481	82,657	-0,128	-0,101
-679,466	291,296	-0,104	-0,138
-678,451	36,408	0,113	-0,072
-677,437	800,000	-0,032	0,078
-676,422	637,079	-0,073	-0,135
-675,408	-71,527	0,137	-0,037
-674,393	237,844	0,032	0,038
-673,378	69,036	-0,058	-0,043
-672,364	-200,000	-0,011	0,093
-671,349	484,247	-0,017	0,028
-670,335	-55,034	0,127	-0,041
-669,320	-200,000	0,031	0,107
-668,305	-33,906	0,142	-0,056
-667,291	-86,226	-0,091	0,020
-666,276	213,905	-0,052	-0,060
-665,262	135,866	-0,070	0,066
-664,247	800,000	0,043	-0,128
-663,232	-163,195	0,166	0,006
-662,218	-200,000	-0,002	0,085
-661,203	-87,546	0,065	-0,014
-660,189	331,444	-0,101	-0,141
-659,174	-200,000	0,006	-0,129
-658,159	-181,096	-0,134	0,002
-657,145	800,000	-0,021	0,046
-656,130	135,382	-0,108	0,101
-655,116	92,789	0,185	0,151
-654,101	-200,000	0,024	0,110
-653,086	-183,912	-0,141	0,002
-652,072	133,421	-0,025	0,024
-651,057	-59,191	-0,135	-0,042
-650,043	156,571	0,055	-0,055
-649,028	-159,173	0,139	0,006
-648,014	158,481	-0,043	0,043
-646,999	-200,000	0,027	0,135
-645,984	163,781	0,073	-0,075
-644,970	-78,001	-0,162	-0,040
-643,955	-200,000	-0,015	-0,129
-642,941	800,000	-0,006	0,015
-641,926	-200,000	0,004	0,036
-640,911	-200,000	0,026	0,115
-639,897	487,045	-0,036	-0,060
-638,882	-185,504	-0,076	0,001
-637,868	-200,000	0,006	-0,060
-636,853	-200,000	0,009	0,067
-635,838	-40,577	-0,194	-0,073
-634,824	65,317	-0,061	-0,045
-633,809	421,812	0,057	0,088
-632,795	142,900	-0,045	-0,043
-631,780	282,076	-0,043	0,056
-630,765	-200,000	-0,024	-0,092
-629,751	-200,000	0,029	-0,128
-628,736	800,000	0,024	-0,065
-627,722	-136,019	0,039	-0,003
-626,707	-200,000	-0,011	0,122
-625,692	-200,000	0,035	0,188
-624,678	-200,000	-0,003	0,059
-623,663	189,008	-0,102	0,110
-622,649	66,195	-0,054	-0,040
-621,634	111,842	0,046	-0,040
-620,619	525,704	0,062	-0,106
-619,605	-94,063	-0,092	0,018
-618,590	68,122	-0,029	0,022
-617,576	-52,829	0,158	0,052
-616,561	-125,704	0,094	0,010
-615,546	48,203	0,107	0,072
-614,532	777,885	-0,070	-0,138
-613,517	-200,000	0,014	-0,073
-612,503	67,116	0,101	0,074
-611,488	629,456	-0,013	0,025
-610,474	-200,000	-0,001	0,074
-609,459	800,000	0,025	-0,070
-608,444	-123,934	-0,201	-0,023
-607,430	-54,945	-0,128	0,041
-606,415	800,000	0,022	-0,051
-605,401	61,962	-0,027	-0,019
-604,386	-200,000	0,010	0,062
-603,371	6,543	0,050	0,027
-602,357	-37,121	-0,074	0,028
-601,342	-200,000	-0,023	-0,091
-600,328	152,078	0,078	-0,077
-599,313	-156,478	-0,167	-0,007
-598,298	-7,467	-0,081	-0,039
-597,284	4,427	0,102	0,054
-596,269	-200,000	-0,000	-0,013
-595,255	-89,199	0,202	0,043
-594,240	-150,405	-0,009	-0,000
-593,225	800,000	-0,046	-0,137
-592,211	-20,864	-0,152	-0,067
-591,196	800,000	-0,059	-0,147
-590,182	773,885	0,066	-0,131
-589,167	800,000	-0,019	-0,059
-588,152	748,695	-0,044	-0,086
-587,138	93,449	-0,151	-0,124
-586,123	379,365	-0,070	-0,104
-585,109	-23,304	-0,134	-0,058
-584,094	67,959	-0,056	-0,042
-583,079	800,000	-0,010	0,030
-582,065	143,717	-0,054	0,052
-581,050	-200,000	-0,016	-0,136
-580,036	41,963	-0,080	0,052
-579,021	75,626	-0,062	0,047
-578,006	113,842	-0,069	-0,061
-576,992	800,000	-0,041	0,081
-575,977	192,892	-0,059	-0,065
-574,963	58,833	0,096	0,068
-573,948	122,176	-0,078	0,071
-572,934	-14,283	-0,102	-0,047
-571,919	-200,000	0,044	-0,288
-570,904	-200,000	0,037	-0,123
-569,890	89,486	0,030	0,024
-568,875	-200,000	0,002	0,098
-567,861	93,059	0,089	0,073
-566,846	800,000	-0,042	-0,132
-565,831	-200,000	0,009	0,073
-564,817	299,597	-0,044	0,059
-563,802	-200,000	-0,045	-0,173
-562,788	30,968	-0,022	0,014
-561,773	800,000	0,070	-0,194
-560,758	128,678	-0,063	-0,058
-559,744	-200,000	0,019	-0,094
-558,729	-96,212	-0,064	0,012
-557,715	493,342	-0,064	0,105
-556,700	523,214	0,033	-0,056
-555,685	800,000	0,012	-0,031
-554,671	800,000	-0,039	-0,101
-553,656	660,769	0,023	-0,043
-552,642	-200,000	0,016	0,091
-551,627	-21,188	0,033	0,015
-550,612	-133,376	-0,066	0,006
-549,598	80,477	-0,044	0,034
-548,583	422,647	-0,076	-0,117
-547,569	104,887	-0,038	-0,032
-546,554	-13,396	0,106	0,049
-545,539	8,328	-0,037	0,020
-544,525	23,000	-0,059	0,035
-543,510	-200,000	0,040	0,203
-542,496	-124,665	-0,022	-0,002
-541,481	-200,000	-0,001	-0,040
-540,466	-145,711	-0,156	-0,010
-539,452	17,170	0,155	-0,088
-538,437	105,921	-0,080	-0,068
-537,423	44,979	-0,018	-0,012
-536,408	295,366	-0,038	-0,050
-535,393	-22,197	0,111	-0,048
-534,379	477,543	-0,014	0,023
-533,364	55,794	0,119	-0,083
-532,350	23,131	0,111	-0,066
-531,335	470,433	0,035	0,057
-530,321	-127,058	-0,129	0,013
-529,306	-200,000	0,005	-0,025
-528,291	-78,084	0,063	0,016
-527,277	-52,973	-0,164	-0,054
-526,262	-200,000	-0,007	-0,031
-525,248	-180,057	-0,025	-0,000
-524,233	28,676	0,051	0,031
-523,218	800,000	0,032	-0,096
-522,204	-111,358	0,202	0,029
-521,189	800,000	0,017	0,041
-520,175	-31,881	-0,073	-0,029
-519,160	-80,156	0,080	-0,019
-518,145	-110,330	-0,123	0,018
-517,131	-22,762	0,104	0,045
-516,116	67,139	0,070	0,052
-515,102	-164,740	-0,073	0,002
-514,087	111,373	-0,042	0,036
-513,072	-156,976	-0,119	0,005
-512,058	213,066	0,071	0,081
-511,043	544,861	0,051	-0,088
-510,029	800,000	0,030	0,066
-509,014	-200,000	-0,011	0,133
-507,999	-116,923	0,121	0,016
-506,985	-200,000	0,025	-0,110
-505,970	58,315	-0,036	-0,026
-504,956	110,687	-0,052	0,045
-503,941	104,449	-0,042	0,035
-502,926	118,160	0,036	-0,032
-501,912	-42,057	0,107	0,039
-500,897	136,681	-0,030	-0,028
-499,883	-119,182	0,075	-0,009
-498,868	390,833	0,051	-0,076
-497,853	-200,000	0,017	-0,084
-496,839	-137,491	-0,135	0,011
-495,824	82,306	0,011	-0,009
-494,810	28,596	0,164	0,100
-493,795	-200,000	0,066	0,256
-492,781	-62,266	-0,122	-0,036
-491,766	-106,987	0,095	-0,015
-490,751	3,156	0,059	-0,031
-489,737	277,683	-0,037	-0,047
-488,722	-141,549	-0,058	-0,004
-487,708	-79,268	0,039	-0,009
-486,693	-200,000	0,017	0,068
-485,678	-200,000	0,002	-0,019
-484,664	800,000	-0,009	-0,025
-483,649	-124,008	-0,072	-0,008
-482,635	800,000	-0,011	-0,024
-481,620	-142,644	-0,113	0,008
-480,605	-45,277	-0,077	0,027
-479,591	30,121	-0,108	0,066
-478,576	-62,411	-0,084	-0,025
-477,562	-32,476	-0,033	-0,013
-476,547	81,059	-0,086	-0,067
-475,532	-189,318	0,203	-0,002
-474,518	771,907	-0,088	0,174
-473,503	-47,720	0,223	-0,077
-472,489	-105,242	-0,042	0,007
-471,474	800,000	0,078	-0,161
-470,459	-200,000	0,008	0,062
-469,445	-200,000	-0,010	-0,050
-468,430	75,323	-0,023	-0,017
-467,416	-111,543	0,078	0,011
-466,401	800,000	0,012	-0,026
-465,386	714,239	0,022	0,041
-464,372	-200,000	0,014	0,104
-463,357	-200,000	-0,024	-0,172
-462,343	800,000	-0,040	-0,125
-461,328	-22,865	0,104	0,045
-460,313	351,234	0,043	-0,061
-459,299	-200,000	-0,037	0,236
-458,284	218,168	-0,053	-0,061
-457,270	-68,719	-0,104	-0,029
-456,255	657,676	-0,048	-0,088
-455,241	-157,720	0,053	0,002
-454,226	355,947	0,069	0,099
-453,211	800,000	0,014	-0,029
-452,197	141,844	0,080	0,076
-451,182	177,739	-0,077	0,080
-450,168	-200,000	0,013	0,053
-449,153	-200,000	0,009	-0,050
-448,138	-117,270	-0,068	0,009
-447,124	-3,197	0,064	0,032
-446,109	-50,464	0,048	-0,016
-445,095	30,925	0,072	0,044
-444,080	206,525	0,013	0,015
-443,065	-9,248	0,107	-0,051
-442,051	234,967	-0,055	-0,065
-441,036	159,617	0,037	-0,037
-440,022	-117,383	-0,079	0,010
-439,007	-171,993	-0,059	0,001
-437,992	-65,608	0,132	0,038
-436,978	-171,072	-0,066	0,002
-435,963	-200,000	-0,015	0,118
-434,949	-200,000	-0,024	0,079
-433,934	800,000	-0,035	-0,094
-432,919	148,385	0,042	-0,041
-431,905	1,204	-0,027	0,014
-430,890	-41,292	0,108	0,040
-429,876	-53,403	0,137	0,045
-428,861	-200,000	0,020	-0,132
-427,846	-200,000	0,017	-0,131
-426,832	-76,270	-0,106	0,027
-425,817	634,889	0,108	-0,197
-424,803	-25,276	0,037	-0,016
-423,788	-3,277	0,107	-0,053
-422,773	137,478	0,019	-0,018
-421,759	800,000	0,031	0,096
-420,744	-28,989	-0,128	0,052
-419,730	800,000	-0,030	-0,065
-418,715	459,953	-0,032	-0,051
-417,701	-141,468	0,055	0,004
-416,686	-48,276	-0,071	-0,024
-415,671	538,214	-0,071	-0,122
-414,657	-118,997	0,035	0,004
-413,642	-200,000	0,012	0,090
-412,628	205,981	0,039	-0,043
-411,613	-21,908	-0,035	-0,015
-410,598	-200,000	0,008	-0,081
-409,584	282,574	0,054	-0,070
-408,569	-200,000	-0,011	-0,081
-407,555	-105,409	0,061	0,010
-406,540	145,669	-0,042	0,040
-405,525	50,148	0,112	0,075
-404,511	-200,000	0,004	-0,072
-403,496	-200,000	-0,007	-0,039
-402,482	58,614	0,074	0,052
-401,467	-70,700	0,171	-0,046
-400,452	-200,000	-0,002	0,115
-399,438	-200,000	0,035	-0,138
-398,423	-126,192	-0,047	-0,005
-397,409	274,901	0,084	-0,106
-396,394	379,923	-0,073	0,108
-395,379	58,756	0,067	0,047
-394,365	7,995	0,105	0,056
-393,350	-170,917	0,043	0,001
-392,336	-200,000	-0,004	-0,077
-391,321	217,058	0,091	0,104
-390,306	-28,570	-0,101	0,041
-389,292	-200,000	0,031	0,114
-388,277	761,556	0,037	-0,073
-387,263	800,000	0,021	-0,061
-386,248	-200,000	-0,004	0,075
-385,233	-200,000	0,030	0,244
-384,219	-200,000	-0,022	-0,080
-383,204	-13,115	0,050	-0,023
-382,190	-200,000	-0,036	0,126
-381,175	42,717	-0,062	0,040
-380,160	-200,000	0,007	-0,024
-379,146	180,567	0,101	0,106
-378,131	800,000	0,073	0,168
-377,117	-126,678	-0,120	0,013
-376,102	800,000	0,040	-0,084
-375,088	-200,000	-0,005	-0,110
-374,073	165,444	0,068	0,069
-373,058	14,674	-0,123	0,069
-372,044	800,000	0,076	0,169
-371,029	26,108	0,031	0,019
-370,015	800,000	-0,060	-0,134
-369,000	-200,000	-0,047	-0,160
-367,985	-178,649	-0,151	-0,002
-366,971	186,707	-0,055	0,059
-365,956	800,000	0,008	0,017
-364,942	800,000	0,044	-0,100
-363,927	-200,000	0,027	0,128
-362,912	769,446	0,018	0,034
-361,898	87,234	0,057	-0,045
-360,883	-59,487	-0,084	-0,026
-359,869	-120,187	0,098	0,012
-358,854	366,235	-0,050	-0,072
-357,839	-52,899	0,056	-0,018
-356,825	-200,000	0,005	0,038
-355,810	-45,785	-0,123	0,043
-354,796	-56,950	-0,112	-0,035
-353,781	-50,284	0,035	-0,012
-352,766	-200,000	0,002	0,010
-351,752	186,177	0,078	-0,083
-350,737	-116,826	0,036	0,005
-349,723	642,122	0,107	0,195
-348,708	-33,334	0,159	0,062
-347,693	62,969	-0,104	-0,075
-346,679	42,648	-0,077	0,050
-345,664	-38,305	0,169	-0,064
-344,650	-200,000	0,008	0,030
-343,635	-93,073	0,102	-0,020
-342,620	800,000	0,032	0,095
-341,606	-200,000	-0,013	0,143
-340,591	-75,441	-0,086	0,022
-339,577	1,487	-0,074	-0,038
-338,562	279,494	-0,103	-0,132
-337,548	-58,699	0,110	0,034
-336,533	-153,388	0,112	0,005
-335,518	-200,000	-0,010	0,063
-334,504	-200,000	0,011	-0,051
-333,489	-20,193	0,098	-0,043
-332,475	724,483	-0,031	-0,060
-331,460	111,207	-0,203	0,175
-330,445	-138,459	0,066	0,005
-329,431	-33,610	0,078	-0,031
-328,416	-83,193	-0,050	-0,012
-327,402	-153,777	0,028	-0,001
-326,387	-30,496	0,181	0,073
-325,372	-200,000	-0,007	-0,172
-324,358	100,901	-0,198	-0,165
-323,343	-55,799	-0,130	0,041
-322,329	-121,916	-0,068	0,008
-321,314	800,000	-0,057	-0,116
-320,299	36,110	0,137	-0,086
-319,285	12,878	0,075	0,041
-318,270	-108,245	0,057	-0,009
-317,256	-200,000	0,002	-0,100
-316,241	-95,384	0,129	0,024
-315,226	-200,000	0,012	0,045
-314,212	129,156	-0,089	0,081
-313,197	8,426	0,070	-0,038
-312,183	-200,000	0,045	0,187
-311,168	-200,000	0,000	0,065
-310,153	-139,468	-0,104	-0,008
-309,139	-200,000	-0,007	-0,052
-308,124	125,559	-0,101	0,091
-307,110	-75,793	0,078	0,020
-306,095	389,325	0,104	0,155
-305,080	800,000	-0,040	-0,083
-304,066	110,925	0,093	-0,080
-303,051	8,349	-0,042	-0,023
-302,037	-151,887	0,083	-0,004
-301,022	632,018	-0,024	-0,043
-300,008	800,000	-0,042	0,108
-298,993	-51,761	0,220	0,073
-297,978	800,000	-0,031	-0,063
-296,964	110,929	-0,060	0,051
-295,949	266,076	0,050	0,063
-294,935	238,443	0,022	-0,026
-293,920	-43,921	0,091	0,032
-292,905	800,000	0,058	0,142
-291,891	210,361	0,165	0,185
-290,876	36,621	-0,105	-0,066
-289,862	24,271	-0,173	-0,102
-288,847	-73,208	0,081	-0,021
-287,832	-119,028	-0,057	-0,007
-286,818	-200,000	0,026	0,081
-285,803	800,000	0,014	-0,032
-284,789	-121,358	0,054	-0,006
-283,774	199,639	-0,036	-0,040
-282,759	-85,465	-0,097	-0,021
-281,745	82,788	0,026	-0,020
-280,730	217,514	-0,033	-0,038
-279,716	-122,599	0,148	-0,017
-278,701	-26,105	0,057	-0,024
-277,686	800,000	0,065	0,171
-276,672	-125,420	-0,071	-0,008
-275,657	28,227	0,009	0,006
-274,643	-38,584	-0,125	0,047
-273,628	800,000	0,032	-0,076
-272,613	125,362	-0,041	-0,037
-271,599	22,932	0,198	0,115
-270,584	-92,346	0,027	-0,005
-269,570	-200,000	-0,030	0,109
-268,555	800,000	0,025	0,077
-267,540	151,621	-0,041	0,040
-266,526	42,525	-0,091	-0,059
-265,511	93,671	0,062	-0,050
-264,497	-71,882	-0,027	0,007
-263,482	23,196	-0,031	0,018
-262,467	329,014	0,139	0,191
-261,453	-124,316	0,138	0,015
-260,438	0,180	0,044	-0,022
-259,424	56,859	-0,118	0,081
-258,409	134,078	-0,106	-0,098
-257,395	46,129	-0,093	0,061
-256,380	800,000	-0,035	0,084
-255,365	-69,493	-0,187	0,051
-254,351	389,574	0,071	-0,105
-253,336	-51,748	-0,041	0,014
-252,322	68,787	-0,060	-0,044
-251,307	98,350	0,028	-0,023
-250,292	800,000	0,037	0,083
-249,278	-200,000	0,020	0,160
-248,263	63,493	-0,123	-0,088
-247,249	-200,000	0,009	-0,047
-246,234	-200,000	-0,018	-0,060
-245,219	-70,889	-0,150	-0,040
-244,205	69,686	-0,154	-0,113
-243,190	-37,573	-0,096	-0,036
-242,176	97,942	-0,032	0,026
-241,161	82,410	-0,026	-0,020
-240,146	265,339	0,077	0,095
-239,132	-200,000	-0,005	0,019
-238,117	-32,450	0,100	0,039
-237,103	261,253	-0,034	-0,042
-236,088	-200,000	0,030	0,097
-235,073	-51,093	0,141	-0,047
-234,059	-94,551	-0,127	-0,024
-233,044	800,000	-0,030	0,087
-232,030	-98,309	-0,129	0,023
-231,015	16,448	-0,072	-0,040
-230,000	-200,000	-0,005	-0,139
-228,986	-145,362	-0,148	-0,009
-227,971	25,438	-0,042	-0,025
-226,957	419,495	-0,057	0,087
-225,942	0,822	0,150	0,076
-224,927	173,851	-0,038	-0,040
-223,913	-200,000	-0,024	-0,080
-222,898	156,828	0,022	-0,022
-221,884	182,322	-0,110	0,115
-220,869	800,000	0,045	0,116
-219,855	65,910	0,037	0,027
-218,840	-52,743	-0,085	0,028
-217,825	420,250	0,038	0,058
-216,811	-200,000	0,004	-0,020
-215,796	-200,000	-0,003	-0,121
-214,782	-200,000	0,001	-0,043
-213,767	-200,000	-0,014	-0,048
-212,752	-200,000	-0,045	0,147
-211,738	-200,000	-0,005	0,071
-210,723	-200,000	0,020	0,108
-209,709	-115,846	0,115	0,015
-208,694	800,000	-0,042	-0,109
-207,679	800,000	0,065	-0,171
-206,665	351,934	0,054	0,076
-205,650	286,655	0,066	0,085
-204,636	215,232	0,049	0,055
-203,621	-200,000	-0,002	-0,040
-202,606	-85,547	-0,069	-0,015
-201,592	63,930	0,028	0,020
-200,577	355,756	0,066	0,093
-199,563	-200,000	-0,018	-0,076
-198,548	3,724	0,075	0,039
-197,533	-200,000	0,017	0,103
-196,519	117,625	-0,100	-0,088
-195,504	-200,000	0,027	0,088
-194,490	344,071	-0,103	0,143
-193,475	137,840	0,060	0,056
-192,460	101,438	-0,077	0,064
-191,446	-100,703	-0,067	0,012
-190,431	60,068	-0,075	-0,053
-189,417	10,462	0,034	-0,019
-188,402	-32,649	0,086	-0,034
-187,387	-200,000	0,009	0,094
-186,373	224,468	-0,068	-0,078
-185,358	-200,000	-0,033	0,112
-184,344	-200,000	0,009	0,179
-183,329	-200,000	-0,023	0,127
-182,315	-160,648	0,051	0,002
-181,300	315,080	0,067	-0,091
-180,285	-200,000	-0,023	-0,211
-179,271	191,249	-0,072	-0,077
-178,256	-200,000	0,011	-0,115
-177,242	45,920	0,069	0,046
-176,227	800,000	-0,007	0,019
-175,212	577,126	0,013	0,022
-174,198	-51,371	-0,009	0,003
-173,183	-120,888	0,064	0,008
-172,169	-84,846	0,067	0,015
-171,154	-43,361	-0,098	-0,035
-170,139	166,045	0,065	0,065
-169,125	-143,654	0,072	-0,005
-168,110	18,298	0,066	0,037
-167,096	-137,414	-0,111	-0,009
-166,081	419,346	0,039	-0,059
-165,066	102,009	-0,069	-0,058
-164,052	-19,589	0,049	-0,022
-163,037	800,000	0,006	-0,013
-162,023	800,000	0,021	-0,042
-161,008	-200,000	-0,016	0,063
-159,993	25,373	0,053	0,031
-158,979	-146,483	-0,100	0,006
-157,964	-46,820	-0,085	0,029
-156,950	90,196	-0,073	0,058
-155,935	-168,882	0,035	0,001
-154,920	800,000	0,032	-0,082
-153,906	-69,868	0,102	-0,027
-152,891	401,544	0,017	-0,025
-151,877	-83,496	-0,030	-0,007
-150,862	-70,352	-0,081	0,022
-149,847	800,000	-0,035	-0,095
-148,833	361,399	-0,092	-0,131
-147,818	6,738	-0,028	0,015
-146,804	69,698	-0,073	0,053
-145,789	108,854	0,052	0,044
-144,775	800,000	-0,024	-0,047
-143,760	512,450	0,045	-0,074
-142,745	497,219	-0,032	-0,053
-141,731	800,000	0,044	0,095
-140,716	-200,000	0,034	0,152
-139,702	-200,000	0,005	-0,030
-138,687	-200,000	0,025	0,085
-137,672	-131,721	0,084	-0,008
-136,658	-149,009	-0,076	-0,004
-135,643	108,776	0,062	0,052
-134,629	-142,795	0,066	-0,004
-133,614	-200,000	0,010	-0,050
-132,599	-2,288	0,146	0,073
-131,585	-200,000	-0,009	0,114
-130,570	100,093	0,118	0,097
-129,556	-200,000	-0,013	-0,072
-128,541	357,456	0,018	0,026
-127,526	69,579	-0,091	-0,066
-126,512	91,549	-0,060	-0,048
-125,497	-31,639	0,113	0,045
-124,483	800,000	0,045	0,131
-123,468	-40,906	-0,028	-0,010
-122,453	800,000	0,045	0,120
-121,439	-200,000	-0,021	0,183
-120,424	48,759	-0,159	-0,106
-119,410	396,919	-0,030	0,044
-118,395	374,968	0,077	0,112
-117,380	-89,937	0,095	0,019
-116,366	89,836	-0,043	-0,034
-115,351	-117,611	-0,058	0,007
-114,337	-9,628	0,056	0,026
-113,322	-27,529	-0,139	-0,057
-112,307	-115,363	0,034	-0,004
-111,293	-31,193	0,120	-0,048
-110,278	757,712	-0,043	-0,082
-109,264	100,422	-0,017	-0,014
-108,249	-200,000	0,000	-0,035
-107,234	-134,874	-0,167	-0,014
-106,220	-200,000	0,045	-0,141
-105,205	-200,000	-0,022	-0,071
-104,191	560,067	0,096	0,165
-103,176	-200,000	0,016	-0,057
-102,162	384,210	-0,037	-0,054
-101,147	381,835	0,028	-0,041
-100,132	-148,271	-0,110	0,006
-99,118	-63,200	0,032	-0,009
-98,103	181,933	-0,012	0,013
-97,089	56,654	-0,080	0,055
-96,074	800,000	-0,012	-0,036
-95,059	3,021	0,022	-0,011
-94,045	-200,000	-0,012	-0,108
-93,030	70,768	-0,038	-0,028
-92,016	296,950	0,043	0,056
-91,001	-200,000	-0,012	0,079
-89,986	800,000	-0,017	0,053
-88,972	14,862	0,080	-0,044
-87,957	-200,000	0,003	0,046
-86,943	41,323	-0,137	-0,088
-85,928	-56,931	-0,135	-0,042
-84,913	-200,000	-0,014	0,049
-83,899	-200,000	0,039	-0,128
-82,884	674,942	-0,057	0,106
-81,870	-200,000	-0,007	0,123
-80,855	-3,477	0,010	0,005
-79,840	-200,000	-0,016	0,194
-78,826	-32,702	-0,115	0,045
-77,811	280,893	-0,089	-0,114
-76,797	201,769	-0,074	-0,081
-75,782	800,000	0,022	-0,054
-74,767	257,219	0,033	0,041
-73,753	-200,000	-0,020	0,177
-72,738	800,000	-0,040	0,118
-71,724	11,819	0,106	-0,058
-70,709	532,413	-0,038	-0,064
-69,694	-62,387	-0,060	-0,018
-68,680	14,132	-0,109	0,060
-67,665	800,000	-0,057	0,113
-66,651	734,910	-0,028	0,053
-65,636	-129,368	0,011	-0,001
-64,622	129,188	0,073	-0,066
-63,607	102,338	-0,039	-0,032
-62,592	313,866	0,028	-0,037
-61,578	156,825	0,068	-0,067
-60,563	73,734	0,122	0,090
-59,549	659,544	-0,037	0,068
-58,534	42,578	-1,688	-1,084
-57,519	410,063	-1,445	-2,173
-56,505	-200,000	-0,389	-4,490
-55,490	320,917	0,944	1,272
-54,476	800,000	5,021	11,227
-53,461	-200,000	20,179	329,296
-52,446	800,000	750,435	2321,824
-51,432	553,112	1659,721	2831,249
-50,417	75,359	1668,407	1243,203
-49,403	20,041	1541,213	876,429
-48,388	14,037	1463,558	803,135
-47,373	18,826	1454,024	820,943
-46,359	16,702	1443,231	804,674
-45,344	12,357	1438,750	781,393
-44,330	12,300	1436,990	780,131
-43,315	12,281	1435,214	779,046
-42,300	12,300	1433,502	778,180
-41,286	12,271	1432,344	777,380
-40,271	12,294	1430,878	776,664
-39,257	12,283	1429,772	775,979
-38,242	12,339	1428,333	775,433
-37,227	12,308	1427,317	774,706
-36,213	12,348	1425,819	774,051
-35,198	12,284	1424,772	773,150
-34,184	12,382	1423,905	773,112
-33,169	12,285	1422,459	771,838
-32,154	12,386	1421,345	771,678
-31,140	12,345	1420,171	770,818
-30,125	12,366	1418,895	770,192
-29,111	12,320	1417,963	769,442
-28,096	12,297	1416,989	768,773
-27,082	12,308	1415,653	768,070
-26,067	12,239	1414,774	767,239
-25,052	12,298	1413,568	766,829
-24,038	12,268	1412,612	766,140
-23,023	12,258	1411,618	765,524
-22,009	12,281	1410,528	765,010
-20,994	12,236	1409,765	764,355
-19,979	12,210	1408,872	763,720
-18,965	12,236	1407,904	763,284
-17,950	12,220	1407,019	762,698
-16,936	12,191	1406,110	762,044
-15,921	12,189	1404,969	761,386
-14,906	12,188	1404,028	760,838
-13,892	12,197	1403,100	760,348
-12,877	12,188	1402,328	759,857
-11,863	12,162	1401,437	759,221
-10,848	12,176	1400,377	758,684
-9,833	12,117	1399,516	757,912
-8,819	12,051	1399,058	757,329
-7,804	12,068	1397,893	756,749
-6,790	12,077	1396,989	756,268
-5,775	12,116	1395,766	755,760
-4,760	12,096	1394,860	755,143
-3,746	12,105	1393,816	754,592
-2,731	12,074	1393,067	754,012
-1,717	12,041	1392,342	753,438
-0,702	11,984	1390,860	752,344
0,313	15,958	1305,733	724,593
1,327	32,067	698,563	424,604
2,342	49,362	121,948	80,910
3,356	-0,596	16,556	8,270
4,371	1,779	3,263	1,656
5,386	5,649	0,609	0,317
6,400	-200,000	0,092	0,302
7,415	718,857	-0,102	-0,192
8,429	32,743	-0,205	-0,125
9,444	32,142	-0,336	-0,204
10,459	-3,255	-0,435	-0,213
11,473	-57,542	-0,331	-0,102
12,488	-60,786	-0,193	-0,057
13,502	34,714	-0,321	-0,198
14,517	20,262	-0,339	-0,192
15,531	3,782	-0,394	-0,202
16,546	16,632	-0,359	-0,200
17,561	205,362	-0,304	-0,334
18,575	145,081	-0,177	-0,167
19,590	68,337	-0,229	-0,165
20,604	302,370	-0,164	-0,215
21,619	316,788	-0,342	-0,457
22,634	163,747	-0,346	-0,343
23,648	133,018	-0,297	-0,271
24,663	68,907	-0,379	-0,274
25,677	46,151	-0,298	-0,194
26,692	70,531	-0,239	-0,174
27,707	44,961	-0,247	-0,160
28,721	23,755	-0,376	-0,218
29,736	47,840	-0,331	-0,217
30,750	34,416	-0,306	-0,188
31,765	106,981	-0,395	-0,331
32,780	240,407	-0,257	-0,303
33,794	53,272	-0,326	-0,220
34,809	249,938	-0,240	-0,288
35,823	-107,570	-0,452	-0,069
36,838	110,585	-0,278	-0,236
37,853	24,567	-0,340	-0,198
38,867	212,031	-0,335	-0,372
39,882	62,295	-0,435	-0,305
40,896	52,867	-0,361	-0,243
41,911	800,000	-0,136	-0,297
42,926	110,225	-0,384	-0,325
43,940	-56,111	-0,317	-0,099
44,955	2,302	-0,392	-0,199
45,969	27,385	-0,337	-0,199
46,984	47,093	-0,414	-0,271
47,999	202,613	-0,280	-0,305
49,013	218,464	-0,215	-0,242
50,028	122,924	-0,228	-0,200
51,042	189,918	-0,214	-0,226
52,057	328,002	-0,246	-0,333
53,071	44,354	-0,459	-0,296
54,086	120,272	-0,356	-0,311
55,101	161,141	-0,292	-0,288
56,115	129,981	-0,229	-0,206
57,130	68,747	-0,399	-0,288
58,144	-18,576	-0,397	-0,173
59,159	71,574	-0,413	-0,301
60,174	30,666	-0,407	-0,244
61,188	119,587	-0,268	-0,234
62,203	78,094	-0,299	-0,224
63,217	-69,119	-0,431	-0,116
64,232	-62,503	-0,382	-0,111
65,247	9,125	-0,248	-0,131
66,261	52,897	-0,356	-0,239
67,276	-9,107	-0,317	-0,148
68,290	-17,127	-0,436	-0,192
69,305	-173,321	-0,344	-0,007
70,320	-45,815	-0,196	-0,068
71,334	-58,597	-0,253	-0,077
72,349	14,179	-0,341	-0,186
73,363	28,502	-0,425	-0,252
74,378	-21,928	-0,375	-0,159
75,393	425,065	-0,243	-0,369
76,407	-19,691	-0,314	-0,136
77,422	11,039	-0,306	-0,164
78,436	-73,294	-0,255	-0,065
79,451	-1,007	-0,336	-0,166
80,466	103,688	-0,253	-0,208
81,480	-10,905	-0,398	-0,184
82,495	129,113	-0,287	-0,257
83,509	94,584	-0,222	-0,177
84,524	57,058	-0,194	-0,133
85,539	206,786	-0,165	-0,181
86,553	318,171	-0,177	-0,236
87,568	-33,580	-0,325	-0,125
88,582	800,000	-0,101	-0,288
89,597	549,149	-0,187	-0,316
90,611	291,992	-0,242	-0,309
91,626	73,605	-0,128	-0,094
92,641	-69,131	-0,236	-0,063
93,655	-44,349	-0,373	-0,130
94,670	49,853	-0,420	-0,277
95,684	-8,201	-0,322	-0,152
96,699	90,676	-0,264	-0,207
97,714	107,825	-0,260	-0,217
98,728	202,069	-0,175	-0,190
99,743	-55,382	-0,306	-0,096
100,757	83,909	-0,231	-0,177
101,772	-109,244	-0,334	-0,049
102,787	98,491	-0,397	-0,320
103,801	-7,259	-0,261	-0,124
104,816	146,332	-0,286	-0,269
105,830	-31,232	-0,250	-0,098
106,845	-28,494	-0,190	-0,077
107,860	225,810	-0,142	-0,161
108,874	100,539	-0,248	-0,202
109,889	271,167	-0,214	-0,264
110,903	145,548	-0,281	-0,264
111,918	-10,453	-0,351	-0,162
112,933	74,632	-0,170	-0,125
113,947	-49,686	-0,165	-0,055
114,962	107,496	-0,278	-0,231
115,976	154,135	-0,231	-0,222
116,991	220,962	-0,190	-0,214
118,006	-73,879	-0,192	-0,048
119,020	-19,509	-0,306	-0,132
120,035	265,237	-0,135	-0,165
121,049	74,778	-0,161	-0,118
122,064	-40,310	-0,237	-0,086
123,079	104,602	-0,221	-0,182
124,093	169,951	-0,217	-0,217
125,108	33,737	-0,386	-0,234
126,122	414,171	-0,256	-0,383
127,137	-45,459	-0,346	-0,119
128,151	262,683	-0,162	-0,197
129,166	65,610	-0,255	-0,180
130,181	45,412	-0,262	-0,169
131,195	119,960	-0,269	-0,233
132,210	90,116	-0,299	-0,233
133,224	280,127	-0,213	-0,266
134,239	121,698	-0,214	-0,186
135,254	31,808	-0,162	-0,097
136,268	-25,462	-0,263	-0,108
137,283	10,459	-0,254	-0,134
138,297	35,304	-0,228	-0,139
139,312	-16,127	-0,336	-0,148
140,327	-9,647	-0,236	-0,109
141,341	116,921	-0,152	-0,130
142,356	81,624	-0,174	-0,131
143,370	-24,771	-0,213	-0,088
144,385	65,378	-0,290	-0,205
145,400	180,084	-0,244	-0,250
146,414	174,152	-0,273	-0,276
147,429	150,676	-0,222	-0,210
148,443	111,114	-0,187	-0,157
149,458	197,594	-0,198	-0,211
150,473	264,623	-0,206	-0,251
151,487	-24,199	-0,261	-0,108
152,502	25,899	-0,272	-0,158
153,516	36,632	-0,252	-0,155
154,531	120,909	-0,239	-0,207
155,546	-38,318	-0,171	-0,063
156,560	62,572	-0,230	-0,160
157,575	132,463	-0,177	-0,159
158,589	10,677	-0,290	-0,154
159,604	79,791	-0,188	-0,140
160,619	109,122	-0,236	-0,196
161,633	257,252	-0,269	-0,323
162,648	17,420	-0,232	-0,128
163,662	-34,032	-0,230	-0,088
164,677	3,809	-0,176	-0,089
165,692	800,000	-0,074	-0,152
166,706	-22,684	-0,313	-0,131
167,721	429,643	-0,197	-0,298
168,735	284,338	-0,188	-0,237
169,750	-11,446	-0,276	-0,126
170,764	60,631	-0,074	-0,051
171,779	46,954	-0,191	-0,123
172,794	90,949	-0,197	-0,154
173,808	-18,272	-0,089	-0,038
174,823	-8,930	-0,290	-0,135
175,837	189,610	-0,230	-0,240
176,852	60,928	-0,161	-0,111
177,867	58,138	-0,061	-0,042
178,881	800,000	-0,114	-0,226
179,896	276,874	-0,144	-0,179
180,910	13,674	-0,175	-0,095
181,925	124,225	-0,242	-0,212
182,940	140,924	-0,277	-0,254
183,954	-8,864	-0,270	-0,126
184,969	-42,045	-0,167	-0,059
185,983	193,406	-0,226	-0,238
186,998	177,019	-0,212	-0,214
188,013	74,543	-0,197	-0,144
189,027	100,475	-0,155	-0,125
190,042	103,047	-0,281	-0,229
191,056	-200,000	-0,069	-0,225
192,071	-10,042	-0,225	-0,104
193,086	154,272	-0,226	-0,215
194,100	38,065	-0,200	-0,124
195,115	22,701	-0,116	-0,066
196,129	209,994	-0,212	-0,232
197,144	311,651	-0,195	-0,254
198,159	84,624	-0,194	-0,147
199,173	64,807	-0,186	-0,130
200,188	141,481	-0,155	-0,142
201,202	98,926	-0,263	-0,211
202,217	216,957	-0,166	-0,184
203,232	29,122	-0,252	-0,148
204,246	83,697	-0,306	-0,231
205,261	49,480	-0,329	-0,214
206,275	14,616	-0,226	-0,122
207,290	-45,353	-0,247	-0,085
208,304	-200,000	-0,012	-0,134
209,319	401,809	-0,147	-0,215
210,334	165,722	-0,215	-0,211
211,348	768,910	-0,125	-0,237
212,363	180,345	-0,234	-0,239
213,377	-66,940	-0,197	-0,054
214,392	67,236	-0,275	-0,194
215,407	197,781	-0,126	-0,134
216,421	-119,098	-0,144	-0,017
217,436	198,791	-0,151	-0,160
218,450	98,017	-0,174	-0,139
219,465	756,501	-0,168	-0,316
220,480	145,728	-0,227	-0,211
221,494	34,359	-0,185	-0,112
222,509	411,080	-0,039	-0,058
223,523	-57,573	-0,185	0,056
224,538	466,977	-0,105	-0,164
225,553	252,022	-0,144	-0,170
226,567	-99,339	-0,095	0,016
227,582	324,942	-0,129	-0,171
228,596	603,681	-0,121	-0,210
229,611	798,401	-0,075	-0,144
230,626	-73,815	-0,072	-0,018
231,640	334,475	-0,196	-0,263
232,655	105,974	-0,264	-0,216
233,669	-11,119	-0,218	-0,099
234,684	131,669	-0,230	-0,204
235,699	-53,453	-0,187	-0,059
236,713	-38,213	-0,195	-0,071
237,728	-29,444	-0,118	-0,047
238,742	23,003	-0,207	-0,117
239,757	26,381	-0,236	-0,136
240,772	800,000	-0,082	-0,176
241,786	-22,012	-0,306	-0,128
242,801	277,984	-0,199	-0,245
243,815	363,718	-0,128	-0,178
244,830	198,739	-0,112	-0,118
245,844	-15,359	-0,157	-0,069
246,859	-19,484	-0,187	-0,080
247,874	82,868	-0,281	-0,211
248,888	-139,897	-0,157	-0,011
249,903	-7,537	-0,147	-0,069
250,917	121,084	-0,102	-0,088
251,932	197,358	-0,074	-0,078
252,947	9,385	-0,106	0,055
253,961	71,752	-0,198	-0,142
254,976	172,359	-0,178	-0,177
255,990	800,000	-0,121	-0,247
257,005	-22,901	-0,160	0,066
258,020	-40,905	-0,202	-0,072
259,034	43,353	-0,133	-0,084
260,049	-49,390	-0,162	-0,053
261,063	261,380	-0,161	-0,192
262,078	41,052	-0,159	-0,099
263,093	160,299	-0,173	-0,167
264,107	149,957	-0,240	-0,225
265,122	226,360	-0,143	-0,160
266,136	-91,177	-0,194	-0,038
267,151	75,960	-0,102	-0,074
268,166	-79,430	-0,142	0,033
269,180	209,250	-0,176	-0,191
270,195	335,632	-0,201	-0,270
271,209	232,226	-0,165	-0,187
272,224	406,456	-0,092	-0,134
273,239	-43,789	-0,121	0,042
274,253	14,451	-0,086	-0,046
275,268	367,671	-0,115	-0,161
276,282	187,049	-0,201	-0,206
277,297	177,325	-0,178	-0,179
278,312	48,068	-0,199	-0,128
279,326	11,999	-0,168	-0,089
280,341	215,187	-0,191	-0,209
281,355	160,956	-0,125	-0,121
282,370	-4,502	-0,161	-0,076
283,384	-200,000	-0,032	-0,198
284,399	-121,813	-0,130	-0,015
285,414	34,552	-0,151	-0,091
286,428	509,886	-0,027	-0,044
287,443	-56,696	-0,202	-0,061
288,457	-72,623	-0,235	0,059
289,472	-35,279	-0,221	-0,082
290,487	8,259	-0,191	-0,099
291,501	-36,190	-0,231	-0,086
292,516	-33,959	-0,253	-0,096
293,530	224,568	-0,062	-0,069
294,545	-55,315	-0,129	-0,040
295,560	24,998	-0,092	0,053
296,574	-68,299	-0,163	-0,043
297,589	478,994	-0,064	-0,100
298,603	83,590	-0,261	-0,196
299,618	-86,800	-0,265	-0,055
300,633	16,767	-0,082	-0,044
301,647	-70,983	-0,218	-0,056
302,662	-29,127	-0,118	-0,046
303,676	44,255	-0,157	-0,099
304,691	282,465	-0,102	-0,127
305,706	410,047	-0,142	-0,207
306,720	-23,150	-0,227	-0,094
307,735	-118,540	-0,179	-0,022
308,749	-200,000	0,003	-0,103
309,764	-108,987	-0,061	-0,009
310,779	-82,085	-0,098	0,022
311,793	218,923	-0,163	-0,179
312,808	379,347	-0,167	-0,236
313,822	169,167	-0,207	-0,203
314,837	-48,371	-0,121	-0,040
315,852	82,861	-0,207	-0,155
316,866	2,174	-0,114	-0,056
317,881	57,661	-0,187	-0,126
318,895	-43,224	-0,232	-0,080
319,910	-130,593	-0,076	-0,007
320,925	560,526	-0,125	-0,208
321,939	445,703	-0,092	-0,140
322,954	-17,680	-0,069	-0,030
323,968	-40,643	-0,135	-0,048
324,983	49,834	-0,159	-0,103
325,997	-12,367	-0,073	-0,033
327,012	68,046	-0,251	-0,176
328,027	-52,712	-0,204	-0,064
329,041	800,000	-0,053	-0,122
330,056	350,074	-0,092	-0,126
331,070	583,366	-0,023	0,038
332,085	800,000	0,049	-0,099
333,100	-121,747	-0,193	-0,022
334,114	-121,660	-0,107	0,012
335,129	66,328	-0,147	-0,103
336,143	-63,559	0,026	-0,007
337,158	-139,325	-0,173	-0,013
338,173	800,000	-0,048	-0,119
339,187	-200,000	-0,002	0,033
340,202	-200,000	-0,061	-0,227
341,216	-24,039	-0,223	-0,091
342,231	800,000	-0,016	-0,032
343,246	192,581	-0,170	-0,176
344,260	68,091	-0,159	-0,112
345,275	158,267	-0,095	-0,090
346,289	740,300	-0,050	-0,093
347,304	147,836	-0,142	-0,131
348,319	-123,291	-0,135	0,015
349,333	288,128	-0,171	-0,213
350,348	-124,557	-0,127	0,013
351,362	14,454	-0,047	0,025
352,377	673,278	-0,065	0,117
353,392	800,000	-0,037	-0,106
354,406	800,000	-0,015	-0,035
355,421	208,239	1313,315	1407,883
356,435	160,226	1473,857	1408,381
