DTS Sentinel unit serial number:	SN410029Multiplexer serial number:	ORYXHardware model number:	OX2-SRSoftware version number:	ORYX F/W v4,00 Oryx Data Collector v3.7.2.0data status	okinstallation	B3 Nyhavnadifferential loss correction	single-endedforward channel	channel 1reverse channel	N/Adate	2023/11/30time	08:17:30forward acquisition time	300,00reverse acquisition time	0,00gamma	499,1914k internal	0,3218k external	0,3218temperature offset calibration	1,0000default loss term (dB/km)	0,3820temperature slope calibration	1,0000multiplexer offset coefficient	1,0000multiplexer slope coefficient	1,0000fibre end	0,00T internal ref (°C)	9,41T ext. ref 1 (°C)	-5,26T ext. ref 2 (°C)	-5,36length (m)	temperature (°C)	Stokes	anti-Stokes-744,400	349,655	-0,161	-0,230
-743,385	-200,000	-0,072	0,248
-742,371	51,715	-0,217	-0,149
-741,356	800,000	0,119	0,270
-740,342	-61,982	-0,123	-0,037
-739,327	-200,000	-0,049	0,307
-738,312	63,174	-0,231	-0,167
-737,298	800,000	-0,066	0,169
-736,283	277,738	-0,175	-0,225
-735,269	-200,000	0,007	0,370
-734,254	-47,560	-0,223	-0,078
-733,239	-31,786	-0,177	0,072
-732,225	374,197	-0,090	-0,133
-731,210	-3,394	0,171	0,086
-730,196	-172,247	-0,111	-0,003
-729,181	20,988	-0,177	-0,104
-728,167	-200,000	-0,002	-0,092
-727,152	-91,433	-0,106	0,022
-726,137	-10,407	0,167	-0,080
-725,123	800,000	-0,024	-0,054
-724,108	-106,506	-0,076	0,012
-723,094	-200,000	0,014	-0,061
-722,079	-39,237	0,035	-0,013
-721,064	-200,000	0,010	-0,058
-720,050	246,477	-0,076	-0,093
-719,035	-200,000	-0,000	-0,154
-718,021	-3,666	-0,054	0,027
-717,006	-200,000	0,006	0,041
-715,991	-179,436	-0,144	0,002
-714,977	93,526	-0,113	-0,092
-713,962	-200,000	-0,013	0,052
-712,948	-81,969	-0,056	0,013
-711,933	-10,336	-0,087	-0,042
-710,918	-11,589	0,129	-0,061
-709,904	492,511	0,051	-0,085
-708,889	-71,890	-0,102	0,027
-707,875	-20,923	0,022	-0,010
-706,860	103,410	-0,071	0,060
-705,845	172,652	-0,033	-0,034
-704,831	-200,000	-0,021	0,085
-703,816	122,043	-0,108	-0,098
-702,802	-46,320	-0,057	0,020
-701,787	800,000	-0,034	-0,106
-700,772	-200,000	0,006	0,030
-699,758	-98,783	-0,086	-0,016
-698,743	2,984	0,123	0,064
-697,729	-173,928	0,126	-0,003
-696,714	-200,000	-0,003	-0,029
-695,699	-200,000	-0,010	-0,108
-694,685	344,099	-0,056	-0,080
-693,670	317,593	-0,020	0,027
-692,656	38,833	-0,071	-0,046
-691,641	-128,383	0,061	-0,006
-690,627	-13,109	0,031	0,014
-689,612	346,786	0,012	0,017
-688,597	-179,229	-0,049	0,001
-687,583	-200,000	0,004	0,057
-686,568	-58,798	-0,084	0,026
-685,554	-200,000	0,005	0,091
-684,539	30,228	0,056	0,034
-683,524	-118,697	0,094	0,012
-682,510	-200,000	0,027	0,101
-681,495	33,961	-0,117	-0,074
-680,481	127,212	-0,053	-0,048
-679,466	205,937	-0,113	-0,127
-678,451	25,861	0,063	0,038
-677,437	-200,000	-0,014	-0,071
-676,422	-200,000	-0,027	-0,176
-675,408	263,520	-0,128	-0,160
-674,393	-200,000	-0,030	-0,134
-673,378	49,949	-0,025	-0,017
-672,364	92,890	-0,182	-0,148
-671,349	800,000	0,070	-0,150
-670,335	-200,000	0,012	-0,096
-669,320	-121,001	-0,093	0,011
-668,305	7,788	-0,055	-0,030
-667,291	26,388	0,045	0,027
-666,276	800,000	-0,049	-0,156
-665,262	174,161	-0,094	-0,098
-664,247	800,000	0,074	-0,180
-663,232	800,000	-0,048	-0,145
-662,218	-41,749	0,100	0,037
-661,203	-112,251	-0,079	-0,011
-660,189	-200,000	0,008	0,028
-659,174	-147,817	-0,181	-0,011
-658,159	266,076	-0,087	-0,110
-657,145	615,704	-0,056	-0,103
-656,130	-200,000	0,004	-0,097
-655,116	537,218	-0,029	-0,050
-654,101	800,000	-0,029	-0,067
-653,086	227,935	-0,074	-0,086
-652,072	93,978	-0,082	-0,067
-651,057	118,042	-0,082	-0,073
-650,043	663,335	-0,045	-0,084
-649,028	92,480	-0,026	-0,021
-648,014	-54,476	0,022	0,007
-646,999	800,000	-0,022	0,045
-645,984	81,668	0,059	0,046
-644,970	-146,007	-0,015	0,001
-643,955	-200,000	-0,015	-0,051
-642,941	28,741	-0,053	0,032
-641,926	4,166	0,029	-0,015
-640,911	242,208	-0,014	-0,017
-639,897	-74,751	-0,045	0,012
-638,882	514,407	-0,102	0,172
-637,868	17,563	0,108	0,062
-636,853	-13,948	-0,032	0,015
-635,838	29,072	-0,138	-0,084
-634,824	-200,000	0,057	-0,198
-633,809	299,336	0,083	0,110
-632,795	-114,648	0,036	-0,005
-631,780	256,943	-0,034	-0,042
-630,765	-200,000	0,035	0,129
-629,751	508,715	0,020	-0,033
-628,736	-200,000	-0,007	-0,035
-627,722	-200,000	0,003	-0,024
-626,707	577,920	-0,053	-0,095
-625,692	-87,315	0,104	-0,023
-624,678	423,478	0,057	0,089
-623,663	-181,344	-0,053	-0,001
-622,649	-68,681	0,071	0,020
-621,634	648,192	-0,055	-0,102
-620,619	128,854	0,041	-0,037
-619,605	-200,000	0,017	-0,121
-618,590	800,000	-0,049	-0,107
-617,576	-200,000	-0,043	0,167
-616,561	-156,397	0,069	-0,003
-615,546	-56,077	-0,157	0,050
-614,532	184,095	-0,062	-0,066
-613,517	97,552	-0,066	-0,055
-612,503	-200,000	-0,026	-0,108
-611,488	-89,094	-0,165	0,035
-610,474	-47,343	0,136	-0,047
-609,459	66,663	-0,179	-0,131
-608,444	-86,626	-0,078	-0,017
-607,430	-200,000	-0,004	-0,019
-606,415	800,000	0,026	-0,060
-605,401	800,000	0,073	-0,221
-604,386	-100,001	0,181	-0,032
-603,371	142,335	-0,022	0,021
-602,357	-71,096	-0,105	0,028
-601,342	800,000	-0,050	-0,129
-600,328	-45,989	-0,078	-0,027
-599,313	-15,237	-0,076	-0,035
-598,298	-126,417	-0,084	-0,009
-597,284	668,291	0,108	0,203
-596,269	800,000	0,053	0,131
-595,255	579,319	-0,037	-0,065
-594,240	32,900	0,020	-0,013
-593,225	777,158	-0,034	0,066
-592,211	631,703	-0,015	0,027
-591,196	17,964	-0,041	-0,024
-590,182	800,000	0,052	0,141
-589,167	218,268	0,033	-0,038
-588,152	302,343	-0,052	-0,069
-587,138	628,780	0,067	-0,122
-586,123	-82,829	-0,128	-0,030
-585,109	123,063	0,079	0,071
-584,094	-111,548	-0,073	-0,011
-583,079	267,590	-0,041	-0,052
-582,065	-200,000	0,021	0,131
-581,050	247,744	0,083	0,101
-580,036	137,969	0,017	-0,016
-579,021	-117,496	-0,205	-0,026
-578,006	256,939	0,034	0,042
-576,992	-200,000	-0,004	-0,039
-575,977	-200,000	0,017	0,062
-574,963	331,518	-0,057	0,079
-573,948	-56,690	0,057	-0,018
-572,934	149,385	-0,106	0,103
-571,919	170,281	-0,016	-0,017
-570,904	273,957	-0,107	-0,136
-569,890	3,869	0,024	-0,013
-568,875	316,729	0,009	0,012
-567,861	450,045	0,022	0,034
-566,846	258,699	-0,086	-0,107
-565,831	-171,013	0,021	0,001
-564,817	800,000	-0,020	0,043
-563,802	800,000	0,072	-0,165
-562,788	-82,996	0,057	0,013
-561,773	376,357	0,060	0,089
-560,758	12,597	0,048	-0,026
-559,744	-10,442	0,068	0,032
-558,729	-200,000	0,020	0,118
-557,715	203,139	-0,047	-0,052
-556,700	-200,000	0,004	0,028
-555,685	-77,276	0,056	0,014
-554,671	-200,000	0,012	-0,138
-553,656	482,188	0,069	0,113
-552,642	-158,881	0,094	-0,004
-551,627	147,382	-0,030	0,029
-550,612	58,556	-0,074	-0,052
-549,598	36,610	-0,030	0,019
-548,583	-87,334	0,098	0,021
-547,569	53,634	-0,151	0,104
-546,554	297,478	0,104	0,137
-545,539	-200,000	0,049	0,163
-544,525	-200,000	0,000	0,083
-543,510	-200,000	0,002	-0,026
-542,496	-200,000	0,011	-0,102
-541,481	800,000	0,011	-0,034
-540,466	-101,648	-0,135	-0,023
-539,452	-200,000	0,010	0,071
-538,437	-51,854	0,122	0,041
-537,423	-200,000	-0,006	0,216
-536,408	-200,000	-0,013	0,178
-535,393	-9,777	-0,039	-0,019
-534,379	-200,000	-0,025	-0,136
-533,364	230,124	-0,062	-0,073
-532,350	-103,244	-0,063	0,011
-531,335	800,000	0,007	-0,015
-530,321	581,759	-0,073	0,129
-529,306	169,309	0,059	0,060
-528,291	-1,891	-0,080	0,040
-527,277	184,762	0,009	-0,009
-526,262	38,106	-0,051	-0,032
-525,248	-9,308	-0,092	-0,044
-524,233	422,204	-0,024	0,037
-523,218	117,272	-0,081	0,072
-522,204	-128,787	0,069	-0,007
-521,189	800,000	0,050	-0,145
-520,175	-121,682	0,120	0,014
-519,160	295,406	0,087	0,115
-518,145	-200,000	0,006	0,049
-517,131	-75,906	-0,112	-0,028
-516,116	-71,294	0,049	0,013
-515,102	124,546	-0,048	0,043
-514,087	800,000	0,007	0,014
-513,072	264,277	0,046	-0,057
-512,058	135,785	-0,117	0,110
-511,043	800,000	0,064	-0,161
-510,029	84,634	0,090	0,071
-509,014	231,357	-0,031	-0,037
-507,999	-29,134	0,067	-0,027
-506,985	800,000	0,056	0,137
-505,970	800,000	0,020	-0,050
-504,956	-147,714	-0,174	-0,010
-503,941	800,000	-0,039	0,100
-502,926	400,690	-0,062	0,094
-501,912	174,312	-0,038	0,040
-500,897	79,035	-0,081	-0,062
-499,883	-200,000	0,011	-0,088
-498,868	800,000	-0,080	-0,171
-497,853	800,000	-0,029	-0,059
-496,839	800,000	0,062	-0,192
-495,824	-200,000	-0,004	-0,036
-494,810	800,000	-0,047	-0,096
-493,795	417,436	0,037	-0,056
-492,781	151,443	-0,051	0,049
-491,766	-200,000	0,017	-0,068
-490,751	276,965	0,031	0,040
-489,737	236,239	-0,014	0,017
-488,722	123,741	0,077	0,070
-487,708	-51,196	-0,056	0,019
-486,693	800,000	-0,057	-0,132
-485,678	206,652	-0,056	-0,063
-484,664	148,521	-0,079	-0,077
-483,649	-98,715	0,072	-0,013
-482,635	208,495	-0,057	-0,064
-481,620	-162,212	-0,067	-0,002
-480,605	336,415	0,068	0,094
-479,591	-146,951	0,075	-0,005
-478,576	-168,801	-0,052	0,001
-477,562	481,412	0,086	-0,141
-476,547	-72,054	-0,073	-0,019
-475,532	105,794	0,137	-0,116
-474,518	-200,000	-0,020	-0,127
-473,503	-200,000	-0,003	-0,017
-472,489	-41,536	-0,089	0,033
-471,474	-138,108	-0,164	0,013
-470,459	800,000	0,054	-0,149
-469,445	89,724	0,009	0,008
-468,430	798,067	0,079	0,156
-467,416	800,000	0,029	-0,078
-466,401	-83,881	0,092	0,021
-465,386	-200,000	0,004	0,087
-464,372	210,451	0,091	0,102
-463,357	-42,710	-0,047	0,017
-462,343	-200,000	0,001	-0,108
-461,328	-156,519	0,056	-0,002
-460,313	165,098	-0,114	0,115
-459,299	-54,679	-0,157	0,050
-458,284	800,000	-0,043	0,096
-457,270	211,224	0,052	-0,058
-456,255	346,999	0,007	-0,009
-455,241	-160,799	-0,149	0,006
-454,226	385,939	0,090	0,133
-453,211	195,064	0,061	0,066
-452,197	-53,620	0,117	-0,038
-451,182	-200,000	0,011	0,132
-450,168	800,000	-0,029	-0,064
-449,153	67,635	0,043	0,031
-448,138	56,430	-0,089	0,062
-447,124	-200,000	0,014	-0,075
-446,109	-20,243	0,138	0,060
-445,095	283,367	0,060	-0,078
-444,080	800,000	0,024	0,049
-443,065	-14,379	0,045	-0,021
-442,051	88,481	-0,064	-0,051
-441,036	428,371	-0,028	-0,043
-440,022	-200,000	-0,002	-0,146
-439,007	22,262	0,059	-0,034
-437,992	-45,564	-0,087	-0,030
-436,978	800,000	-0,025	-0,070
-435,963	357,283	0,055	-0,079
-434,949	43,425	0,055	0,036
-433,934	-200,000	-0,044	-0,144
-432,919	-200,000	-0,013	0,078
-431,905	-27,853	0,129	0,053
-430,890	-194,210	-0,118	0,001
-429,876	-43,403	0,229	0,082
-428,861	215,382	-0,031	0,035
-427,846	-200,000	-0,010	-0,110
-426,832	-159,238	-0,110	0,004
-425,817	800,000	0,022	-0,062
-424,803	-200,000	0,014	0,114
-423,788	-200,000	0,005	-0,111
-422,773	-200,000	-0,019	-0,097
-421,759	173,303	0,133	-0,137
-420,744	311,274	0,039	0,053
-419,730	-200,000	-0,018	-0,085
-418,715	-1,995	-0,036	0,018
-417,701	-200,000	0,014	0,090
-416,686	-200,000	-0,008	0,037
-415,671	-200,000	-0,011	-0,039
-414,657	-0,405	0,054	-0,028
-413,642	-60,048	-0,222	-0,067
-412,628	-100,371	-0,147	0,026
-411,613	77,064	0,060	-0,046
-410,598	149,325	0,065	0,063
-409,584	-4,877	-0,138	0,068
-408,569	-200,000	0,020	0,063
-407,555	421,326	-0,071	0,109
-406,540	-200,000	-0,004	0,123
-405,525	267,586	-0,032	-0,040
-404,511	773,333	0,036	0,071
-403,496	164,234	-0,087	-0,087
-402,482	800,000	0,050	-0,122
-401,467	462,341	0,089	0,143
-400,452	-59,289	0,078	-0,024
-399,438	800,000	-0,041	0,088
-398,423	-200,000	-0,006	-0,117
-397,409	-10,306	-0,176	-0,083
-396,394	175,353	0,049	-0,050
-395,379	-159,694	0,079	-0,003
-394,365	264,069	0,024	-0,030
-393,350	-200,000	0,008	0,051
-392,336	-71,747	0,098	-0,026
-391,321	258,679	0,075	-0,093
-390,306	-200,000	-0,008	-0,122
-389,292	-200,000	-0,033	-0,132
-388,277	800,000	-0,046	-0,093
-387,263	800,000	0,079	-0,184
-386,248	800,000	-0,031	0,068
-385,233	-200,000	-0,018	0,116
-384,219	171,080	-0,032	0,033
-383,204	-126,189	-0,236	-0,025
-382,190	205,120	-0,037	-0,041
-381,175	-200,000	-0,028	-0,155
-380,160	779,745	0,043	-0,085
-379,146	180,944	-0,069	-0,073
-378,131	-200,000	0,001	-0,078
-377,117	15,322	-0,056	-0,031
-376,102	-200,000	0,009	-0,074
-375,088	800,000	0,031	-0,093
-374,073	-200,000	0,023	-0,091
-373,058	117,318	-0,076	0,067
-372,044	800,000	0,036	0,112
-371,029	268,490	0,015	0,019
-370,015	-27,476	-0,032	0,013
-369,000	-200,000	0,033	-0,149
-367,985	55,121	0,126	-0,087
-366,971	800,000	-0,030	-0,065
-365,956	104,784	0,077	0,064
-364,942	-200,000	-0,013	0,067
-363,927	566,027	0,015	0,025
-362,912	25,790	0,097	-0,058
-361,898	-46,588	-0,115	0,040
-360,883	539,482	-0,021	-0,035
-359,869	320,191	-0,064	-0,086
-358,854	-70,175	-0,114	-0,031
-357,839	54,775	0,144	0,099
-356,825	-200,000	-0,003	0,138
-355,810	800,000	0,023	0,050
-354,796	159,152	-0,078	0,077
-353,781	109,908	-0,036	-0,031
-352,766	-200,000	-0,008	-0,029
-351,752	-200,000	0,021	-0,247
-350,737	800,000	0,101	0,199
-349,723	-200,000	0,030	0,136
-348,708	-139,422	0,103	0,008
-347,693	65,234	0,104	-0,075
-346,679	-200,000	-0,003	-0,079
-345,664	-22,496	-0,010	-0,004
-344,650	18,134	-0,069	0,039
-343,635	-200,000	0,028	0,119
-342,620	800,000	0,032	0,087
-341,606	372,997	0,009	0,014
-340,591	173,423	-0,055	-0,057
-339,577	-14,730	-0,062	0,028
-338,562	-126,361	0,200	-0,021
-337,548	-131,074	0,175	0,016
-336,533	-200,000	0,001	-0,051
-335,518	-59,754	0,061	0,018
-334,504	-200,000	-0,021	0,083
-333,489	139,745	-0,038	0,036
-332,475	220,146	-0,062	-0,071
-331,460	189,065	-0,089	-0,095
-330,445	-200,000	-0,014	-0,091
-329,431	-200,000	0,006	-0,118
-328,416	34,358	0,056	-0,034
-327,402	-28,277	0,085	0,035
-326,387	223,982	-0,068	0,078
-325,372	76,167	0,051	0,038
-324,358	-200,000	-0,004	-0,039
-323,343	-27,786	0,148	0,061
-322,329	-20,549	0,123	0,053
-321,314	-200,000	0,035	0,110
-320,299	-51,127	-0,044	-0,015
-319,285	-29,606	-0,075	0,030
-318,270	-200,000	0,014	0,145
-317,256	800,000	-0,015	-0,045
-316,241	800,000	0,021	-0,055
-315,226	9,441	-0,059	-0,032
-314,212	-77,276	0,180	0,044
-313,197	-200,000	0,019	0,060
-312,183	800,000	-0,033	-0,072
-311,168	800,000	0,027	0,077
-310,153	-200,000	-0,026	-0,087
-309,139	-200,000	0,004	0,068
-308,124	-60,291	0,080	0,024
-307,110	-96,084	0,063	0,012
-306,095	-120,648	0,083	0,010
-305,080	-174,360	0,177	-0,004
-304,066	-200,000	-0,025	-0,093
-303,051	-200,000	-0,044	-0,152
-302,037	800,000	-0,027	-0,062
-301,022	-20,492	0,086	0,038
-300,008	-200,000	-0,000	0,071
-298,993	-200,000	-0,006	-0,041
-297,978	-200,000	0,041	0,151
-296,964	171,599	0,094	-0,096
-295,949	90,544	-0,039	0,031
-294,935	66,928	-0,031	0,022
-293,920	-200,000	0,029	0,104
-292,905	267,563	0,030	0,038
-291,891	-108,664	0,073	0,011
-290,876	399,310	-0,094	0,141
-289,862	166,888	0,037	-0,038
-288,847	800,000	-0,027	-0,061
-287,832	-100,587	-0,036	0,006
-286,818	800,000	-0,053	0,107
-285,803	-200,000	-0,005	0,118
-284,789	405,275	0,063	0,095
-283,774	-200,000	-0,019	0,090
-282,759	-13,291	-0,131	-0,060
-281,745	-200,000	-0,012	-0,058
-280,730	81,550	0,100	0,077
-279,716	40,147	0,098	-0,062
-278,701	800,000	0,032	0,082
-277,686	159,909	-0,007	-0,007
-276,672	218,575	-0,049	0,056
-275,657	800,000	0,004	0,010
-274,643	-200,000	0,046	-0,239
-273,628	254,117	-0,068	-0,083
-272,613	415,764	-0,036	0,055
-271,599	467,357	0,067	-0,108
-270,584	-86,066	0,126	-0,027
-269,570	800,000	-0,056	0,119
-268,555	800,000	0,018	-0,036
-267,540	220,314	0,071	0,081
-266,526	800,000	-0,029	-0,071
-265,511	800,000	-0,009	0,026
-264,497	-200,000	0,020	0,140
-263,482	800,000	-0,036	0,073
-262,467	513,527	0,015	-0,025
-261,453	-66,144	0,131	-0,037
-260,438	108,680	-0,058	-0,050
-259,424	54,352	-0,095	-0,065
-258,409	-200,000	0,003	0,090
-257,395	-34,105	0,090	0,035
-256,380	-21,855	0,083	-0,036
-255,365	32,329	0,053	-0,032
-254,351	-200,000	-0,057	0,193
-253,336	-200,000	-0,021	0,105
-252,322	-133,714	-0,086	0,007
-251,307	-200,000	-0,019	0,125
-250,292	-200,000	0,017	-0,084
-249,278	800,000	0,069	0,209
-248,263	609,789	-0,073	0,130
-247,249	800,000	0,049	-0,099
-246,234	321,088	-0,044	-0,059
-245,219	115,988	-0,093	-0,081
-244,205	680,841	0,029	-0,054
-243,190	79,187	-0,089	-0,068
-242,176	495,400	-0,057	0,094
-241,161	35,839	0,065	0,041
-240,146	-200,000	0,008	0,042
-239,132	-94,543	-0,134	-0,026
-238,117	-125,619	0,062	0,007
-237,103	354,064	0,045	0,064
-236,088	526,240	-0,038	0,064
-235,073	260,857	0,055	0,067
-234,059	231,829	0,027	-0,032
-233,044	373,974	0,068	0,098
-232,030	67,576	0,064	0,046
-231,015	-134,431	-0,164	-0,014
-230,000	213,348	0,065	-0,073
-228,986	70,484	0,115	-0,084
-227,971	-200,000	-0,011	-0,080
-226,957	800,000	0,031	0,064
-225,942	800,000	0,059	-0,124
-224,927	-48,254	0,020	-0,007
-223,913	-143,649	-0,046	0,003
-222,898	-144,768	0,044	-0,003
-221,884	744,879	0,047	0,091
-220,869	800,000	0,052	-0,119
-219,855	237,773	-0,047	0,055
-218,840	-200,000	0,009	0,042
-217,825	16,676	-0,084	0,047
-216,811	-200,000	0,011	0,049
-215,796	-200,000	-0,038	-0,129
-214,782	-200,000	0,017	-0,067
-213,767	-21,938	0,076	0,033
-212,752	139,938	-0,068	-0,064
-211,738	-200,000	0,009	0,062
-210,723	130,159	0,067	0,061
-209,709	800,000	0,034	-0,075
-208,694	-124,312	-0,082	-0,009
-207,679	780,880	-0,017	0,032
-206,665	-200,000	0,036	0,124
-205,650	-79,048	-0,086	0,021
-204,636	47,258	0,067	0,044
-203,621	192,293	-0,099	0,106
-202,606	414,697	-0,068	-0,102
-201,592	-51,646	0,017	0,006
-200,577	-200,000	0,018	-0,120
-199,563	-200,000	0,003	-0,046
-198,548	-72,228	0,117	-0,030
-197,533	108,525	-0,086	0,073
-196,519	154,228	-0,090	0,088
-195,504	9,605	-0,053	0,028
-194,490	52,336	-0,167	-0,112
-193,475	365,404	0,070	-0,100
-192,460	130,635	0,072	0,065
-191,446	490,656	0,011	0,017
-190,431	2,661	0,160	0,082
-189,417	-200,000	0,018	0,162
-188,402	800,000	-0,028	-0,077
-187,387	-200,000	-0,008	-0,152
-186,373	87,458	-0,081	-0,063
-185,358	-159,763	-0,096	0,004
-184,344	127,237	-0,030	0,027
-183,329	-200,000	-0,027	0,088
-182,315	-54,402	0,145	0,046
-181,300	-164,126	-0,073	-0,002
-180,285	-200,000	0,009	0,085
-179,271	800,000	0,046	-0,129
-178,256	727,370	-0,026	-0,049
-177,242	-200,000	-0,007	0,154
-176,227	-111,901	-0,029	-0,004
-175,212	-200,000	-0,014	0,066
-174,198	131,769	-0,072	-0,065
-173,183	-200,000	0,008	-0,092
-172,169	25,718	-0,107	0,063
-171,154	399,523	0,022	0,033
-170,139	551,181	-0,038	0,064
-169,125	-168,082	-0,059	-0,002
-168,110	-7,851	0,097	0,046
-167,096	-117,543	-0,100	-0,013
-166,081	422,258	-0,067	-0,102
-165,066	800,000	0,015	0,031
-164,052	715,200	0,019	0,036
-163,037	800,000	0,007	0,014
-162,023	-84,789	-0,039	0,009
-161,008	-200,000	-0,020	0,078
-159,993	530,201	0,064	0,107
-158,979	389,895	0,101	-0,148
-157,964	-200,000	0,012	0,104
-156,950	105,506	-0,104	-0,087
-155,935	44,576	-0,095	0,062
-154,920	-158,148	0,108	-0,004
-153,906	-89,355	0,119	0,025
-152,891	-144,993	0,068	0,004
-151,877	75,359	-0,036	-0,027
-150,862	9,191	-0,125	0,066
-149,847	17,107	-0,107	0,060
-148,833	-119,923	0,146	0,018
-147,818	101,565	0,061	0,050
-146,804	-3,456	0,113	0,055
-145,789	92,316	0,061	0,048
-144,775	172,498	0,122	0,125
-143,760	15,783	-0,042	0,023
-142,745	-200,000	-0,001	-0,014
-141,731	348,065	0,090	-0,126
-140,716	71,978	-0,056	0,041
-139,702	-142,618	0,096	-0,007
-138,687	-61,092	-0,077	0,023
-137,672	103,032	0,022	0,018
-136,658	800,000	-0,050	-0,101
-135,643	-74,929	-0,098	0,025
-134,629	-169,798	-0,038	-0,001
-133,614	274,788	0,057	-0,072
-132,599	800,000	0,041	-0,096
-131,585	-200,000	0,009	0,036
-130,570	405,761	-0,042	0,062
-129,556	-184,307	-0,131	0,001
-128,541	800,000	0,023	0,050
-127,526	6,296	-0,093	-0,049
-126,512	-140,225	0,091	0,007
-125,497	800,000	0,091	0,242
-124,483	758,337	-0,029	0,056
-123,468	-132,236	0,046	0,004
-122,453	-200,000	-0,004	-0,104
-121,439	271,408	0,071	-0,088
-120,424	-200,000	-0,008	0,039
-119,410	155,246	-0,064	-0,062
-118,395	35,432	0,038	0,024
-117,380	22,721	-0,126	0,073
-116,366	-117,434	-0,045	0,006
-115,351	-82,505	0,051	-0,012
-114,337	-138,367	0,119	-0,009
-113,322	-66,006	0,094	-0,026
-112,307	754,023	0,038	-0,072
-111,293	238,373	0,032	0,038
-110,278	81,748	0,096	-0,074
-109,264	-200,000	-0,019	0,112
-108,249	-200,000	-0,014	-0,112
-107,234	-157,975	0,049	0,002
-106,220	472,959	-0,069	-0,110
-105,205	161,099	0,151	0,149
-104,191	-200,000	0,001	0,214
-103,176	-16,932	-0,073	-0,032
-102,162	800,000	0,009	-0,019
-101,147	197,939	0,078	-0,084
-100,132	800,000	-0,045	0,105
-99,118	-25,346	0,059	0,025
-98,103	364,097	-0,061	-0,086
-97,089	554,760	0,019	-0,032
-96,074	657,459	-0,050	-0,091
-95,059	83,766	-0,042	-0,032
-94,045	164,366	-0,027	-0,027
-93,030	-200,000	-0,038	-0,156
-92,016	-39,953	-0,042	-0,015
-91,001	-200,000	0,003	0,055
-89,986	-5,108	0,123	0,060
-88,972	355,948	0,067	0,094
-87,957	-111,177	-0,105	-0,015
-86,943	800,000	-0,047	-0,135
-85,928	-200,000	-0,039	-0,202
-84,913	327,932	0,033	-0,045
-83,899	47,548	-0,079	-0,052
-82,884	-200,000	0,005	0,047
-81,870	14,794	0,083	0,046
-80,855	-49,246	0,042	-0,014
-79,840	-88,863	-0,121	-0,025
-78,826	168,298	0,063	0,063
-77,811	800,000	-0,021	-0,064
-76,797	-44,811	-0,040	0,014
-75,782	-129,801	0,089	0,009
-74,767	3,776	0,180	0,092
-73,753	-3,039	-0,043	0,021
-72,738	369,915	-0,046	0,066
-71,724	-200,000	-0,002	-0,022
-70,709	-133,966	-0,114	0,010
-69,694	-200,000	-0,026	-0,122
-68,680	-200,000	0,032	0,114
-67,665	738,455	-0,053	0,100
-66,651	-200,000	0,002	0,014
-65,636	425,383	-0,032	-0,049
-64,622	800,000	0,018	0,044
-63,607	-200,000	0,029	-0,115
-62,592	-73,212	-0,177	-0,045
-61,578	13,603	0,073	-0,040
-60,563	259,220	-0,085	0,103
-59,549	-121,194	0,123	-0,014
-58,534	87,719	-2,158	-1,682
-57,519	639,378	-0,984	-1,770
-56,505	-200,000	-0,332	-4,487
-55,490	394,649	1,042	1,534
-54,476	800,000	5,304	11,634
-53,461	-200,000	22,903	353,115
-52,446	800,000	772,416	2333,006
-51,432	532,907	1667,768	2791,033
-50,417	69,890	1658,640	1203,202
-49,403	17,022	1531,888	852,414
-48,388	11,178	1456,282	782,159
-47,373	19,648	1448,200	818,314
-46,359	14,586	1437,143	788,038
-45,344	9,518	1433,254	761,805
-44,330	9,537	1431,222	760,787
-43,315	9,438	1429,483	759,360
-42,300	9,461	1427,601	758,438
-41,286	9,466	1426,428	757,811
-40,271	9,468	1425,087	757,079
-39,257	9,495	1423,923	756,559
-38,242	9,493	1422,875	755,962
-37,227	9,495	1421,913	755,430
-36,213	9,505	1420,485	754,687
-35,198	9,465	1419,460	753,927
-34,184	9,542	1418,460	753,727
-33,169	9,466	1417,022	752,575
-32,154	9,479	1416,038	752,081
-31,140	9,496	1414,799	751,476
-30,125	9,551	1413,267	750,891
-29,111	9,476	1412,518	750,112
-28,096	9,444	1411,351	749,313
-27,082	9,443	1409,965	748,540
-26,067	9,418	1409,084	747,924
-25,052	9,494	1408,054	747,705
-24,038	9,481	1407,037	747,076
-23,023	9,453	1406,042	746,387
-22,009	9,448	1405,095	745,829
-20,994	9,413	1404,127	745,125
-19,979	9,432	1403,246	744,713
-18,965	9,391	1402,337	744,012
-17,950	9,379	1401,386	743,424
-16,936	9,356	1400,419	742,773
-15,921	9,346	1399,405	742,159
-14,906	9,328	1398,739	741,692
-13,892	9,363	1397,446	741,140
-12,877	9,389	1396,804	740,892
-11,863	9,353	1395,999	740,266
-10,848	9,328	1394,937	739,560
-9,833	9,306	1394,127	738,997
-8,819	9,226	1393,447	738,240
-7,804	9,254	1392,487	737,833
-6,790	9,270	1391,247	737,218
-5,775	9,281	1390,217	736,694
-4,760	9,277	1389,346	736,185
-3,746	9,296	1388,228	735,650
-2,731	9,291	1387,405	735,162
-1,717	9,270	1386,607	734,613
-0,702	9,255	1384,801	733,559
0,313	13,269	1295,028	704,276
1,327	29,286	682,834	407,217
2,342	44,841	117,387	75,885
3,356	-0,017	16,529	8,256
4,371	16,183	3,488	1,930
5,386	31,143	1,233	0,743
6,400	-200,000	0,179	0,643
7,415	95,626	-0,101	-0,081
8,429	238,030	-0,204	-0,238
9,444	-24,000	-0,565	-0,237
10,459	-42,918	-0,237	-0,084
11,473	-138,569	-0,250	-0,019
12,488	44,480	-0,288	-0,186
13,502	202,030	-0,212	-0,230
14,517	-40,828	-0,328	-0,119
15,531	107,371	-0,340	-0,284
16,546	200,493	-0,324	-0,350
17,561	179,611	-0,338	-0,348
18,575	-49,617	-0,221	-0,073
19,590	34,288	-0,185	-0,113
20,604	-127,805	-0,282	-0,028
21,619	115,753	-0,451	-0,388
22,634	32,503	-0,473	-0,287
23,648	71,955	-0,340	-0,248
24,663	165,063	-0,311	-0,309
25,677	122,710	-0,315	-0,277
26,692	49,761	-0,373	-0,246
27,707	62,326	-0,374	-0,262
28,721	192,325	-0,261	-0,276
29,736	81,534	-0,361	-0,274
30,750	20,864	-0,459	-0,261
31,765	56,571	-0,439	-0,299
32,780	45,065	-0,303	-0,195
33,794	131,148	-0,243	-0,219
34,809	240,316	-0,201	-0,235
35,823	13,248	-0,372	-0,202
36,838	52,884	-0,385	-0,258
37,853	362,129	-0,367	-0,518
38,867	36,533	-0,256	-0,158
39,882	122,492	-0,310	-0,272
40,896	177,032	-0,334	-0,341
41,911	238,322	-0,248	-0,290
42,926	5,553	-0,322	-0,166
43,940	165,932	-0,335	-0,333
44,955	219,294	-0,384	-0,431
45,969	126,215	-0,237	-0,211
46,984	197,662	-0,340	-0,365
47,999	-31,268	-0,331	-0,130
49,013	275,345	-0,206	-0,256
50,028	161,384	-0,308	-0,302
51,042	61,950	-0,374	-0,261
52,057	119,507	-0,302	-0,262
53,071	8,472	-0,341	-0,179
54,086	162,238	-0,289	-0,284
55,101	40,307	-0,457	-0,287
56,115	54,319	-0,277	-0,186
57,130	-23,002	-0,348	-0,146
58,144	-22,682	-0,396	-0,167
59,159	84,335	-0,300	-0,229
60,174	241,595	-0,296	-0,347
61,188	161,506	-0,210	-0,206
62,203	129,520	-0,324	-0,290
63,217	392,985	-0,149	-0,217
64,232	10,152	-0,239	-0,127
65,247	158,994	-0,333	-0,324
66,261	-14,477	-0,333	-0,149
67,276	7,627	-0,440	-0,230
68,290	35,274	-0,293	-0,180
69,305	75,869	-0,249	-0,184
70,320	33,547	-0,275	-0,167
71,334	52,974	-0,366	-0,244
72,349	-43,239	-0,379	-0,133
73,363	74,581	-0,335	-0,246
74,378	66,594	-0,240	-0,170
75,393	21,782	-0,254	-0,144
76,407	396,184	-0,217	-0,318
77,422	-67,354	-0,236	-0,064
78,436	102,050	-0,189	-0,154
79,451	-49,181	-0,336	-0,112
80,466	67,086	-0,277	-0,197
81,480	-39,393	-0,319	-0,116
82,495	22,920	-0,394	-0,225
83,509	332,060	-0,128	-0,174
84,524	-68,137	-0,211	-0,057
85,539	-25,382	-0,306	-0,126
86,553	-7,666	-0,194	-0,091
87,568	-34,186	-0,369	-0,141
88,582	69,293	-0,370	-0,266
89,597	436,231	-0,150	-0,229
90,611	-15,490	-0,262	-0,116
91,626	-20,275	-0,308	-0,132
92,641	99,651	-0,216	-0,175
93,655	-62,416	-0,272	-0,079
94,670	67,299	-0,307	-0,218
95,684	134,723	-0,227	-0,206
96,699	129,849	-0,331	-0,296
97,714	17,079	-0,177	-0,098
98,728	3,757	-0,150	-0,076
99,743	34,167	-0,363	-0,221
100,757	-93,662	-0,344	0,066
101,772	280,629	-0,206	-0,257
102,787	61,780	-0,344	-0,238
103,801	189,452	-0,328	-0,344
104,816	70,224	-0,288	-0,207
105,830	265,615	-0,144	-0,176
106,845	-12,018	-0,155	-0,070
107,860	-108,161	-0,208	-0,031
108,874	345,263	-0,117	-0,161
109,889	154,840	-0,226	-0,216
110,903	227,217	-0,216	-0,245
111,918	49,845	-0,220	-0,144
112,933	15,889	-0,316	-0,173
113,947	-23,926	-0,276	-0,115
114,962	133,666	-0,200	-0,181
115,976	-100,225	-0,191	-0,033
116,991	90,083	-0,250	-0,194
118,006	481,924	-0,160	-0,253
119,020	184,979	-0,183	-0,189
120,035	-21,564	-0,213	-0,090
121,049	21,437	-0,183	-0,103
122,064	65,567	-0,209	-0,147
123,079	-51,493	-0,332	-0,107
124,093	186,608	-0,216	-0,224
125,108	19,922	-0,317	-0,177
126,122	692,670	-0,123	-0,226
127,137	67,709	-0,260	-0,185
128,151	77,495	-0,258	-0,191
129,166	25,400	-0,335	-0,193
130,181	94,548	-0,207	-0,164
131,195	202,828	-0,258	-0,277
132,210	247,499	-0,314	-0,370
133,224	303,085	-0,176	-0,228
134,239	461,617	-0,094	-0,147
135,254	4,443	-0,234	-0,119
136,268	65,045	-0,109	-0,076
137,283	297,695	-0,208	-0,266
138,297	55,304	-0,218	-0,146
139,312	-21,308	-0,356	-0,151
140,327	800,000	-0,191	-0,368
141,341	110,488	-0,172	-0,144
142,356	205,687	-0,212	-0,229
143,370	800,000	-0,106	-0,315
144,385	37,136	-0,231	-0,142
145,400	30,389	-0,266	-0,157
146,414	31,644	-0,369	-0,220
147,429	562,647	-0,194	-0,327
148,443	-49,499	-0,284	-0,094
149,458	-19,561	-0,238	-0,102
150,473	-76,297	-0,270	-0,065
151,487	263,162	-0,214	-0,259
152,502	139,742	-0,249	-0,228
153,516	30,280	-0,317	-0,188
154,531	104,115	-0,262	-0,214
155,546	140,332	-0,197	-0,180
156,560	202,843	-0,144	-0,155
157,575	-156,596	-0,301	-0,013
158,589	72,567	-0,366	-0,265
159,604	221,594	-0,139	-0,155
160,619	109,606	-0,202	-0,168
161,633	175,875	-0,185	-0,186
162,648	182,006	-0,156	-0,160
163,662	120,064	-0,083	-0,072
164,677	331,180	-0,113	-0,152
165,692	-21,745	-0,190	-0,080
166,706	171,513	-0,175	-0,174
167,721	12,172	-0,354	-0,188
168,735	1,358	-0,316	-0,157
169,750	211,767	-0,283	-0,309
170,764	-16,216	-0,290	-0,127
171,779	-64,469	-0,256	-0,072
172,794	-99,535	-0,330	-0,057
173,808	108,156	-0,165	-0,136
174,823	309,304	-0,191	-0,248
175,837	134,555	-0,259	-0,233
176,852	122,229	-0,219	-0,190
177,867	169,224	-0,192	-0,190
178,881	377,341	-0,105	-0,150
179,896	-51,287	-0,194	-0,063
180,910	-90,626	-0,249	-0,049
181,925	127,820	-0,168	-0,148
182,940	-200,000	-0,038	-0,226
183,954	800,000	-0,077	-0,171
184,969	116,877	-0,240	-0,204
185,983	-200,000	-0,033	-0,253
186,998	-84,244	-0,216	-0,047
188,013	-34,660	-0,297	-0,112
189,027	-101,459	-0,297	-0,050
190,042	36,306	-0,215	-0,131
191,056	217,324	-0,180	-0,199
192,071	273,566	-0,205	-0,251
193,086	-93,138	-0,205	0,039
194,100	318,051	-0,137	-0,180
195,115	-109,346	-0,233	-0,034
196,129	129,929	-0,167	-0,148
197,144	7,152	-0,223	-0,115
198,159	22,976	-0,232	-0,131
199,173	22,818	-0,311	-0,176
200,188	79,834	-0,137	-0,102
201,202	608,230	-0,103	-0,178
202,217	434,469	-0,144	-0,218
203,232	33,748	-0,270	-0,162
204,246	-90,460	-0,249	-0,049
205,261	448,740	-0,178	-0,272
206,275	-3,084	-0,209	-0,101
207,290	51,031	-0,104	-0,068
208,304	155,645	-0,058	0,055
209,319	288,613	-0,098	-0,123
210,334	25,440	-0,305	-0,175
211,348	94,900	-0,190	-0,149
212,363	-168,057	-0,290	-0,008
213,377	-160,969	-0,183	-0,007
214,392	-49,942	-0,068	-0,022
215,407	4,154	-0,170	-0,086
216,421	4,288	-0,134	-0,067
217,436	-5,884	-0,213	-0,100
218,450	-67,079	-0,258	-0,070
219,465	-6,282	-0,149	-0,070
220,480	800,000	-0,072	-0,160
221,494	249,939	-0,101	-0,119
222,509	103,006	-0,241	-0,195
223,523	-200,000	-0,027	-0,224
224,538	-39,987	-0,151	-0,054
225,553	38,038	-0,243	-0,149
226,567	-78,631	-0,183	-0,043
227,582	89,201	-0,206	-0,158
228,596	280,234	-0,199	-0,245
229,611	776,938	-0,130	-0,246
230,626	111,860	-0,128	-0,106
231,640	36,823	-0,231	-0,141
232,655	-48,742	-0,119	-0,039
233,669	363,793	-0,130	-0,181
234,684	40,507	-0,225	-0,139
235,699	149,275	-0,128	-0,119
236,713	-4,644	-0,179	-0,085
237,728	535,802	-0,126	-0,207
238,742	135,736	-0,247	-0,222
239,757	-200,000	-0,072	-0,233
240,772	800,000	-0,116	-0,227
241,786	94,162	-0,185	-0,145
242,801	-142,709	-0,200	-0,013
243,815	-68,090	-0,220	-0,059
244,830	-105,208	-0,148	0,023
245,844	-56,421	-0,192	0,058
246,859	800,000	-0,105	-0,271
247,874	17,994	-0,201	-0,110
248,888	360,354	-0,123	-0,171
249,903	-77,086	-0,212	-0,050
250,917	178,914	-0,098	-0,098
251,932	-128,521	-0,204	0,020
252,947	-155,900	-0,194	0,008
253,961	278,449	-0,118	-0,145
254,976	106,467	-0,201	-0,164
255,990	354,088	-0,123	-0,169
257,005	198,015	-0,244	-0,257
258,020	51,348	-0,191	-0,125
259,034	-55,767	-0,172	-0,052
260,049	104,284	-0,154	0,125
261,063	37,195	-0,214	-0,130
262,078	-16,280	-0,272	-0,118
263,093	294,491	-0,144	-0,181
264,107	125,348	-0,097	-0,084
265,122	286,936	-0,046	-0,057
266,136	196,127	-0,148	-0,155
267,151	-6,786	-0,144	-0,067
268,166	-32,383	-0,222	-0,085
269,180	241,424	-0,144	-0,166
270,195	133,969	-0,217	-0,193
271,209	66,784	-0,060	-0,042
272,224	-200,000	-0,028	-0,140
273,239	35,971	-0,118	-0,071
274,253	-99,521	-0,151	0,026
275,268	-49,803	-0,176	-0,057
276,282	160,898	-0,239	-0,230
277,297	800,000	-0,081	-0,169
278,312	28,486	-0,162	-0,094
279,326	13,967	-0,132	-0,070
280,341	798,897	-0,127	-0,241
281,355	-61,289	-0,129	-0,037
282,370	-200,000	-0,066	-0,263
283,384	800,000	-0,043	-0,124
284,399	387,790	-0,217	-0,309
285,414	176,727	-0,274	-0,273
286,428	-116,455	-0,200	-0,025
287,443	110,197	-0,105	-0,087
288,457	-26,819	-0,247	-0,099
289,472	-69,630	-0,156	-0,041
290,487	272,782	-0,043	0,052
291,501	60,097	-0,106	-0,072
292,516	130,070	-0,157	-0,138
293,530	48,315	-0,134	-0,086
294,545	386,095	-0,041	-0,058
295,560	-200,000	-0,049	-0,150
296,574	141,112	-0,113	-0,103
297,589	-200,000	-0,045	-0,275
298,603	320,592	-0,158	-0,206
299,618	-11,078	-0,206	-0,093
300,633	800,000	-0,094	-0,184
301,647	138,604	-0,040	0,036
302,662	-114,711	-0,238	-0,031
303,676	-158,662	-0,176	-0,007
304,691	-5,208	-0,255	-0,120
305,706	379,212	-0,097	-0,137
306,720	77,138	-0,252	-0,183
307,735	40,288	-0,188	-0,116
308,749	-61,396	-0,075	0,021
309,764	-84,962	0,040	-0,009
310,779	67,511	-0,202	-0,141
311,793	-126,437	-0,144	-0,014
312,808	269,471	-0,140	-0,168
313,822	-200,000	-0,058	-0,184
314,837	32,385	-0,078	-0,046
315,852	160,938	-0,092	-0,088
316,866	462,371	-0,061	-0,093
317,881	-163,524	-0,164	0,005
318,895	-137,258	-0,190	0,015
319,910	800,000	-0,075	-0,203
320,925	267,927	-0,084	-0,101
321,939	-20,766	-0,118	0,049
322,954	-26,026	-0,065	-0,026
323,968	173,867	-0,090	-0,089
324,983	-200,000	0,021	0,089
325,997	62,461	-0,156	-0,106
327,012	5,723	-0,196	-0,099
328,027	49,776	-0,238	-0,153
329,041	28,483	-0,159	-0,092
330,056	-68,724	-0,173	-0,045
331,070	-86,497	-0,031	-0,006
332,085	235,940	-0,101	-0,115
333,100	305,838	-0,115	-0,147
334,114	413,880	-0,094	-0,137
335,129	-106,155	-0,180	0,027
336,143	120,898	-0,119	-0,101
337,158	-48,839	-0,191	-0,062
338,173	-81,191	-0,021	0,005
339,187	-200,000	-0,077	-0,239
340,202	243,246	-0,044	-0,051
341,216	171,979	-0,159	-0,156
342,231	67,472	-0,209	-0,145
343,246	115,315	-0,207	-0,173
344,260	102,841	-0,054	-0,043
345,275	73,164	-0,081	-0,057
346,289	153,071	-0,125	-0,116
347,304	-200,000	-0,012	-0,167
348,319	704,104	-0,118	-0,213
349,333	67,849	-0,132	-0,092
350,348	64,726	-0,092	-0,063
351,362	-56,500	-0,159	-0,048
352,377	134,168	-0,124	-0,109
353,392	156,847	-0,145	-0,137
354,406	-200,000	-0,004	-0,016
355,421	207,293	1309,655	1395,506
356,435	159,460	1469,689	1395,946
