DTS Sentinel unit serial number:	SN410029Multiplexer serial number:	ORYXHardware model number:	OX2-SRSoftware version number:	ORYX F/W v4,00 Oryx Data Collector v3.7.2.0data status	okinstallation	B5 Nyhavnadifferential loss correction	single-endedforward channel	channel 2reverse channel	N/Adate	2023/12/14time	06:32:13forward acquisition time	300,00reverse acquisition time	0,00gamma	499,1914k internal	0,3158k external	0,3158temperature offset calibration	1,0000default loss term (dB/km)	0,3820temperature slope calibration	1,0000multiplexer offset coefficient	1,0000multiplexer slope coefficient	1,0000fibre end	0,00T internal ref (°C)	7,45T ext. ref 1 (°C)	-9,03T ext. ref 2 (°C)	-9,12length (m)	temperature (°C)	Stokes	anti-Stokes-744,400	-119,186	0,073	-0,009
-743,385	-58,748	-0,313	-0,099
-742,371	307,662	0,075	0,103
-741,356	-72,430	-0,314	0,085
-740,342	552,429	0,062	0,109
-739,327	-51,050	-0,257	-0,088
-738,312	-94,220	0,283	0,057
-737,298	26,553	-0,314	-0,193
-736,283	84,481	0,082	0,066
-735,269	-129,207	-0,279	-0,028
-734,254	-51,167	0,273	0,094
-733,239	9,903	-0,426	-0,238
-732,225	2,325	0,198	0,105
-731,210	-200,000	-0,021	0,074
-730,196	418,014	0,007	0,012
-729,181	800,000	-0,038	0,116
-728,167	-200,000	-0,021	0,090
-727,152	419,494	0,028	-0,044
-726,137	800,000	-0,076	-0,157
-725,123	319,428	0,019	-0,026
-724,108	143,667	-0,111	-0,109
-723,094	-200,000	0,034	-0,136
-722,079	800,000	-0,086	-0,208
-721,064	-114,588	0,091	-0,013
-720,050	9,785	-0,048	-0,027
-719,035	800,000	-0,045	0,119
-718,021	166,223	-0,097	-0,101
-717,006	800,000	-0,046	-0,098
-715,991	88,645	-0,171	-0,140
-714,977	139,916	-0,079	-0,077
-713,962	-200,000	-0,005	0,036
-712,948	300,615	-0,105	0,143
-711,933	-39,455	0,167	-0,064
-710,918	-71,693	-0,131	-0,036
-709,904	286,325	-0,119	-0,158
-708,889	219,668	-0,058	-0,068
-707,875	614,156	-0,088	-0,163
-706,860	10,969	0,129	-0,072
-705,845	464,432	0,084	-0,138
-704,831	136,059	0,031	-0,029
-703,816	-77,044	-0,172	-0,044
-702,802	556,958	-0,034	0,061
-701,787	86,024	-0,126	-0,102
-700,772	800,000	0,013	0,031
-699,758	-84,768	-0,088	-0,020
-698,743	-200,000	-0,003	0,016
-697,729	-104,150	-0,028	0,005
-696,714	-86,586	-0,144	0,032
-695,699	321,678	-0,067	-0,094
-694,685	255,922	0,033	0,042
-693,670	635,580	0,045	-0,084
-692,656	800,000	-0,042	-0,099
-691,641	-119,467	-0,100	-0,013
-690,627	800,000	0,069	0,207
-689,612	35,086	0,069	-0,044
-688,597	-98,996	-0,220	0,041
-687,583	800,000	0,005	0,015
-686,568	-105,732	-0,134	0,022
-685,554	340,947	-0,025	-0,037
-684,539	-84,487	-0,049	-0,011
-683,524	362,411	-0,019	-0,028
-682,510	800,000	0,014	0,029
-681,495	-200,000	-0,004	-0,059
-680,481	-100,713	-0,045	0,008
-679,466	-129,557	-0,053	0,005
-678,451	-200,000	0,014	-0,077
-677,437	800,000	-0,055	-0,161
-676,422	-147,203	0,098	-0,006
-675,408	15,703	-0,109	0,063
-674,393	64,201	-0,020	0,015
-673,378	-75,929	0,051	0,013
-672,364	-83,265	-0,112	-0,026
-671,349	177,960	0,023	-0,025
-670,335	-200,000	-0,019	0,146
-669,320	205,728	0,048	0,055
-668,305	308,986	-0,073	0,100
-667,291	601,998	0,053	-0,097
-666,276	290,960	-0,053	-0,071
-665,262	645,379	-0,029	-0,054
-664,247	32,517	-0,078	0,050
-663,232	749,782	-0,060	-0,119
-662,218	-200,000	-0,028	0,109
-661,203	-10,631	-0,074	0,036
-660,189	358,899	0,072	0,106
-659,174	800,000	-0,037	0,110
-658,159	800,000	-0,024	0,052
-657,145	7,238	-0,192	-0,105
-656,130	288,488	0,094	-0,125
-655,116	246,990	0,076	0,094
-654,101	30,323	0,131	0,082
-653,086	301,598	-0,073	-0,099
-652,072	263,451	-0,115	-0,147
-651,057	-200,000	0,007	-0,029
-650,043	730,125	-0,041	-0,080
-649,028	133,918	-0,068	-0,064
-648,014	-50,260	0,063	-0,022
-646,999	-93,404	-0,135	0,027
-645,984	-200,000	0,017	-0,108
-644,970	-200,000	0,013	-0,119
-643,955	800,000	0,034	0,076
-642,941	800,000	-0,036	-0,088
-641,926	-90,886	-0,066	0,014
-640,911	-16,358	0,027	0,013
-639,897	114,234	-0,133	0,119
-638,882	-56,403	0,070	-0,023
-637,868	449,879	-0,131	0,213
-636,853	800,000	-0,009	0,018
-635,838	-200,000	-0,050	-0,175
-634,824	656,838	0,051	-0,096
-633,809	136,592	0,114	0,109
-632,795	800,000	0,057	0,154
-631,780	592,884	-0,019	-0,035
-630,765	800,000	-0,055	-0,116
-629,751	-200,000	-0,016	0,072
-628,736	-200,000	0,021	-0,101
-627,722	1,038	0,048	0,025
-626,707	-200,000	-0,010	0,157
-625,692	199,205	0,014	-0,016
-624,678	-200,000	0,001	-0,087
-623,663	-83,160	-0,091	-0,021
-622,649	-99,495	-0,157	-0,029
-621,634	503,192	-0,035	0,059
-620,619	800,000	0,036	-0,076
-619,605	6,686	-0,115	-0,063
-618,590	120,898	0,036	-0,033
-617,576	-132,544	0,083	0,008
-616,561	-200,000	0,023	-0,138
-615,546	800,000	0,015	0,047
-614,532	536,539	-0,064	-0,111
-613,517	-41,265	-0,133	0,050
-612,503	5,559	0,062	0,033
-611,488	56,896	0,152	-0,109
-610,474	-200,000	0,000	0,036
-609,459	-32,836	-0,074	-0,030
-608,444	-139,810	-0,005	-0,000
-607,430	-99,245	-0,144	-0,026
-606,415	-133,152	0,025	-0,002
-605,401	-58,232	0,088	-0,028
-604,386	-105,597	-0,140	-0,023
-603,371	800,000	-0,009	0,025
-602,357	-200,000	-0,050	0,164
-601,342	121,742	-0,010	-0,009
-600,328	-79,795	0,065	0,016
-599,313	-102,122	0,057	-0,010
-598,298	-1,100	-0,065	-0,034
-597,284	61,055	-0,071	0,052
-596,269	-38,921	0,139	0,053
-595,255	-131,099	-0,117	0,011
-594,240	-10,252	-0,052	-0,025
-593,225	403,420	-0,036	-0,055
-592,211	-63,578	-0,119	-0,036
-591,196	71,129	-0,017	-0,013
-590,182	800,000	-0,033	0,078
-589,167	460,020	0,050	-0,083
-588,152	77,364	-0,097	0,076
-587,138	56,340	-0,109	-0,078
-586,123	25,926	-0,056	-0,034
-585,109	443,827	-0,012	-0,020
-584,094	283,790	-0,082	-0,109
-583,079	-99,627	-0,131	-0,024
-582,065	-146,630	0,187	-0,012
-581,050	25,510	0,038	-0,023
-580,036	-33,202	-0,022	-0,009
-579,021	34,901	-0,046	-0,029
-578,006	-200,000	0,008	0,083
-576,992	-103,146	-0,034	0,006
-575,977	-62,314	0,122	0,037
-574,963	-200,000	-0,011	0,038
-573,948	-94,773	0,162	-0,032
-572,934	-200,000	-0,004	0,130
-571,919	-10,884	-0,164	-0,079
-570,904	-61,673	0,112	-0,034
-569,890	148,474	-0,035	-0,035
-568,875	-39,702	0,187	0,071
-567,861	49,362	-0,012	-0,008
-566,846	22,768	-0,161	0,096
-565,831	-41,003	0,115	0,043
-564,817	-111,525	0,124	0,018
-563,802	109,666	-0,115	-0,101
-562,788	-200,000	-0,015	-0,055
-561,773	800,000	0,031	-0,078
-560,758	-54,945	0,095	-0,031
-559,744	230,917	-0,078	-0,093
-558,729	117,932	0,041	-0,037
-557,715	-197,351	0,063	-0,000
-556,700	91,798	-0,023	0,019
-555,685	-87,308	-0,051	-0,011
-554,671	800,000	0,054	-0,130
-553,656	800,000	-0,037	0,103
-552,642	586,154	-0,048	0,087
-551,627	182,306	-0,017	0,018
-550,612	46,467	0,031	-0,021
-549,598	-159,908	-0,013	-0,000
-548,583	-25,626	-0,095	-0,041
-547,569	-5,652	-0,064	0,032
-546,554	800,000	0,049	0,113
-545,539	-200,000	0,009	0,145
-544,525	-200,000	0,024	0,085
-543,510	171,871	0,064	-0,067
-542,496	136,864	-0,032	-0,031
-541,481	800,000	-0,035	-0,082
-540,466	-14,682	-0,073	-0,034
-539,452	800,000	0,037	-0,084
-538,437	308,087	-0,019	0,027
-537,423	157,509	0,079	-0,080
-536,408	90,797	-0,119	0,097
-535,393	103,233	0,034	0,030
-534,379	-200,000	0,006	0,045
-533,364	-40,631	-0,124	-0,047
-532,350	-75,479	0,150	0,039
-531,335	-200,000	-0,010	0,176
-530,321	-101,017	0,151	0,027
-529,306	800,000	-0,059	-0,136
-528,291	-30,054	0,001	-0,001
-527,277	-200,000	-0,000	-0,054
-526,262	-101,455	-0,146	-0,026
-525,248	194,525	-0,041	-0,045
-524,233	35,720	0,105	-0,067
-523,218	13,467	0,105	0,059
-522,204	92,052	-0,045	-0,037
-521,189	155,065	-0,140	-0,141
-520,175	-200,000	0,021	-0,166
-519,160	121,003	-0,109	0,099
-518,145	13,539	0,064	0,036
-517,131	-148,688	0,117	-0,007
-516,116	-115,012	0,163	0,022
-515,102	-121,239	-0,018	0,002
-514,087	39,659	0,064	-0,042
-513,072	-41,717	-0,073	0,027
-512,058	-107,630	-0,161	-0,026
-511,043	591,778	0,079	0,144
-510,029	-200,000	0,006	0,084
-509,014	-200,000	0,003	0,021
-507,999	65,137	-0,078	-0,057
-506,985	1,018	0,057	-0,030
-505,970	800,000	-0,065	-0,145
-504,956	-36,237	-0,094	-0,037
-503,941	105,250	0,052	0,044
-502,926	800,000	0,016	0,034
-501,912	-200,000	0,000	0,097
-500,897	166,491	-0,019	0,020
-499,883	-39,067	-0,034	0,013
-498,868	-200,000	0,012	0,088
-497,853	-29,194	-0,039	-0,016
-496,839	-146,946	0,139	0,009
-495,824	-11,187	-0,097	0,047
-494,810	800,000	-0,007	0,023
-493,795	800,000	-0,013	-0,030
-492,781	454,782	0,048	-0,077
-491,766	-200,000	0,024	-0,089
-490,751	189,047	0,041	-0,045
-489,737	-53,299	0,062	-0,021
-488,722	291,300	0,107	-0,143
-487,708	-19,661	0,139	-0,062
-486,693	-200,000	-0,002	0,025
-485,678	-72,646	-0,082	-0,022
-484,664	-21,027	-0,108	0,048
-483,649	-200,000	0,019	-0,083
-482,635	279,897	0,127	-0,165
-481,620	-7,514	0,096	-0,047
-480,605	-200,000	0,010	-0,033
-479,591	-145,599	-0,144	0,009
-478,576	175,519	0,061	0,065
-477,562	-200,000	0,021	-0,110
-476,547	800,000	0,034	-0,090
-475,532	800,000	0,016	0,049
-474,518	-46,500	0,154	0,055
-473,503	-176,499	0,201	-0,004
-472,489	-80,653	-0,054	0,013
-471,474	631,330	0,040	-0,074
-470,459	123,769	0,108	0,099
-469,445	-200,000	-0,028	0,096
-468,430	97,024	0,104	-0,087
-467,416	636,086	0,033	-0,062
-466,401	-200,000	0,042	0,151
-465,386	-168,456	0,032	-0,001
-464,372	-125,589	0,050	-0,005
-463,357	87,962	-0,039	-0,031
-462,343	228,596	-0,109	-0,130
-461,328	-151,599	-0,125	-0,007
-460,313	115,502	0,084	0,075
-459,299	17,365	-0,084	0,049
-458,284	-64,455	0,069	0,020
-457,270	-200,000	-0,008	0,080
-456,255	323,031	-0,062	0,087
-455,241	-200,000	-0,002	0,085
-454,226	-200,000	-0,005	-0,120
-453,211	275,110	0,066	0,085
-452,197	800,000	-0,032	-0,067
-451,182	-26,959	0,161	0,068
-450,168	200,437	0,088	0,099
-449,153	-80,361	0,098	-0,024
-448,138	142,651	0,056	-0,055
-447,124	-200,000	0,021	0,174
-446,109	323,710	-0,008	-0,011
-445,095	132,944	-0,142	0,134
-444,080	386,703	0,120	0,181
-443,065	-78,720	-0,020	0,005
-442,051	94,153	0,032	-0,026
-441,036	57,299	0,111	-0,079
-440,022	-41,098	-0,017	0,006
-439,007	-148,314	0,008	-0,000
-437,992	-72,767	-0,077	0,020
-436,978	78,038	0,194	0,151
-435,963	800,000	-0,046	0,106
-434,949	-128,122	-0,061	0,006
-433,934	229,932	0,086	-0,103
-432,919	637,540	-0,013	0,024
-431,905	-200,000	0,014	0,173
-430,890	-200,000	0,000	-0,033
-429,876	359,624	0,032	0,047
-428,861	280,591	0,054	0,071
-427,846	-200,000	-0,004	0,047
-426,832	120,736	0,142	-0,128
-425,817	-200,000	0,016	-0,092
-424,803	-21,658	0,124	-0,055
-423,788	180,527	-0,069	0,073
-422,773	135,395	-0,069	0,065
-421,759	605,204	0,032	0,059
-420,744	60,729	0,145	0,104
-419,730	800,000	-0,029	0,069
-418,715	-4,597	0,105	-0,053
-417,701	-119,606	0,055	-0,007
-416,686	-20,695	0,192	0,085
-415,671	-60,270	-0,024	0,007
-414,657	-200,000	0,008	0,142
-413,642	443,309	-0,040	-0,063
-412,628	-74,573	-0,074	0,019
-411,613	-161,910	0,073	0,003
-410,598	-107,974	0,082	-0,013
-409,584	-200,000	-0,024	0,147
-408,569	-42,010	0,090	-0,033
-407,555	-62,625	-0,056	0,017
-406,540	-95,777	0,106	-0,020
-405,525	173,976	-0,101	-0,106
-404,511	-112,216	0,097	-0,014
-403,496	-200,000	0,012	-0,055
-402,482	-200,000	-0,001	-0,071
-401,467	332,000	0,051	0,072
-400,452	-200,000	0,009	0,040
-399,438	-184,794	0,092	-0,001
-398,423	-170,669	-0,144	0,004
-397,409	67,602	0,059	0,044
-396,394	108,340	0,062	-0,054
-395,379	-60,013	-0,048	-0,015
-394,365	457,673	0,052	-0,084
-393,350	93,679	-0,116	0,095
-392,336	145,550	-0,047	-0,046
-391,321	16,842	-0,061	0,035
-390,306	307,192	0,033	0,045
-389,292	-200,000	0,002	-0,038
-388,277	14,522	-0,076	0,043
-387,263	-200,000	0,002	0,007
-386,248	-200,000	0,001	0,124
-385,233	-200,000	-0,056	0,207
-384,219	800,000	0,022	-0,066
-383,204	800,000	-0,024	0,054
-382,190	112,536	-0,098	-0,086
-381,175	-100,368	0,144	-0,026
-380,160	800,000	0,040	0,105
-379,146	38,032	0,130	0,084
-378,131	-140,777	0,117	0,009
-377,117	205,583	-0,037	0,042
-376,102	-96,902	-0,112	-0,021
-375,088	112,364	-0,085	0,075
-374,073	109,476	-0,048	0,042
-373,058	-49,675	-0,098	0,034
-372,044	472,945	0,015	0,025
-371,029	-200,000	-0,011	0,082
-370,015	-15,975	-0,050	0,023
-369,000	68,457	-0,129	-0,096
-367,985	298,084	-0,048	-0,064
-366,971	602,523	-0,043	-0,078
-365,956	53,866	-0,171	0,119
-364,942	79,120	0,115	-0,090
-363,927	-90,677	-0,110	-0,023
-362,912	266,787	0,051	0,064
-361,898	-200,000	-0,041	-0,139
-360,883	31,715	-0,024	-0,015
-359,869	-200,000	-0,024	-0,194
-358,854	-200,000	-0,004	-0,065
-357,839	254,464	-0,141	0,176
-356,825	55,782	-0,080	-0,056
-355,810	398,040	-0,026	0,039
-354,796	204,638	-0,032	-0,036
-353,781	-200,000	-0,000	-0,010
-352,766	5,596	-0,048	-0,026
-351,752	800,000	0,009	-0,022
-350,737	-200,000	0,013	-0,090
-349,723	-200,000	0,004	-0,079
-348,708	69,632	-0,062	0,046
-347,693	-69,620	0,118	-0,033
-346,679	120,909	-0,057	-0,052
-345,664	800,000	-0,023	-0,050
-344,650	-147,997	0,108	-0,006
-343,635	-198,712	-0,061	-0,000
-342,620	-200,000	0,125	-0,000
-341,606	-138,931	-0,048	-0,004
-340,591	800,000	-0,036	-0,078
-339,577	589,114	-0,071	-0,127
-338,562	308,420	0,084	-0,115
-337,548	-200,000	0,004	-0,077
-336,533	-200,000	-0,009	0,032
-335,518	143,232	0,161	0,156
-334,504	590,927	0,016	-0,029
-333,489	-200,000	0,019	-0,076
-332,475	369,487	-0,045	0,066
-331,460	-17,154	-0,212	-0,097
-330,445	-53,467	-0,070	-0,023
-329,431	-62,595	0,142	0,043
-328,416	-200,000	0,012	0,078
-327,402	-200,000	-0,020	-0,118
-326,387	-121,109	-0,039	-0,005
-325,372	-18,503	0,081	-0,036
-324,358	-200,000	0,009	-0,092
-323,343	30,445	0,069	-0,043
-322,329	768,303	-0,047	-0,092
-321,314	800,000	-0,023	-0,064
-320,299	-55,128	-0,031	0,010
-319,285	-62,514	0,127	0,038
-318,270	617,202	-0,056	0,101
-317,256	-166,163	-0,037	-0,001
-316,241	-33,811	-0,075	0,030
-315,226	276,896	0,046	-0,060
-314,212	174,933	0,099	-0,104
-313,197	18,706	-0,021	-0,012
-312,183	-57,126	0,074	0,024
-311,168	-52,828	-0,202	0,067
-310,153	263,456	-0,025	0,031
-309,139	-153,588	-0,161	-0,008
-308,124	800,000	0,075	0,192
-307,110	-122,835	0,127	-0,015
-306,095	-45,830	-0,051	0,018
-305,080	-200,000	-0,011	0,093
-304,066	-59,069	0,078	-0,024
-303,051	113,996	0,006	0,005
-302,037	383,147	0,031	-0,047
-301,022	-200,000	-0,025	0,088
-300,008	-78,555	0,038	-0,009
-298,993	-200,000	-0,012	-0,049
-297,978	-61,360	-0,099	-0,030
-296,964	800,000	-0,007	-0,014
-295,949	-200,000	0,014	-0,100
-294,935	-200,000	-0,009	0,106
-293,920	286,542	-0,098	0,129
-292,905	-123,620	0,067	-0,008
-291,891	-4,171	0,130	0,065
-290,876	241,327	-0,092	-0,111
-289,862	553,817	-0,058	-0,101
-288,847	-8,656	0,052	-0,025
-287,832	800,000	-0,022	-0,063
-286,818	800,000	0,027	-0,056
-285,803	-128,689	0,137	0,014
-284,789	20,392	0,043	0,025
-283,774	430,812	-0,062	0,098
-282,759	-98,378	-0,094	-0,017
-281,745	-77,931	-0,058	-0,014
-280,730	186,547	-0,082	0,089
-279,716	-167,856	0,098	0,003
-278,701	13,338	-0,041	0,023
-277,686	55,580	0,123	-0,086
-276,672	800,000	-0,007	-0,021
-275,657	-116,656	0,100	0,013
-274,643	388,343	0,034	0,051
-273,628	432,684	-0,053	0,084
-272,613	-7,087	0,108	0,053
-271,599	-200,000	-0,016	0,059
-270,584	507,441	0,025	0,042
-269,570	195,640	-0,074	-0,081
-268,555	800,000	0,050	0,117
-267,540	-200,000	0,021	0,130
-266,526	-61,700	-0,257	-0,077
-265,511	800,000	-0,022	0,060
-264,497	-200,000	0,003	0,138
-263,482	100,952	0,154	0,130
-262,467	360,956	-0,063	0,091
-261,453	75,310	-0,033	0,026
-260,438	-150,482	0,028	-0,002
-259,424	-200,000	0,000	-0,016
-258,409	800,000	-0,075	0,159
-257,395	28,837	0,131	-0,080
-256,380	-21,296	0,141	0,062
-255,365	26,187	0,092	0,055
-254,351	800,000	-0,025	0,078
-253,336	208,376	0,037	0,042
-252,322	-200,000	0,019	0,092
-251,307	303,086	-0,039	0,052
-250,292	771,621	-0,033	0,064
-249,278	-200,000	0,040	0,148
-248,263	800,000	-0,016	-0,044
-247,249	-65,475	0,070	0,020
-246,234	-200,000	0,006	0,076
-245,219	-134,202	-0,066	-0,006
-244,205	-117,052	-0,035	0,005
-243,190	800,000	-0,035	0,096
-242,176	-200,000	0,002	0,010
-241,161	800,000	-0,067	0,170
-240,146	759,026	0,018	0,036
-239,132	63,930	-0,151	0,110
-238,117	688,073	-0,045	0,085
-237,103	-47,485	0,108	0,038
-236,088	800,000	0,030	0,066
-235,073	-200,000	0,015	0,052
-234,059	-57,357	-0,065	-0,020
-233,044	153,170	0,095	-0,094
-232,030	800,000	-0,035	-0,097
-231,015	36,063	-0,074	-0,047
-230,000	-157,187	0,053	-0,002
-228,986	650,893	-0,056	-0,104
-227,971	166,206	-0,042	0,043
-226,957	-200,000	-0,013	0,090
-225,942	103,764	0,023	0,020
-224,927	504,070	0,041	-0,068
-223,913	699,888	0,029	-0,055
-222,898	-200,000	-0,026	-0,113
-221,884	-200,000	0,018	-0,169
-220,869	786,082	0,018	0,036
-219,855	-176,572	0,254	0,005
-218,840	-162,763	-0,032	0,001
-217,825	104,670	-0,046	0,039
-216,811	101,112	0,021	-0,017
-215,796	800,000	-0,029	0,065
-214,782	5,655	0,017	0,009
-213,767	24,292	0,113	-0,067
-212,752	-200,000	-0,015	0,062
-211,738	58,208	-0,054	0,038
-210,723	-200,000	0,001	-0,023
-209,709	-200,000	-0,033	-0,183
-208,694	60,467	0,069	-0,049
-207,679	800,000	0,041	-0,101
-206,665	-142,958	-0,099	0,007
-205,650	-200,000	-0,027	0,088
-204,636	800,000	-0,020	0,051
-203,621	39,549	0,085	-0,055
-202,606	800,000	0,029	0,085
-201,592	132,117	-0,102	-0,095
-200,577	-130,128	-0,107	0,010
-199,563	80,544	-0,024	-0,018
-198,548	314,873	-0,039	-0,053
-197,533	11,894	0,118	-0,065
-196,519	148,374	0,019	-0,018
-195,504	-52,766	-0,081	-0,027
-194,490	-63,411	-0,105	-0,031
-193,475	743,567	0,018	0,035
-192,460	-200,000	-0,008	-0,039
-191,446	306,673	0,050	0,068
-190,431	800,000	-0,051	0,136
-189,417	800,000	0,029	0,075
-188,402	104,838	0,042	-0,036
-187,387	95,499	-0,088	-0,072
-186,373	800,000	-0,066	-0,177
-185,358	-200,000	0,012	-0,187
-184,344	143,044	-0,018	0,017
-183,329	122,690	0,072	-0,065
-182,315	-16,102	-0,066	-0,030
-181,300	-3,541	0,052	0,026
-180,285	183,017	-0,089	-0,095
-179,271	360,074	-0,110	-0,159
-178,256	-12,866	0,015	-0,007
-177,242	-112,485	0,073	-0,010
-176,227	49,715	0,083	-0,056
-175,212	-162,603	-0,123	0,004
-174,198	9,761	-0,090	0,049
-173,183	-200,000	-0,016	0,082
-172,169	-200,000	-0,033	-0,200
-171,154	65,672	-0,061	0,044
-170,139	464,074	-0,037	-0,060
-169,125	-109,725	-0,039	0,006
-168,110	-6,893	0,051	0,025
-167,096	-58,881	-0,177	0,055
-166,081	-101,566	0,110	-0,019
-165,066	-200,000	-0,015	-0,072
-164,052	100,401	-0,112	-0,093
-163,037	201,681	0,084	-0,094
-162,023	-23,228	-0,083	-0,036
-161,008	233,542	-0,057	0,067
-159,993	410,770	-0,069	0,106
-158,979	-200,000	-0,025	-0,104
-157,964	-200,000	-0,011	-0,098
-156,950	-23,013	0,087	-0,038
-155,935	-69,171	0,183	0,050
-154,920	800,000	0,057	-0,151
-153,906	124,963	0,016	-0,014
-152,891	-200,000	0,005	0,048
-151,877	351,401	-0,074	-0,106
-150,862	256,264	-0,070	-0,087
-149,847	387,905	-0,069	-0,104
-148,833	800,000	0,042	-0,119
-147,818	632,672	-0,069	0,126
-146,804	-200,000	0,046	0,157
-145,789	505,907	0,112	0,187
-144,775	-173,169	-0,069	0,001
-143,760	11,840	-0,058	-0,032
-142,745	369,960	0,024	0,035
-141,731	145,887	0,011	-0,010
-140,716	-151,704	0,080	0,004
-139,702	-147,767	-0,135	0,008
-138,687	0,462	-0,072	0,037
-137,672	-93,682	0,056	-0,011
-136,658	199,410	0,098	-0,108
-135,643	267,448	-0,100	-0,127
-134,629	800,000	0,046	0,102
-133,614	135,783	-0,006	-0,006
-132,599	800,000	-0,041	0,119
-131,585	-83,817	-0,099	-0,023
-130,570	691,520	0,026	0,049
-129,556	-200,000	-0,019	-0,117
-128,541	-110,239	-0,062	-0,009
-127,526	-69,686	0,045	0,012
-126,512	-65,582	0,071	0,020
-125,497	-200,000	-0,045	0,178
-124,483	-200,000	0,001	0,156
-123,468	-56,930	0,114	0,036
-122,453	146,323	0,101	-0,098
-121,439	226,374	-0,060	-0,070
-120,424	5,939	-0,135	-0,072
-119,410	34,782	0,043	0,027
-118,395	-200,000	-0,006	0,061
-117,380	-59,281	-0,174	0,054
-116,366	-200,000	-0,003	0,050
-115,351	-148,902	-0,026	-0,001
-114,337	-65,345	-0,075	0,022
-113,322	-72,475	0,090	0,024
-112,307	-57,122	-0,064	-0,020
-111,293	800,000	0,057	0,142
-110,278	131,320	0,031	-0,028
-109,264	4,338	0,098	-0,052
-108,249	-92,282	0,006	0,001
-107,234	17,110	-0,103	0,058
-106,220	271,945	0,072	-0,091
-105,205	-58,022	0,056	-0,017
-104,191	-200,000	-0,016	0,070
-103,176	530,750	0,054	-0,092
-102,162	334,095	-0,027	0,037
-101,147	-54,083	-0,119	-0,039
-100,132	-200,000	0,008	0,062
-99,118	86,254	0,017	-0,014
-98,103	200,021	-0,054	-0,060
-97,089	-83,564	-0,019	-0,004
-96,074	-82,058	-0,051	-0,012
-95,059	306,388	-0,069	0,093
-94,045	-69,187	-0,109	-0,030
-93,030	800,000	-0,034	-0,105
-92,016	-200,000	0,017	-0,077
-91,001	51,576	0,036	0,024
-89,986	1,722	-0,081	0,042
-88,972	-29,590	-0,087	-0,036
-87,957	-14,676	-0,125	-0,058
-86,943	-107,599	-0,062	-0,010
-85,928	-200,000	-0,048	0,190
-84,913	-83,275	-0,096	0,022
-83,899	-70,920	-0,127	-0,034
-82,884	0,349	-0,090	0,046
-81,870	339,919	-0,036	-0,050
-80,855	341,479	0,058	0,081
-79,840	361,500	-0,040	0,058
-78,826	786,206	0,023	-0,046
-77,811	-200,000	-0,015	-0,078
-76,797	800,000	-0,032	0,066
-75,782	177,234	-0,065	0,069
-74,767	127,506	0,089	0,081
-73,753	18,847	-0,098	0,056
-72,738	545,767	-0,030	0,052
-71,724	-53,598	-0,114	0,037
-70,709	-200,000	0,007	-0,190
-69,694	464,994	0,050	-0,080
-68,680	-200,000	0,007	-0,174
-67,665	-156,584	0,224	0,010
-66,651	98,583	0,043	0,036
-65,636	-200,000	-0,003	-0,042
-64,622	65,904	0,114	0,083
-63,607	617,938	-0,061	-0,110
-62,592	-97,720	-0,072	0,013
-61,578	-13,643	-0,101	-0,047
-60,563	-146,047	0,184	-0,012
-59,549	800,000	0,053	0,108
-58,534	130,425	-2,477	-2,279
-57,519	-41,968	0,476	-0,174
-56,505	-200,000	-1,592	-5,491
-55,490	487,069	1,218	2,002
-54,476	800,000	5,233	11,274
-53,461	-200,000	22,720	348,017
-52,446	800,000	763,628	2275,087
-51,432	502,467	1644,546	2737,462
-50,417	94,174	1603,167	1304,891
-49,403	62,385	1260,048	901,674
-48,388	21,858	1012,374	590,505
-47,373	18,787	979,717	561,352
-46,359	12,232	966,738	532,560
-45,344	8,070	963,761	517,332
-44,330	8,503	961,230	517,363
-43,315	7,594	959,628	513,524
-42,300	7,513	958,683	512,737
-41,286	7,480	957,598	512,029
-40,271	7,466	956,641	511,452
-39,257	7,496	955,771	511,064
-38,242	7,507	954,814	510,565
-37,227	7,511	954,025	510,138
-36,213	7,442	953,367	509,542
-35,198	7,460	952,529	509,131
-34,184	7,546	951,672	508,930
-33,169	7,481	950,720	508,193
-32,154	7,492	949,875	507,756
-31,140	7,545	948,979	507,427
-30,125	7,481	948,386	506,883
-29,111	7,525	947,353	506,453
-28,096	7,487	946,946	506,095
-27,082	7,498	946,330	505,780
-26,067	7,429	945,651	505,174
-25,052	7,491	944,524	504,752
-24,038	7,397	944,167	504,240
-23,023	7,487	943,328	504,060
-22,009	7,446	942,796	503,623
-20,994	7,453	942,163	503,290
-19,979	7,537	941,410	503,133
-18,965	7,483	940,945	502,694
-17,950	7,374	940,599	502,141
-16,936	7,465	939,545	501,849
-15,921	7,394	938,873	501,245
-14,906	7,389	938,287	500,896
-13,892	7,377	937,818	500,586
-12,877	7,339	937,114	500,070
-11,863	7,406	936,284	499,821
-10,848	7,375	935,952	499,525
-9,833	7,468	935,353	499,480
-8,819	7,415	934,776	498,986
-7,804	7,334	934,343	498,479
-6,790	7,374	933,372	498,066
-5,775	7,426	932,909	497,962
-4,760	7,413	932,411	497,638
-3,746	7,422	931,730	497,283
-2,731	7,229	931,039	496,287
-1,717	7,215	930,461	495,914
-0,702	7,214	930,000	495,644
0,313	7,053	929,216	495,469
1,327	10,412	926,847	504,702
2,342	18,910	774,703	443,985
3,356	13,694	444,330	246,832
4,371	-12,301	309,952	144,754
5,386	-16,041	292,721	132,942
6,400	-18,100	286,582	128,119
7,415	-18,211	284,001	126,845
8,429	-18,876	282,076	125,331
9,444	-18,801	281,320	125,056
10,459	-18,729	280,564	124,778
11,473	-18,835	279,930	124,384
12,488	-18,718	279,620	124,347
13,502	-18,758	278,975	124,011
14,517	-18,653	278,715	123,984
15,531	-18,596	278,188	123,793
16,546	-18,371	277,809	123,828
17,561	-18,645	277,576	123,452
18,575	-18,457	277,106	123,411
19,590	-18,375	276,692	123,293
20,604	-18,376	276,477	123,185
21,619	-18,606	276,217	122,841
22,634	-18,475	275,758	122,749
23,648	-18,587	275,465	122,502
24,663	-18,546	275,331	122,471
25,677	-18,567	275,131	122,351
26,692	-18,372	274,887	122,416
27,707	-18,443	274,520	122,174
28,721	-18,551	274,121	121,884
29,736	-18,537	274,104	121,879
30,750	-18,538	273,656	121,668
31,765	-18,493	273,519	121,638
32,780	-18,421	273,236	121,569
33,794	-18,601	272,923	121,251
34,809	-18,508	272,656	121,208
35,823	-18,197	272,387	121,367
36,838	-18,418	272,248	121,089
37,853	-18,532	271,994	120,859
38,867	-18,401	271,661	120,822
39,882	-18,509	271,536	120,655
40,896	-18,606	271,309	120,454
41,911	-18,478	271,001	120,425
42,926	-18,372	270,670	120,365
43,940	-18,273	270,352	120,305
44,955	-18,419	270,275	120,125
45,969	-18,561	270,120	119,914
46,984	-18,368	269,746	119,915
47,999	-18,455	269,717	119,812
49,013	-18,163	269,368	119,915
50,028	-18,309	269,271	119,726
51,042	-18,198	268,914	119,658
52,057	-18,147	268,775	119,633
53,071	-18,356	268,636	119,369
54,086	-18,328	268,276	119,224
55,101	-18,355	268,026	119,077
56,115	-18,280	267,841	119,053
57,130	-18,504	267,567	118,716
58,144	-18,480	267,176	118,554
59,159	-18,441	266,979	118,492
60,174	-18,442	266,707	118,359
61,188	-18,253	266,424	118,395
62,203	-18,524	266,514	118,178
63,217	-18,400	266,072	118,084
64,232	-18,456	265,964	117,975
65,247	-18,575	265,616	117,702
66,261	-18,593	265,462	117,607
67,276	-18,391	265,258	117,689
68,290	-18,453	264,994	117,506
69,305	-18,451	264,873	117,443
70,320	-18,436	264,603	117,326
71,334	-18,440	264,405	117,225
72,349	-18,528	263,943	116,930
73,363	-18,419	263,731	116,924
74,378	-18,470	263,479	116,756
75,393	-18,457	263,449	116,744
76,407	-18,362	263,126	116,675
77,422	-18,396	263,089	116,618
78,436	-18,381	262,757	116,474
79,451	-18,353	262,501	116,375
80,466	-18,570	262,134	116,008
81,480	-18,402	262,138	116,149
82,495	-18,273	261,761	116,087
83,509	-18,237	261,747	116,103
84,524	-18,385	261,577	115,885
85,539	-18,444	261,371	115,731
86,553	-18,285	261,065	115,726
87,568	-18,410	260,802	115,488
88,582	-18,393	260,639	115,421
89,597	-18,303	260,443	115,404
90,611	-18,287	260,151	115,279
91,626	-18,497	260,023	115,026
92,641	-18,461	259,841	114,967
93,655	-18,604	259,717	114,775
94,670	-18,282	259,282	114,856
95,684	-18,410	259,083	114,646
96,699	-18,441	258,907	114,530
97,714	-18,328	258,732	114,542
98,728	-18,255	258,692	114,579
99,743	-18,246	258,408	114,450
100,757	-18,219	258,094	114,325
101,772	-18,459	258,002	114,063
102,787	-18,391	257,759	114,005
103,801	-18,216	257,386	113,983
104,816	-18,362	257,255	113,787
105,830	-18,201	257,114	113,855
106,845	-18,390	256,925	113,597
107,860	-18,315	256,717	113,560
108,874	-18,456	256,457	113,312
109,889	-18,313	256,288	113,352
110,903	-18,426	256,046	113,137
111,918	-18,405	255,831	113,049
112,933	-18,345	255,711	113,038
113,947	-18,211	255,450	113,029
114,962	-18,247	255,157	112,858
115,976	-18,419	255,013	112,636
116,991	-18,385	254,739	112,534
118,006	-18,244	254,673	112,617
119,020	-18,254	254,498	112,521
120,035	-18,563	254,290	112,152
121,049	-18,391	254,131	112,220
122,064	-18,357	254,089	112,221
123,079	-18,474	253,852	112,005
124,093	-18,479	253,469	111,822
125,108	-18,535	253,375	111,722
126,122	-18,108	253,143	111,977
127,137	-18,184	253,073	111,871
128,151	-18,304	252,951	111,704
129,166	-18,178	252,553	111,626
130,181	-18,298	252,380	111,437
131,195	-18,293	252,173	111,340
132,210	-18,362	252,017	111,203
133,224	-18,523	251,785	110,952
134,239	-18,275	251,500	111,028
135,254	-18,503	251,246	110,712
136,268	-18,416	251,173	110,745
137,283	-18,058	250,873	110,907
138,297	-18,342	250,822	110,633
139,312	-18,352	250,596	110,515
140,327	-18,224	250,380	110,518
141,341	-18,300	250,141	110,338
142,356	-18,324	250,002	110,247
143,370	-18,308	249,614	110,079
144,385	-18,330	249,484	109,993
145,400	-18,317	249,266	109,899
146,414	-18,268	249,124	109,868
147,429	-18,510	248,916	109,562
148,443	-18,335	248,745	109,624
149,458	-18,447	248,670	109,487
150,473	-18,245	248,382	109,520
151,487	-18,323	248,272	109,397
152,502	-18,090	248,030	109,476
153,516	-18,201	247,844	109,291
154,531	-18,329	247,634	109,081
155,546	-18,483	247,499	108,884
156,560	-18,282	247,287	108,949
157,575	-18,221	246,973	108,852
158,589	-18,148	246,886	108,864
159,604	-18,231	246,697	108,702
160,619	-18,369	246,623	108,545
161,633	-18,180	246,368	108,580
162,648	-18,382	246,408	108,420
163,662	-18,341	246,037	108,281
164,677	-18,167	245,984	108,393
165,692	-18,420	245,874	108,125
166,706	-18,299	245,607	108,098
167,721	-18,309	245,426	108,000
168,735	-18,232	245,277	107,989
169,750	-18,115	245,061	107,981
170,764	-18,323	244,922	107,737
171,779	-18,300	244,705	107,652
172,794	-18,258	244,491	107,583
173,808	-18,280	244,415	107,521
174,823	-18,162	244,234	107,530
175,837	-18,228	243,970	107,350
176,852	-18,279	243,907	107,270
177,867	-18,241	243,644	107,177
178,881	-18,034	243,565	107,303
179,896	-18,237	243,429	107,066
180,910	-18,347	243,088	106,816
181,925	-18,365	242,959	106,735
182,940	-18,506	242,852	106,563
183,954	-18,318	242,669	106,627
184,969	-18,371	242,560	106,526
185,983	-18,363	242,333	106,424
186,998	-18,319	242,326	106,447
188,013	-18,251	241,880	106,297
189,027	-18,260	241,620	106,166
190,042	-18,218	241,487	106,132
191,056	-18,484	241,515	105,919
192,071	-18,444	241,188	105,798
193,086	-18,359	241,229	105,877
194,100	-18,421	241,015	105,723
195,115	-18,238	240,636	105,696
196,129	-18,187	240,339	105,597
197,144	-18,381	240,363	105,440
198,159	-18,425	239,998	105,236
199,173	-18,374	239,899	105,224
200,188	-18,559	239,820	105,030
201,202	-18,337	239,512	105,066
202,217	-18,192	239,449	105,145
203,232	-17,965	239,187	105,204
204,246	-18,120	238,920	104,952
205,261	-18,442	238,768	104,617
206,275	-17,179	239,208	105,819
207,290	-12,661	240,856	110,204
208,304	-5,978	242,887	116,579
209,319	-2,234	244,120	120,225
210,334	-0,835	244,267	121,431
211,348	-0,062	244,362	122,099
212,363	0,299	244,286	122,346
213,377	0,413	244,162	122,366
214,392	0,619	244,106	122,494
215,407	1,014	244,112	122,809
216,421	1,096	243,974	122,795
217,436	1,377	243,717	122,883
218,450	1,264	243,624	122,734
219,465	1,054	243,549	122,514
220,480	1,246	243,526	122,648
221,494	1,257	243,198	122,481
222,509	0,807	242,983	121,997
223,523	0,598	242,698	121,673
224,538	0,527	242,587	121,549
225,553	0,434	242,252	121,295
226,567	0,809	242,030	121,476
227,582	0,603	242,058	121,313
228,596	0,604	241,877	121,213
229,611	0,495	241,812	121,081
230,626	0,724	241,440	121,068
231,640	0,600	241,316	120,896
232,655	0,395	241,331	120,728
233,669	0,377	241,089	120,581
234,684	0,520	240,842	120,561
235,699	0,634	240,738	120,590
236,713	0,656	240,542	120,499
237,728	0,620	240,295	120,336
238,742	0,521	240,235	120,216
239,757	0,527	240,047	120,115
240,772	0,432	239,957	119,984
241,786	0,594	239,798	120,023
242,801	0,524	239,568	119,842
243,815	0,558	239,497	119,823
244,830	0,347	239,296	119,543
245,844	0,340	239,157	119,457
246,859	0,541	238,892	119,474
247,874	0,446	238,826	119,355
248,888	0,456	238,652	119,265
249,903	0,661	238,514	119,348
250,917	0,495	238,300	119,099
251,932	0,435	238,326	119,053
252,947	0,681	238,072	119,111
253,961	0,743	237,859	119,043
254,976	0,689	237,766	118,943
255,990	0,689	237,613	118,856
257,005	0,654	237,644	118,833
258,020	0,685	237,490	118,770
259,034	0,581	237,208	118,537
260,049	0,633	237,033	118,480
261,063	0,684	236,855	118,421
262,078	0,475	236,702	118,169
263,093	0,335	236,632	118,013
264,107	0,516	236,475	118,066
265,122	0,443	236,264	117,894
266,136	0,435	236,152	117,821
267,151	0,623	235,784	117,774
268,166	0,703	235,811	117,840
269,180	0,589	235,433	117,551
270,195	0,534	235,393	117,478
271,209	0,694	235,124	117,458
272,224	0,554	235,178	117,364
273,239	0,516	234,951	117,212
274,253	0,704	234,755	117,250
275,268	0,596	234,830	117,192
276,282	0,610	234,598	117,077
277,297	0,476	234,428	116,878
278,312	0,434	234,329	116,785
279,326	0,528	234,246	116,806
280,341	0,453	234,039	116,634
281,355	0,618	233,754	116,610
282,370	0,695	233,680	116,623
283,384	0,686	233,495	116,513
284,399	0,377	233,251	116,141
285,414	0,710	233,096	116,311
286,428	0,382	233,095	116,047
287,443	0,644	232,777	116,081
288,457	0,622	232,722	116,026
289,472	0,908	232,553	116,152
290,487	0,567	232,549	115,876
291,501	0,590	232,386	115,803
292,516	0,617	232,179	115,710
293,530	0,802	232,001	115,754
294,545	0,708	231,927	115,634
295,560	0,671	231,848	115,555
296,574	0,852	231,564	115,543
297,589	0,826	231,421	115,441
298,603	0,701	231,250	115,250
299,618	0,874	231,292	115,393
300,633	0,813	231,126	115,253
301,647	0,709	230,948	115,075
302,662	0,888	230,659	115,058
303,676	0,586	230,736	114,854
304,691	0,816	230,361	114,833
305,706	0,937	230,126	114,798
306,720	0,643	230,111	114,556
307,735	1,022	229,921	114,740
308,749	0,949	229,912	114,670
309,764	0,752	229,588	114,348
310,779	1,066	229,450	114,508
311,793	0,828	229,198	114,191
312,808	1,027	229,134	114,301
313,822	0,961	229,026	114,186
314,837	0,943	229,029	114,164
315,852	0,816	228,990	114,037
316,866	0,947	228,665	113,964
317,881	0,762	228,566	113,765
318,895	0,841	228,405	113,735
319,910	1,012	228,192	113,748
320,925	0,930	228,111	113,635
321,939	0,948	227,971	113,569
322,954	0,804	227,735	113,333
323,968	0,991	227,538	113,366
324,983	0,869	227,375	113,182
325,997	0,894	227,255	113,131
327,012	0,798	227,169	113,006
328,027	0,869	227,029	112,980
329,041	0,880	226,908	112,917
330,056	0,847	226,841	112,849
331,070	0,996	226,572	112,817
332,085	0,849	226,532	112,677
333,100	0,807	226,334	112,538
334,114	0,706	226,349	112,459
335,129	0,943	225,958	112,432
336,143	0,945	225,943	112,416
337,158	0,935	225,793	112,323
338,173	1,160	225,666	112,419
339,187	1,073	225,530	112,276
340,202	1,034	225,404	112,174
341,216	0,913	225,218	111,981
342,231	0,871	225,015	111,839
343,246	0,855	224,877	111,749
344,260	1,168	224,758	111,912
345,275	0,864	224,719	111,657
346,289	0,980	224,478	111,613
347,304	0,885	224,363	111,476
348,319	0,903	224,176	111,387
349,333	1,180	224,007	111,497
350,348	1,069	223,794	111,299
351,362	0,809	223,844	111,122
352,377	1,115	223,664	111,249
353,392	1,062	223,544	111,140
354,406	1,050	223,510	111,104
355,421	191,808	1311,410	1375,668
356,435	153,573	1443,804	1375,517
