DTS Sentinel unit serial number:	SN410029Multiplexer serial number:	ORYXHardware model number:	OX2-SRSoftware version number:	ORYX F/W v4,00 Oryx Data Collector v3.7.2.0data status	okinstallation	B5 Nyhavnadifferential loss correction	single-endedforward channel	channel 2reverse channel	N/Adate	2023/12/13time	04:02:13forward acquisition time	300,00reverse acquisition time	0,00gamma	499,1914k internal	0,3159k external	0,3159temperature offset calibration	1,0000default loss term (dB/km)	0,3820temperature slope calibration	1,0000multiplexer offset coefficient	1,0000multiplexer slope coefficient	1,0000fibre end	0,00T internal ref (°C)	13,94T ext. ref 1 (°C)	-2,45T ext. ref 2 (°C)	-2,77length (m)	temperature (°C)	Stokes	anti-Stokes-744,400	231,615	0,095	0,115
-743,385	-43,303	-0,318	-0,118
-742,371	800,000	0,002	0,006
-741,356	-101,560	-0,367	0,065
-740,342	800,000	0,066	0,157
-739,327	-134,035	-0,289	-0,026
-738,312	335,743	0,061	-0,088
-737,298	-29,723	-0,304	-0,127
-736,283	52,454	0,169	0,119
-735,269	120,538	-0,296	0,271
-734,254	-67,041	0,068	-0,020
-733,239	-4,484	-0,463	-0,235
-732,225	97,862	0,157	0,133
-731,210	-200,000	-0,014	0,192
-730,196	-102,265	0,157	0,028
-729,181	-92,023	-0,045	-0,009
-728,167	54,082	0,083	-0,058
-727,152	-192,307	-0,024	-0,000
-726,137	800,000	0,014	0,040
-725,123	103,610	-0,095	0,082
-724,108	-102,838	-0,058	-0,010
-723,094	-57,652	-0,190	-0,061
-722,079	-200,000	-0,031	-0,107
-721,064	-72,093	0,059	-0,016
-720,050	199,170	-0,024	0,027
-719,035	-52,748	-0,126	0,042
-718,021	-131,652	0,015	-0,001
-717,006	-200,000	0,095	0,000
-715,991	-200,000	-0,008	0,039
-714,977	-200,000	-0,012	0,086
-713,962	187,501	-0,030	0,032
-712,948	21,536	0,030	-0,018
-711,933	800,000	-0,021	-0,055
-710,918	-200,000	-0,020	0,094
-709,904	-200,000	-0,004	0,148
-708,889	66,253	-0,124	-0,093
-707,875	16,505	-0,147	-0,085
-706,860	-200,000	-0,111	0,000
-705,845	47,344	0,109	-0,074
-704,831	355,420	-0,076	0,111
-703,816	-107,027	-0,063	0,010
-702,802	-200,000	0,006	0,101
-701,787	-121,546	0,149	-0,018
-700,772	-136,927	0,042	0,004
-699,758	800,000	0,040	0,090
-698,743	145,160	-0,073	0,072
-697,729	-49,694	-0,040	0,014
-696,714	0,842	-0,041	0,022
-695,699	144,734	0,040	-0,040
-694,685	50,007	-0,099	-0,069
-693,670	14,461	0,064	-0,036
-692,656	449,968	-0,034	-0,055
-691,641	-200,000	-0,010	-0,126
-690,627	-200,000	0,018	0,104
-689,612	800,000	0,023	-0,060
-688,597	-200,000	-0,126	0,000
-687,583	-110,713	-0,051	-0,008
-686,568	538,795	0,044	-0,077
-685,554	800,000	-0,047	-0,116
-684,539	81,200	-0,059	0,047
-683,524	-176,332	0,135	0,003
-682,510	-200,000	-0,005	0,072
-681,495	800,000	0,019	-0,054
-680,481	724,781	0,070	-0,139
-679,466	58,660	-0,022	-0,016
-678,451	-75,836	-0,082	0,021
-677,437	63,911	0,078	0,058
-676,422	800,000	0,018	0,050
-675,408	-160,265	-0,052	-0,002
-674,393	57,784	-0,135	-0,097
-673,378	48,413	-0,083	0,057
-672,364	33,411	-0,060	-0,038
-671,349	-200,000	0,014	-0,112
-670,335	-200,000	0,006	-0,121
-669,320	800,000	-0,028	0,076
-668,305	19,393	0,075	-0,044
-667,291	380,637	0,085	0,128
-666,276	-200,000	-0,000	0,069
-665,262	144,621	-0,075	-0,074
-664,247	800,000	0,023	-0,054
-663,232	116,950	-0,067	-0,060
-662,218	332,374	0,053	-0,075
-661,203	129,678	-0,081	-0,076
-660,189	345,311	0,077	0,111
-659,174	800,000	0,052	-0,144
-658,159	-62,532	-0,094	-0,029
-657,145	-200,000	-0,005	0,027
-656,130	-200,000	-0,011	0,168
-655,116	800,000	-0,013	-0,039
-654,101	-200,000	0,017	0,085
-653,086	-16,869	0,049	-0,023
-652,072	409,658	0,043	-0,067
-651,057	270,158	-0,076	-0,098
-650,043	800,000	-0,021	-0,064
-649,028	763,872	-0,046	-0,092
-648,014	-16,157	0,077	-0,036
-646,999	-200,000	-0,024	0,084
-645,984	-200,000	-0,020	-0,107
-644,970	-200,000	-0,035	-0,133
-643,955	-200,000	0,002	-0,011
-642,941	-200,000	-0,025	-0,115
-641,926	38,538	-0,134	-0,088
-640,911	400,311	0,038	0,059
-639,897	800,000	0,046	-0,144
-638,882	-16,172	0,182	0,085
-637,868	-200,000	0,000	0,070
-636,853	13,236	-0,015	-0,008
-635,838	773,394	-0,049	0,098
-634,824	-200,000	-0,015	-0,063
-633,809	800,000	-0,063	0,192
-632,795	450,691	-0,024	0,039
-631,780	-200,000	-0,006	-0,066
-630,765	-138,797	-0,043	-0,003
-629,751	-136,173	-0,168	0,014
-628,736	-200,000	-0,018	0,141
-627,722	80,128	-0,105	-0,083
-626,707	316,058	0,076	0,106
-625,692	800,000	-0,026	0,072
-624,678	17,047	-0,076	0,044
-623,663	-107,178	0,060	0,010
-622,649	-132,365	0,032	-0,003
-621,634	76,735	-0,050	0,039
-620,619	-133,312	0,008	0,001
-619,605	138,611	0,126	0,121
-618,590	-200,000	0,002	-0,040
-617,576	-71,681	-0,131	0,035
-616,561	290,130	-0,070	-0,093
-615,546	106,829	-0,011	0,010
-614,532	188,459	0,023	-0,025
-613,517	141,714	-0,051	0,050
-612,503	-200,000	0,005	-0,056
-611,488	-25,257	0,098	-0,042
-610,474	206,624	-0,084	0,096
-609,459	-200,000	0,005	-0,163
-608,444	-56,922	-0,109	-0,035
-607,430	800,000	-0,025	0,064
-606,415	173,296	-0,056	0,060
-605,401	102,021	-0,082	0,070
-604,386	9,161	0,101	0,056
-603,371	-200,000	0,030	0,116
-602,357	-200,000	-0,020	0,069
-601,342	-19,815	0,129	0,058
-600,328	-180,225	-0,098	-0,001
-599,313	800,000	-0,011	-0,029
-598,298	48,357	0,050	-0,034
-597,284	684,357	0,030	0,057
-596,269	33,985	0,077	-0,049
-595,255	800,000	-0,027	-0,057
-594,240	800,000	-0,035	0,108
-593,225	800,000	-0,032	-0,102
-592,211	12,903	-0,052	-0,029
-591,196	179,694	-0,078	0,084
-590,182	-24,803	0,179	-0,078
-589,167	89,931	-0,050	0,041
-588,152	140,149	-0,054	0,052
-587,138	-35,086	0,055	0,022
-586,123	379,099	0,036	-0,054
-585,109	-200,000	-0,002	0,073
-584,094	108,364	-0,066	-0,058
-583,079	526,101	0,096	-0,166
-582,065	-200,000	0,016	0,095
-581,050	-200,000	-0,003	0,084
-580,036	20,918	-0,117	-0,070
-579,021	800,000	-0,051	-0,148
-578,006	-102,485	-0,023	-0,004
-576,992	-200,000	-0,007	-0,041
-575,977	-125,775	-0,096	0,011
-574,963	316,283	-0,003	-0,004
-573,948	55,453	-0,128	0,090
-572,934	134,156	0,088	0,084
-571,919	-200,000	-0,014	-0,131
-570,904	3,774	-0,096	-0,051
-569,890	-108,474	0,045	0,007
-568,875	105,699	-0,083	0,072
-567,861	-129,378	0,146	-0,015
-566,846	-48,808	-0,051	0,018
-565,831	-200,000	-0,022	0,090
-564,817	272,554	0,060	0,078
-563,802	-200,000	-0,031	-0,102
-562,788	-26,330	0,083	-0,035
-561,773	-100,038	-0,098	0,018
-560,758	-200,000	0,043	0,142
-559,744	630,881	-0,034	0,063
-558,729	214,691	0,074	0,086
-557,715	270,851	0,102	-0,132
-556,700	-200,000	0,039	-0,150
-555,685	38,650	-0,031	0,020
-554,671	-33,185	0,111	-0,045
-553,656	800,000	0,054	-0,166
-552,642	82,965	-0,063	0,050
-551,627	800,000	0,026	-0,078
-550,612	41,569	0,126	-0,083
-549,598	-9,112	-0,064	-0,031
-548,583	209,963	0,123	-0,141
-547,569	-200,000	-0,003	-0,232
-546,554	-60,240	0,187	-0,058
-545,539	14,430	-0,109	0,062
-544,525	119,315	0,009	0,008
-543,510	-36,219	0,110	0,043
-542,496	-16,534	-0,068	-0,031
-541,481	-85,182	-0,045	0,010
-540,466	-200,000	0,030	-0,124
-539,452	-200,000	0,020	0,091
-538,437	-90,495	0,086	0,018
-537,423	452,067	-0,085	0,138
-536,408	-143,516	-0,023	-0,002
-535,393	208,644	-0,050	0,057
-534,379	-112,417	0,069	-0,010
-533,364	96,849	0,096	-0,080
-532,350	800,000	-0,015	0,037
-531,335	-129,209	0,135	-0,014
-530,321	-200,000	-0,029	0,125
-529,306	-200,000	0,002	-0,134
-528,291	800,000	-0,040	0,091
-527,277	21,375	-0,169	0,100
-526,262	-47,190	0,040	0,014
-525,248	-42,819	-0,056	-0,021
-524,233	-200,000	0,017	0,117
-523,218	593,468	0,048	0,087
-522,204	-18,905	0,117	-0,053
-521,189	-115,829	-0,126	0,017
-520,175	-20,791	-0,124	-0,055
-519,160	-200,000	0,023	-0,075
-518,145	-200,000	0,056	0,221
-517,131	58,050	0,079	0,056
-516,116	-200,000	0,016	0,207
-515,102	-46,487	0,081	-0,029
-514,087	-200,000	0,010	-0,054
-513,072	464,406	-0,097	0,160
-512,058	568,320	-0,047	0,083
-511,043	-122,350	0,144	-0,017
-510,029	750,259	0,042	0,082
-509,014	-200,000	-0,022	0,185
-507,999	8,838	0,033	-0,018
-506,985	-20,657	0,139	-0,062
-505,970	-200,000	-0,021	-0,086
-504,956	120,719	0,053	-0,048
-503,941	-87,228	-0,087	-0,019
-502,926	6,738	0,063	0,034
-501,912	11,115	0,079	0,044
-500,897	-72,581	-0,172	-0,046
-499,883	604,562	-0,061	0,112
-498,868	-157,279	-0,031	0,001
-497,853	-36,288	0,083	0,032
-496,839	800,000	0,054	0,111
-495,824	68,791	0,041	-0,030
-494,810	569,882	0,065	0,116
-493,795	49,752	0,110	0,076
-492,781	-138,142	-0,092	0,007
-491,766	339,362	0,025	-0,036
-490,751	73,121	-0,045	0,034
-489,737	130,178	0,107	0,100
-488,722	-200,000	0,055	-0,215
-487,708	-52,494	0,075	0,025
-486,693	-111,467	-0,009	0,001
-485,678	-140,385	-0,025	-0,002
-484,664	488,336	0,059	-0,098
-483,649	800,000	0,022	-0,064
-482,635	-7,970	0,017	0,008
-481,620	10,277	-0,098	-0,054
-480,605	-134,106	0,062	-0,005
-479,591	-38,882	-0,059	-0,022
-478,576	-141,625	-0,181	0,013
-477,562	117,798	-0,021	-0,019
-476,547	372,574	-0,028	-0,042
-475,532	631,840	-0,076	-0,141
-474,518	-200,000	0,005	-0,098
-473,503	147,474	0,048	0,047
-472,489	10,656	-0,045	-0,025
-471,474	-200,000	-0,018	-0,102
-470,459	-14,373	0,063	-0,029
-469,445	-18,708	-0,108	-0,049
-468,430	417,037	0,071	0,111
-467,416	-107,683	-0,146	0,023
-466,401	-108,562	0,071	0,011
-465,386	117,190	-0,048	0,043
-464,372	132,106	0,123	0,115
-463,357	286,008	0,012	-0,016
-462,343	800,000	0,020	-0,058
-461,328	37,467	-0,025	0,016
-460,313	-49,447	-0,073	-0,025
-459,299	53,492	0,104	-0,073
-458,284	-5,394	0,127	0,063
-457,270	380,328	-0,021	0,032
-456,255	-38,600	-0,053	-0,020
-455,241	133,110	-0,109	-0,103
-454,226	-200,000	0,032	-0,124
-453,211	800,000	-0,025	-0,056
-452,197	-13,423	-0,046	-0,022
-451,182	800,000	0,020	-0,051
-450,168	334,852	-0,067	0,094
-449,153	-102,478	-0,171	-0,029
-448,138	211,682	-0,059	-0,068
-447,124	-32,640	-0,035	0,014
-446,109	138,070	-0,125	0,119
-445,095	-200,000	0,004	0,105
-444,080	-78,490	0,046	-0,011
-443,065	45,993	-0,167	0,112
-442,051	-200,000	0,027	0,123
-441,036	-74,856	-0,111	-0,029
-440,022	-28,603	0,101	-0,042
-439,007	-200,000	-0,005	0,028
-437,992	132,542	0,088	0,083
-436,978	71,140	0,028	0,021
-435,963	-200,000	0,034	0,123
-434,949	-48,902	0,064	-0,022
-433,934	87,791	0,047	0,038
-432,919	800,000	0,033	-0,073
-431,905	292,480	-0,058	-0,077
-430,890	-200,000	0,004	-0,068
-429,876	491,420	0,033	-0,056
-428,861	4,575	0,072	0,039
-427,846	248,343	0,045	0,055
-426,832	299,046	0,033	-0,044
-425,817	38,156	0,067	-0,043
-424,803	314,752	0,044	0,061
-423,788	-38,775	0,068	0,026
-422,773	-48,184	-0,042	0,015
-421,759	336,781	-0,044	-0,062
-420,744	-200,000	-0,014	-0,073
-419,730	-98,286	-0,165	-0,031
-418,715	472,188	0,012	-0,019
-417,701	-200,000	-0,008	0,091
-416,686	-119,201	-0,127	-0,016
-415,671	-103,015	0,075	0,013
-414,657	-33,738	0,030	0,012
-413,642	73,208	-0,051	0,039
-412,628	112,733	0,071	-0,063
-411,613	123,608	-0,057	0,052
-410,598	97,471	-0,114	-0,095
-409,584	7,766	-0,098	0,053
-408,569	800,000	0,021	0,066
-407,555	-147,943	-0,042	0,003
-406,540	-134,413	0,017	0,001
-405,525	-69,837	-0,097	0,027
-404,511	130,061	-0,108	-0,101
-403,496	-85,466	0,063	0,014
-402,482	-64,353	-0,066	-0,019
-401,467	-94,087	0,190	0,038
-400,452	107,626	-0,050	0,043
-399,438	668,832	-0,034	-0,064
-398,423	-200,000	0,019	-0,125
-397,409	-138,426	-0,120	-0,009
-396,394	-122,731	0,084	-0,010
-395,379	41,406	-0,115	-0,075
-394,365	-73,459	0,015	0,004
-393,350	-200,000	0,012	0,115
-392,336	133,484	-0,046	-0,043
-391,321	170,081	0,068	0,071
-390,306	-59,432	-0,012	0,004
-389,292	-96,717	-0,012	-0,002
-388,277	-112,783	0,093	0,013
-387,263	-200,000	-0,016	0,086
-386,248	-200,000	0,017	-0,083
-385,233	157,678	0,070	0,070
-384,219	-63,071	-0,138	-0,041
-383,204	-165,708	-0,040	0,001
-382,190	800,000	-0,046	-0,095
-381,175	800,000	0,085	-0,189
-380,160	74,007	-0,023	-0,017
-379,146	123,893	0,128	-0,117
-378,131	800,000	0,032	0,076
-377,117	403,107	-0,072	-0,110
-376,102	44,202	0,124	0,082
-375,088	-91,631	0,130	0,027
-374,073	46,300	0,160	0,108
-373,058	-39,459	-0,120	0,046
-372,044	-84,890	-0,176	-0,040
-371,029	179,104	0,110	0,117
-370,015	-200,000	0,003	0,082
-369,000	-129,131	0,061	0,006
-367,985	-105,663	-0,067	-0,011
-366,971	-7,067	0,086	0,042
-365,956	800,000	0,047	0,122
-364,942	239,794	0,091	0,111
-363,927	33,080	0,065	-0,041
-362,912	-70,639	0,021	-0,006
-361,898	169,828	-0,055	-0,057
-360,883	8,918	-0,110	-0,060
-359,869	-72,259	0,055	0,015
-358,854	73,964	-0,038	-0,029
-357,839	-59,985	-0,015	0,005
-356,825	-200,000	0,016	-0,058
-355,810	286,032	-0,022	-0,028
-354,796	44,723	-0,154	0,102
-353,781	-145,858	-0,047	-0,003
-352,766	-46,929	0,064	0,023
-351,752	-53,186	-0,074	0,025
-350,737	172,869	0,048	0,050
-349,723	-43,588	-0,037	0,013
-348,708	-174,484	-0,071	0,001
-347,693	800,000	-0,014	-0,031
-346,679	-200,000	-0,025	0,121
-345,664	800,000	-0,049	0,116
-344,650	141,518	-0,041	0,039
-343,635	-74,591	-0,051	-0,013
-342,620	102,452	-0,047	0,040
-341,606	-185,149	0,054	0,001
-340,591	-97,084	-0,085	0,016
-339,577	1,591	-0,048	0,025
-338,562	47,559	-0,078	-0,052
-337,548	27,766	-0,073	-0,045
-336,533	493,153	0,039	-0,064
-335,518	-63,028	0,140	0,042
-334,504	800,000	0,040	0,083
-333,489	243,207	0,072	-0,087
-332,475	-52,909	-0,102	0,034
-331,460	11,592	-0,040	-0,022
-330,445	-6,981	-0,101	0,050
-329,431	-152,332	-0,031	-0,002
-328,416	-75,377	-0,026	-0,007
-327,402	800,000	0,069	0,205
-326,387	-85,251	0,045	-0,010
-325,372	364,944	-0,017	0,025
-324,358	54,240	-0,077	-0,054
-323,343	-200,000	-0,003	-0,071
-322,329	-13,566	-0,088	0,041
-321,314	172,760	0,061	-0,064
-320,299	-200,000	0,001	0,003
-319,285	-200,000	-0,010	0,066
-318,270	299,327	-0,073	-0,097
-317,256	-80,229	-0,155	-0,037
-316,241	194,119	0,091	-0,100
-315,226	-200,000	-0,016	-0,069
-314,212	-149,005	0,148	0,008
-313,197	-95,120	0,052	0,010
-312,183	514,882	0,009	-0,015
-311,168	2,047	0,065	-0,034
-310,153	-126,446	-0,098	0,010
-309,139	-94,227	-0,107	0,021
-308,124	-37,320	0,046	-0,018
-307,110	-154,674	0,207	-0,010
-306,095	800,000	0,020	-0,043
-305,080	-100,562	-0,086	0,015
-304,066	31,520	-0,032	-0,020
-303,051	-200,000	-0,020	-0,120
-302,037	62,318	0,102	0,073
-301,022	800,000	0,049	0,109
-300,008	-200,000	0,009	0,130
-298,993	-22,407	0,208	0,091
-297,978	-200,000	0,030	0,115
-296,964	308,871	0,077	-0,105
-295,949	35,470	-0,010	-0,007
-294,935	800,000	-0,050	0,118
-293,920	542,711	-0,038	-0,065
-292,905	131,227	0,120	0,112
-291,891	800,000	0,005	-0,014
-290,876	-16,779	-0,057	-0,026
-289,862	152,156	-0,044	0,044
-288,847	489,981	-0,089	-0,147
-287,832	-47,801	0,103	-0,036
-286,818	-200,000	0,002	-0,009
-285,803	-20,944	0,036	-0,016
-284,789	-19,121	-0,076	-0,034
-283,774	-59,820	-0,076	0,023
-282,759	-15,422	0,028	0,013
-281,745	44,458	0,056	-0,037
-280,730	-43,562	0,122	-0,044
-279,716	195,786	-0,059	-0,065
-278,701	-123,602	-0,007	0,001
-277,686	71,292	-0,016	0,012
-276,672	79,593	-0,025	-0,019
-275,657	-20,209	-0,067	-0,030
-274,643	-200,000	0,003	-0,018
-273,628	-200,000	0,000	-0,101
-272,613	185,955	-0,083	-0,089
-271,599	-158,600	0,139	-0,006
-270,584	361,236	-0,074	-0,108
-269,570	-200,000	0,014	-0,058
-268,555	268,611	0,089	-0,114
-267,540	85,753	0,033	-0,026
-266,526	-150,573	-0,027	-0,001
-265,511	-200,000	-0,015	-0,085
-264,497	800,000	0,027	-0,054
-263,482	-48,050	0,086	0,030
-262,467	29,756	-0,105	0,064
-261,453	50,524	-0,083	-0,057
-260,438	-200,000	0,024	0,096
-259,424	-119,351	-0,199	-0,025
-258,409	142,306	-0,109	0,105
-257,395	199,610	-0,057	-0,063
-256,380	-200,000	-0,008	-0,027
-255,365	-63,357	0,048	0,014
-254,351	-123,526	-0,101	0,011
-253,336	-65,976	0,042	0,012
-252,322	-150,907	-0,085	0,005
-251,307	-200,000	0,014	-0,129
-250,292	100,501	0,045	-0,038
-249,278	-79,469	0,105	0,025
-248,263	-127,359	-0,087	0,009
-247,249	238,087	-0,033	0,039
-246,234	56,432	-0,027	0,019
-245,219	-25,528	0,090	-0,038
-244,205	-200,000	-0,002	-0,039
-243,190	229,494	-0,053	-0,063
-242,176	11,523	-0,009	-0,005
-241,161	800,000	0,041	-0,122
-240,146	97,576	-0,020	-0,016
-239,132	-200,000	0,024	0,079
-238,117	-108,348	-0,128	0,020
-237,103	-66,961	0,065	0,019
-236,088	-200,000	0,023	0,096
-235,073	-200,000	-0,008	-0,073
-234,059	800,000	0,018	0,053
-233,044	208,361	-0,088	0,099
-232,030	800,000	-0,029	0,076
-231,015	13,274	0,110	-0,061
-230,000	43,791	0,157	-0,104
-228,986	800,000	-0,041	0,105
-227,971	-62,758	0,083	0,025
-226,957	499,493	0,064	-0,108
-225,942	245,618	-0,016	0,020
-224,927	259,732	0,071	-0,089
-223,913	34,064	0,114	0,072
-222,898	-66,194	-0,091	-0,026
-221,884	-99,731	-0,103	0,019
-220,869	-78,828	0,203	0,050
-219,855	800,000	0,096	0,193
-218,840	30,015	-0,146	0,090
-217,825	800,000	-0,022	-0,062
-216,811	800,000	0,032	-0,082
-215,796	-18,506	0,109	-0,049
-214,782	6,525	-0,079	-0,042
-213,767	292,868	0,049	0,065
-212,752	143,181	-0,085	0,081
-211,738	-179,691	0,060	-0,001
-210,723	-123,137	0,054	0,006
-209,709	-200,000	0,014	-0,070
-208,694	582,376	0,061	-0,109
-207,679	715,343	0,021	-0,040
-206,665	-200,000	-0,002	0,044
-205,650	281,032	-0,076	0,099
-204,636	800,000	-0,014	0,030
-203,621	180,797	0,070	-0,074
-202,606	52,605	-0,061	-0,042
-201,592	519,477	-0,088	-0,149
-200,577	-167,899	-0,049	-0,001
-199,563	-114,933	0,037	0,005
-198,548	-200,000	-0,001	-0,042
-197,533	-117,956	-0,028	-0,004
-196,519	99,481	-0,029	0,024
-195,504	230,985	0,052	-0,061
-194,490	221,791	-0,031	0,036
-193,475	-65,865	-0,082	-0,023
-192,460	800,000	0,021	-0,058
-191,446	-8,171	0,068	0,033
-190,431	-6,817	-0,130	0,063
-189,417	800,000	0,034	0,110
-188,402	616,975	-0,045	0,081
-187,387	-156,759	-0,140	0,006
-186,373	148,451	0,076	-0,074
-185,358	161,557	0,059	0,060
-184,344	276,650	0,076	-0,098
-183,329	196,617	0,051	-0,056
-182,315	211,095	0,086	0,097
-181,300	54,911	-0,024	-0,017
-180,285	294,714	0,085	-0,112
-179,271	800,000	0,047	-0,118
-178,256	-200,000	0,031	0,099
-177,242	800,000	-0,028	-0,069
-176,227	-7,171	-0,092	-0,045
-175,212	800,000	0,047	0,106
-174,198	-4,447	0,092	0,046
-173,183	359,606	-0,007	0,011
-172,169	415,264	-0,051	-0,079
-171,154	155,282	0,009	-0,009
-170,139	800,000	0,036	0,113
-169,125	-86,619	0,152	-0,033
-168,110	-200,000	0,009	0,149
-167,096	638,703	0,022	-0,041
-166,081	400,570	0,090	-0,136
-165,066	800,000	0,035	-0,108
-164,052	137,683	0,018	0,017
-163,037	-60,213	0,043	0,013
-162,023	-63,212	0,081	0,024
-161,008	800,000	-0,041	0,124
-159,993	184,747	-0,009	-0,009
-158,979	-60,444	-0,048	-0,015
-157,964	-38,865	-0,049	-0,019
-156,950	266,679	0,087	-0,110
-155,935	-125,316	0,029	-0,003
-154,920	-200,000	-0,006	0,056
-153,906	210,686	-0,036	-0,041
-152,891	219,163	0,013	0,015
-151,877	784,240	0,031	-0,062
-150,862	77,127	-0,132	-0,101
-149,847	-118,015	-0,076	-0,010
-148,833	86,031	0,048	-0,038
-147,818	-200,000	0,019	-0,062
-146,804	174,057	-0,062	0,065
-145,789	203,653	0,032	0,036
-144,775	-29,574	-0,097	-0,040
-143,760	38,251	0,098	-0,063
-142,745	800,000	0,034	-0,103
-141,731	-200,000	0,014	-0,058
-140,716	800,000	0,030	0,092
-139,702	2,608	0,092	0,048
-138,687	47,039	0,088	0,059
-137,672	-14,033	0,062	-0,029
-136,658	-200,000	-0,025	-0,091
-135,643	-200,000	0,015	-0,113
-134,629	451,876	-0,020	-0,031
-133,614	-46,783	-0,075	0,026
-132,599	-3,652	0,041	0,020
-131,585	-200,000	-0,020	0,082
-130,570	173,044	0,124	-0,129
-129,556	110,926	0,029	0,025
-128,541	-61,842	0,117	0,035
-127,526	-200,000	-0,023	-0,082
-126,512	800,000	-0,010	0,025
-125,497	800,000	0,016	0,042
-124,483	77,421	-0,066	-0,051
-123,468	-200,000	-0,046	0,242
-122,453	-33,856	0,135	-0,053
-121,439	-200,000	0,028	-0,091
-120,424	146,917	0,082	0,080
-119,410	27,847	-0,048	0,029
-118,395	134,837	0,058	-0,054
-117,380	415,819	0,086	0,133
-116,366	31,455	-0,025	-0,016
-115,351	73,005	-0,148	0,111
-114,337	-53,657	-0,044	-0,014
-113,322	246,101	0,027	0,032
-112,307	-200,000	-0,002	0,069
-111,293	-82,647	0,127	0,029
-110,278	-200,000	-0,011	-0,046
-109,264	-113,982	-0,105	-0,014
-108,249	-67,946	-0,052	-0,015
-107,234	380,304	0,043	-0,063
-106,220	34,863	-0,043	-0,027
-105,205	320,530	-0,060	0,083
-104,191	168,259	0,068	0,070
-103,176	-200,000	0,024	0,094
-102,162	11,006	0,013	0,007
-101,147	380,121	0,043	0,063
-100,132	-200,000	0,013	-0,050
-99,118	138,463	0,079	-0,074
-98,103	-200,000	-0,027	0,146
-97,089	-85,315	0,099	0,022
-96,074	-67,732	-0,102	-0,028
-95,059	-200,000	0,000	-0,032
-94,045	-152,025	0,039	-0,002
-93,030	125,292	-0,127	0,115
-92,016	-200,000	0,004	0,036
-91,001	339,496	-0,032	-0,044
-89,986	-40,672	0,122	-0,045
-88,972	233,542	0,019	0,023
-87,957	800,000	-0,038	0,105
-86,943	800,000	-0,036	-0,077
-85,928	-200,000	-0,011	-0,195
-84,913	151,687	-0,091	-0,089
-83,899	56,854	0,012	0,009
-82,884	120,211	-0,048	-0,043
-81,870	83,396	-0,026	0,020
-80,855	-29,657	-0,031	0,013
-79,840	273,424	0,030	-0,038
-78,826	15,902	-0,112	0,063
-77,811	800,000	-0,068	0,140
-76,797	-83,294	-0,030	0,007
-75,782	800,000	-0,041	0,101
-74,767	148,401	0,037	0,036
-73,753	800,000	0,031	0,085
-72,738	196,127	0,007	-0,007
-71,724	-200,000	0,013	0,057
-70,709	105,636	-0,015	0,013
-69,694	-122,212	-0,132	-0,015
-68,680	800,000	-0,019	-0,042
-67,665	43,345	0,006	0,004
-66,651	-109,870	0,110	0,016
-65,636	527,662	0,069	0,117
-64,622	800,000	-0,048	-0,103
-63,607	-200,000	0,014	-0,056
-62,592	56,394	0,092	0,064
-61,578	-200,000	0,001	0,061
-60,563	-200,000	0,017	0,081
-59,549	800,000	-0,004	0,011
-58,534	37,188	-1,954	-1,239
-57,519	-200,000	-0,156	-0,790
-56,505	-200,000	-1,390	-5,007
-55,490	103,435	0,772	0,650
-54,476	800,000	5,387	11,997
-53,461	-200,000	18,476	311,840
-52,446	800,000	740,135	2319,115
-51,432	556,166	1656,193	2872,627
-50,417	110,680	1640,124	1414,556
-49,403	74,967	1290,030	973,600
-48,388	30,473	1030,689	630,421
-47,373	19,950	993,442	572,785
-46,359	17,638	980,979	557,969
-45,344	14,329	977,029	544,827
-44,330	14,621	975,578	544,958
-43,315	13,982	973,616	541,743
-42,300	13,960	972,602	541,086
-41,286	13,965	971,630	540,540
-40,271	13,987	970,601	540,017
-39,257	13,940	969,785	539,388
-38,242	13,932	969,030	538,920
-37,227	13,989	968,095	538,566
-36,213	13,969	967,176	537,968
-35,198	13,909	966,162	537,187
-34,184	14,021	965,518	537,174
-33,169	13,925	964,618	536,339
-32,154	13,974	963,604	535,914
-31,140	13,983	962,845	535,498
-30,125	13,997	962,057	535,083
-29,111	13,945	961,208	534,423
-28,096	14,008	960,544	534,235
-27,082	13,957	959,790	533,632
-26,067	13,999	958,813	533,201
-25,052	13,981	958,187	532,775
-24,038	13,961	957,651	532,389
-23,023	13,987	956,928	532,053
-22,009	14,027	956,331	531,828
-20,994	13,979	955,727	531,314
-19,979	13,952	955,246	530,940
-18,965	14,027	954,320	530,646
-17,950	14,000	954,068	530,397
-16,936	13,947	953,164	529,703
-15,921	13,933	952,651	529,355
-14,906	13,908	951,750	528,751
-13,892	13,875	951,121	528,277
-12,877	13,822	950,580	527,784
-11,863	13,808	950,066	527,434
-10,848	13,807	949,313	526,992
-9,833	13,953	948,806	527,154
-8,819	13,967	948,081	526,776
-7,804	13,857	947,588	526,131
-6,790	13,921	946,869	525,915
-5,775	13,864	946,444	525,477
-4,760	13,892	945,828	525,200
-3,746	13,879	945,317	524,857
-2,731	13,727	944,629	523,971
-1,717	13,743	943,715	523,493
-0,702	13,747	943,195	523,197
0,313	13,522	942,509	522,893
1,327	16,739	940,384	531,846
2,342	25,572	795,601	473,423
3,356	21,948	460,190	268,251
4,371	-4,592	317,157	156,400
5,386	-8,687	298,990	143,246
6,400	-10,666	292,855	138,311
7,415	-10,929	290,307	136,834
8,429	-11,239	288,851	135,830
9,444	-11,203	287,947	135,428
10,459	-11,190	287,254	135,103
11,473	-11,077	286,669	134,926
12,488	-11,357	286,369	134,499
13,502	-11,308	285,741	134,239
14,517	-11,120	285,176	134,146
15,531	-11,043	284,786	134,025
16,546	-11,136	284,462	133,771
17,561	-11,173	284,123	133,563
18,575	-11,078	283,740	133,464
19,590	-11,140	283,373	133,219
20,604	-11,150	282,929	132,988
21,619	-11,226	282,726	132,807
22,634	-11,405	282,327	132,435
23,648	-11,184	281,980	132,474
24,663	-11,300	281,918	132,322
25,677	-11,248	281,499	132,163
26,692	-11,293	281,143	131,941
27,707	-11,241	280,876	131,854
28,721	-11,074	280,552	131,850
29,736	-11,136	280,309	131,665
30,750	-11,220	280,061	131,456
31,765	-11,256	279,847	131,309
32,780	-11,188	279,688	131,288
33,794	-11,157	279,376	131,160
34,809	-11,156	279,109	131,023
35,823	-11,222	278,758	130,784
36,838	-11,241	278,400	130,586
37,853	-11,297	278,184	130,420
38,867	-11,288	278,204	130,427
39,882	-11,316	277,887	130,240
40,896	-11,209	277,629	130,209
41,911	-11,316	277,219	129,903
42,926	-11,374	277,164	129,811
43,940	-11,341	276,862	129,690
44,955	-11,343	276,568	129,538
45,969	-11,282	276,221	129,422
46,984	-11,352	275,972	129,228
47,999	-11,670	275,799	128,836
49,013	-11,818	275,553	128,571
50,028	-11,719	275,101	128,441
51,042	-11,849	274,929	128,228
52,057	-11,993	274,733	127,989
53,071	-11,775	274,374	128,015
54,086	-11,848	274,320	127,910
55,101	-11,803	274,205	127,887
56,115	-11,537	273,992	128,024
57,130	-11,245	274,007	128,293
58,144	-11,113	273,660	128,242
59,159	-11,097	273,412	128,129
60,174	-11,164	273,181	127,947
61,188	-11,246	273,012	127,780
62,203	-11,009	272,638	127,814
63,217	-10,917	272,493	127,820
64,232	-11,187	272,340	127,487
65,247	-11,150	272,043	127,371
66,261	-11,025	271,734	127,330
67,276	-11,280	271,627	127,033
68,290	-11,453	271,274	126,697
69,305	-11,676	271,055	126,378
70,320	-11,378	270,764	126,505
71,334	-11,325	270,717	126,521
72,349	-11,136	270,462	126,564
73,363	-11,221	270,392	126,442
74,378	-11,119	270,144	126,409
75,393	-11,240	269,911	126,177
76,407	-11,261	269,696	126,046
77,422	-11,046	269,452	126,117
78,436	-10,894	269,066	126,065
79,451	-11,126	268,990	125,805
80,466	-11,197	268,833	125,656
81,480	-11,267	268,482	125,417
82,495	-11,220	268,247	125,339
83,509	-11,179	268,156	125,322
84,524	-11,209	267,852	125,142
85,539	-11,282	267,665	124,977
86,553	-11,544	267,399	124,604
87,568	-11,267	267,178	124,741
88,582	-11,348	267,136	124,637
89,597	-11,424	266,879	124,437
90,611	-11,294	266,575	124,402
91,626	-11,038	266,365	124,524
92,641	-11,143	266,280	124,379
93,655	-11,372	266,184	124,115
94,670	-11,419	265,838	123,900
95,684	-11,178	265,604	123,998
96,699	-11,345	265,400	123,742
97,714	-11,160	265,175	123,792
98,728	-11,301	264,993	123,569
99,743	-11,449	264,608	123,246
100,757	-11,437	264,373	123,136
101,772	-11,367	264,306	123,157
102,787	-11,361	264,107	123,058
103,801	-11,149	263,907	123,143
104,816	-11,121	263,699	123,061
105,830	-11,028	263,651	123,111
106,845	-11,069	263,410	122,951
107,860	-11,160	263,211	122,765
108,874	-11,062	263,042	122,763
109,889	-11,253	262,999	122,561
110,903	-11,293	262,600	122,330
111,918	-11,213	262,412	122,302
112,933	-11,336	262,167	122,068
113,947	-11,149	262,052	122,169
114,962	-11,268	261,995	122,025
115,976	-11,022	261,518	122,011
116,991	-11,204	261,517	121,838
118,006	-11,120	261,197	121,753
119,020	-11,032	261,101	121,775
120,035	-11,083	260,968	121,657
121,049	-11,082	260,750	121,546
122,064	-11,105	260,497	121,397
123,079	-11,115	260,331	121,299
124,093	-11,113	260,098	121,182
125,108	-11,443	259,737	120,713
126,122	-11,505	259,572	120,570
127,137	-11,653	259,465	120,380
128,151	-11,438	259,244	120,455
129,166	-11,409	259,022	120,367
130,181	-11,512	258,861	120,191
131,195	-11,414	258,745	120,213
132,210	-11,201	258,543	120,294
133,224	-11,190	258,356	120,206
134,239	-11,157	258,277	120,187
135,254	-11,211	257,997	119,999
136,268	-11,144	257,705	119,911
137,283	-11,560	257,488	119,437
138,297	-11,543	257,244	119,328
139,312	-11,524	256,949	119,198
140,327	-11,293	256,840	119,337
141,341	-10,979	256,970	119,659
142,356	-11,027	256,657	119,461
143,370	-11,099	256,620	119,371
144,385	-10,851	256,282	119,418
145,400	-10,847	256,013	119,286
146,414	-10,979	255,908	119,112
147,429	-11,018	255,722	118,980
148,443	-11,006	255,612	118,930
149,458	-10,970	255,423	118,862
150,473	-10,867	255,210	118,841
151,487	-11,036	254,882	118,532
152,502	-11,056	254,814	118,473
153,516	-10,749	254,601	118,627
154,531	-10,954	254,565	118,423
155,546	-10,873	254,204	118,315
156,560	-10,838	254,051	118,263
157,575	-11,008	253,841	118,009
158,589	-10,929	253,628	117,967
159,604	-10,977	253,623	117,912
160,619	-11,002	253,375	117,766
161,633	-10,965	253,185	117,698
162,648	-10,898	252,980	117,650
163,662	-11,028	252,963	117,520
164,677	-10,976	252,563	117,369
165,692	-10,875	252,447	117,390
166,706	-10,792	252,410	117,433
167,721	-10,869	252,027	117,179
168,735	-10,829	251,949	117,167
169,750	-10,834	251,861	117,111
170,764	-10,980	251,781	116,939
171,779	-10,907	251,574	116,895
172,794	-10,974	251,470	116,779
173,808	-11,104	251,178	116,523
174,823	-11,216	250,763	116,225
175,837	-11,392	250,599	115,991
176,852	-11,181	250,710	116,209
177,867	-10,900	250,456	116,319
178,881	-10,944	250,350	116,221
179,896	-10,938	250,180	116,137
180,910	-10,943	249,964	116,023
181,925	-11,062	249,888	115,877
182,940	-10,808	249,640	115,965
183,954	-10,855	249,461	115,832
184,969	-10,940	249,441	115,741
185,983	-10,800	249,134	115,706
186,998	-10,737	248,882	115,631
188,013	-10,900	248,641	115,373
189,027	-10,973	248,570	115,268
190,042	-10,954	248,413	115,201
191,056	-10,895	248,234	115,157
192,071	-10,915	248,189	115,109
193,086	-10,805	247,998	115,102
194,100	-10,927	247,669	114,838
195,115	-10,901	247,603	114,819
196,129	-10,761	247,320	114,793
197,144	-10,950	247,136	114,540
198,159	-10,933	246,944	114,456
199,173	-11,011	246,819	114,323
200,188	-10,943	246,710	114,319
201,202	-11,187	246,377	113,952
202,217	-11,428	246,031	113,582
203,232	-11,286	245,839	113,601
204,246	-11,206	245,889	113,680
205,261	-10,868	245,806	113,910
206,275	-11,508	245,321	113,148
207,290	-7,876	246,970	116,913
208,304	0,353	249,570	125,014
209,319	4,063	250,585	128,615
210,334	4,716	250,519	129,115
211,348	4,881	250,555	129,260
212,363	5,163	250,407	129,408
213,377	5,095	250,295	129,281
214,392	4,994	250,105	129,087
215,407	4,895	249,875	128,874
216,421	4,818	249,687	128,703
217,436	5,274	249,558	129,003
218,450	5,376	249,444	129,017
219,465	4,802	249,307	128,459
220,480	4,620	249,049	128,163
221,494	4,705	248,740	128,063
222,509	4,657	248,788	128,037
223,523	4,598	248,616	127,888
224,538	4,539	248,103	127,564
225,553	4,522	248,132	127,554
226,567	4,611	248,073	127,585
227,582	4,578	247,846	127,430
228,596	4,440	247,688	127,223
229,611	4,228	247,511	126,947
230,626	4,204	247,249	126,781
231,640	4,346	247,191	126,857
232,655	4,167	247,163	126,684
233,669	4,330	246,717	126,578
234,684	4,167	246,495	126,320
235,699	4,449	246,628	126,608
236,713	4,747	246,350	126,697
237,728	4,454	246,266	126,404
238,742	4,274	246,037	126,127
239,757	4,324	245,818	126,045
240,772	4,206	245,695	125,874
241,786	4,325	245,545	125,883
242,801	4,123	245,364	125,614
243,815	4,026	245,259	125,470
244,830	4,513	245,133	125,791
245,844	4,368	244,973	125,579
246,859	4,539	244,684	125,559
247,874	4,353	244,523	125,314
248,888	4,484	244,222	125,255
249,903	4,289	244,348	125,150
250,917	4,401	244,136	125,122
251,932	4,869	243,983	125,411
252,947	4,557	243,923	125,117
253,961	4,314	243,646	124,766
254,976	4,468	243,473	124,792
255,990	4,520	243,341	124,755
257,005	4,401	243,084	124,516
258,020	4,045	243,075	124,213
259,034	4,078	242,862	124,120
260,049	4,528	242,646	124,360
261,063	4,268	242,423	124,027
262,078	4,402	242,341	124,081
263,093	4,522	242,283	124,136
264,107	4,557	242,150	124,085
265,122	4,557	241,797	123,893
266,136	4,340	241,862	123,742
267,151	4,684	241,647	123,896
268,166	4,193	241,387	123,359
269,180	4,138	241,353	123,286
270,195	4,727	241,164	123,649
271,209	5,095	241,208	123,955
272,224	4,198	240,905	123,072
273,239	4,118	240,565	122,824
274,253	4,070	240,414	122,697
275,268	4,377	240,353	122,901
276,282	4,552	240,233	122,967
277,297	4,006	239,924	122,364
278,312	4,486	239,724	122,632
279,326	4,459	239,856	122,668
280,341	4,578	239,375	122,505
281,355	4,433	239,477	122,431
282,370	4,437	239,341	122,354
283,384	4,492	239,165	122,296
284,399	4,199	239,037	121,988
285,414	4,014	238,719	121,669
286,428	4,189	238,636	121,755
287,443	4,285	238,520	121,760
288,457	4,446	238,459	121,845
289,472	4,518	238,135	121,725
290,487	4,567	238,047	121,708
291,501	4,438	237,807	121,473
292,516	4,070	237,577	121,055
293,530	3,883	237,527	120,872
294,545	4,486	237,339	121,239
295,560	4,569	237,212	121,229
296,574	4,178	237,082	120,845
297,589	4,229	236,978	120,820
298,603	4,598	236,877	121,047
299,618	4,725	236,704	121,048
300,633	4,510	236,563	120,797
301,647	4,629	236,496	120,844
302,662	4,929	236,457	121,049
303,676	4,675	236,329	120,774
304,691	4,710	236,077	120,661
305,706	4,620	236,063	120,573
306,720	4,692	235,778	120,473
307,735	4,382	235,651	120,157
308,749	4,542	235,398	120,140
309,764	4,159	235,233	119,748
310,779	3,946	235,072	119,491
311,793	4,234	234,706	119,517
312,808	4,339	234,570	119,519
313,822	4,147	234,415	119,280
314,837	4,047	234,361	119,165
315,852	4,041	234,162	119,048
316,866	4,288	234,218	119,257
317,881	4,377	233,930	119,168
318,895	4,270	233,730	118,973
319,910	4,219	233,700	118,908
320,925	4,558	233,637	119,127
321,939	4,376	233,204	118,755
322,954	4,701	233,403	119,097
323,968	4,524	233,262	118,878
324,983	4,483	233,021	118,713
325,997	4,768	232,842	118,830
327,012	4,690	232,712	118,693
328,027	4,387	232,643	118,415
329,041	4,724	232,562	118,622
330,056	5,081	232,271	118,736
331,070	4,992	232,432	118,740
332,085	4,744	232,052	118,345
333,100	4,559	232,030	118,181
334,114	4,564	231,680	117,996
335,129	4,872	231,588	118,175
336,143	5,146	231,409	118,282
337,158	4,844	231,348	118,010
338,173	4,657	231,119	117,740
339,187	4,638	230,879	117,593
340,202	4,360	230,874	117,368
341,216	4,507	230,499	117,278
342,231	4,410	230,532	117,211
343,246	4,336	230,397	117,076
344,260	4,618	230,307	117,234
345,275	4,833	230,208	117,336
346,289	4,949	230,014	117,314
347,304	4,830	229,819	117,114
348,319	4,790	229,738	117,032
349,333	4,507	229,601	116,738
350,348	4,446	229,280	116,519
351,362	4,601	229,244	116,607
352,377	4,332	228,982	116,260
353,392	4,010	228,968	116,000
354,406	4,141	228,883	116,046
355,421	194,968	1318,993	1392,940
356,435	156,362	1451,770	1392,906
