DTS Sentinel unit serial number:	SN410029Multiplexer serial number:	ORYXHardware model number:	OX2-SRSoftware version number:	ORYX F/W v4,00 Oryx Data Collector v3.7.2.0data status	okinstallation	B5 Nyhavnadifferential loss correction	single-endedforward channel	channel 2reverse channel	N/Adate	2023/12/13time	07:42:13forward acquisition time	300,00reverse acquisition time	0,00gamma	499,1914k internal	0,3160k external	0,3160temperature offset calibration	1,0000default loss term (dB/km)	0,3820temperature slope calibration	1,0000multiplexer offset coefficient	1,0000multiplexer slope coefficient	1,0000fibre end	0,00T internal ref (°C)	13,68T ext. ref 1 (°C)	-2,80T ext. ref 2 (°C)	-3,10length (m)	temperature (°C)	Stokes	anti-Stokes-744,400	39,320	0,099	0,065
-743,385	-141,281	-0,266	0,020
-742,371	-124,296	0,147	0,017
-741,356	-37,687	-0,266	0,104
-740,342	193,768	0,157	0,176
-739,327	-61,980	-0,329	-0,101
-738,312	30,735	0,103	0,065
-737,298	-147,578	-0,258	-0,016
-736,283	800,000	0,035	-0,109
-735,269	-83,602	-0,300	0,070
-734,254	4,289	-0,060	0,032
-733,239	27,974	-0,356	-0,221
-732,225	-119,026	0,177	-0,023
-731,210	20,152	-0,103	0,061
-730,196	156,928	-0,072	0,073
-729,181	-200,000	-0,004	-0,095
-728,167	381,388	-0,014	-0,021
-727,152	312,759	-0,042	-0,059
-726,137	800,000	0,052	-0,124
-725,123	-168,505	-0,138	-0,004
-724,108	-200,000	-0,047	-0,154
-723,094	-200,000	-0,045	-0,194
-722,079	-35,386	-0,127	-0,051
-721,064	-200,000	-0,026	-0,088
-720,050	-27,708	-0,122	-0,052
-719,035	26,937	0,122	0,075
-718,021	172,512	-0,072	-0,077
-717,006	52,528	-0,001	-0,001
-715,991	98,292	0,045	-0,038
-714,977	-70,166	0,083	-0,023
-713,962	-76,979	-0,123	-0,031
-712,948	800,000	-0,026	-0,069
-711,933	271,904	-0,075	-0,097
-710,918	800,000	-0,046	-0,125
-709,904	-15,947	-0,156	-0,073
-708,889	800,000	0,018	-0,036
-707,875	200,368	-0,176	-0,200
-706,860	-200,000	-0,019	-0,110
-705,845	-172,141	0,105	0,002
-704,831	-183,054	0,103	-0,001
-703,816	41,748	-0,028	-0,019
-702,802	129,075	-0,097	0,091
-701,787	-152,471	-0,141	-0,007
-700,772	800,000	-0,013	-0,032
-699,758	-135,851	0,216	-0,019
-698,743	107,739	0,055	0,048
-697,729	-113,297	0,133	-0,019
-696,714	264,525	-0,091	0,117
-695,699	296,218	-0,040	-0,054
-694,685	231,643	-0,080	0,097
-693,670	-200,000	0,022	-0,162
-692,656	346,146	0,079	-0,114
-691,641	493,068	-0,077	-0,130
-690,627	800,000	0,033	-0,083
-689,612	800,000	-0,039	-0,115
-688,597	800,000	-0,024	0,053
-687,583	15,728	-0,099	0,057
-686,568	137,676	-0,086	-0,083
-685,554	35,231	0,038	-0,024
-684,539	399,815	0,076	0,117
-683,524	553,949	0,120	-0,213
-682,510	-200,000	-0,032	-0,165
-681,495	632,659	0,055	-0,102
-680,481	800,000	-0,005	-0,011
-679,466	-36,672	-0,086	-0,034
-678,451	750,459	0,074	-0,147
-677,437	-125,862	-0,057	0,006
-676,422	-200,000	-0,002	-0,057
-675,408	-23,174	0,092	0,041
-674,393	-200,000	-0,010	0,037
-673,378	-200,000	-0,003	-0,028
-672,364	-92,275	0,078	0,016
-671,349	-200,000	0,014	-0,181
-670,335	800,000	0,002	0,006
-669,320	-66,109	0,085	0,025
-668,305	653,874	-0,053	0,100
-667,291	-29,983	0,097	-0,040
-666,276	54,299	-0,098	0,069
-665,262	147,231	-0,046	-0,046
-664,247	37,832	0,110	-0,072
-663,232	800,000	-0,062	0,184
-662,218	-130,839	-0,038	0,004
-661,203	800,000	0,021	-0,066
-660,189	800,000	-0,009	0,028
-659,174	-200,000	0,029	-0,166
-658,159	-118,696	-0,205	-0,026
-657,145	-46,745	-0,132	-0,047
-656,130	6,614	0,090	0,049
-655,116	-200,000	-0,108	0,000
-654,101	800,000	0,038	-0,089
-653,086	401,014	0,027	-0,042
-652,072	-68,835	0,083	0,023
-651,057	172,921	-0,056	-0,059
-650,043	28,952	0,057	-0,035
-649,028	-200,000	-0,047	-0,163
-648,014	85,447	-0,035	-0,028
-646,999	800,000	0,009	0,021
-645,984	-200,000	0,007	-0,060
-644,970	118,559	0,078	-0,071
-643,955	800,000	-0,041	-0,093
-642,941	79,965	-0,180	-0,142
-641,926	-63,960	0,053	0,016
-640,911	68,218	0,091	-0,069
-639,897	221,490	0,066	-0,078
-638,882	129,345	-0,072	-0,067
-637,868	-200,000	-0,029	-0,140
-636,853	-82,465	-0,058	0,014
-635,838	-16,554	-0,055	0,026
-634,824	-200,000	0,042	-0,178
-633,809	450,552	-0,070	0,113
-632,795	-82,893	-0,097	-0,023
-631,780	281,537	0,059	0,078
-630,765	-200,000	0,004	0,061
-629,751	-200,000	-0,018	-0,147
-628,736	309,479	-0,087	-0,119
-627,722	356,150	0,033	-0,048
-626,707	104,900	0,049	-0,042
-625,692	-56,075	-0,105	0,034
-624,678	-200,000	-0,008	-0,047
-623,663	-200,000	-0,036	-0,130
-622,649	476,107	-0,080	-0,133
-621,634	-162,762	-0,058	0,002
-620,619	-200,000	0,025	-0,118
-619,605	2,732	0,083	-0,044
-618,590	-134,812	-0,066	-0,006
-617,576	154,526	0,083	0,084
-616,561	281,607	-0,049	-0,064
-615,546	240,588	0,063	-0,077
-614,532	61,998	-0,073	0,053
-613,517	800,000	-0,036	-0,109
-612,503	243,348	0,035	0,043
-611,488	-8,491	0,099	-0,048
-610,474	368,596	-0,031	0,046
-609,459	129,515	-0,020	0,019
-608,444	510,493	-0,057	0,097
-607,430	-87,129	-0,034	-0,007
-606,415	47,801	-0,091	-0,062
-605,401	199,399	0,033	0,037
-604,386	-164,057	0,047	-0,002
-603,371	-200,000	0,022	-0,084
-602,357	335,648	-0,033	0,047
-601,342	274,593	-0,056	-0,073
-600,328	187,935	0,030	-0,033
-599,313	291,757	-0,072	-0,097
-598,298	-200,000	0,013	-0,050
-597,284	-200,000	-0,017	-0,134
-596,269	71,111	-0,035	0,027
-595,255	-21,732	-0,084	0,037
-594,240	-13,846	0,024	-0,011
-593,225	-53,389	0,017	-0,006
-592,211	-5,627	-0,124	-0,062
-591,196	-54,521	-0,013	-0,004
-590,182	-200,000	0,019	0,149
-589,167	-15,117	0,089	0,042
-588,152	-200,000	-0,019	-0,107
-587,138	-84,423	-0,052	0,012
-586,123	159,308	0,117	-0,120
-585,109	82,570	-0,075	-0,060
-584,094	-150,288	0,114	-0,006
-583,079	-134,379	0,069	0,006
-582,065	-118,373	0,188	0,024
-581,050	-147,674	0,041	-0,002
-580,036	-200,000	-0,033	-0,125
-579,021	128,424	-0,098	-0,092
-578,006	248,772	-0,011	-0,013
-576,992	363,860	-0,064	0,094
-575,977	-42,816	-0,053	0,020
-574,963	479,633	-0,019	0,031
-573,948	206,969	-0,045	-0,051
-572,934	-200,000	0,022	0,090
-571,919	-200,000	0,004	0,138
-570,904	580,948	0,005	-0,008
-569,890	-200,000	-0,019	-0,114
-568,875	-200,000	0,003	0,040
-567,861	31,739	-0,055	0,035
-566,846	-80,924	0,196	-0,047
-565,831	-112,948	-0,098	0,014
-564,817	78,577	0,076	0,059
-563,802	-72,438	0,022	-0,006
-562,788	127,464	-0,072	-0,067
-561,773	23,400	0,101	-0,060
-560,758	-200,000	-0,011	0,046
-559,744	-51,243	0,159	0,054
-558,729	-45,854	-0,153	0,055
-557,715	-6,207	-0,165	-0,082
-556,700	-12,638	-0,068	-0,033
-555,685	66,498	0,037	0,027
-554,671	-200,000	-0,011	-0,099
-553,656	-200,000	0,009	0,065
-552,642	-200,000	0,024	0,079
-551,627	61,569	-0,038	0,027
-550,612	-92,474	0,159	-0,032
-549,598	213,194	-0,124	-0,143
-548,583	-95,891	-0,154	-0,030
-547,569	223,931	-0,071	0,084
-546,554	125,263	0,072	-0,067
-545,539	15,215	0,119	-0,068
-544,525	-96,157	-0,076	-0,015
-543,510	206,235	-0,078	0,089
-542,496	184,706	-0,062	-0,067
-541,481	268,794	0,050	-0,065
-540,466	333,839	0,058	-0,082
-539,452	346,699	0,051	0,073
-538,437	-200,000	-0,026	0,098
-537,423	-200,000	-0,001	0,146
-536,408	800,000	-0,016	-0,040
-535,393	16,733	-0,034	0,020
-534,379	46,318	0,098	-0,066
-533,364	800,000	-0,057	0,168
-532,350	-3,295	-0,008	0,004
-531,335	800,000	0,009	0,029
-530,321	1,362	0,096	0,050
-529,306	-200,000	0,000	-0,146
-528,291	800,000	0,041	-0,086
-527,277	322,773	0,026	-0,037
-526,262	128,337	-0,097	-0,090
-525,248	-161,253	0,042	-0,002
-524,233	800,000	-0,062	-0,139
-523,218	680,743	0,007	0,014
-522,204	800,000	0,034	0,084
-521,189	-200,000	0,009	-0,157
-520,175	-200,000	0,010	-0,052
-519,160	800,000	0,064	-0,173
-518,145	186,303	-0,164	0,178
-517,131	734,089	0,033	0,064
-516,116	-136,949	0,054	-0,004
-515,102	800,000	-0,027	0,067
-514,087	30,100	-0,052	-0,032
-513,072	-80,049	-0,086	-0,021
-512,058	-89,931	0,038	0,008
-511,043	391,845	0,035	-0,053
-510,029	-200,000	-0,005	0,088
-509,014	-200,000	0,018	0,104
-507,999	800,000	0,045	0,102
-506,985	-174,920	-0,165	-0,003
-505,970	694,105	-0,068	-0,131
-504,956	-16,774	0,045	-0,021
-503,941	-200,000	0,023	-0,110
-502,926	-128,707	0,059	0,006
-501,912	416,814	-0,051	0,080
-500,897	-84,875	-0,161	-0,037
-499,883	157,603	-0,041	0,041
-498,868	106,833	-0,146	-0,127
-497,853	800,000	-0,028	-0,084
-496,839	-200,000	-0,021	0,070
-495,824	30,287	0,081	0,051
-494,810	-100,889	0,040	0,007
-493,795	-126,178	-0,076	-0,008
-492,781	36,699	0,059	-0,038
-491,766	-44,719	-0,121	-0,044
-490,751	-200,000	0,013	0,051
-489,737	236,509	-0,033	-0,040
-488,722	140,941	0,098	0,095
-487,708	145,831	0,066	0,065
-486,693	-200,000	-0,010	0,035
-485,678	800,000	-0,043	0,128
-484,664	352,614	0,041	0,060
-483,649	800,000	-0,037	-0,084
-482,635	63,440	-0,022	-0,016
-481,620	3,806	0,090	0,048
-480,605	800,000	0,061	0,171
-479,591	8,361	-0,039	0,022
-478,576	-200,000	0,003	0,107
-477,562	432,270	0,079	-0,126
-476,547	23,435	-0,197	-0,118
-475,532	-69,299	-0,074	-0,021
-474,518	-141,158	0,076	-0,006
-473,503	53,515	0,060	0,042
-472,489	176,661	-0,110	0,117
-471,474	390,893	0,094	-0,143
-470,459	706,246	0,055	-0,106
-469,445	86,722	-0,033	-0,026
-468,430	-200,000	0,009	-0,044
-467,416	456,421	-0,091	0,148
-466,401	163,557	0,054	-0,055
-465,386	-34,254	0,011	-0,004
-464,372	-10,879	0,076	0,036
-463,357	124,504	0,047	0,043
-462,343	-82,608	-0,083	0,019
-461,328	-200,000	0,003	-0,095
-460,313	43,941	-0,011	0,007
-459,299	126,603	-0,049	0,045
-458,284	328,294	-0,091	0,127
-457,270	-200,000	0,022	0,101
-456,255	14,753	-0,055	-0,031
-455,241	800,000	0,059	-0,165
-454,226	-86,100	-0,076	0,017
-453,211	-200,000	0,003	-0,025
-452,197	-200,000	0,024	-0,112
-451,182	-200,000	-0,010	0,055
-450,168	-105,990	0,109	-0,018
-449,153	-200,000	0,018	-0,090
-448,138	-200,000	-0,018	0,060
-447,124	153,002	-0,048	-0,048
-446,109	-200,000	0,043	-0,160
-445,095	691,278	0,028	0,053
-444,080	798,058	0,063	-0,128
-443,065	-200,000	-0,003	-0,023
-442,051	-200,000	-0,018	0,114
-441,036	23,731	-0,136	-0,081
-440,022	-200,000	0,013	-0,113
-439,007	8,439	0,084	0,046
-437,992	-173,680	-0,013	-0,000
-436,978	64,477	-0,073	-0,053
-435,963	83,103	-0,138	-0,109
-434,949	443,055	0,017	-0,028
-433,934	73,753	-0,070	-0,053
-432,919	6,240	-0,024	0,013
-431,905	-58,867	-0,108	-0,034
-430,890	-200,000	0,014	0,173
-429,876	800,000	0,003	-0,009
-428,861	-7,145	0,110	0,054
-427,846	160,113	-0,016	0,016
-426,832	-73,242	-0,084	0,022
-425,817	-43,655	-0,076	-0,028
-424,803	210,812	0,123	-0,141
-423,788	14,113	-0,021	-0,012
-422,773	-22,998	0,091	0,040
-421,759	-14,567	0,134	-0,063
-420,744	-200,000	-0,025	0,084
-419,730	194,912	0,058	-0,064
-418,715	800,000	0,034	0,090
-417,701	-200,000	-0,011	0,138
-416,686	101,771	0,055	0,047
-415,671	260,642	-0,054	0,068
-414,657	-89,213	0,063	-0,013
-413,642	-59,029	-0,185	0,058
-412,628	-119,643	-0,067	0,008
-411,613	69,618	-0,076	-0,057
-410,598	800,000	0,054	-0,125
-409,584	-20,338	0,097	-0,043
-408,569	-200,000	0,018	0,076
-407,555	-200,000	0,002	-0,038
-406,540	112,999	0,075	0,066
-405,525	147,591	-0,037	0,036
-404,511	800,000	-0,060	-0,172
-403,496	137,250	0,080	-0,076
-402,482	143,216	0,111	-0,107
-401,467	-16,794	0,157	0,072
-400,452	578,069	-0,013	0,024
-399,438	474,998	0,106	0,175
-398,423	236,001	-0,035	0,042
-397,409	256,057	0,021	-0,026
-396,394	-200,000	-0,012	0,043
-395,379	-101,457	0,079	-0,014
-394,365	43,972	0,109	0,073
-393,350	-200,000	-0,021	0,116
-392,336	-200,000	-0,005	0,058
-391,321	59,348	0,085	-0,061
-390,306	800,000	-0,025	-0,071
-389,292	-40,936	0,176	0,066
-388,277	40,390	-0,008	-0,005
-387,263	199,944	0,040	0,044
-386,248	-200,000	0,037	0,123
-385,233	800,000	0,020	0,044
-384,219	-16,306	-0,036	0,016
-383,204	107,716	0,090	-0,078
-382,190	-9,091	0,039	0,019
-381,175	-45,578	0,077	-0,027
-380,160	-112,945	0,076	-0,011
-379,146	207,403	-0,083	0,094
-378,131	-108,325	0,103	0,016
-377,117	-21,824	0,203	0,089
-376,102	-80,560	-0,071	0,017
-375,088	-200,000	-0,001	-0,011
-374,073	544,184	-0,084	0,147
-373,058	-117,425	0,104	0,014
-372,044	-41,978	0,068	0,025
-371,029	800,000	0,030	-0,089
-370,015	11,821	0,039	0,022
-369,000	406,264	-0,002	0,003
-367,985	45,541	0,101	0,067
-366,971	327,767	0,064	-0,090
-365,956	-72,392	0,168	0,045
-364,942	488,134	-0,043	0,072
-363,927	277,874	0,099	0,129
-362,912	185,172	0,029	-0,031
-361,898	-44,514	-0,049	0,018
-360,883	219,540	0,047	-0,055
-359,869	372,005	-0,081	-0,119
-358,854	-10,848	0,077	-0,037
-357,839	800,000	-0,008	-0,021
-356,825	41,430	-0,058	0,038
-355,810	278,213	-0,005	-0,007
-354,796	481,548	0,054	-0,089
-353,781	-66,506	-0,152	-0,043
-352,766	471,649	0,027	0,045
-351,752	-157,049	0,129	0,006
-350,737	365,222	-0,062	0,091
-349,723	-128,681	-0,091	-0,009
-348,708	-2,830	0,085	0,043
-347,693	602,724	-0,046	0,083
-346,679	-200,000	-0,002	0,090
-345,664	41,504	-0,073	-0,048
-344,650	88,437	0,044	0,036
-343,635	-106,279	-0,078	0,013
-342,620	259,066	0,069	0,086
-341,606	-200,000	0,035	0,120
-340,591	-116,923	-0,110	-0,014
-339,577	-200,000	0,004	-0,022
-338,562	-200,000	0,016	-0,079
-337,548	-121,294	-0,156	-0,019
-336,533	800,000	0,011	-0,029
-335,518	623,370	0,025	0,046
-334,504	-37,253	0,024	-0,009
-333,489	519,087	0,067	-0,114
-332,475	-111,869	0,188	0,027
-331,460	-200,000	0,026	0,111
-330,445	152,333	-0,041	-0,040
-329,431	153,504	0,006	0,006
-328,416	-109,118	0,066	0,010
-327,402	-200,000	0,008	0,163
-326,387	3,286	0,042	-0,022
-325,372	-200,000	0,006	-0,031
-324,358	389,550	-0,010	-0,015
-323,343	-159,002	-0,115	0,005
-322,329	-200,000	0,026	0,096
-321,314	188,455	0,159	0,172
-320,299	800,000	-0,050	0,110
-319,285	-76,394	0,047	0,012
-318,270	301,828	0,069	-0,093
-317,256	-200,000	0,004	-0,188
-316,241	800,000	-0,058	0,124
-315,226	-88,054	-0,006	0,001
-314,212	-28,705	-0,157	0,065
-313,197	155,579	0,069	-0,069
-312,183	-200,000	-0,003	-0,145
-311,168	-76,323	-0,126	-0,032
-310,153	-200,000	0,015	-0,070
-309,139	-200,000	-0,038	-0,129
-308,124	51,225	-0,083	-0,057
-307,110	20,904	-0,031	0,018
-306,095	-113,839	0,066	-0,009
-305,080	-200,000	-0,003	-0,054
-304,066	-55,496	-0,033	0,011
-303,051	450,534	0,116	-0,186
-302,037	-200,000	0,017	0,103
-301,022	-4,426	-0,067	-0,033
-300,008	-200,000	-0,003	0,061
-298,993	462,529	-0,046	0,075
-297,978	-145,900	0,074	0,005
-296,964	-61,527	-0,115	0,035
-295,949	286,667	-0,038	0,050
-294,935	-200,000	0,023	-0,089
-293,920	800,000	0,049	-0,123
-292,905	487,006	-0,034	0,056
-291,891	800,000	-0,009	0,020
-290,876	31,628	-0,020	0,012
-289,862	150,533	-0,097	-0,095
-288,847	277,152	-0,062	-0,079
-287,832	-65,030	-0,169	0,049
-286,818	800,000	0,002	-0,003
-285,803	429,480	-0,046	-0,072
-284,789	-22,933	0,152	0,066
-283,774	19,773	0,225	-0,131
-282,759	-56,224	-0,030	0,009
-281,745	-200,000	0,010	-0,125
-280,730	800,000	-0,027	0,055
-279,716	-200,000	0,029	0,205
-278,701	800,000	-0,034	0,101
-277,686	778,591	0,016	0,032
-276,672	-48,827	0,059	-0,020
-275,657	27,839	0,097	-0,059
-274,643	374,035	-0,066	0,097
-273,628	103,286	-0,058	-0,049
-272,613	11,511	0,033	0,018
-271,599	0,484	0,026	-0,013
-270,584	105,119	0,064	0,055
-269,570	-48,452	0,114	0,039
-268,555	69,872	-0,062	0,046
-267,540	-123,620	-0,051	-0,006
-266,526	-58,487	0,101	-0,032
-265,511	267,372	0,019	0,024
-264,497	129,272	0,051	-0,047
-263,482	-200,000	-0,022	-0,076
-262,467	159,048	0,050	0,051
-261,453	800,000	-0,061	0,150
-260,438	-1,974	-0,076	0,038
-259,424	470,683	0,020	0,033
-258,409	666,573	0,059	-0,110
-257,395	-81,734	0,052	-0,012
-256,380	611,290	0,062	0,112
-255,365	800,000	0,026	0,058
-254,351	-200,000	-0,014	-0,065
-253,336	-88,311	-0,056	0,012
-252,322	-89,009	-0,114	-0,024
-251,307	-200,000	0,007	0,058
-250,292	110,501	0,111	-0,096
-249,278	372,885	0,067	0,098
-248,263	463,648	-0,051	0,083
-247,249	179,914	0,061	0,065
-246,234	-69,248	0,025	0,007
-245,219	-200,000	0,001	-0,107
-244,205	253,997	-0,064	0,079
-243,190	-200,000	-0,010	-0,040
-242,176	75,897	0,057	-0,044
-241,161	776,650	-0,037	-0,073
-240,146	442,864	0,058	0,091
-239,132	-43,704	-0,089	-0,032
-238,117	-90,298	-0,140	0,029
-237,103	173,595	-0,078	0,082
-236,088	800,000	0,025	0,066
-235,073	-200,000	0,020	0,067
-234,059	83,861	0,146	0,115
-233,044	80,233	-0,071	0,055
-232,030	-96,791	0,079	0,015
-231,015	-200,000	-0,021	-0,116
-230,000	-200,000	-0,001	0,031
-228,986	255,431	0,046	0,057
-227,971	-35,028	0,068	-0,027
-226,957	114,699	-0,082	0,072
-225,942	298,433	0,025	-0,033
-224,927	-200,000	0,019	0,163
-223,913	24,866	0,155	-0,093
-222,898	-2,388	-0,110	-0,056
-221,884	78,898	-0,065	-0,050
-220,869	-200,000	-0,019	0,121
-219,855	-200,000	-0,004	-0,017
-218,840	-90,991	0,022	0,004
-217,825	128,907	-0,123	0,114
-216,811	68,769	-0,078	0,057
-215,796	-89,670	-0,066	0,014
-214,782	652,374	-0,102	0,189
-213,767	-26,884	-0,097	0,041
-212,752	312,252	0,067	0,091
-211,738	353,628	-0,073	0,104
-210,723	-14,857	0,059	0,027
-209,709	-200,000	0,008	-0,108
-208,694	56,766	-0,121	-0,085
-207,679	205,346	-0,076	-0,086
-206,665	-200,000	-0,012	-0,086
-205,650	465,567	0,076	0,123
-204,636	-37,113	0,067	0,026
-203,621	-133,231	0,109	0,010
-202,606	72,548	-0,002	0,002
-201,592	-83,850	-0,149	-0,034
-200,577	800,000	0,050	-0,150
-199,563	-199,915	0,159	-0,001
-198,548	800,000	-0,035	0,099
-197,533	-200,000	0,014	0,093
-196,519	78,465	-0,059	0,045
-195,504	-200,000	-0,008	-0,132
-194,490	-200,000	0,004	-0,140
-193,475	-4,818	-0,046	0,023
-192,460	289,279	-0,075	0,098
-191,446	301,359	0,051	-0,067
-190,431	-200,000	0,006	0,022
-189,417	473,910	0,013	-0,022
-188,402	-200,000	-0,001	0,092
-187,387	-140,675	-0,104	-0,008
-186,373	-200,000	-0,032	0,152
-185,358	-18,078	-0,062	-0,028
-184,344	-200,000	-0,001	0,004
-183,329	296,258	0,058	-0,077
-182,315	-127,988	-0,085	-0,009
-181,300	-162,965	0,051	-0,002
-180,285	-189,526	0,033	0,000
-179,271	140,648	-0,189	-0,180
-178,256	26,142	-0,107	0,064
-177,242	128,249	-0,072	0,066
-176,227	132,457	0,063	0,058
-175,212	-200,000	0,010	0,100
-174,198	153,874	0,057	-0,056
-173,183	-71,332	-0,097	0,026
-172,169	41,198	-0,080	0,052
-171,154	330,269	-0,027	0,037
-170,139	800,000	0,052	0,147
-169,125	-87,652	-0,032	-0,007
-168,110	800,000	0,030	-0,063
-167,096	-200,000	0,049	0,197
-166,081	30,911	-0,083	-0,051
-165,066	-78,418	0,122	0,030
-164,052	-49,903	-0,018	0,006
-163,037	-21,657	0,039	-0,017
-162,023	-197,026	-0,036	0,000
-161,008	97,597	0,008	-0,006
-159,993	649,909	-0,010	-0,019
-158,979	-44,609	0,084	-0,030
-157,964	-34,745	0,142	-0,056
-156,950	-200,000	-0,044	0,169
-155,935	301,275	0,031	-0,041
-154,920	-124,474	-0,071	-0,008
-153,906	-66,249	0,180	0,051
-152,891	800,000	0,034	0,082
-151,877	-200,000	0,013	0,070
-150,862	-182,141	-0,114	0,001
-149,847	-200,000	-0,018	-0,108
-148,833	-152,513	0,032	-0,002
-147,818	-200,000	0,016	0,135
-146,804	-9,194	0,141	0,067
-145,789	-200,000	0,031	0,150
-144,775	10,946	0,108	0,059
-143,760	24,953	-0,122	-0,072
-142,745	10,203	-0,060	-0,033
-141,731	-200,000	0,032	0,176
-140,716	233,795	0,070	0,083
-139,702	-200,000	0,017	0,172
-138,687	-87,392	-0,035	-0,007
-137,672	-118,209	0,035	-0,004
-136,658	800,000	0,043	-0,136
-135,643	247,158	-0,034	0,042
-134,629	800,000	0,030	-0,082
-133,614	-53,243	-0,129	-0,042
-132,599	30,058	-0,069	-0,042
-131,585	-124,649	0,087	-0,010
-130,570	800,000	-0,072	-0,151
-129,556	2,893	-0,084	-0,044
-128,541	-72,008	0,028	0,008
-127,526	331,482	-0,115	-0,160
-126,512	386,098	0,027	-0,040
-125,497	800,000	0,034	0,089
-124,483	-200,000	0,040	0,176
-123,468	98,854	-0,032	0,026
-122,453	-121,725	0,054	-0,006
-121,439	-200,000	-0,002	-0,019
-120,424	-200,000	-0,011	0,062
-119,410	-116,229	0,131	0,017
-118,395	234,359	-0,031	-0,037
-117,380	-200,000	-0,008	-0,106
-116,366	2,108	-0,174	-0,090
-115,351	-20,027	0,099	-0,044
-114,337	-32,365	-0,130	0,052
-113,322	-14,078	0,099	0,046
-112,307	120,407	0,026	0,023
-111,293	28,443	0,120	-0,073
-110,278	19,048	0,014	0,008
-109,264	-69,508	0,078	-0,021
-108,249	72,885	0,031	-0,023
-107,234	-96,688	-0,053	-0,010
-106,220	800,000	0,037	-0,104
-105,205	5,873	-0,087	0,046
-104,191	-200,000	-0,006	0,126
-103,176	794,992	0,017	0,034
-102,162	-200,000	0,002	0,071
-101,147	-200,000	0,007	-0,097
-100,132	-200,000	-0,001	0,006
-99,118	800,000	0,039	-0,089
-98,103	220,041	-0,112	0,129
-97,089	-4,952	0,160	-0,079
-96,074	-170,653	0,053	0,001
-95,059	780,065	0,041	-0,081
-94,045	-180,842	0,054	-0,001
-93,030	-134,413	0,048	-0,004
-92,016	-200,000	-0,011	-0,042
-91,001	-54,759	0,090	0,029
-89,986	-89,342	-0,053	-0,011
-88,972	-200,000	-0,012	0,113
-87,957	-200,000	0,001	0,089
-86,943	800,000	0,021	0,045
-85,928	210,129	0,039	-0,044
-84,913	781,977	-0,039	0,077
-83,899	159,902	0,076	0,076
-82,884	800,000	0,056	0,132
-81,870	36,905	0,033	-0,021
-80,855	451,821	0,054	0,086
-79,840	239,204	-0,011	0,013
-78,826	-73,703	-0,138	-0,036
-77,811	334,766	-0,023	-0,033
-76,797	54,583	0,084	-0,058
-75,782	16,893	0,080	-0,045
-74,767	403,459	0,003	0,004
-73,753	92,174	0,080	0,064
-72,738	798,642	-0,038	-0,076
-71,724	-9,735	0,059	-0,028
-70,709	-200,000	0,020	-0,127
-69,694	-200,000	0,007	-0,024
-68,680	-3,101	-0,104	0,052
-67,665	-58,360	-0,192	0,059
-66,651	-37,604	0,140	0,053
-65,636	800,000	0,054	0,121
-64,622	45,517	-0,112	-0,074
-63,607	-111,471	-0,043	0,006
-62,592	140,536	-0,037	-0,035
-61,578	98,838	0,036	-0,030
-60,563	-66,252	0,117	-0,033
-59,549	-16,328	0,047	0,021
-58,534	42,980	-2,023	-1,321
-57,519	800,000	-0,264	-0,798
-56,505	-200,000	-1,356	-5,056
-55,490	116,424	0,855	0,751
-54,476	800,000	5,267	11,962
-53,461	-200,000	18,725	317,861
-52,446	800,000	741,410	2334,954
-51,432	558,721	1657,499	2879,286
-50,417	111,120	1641,269	1417,198
-49,403	75,426	1291,268	976,065
-48,388	30,311	1031,734	630,303
-47,373	19,913	994,406	573,033
-46,359	17,361	982,105	557,518
-45,344	14,094	978,019	544,431
-44,330	14,367	976,560	544,496
-43,315	13,785	974,794	541,577
-42,300	13,714	973,725	540,731
-41,286	13,724	972,766	540,209
-40,271	13,666	971,791	539,456
-39,257	13,679	971,136	539,114
-38,242	13,720	970,108	538,654
-37,227	13,729	969,167	538,140
-36,213	13,691	968,338	537,536
-35,198	13,667	967,205	536,807
-34,184	13,708	966,738	536,658
-33,169	13,675	965,698	535,955
-32,154	13,698	964,728	535,469
-31,140	13,671	963,925	534,913
-30,125	13,720	963,020	534,549
-29,111	13,780	961,893	534,097
-28,096	13,667	961,772	533,644
-27,082	13,710	960,899	533,277
-26,067	13,756	960,124	532,972
-25,052	13,780	959,297	532,570
-24,038	13,644	958,779	531,823
-23,023	13,671	958,148	531,540
-22,009	13,748	957,371	531,336
-20,994	13,770	956,718	531,022
-19,979	13,747	956,171	530,624
-18,965	13,756	955,648	530,342
-17,950	13,708	955,027	529,822
-16,936	13,670	954,437	529,351
-15,921	13,662	953,625	528,853
-14,906	13,629	952,910	528,330
-13,892	13,592	952,313	527,860
-12,877	13,572	951,591	527,374
-11,863	13,574	950,849	526,951
-10,848	13,588	950,261	526,647
-9,833	13,677	950,058	526,798
-8,819	13,688	949,254	526,366
-7,804	13,687	948,522	525,938
-6,790	13,607	948,111	525,432
-5,775	13,666	947,576	525,304
-4,760	13,667	946,840	524,878
-3,746	13,594	946,294	524,322
-2,731	13,459	945,583	523,479
-1,717	13,447	944,877	523,026
-0,702	13,451	944,143	522,615
0,313	13,235	943,562	522,394
1,327	16,576	941,117	531,574
2,342	25,625	795,954	473,622
3,356	22,042	460,509	268,494
4,371	-4,899	317,599	156,236
5,386	-8,972	299,406	143,107
6,400	-10,876	293,340	138,284
7,415	-11,151	290,888	136,843
8,429	-11,556	289,506	135,780
9,444	-11,647	288,588	135,248
10,459	-11,395	287,785	135,107
11,473	-11,354	287,016	134,774
12,488	-11,468	286,712	134,507
13,502	-11,580	286,324	134,204
14,517	-11,435	285,803	134,090
15,531	-11,432	285,163	133,781
16,546	-11,321	284,826	133,718
17,561	-11,391	284,450	133,462
18,575	-11,487	284,234	133,255
19,590	-11,613	283,711	132,876
20,604	-11,240	283,368	133,065
21,619	-11,514	283,019	132,624
22,634	-11,537	282,765	132,471
23,648	-11,605	282,515	132,277
24,663	-11,399	282,080	132,260
25,677	-11,520	281,866	132,031
26,692	-11,535	281,694	131,924
27,707	-11,415	281,390	131,885
28,721	-11,418	281,128	131,748
29,736	-11,533	280,733	131,441
30,750	-11,560	280,649	131,363
31,765	-11,488	280,292	131,254
32,780	-11,343	279,957	131,224
33,794	-11,530	279,881	130,998
34,809	-11,303	279,574	131,060
35,823	-11,593	279,434	130,705
36,838	-11,504	278,959	130,556
37,853	-11,602	278,775	130,365
38,867	-11,381	278,600	130,482
39,882	-11,514	278,315	130,211
40,896	-11,656	278,166	129,995
41,911	-11,631	277,866	129,866
42,926	-11,559	277,478	129,741
43,940	-11,519	277,135	129,607
44,955	-11,515	276,972	129,523
45,969	-11,602	276,806	129,352
46,984	-11,736	276,633	129,134
47,999	-11,985	276,344	128,752
49,013	-11,986	275,908	128,537
50,028	-11,936	275,547	128,404
51,042	-12,071	275,374	128,186
52,057	-12,248	275,232	127,942
53,071	-12,180	275,024	127,897
54,086	-12,000	274,875	127,985
55,101	-11,812	274,748	128,091
56,115	-11,673	274,527	128,106
57,130	-11,307	274,389	128,372
58,144	-11,231	274,197	128,343
59,159	-11,373	273,878	128,049
60,174	-11,358	273,716	127,976
61,188	-11,183	273,559	128,054
62,203	-11,213	273,319	127,902
63,217	-11,548	273,064	127,460
64,232	-11,312	272,801	127,545
65,247	-11,405	272,609	127,358
66,261	-11,518	272,495	127,189
67,276	-11,543	272,063	126,952
68,290	-11,476	271,779	126,871
69,305	-11,820	271,553	126,435
70,320	-11,723	271,366	126,426
71,334	-11,549	271,163	126,482
72,349	-11,405	270,963	126,510
73,363	-11,236	270,757	126,558
74,378	-11,451	270,529	126,242
75,393	-11,314	270,367	126,282
76,407	-11,229	270,186	126,263
77,422	-11,470	269,897	125,896
78,436	-11,464	269,651	125,776
79,451	-11,399	269,396	125,705
80,466	-11,505	269,171	125,492
81,480	-11,617	268,971	125,285
82,495	-11,524	268,715	125,239
83,509	-11,488	268,569	125,194
84,524	-11,556	268,292	124,991
85,539	-11,733	268,111	124,734
86,553	-11,551	267,924	124,802
87,568	-11,677	267,740	124,590
88,582	-11,417	267,474	124,692
89,597	-11,482	267,301	124,541
90,611	-11,559	267,131	124,381
91,626	-11,478	266,943	124,356
92,641	-11,384	266,750	124,340
93,655	-11,431	266,497	124,168
94,670	-11,534	266,297	123,971
95,684	-11,440	265,984	123,899
96,699	-11,447	265,775	123,784
97,714	-11,614	265,519	123,504
98,728	-11,603	265,391	123,443
99,743	-11,547	265,046	123,322
100,757	-11,803	265,029	123,072
101,772	-11,579	264,752	123,134
102,787	-11,497	264,732	123,187
103,801	-11,402	264,380	123,098
104,816	-11,282	264,194	123,108
105,830	-11,366	264,148	123,000
106,845	-11,305	263,928	122,942
107,860	-11,351	263,625	122,748
108,874	-11,342	263,456	122,666
109,889	-11,531	263,310	122,419
110,903	-11,452	263,092	122,377
111,918	-11,570	263,040	122,237
112,933	-11,340	262,667	122,257
113,947	-11,318	262,387	122,136
114,962	-11,514	262,382	121,948
115,976	-11,501	262,166	121,848
116,991	-11,590	262,022	121,692
118,006	-11,462	261,728	121,658
119,020	-11,262	261,605	121,767
120,035	-11,451	261,543	121,560
121,049	-11,316	261,361	121,584
122,064	-11,567	261,170	121,262
123,079	-11,330	260,832	121,303
124,093	-11,325	260,586	121,183
125,108	-11,563	260,393	120,873
126,122	-11,832	260,185	120,528
127,137	-11,634	259,715	120,474
128,151	-11,698	259,778	120,436
129,166	-11,638	259,488	120,344
130,181	-11,631	259,278	120,242
131,195	-11,813	259,157	120,015
132,210	-11,577	258,860	120,074
133,224	-11,497	258,879	120,142
134,239	-11,402	258,592	120,081
135,254	-11,305	258,355	120,045
136,268	-11,535	258,189	119,757
137,283	-11,669	257,987	119,535
138,297	-11,747	257,692	119,320
139,312	-11,911	257,527	119,089
140,327	-11,400	257,352	119,442
141,341	-11,338	257,451	119,533
142,356	-11,279	257,146	119,431
143,370	-11,204	256,912	119,377
144,385	-11,285	256,946	119,312
145,400	-11,252	256,414	119,082
146,414	-11,357	256,443	118,994
147,429	-11,401	256,332	118,894
148,443	-11,249	256,056	118,887
149,458	-11,117	255,792	118,868
150,473	-11,165	255,779	118,810
151,487	-11,345	255,360	118,449
152,502	-11,235	255,188	118,454
153,516	-11,232	255,037	118,376
154,531	-11,191	254,920	118,347
155,546	-11,160	254,658	118,241
156,560	-11,172	254,411	118,105
157,575	-11,228	254,280	117,986
158,589	-11,327	254,184	117,846
159,604	-11,186	253,978	117,861
160,619	-11,071	253,639	117,792
161,633	-11,263	253,654	117,623
162,648	-11,183	253,481	117,602
163,662	-11,013	253,219	117,614
164,677	-11,041	252,965	117,462
165,692	-11,217	252,846	117,246
166,706	-11,199	252,864	117,259
167,721	-11,156	252,525	117,128
168,735	-11,206	252,431	117,032
169,750	-11,200	252,358	116,993
170,764	-11,146	252,010	116,867
171,779	-11,074	251,912	116,872
172,794	-11,354	251,859	116,599
173,808	-11,316	251,717	116,556
174,823	-11,551	251,255	116,132
175,837	-11,816	251,199	115,872
176,852	-11,412	251,050	116,135
177,867	-11,314	250,989	116,179
178,881	-11,035	250,760	116,298
179,896	-11,133	250,596	116,129
180,910	-11,146	250,366	116,001
181,925	-11,042	250,256	116,027
182,940	-11,111	250,003	115,841
183,954	-11,179	249,845	115,700
184,969	-11,179	249,723	115,634
185,983	-11,291	249,612	115,477
186,998	-10,984	249,304	115,583
188,013	-11,062	249,152	115,437
189,027	-11,111	249,070	115,347
190,042	-11,167	248,747	115,141
191,056	-11,275	248,730	115,032
192,071	-11,143	248,412	114,985
193,086	-11,222	248,336	114,874
194,100	-11,083	248,043	114,844
195,115	-11,215	247,955	114,683
196,129	-11,057	247,553	114,619
197,144	-11,398	247,541	114,318
198,159	-11,101	247,346	114,466
199,173	-11,178	247,249	114,346
200,188	-11,098	246,963	114,270
201,202	-11,451	246,729	113,858
202,217	-11,681	246,454	113,531
203,232	-11,684	246,327	113,460
204,246	-11,248	246,344	113,818
205,261	-11,166	246,129	113,777
206,275	-11,757	245,690	113,076
207,290	-7,919	247,296	116,994
208,304	0,364	250,046	125,222
209,319	4,333	251,116	129,073
210,334	4,771	251,183	129,462
211,348	5,060	251,053	129,625
212,363	5,137	251,061	129,681
213,377	5,286	250,800	129,660
214,392	5,059	250,655	129,384
215,407	4,970	250,469	129,202
216,421	5,119	250,303	129,230
217,436	5,085	250,258	129,166
218,450	5,458	249,996	129,329
219,465	5,081	249,866	128,938
220,480	4,951	249,494	128,626
221,494	4,802	249,325	128,404
222,509	4,974	249,186	128,464
223,523	4,796	249,034	128,226
224,538	4,403	248,693	127,714
225,553	4,489	248,630	127,742
226,567	4,702	248,483	127,831
227,582	4,771	248,294	127,779
228,596	4,726	248,205	127,684
229,611	4,435	247,898	127,275
230,626	4,477	247,666	127,179
231,640	4,643	247,487	127,213
232,655	4,525	247,321	127,019
233,669	4,599	247,195	127,003
234,684	4,092	247,183	126,569
235,699	4,432	247,050	126,769
236,713	4,826	246,795	126,951
237,728	4,453	246,658	126,563
238,742	4,252	246,367	126,238
239,757	4,418	246,172	126,262
240,772	4,532	246,040	126,277
241,786	4,364	246,094	126,156
242,801	4,283	245,866	125,962
243,815	4,249	245,629	125,801
244,830	4,632	245,667	126,122
245,844	4,684	245,271	125,950
246,859	4,399	245,272	125,707
247,874	4,392	244,957	125,528
248,888	4,587	244,831	125,611
249,903	4,508	244,777	125,508
250,917	4,605	244,667	125,519
251,932	4,577	244,602	125,452
252,947	4,676	244,329	125,381
253,961	4,468	243,991	125,029
254,976	4,714	244,030	125,236
255,990	4,792	243,949	125,246
257,005	4,482	243,649	124,831
258,020	4,263	243,346	124,488
259,034	4,383	243,333	124,567
260,049	4,510	243,097	124,537
261,063	4,329	242,870	124,264
262,078	4,268	242,767	124,150
263,093	4,779	242,749	124,542
264,107	4,763	242,566	124,424
265,122	4,416	242,462	124,081
266,136	4,575	242,323	124,127
267,151	4,748	242,416	124,301
268,166	4,552	242,013	123,927
269,180	4,325	241,663	123,554
270,195	4,920	241,833	124,107
271,209	5,064	241,671	124,129
272,224	4,328	241,395	123,387
273,239	4,135	240,984	123,012
274,253	4,155	240,912	122,980
275,268	4,522	240,852	123,232
276,282	4,532	240,615	123,107
277,297	4,225	240,501	122,793
278,312	4,239	240,417	122,750
279,326	4,420	240,255	122,801
280,341	4,474	240,166	122,788
281,355	4,408	239,979	122,629
282,370	4,362	239,809	122,494
283,384	4,445	239,712	122,499
284,399	4,470	239,414	122,356
285,414	4,272	239,279	122,119
286,428	4,396	239,055	122,092
287,443	4,533	239,009	122,166
288,457	4,558	238,887	122,113
289,472	4,663	238,713	122,096
290,487	4,534	238,628	121,940
291,501	4,323	238,339	121,615
292,516	4,035	238,207	121,310
293,530	4,396	237,919	121,436
294,545	4,549	238,013	121,594
295,560	4,514	237,931	121,514
296,574	4,199	237,681	121,127
297,589	4,176	237,428	120,969
298,603	4,778	237,352	121,392
299,618	4,672	237,207	121,225
300,633	4,536	237,125	121,065
301,647	4,685	237,118	121,167
302,662	5,011	237,044	121,374
303,676	4,906	236,744	121,128
304,691	4,911	236,508	121,000
305,706	5,160	236,404	121,131
306,720	4,988	236,294	120,929
307,735	4,570	236,059	120,472
308,749	4,584	235,977	120,431
309,764	4,372	235,835	120,182
310,779	4,206	235,576	119,910
311,793	4,200	235,214	119,710
312,808	3,941	235,187	119,485
313,822	4,124	235,012	119,527
314,837	4,078	234,806	119,376
315,852	4,107	234,562	119,264
316,866	4,258	234,590	119,385
317,881	4,373	234,575	119,455
318,895	4,912	234,437	119,791
319,910	5,139	234,340	119,906
320,925	4,471	234,097	119,256
321,939	4,335	233,804	118,991
322,954	4,408	233,914	119,093
323,968	4,569	233,610	119,051
324,983	4,497	233,574	118,967
325,997	4,854	233,406	119,146
327,012	4,785	233,356	119,056
328,027	4,638	233,083	118,793
329,041	4,824	232,975	118,871
330,056	5,176	233,069	119,179
331,070	5,244	232,893	119,130
332,085	4,943	232,594	118,736
333,100	4,644	232,294	118,344
334,114	4,777	232,209	118,391
335,129	4,984	231,966	118,415
336,143	4,885	232,082	118,388
337,158	4,868	231,937	118,290
338,173	4,697	231,558	117,956
339,187	4,503	231,392	117,713
340,202	4,613	231,321	117,750
341,216	4,752	231,195	117,781
342,231	4,487	230,946	117,442
343,246	4,571	230,896	117,471
344,260	4,603	230,764	117,417
345,275	4,720	230,668	117,447
346,289	4,798	230,588	117,454
347,304	4,923	230,473	117,481
348,319	4,821	230,264	117,286
349,333	4,837	229,964	117,135
350,348	4,342	229,842	116,688
351,362	4,541	229,813	116,814
352,377	4,426	229,487	116,550
353,392	4,218	229,411	116,344
354,406	4,315	229,284	116,343
355,421	196,707	1317,392	1396,302
356,435	157,849	1449,917	1396,270
