DTS Sentinel unit serial number:	SN410029Multiplexer serial number:	ORYXHardware model number:	OX2-SRSoftware version number:	ORYX F/W v4,00 Oryx Data Collector v3.7.2.0data status	okinstallation	B5 Nyhavnadifferential loss correction	single-endedforward channel	channel 2reverse channel	N/Adate	2023/12/14time	03:07:13forward acquisition time	300,00reverse acquisition time	0,00gamma	499,1914k internal	0,3155k external	0,3155temperature offset calibration	1,0000default loss term (dB/km)	0,3820temperature slope calibration	1,0000multiplexer offset coefficient	1,0000multiplexer slope coefficient	1,0000fibre end	0,00T internal ref (°C)	8,32T ext. ref 1 (°C)	-8,04T ext. ref 2 (°C)	-8,10length (m)	temperature (°C)	Stokes	anti-Stokes-744,400	800,000	0,021	-0,057
-743,385	-175,450	-0,350	0,007
-742,371	-124,764	0,205	-0,023
-741,356	-111,219	-0,360	-0,054
-740,342	-0,821	0,186	0,097
-739,327	-97,934	-0,428	-0,081
-738,312	-119,951	0,170	0,021
-737,298	-51,491	-0,330	-0,113
-736,283	800,000	0,061	0,175
-735,269	-187,989	-0,398	-0,004
-734,254	28,095	0,217	0,135
-733,239	-31,510	-0,511	-0,211
-732,225	-56,725	0,267	0,087
-731,210	-168,465	0,132	0,004
-730,196	353,698	-0,122	-0,179
-729,181	176,241	-0,066	0,071
-728,167	0,130	-0,043	0,023
-727,152	-41,162	0,015	-0,006
-726,137	344,423	-0,022	0,032
-725,123	-200,000	-0,003	0,109
-724,108	-0,002	-0,064	-0,033
-723,094	-43,545	-0,128	0,047
-722,079	192,641	-0,029	-0,032
-721,064	-200,000	-0,040	-0,166
-720,050	-58,494	-0,244	-0,078
-719,035	1,925	0,099	0,053
-718,021	212,945	0,052	-0,061
-717,006	-152,949	-0,062	-0,003
-715,991	-167,938	-0,129	-0,004
-714,977	498,657	0,008	0,014
-713,962	83,533	0,111	-0,089
-712,948	431,675	-0,051	0,082
-711,933	119,549	0,068	-0,062
-710,918	-104,259	-0,132	0,022
-709,904	-134,722	-0,099	0,009
-708,889	-73,963	-0,119	-0,032
-707,875	-200,000	0,010	-0,106
-706,860	-2,612	-0,101	0,052
-705,845	146,336	-0,033	-0,033
-704,831	178,571	-0,061	-0,065
-703,816	-10,439	-0,077	-0,037
-702,802	50,949	-0,033	0,023
-701,787	800,000	-0,038	-0,094
-700,772	476,813	-0,096	-0,161
-699,758	-200,000	0,020	-0,064
-698,743	9,747	-0,136	-0,076
-697,729	0,556	0,052	-0,027
-696,714	800,000	0,036	0,104
-695,699	-68,548	-0,050	0,014
-694,685	569,987	-0,053	-0,096
-693,670	89,068	-0,104	-0,085
-692,656	-73,594	0,064	0,017
-691,641	-200,000	0,002	0,049
-690,627	134,883	0,095	-0,091
-689,612	-200,000	-0,008	0,056
-688,597	-109,542	-0,142	0,022
-687,583	-200,000	0,006	-0,039
-686,568	-122,968	0,058	-0,007
-685,554	65,428	-0,149	-0,111
-684,539	-63,097	0,162	-0,049
-683,524	383,411	-0,017	0,026
-682,510	46,387	-0,047	0,032
-681,495	167,533	-0,012	0,012
-680,481	-200,000	-0,001	-0,035
-679,466	4,664	-0,085	0,046
-678,451	800,000	0,030	-0,083
-677,437	-68,812	-0,148	-0,042
-676,422	277,328	0,066	0,086
-675,408	-2,130	0,107	-0,055
-674,393	-129,008	0,086	0,009
-673,378	112,555	0,095	-0,084
-672,364	72,525	-0,108	-0,083
-671,349	800,000	0,037	-0,094
-670,335	62,749	-0,101	-0,074
-669,320	800,000	0,040	0,095
-668,305	45,601	0,066	-0,045
-667,291	-200,000	0,047	0,179
-666,276	35,515	0,057	-0,037
-665,262	-200,000	-0,012	-0,092
-664,247	145,373	-0,033	-0,033
-663,232	193,215	-0,145	-0,162
-662,218	30,615	0,142	0,089
-661,203	800,000	-0,025	-0,074
-660,189	609,668	-0,045	-0,084
-659,174	451,158	0,009	0,015
-658,159	-50,575	-0,136	0,047
-657,145	343,870	0,022	-0,032
-656,130	-200,000	0,020	-0,141
-655,116	800,000	-0,051	-0,133
-654,101	-200,000	0,011	0,047
-653,086	239,627	0,097	0,119
-652,072	-200,000	0,006	0,022
-651,057	724,279	-0,034	-0,068
-650,043	131,969	-0,042	0,040
-649,028	-200,000	-0,005	-0,024
-648,014	-95,434	0,141	-0,028
-646,999	40,933	-0,110	-0,073
-645,984	-133,092	-0,155	-0,014
-644,970	135,250	0,037	-0,035
-643,955	-74,496	-0,081	-0,021
-642,941	59,627	0,048	-0,035
-641,926	-94,947	0,094	-0,018
-640,911	-123,232	0,133	-0,015
-639,897	-200,000	0,002	0,081
-638,882	544,680	-0,029	-0,051
-637,868	6,191	-0,033	-0,018
-636,853	-200,000	0,008	0,076
-635,838	-200,000	0,054	-0,211
-634,824	-200,000	-0,005	-0,121
-633,809	-38,646	0,048	-0,018
-632,795	-83,800	-0,060	0,014
-631,780	-200,000	0,012	-0,081
-630,765	800,000	-0,030	-0,070
-629,751	-127,670	-0,105	-0,011
-628,736	-200,000	-0,008	-0,046
-627,722	16,467	0,138	-0,080
-626,707	219,661	-0,042	-0,050
-625,692	-48,386	0,153	-0,054
-624,678	-200,000	0,021	-0,070
-623,663	37,451	0,048	-0,031
-622,649	-17,622	0,019	-0,009
-621,634	-200,000	-0,039	0,146
-620,619	-200,000	0,002	-0,009
-619,605	0,424	-0,032	-0,017
-618,590	800,000	0,052	0,142
-617,576	153,302	-0,081	0,082
-616,561	-23,617	-0,010	0,005
-615,546	789,570	0,022	-0,045
-614,532	-81,903	0,112	-0,027
-613,517	-19,665	-0,057	0,026
-612,503	753,939	0,030	0,060
-611,488	-67,837	0,096	-0,027
-610,474	39,117	-0,083	-0,055
-609,459	92,234	0,035	-0,029
-608,444	-87,148	-0,125	0,028
-607,430	70,792	-0,118	-0,089
-606,415	431,756	-0,070	0,112
-605,401	276,570	-0,053	0,069
-604,386	-3,809	0,064	0,033
-603,371	-140,644	-0,134	-0,010
-602,357	800,000	-0,039	-0,124
-601,342	515,844	0,044	0,075
-600,328	-200,000	-0,005	0,054
-599,313	-148,536	0,039	-0,002
-598,298	-181,353	-0,078	0,001
-597,284	-15,096	0,108	-0,051
-596,269	800,000	-0,032	-0,079
-595,255	800,000	-0,064	0,171
-594,240	207,824	0,079	-0,091
-593,225	46,876	-0,055	0,037
-592,211	-25,687	-0,124	-0,054
-591,196	6,063	0,079	-0,043
-590,182	416,624	-0,037	-0,057
-589,167	-74,698	0,159	0,042
-588,152	-200,000	-0,014	0,111
-587,138	79,841	-0,020	-0,016
-586,123	-200,000	0,024	-0,082
-585,109	134,315	-0,063	-0,060
-584,094	-122,262	0,090	0,011
-583,079	194,899	-0,024	0,027
-582,065	433,522	0,060	-0,096
-581,050	124,702	-0,036	-0,033
-580,036	-70,161	-0,074	-0,021
-579,021	267,817	-0,049	-0,063
-578,006	-77,607	-0,019	0,005
-576,992	71,228	-0,016	0,012
-575,977	177,853	-0,100	-0,107
-574,963	130,286	-0,053	0,050
-573,948	55,084	-0,016	0,011
-572,934	-200,000	-0,012	-0,043
-571,919	111,391	0,040	-0,035
-570,904	-10,013	0,097	-0,047
-569,890	-200,000	-0,015	0,069
-568,875	-200,000	-0,027	0,093
-567,861	716,979	0,037	0,073
-566,846	-200,000	0,027	0,099
-565,831	99,057	-0,020	0,017
-564,817	43,163	0,071	0,048
-563,802	18,054	0,109	0,063
-562,788	-200,000	-0,002	-0,045
-561,773	223,025	0,097	0,115
-560,758	-200,000	0,015	-0,097
-559,744	372,015	0,041	-0,062
-558,729	-113,187	0,040	0,006
-557,715	-74,274	-0,207	0,054
-556,700	-40,423	-0,038	-0,014
-555,685	-200,000	-0,017	-0,090
-554,671	-21,630	0,079	-0,035
-553,656	800,000	-0,021	-0,047
-552,642	68,139	-0,088	-0,066
-551,627	-29,739	-0,035	0,014
-550,612	800,000	0,050	-0,116
-549,598	76,309	-0,035	-0,027
-548,583	-200,000	0,020	0,113
-547,569	215,070	-0,070	0,082
-546,554	-132,164	-0,059	0,005
-545,539	800,000	-0,033	0,087
-544,525	-200,000	-0,013	0,092
-543,510	800,000	0,021	-0,044
-542,496	7,525	-0,081	0,044
-541,481	800,000	0,022	0,050
-540,466	168,486	-0,053	-0,055
-539,452	-200,000	0,015	0,128
-538,437	-200,000	0,033	0,203
-537,423	-200,000	0,000	0,173
-536,408	-200,000	-0,021	0,139
-535,393	-35,019	-0,128	-0,051
-534,379	376,985	-0,057	-0,085
-533,364	-200,000	0,004	-0,111
-532,350	-96,887	-0,042	-0,008
-531,335	121,674	0,022	0,020
-530,321	-104,404	0,163	-0,027
-529,306	-85,676	0,050	-0,011
-528,291	645,371	-0,020	-0,038
-527,277	266,136	-0,089	-0,114
-526,262	-200,000	0,000	0,058
-525,248	21,912	-0,109	0,065
-524,233	-1,815	-0,036	-0,018
-523,218	37,549	-0,041	-0,026
-522,204	-106,612	-0,128	-0,021
-521,189	-129,117	-0,080	-0,008
-520,175	-30,540	-0,074	-0,031
-519,160	271,664	-0,096	-0,124
-518,145	95,782	0,076	0,063
-517,131	800,000	0,040	0,122
-516,116	-200,000	-0,014	0,086
-515,102	385,863	0,064	0,096
-514,087	-82,072	0,012	-0,003
-513,072	144,948	-0,094	0,092
-512,058	287,940	-0,077	-0,102
-511,043	-154,266	0,071	-0,003
-510,029	800,000	-0,029	0,070
-509,014	43,688	-0,096	0,064
-507,999	-200,000	0,020	0,121
-506,985	-122,682	-0,229	0,027
-505,970	-200,000	-0,048	-0,174
-504,956	356,227	-0,072	0,105
-503,941	-200,000	0,021	0,093
-502,926	-67,207	0,094	0,027
-501,912	42,507	-0,046	0,030
-500,897	12,430	-0,064	0,036
-499,883	323,411	0,048	0,067
-498,868	-49,823	-0,114	-0,040
-497,853	-118,823	0,097	-0,012
-496,839	69,210	0,129	-0,097
-495,824	64,929	0,088	-0,065
-494,810	386,507	-0,055	0,084
-493,795	650,320	0,026	-0,048
-492,781	64,503	-0,024	0,017
-491,766	-20,715	0,033	-0,015
-490,751	-200,000	-0,005	-0,145
-489,737	579,432	0,071	-0,127
-488,722	-200,000	0,018	0,058
-487,708	538,273	-0,029	0,050
-486,693	591,891	-0,057	0,102
-485,678	800,000	0,057	0,182
-484,664	-200,000	-0,003	0,033
-483,649	766,432	-0,009	0,018
-482,635	665,617	0,022	-0,041
-481,620	800,000	-0,021	0,048
-480,605	790,032	0,020	-0,040
-479,591	-131,277	0,200	-0,019
-478,576	169,435	-0,064	0,067
-477,562	35,837	0,076	-0,049
-476,547	-160,074	-0,144	0,006
-475,532	13,897	0,032	0,018
-474,518	98,747	0,082	-0,069
-473,503	-200,000	-0,002	0,026
-472,489	800,000	-0,072	-0,184
-471,474	115,130	-0,098	0,087
-470,459	273,329	0,044	-0,057
-469,445	-48,991	0,169	-0,059
-468,430	50,439	-0,028	-0,019
-467,416	-200,000	0,018	0,080
-466,401	-189,050	0,052	0,000
-465,386	-59,537	-0,012	-0,004
-464,372	-200,000	0,006	-0,036
-463,357	271,657	-0,016	-0,020
-462,343	70,555	0,037	0,028
-461,328	-200,000	-0,007	0,077
-460,313	-200,000	-0,038	0,201
-459,299	800,000	0,040	0,090
-458,284	412,147	-0,102	0,159
-457,270	22,302	-0,055	0,033
-456,255	-92,356	0,097	-0,020
-455,241	623,557	-0,021	0,039
-454,226	-200,000	-0,016	-0,097
-453,211	-200,000	-0,007	0,139
-452,197	-200,000	-0,003	0,111
-451,182	-200,000	-0,044	0,212
-450,168	119,030	-0,033	0,030
-449,153	-200,000	0,010	-0,053
-448,138	-59,931	-0,086	-0,027
-447,124	0,447	0,039	-0,020
-446,109	800,000	-0,034	-0,100
-445,095	-200,000	-0,001	-0,120
-444,080	-200,000	-0,007	0,038
-443,065	800,000	0,035	0,090
-442,051	-3,088	-0,121	-0,061
-441,036	-126,940	-0,131	-0,014
-440,022	-28,498	-0,073	-0,031
-439,007	66,951	-0,091	-0,067
-437,992	472,886	-0,011	-0,018
-436,978	-129,846	-0,157	0,016
-435,963	310,244	0,071	0,097
-434,949	-93,080	-0,105	-0,021
-433,934	98,102	-0,058	-0,049
-432,919	111,301	0,048	-0,042
-431,905	280,490	-0,106	-0,139
-430,890	-22,275	0,171	-0,075
-429,876	800,000	-0,030	0,083
-428,861	-87,779	0,004	-0,001
-427,846	-200,000	0,006	-0,086
-426,832	-200,000	-0,000	0,097
-425,817	800,000	0,027	-0,085
-424,803	-200,000	0,024	0,133
-423,788	543,745	0,023	-0,040
-422,773	800,000	0,059	0,151
-421,759	-149,306	-0,038	0,002
-420,744	800,000	0,067	-0,166
-419,730	221,994	-0,028	-0,033
-418,715	-6,184	-0,129	0,064
-417,701	-200,000	-0,008	0,115
-416,686	299,207	0,025	-0,034
-415,671	800,000	0,054	0,150
-414,657	-1,582	-0,104	-0,053
-413,642	88,865	0,058	0,047
-412,628	371,533	0,104	0,154
-411,613	-102,972	0,019	0,003
-410,598	44,166	0,105	-0,070
-409,584	800,000	0,021	0,066
-408,569	800,000	0,035	-0,098
-407,555	-200,000	0,026	0,102
-406,540	-123,257	-0,031	0,004
-405,525	85,359	-0,126	0,101
-404,511	-168,380	0,044	-0,001
-403,496	47,473	0,091	-0,062
-402,482	-200,000	-0,012	0,105
-401,467	495,899	0,096	0,161
-400,452	-200,000	-0,009	0,107
-399,438	120,994	0,121	0,110
-398,423	-134,026	-0,049	-0,004
-397,409	-130,037	-0,141	-0,014
-396,394	-200,000	-0,003	0,020
-395,379	800,000	-0,080	0,168
-394,365	-129,289	0,057	-0,006
-393,350	-155,968	0,173	-0,008
-392,336	0,212	0,038	0,020
-391,321	490,162	0,013	0,022
-390,306	133,741	-0,079	-0,075
-389,292	283,411	-0,049	-0,065
-388,277	-59,147	0,085	0,026
-387,263	-200,000	-0,030	0,125
-386,248	-114,017	-0,081	-0,011
-385,233	-110,465	-0,121	-0,018
-384,219	18,638	0,119	-0,069
-383,204	-200,000	0,028	-0,194
-382,190	-200,000	-0,007	0,031
-381,175	64,626	0,082	0,060
-380,160	-200,000	-0,009	-0,042
-379,146	552,679	-0,035	0,061
-378,131	458,252	0,004	-0,007
-377,117	258,586	0,075	0,094
-376,102	210,427	-0,076	0,087
-375,088	100,491	0,128	-0,108
-374,073	126,141	-0,102	-0,094
-373,058	-200,000	-0,033	-0,113
-372,044	-200,000	0,004	0,083
-371,029	-200,000	0,027	0,127
-370,015	-200,000	-0,009	-0,030
-369,000	-167,275	0,079	0,002
-367,985	-146,232	-0,077	0,005
-366,971	70,258	0,062	-0,046
-365,956	43,625	-0,038	-0,025
-364,942	-47,777	0,172	0,060
-363,927	-40,242	0,055	0,021
-362,912	39,682	-0,045	0,029
-361,898	-71,543	0,305	-0,082
-360,883	79,680	0,132	-0,103
-359,869	-200,000	0,023	0,107
-358,854	800,000	0,026	-0,081
-357,839	-200,000	-0,001	0,011
-356,825	667,888	0,079	-0,149
-355,810	180,004	0,024	-0,026
-354,796	171,497	-0,073	-0,076
-353,781	378,378	0,049	-0,072
-352,766	270,522	-0,026	-0,034
-351,752	82,889	0,089	0,070
-350,737	138,122	-0,101	0,096
-349,723	-150,015	-0,046	0,003
-348,708	-118,368	-0,064	0,008
-347,693	163,594	-0,044	0,045
-346,679	68,681	-0,171	-0,127
-345,664	-93,371	0,104	-0,021
-344,650	-34,443	-0,061	-0,024
-343,635	718,031	0,021	0,040
-342,620	-57,944	0,035	-0,011
-341,606	800,000	0,015	0,044
-340,591	45,782	0,120	0,080
-339,577	-11,456	-0,139	0,066
-338,562	-146,856	0,101	-0,006
-337,548	67,041	0,066	-0,049
-336,533	511,111	0,005	-0,008
-335,518	29,173	0,042	0,026
-334,504	88,968	0,082	-0,066
-333,489	146,454	0,050	-0,049
-332,475	1,771	-0,093	0,048
-331,460	76,169	-0,076	0,059
-330,445	253,188	-0,080	-0,100
-329,431	-83,388	0,066	0,015
-328,416	102,744	0,068	0,058
-327,402	-51,659	-0,022	0,007
-326,387	800,000	-0,034	-0,087
-325,372	-19,133	0,076	-0,034
-324,358	104,650	-0,037	-0,031
-323,343	173,281	0,090	-0,095
-322,329	-108,657	0,148	-0,023
-321,314	474,579	0,088	0,145
-320,299	-59,109	0,122	-0,038
-319,285	-200,000	-0,017	0,070
-318,270	-200,000	-0,001	0,003
-317,256	180,003	-0,062	-0,067
-316,241	558,494	0,064	0,113
-315,226	-200,000	0,011	0,089
-314,212	-31,424	0,155	0,063
-313,197	800,000	0,007	0,023
-312,183	800,000	-0,024	-0,054
-311,168	139,214	-0,075	-0,072
-310,153	400,065	0,026	0,039
-309,139	-26,311	-0,052	0,022
-308,124	511,432	0,071	-0,120
-307,110	115,071	-0,093	-0,082
-306,095	800,000	0,031	-0,089
-305,080	-76,756	0,026	0,007
-304,066	-200,000	-0,032	-0,197
-303,051	-200,000	-0,004	-0,155
-302,037	-48,887	-0,109	-0,038
-301,022	-26,423	0,063	-0,027
-300,008	-109,589	-0,088	-0,013
-298,993	421,605	-0,022	-0,034
-297,978	-61,668	-0,085	0,026
-296,964	-200,000	0,007	-0,029
-295,949	183,938	-0,064	0,069
-294,935	-200,000	-0,013	-0,048
-293,920	-200,000	-0,023	-0,109
-292,905	-200,000	0,010	0,087
-291,891	132,169	0,080	0,075
-290,876	17,333	0,081	0,047
-289,862	-200,000	-0,005	0,038
-288,847	-0,398	-0,041	0,021
-287,832	-200,000	-0,001	-0,015
-286,818	38,527	-0,011	-0,007
-285,803	-119,786	0,080	0,010
-284,789	542,539	0,020	0,035
-283,774	-54,080	0,085	-0,028
-282,759	-33,458	0,138	0,055
-281,745	-200,000	-0,026	-0,083
-280,730	491,922	0,016	0,027
-279,716	800,000	-0,033	0,071
-278,701	-23,025	0,042	0,018
-277,686	-200,000	-0,019	0,075
-276,672	-200,000	-0,008	0,109
-275,657	-97,023	-0,030	-0,006
-274,643	-200,000	-0,034	0,132
-273,628	197,156	0,017	0,019
-272,613	12,380	-0,081	-0,045
-271,599	-74,388	0,035	0,009
-270,584	-165,489	0,025	-0,001
-269,570	800,000	-0,048	0,104
-268,555	-200,000	-0,024	0,151
-267,540	-30,894	-0,075	-0,030
-266,526	800,000	0,073	-0,183
-265,511	-200,000	-0,040	-0,147
-264,497	233,575	0,119	0,143
-263,482	381,106	0,086	0,128
-262,467	141,361	0,035	-0,033
-261,453	180,678	0,077	-0,082
-260,438	186,667	-0,025	-0,027
-259,424	248,459	0,045	-0,055
-258,409	272,250	-0,061	0,078
-257,395	173,734	0,097	0,101
-256,380	-105,408	0,027	-0,004
-255,365	126,159	-0,016	-0,014
-254,351	-147,241	-0,014	0,001
-253,336	57,854	-0,092	0,065
-252,322	50,459	-0,065	-0,044
-251,307	-200,000	-0,012	-0,053
-250,292	117,455	0,089	-0,079
-249,278	800,000	0,040	0,127
-248,263	-125,411	0,176	-0,019
-247,249	-61,771	0,065	0,019
-246,234	-22,328	-0,090	-0,039
-245,219	455,267	0,056	0,090
-244,205	-200,000	-0,011	-0,051
-243,190	-180,734	0,052	-0,001
-242,176	-200,000	0,001	-0,020
-241,161	-4,414	0,152	-0,076
-240,146	121,366	-0,050	0,045
-239,132	-131,818	0,066	-0,006
-238,117	505,903	-0,082	-0,139
-237,103	224,277	0,033	-0,038
-236,088	34,197	-0,082	0,051
-235,073	-200,000	0,026	0,089
-234,059	770,703	-0,029	0,057
-233,044	691,239	-0,022	0,042
-232,030	407,031	-0,040	-0,061
-231,015	408,547	-0,046	0,071
-230,000	-73,183	-0,085	-0,022
-228,986	-28,290	0,061	0,025
-227,971	16,578	0,038	0,022
-226,957	87,092	0,131	0,105
-225,942	800,000	-0,048	0,102
-224,927	412,446	-0,065	-0,100
-223,913	89,401	-0,030	0,024
-222,898	-200,000	-0,019	-0,097
-221,884	-105,101	-0,089	-0,015
-220,869	159,739	-0,084	-0,085
-219,855	800,000	0,078	-0,199
-218,840	-200,000	-0,020	-0,145
-217,825	800,000	0,060	0,166
-216,811	-47,282	-0,036	-0,013
-215,796	194,758	-0,064	0,070
-214,782	292,982	0,025	-0,032
-213,767	-7,618	0,087	-0,042
-212,752	800,000	-0,014	-0,030
-211,738	-200,000	-0,000	-0,020
-210,723	800,000	-0,060	0,122
-209,709	-28,302	-0,100	-0,042
-208,694	-122,455	-0,035	-0,004
-207,679	-78,957	-0,158	-0,039
-206,665	411,056	-0,041	0,064
-205,650	-126,405	0,028	-0,003
-204,636	160,757	-0,012	0,012
-203,621	109,225	0,097	-0,084
-202,606	-200,000	-0,024	-0,104
-201,592	694,128	0,008	0,015
-200,577	-150,477	0,079	0,004
-199,563	4,556	-0,090	-0,048
-198,548	800,000	0,059	0,118
-197,533	209,159	-0,054	0,061
-196,519	-111,760	-0,084	0,012
-195,504	162,139	-0,163	-0,165
-194,490	359,255	0,038	0,055
-193,475	34,937	-0,180	0,114
-192,460	800,000	0,031	-0,096
-191,446	-200,000	-0,001	-0,095
-190,431	187,009	0,047	-0,051
-189,417	-200,000	0,025	0,102
-188,402	800,000	-0,029	0,072
-187,387	226,053	-0,075	-0,088
-186,373	442,232	0,045	-0,071
-185,358	-200,000	-0,002	-0,062
-184,344	800,000	0,049	0,150
-183,329	17,345	-0,038	0,022
-182,315	-200,000	0,030	0,116
-181,300	800,000	-0,064	-0,132
-180,285	-32,737	0,178	-0,071
-179,271	26,751	-0,080	-0,048
-178,256	261,115	0,025	0,031
-177,242	-139,109	0,064	0,005
-176,227	488,902	-0,068	0,112
-175,212	-200,000	0,003	0,051
-174,198	800,000	0,032	-0,065
-173,183	-200,000	-0,028	-0,094
-172,169	800,000	-0,055	-0,153
-171,154	-200,000	0,024	-0,186
-170,139	-144,927	0,150	0,010
-169,125	212,600	0,078	-0,089
-168,110	-45,726	0,090	0,032
-167,096	-58,840	0,039	-0,012
-166,081	-200,000	-0,010	0,042
-165,066	-126,054	-0,134	-0,014
-164,052	86,139	-0,019	0,015
-163,037	696,353	0,044	0,085
-162,023	228,219	0,032	-0,037
-161,008	800,000	0,041	-0,110
-159,993	-53,471	0,067	0,022
-158,979	125,892	-0,060	-0,055
-157,964	46,366	-0,066	-0,044
-156,950	-200,000	0,005	-0,060
-155,935	-200,000	-0,012	-0,054
-154,920	212,058	-0,022	0,025
-153,906	46,880	0,085	-0,057
-152,891	-200,000	-0,044	-0,195
-151,877	-200,000	-0,008	0,035
-150,862	755,912	-0,036	0,070
-149,847	-186,156	0,020	-0,000
-148,833	-40,554	0,057	-0,021
-147,818	112,579	-0,051	0,044
-146,804	153,479	0,110	0,109
-145,789	-200,000	0,001	0,069
-144,775	800,000	-0,081	0,173
-143,760	39,807	0,071	0,046
-142,745	74,619	0,078	0,059
-141,731	800,000	0,006	-0,013
-140,716	-130,615	0,133	0,013
-139,702	800,000	-0,021	0,054
-138,687	-78,516	0,113	-0,028
-137,672	-91,653	-0,094	-0,019
-136,658	218,369	-0,024	-0,028
-135,643	800,000	-0,018	-0,048
-134,629	166,156	-0,054	-0,055
-133,614	237,755	0,003	-0,003
-132,599	-200,000	0,028	0,111
-131,585	-200,000	-0,002	0,109
-130,570	-101,947	0,125	0,021
-129,556	-90,342	-0,067	0,014
-128,541	-200,000	0,009	0,029
-127,526	22,345	0,122	0,072
-126,512	296,457	-0,012	-0,016
-125,497	-164,307	0,204	0,007
-124,483	67,033	0,098	0,072
-123,468	7,267	-0,110	-0,059
-122,453	-45,240	-0,051	-0,018
-121,439	-157,318	-0,122	0,005
-120,424	800,000	0,063	-0,135
-119,410	3,160	-0,150	0,078
-118,395	362,400	0,070	0,101
-117,380	-200,000	0,001	0,020
-116,366	101,680	-0,085	0,071
-115,351	800,000	-0,051	0,162
-114,337	105,519	-0,018	-0,016
-113,322	280,676	-0,028	-0,036
-112,307	-7,867	0,101	0,049
-111,293	-200,000	0,005	-0,132
-110,278	580,151	0,028	-0,049
-109,264	-200,000	-0,012	0,155
-108,249	-83,917	-0,032	0,007
-107,234	126,237	0,048	-0,044
-106,220	-200,000	-0,011	0,098
-105,205	-143,318	0,054	0,004
-104,191	184,596	0,007	0,008
-103,176	-200,000	-0,003	0,109
-102,162	-165,710	0,053	0,002
-101,147	800,000	-0,032	-0,075
-100,132	282,794	-0,078	-0,100
-99,118	800,000	0,020	-0,051
-98,103	306,900	-0,039	-0,052
-97,089	-135,324	0,065	0,006
-96,074	-200,000	0,013	-0,115
-95,059	28,997	0,071	-0,043
-94,045	800,000	-0,059	0,158
-93,030	-200,000	-0,006	0,029
-92,016	152,022	0,056	0,055
-91,001	115,427	-0,065	0,057
-89,986	-76,999	0,066	0,017
-88,972	-40,573	0,111	0,041
-87,957	159,316	-0,022	0,022
-86,943	-94,760	-0,123	-0,024
-85,928	137,569	-0,066	0,062
-84,913	798,265	-0,060	-0,120
-83,899	-200,000	-0,011	0,109
-82,884	41,175	0,022	-0,015
-81,870	-153,489	0,124	-0,006
-80,855	260,125	-0,036	0,044
-79,840	800,000	-0,020	-0,055
-78,826	35,844	-0,090	0,056
-77,811	41,454	-0,018	0,012
-76,797	-81,599	0,097	0,023
-75,782	800,000	-0,034	0,102
-74,767	66,739	-0,128	-0,093
-73,753	-200,000	-0,003	0,051
-72,738	-60,402	0,079	0,024
-71,724	-200,000	-0,001	-0,021
-70,709	-151,933	-0,034	0,002
-69,694	800,000	-0,032	0,081
-68,680	-127,647	0,085	0,009
-67,665	-200,000	0,018	0,099
-66,651	-200,000	-0,025	-0,121
-65,636	800,000	-0,049	0,097
-64,622	-200,000	0,008	-0,043
-63,607	-200,000	0,029	-0,113
-62,592	-12,487	-0,087	0,041
-61,578	213,646	0,059	-0,067
-60,563	-200,000	-0,020	-0,103
-59,549	355,513	0,088	0,127
-58,534	70,434	-2,645	-1,962
-57,519	131,416	0,292	-0,270
-56,505	800,000	-1,894	-5,487
-55,490	304,577	1,355	1,811
-54,476	800,000	5,266	11,261
-53,461	-200,000	22,202	347,991
-52,446	800,000	760,051	2311,283
-51,432	519,316	1647,847	2783,036
-50,417	100,662	1611,651	1344,210
-49,403	68,980	1268,366	934,799
-48,388	24,103	1019,187	602,619
-47,373	19,326	985,888	567,137
-46,359	13,187	973,185	539,692
-45,344	9,056	969,642	524,159
-44,330	9,402	967,887	524,325
-43,315	8,500	965,948	520,300
-42,300	8,417	964,831	519,406
-41,286	8,374	963,753	518,663
-40,271	8,392	962,673	518,122
-39,257	8,349	961,970	517,582
-38,242	8,328	961,088	517,019
-37,227	8,351	960,140	516,562
-36,213	8,341	959,585	516,212
-35,198	8,306	958,563	515,529
-34,184	8,355	957,726	515,215
-33,169	8,326	956,871	514,643
-32,154	8,396	955,681	514,208
-31,140	8,413	954,908	513,827
-30,125	8,354	954,320	513,298
-29,111	8,360	953,442	512,826
-28,096	8,383	952,905	512,591
-27,082	8,351	952,161	512,066
-26,067	8,308	951,517	511,563
-25,052	8,346	950,705	511,227
-24,038	8,286	949,901	510,581
-23,023	8,309	949,216	510,267
-22,009	8,356	948,906	510,230
-20,994	8,382	948,270	509,953
-19,979	8,381	947,673	509,608
-18,965	8,333	946,933	509,036
-17,950	8,340	946,278	508,685
-16,936	8,302	945,518	508,137
-15,921	8,307	944,872	507,785
-14,906	8,270	944,106	507,234
-13,892	8,233	943,626	506,839
-12,877	8,202	942,923	506,342
-11,863	8,241	942,150	506,030
-10,848	8,209	941,948	505,800
-9,833	8,333	941,286	505,820
-8,819	8,298	940,740	505,393
-7,804	8,311	939,743	504,879
-6,790	8,215	939,282	504,307
-5,775	8,291	938,834	504,288
-4,760	8,254	938,274	503,850
-3,746	8,255	937,588	503,466
-2,731	8,121	936,885	502,643
-1,717	8,054	936,376	502,136
-0,702	8,152	935,454	501,934
0,313	7,964	934,924	501,809
1,327	11,324	932,767	511,219
2,342	19,848	781,002	450,421
3,356	14,852	448,087	250,874
4,371	-11,443	312,019	146,757
5,386	-15,109	294,337	134,727
6,400	-17,281	288,264	129,787
7,415	-17,354	285,737	128,566
8,429	-17,928	283,868	127,155
9,444	-18,015	283,067	126,700
10,459	-17,785	282,398	126,612
11,473	-17,942	281,832	126,195
12,488	-17,911	281,430	126,034
13,502	-18,069	280,897	125,632
14,517	-17,764	280,363	125,676
15,531	-17,721	279,951	125,521
16,546	-17,563	279,799	125,592
17,561	-17,627	279,133	125,221
18,575	-17,432	278,897	125,291
19,590	-17,683	278,670	124,938
20,604	-17,541	278,293	124,893
21,619	-17,680	278,007	124,622
22,634	-17,381	277,518	124,676
23,648	-17,545	277,264	124,394
24,663	-17,480	276,947	124,303
25,677	-17,636	276,703	124,034
26,692	-17,522	276,575	124,074
27,707	-17,648	276,223	123,785
28,721	-17,660	275,930	123,632
29,736	-17,671	275,652	123,486
30,750	-17,604	275,385	123,418
31,765	-17,698	275,149	123,213
32,780	-17,606	274,951	123,200
33,794	-17,480	274,624	123,161
34,809	-17,720	274,426	122,836
35,823	-17,703	274,147	122,716
36,838	-17,727	273,835	122,543
37,853	-17,478	273,512	122,621
38,867	-17,501	273,260	122,475
39,882	-17,519	273,179	122,411
40,896	-17,648	272,960	122,182
41,911	-17,623	272,674	122,065
42,926	-17,465	272,300	122,035
43,940	-17,591	272,160	121,844
44,955	-17,575	271,988	121,771
45,969	-17,594	271,837	121,675
46,984	-17,548	271,679	121,636
47,999	-17,396	271,365	121,626
49,013	-17,361	271,191	121,569
50,028	-17,285	270,946	121,519
51,042	-17,293	270,734	121,406
52,057	-17,272	270,436	121,280
53,071	-17,304	270,288	121,174
54,086	-17,371	269,938	120,944
55,101	-17,507	269,834	120,761
56,115	-17,493	269,563	120,642
57,130	-17,461	269,226	120,510
58,144	-17,607	269,051	120,287
59,159	-17,728	268,756	120,033
60,174	-17,780	268,667	119,935
61,188	-17,449	268,272	120,051
62,203	-17,474	267,993	119,893
63,217	-17,551	268,080	119,851
64,232	-17,594	267,622	119,596
65,247	-17,779	267,552	119,385
66,261	-17,528	267,193	119,443
67,276	-17,668	267,094	119,260
68,290	-17,609	266,870	119,204
69,305	-17,396	266,549	119,243
70,320	-17,417	266,428	119,159
71,334	-17,386	266,082	119,022
72,349	-17,603	265,836	118,705
73,363	-17,561	265,518	118,591
74,378	-17,492	265,322	118,554
75,393	-17,509	265,028	118,397
76,407	-17,470	264,931	118,379
77,422	-17,383	264,749	118,365
78,436	-17,675	264,514	117,986
79,451	-17,554	264,308	117,993
80,466	-17,427	263,971	117,947
81,480	-17,434	263,874	117,887
82,495	-17,522	263,605	117,677
83,509	-17,284	263,294	117,740
84,524	-17,329	263,193	117,645
85,539	-17,546	262,988	117,348
86,553	-17,477	262,824	117,326
87,568	-17,518	262,528	117,146
88,582	-17,532	262,362	117,050
89,597	-17,375	262,082	117,055
90,611	-17,419	261,879	116,915
91,626	-17,379	261,629	116,828
92,641	-17,507	261,466	116,631
93,655	-17,200	261,302	116,821
94,670	-17,462	261,082	116,478
95,684	-17,370	260,786	116,418
96,699	-17,552	260,829	116,265
97,714	-17,521	260,447	116,112
98,728	-17,530	260,308	116,032
99,743	-17,560	260,238	115,964
100,757	-17,290	259,842	116,016
101,772	-17,498	259,731	115,771
102,787	-17,487	259,365	115,608
103,801	-17,307	259,242	115,702
104,816	-17,595	259,093	115,371
105,830	-17,418	258,951	115,453
106,845	-17,387	258,674	115,347
107,860	-17,380	258,451	115,243
108,874	-17,455	258,222	115,065
109,889	-17,322	258,018	115,081
110,903	-17,545	257,782	114,770
111,918	-17,501	257,721	114,770
112,933	-17,606	257,455	114,550
113,947	-17,323	257,205	114,677
114,962	-17,512	257,070	114,441
115,976	-17,498	256,900	114,367
116,991	-17,517	256,493	114,159
118,006	-17,503	256,459	114,146
119,020	-17,395	256,402	114,204
120,035	-17,494	256,197	114,017
121,049	-17,586	255,931	113,808
122,064	-17,443	255,656	113,800
123,079	-17,498	255,547	113,694
124,093	-17,353	255,362	113,727
125,108	-17,445	255,104	113,522
126,122	-17,301	255,051	113,614
127,137	-17,260	254,672	113,470
128,151	-17,268	254,673	113,453
129,166	-17,215	254,432	113,381
130,181	-17,511	254,344	113,077
131,195	-17,269	253,879	113,069
132,210	-17,293	253,683	112,951
133,224	-17,422	253,521	112,757
134,239	-17,331	253,292	112,723
135,254	-17,391	253,112	112,582
136,268	-17,268	252,873	112,570
137,283	-17,321	252,650	112,416
138,297	-17,266	252,623	112,441
139,312	-17,395	252,330	112,190
140,327	-17,298	252,130	112,175
141,341	-17,279	251,862	112,061
142,356	-17,462	251,653	111,803
143,370	-17,342	251,570	111,857
144,385	-17,286	251,283	111,768
145,400	-17,332	251,131	111,651
146,414	-17,483	250,894	111,407
147,429	-17,401	250,703	111,383
148,443	-17,356	250,576	111,354
149,458	-17,661	250,472	111,039
150,473	-17,422	250,244	111,131
151,487	-17,477	249,947	110,943
152,502	-17,354	249,864	110,999
153,516	-17,334	249,661	110,917
154,531	-17,373	249,327	110,725
155,546	-17,596	249,320	110,523
156,560	-17,506	249,124	110,503
157,575	-17,367	248,741	110,441
158,589	-17,422	248,625	110,333
159,604	-17,628	248,594	110,136
160,619	-17,278	248,306	110,293
161,633	-17,475	248,171	110,057
162,648	-17,402	247,944	110,008
163,662	-17,430	247,800	109,911
164,677	-17,639	247,674	109,670
165,692	-17,336	247,461	109,820
166,706	-17,167	247,238	109,853
167,721	-17,293	247,001	109,632
168,735	-17,275	246,947	109,614
169,750	-17,393	246,934	109,499
170,764	-17,411	246,597	109,325
171,779	-17,477	246,491	109,214
172,794	-17,346	246,180	109,174
173,808	-17,488	246,296	109,099
174,823	-17,381	245,949	109,024
175,837	-17,463	245,901	108,925
176,852	-17,375	245,603	108,856
177,867	-17,385	245,453	108,771
178,881	-17,318	245,271	108,737
179,896	-17,369	245,063	108,592
180,910	-17,498	244,955	108,428
181,925	-17,339	244,742	108,456
182,940	-17,415	244,554	108,300
183,954	-17,575	244,418	108,098
184,969	-17,409	244,136	108,101
185,983	-17,434	244,173	108,087
186,998	-17,335	243,948	108,059
188,013	-17,393	243,786	107,930
189,027	-17,559	243,653	107,724
190,042	-17,403	243,241	107,661
191,056	-17,433	243,122	107,574
192,071	-17,537	243,010	107,430
193,086	-17,466	242,717	107,349
194,100	-17,706	242,714	107,141
195,115	-17,212	242,378	107,388
196,129	-17,375	242,183	107,158
197,144	-17,121	241,900	107,231
198,159	-17,439	241,815	106,924
199,173	-17,342	241,661	106,926
200,188	-17,453	241,461	106,737
201,202	-17,487	241,278	106,619
202,217	-17,432	241,106	106,579
203,232	-17,229	241,021	106,696
204,246	-17,538	240,791	106,334
205,261	-17,996	240,497	105,823
206,275	-16,461	240,815	107,200
207,290	-11,701	242,682	111,915
208,304	-4,951	244,577	118,331
209,319	-2,203	245,303	120,933
210,334	-1,199	245,538	121,864
211,348	-0,189	245,813	122,821
212,363	0,523	245,773	123,375
213,377	0,845	245,769	123,627
214,392	1,000	245,741	123,730
215,407	1,239	245,593	123,840
216,421	1,604	245,448	124,056
217,436	1,334	245,496	123,847
218,450	1,433	245,247	123,792
219,465	1,606	245,114	123,856
220,480	1,552	244,917	123,700
221,494	1,431	244,810	123,536
222,509	0,946	244,433	122,939
223,523	0,840	244,090	122,669
224,538	0,873	243,904	122,591
225,553	0,749	243,836	122,445
226,567	0,731	243,719	122,361
227,582	0,845	243,534	122,350
228,596	0,668	243,407	122,132
229,611	0,844	243,086	122,102
230,626	0,731	243,143	122,029
231,640	0,798	242,951	121,975
232,655	0,684	242,577	121,685
233,669	0,542	242,522	121,531
234,684	0,554	242,341	121,439
235,699	0,785	242,315	121,602
236,713	0,657	242,109	121,385
237,728	0,881	241,854	121,427
238,742	0,722	241,776	121,248
239,757	0,710	241,525	121,102
240,772	0,679	241,348	120,977
241,786	0,721	241,367	121,010
242,801	0,619	241,187	120,827
243,815	0,733	241,000	120,814
244,830	0,726	240,719	120,657
245,844	0,632	240,728	120,575
246,859	0,587	240,426	120,377
247,874	0,755	240,369	120,473
248,888	0,841	240,102	120,397
249,903	0,673	240,100	120,251
250,917	0,861	240,004	120,342
251,932	0,780	239,818	120,174
252,947	1,083	239,494	120,242
253,961	0,806	239,467	119,997
254,976	0,927	239,181	119,939
255,990	0,589	239,151	119,644
257,005	1,036	238,989	119,908
258,020	0,770	238,937	119,660
259,034	0,715	238,752	119,513
260,049	0,914	238,533	119,551
261,063	0,887	238,308	119,406
262,078	0,947	238,104	119,340
263,093	0,893	237,801	119,136
264,107	0,900	237,880	119,170
265,122	0,713	237,636	118,889
266,136	0,814	237,650	118,965
267,151	0,859	237,424	118,877
268,166	0,662	237,232	118,614
269,180	0,848	237,051	118,661
270,195	0,837	236,845	118,538
271,209	0,935	236,795	118,579
272,224	0,580	236,721	118,252
273,239	0,744	236,456	118,239
274,253	0,815	236,219	118,165
275,268	0,814	236,096	118,092
276,282	0,799	235,938	117,991
277,297	0,518	235,997	117,790
278,312	0,845	235,673	117,874
279,326	0,664	235,554	117,661
280,341	0,826	235,449	117,726
281,355	0,870	235,233	117,641
282,370	0,952	235,166	117,662
283,384	0,716	234,962	117,365
284,399	0,760	234,808	117,312
285,414	0,558	234,638	117,058
286,428	0,803	234,566	117,203
287,443	0,706	234,321	116,995
288,457	0,996	234,282	117,190
289,472	0,825	234,056	116,935
290,487	0,885	233,960	116,923
291,501	0,786	233,740	116,725
292,516	0,929	233,596	116,755
293,530	0,754	233,502	116,561
294,545	0,928	233,358	116,614
295,560	0,976	233,191	116,556
296,574	0,754	233,143	116,351
297,589	0,991	232,817	116,361
298,603	0,738	232,680	116,087
299,618	0,719	232,732	116,087
300,633	1,015	232,499	116,189
301,647	1,066	232,433	116,185
302,662	0,935	232,238	115,977
303,676	0,897	232,107	115,872
304,691	0,963	231,867	115,792
305,706	1,059	231,641	115,742
306,720	1,150	231,462	115,713
307,735	0,995	231,238	115,471
308,749	1,047	231,284	115,524
309,764	1,069	231,197	115,487
310,779	1,064	230,894	115,322
311,793	1,094	230,804	115,289
312,808	0,862	230,691	115,045
313,822	1,047	230,501	115,082
314,837	1,109	230,373	115,055
315,852	0,949	230,303	114,887
316,866	1,160	230,039	114,907
317,881	0,946	230,078	114,752
318,895	0,975	229,919	114,685
319,910	1,294	229,532	114,724
320,925	1,180	229,413	114,568
321,939	0,973	229,283	114,335
322,954	1,267	229,178	114,496
323,968	1,086	229,081	114,300
324,983	0,814	229,037	114,062
325,997	0,969	228,870	114,085
327,012	1,041	228,538	113,965
328,027	1,138	228,506	114,012
329,041	1,011	228,481	113,893
330,056	1,100	228,203	113,812
331,070	1,177	228,109	113,813
332,085	1,148	227,865	113,659
333,100	1,194	227,562	113,532
334,114	0,872	227,604	113,301
335,129	1,007	227,475	113,328
336,143	1,054	227,236	113,234
337,158	1,059	227,312	113,266
338,173	1,097	227,030	113,144
339,187	0,948	227,005	113,009
340,202	1,108	226,847	113,040
341,216	1,277	226,577	113,022
342,231	1,307	226,385	112,939
343,246	1,228	226,236	112,795
344,260	1,334	226,137	112,816
345,275	1,205	226,178	112,729
346,289	1,262	225,955	112,651
347,304	1,012	225,884	112,419
348,319	1,245	225,574	112,428
349,333	1,008	225,589	112,248
350,348	1,095	225,367	112,193
351,362	1,014	225,341	112,110
352,377	1,269	225,039	112,140
353,392	1,213	224,959	112,048
354,406	1,447	224,694	112,079
355,421	192,464	1311,256	1378,722
356,435	154,158	1443,501	1378,566
