DTS Sentinel unit serial number:	SN410029Multiplexer serial number:	ORYXHardware model number:	OX2-SRSoftware version number:	ORYX F/W v4,00 Oryx Data Collector v3.7.2.0data status	okinstallation	B5 Nyhavnadifferential loss correction	single-endedforward channel	channel 2reverse channel	N/Adate	2023/12/13time	01:52:13forward acquisition time	300,00reverse acquisition time	0,00gamma	499,1914k internal	0,3159k external	0,3159temperature offset calibration	1,0000default loss term (dB/km)	0,3820temperature slope calibration	1,0000multiplexer offset coefficient	1,0000multiplexer slope coefficient	1,0000fibre end	0,00T internal ref (°C)	14,06T ext. ref 1 (°C)	-2,37T ext. ref 2 (°C)	-2,64length (m)	temperature (°C)	Stokes	anti-Stokes-744,400	178,381	0,067	-0,072
-743,385	-66,080	-0,273	-0,080
-742,371	-53,335	0,142	0,048
-741,356	-104,788	-0,414	-0,069
-740,342	800,000	0,071	0,175
-739,327	-138,875	-0,456	-0,036
-738,312	-17,829	0,080	0,037
-737,298	-113,281	-0,327	0,047
-736,283	790,736	0,051	0,104
-735,269	-116,370	-0,252	0,034
-734,254	749,608	0,078	0,155
-733,239	-46,251	-0,495	-0,178
-732,225	-169,900	0,143	0,004
-731,210	-200,000	-0,027	0,173
-730,196	347,408	-0,063	-0,092
-729,181	466,212	0,074	-0,122
-728,167	73,102	-0,021	0,016
-727,152	-39,761	-0,101	0,039
-726,137	44,830	0,038	-0,026
-725,123	800,000	0,010	-0,029
-724,108	-7,564	-0,141	-0,070
-723,094	-36,675	-0,081	-0,032
-722,079	-200,000	-0,003	-0,195
-721,064	-75,088	0,093	-0,024
-720,050	-200,000	-0,000	-0,026
-719,035	78,276	-0,085	-0,067
-718,021	800,000	0,021	-0,043
-717,006	91,871	-0,070	-0,058
-715,991	-200,000	-0,002	-0,042
-714,977	-42,215	-0,167	-0,062
-713,962	46,836	-0,131	-0,089
-712,948	800,000	-0,039	0,120
-711,933	-80,299	0,059	-0,014
-710,918	13,853	-0,004	0,002
-709,904	208,742	0,061	-0,071
-708,889	-200,000	0,006	-0,070
-707,875	-103,181	-0,132	0,023
-706,860	406,174	0,051	0,080
-705,845	483,566	0,012	0,020
-704,831	431,170	0,067	0,107
-703,816	-125,420	-0,123	0,014
-702,802	-15,971	0,045	-0,021
-701,787	-30,873	-0,062	-0,026
-700,772	800,000	0,020	0,049
-699,758	-64,429	-0,029	-0,009
-698,743	64,482	-0,020	0,015
-697,729	-72,271	0,047	-0,013
-696,714	-200,000	-0,003	0,013
-695,699	14,444	0,028	-0,016
-694,685	-37,289	-0,174	0,068
-693,670	271,388	-0,053	-0,068
-692,656	-100,817	0,044	0,008
-691,641	164,476	-0,046	0,048
-690,627	152,167	-0,072	-0,072
-689,612	329,717	0,080	-0,113
-688,597	620,751	0,041	-0,076
-687,583	4,036	-0,047	0,025
-686,568	-49,154	-0,124	0,043
-685,554	461,417	-0,032	0,053
-684,539	-77,466	0,150	0,038
-683,524	-109,627	-0,237	-0,036
-682,510	800,000	0,050	-0,104
-681,495	800,000	0,043	-0,088
-680,481	-200,000	-0,004	-0,021
-679,466	-137,274	-0,116	0,010
-678,451	72,539	0,075	-0,057
-677,437	605,984	0,041	0,075
-676,422	800,000	-0,053	-0,150
-675,408	-61,727	-0,028	0,009
-674,393	-121,281	-0,076	-0,009
-673,378	-200,000	-0,023	0,139
-672,364	103,203	-0,100	-0,086
-671,349	-50,601	-0,053	-0,018
-670,335	-148,850	0,018	0,001
-669,320	-163,893	0,209	0,007
-668,305	-80,355	0,086	-0,021
-667,291	-200,000	-0,033	0,128
-666,276	485,403	-0,060	0,100
-665,262	800,000	-0,033	0,092
-664,247	91,385	-0,115	-0,095
-663,232	165,326	-0,146	-0,152
-662,218	6,284	-0,076	0,041
-661,203	115,277	0,108	0,097
-660,189	800,000	0,021	-0,044
-659,174	-162,178	-0,105	0,004
-658,159	-200,000	0,030	-0,098
-657,145	800,000	-0,071	-0,159
-656,130	260,007	-0,055	0,070
-655,116	-172,944	-0,140	-0,003
-654,101	-138,838	0,025	0,002
-653,086	-113,773	0,112	0,016
-652,072	800,000	0,034	0,086
-651,057	79,159	-0,057	-0,045
-650,043	382,252	-0,046	-0,070
-649,028	-97,020	-0,057	0,011
-648,014	407,365	-0,027	0,041
-646,999	182,496	0,080	0,087
-645,984	86,143	-0,050	-0,041
-644,970	800,000	-0,073	-0,178
-643,955	-110,775	-0,119	-0,018
-642,941	-143,689	-0,062	0,004
-641,926	800,000	0,040	0,121
-640,911	568,009	0,068	0,122
-639,897	-200,000	-0,006	-0,079
-638,882	-72,543	0,011	0,003
-637,868	-200,000	0,003	0,099
-636,853	-138,512	-0,042	-0,003
-635,838	104,062	-0,040	0,035
-634,824	-9,180	0,021	-0,010
-633,809	-200,000	-0,012	0,069
-632,795	-200,000	0,019	0,114
-631,780	488,100	-0,060	0,101
-630,765	-49,036	0,033	0,012
-629,751	-8,971	0,017	-0,008
-628,736	-200,000	-0,014	-0,071
-627,722	-200,000	0,034	-0,141
-626,707	-200,000	-0,006	-0,059
-625,692	-200,000	0,001	-0,049
-624,678	-73,668	0,073	-0,019
-623,663	236,641	-0,081	-0,099
-622,649	291,345	-0,042	-0,057
-621,634	670,689	0,035	-0,067
-620,619	97,401	0,032	-0,027
-619,605	-200,000	-0,018	0,069
-618,590	800,000	0,036	0,108
-617,576	-132,863	0,169	0,016
-616,561	66,787	-0,136	0,102
-615,546	143,781	0,052	0,051
-614,532	-99,262	0,103	-0,019
-613,517	11,124	0,006	-0,003
-612,503	307,046	-0,005	-0,007
-611,488	89,236	0,029	0,023
-610,474	800,000	0,053	0,122
-609,459	-200,000	0,010	-0,099
-608,444	-31,068	-0,103	-0,042
-607,430	-165,154	-0,124	0,004
-606,415	96,832	-0,082	0,069
-605,401	71,815	0,060	-0,045
-604,386	-19,182	0,063	0,029
-603,371	68,702	-0,011	-0,009
-602,357	-89,002	-0,060	-0,013
-601,342	494,649	-0,031	0,052
-600,328	-33,040	-0,101	-0,041
-599,313	34,969	-0,147	-0,094
-598,298	291,505	0,099	-0,132
-597,284	160,996	-0,087	0,089
-596,269	-156,084	0,021	-0,001
-595,255	-200,000	0,021	0,078
-594,240	463,485	0,057	-0,094
-593,225	-200,000	-0,009	-0,038
-592,211	74,786	-0,189	-0,145
-591,196	800,000	-0,069	-0,147
-590,182	-139,098	0,108	0,008
-589,167	80,927	0,125	0,098
-588,152	-200,000	-0,003	0,032
-587,138	256,041	0,052	-0,066
-586,123	-133,202	-0,151	-0,014
-585,109	80,080	0,075	0,059
-584,094	47,478	0,025	-0,017
-583,079	178,573	0,095	0,102
-582,065	322,532	0,048	0,067
-581,050	-200,000	-0,032	0,119
-580,036	361,799	0,054	0,080
-579,021	231,397	-0,062	-0,074
-578,006	-200,000	0,029	0,000
-576,992	-200,000	-0,017	0,060
-575,977	-115,746	0,092	-0,013
-574,963	800,000	-0,033	-0,081
-573,948	-40,739	0,106	0,040
-572,934	-3,329	-0,128	0,065
-571,919	207,004	-0,086	-0,098
-570,904	434,769	0,037	-0,059
-569,890	-85,300	-0,113	-0,026
-568,875	-64,761	0,085	0,025
-567,861	-3,156	0,053	0,027
-566,846	60,803	-0,035	0,026
-565,831	-117,639	-0,070	-0,009
-564,817	-200,000	0,005	-0,083
-563,802	-200,000	-0,040	-0,224
-562,788	-200,000	0,001	-0,047
-561,773	-200,000	0,003	0,053
-560,758	62,548	0,158	0,115
-559,744	-200,000	-0,032	0,150
-558,729	143,580	0,042	-0,041
-557,715	-200,000	-0,010	-0,035
-556,700	353,624	-0,084	-0,122
-555,685	194,164	-0,128	-0,143
-554,671	-200,000	0,007	-0,033
-553,656	161,942	0,125	0,128
-552,642	800,000	-0,037	0,075
-551,627	80,995	0,124	0,098
-550,612	-56,435	-0,119	-0,038
-549,598	800,000	0,059	-0,148
-548,583	-62,539	-0,194	-0,059
-547,569	-146,698	0,011	0,001
-546,554	228,534	-0,025	-0,030
-545,539	-21,843	0,068	-0,030
-544,525	7,359	0,070	-0,038
-543,510	85,358	-0,066	0,053
-542,496	800,000	0,025	0,063
-541,481	471,444	0,061	-0,100
-540,466	-35,530	0,182	-0,072
-539,452	-155,435	-0,130	-0,006
-538,437	-200,000	0,009	0,044
-537,423	800,000	-0,025	0,071
-536,408	800,000	-0,045	0,120
-535,393	-200,000	0,003	0,018
-534,379	561,403	0,079	-0,139
-533,364	566,937	0,050	0,088
-532,350	-97,794	0,105	-0,020
-531,335	-200,000	-0,035	0,139
-530,321	800,000	0,023	0,072
-529,306	108,936	-0,152	0,133
-528,291	116,485	0,076	0,068
-527,277	-200,000	-0,015	-0,085
-526,262	-200,000	0,010	-0,038
-525,248	209,821	0,170	0,195
-524,233	-43,608	-0,043	0,016
-523,218	-47,211	0,064	0,023
-522,204	-82,199	-0,082	-0,019
-521,189	-98,132	0,027	-0,005
-520,175	-200,000	0,021	-0,145
-519,160	64,164	-0,140	-0,102
-518,145	29,215	-0,048	-0,030
-517,131	800,000	0,034	0,105
-516,116	38,726	0,075	-0,049
-515,102	465,904	0,054	-0,088
-514,087	327,409	-0,056	0,079
-513,072	800,000	-0,041	-0,113
-512,058	-200,000	-0,006	0,113
-511,043	-200,000	-0,025	-0,081
-510,029	800,000	-0,012	-0,027
-509,014	800,000	-0,048	0,149
-507,999	168,927	-0,112	-0,116
-506,985	-200,000	0,017	-0,084
-505,970	80,174	-0,177	-0,139
-504,956	106,358	0,033	0,029
-503,941	800,000	0,008	0,023
-502,926	-200,000	0,013	0,048
-501,912	143,490	0,114	-0,110
-500,897	-20,184	0,073	0,033
-499,883	-200,000	-0,036	-0,204
-498,868	-102,511	0,065	0,011
-497,853	800,000	-0,041	-0,095
-496,839	800,000	-0,030	-0,070
-495,824	-81,981	0,078	-0,018
-494,810	48,627	-0,122	0,083
-493,795	32,385	-0,069	-0,043
-492,781	-119,517	-0,051	-0,006
-491,766	34,182	0,025	0,016
-490,751	42,965	-0,171	-0,114
-489,737	-35,478	0,035	-0,014
-488,722	166,348	0,174	-0,180
-487,708	682,597	0,040	0,076
-486,693	800,000	0,022	-0,065
-485,678	398,712	-0,040	0,061
-484,664	-200,000	-0,183	0,000
-483,649	145,495	-0,112	-0,109
-482,635	139,972	-0,126	-0,121
-481,620	-162,147	-0,059	0,002
-480,605	141,201	0,038	-0,036
-479,591	-11,662	0,081	0,039
-478,576	-200,000	0,008	-0,053
-477,562	-139,094	-0,123	-0,010
-476,547	-22,266	0,105	-0,046
-475,532	90,221	0,033	0,027
-474,518	-125,433	-0,111	-0,012
-473,503	800,000	0,045	0,091
-472,489	-64,203	0,071	-0,021
-471,474	171,618	-0,033	0,035
-470,459	733,064	-0,050	-0,098
-469,445	-200,000	0,011	-0,067
-468,430	-182,124	-0,075	0,001
-467,416	-200,000	0,003	-0,074
-466,401	800,000	0,022	-0,064
-465,386	-200,000	0,020	-0,074
-464,372	55,399	0,101	-0,071
-463,357	-200,000	-0,014	-0,076
-462,343	289,062	-0,037	-0,048
-461,328	-200,000	0,043	0,201
-460,313	292,817	0,052	0,070
-459,299	44,713	0,114	-0,077
-458,284	-200,000	0,009	0,120
-457,270	577,831	-0,031	0,056
-456,255	800,000	0,049	-0,103
-455,241	800,000	0,050	0,103
-454,226	119,381	0,010	-0,009
-453,211	-82,120	0,040	0,009
-452,197	136,940	0,081	0,077
-451,182	-200,000	0,006	-0,061
-450,168	800,000	-0,042	-0,092
-449,153	-200,000	-0,027	-0,204
-448,138	-200,000	-0,012	-0,130
-447,124	310,455	-0,015	-0,021
-446,109	-200,000	-0,010	0,064
-445,095	-34,273	-0,038	0,015
-444,080	-14,511	0,040	-0,018
-443,065	-200,000	0,006	-0,084
-442,051	130,765	-0,039	0,037
-441,036	-200,000	0,019	-0,069
-440,022	-83,744	0,044	-0,010
-439,007	445,384	-0,095	-0,152
-437,992	-135,476	0,190	0,016
-436,978	-104,013	-0,086	0,014
-435,963	800,000	-0,049	0,113
-434,949	-3,018	-0,078	0,039
-433,934	460,871	-0,064	0,104
-432,919	773,924	0,049	-0,099
-431,905	-158,997	-0,018	-0,001
-430,890	426,123	-0,020	0,032
-429,876	274,121	-0,131	0,169
-428,861	28,221	-0,112	-0,069
-427,846	204,082	-0,141	-0,159
-426,832	-19,529	-0,061	0,027
-425,817	80,004	-0,096	-0,075
-424,803	-200,000	0,026	-0,108
-423,788	-42,887	-0,086	0,031
-422,773	800,000	0,062	0,126
-421,759	103,487	-0,063	0,054
-420,744	-200,000	-0,022	-0,102
-419,730	-200,000	0,006	-0,185
-418,715	394,083	-0,044	-0,067
-417,701	758,690	0,060	-0,120
-416,686	-136,415	-0,170	0,014
-415,671	800,000	-0,016	0,036
-414,657	-200,000	-0,003	0,012
-413,642	-99,524	-0,027	-0,005
-412,628	-44,829	-0,100	0,036
-411,613	436,398	-0,052	0,083
-410,598	262,309	-0,023	-0,029
-409,584	-25,694	0,025	-0,011
-408,569	-10,318	-0,047	-0,023
-407,555	423,553	-0,025	0,040
-406,540	-200,000	0,017	-0,182
-405,525	83,961	-0,052	-0,041
-404,511	-52,151	-0,027	-0,009
-403,496	90,745	-0,064	0,052
-402,482	466,681	0,044	-0,073
-401,467	-0,763	-0,025	0,013
-400,452	226,545	0,091	0,107
-399,438	456,205	0,060	0,097
-398,423	-50,118	-0,067	0,023
-397,409	-200,000	0,025	0,169
-396,394	49,952	0,036	0,025
-395,379	-15,091	0,089	0,041
-394,365	-138,223	0,050	-0,004
-393,350	52,484	-0,099	-0,069
-392,336	563,618	0,067	-0,118
-391,321	800,000	-0,046	-0,099
-390,306	800,000	0,031	-0,082
-389,292	373,378	-0,059	-0,087
-388,277	-46,780	-0,081	0,029
-387,263	147,013	0,097	0,095
-386,248	592,870	0,077	0,139
-385,233	-200,000	-0,027	-0,107
-384,219	-200,000	0,030	0,114
-383,204	-200,000	0,012	-0,039
-382,190	800,000	0,072	-0,192
-381,175	-95,427	-0,050	-0,010
-380,160	8,791	0,130	-0,071
-379,146	800,000	0,032	-0,065
-378,131	-200,000	-0,005	0,074
-377,117	161,162	-0,071	-0,072
-376,102	-200,000	-0,039	-0,138
-375,088	-49,021	-0,145	-0,050
-374,073	654,026	-0,061	0,114
-373,058	800,000	0,036	0,088
-372,044	15,398	-0,091	0,052
-371,029	531,234	0,022	0,038
-370,015	39,857	0,070	-0,046
-369,000	-190,836	0,142	-0,001
-367,985	-17,244	-0,114	-0,052
-366,971	-200,000	0,010	-0,102
-365,956	203,019	0,053	0,060
-364,942	725,771	-0,021	-0,040
-363,927	-44,654	0,040	0,014
-362,912	-81,582	-0,145	0,034
-361,898	-200,000	0,008	-0,035
-360,883	-16,533	0,040	-0,019
-359,869	-85,643	-0,068	0,015
-358,854	202,707	0,040	-0,044
-357,839	260,640	0,060	0,076
-356,825	-32,895	0,123	0,049
-355,810	568,492	-0,023	0,041
-354,796	174,077	-0,039	0,041
-353,781	800,000	0,005	-0,013
-352,766	-47,588	0,140	-0,049
-351,752	588,971	0,036	-0,065
-350,737	-92,488	0,042	0,009
-349,723	-104,089	0,046	-0,008
-348,708	472,905	0,025	0,041
-347,693	800,000	0,037	0,095
-346,679	-200,000	0,014	-0,079
-345,664	493,622	0,040	0,066
-344,650	-156,331	0,132	-0,006
-343,635	120,776	0,048	-0,044
-342,620	-200,000	0,031	0,127
-341,606	126,124	0,044	0,040
-340,591	-200,000	0,037	0,224
-339,577	-200,000	-0,016	0,124
-338,562	-200,000	-0,010	-0,060
-337,548	-200,000	-0,009	0,032
-336,533	-126,286	0,046	-0,005
-335,518	-200,000	-0,024	0,156
-334,504	430,213	-0,043	0,068
-333,489	-200,000	0,004	-0,135
-332,475	-200,000	-0,035	-0,238
-331,460	269,757	-0,140	-0,179
-330,445	-9,602	0,048	-0,023
-329,431	-114,743	0,154	0,021
-328,416	-200,000	0,026	0,143
-327,402	160,919	-0,038	0,039
-326,387	-200,000	0,004	0,022
-325,372	569,460	-0,028	0,050
-324,358	154,667	0,098	-0,098
-323,343	376,025	-0,024	-0,036
-322,329	331,986	-0,017	-0,023
-321,314	800,000	-0,012	0,028
-320,299	436,150	-0,046	0,073
-319,285	-200,000	-0,024	0,135
-318,270	195,824	0,091	-0,101
-317,256	800,000	-0,062	-0,132
-316,241	-145,430	0,116	-0,007
-315,226	419,723	0,047	-0,073
-314,212	-87,553	-0,027	-0,006
-313,197	-18,026	0,059	-0,027
-312,183	-62,334	0,124	0,037
-311,168	790,016	0,012	0,024
-310,153	-128,119	0,063	-0,006
-309,139	182,768	0,082	-0,088
-308,124	225,114	0,069	-0,081
-307,110	299,311	-0,056	-0,075
-306,095	30,730	-0,069	0,043
-305,080	181,608	-0,085	0,091
-304,066	311,925	-0,051	0,069
-303,051	25,077	-0,119	0,071
-302,037	48,322	-0,065	0,044
-301,022	40,324	-0,091	0,059
-300,008	-200,000	0,003	-0,079
-298,993	800,000	-0,027	-0,054
-297,978	8,718	0,107	0,058
-296,964	239,702	-0,135	0,164
-295,949	-55,986	-0,100	0,032
-294,935	-200,000	0,034	0,147
-293,920	160,415	0,082	0,083
-292,905	-83,703	0,110	0,025
-291,891	7,146	0,113	0,061
-290,876	234,817	-0,087	-0,104
-289,862	0,992	0,098	-0,051
-288,847	-200,000	-0,022	0,106
-287,832	403,612	0,079	-0,121
-286,818	-200,000	-0,059	0,198
-285,803	20,148	0,041	-0,024
-284,789	-20,536	0,164	0,073
-283,774	800,000	-0,017	0,050
-282,759	-200,000	0,026	-0,089
-281,745	800,000	-0,059	-0,145
-280,730	83,039	-0,081	0,063
-279,716	82,079	0,115	0,090
-278,701	-200,000	-0,006	-0,037
-277,686	137,647	0,105	0,099
-276,672	-200,000	0,012	0,042
-275,657	6,978	0,086	-0,046
-274,643	249,937	0,040	0,049
-273,628	481,852	-0,014	0,023
-272,613	-15,012	0,033	-0,015
-271,599	133,697	0,085	-0,080
-270,584	-118,418	0,098	-0,012
-269,570	800,000	-0,011	0,024
-268,555	-200,000	0,015	0,063
-267,540	-200,000	0,011	-0,104
-266,526	644,267	-0,056	-0,104
-265,511	200,376	-0,048	0,053
-264,497	-80,375	-0,070	-0,017
-263,482	-200,000	-0,017	0,128
-262,467	-123,135	0,076	-0,009
-261,453	-200,000	0,000	0,055
-260,438	-200,000	-0,009	0,118
-259,424	-61,888	-0,220	0,066
-258,409	800,000	-0,049	0,156
-257,395	119,466	0,058	0,052
-256,380	-200,000	-0,004	0,091
-255,365	-121,478	-0,084	-0,010
-254,351	-132,806	-0,082	0,008
-253,336	-200,000	-0,013	-0,097
-252,322	-64,210	0,140	0,041
-251,307	55,145	-0,102	-0,071
-250,292	492,080	0,032	-0,053
-249,278	6,094	0,118	-0,063
-248,263	-72,687	0,133	-0,035
-247,249	652,286	-0,022	0,040
-246,234	-105,117	0,006	0,001
-245,219	76,515	-0,046	0,036
-244,205	-200,000	-0,001	0,018
-243,190	-145,548	-0,099	-0,006
-242,176	753,470	-0,063	-0,123
-241,161	284,487	0,095	0,124
-240,146	750,043	0,034	-0,067
-239,132	-200,000	-0,008	-0,064
-238,117	-200,000	0,020	0,145
-237,103	-200,000	0,015	0,076
-236,088	48,521	-0,048	0,032
-235,073	53,506	0,134	0,093
-234,059	-31,808	0,071	0,029
-233,044	536,585	-0,073	0,125
-232,030	-200,000	0,012	0,160
-231,015	33,700	0,182	-0,114
-230,000	800,000	-0,054	-0,167
-228,986	-26,996	-0,126	0,053
-227,971	67,681	0,082	-0,060
-226,957	323,504	0,022	0,030
-225,942	-154,222	0,085	0,004
-224,927	282,546	-0,088	0,114
-223,913	21,363	-0,097	-0,057
-222,898	10,516	-0,195	-0,107
-221,884	-200,000	0,010	-0,038
-220,869	-36,238	0,101	0,039
-219,855	-45,543	-0,097	0,034
-218,840	-137,725	0,067	-0,005
-217,825	-200,000	0,018	-0,161
-216,811	800,000	0,024	0,070
-215,796	800,000	0,051	-0,142
-214,782	-200,000	-0,003	-0,074
-213,767	147,350	0,042	-0,041
-212,752	-64,674	-0,090	-0,026
-211,738	258,011	0,033	0,041
-210,723	-79,336	0,115	-0,028
-209,709	800,000	-0,037	-0,076
-208,694	800,000	0,013	-0,041
-207,679	175,079	0,036	0,037
-206,665	-48,689	-0,040	0,014
-205,650	-11,252	0,142	0,067
-204,636	74,756	-0,110	0,083
-203,621	-65,216	0,124	-0,036
-202,606	-200,000	-0,033	0,167
-201,592	141,367	0,029	-0,027
-200,577	254,247	-0,089	-0,110
-199,563	118,843	0,123	0,110
-198,548	-65,583	0,057	-0,016
-197,533	-88,438	0,034	-0,007
-196,519	524,758	-0,022	0,037
-195,504	616,725	-0,037	0,068
-194,490	-58,766	-0,065	0,020
-193,475	-57,258	-0,030	0,010
-192,460	415,758	0,048	0,073
-191,446	12,399	0,102	0,057
-190,431	-21,278	-0,014	-0,006
-189,417	56,075	-0,061	0,043
-188,402	19,623	-0,024	0,014
-187,387	-200,000	0,017	-0,133
-186,373	727,066	0,024	-0,047
-185,358	-200,000	-0,034	0,140
-184,344	-54,557	0,086	0,028
-183,329	474,134	0,017	0,028
-182,315	-70,322	-0,106	-0,029
-181,300	-16,252	0,047	0,021
-180,285	59,073	-0,081	0,057
-179,271	164,989	0,089	0,091
-178,256	3,099	-0,042	0,022
-177,242	225,081	0,152	0,178
-176,227	80,695	0,027	-0,021
-175,212	143,360	-0,014	0,013
-174,198	800,000	-0,046	0,099
-173,183	361,133	-0,082	0,119
-172,169	152,952	0,001	-0,001
-171,154	137,820	0,027	0,025
-170,139	800,000	0,047	0,102
-169,125	-44,644	-0,090	0,032
-168,110	-66,263	0,064	-0,018
-167,096	-200,000	-0,027	0,160
-166,081	-35,344	-0,111	0,043
-165,066	800,000	-0,037	-0,111
-164,052	229,392	0,072	0,085
-163,037	-200,000	-0,013	-0,073
-162,023	-200,000	0,057	-0,197
-161,008	800,000	-0,037	0,101
-159,993	75,738	-0,079	0,060
-158,979	630,185	-0,011	0,020
-157,964	-200,000	0,012	-0,077
-156,950	-180,574	-0,086	0,001
-155,935	108,832	-0,039	0,033
-154,920	-64,275	0,108	-0,031
-153,906	-200,000	-0,002	-0,116
-152,891	420,082	0,033	0,052
-151,877	1,581	-0,137	-0,071
-150,862	-200,000	0,011	-0,062
-149,847	319,180	-0,019	-0,026
-148,833	800,000	0,040	0,085
-147,818	-200,000	-0,002	0,028
-146,804	-200,000	0,059	-0,211
-145,789	60,682	0,018	-0,013
-144,775	-200,000	-0,002	-0,030
-143,760	-200,000	-0,007	-0,090
-142,745	-75,129	-0,066	0,017
-141,731	84,559	0,023	0,018
-140,716	379,819	0,070	0,104
-139,702	800,000	0,059	-0,166
-138,687	-200,000	-0,000	-0,051
-137,672	341,052	-0,114	-0,161
-136,658	-95,474	0,020	-0,004
-135,643	-34,844	0,082	-0,032
-134,629	-200,000	-0,001	-0,018
-133,614	-68,049	0,055	0,015
-132,599	-200,000	0,016	0,077
-131,585	800,000	-0,037	0,076
-130,570	312,298	-0,037	0,051
-129,556	150,673	-0,056	-0,055
-128,541	-200,000	0,007	-0,100
-127,526	298,370	0,074	0,099
-126,512	-200,000	-0,011	-0,048
-125,497	-200,000	0,008	0,077
-124,483	-113,646	0,070	-0,010
-123,468	93,699	-0,017	0,014
-122,453	62,748	-0,046	-0,033
-121,439	800,000	-0,026	-0,069
-120,424	-131,979	-0,064	0,006
-119,410	-200,000	-0,018	0,066
-118,395	-58,474	-0,049	-0,015
-117,380	304,833	0,028	0,038
-116,366	446,595	-0,022	0,034
-115,351	219,492	0,046	0,053
-114,337	11,102	-0,057	-0,031
-113,322	-22,565	0,045	0,019
-112,307	46,205	0,067	-0,044
-111,293	-63,011	0,107	0,031
-110,278	-43,072	-0,107	0,039
-109,264	-150,257	0,085	-0,005
-108,249	90,343	0,097	-0,078
-107,234	21,792	-0,082	-0,048
-106,220	-200,000	0,003	0,049
-105,205	-200,000	-0,002	0,061
-104,191	68,660	0,092	0,068
-103,176	-200,000	0,014	-0,121
-102,162	516,943	-0,041	0,069
-101,147	229,660	-0,029	0,034
-100,132	55,990	0,073	0,051
-99,118	800,000	0,055	-0,110
-98,103	254,619	0,056	-0,069
-97,089	783,810	0,010	-0,020
-96,074	-200,000	0,015	0,052
-95,059	-10,496	0,080	0,038
-94,045	-7,409	-0,162	-0,079
-93,030	-125,586	-0,056	0,006
-92,016	800,000	-0,034	-0,083
-91,001	-85,090	-0,038	0,009
-89,986	415,487	0,041	0,063
-88,972	19,218	0,097	0,056
-87,957	-8,356	-0,180	-0,086
-86,943	68,530	0,109	0,080
-85,928	11,354	0,098	-0,054
-84,913	12,927	0,100	-0,055
-83,899	-200,000	-0,027	0,121
-82,884	97,650	-0,051	0,042
-81,870	800,000	-0,019	0,039
-80,855	-200,000	0,019	0,159
-79,840	-200,000	0,004	-0,028
-78,826	415,418	0,052	-0,079
-77,811	-115,986	-0,177	-0,023
-76,797	555,580	0,030	-0,052
-75,782	291,042	-0,072	-0,094
-74,767	-7,891	-0,030	0,015
-73,753	800,000	0,039	0,083
-72,738	121,139	-0,061	-0,055
-71,724	-117,232	0,068	0,009
-70,709	-200,000	-0,003	-0,016
-69,694	-23,993	-0,135	0,058
-68,680	758,872	0,044	-0,086
-67,665	-27,543	0,164	0,068
-66,651	-200,000	0,004	-0,062
-65,636	-200,000	0,006	0,046
-64,622	482,834	0,020	0,033
-63,607	-200,000	0,007	-0,036
-62,592	-200,000	0,014	0,053
-61,578	509,281	0,037	0,062
-60,563	353,200	-0,048	0,069
-59,549	-0,055	-0,083	-0,042
-58,534	27,439	-2,111	-1,271
-57,519	-200,000	-0,164	-0,844
-56,505	-200,000	-1,323	-5,031
-55,490	74,821	0,829	0,626
-54,476	800,000	5,359	12,041
-53,461	-200,000	18,572	309,699
-52,446	800,000	739,358	2312,186
-51,432	555,545	1655,263	2869,986
-50,417	110,550	1639,802	1413,786
-49,403	74,799	1289,954	972,960
-48,388	30,512	1030,639	630,581
-47,373	19,986	993,017	572,712
-46,359	17,747	980,649	558,193
-45,344	14,404	976,671	544,927
-44,330	14,700	975,288	545,106
-43,315	14,133	973,346	542,138
-42,300	14,056	972,142	541,193
-41,286	14,059	971,319	540,724
-40,271	14,066	970,340	540,182
-39,257	14,079	969,308	539,629
-38,242	14,111	968,502	539,262
-37,227	14,093	967,686	538,729
-36,213	14,126	966,685	538,257
-35,198	14,006	965,905	537,410
-34,184	14,090	965,294	537,322
-33,169	14,130	964,209	536,825
-32,154	14,108	963,362	536,261
-31,140	14,066	962,410	535,574
-30,125	14,106	961,723	535,302
-29,111	14,064	960,866	534,666
-28,096	14,137	960,195	534,510
-27,082	14,047	959,745	533,945
-26,067	14,137	958,829	533,706
-25,052	14,065	957,982	532,980
-24,038	14,137	957,424	532,882
-23,023	14,084	956,775	532,329
-22,009	14,099	956,118	531,989
-20,994	14,052	955,474	531,458
-19,979	14,108	954,744	531,211
-18,965	14,127	954,140	530,917
-17,950	14,121	953,541	530,541
-16,936	14,108	952,784	530,058
-15,921	14,041	952,302	529,554
-14,906	13,960	951,594	528,881
-13,892	14,003	950,971	528,649
-12,877	13,992	950,185	528,156
-11,863	13,923	949,599	527,589
-10,848	13,950	949,098	527,376
-9,833	14,080	948,465	527,419
-8,819	14,062	947,998	527,082
-7,804	14,038	947,133	526,503
-6,790	14,009	946,756	526,179
-5,775	14,008	946,280	525,892
-4,760	14,018	945,578	525,513
-3,746	14,023	944,953	525,159
-2,731	13,883	944,307	524,334
-1,717	13,852	943,521	523,781
-0,702	13,852	942,846	523,384
0,313	13,613	942,310	523,120
1,327	16,965	940,034	532,410
2,342	26,034	795,237	474,475
3,356	22,437	460,169	269,015
4,371	-4,588	317,231	156,456
5,386	-8,477	298,981	143,469
6,400	-10,649	293,009	138,414
7,415	-10,852	290,456	136,993
8,429	-11,043	288,919	136,067
9,444	-11,198	288,014	135,477
10,459	-11,031	287,460	135,368
11,473	-11,217	286,857	134,889
12,488	-11,148	286,396	134,729
13,502	-11,263	285,881	134,362
14,517	-11,103	285,470	134,313
15,531	-11,207	284,969	133,964
16,546	-11,042	284,587	133,933
17,561	-11,141	284,256	133,669
18,575	-11,051	283,811	133,535
19,590	-11,175	283,570	133,290
20,604	-11,068	283,142	133,180
21,619	-11,184	282,823	132,906
22,634	-10,984	282,335	132,858
23,648	-11,286	282,177	132,481
24,663	-11,262	281,889	132,356
25,677	-11,061	281,604	132,405
26,692	-11,116	281,260	132,178
27,707	-11,017	281,028	132,153
28,721	-11,043	280,712	131,967
29,736	-11,164	280,519	131,748
30,750	-11,242	280,433	131,621
31,765	-11,283	280,142	131,434
32,780	-11,045	279,854	131,515
33,794	-11,108	279,553	131,302
34,809	-11,176	279,196	131,057
35,823	-11,006	278,845	131,043
36,838	-11,169	278,778	130,844
37,853	-11,214	278,487	130,653
38,867	-11,090	278,213	130,631
39,882	-10,973	277,906	130,585
40,896	-10,914	277,671	130,520
41,911	-11,003	277,376	130,285
42,926	-11,087	277,114	130,072
43,940	-11,161	277,037	129,954
44,955	-11,224	276,642	129,697
45,969	-11,245	276,581	129,638
46,984	-11,333	276,233	129,380
47,999	-11,608	276,013	129,006
49,013	-11,551	275,763	128,932
50,028	-11,750	275,400	128,563
51,042	-11,903	275,178	128,305
52,057	-11,843	274,949	128,242
53,071	-11,791	274,748	128,186
54,086	-11,667	274,504	128,177
55,101	-11,589	274,369	128,176
56,115	-11,366	274,171	128,280
57,130	-10,920	273,959	128,585
58,144	-10,963	273,894	128,504
59,159	-10,919	273,527	128,361
60,174	-10,923	273,269	128,225
61,188	-11,051	273,058	127,995
62,203	-11,082	272,843	127,854
63,217	-11,069	272,863	127,865
64,232	-10,985	272,551	127,784
65,247	-10,854	272,181	127,721
66,261	-10,940	271,960	127,526
67,276	-11,186	271,581	127,110
68,290	-11,283	271,456	126,951
69,305	-11,367	271,230	126,756
70,320	-11,283	270,965	126,698
71,334	-11,279	270,909	126,664
72,349	-11,188	270,847	126,708
73,363	-11,036	270,366	126,612
74,378	-10,855	270,144	126,663
75,393	-11,035	270,042	126,438
76,407	-10,959	269,847	126,406
77,422	-10,954	269,496	126,234
78,436	-11,073	269,329	126,035
79,451	-11,012	269,208	126,024
80,466	-11,034	268,840	125,820
81,480	-11,070	268,752	125,735
82,495	-11,290	268,487	125,398
83,509	-11,161	268,279	125,408
84,524	-11,205	268,039	125,245
85,539	-11,388	267,755	124,934
86,553	-11,160	267,603	125,060
87,568	-11,039	267,203	124,972
88,582	-11,177	267,083	124,779
89,597	-11,275	266,979	124,630
90,611	-11,083	266,740	124,682
91,626	-10,992	266,735	124,750
92,641	-11,020	266,393	124,554
93,655	-11,207	266,125	124,249
94,670	-11,295	266,127	124,158
95,684	-11,229	265,889	124,097
96,699	-10,968	265,513	124,145
97,714	-10,986	265,266	124,002
98,728	-10,951	265,081	123,937
99,743	-11,486	264,955	123,386
100,757	-11,419	264,610	123,274
101,772	-11,081	264,485	123,508
102,787	-11,259	264,360	123,279
103,801	-10,978	264,107	123,402
104,816	-11,068	264,095	123,305
105,830	-11,049	263,699	123,125
106,845	-10,940	263,624	123,177
107,860	-10,974	263,373	123,018
108,874	-11,309	263,134	122,597
109,889	-11,124	263,043	122,709
110,903	-11,012	262,715	122,645
111,918	-11,132	262,494	122,424
112,933	-11,137	262,402	122,365
113,947	-11,050	262,181	122,329
114,962	-11,101	262,162	122,263
115,976	-11,008	261,807	122,169
116,991	-11,116	261,722	122,023
118,006	-10,957	261,404	122,005
119,020	-11,050	261,366	121,894
120,035	-11,000	261,139	121,822
121,049	-11,180	260,935	121,556
122,064	-10,982	260,757	121,638
123,079	-10,942	260,380	121,486
124,093	-11,183	260,204	121,181
125,108	-11,288	260,090	121,024
126,122	-11,518	259,676	120,618
127,137	-11,677	259,561	120,415
128,151	-11,466	259,379	120,505
129,166	-11,341	259,384	120,606
130,181	-11,415	258,992	120,349
131,195	-11,399	258,724	120,227
132,210	-11,201	258,704	120,381
133,224	-11,101	258,477	120,351
134,239	-11,074	258,384	120,321
135,254	-11,229	258,115	120,050
136,268	-11,211	257,854	119,933
137,283	-11,261	257,490	119,710
138,297	-11,530	257,549	119,492
139,312	-11,331	257,248	119,515
140,327	-11,217	257,029	119,501
141,341	-10,848	256,969	119,784
142,356	-11,096	256,794	119,477
143,370	-10,991	256,630	119,480
144,385	-10,939	256,426	119,420
145,400	-10,823	256,336	119,467
146,414	-11,074	256,193	119,173
147,429	-10,954	255,883	119,122
148,443	-10,949	255,739	119,049
149,458	-10,929	255,634	119,007
150,473	-10,849	255,359	118,937
151,487	-11,037	255,085	118,636
152,502	-10,856	254,962	118,725
153,516	-10,956	254,843	118,572
154,531	-10,859	254,528	118,499
155,546	-10,787	254,457	118,517
156,560	-10,894	254,275	118,330
157,575	-10,878	254,042	118,225
158,589	-10,953	253,810	118,042
159,604	-10,883	253,775	118,075
160,619	-10,792	253,507	118,018
161,633	-10,897	253,399	117,867
162,648	-10,813	253,206	117,839
163,662	-10,867	253,043	117,706
164,677	-11,228	252,980	117,358
165,692	-10,915	252,726	117,497
166,706	-10,719	252,516	117,555
167,721	-10,874	252,342	117,332
168,735	-10,711	252,083	117,340
169,750	-10,917	252,181	117,200
170,764	-10,917	251,987	117,099
171,779	-10,659	251,663	117,157
172,794	-10,910	251,622	116,915
173,808	-10,827	251,468	116,903
174,823	-11,236	250,954	116,307
175,837	-11,402	250,826	116,097
176,852	-11,174	250,694	116,219
177,867	-10,892	250,569	116,389
178,881	-10,961	250,605	116,336
179,896	-10,968	250,388	116,219
180,910	-10,749	250,132	116,275
181,925	-10,824	250,041	116,160
182,940	-10,869	249,814	116,006
183,954	-11,033	249,620	115,768
184,969	-10,983	249,593	115,787
185,983	-10,913	249,363	115,728
186,998	-10,784	249,185	115,743
188,013	-10,909	248,897	115,494
189,027	-10,841	248,633	115,419
190,042	-10,860	248,625	115,389
191,056	-10,789	248,455	115,359
192,071	-10,838	248,217	115,197
193,086	-10,975	248,006	114,975
194,100	-10,871	247,870	114,988
195,115	-10,852	247,710	114,920
196,129	-10,880	247,511	114,794
197,144	-10,726	247,202	114,768
198,159	-10,919	247,159	114,577
199,173	-10,899	246,881	114,455
200,188	-10,809	246,833	114,498
201,202	-11,130	246,481	114,058
202,217	-11,292	246,208	113,787
203,232	-11,377	246,086	113,650
204,246	-10,874	245,924	113,981
205,261	-10,613	245,900	114,176
206,275	-11,494	245,486	113,246
207,290	-7,368	247,473	117,584
208,304	0,642	249,866	125,416
209,319	4,150	250,528	128,671
210,334	4,587	250,747	129,137
211,348	4,441	250,585	128,920
212,363	4,936	250,580	129,319
213,377	5,074	250,446	129,353
214,392	5,086	250,144	129,196
215,407	4,993	249,979	129,022
216,421	4,928	249,800	128,864
217,436	4,944	249,813	128,872
218,450	5,045	249,675	128,873
219,465	4,992	249,175	128,561
220,480	4,607	249,161	128,222
221,494	4,685	249,015	128,200
222,509	4,777	248,731	128,119
223,523	4,780	248,519	128,001
224,538	4,193	248,383	127,434
225,553	4,428	248,090	127,466
226,567	4,589	248,102	127,594
227,582	4,753	247,923	127,626
228,596	4,390	247,759	127,231
229,611	4,295	247,501	127,009
230,626	4,254	247,269	126,845
231,640	4,391	247,213	126,917
232,655	4,482	247,008	126,875
233,669	4,222	246,864	126,577
234,684	4,141	246,643	126,385
235,699	4,493	246,671	126,677
236,713	4,574	246,504	126,647
237,728	4,370	246,269	126,348
238,742	4,201	246,065	126,093
239,757	4,121	245,810	125,886
240,772	4,063	245,720	125,782
241,786	4,343	245,517	125,895
242,801	4,305	245,365	125,775
243,815	4,104	245,250	125,540
244,830	4,242	245,271	125,653
245,844	4,535	245,063	125,774
246,859	4,304	244,846	125,463
247,874	4,066	244,735	125,202
248,888	4,377	244,428	125,285
249,903	4,318	244,472	125,250
250,917	4,516	244,166	125,242
251,932	4,642	244,131	125,315
252,947	4,483	244,008	125,111
253,961	4,159	243,698	124,679
254,976	4,654	243,534	124,985
255,990	4,568	243,401	124,836
257,005	4,155	243,261	124,419
258,020	3,968	243,083	124,166
259,034	4,157	242,774	124,150
260,049	4,495	242,649	124,347
261,063	4,216	242,577	124,075
262,078	4,299	242,349	124,013
263,093	4,509	242,276	124,133
264,107	4,614	242,199	124,168
265,122	4,260	242,043	123,792
266,136	4,363	241,920	123,801
267,151	4,700	241,784	123,991
268,166	4,403	241,410	123,550
269,180	4,116	241,314	123,260
270,195	4,796	241,360	123,817
271,209	5,022	241,259	123,935
272,224	4,464	240,988	123,339
273,239	3,778	240,828	122,698
274,253	4,123	240,535	122,813
275,268	4,458	240,459	123,030
276,282	4,375	240,284	122,864
277,297	4,163	240,004	122,541
278,312	4,111	239,922	122,447
279,326	4,462	239,898	122,703
280,341	4,225	239,711	122,408
281,355	4,280	239,483	122,324
282,370	4,362	239,435	122,353
283,384	4,196	239,382	122,184
284,399	4,060	239,102	121,923
285,414	4,068	238,823	121,776
286,428	4,199	238,677	121,794
287,443	4,447	238,516	121,897
288,457	4,360	238,540	121,829
289,472	4,381	238,445	121,787
290,487	4,416	238,154	121,655
291,501	4,187	237,867	121,317
292,516	3,978	237,672	121,042
293,530	3,959	237,669	121,015
294,545	4,275	237,600	121,218
295,560	4,224	237,487	121,109
296,574	4,108	237,171	120,846
297,589	4,176	236,995	120,799
298,603	4,615	236,943	121,106
299,618	4,508	236,953	121,017
300,633	4,460	236,763	120,871
301,647	4,459	236,601	120,776
302,662	4,848	236,638	121,089
303,676	4,637	236,315	120,748
304,691	4,445	236,170	120,513
305,706	4,669	236,042	120,612
306,720	4,700	235,899	120,553
307,735	4,593	235,578	120,294
308,749	4,232	235,538	119,983
309,764	4,108	235,327	119,768
310,779	4,148	235,063	119,653
311,793	4,052	234,714	119,391
312,808	3,993	234,843	119,400
313,822	4,019	234,595	119,284
314,837	4,143	234,286	119,212
315,852	3,945	234,293	119,051
316,866	4,162	234,259	119,191
317,881	4,511	234,036	119,337
318,895	4,259	233,853	119,038
319,910	4,265	234,000	119,107
320,925	4,355	233,818	119,074
321,939	4,416	233,497	118,946
322,954	4,581	233,474	119,051
323,968	4,382	233,329	118,813
324,983	4,274	233,196	118,652
325,997	4,613	233,021	118,813
327,012	4,544	232,821	118,647
328,027	4,563	232,544	118,510
329,041	4,644	232,643	118,612
330,056	5,161	232,627	118,990
331,070	4,991	232,468	118,768
332,085	4,644	232,244	118,378
333,100	4,501	231,896	118,080
334,114	4,454	231,914	118,043
335,129	4,524	231,963	118,111
336,143	4,720	231,685	118,109
337,158	4,624	231,459	117,909
338,173	4,383	231,260	117,614
339,187	4,503	231,071	117,599
340,202	4,370	230,940	117,420
341,216	4,491	230,842	117,452
342,231	4,337	230,648	117,225
343,246	4,382	230,471	117,159
344,260	4,428	230,438	117,167
345,275	4,824	230,277	117,375
346,289	4,631	230,199	117,179
347,304	4,786	229,912	117,139
348,319	4,828	229,853	117,130
349,333	4,539	229,643	116,794
350,348	4,311	229,487	116,533
351,362	4,479	229,450	116,630
352,377	4,285	229,024	116,257
353,392	4,025	228,899	115,987
354,406	4,165	228,944	116,105
355,421	195,957	1321,405	1398,756
356,435	157,184	1454,472	1398,730
