DTS Sentinel unit serial number:	SN410029Multiplexer serial number:	ORYXHardware model number:	OX2-SRSoftware version number:	ORYX F/W v4,00 Oryx Data Collector v3.7.2.0data status	okinstallation	B5 Nyhavnadifferential loss correction	single-endedforward channel	channel 2reverse channel	N/Adate	2023/12/14time	11:52:13forward acquisition time	300,00reverse acquisition time	0,00gamma	499,1914k internal	0,3158k external	0,3158temperature offset calibration	1,0000default loss term (dB/km)	0,3820temperature slope calibration	1,0000multiplexer offset coefficient	1,0000multiplexer slope coefficient	1,0000fibre end	0,00T internal ref (°C)	7,57T ext. ref 1 (°C)	-7,94T ext. ref 2 (°C)	-7,97length (m)	temperature (°C)	Stokes	anti-Stokes-744,400	-92,592	0,231	0,047
-743,385	-99,108	-0,437	-0,081
-742,371	-200,000	0,038	0,159
-741,356	15,387	-0,390	-0,225
-740,342	-33,897	0,319	0,129
-739,327	-21,603	-0,414	-0,185
-738,312	-39,227	0,129	0,050
-737,298	-163,001	-0,255	0,009
-736,283	339,240	0,125	0,179
-735,269	-22,658	-0,367	-0,163
-734,254	-13,109	0,104	0,050
-733,239	39,386	-0,348	-0,230
-732,225	-22,376	0,117	0,052
-731,210	141,065	0,073	-0,071
-730,196	-87,815	0,110	-0,024
-729,181	428,353	0,067	0,107
-728,167	749,779	0,004	0,007
-727,152	-132,918	0,216	-0,020
-726,137	-140,113	-0,077	0,006
-725,123	673,797	-0,037	-0,070
-724,108	73,181	-0,050	-0,038
-723,094	219,152	-0,124	-0,146
-722,079	118,867	-0,075	-0,068
-721,064	364,893	0,039	0,058
-720,050	38,579	-0,037	-0,024
-719,035	56,100	-0,088	0,063
-718,021	-200,000	-0,014	-0,080
-717,006	90,916	0,040	-0,033
-715,991	231,044	-0,070	-0,085
-714,977	123,054	-0,023	-0,021
-713,962	-39,811	0,030	0,011
-712,948	284,259	-0,090	0,120
-711,933	621,666	-0,022	0,041
-710,918	-200,000	-0,009	0,037
-709,904	-73,659	-0,162	0,043
-708,889	-65,700	0,085	-0,025
-707,875	-164,292	-0,107	-0,004
-706,860	800,000	-0,033	0,075
-705,845	-23,487	-0,168	0,074
-704,831	106,957	0,012	-0,011
-703,816	62,783	0,136	-0,100
-702,802	-108,069	-0,106	0,017
-701,787	9,224	-0,120	-0,066
-700,772	-200,000	-0,003	-0,015
-699,758	39,829	0,115	0,076
-698,743	-200,000	0,007	0,089
-697,729	74,262	-0,059	-0,045
-696,714	165,233	-0,043	0,045
-695,699	521,279	0,043	-0,074
-694,685	67,356	-0,029	0,022
-693,670	-200,000	-0,019	0,141
-692,656	800,000	-0,060	-0,132
-691,641	391,985	0,012	0,018
-690,627	-163,017	0,152	-0,005
-689,612	122,186	0,068	0,063
-688,597	-200,000	0,000	0,041
-687,583	800,000	-0,041	-0,101
-686,568	16,959	-0,092	0,053
-685,554	800,000	0,024	-0,070
-684,539	92,722	-0,071	-0,059
-683,524	-124,773	-0,113	-0,013
-682,510	219,120	0,043	-0,051
-681,495	-75,714	0,100	0,026
-680,481	333,881	-0,067	0,096
-679,466	-200,000	-0,011	-0,069
-678,451	800,000	0,026	-0,069
-677,437	-53,622	0,058	0,019
-676,422	-200,000	-0,006	-0,078
-675,408	-62,715	-0,070	0,021
-674,393	-200,000	0,023	0,090
-673,378	99,457	-0,015	-0,013
-672,364	-200,000	-0,026	-0,172
-671,349	-200,000	-0,006	0,057
-670,335	-89,926	-0,019	-0,004
-669,320	-112,108	-0,163	0,024
-668,305	483,169	0,037	0,063
-667,291	800,000	-0,015	0,039
-666,276	-200,000	0,044	-0,169
-665,262	800,000	0,021	-0,065
-664,247	738,351	-0,049	0,096
-663,232	120,235	-0,090	0,082
-662,218	800,000	-0,009	0,028
-661,203	-104,706	-0,086	-0,014
-660,189	800,000	-0,057	-0,159
-659,174	378,009	-0,074	0,112
-658,159	17,899	-0,081	-0,047
-657,145	77,001	-0,015	-0,012
-656,130	-47,366	0,050	0,018
-655,116	-147,639	0,098	0,006
-654,101	299,080	-0,078	-0,105
-653,086	-200,000	-0,015	0,065
-652,072	-16,083	0,060	0,028
-651,057	309,922	-0,082	-0,113
-650,043	-200,000	0,004	-0,136
-649,028	-86,598	-0,129	-0,029
-648,014	-200,000	-0,015	-0,052
-646,999	800,000	-0,048	0,112
-645,984	770,540	0,019	-0,038
-644,970	-112,425	-0,090	0,013
-643,955	-35,880	-0,103	0,041
-642,941	-200,000	0,032	-0,133
-641,926	-200,000	0,034	-0,168
-640,911	709,548	0,042	0,081
-639,897	297,152	-0,059	0,079
-638,882	-127,388	-0,079	0,008
-637,868	-200,000	-0,030	0,143
-636,853	-91,441	0,030	0,006
-635,838	0,549	-0,145	-0,076
-634,824	-200,000	0,011	-0,057
-633,809	-200,000	0,018	-0,062
-632,795	183,514	-0,099	0,108
-631,780	-200,000	0,001	0,147
-630,765	216,228	0,084	0,098
-629,751	800,000	-0,069	-0,145
-628,736	-200,000	-0,024	-0,177
-627,722	261,227	0,032	-0,041
-626,707	-86,763	0,044	-0,010
-625,692	361,752	-0,015	-0,022
-624,678	291,018	-0,127	0,170
-623,663	800,000	-0,025	0,056
-622,649	-32,404	0,041	0,017
-621,634	-8,937	-0,178	-0,087
-620,619	-124,433	-0,049	-0,005
-619,605	800,000	0,061	0,137
-618,590	800,000	0,020	0,053
-617,576	-117,171	0,038	0,005
-616,561	-200,000	-0,007	-0,062
-615,546	800,000	0,037	0,091
-614,532	-200,000	-0,023	0,104
-613,517	800,000	0,038	-0,084
-612,503	645,559	-0,038	0,072
-611,488	800,000	-0,059	0,128
-610,474	-131,625	-0,136	-0,013
-609,459	-200,000	0,030	0,114
-608,444	800,000	-0,001	0,004
-607,430	800,000	-0,045	-0,110
-606,415	-200,000	0,001	-0,197
-605,401	800,000	0,045	0,114
-604,386	-67,012	0,090	-0,026
-603,371	352,176	-0,080	0,116
-602,357	14,029	-0,120	0,068
-601,342	143,016	-0,098	-0,096
-600,328	671,148	-0,091	-0,174
-599,313	132,362	-0,072	-0,068
-598,298	96,475	-0,115	-0,096
-597,284	-112,906	0,160	-0,023
-596,269	-200,000	0,009	0,139
-595,255	59,637	-0,067	-0,048
-594,240	-143,385	-0,082	-0,006
-593,225	-16,837	-0,045	0,021
-592,211	-200,000	0,009	-0,073
-591,196	-200,000	0,035	-0,247
-590,182	-37,466	-0,095	-0,037
-589,167	46,863	-0,068	0,046
-588,152	-142,572	0,129	0,009
-587,138	800,000	0,043	-0,104
-586,123	-98,821	-0,143	-0,026
-585,109	11,158	-0,030	0,017
-584,094	-200,000	0,017	-0,132
-583,079	-56,050	0,104	-0,034
-582,065	-200,000	0,002	0,071
-581,050	194,875	-0,031	-0,035
-580,036	800,000	-0,075	-0,163
-579,021	-62,632	-0,025	0,007
-578,006	18,530	-0,061	-0,036
-576,992	800,000	0,026	0,054
-575,977	-96,662	0,044	-0,008
-574,963	-200,000	0,007	-0,024
-573,948	147,438	0,044	0,043
-572,934	-200,000	-0,005	-0,039
-571,919	170,938	0,030	-0,032
-570,904	800,000	-0,033	-0,104
-569,890	389,334	-0,029	-0,044
-568,875	263,209	0,093	0,119
-567,861	-86,447	-0,028	-0,006
-566,846	-85,996	0,133	-0,030
-565,831	383,803	-0,072	-0,108
-564,817	800,000	-0,051	-0,147
-563,802	-200,000	0,016	-0,063
-562,788	800,000	0,049	-0,125
-561,773	-28,967	-0,027	-0,011
-560,758	-69,488	-0,062	-0,017
-559,744	692,889	-0,038	0,072
-558,729	-200,000	0,047	0,171
-557,715	535,221	-0,081	0,142
-556,700	800,000	-0,070	-0,155
-555,685	213,398	0,057	-0,066
-554,671	800,000	-0,031	-0,074
-553,656	-97,439	0,130	-0,025
-552,642	-20,935	0,048	0,021
-551,627	352,225	-0,031	0,045
-550,612	-75,861	0,122	0,031
-549,598	219,406	-0,061	-0,072
-548,583	-57,425	0,103	0,033
-547,569	-200,000	-0,023	-0,162
-546,554	581,907	0,036	0,065
-545,539	72,459	0,141	-0,108
-544,525	-200,000	0,002	-0,026
-543,510	6,219	-0,072	0,039
-542,496	800,000	-0,072	-0,167
-541,481	296,763	0,036	-0,048
-540,466	67,447	-0,020	0,015
-539,452	81,586	0,019	-0,015
-538,437	-200,000	0,003	0,123
-537,423	431,675	0,050	0,080
-536,408	-4,822	-0,086	0,043
-535,393	-89,421	-0,062	0,013
-534,379	800,000	0,044	-0,123
-533,364	-40,967	0,090	-0,034
-532,350	-101,980	0,038	-0,007
-531,335	800,000	0,039	0,080
-530,321	-200,000	-0,003	0,066
-529,306	-66,638	-0,018	0,005
-528,291	-6,381	0,046	0,023
-527,277	-37,788	-0,108	-0,042
-526,262	48,105	-0,062	0,042
-525,248	-177,290	-0,118	0,002
-524,233	128,991	0,090	-0,084
-523,218	-200,000	-0,021	0,096
-522,204	-50,709	-0,062	-0,021
-521,189	517,443	-0,042	-0,072
-520,175	183,676	-0,059	-0,064
-519,160	-200,000	0,019	-0,113
-518,145	-22,310	0,196	0,087
-517,131	-137,552	0,058	0,005
-516,116	221,934	0,059	-0,070
-515,102	-100,217	-0,064	-0,012
-514,087	-162,916	-0,081	-0,003
-513,072	800,000	-0,026	0,058
-512,058	-200,000	0,007	-0,110
-511,043	104,523	-0,012	0,010
-510,029	380,789	0,046	-0,069
-509,014	800,000	-0,030	-0,070
-507,999	-200,000	-0,037	0,128
-506,985	-200,000	-0,012	-0,054
-505,970	-19,937	0,097	-0,044
-504,956	-200,000	0,028	0,094
-503,941	408,987	0,076	0,118
-502,926	800,000	-0,019	-0,051
-501,912	-200,000	-0,000	-0,016
-500,897	310,626	-0,057	-0,079
-499,883	-65,528	-0,167	-0,049
-498,868	111,191	-0,159	-0,140
-497,853	329,554	0,060	-0,085
-496,839	48,924	0,088	-0,060
-495,824	-200,000	0,009	0,117
-494,810	126,672	0,041	0,038
-493,795	113,848	-0,205	0,182
-492,781	-85,151	0,096	0,022
-491,766	-120,119	0,099	-0,012
-490,751	638,273	-0,075	0,141
-489,737	252,649	0,057	0,071
-488,722	-64,352	-0,138	-0,041
-487,708	65,236	0,124	0,092
-486,693	-200,000	0,015	0,123
-485,678	800,000	0,051	0,153
-484,664	800,000	-0,047	-0,103
-483,649	116,949	-0,142	-0,127
-482,635	358,244	0,105	-0,154
-481,620	523,824	0,103	0,177
-480,605	293,132	0,051	0,068
-479,591	39,082	0,147	0,095
-478,576	-200,000	0,006	-0,071
-477,562	443,042	-0,066	0,107
-476,547	-161,611	-0,116	0,004
-475,532	800,000	0,030	-0,062
-474,518	-124,412	-0,053	0,006
-473,503	580,715	-0,017	-0,031
-472,489	33,107	0,072	0,045
-471,474	237,056	-0,026	0,031
-470,459	284,390	-0,030	-0,039
-469,445	-194,185	-0,042	-0,000
-468,430	-200,000	-0,002	-0,008
-467,416	-200,000	0,033	-0,154
-466,401	410,854	0,058	0,090
-465,386	-200,000	-0,010	-0,080
-464,372	-68,896	0,073	0,020
-463,357	450,237	0,010	0,016
-462,343	-200,000	0,010	-0,040
-461,328	-200,000	0,009	-0,062
-460,313	155,543	0,038	0,038
-459,299	-200,000	0,005	0,113
-458,284	617,613	0,029	0,054
-457,270	170,456	-0,047	-0,049
-456,255	800,000	-0,062	0,164
-455,241	-123,616	-0,089	0,010
-454,226	-12,529	-0,064	-0,030
-453,211	-200,000	-0,021	0,137
-452,197	-200,000	0,008	0,060
-451,182	176,156	0,096	0,101
-450,168	476,132	-0,045	0,075
-449,153	-78,007	-0,057	-0,014
-448,138	-200,000	-0,004	-0,132
-447,124	-200,000	-0,040	-0,209
-446,109	90,658	-0,077	0,063
-445,095	800,000	0,038	0,093
-444,080	800,000	-0,003	-0,007
-443,065	800,000	0,030	0,071
-442,051	-200,000	-0,003	0,106
-441,036	-37,798	-0,090	0,035
-440,022	125,403	0,099	-0,091
-439,007	-143,188	-0,166	-0,011
-437,992	31,360	0,092	0,057
-436,978	655,062	-0,075	0,141
-435,963	186,323	0,007	0,008
-434,949	45,970	-0,040	0,027
-433,934	800,000	-0,044	-0,108
-432,919	800,000	-0,050	-0,122
-431,905	-200,000	-0,018	0,086
-430,890	83,223	0,141	-0,112
-429,876	16,739	0,126	0,072
-428,861	755,513	-0,054	0,107
-427,846	-128,298	0,082	-0,008
-426,832	-200,000	-0,002	0,068
-425,817	800,000	0,027	0,086
-424,803	-200,000	0,013	-0,054
-423,788	121,561	0,046	0,042
-422,773	-67,103	0,129	-0,037
-421,759	800,000	0,033	0,090
-420,744	97,185	-0,059	0,049
-419,730	32,495	0,030	0,019
-418,715	-36,774	-0,164	0,064
-417,701	-11,656	-0,048	-0,023
-416,686	800,000	-0,011	-0,033
-415,671	-200,000	-0,018	0,161
-414,657	115,122	0,075	-0,067
-413,642	-162,932	-0,255	-0,009
-412,628	302,637	0,083	-0,112
-411,613	800,000	-0,027	0,066
-410,598	800,000	-0,014	0,033
-409,584	279,598	0,105	-0,137
-408,569	-200,000	-0,024	0,123
-407,555	-83,988	-0,199	-0,046
-406,540	800,000	0,060	-0,146
-405,525	-200,000	-0,013	-0,163
-404,511	-38,055	-0,160	0,061
-403,496	210,214	-0,018	-0,020
-402,482	166,461	0,072	-0,074
-401,467	-149,164	-0,085	0,005
-400,452	152,329	0,025	0,025
-399,438	621,496	0,010	-0,019
-398,423	136,055	-0,096	0,091
-397,409	197,316	-0,063	0,070
-396,394	237,123	-0,046	-0,055
-395,379	-39,549	-0,031	-0,012
-394,365	-200,000	-0,006	0,103
-393,350	-200,000	-0,008	-0,057
-392,336	81,987	-0,062	-0,049
-391,321	-118,534	0,128	0,016
-390,306	-200,000	-0,006	-0,034
-389,292	-200,000	0,042	0,166
-388,277	-1,917	-0,124	-0,063
-387,263	-6,073	0,178	0,088
-386,248	694,740	0,041	0,078
-385,233	317,990	0,022	-0,031
-384,219	-200,000	0,008	-0,053
-383,204	-21,709	-0,108	0,048
-382,190	-3,522	0,045	-0,023
-381,175	149,397	0,052	0,051
-380,160	154,777	-0,073	-0,073
-379,146	-200,000	0,002	-0,101
-378,131	256,161	-0,027	0,034
-377,117	-75,134	-0,098	-0,025
-376,102	103,329	-0,118	0,101
-375,088	-200,000	-0,003	-0,074
-374,073	-71,438	0,121	-0,033
-373,058	-123,458	-0,054	0,006
-372,044	-200,000	0,000	-0,072
-371,029	-200,000	0,000	0,063
-370,015	-162,263	-0,096	0,003
-369,000	-32,826	0,107	0,043
-367,985	438,116	-0,066	-0,105
-366,971	-161,348	0,059	0,002
-365,956	183,587	0,033	-0,036
-364,942	-165,465	-0,030	-0,001
-363,927	69,349	-0,025	0,018
-362,912	-46,056	0,048	0,017
-361,898	91,652	-0,087	-0,071
-360,883	-35,915	0,121	-0,047
-359,869	414,924	-0,064	-0,099
-358,854	60,679	0,044	0,032
-357,839	465,397	0,041	-0,066
-356,825	228,683	-0,069	-0,082
-355,810	-200,000	0,003	0,062
-354,796	-68,787	0,038	-0,011
-353,781	664,296	0,054	-0,102
-352,766	137,919	-0,026	-0,025
-351,752	800,000	-0,030	-0,066
-350,737	-200,000	-0,013	0,069
-349,723	77,258	0,034	-0,026
-348,708	-124,575	0,206	-0,023
-347,693	754,141	0,054	-0,106
-346,679	121,673	-0,069	0,063
-345,664	105,523	0,004	-0,003
-344,650	110,597	0,060	-0,052
-343,635	800,000	0,015	0,032
-342,620	-89,382	0,097	-0,020
-341,606	-111,902	0,122	-0,018
-340,591	81,591	0,071	-0,055
-339,577	21,802	-0,063	-0,037
-338,562	316,802	0,070	-0,097
-337,548	496,768	0,049	-0,083
-336,533	-38,020	0,064	-0,025
-335,518	101,725	0,067	0,057
-334,504	-47,329	-0,128	0,045
-333,489	800,000	-0,017	0,037
-332,475	-200,000	0,032	-0,182
-331,460	800,000	0,025	0,052
-330,445	38,170	-0,087	0,056
-329,431	-200,000	0,022	0,078
-328,416	-93,940	0,089	-0,018
-327,402	800,000	-0,030	0,079
-326,387	800,000	0,007	0,018
-325,372	272,979	-0,045	0,057
-324,358	102,260	-0,091	-0,077
-323,343	536,775	0,055	0,095
-322,329	800,000	-0,037	0,088
-321,314	87,545	-0,109	0,087
-320,299	169,356	-0,055	-0,057
-319,285	25,500	0,077	0,046
-318,270	-200,000	-0,024	0,156
-317,256	-200,000	0,000	-0,035
-316,241	-120,429	-0,074	-0,009
-315,226	51,824	0,088	-0,061
-314,212	591,721	0,055	0,099
-313,197	-117,169	0,082	0,011
-312,183	-61,441	-0,149	-0,045
-311,168	95,935	0,061	0,051
-310,153	-200,000	0,002	0,154
-309,139	-200,000	0,022	0,159
-308,124	-142,058	0,032	0,002
-307,110	800,000	0,040	-0,104
-306,095	800,000	-0,023	0,049
-305,080	159,062	0,020	0,020
-304,066	261,637	-0,042	-0,053
-303,051	528,372	-0,054	-0,093
-302,037	79,877	-0,102	-0,079
-301,022	800,000	0,044	0,109
-300,008	-46,146	0,111	0,039
-298,993	-133,478	0,069	-0,006
-297,978	-151,532	-0,134	0,007
-296,964	800,000	0,048	-0,121
-295,949	2,954	-0,146	0,077
-294,935	800,000	0,037	0,109
-293,920	800,000	-0,066	0,147
-292,905	800,000	0,037	0,084
-291,891	800,000	0,060	0,155
-290,876	64,442	0,061	-0,044
-289,862	98,192	0,013	0,011
-288,847	-200,000	-0,020	0,130
-287,832	-94,157	-0,031	0,006
-286,818	212,384	-0,025	-0,029
-285,803	-115,228	-0,001	0,000
-284,789	-200,000	0,001	0,028
-283,774	-10,466	-0,124	-0,059
-282,759	101,080	0,023	0,019
-281,745	-125,848	0,038	-0,004
-280,730	627,055	0,050	0,091
-279,716	800,000	0,060	-0,152
-278,701	335,953	-0,027	-0,038
-277,686	56,327	-0,076	0,053
-276,672	800,000	0,042	0,103
-275,657	111,605	0,101	-0,088
-274,643	-153,877	-0,243	-0,012
-273,628	629,295	0,073	-0,134
-272,613	-79,232	0,093	0,023
-271,599	800,000	0,100	0,231
-270,584	-34,098	0,043	-0,017
-269,570	800,000	-0,016	-0,036
-268,555	231,097	0,067	0,079
-267,540	200,506	0,048	-0,053
-266,526	-127,361	0,080	-0,008
-265,511	133,312	0,070	-0,066
-264,497	800,000	0,028	0,059
-263,482	-118,576	0,163	-0,021
-262,467	-29,421	0,073	0,030
-261,453	-200,000	-0,006	0,176
-260,438	-200,000	0,025	-0,133
-259,424	-200,000	0,030	-0,112
-258,409	800,000	0,012	-0,027
-257,395	800,000	0,023	-0,055
-256,380	433,543	0,076	0,119
-255,365	294,245	0,029	0,038
-254,351	-200,000	-0,009	0,210
-253,336	-200,000	0,030	0,133
-252,322	-200,000	-0,011	-0,037
-251,307	71,439	0,042	-0,032
-250,292	-10,644	-0,089	0,042
-249,278	-200,000	-0,010	0,033
-248,263	-49,634	0,022	-0,008
-247,249	206,754	0,113	0,127
-246,234	792,584	0,017	-0,034
-245,219	372,614	0,062	-0,091
-244,205	-95,395	-0,047	-0,009
-243,190	72,007	0,092	-0,069
-242,176	145,012	0,091	0,088
-241,161	-200,000	-0,004	0,066
-240,146	95,232	-0,018	0,015
-239,132	-200,000	0,001	-0,019
-238,117	314,309	-0,067	0,091
-237,103	-59,964	0,132	0,040
-236,088	800,000	-0,048	-0,136
-235,073	195,716	-0,152	0,167
-234,059	-162,893	0,045	-0,002
-233,044	-139,199	0,090	-0,007
-232,030	-200,000	0,005	0,033
-231,015	348,267	-0,017	-0,024
-230,000	621,506	-0,008	-0,015
-228,986	-141,041	0,102	-0,007
-227,971	-200,000	-0,003	0,033
-226,957	-200,000	0,014	-0,143
-225,942	-81,034	0,081	-0,019
-224,927	102,824	0,086	0,072
-223,913	132,047	-0,122	-0,113
-222,898	89,465	0,082	-0,066
-221,884	-200,000	0,001	0,005
-220,869	-142,600	0,090	0,006
-219,855	96,668	0,098	-0,081
-218,840	-200,000	0,005	0,116
-217,825	462,934	-0,034	0,056
-216,811	311,979	0,029	0,039
-215,796	-46,406	0,099	0,035
-214,782	283,456	-0,051	0,067
-213,767	-111,043	0,109	-0,016
-212,752	149,998	-0,008	-0,008
-211,738	142,616	0,097	0,093
-210,723	40,461	0,068	0,044
-209,709	-83,139	0,044	0,010
-208,694	231,237	-0,057	0,067
-207,679	787,799	0,021	0,042
-206,665	-200,000	-0,009	0,076
-205,650	-200,000	0,025	-0,105
-204,636	7,631	-0,185	0,100
-203,621	-200,000	-0,002	0,010
-202,606	800,000	-0,066	-0,169
-201,592	800,000	-0,035	-0,098
-200,577	-173,113	0,068	-0,001
-199,563	-15,381	0,080	-0,037
-198,548	-168,052	-0,017	0,000
-197,533	730,966	-0,041	0,080
-196,519	539,951	-0,027	-0,047
-195,504	-12,375	-0,065	0,030
-194,490	35,475	0,047	-0,030
-193,475	434,387	-0,086	-0,135
-192,460	140,552	0,053	-0,050
-191,446	103,404	0,043	-0,036
-190,431	324,787	-0,054	0,074
-189,417	-200,000	-0,001	0,016
-188,402	503,501	-0,074	0,124
-187,387	54,254	-0,162	-0,112
-186,373	245,715	-0,028	0,034
-185,358	298,116	-0,066	-0,088
-184,344	-81,698	0,147	-0,034
-183,329	-80,233	0,111	-0,026
-182,315	800,000	-0,075	-0,236
-181,300	-200,000	0,035	-0,122
-180,285	-177,581	0,096	0,002
-179,271	62,473	-0,096	0,069
-178,256	508,422	0,016	0,027
-177,242	-13,382	0,039	-0,018
-176,227	104,954	-0,013	-0,011
-175,212	-200,000	-0,070	0,238
-174,198	-93,011	0,118	0,023
-173,183	443,556	-0,075	-0,119
-172,169	-76,985	0,080	0,020
-171,154	427,562	-0,025	-0,039
-170,139	165,414	0,155	-0,158
-169,125	-200,000	-0,000	0,109
-168,110	552,660	-0,036	-0,062
-167,096	-27,769	-0,165	-0,069
-166,081	-200,000	-0,040	-0,151
-165,066	41,619	-0,049	-0,032
-164,052	138,263	-0,016	0,015
-163,037	-133,712	0,196	-0,017
-162,023	332,714	0,027	0,038
-161,008	-200,000	-0,005	0,137
-159,993	599,257	0,082	0,147
-158,979	145,579	-0,111	-0,108
-157,964	390,425	-0,028	-0,042
-156,950	-200,000	0,006	-0,083
-155,935	477,085	0,005	-0,008
-154,920	631,962	-0,067	0,123
-153,906	46,290	0,048	-0,032
-152,891	800,000	0,051	-0,131
-151,877	-39,317	0,058	-0,022
-150,862	205,869	-0,053	0,060
-149,847	800,000	0,069	-0,155
-148,833	-200,000	0,006	0,063
-147,818	-200,000	-0,026	0,181
-146,804	97,546	0,051	0,042
-145,789	-0,231	-0,027	0,014
-144,775	-200,000	0,005	0,050
-143,760	-200,000	-0,003	0,082
-142,745	-136,523	-0,033	-0,003
-141,731	-115,001	-0,013	0,002
-140,716	-13,943	-0,103	-0,048
-139,702	173,128	-0,042	0,044
-138,687	-200,000	0,009	0,142
-137,672	-82,031	-0,178	-0,042
-136,658	800,000	-0,015	-0,044
-135,643	595,981	0,059	0,106
-134,629	-129,306	-0,143	0,014
-133,614	106,182	0,080	-0,069
-132,599	-102,142	-0,143	0,025
-131,585	63,479	-0,059	0,042
-130,570	77,529	-0,079	-0,060
-129,556	-120,030	0,051	0,006
-128,541	284,468	-0,088	-0,114
-127,526	-116,320	0,016	-0,002
-126,512	800,000	-0,017	0,043
-125,497	205,870	0,078	0,087
-124,483	590,791	-0,078	-0,139
-123,468	-200,000	0,009	0,042
-122,453	186,564	0,044	0,047
-121,439	-200,000	-0,005	0,075
-120,424	521,129	-0,081	0,137
-119,410	-35,517	-0,109	-0,042
-118,395	49,101	0,075	0,051
-117,380	-200,000	-0,020	0,119
-116,366	106,972	0,085	-0,073
-115,351	-200,000	0,014	0,139
-114,337	-200,000	0,016	-0,075
-113,322	59,039	-0,081	-0,057
-112,307	400,174	-0,044	0,066
-111,293	-200,000	-0,013	-0,171
-110,278	-200,000	-0,001	0,029
-109,264	-59,311	-0,076	0,023
-108,249	-59,892	-0,006	-0,002
-107,234	-200,000	-0,032	-0,105
-106,220	-138,276	0,073	-0,006
-105,205	800,000	-0,057	-0,154
-104,191	800,000	0,059	-0,148
-103,176	-200,000	-0,010	0,058
-102,162	-200,000	-0,009	0,034
-101,147	-158,596	-0,058	-0,002
-100,132	307,811	0,034	0,046
-99,118	343,148	0,041	0,058
-98,103	-145,140	0,133	-0,009
-97,089	639,090	0,021	0,039
-96,074	-200,000	-0,009	0,084
-95,059	800,000	0,051	-0,147
-94,045	-141,072	-0,044	-0,003
-93,030	-8,353	0,156	0,075
-92,016	-99,262	-0,067	0,012
-91,001	206,144	-0,051	0,058
-89,986	-200,000	-0,013	0,094
-88,972	265,390	0,018	0,023
-87,957	-28,892	-0,056	0,023
-86,943	162,908	0,018	0,018
-85,928	-15,397	-0,141	0,064
-84,913	712,845	-0,010	-0,018
-83,899	278,508	0,050	0,064
-82,884	800,000	0,040	0,094
-81,870	-200,000	-0,014	0,052
-80,855	-200,000	-0,010	0,034
-79,840	33,494	0,075	0,047
-78,826	-200,000	0,003	-0,070
-77,811	-40,415	-0,112	-0,042
-76,797	152,972	0,021	0,021
-75,782	517,982	0,057	0,095
-74,767	-200,000	-0,017	0,124
-73,753	800,000	0,054	-0,150
-72,738	-200,000	-0,010	0,103
-71,724	33,158	-0,115	0,072
-70,709	-94,982	-0,156	-0,030
-69,694	-200,000	0,021	-0,158
-68,680	-57,443	0,084	-0,026
-67,665	-200,000	0,037	0,122
-66,651	-200,000	0,006	0,046
-65,636	87,720	0,032	-0,026
-64,622	-27,595	-0,072	0,030
-63,607	-53,422	-0,022	-0,007
-62,592	-181,802	0,147	0,002
-61,578	-12,622	-0,129	0,060
-60,563	96,782	0,060	0,049
-59,549	242,646	0,086	0,104
-58,534	70,139	-2,733	-2,023
-57,519	31,576	0,499	-0,307
-56,505	-200,000	-1,517	-5,444
-55,490	482,816	1,172	1,918
-54,476	800,000	5,134	11,180
-53,461	-200,000	22,450	347,612
-52,446	800,000	762,177	2282,218
-51,432	507,338	1645,513	2749,516
-50,417	95,569	1605,954	1313,622
-49,403	63,737	1263,140	909,104
-48,388	22,335	1015,475	593,808
-47,373	19,137	983,148	564,355
-46,359	12,546	969,820	535,175
-45,344	8,208	966,816	519,315
-44,330	8,681	964,478	519,584
-43,315	7,714	962,926	515,573
-42,300	7,612	961,942	514,694
-41,286	7,600	960,991	514,124
-40,271	7,580	959,949	513,481
-39,257	7,602	958,878	512,961
-38,242	7,583	958,018	512,418
-37,227	7,628	957,214	512,115
-36,213	7,577	956,406	511,496
-35,198	7,548	955,634	510,968
-34,184	7,611	954,848	510,731
-33,169	7,588	953,749	510,049
-32,154	7,695	952,869	509,905
-31,140	7,673	952,119	509,413
-30,125	7,644	951,408	508,917
-29,111	7,551	950,733	508,237
-28,096	7,603	949,856	507,915
-27,082	7,629	949,359	507,712
-26,067	7,594	948,563	507,153
-25,052	7,602	947,710	506,703
-24,038	7,578	946,982	506,219
-23,023	7,528	946,470	505,763
-22,009	7,614	945,877	505,702
-20,994	7,576	945,259	505,229
-19,979	7,615	944,510	504,933
-18,965	7,571	943,979	504,489
-17,950	7,633	943,082	504,188
-16,936	7,558	942,696	503,722
-15,921	7,597	941,804	503,349
-14,906	7,485	941,164	502,630
-13,892	7,482	940,813	502,414
-12,877	7,495	940,119	502,064
-11,863	7,420	939,506	501,479
-10,848	7,456	938,957	501,282
-9,833	7,598	938,367	501,396
-8,819	7,587	937,562	500,911
-7,804	7,480	937,298	500,411
-6,790	7,430	936,662	499,893
-5,775	7,538	936,063	499,897
-4,760	7,575	935,465	499,675
-3,746	7,550	934,754	499,196
-2,731	7,317	934,319	498,208
-1,717	7,291	933,584	497,714
-0,702	7,305	932,836	497,338
0,313	7,145	932,126	497,205
1,327	10,546	929,685	506,560
2,342	19,069	777,994	446,191
3,356	14,299	446,599	248,950
4,371	-11,189	311,669	146,712
5,386	-14,894	294,350	134,811
6,400	-17,094	288,330	129,868
7,415	-17,496	285,482	128,180
8,429	-18,239	283,604	126,603
9,444	-18,294	282,696	126,133
10,459	-18,125	281,916	125,937
11,473	-18,334	281,553	125,562
12,488	-18,212	281,048	125,443
13,502	-18,264	280,620	125,191
14,517	-18,445	280,091	124,770
15,531	-18,480	279,600	124,506
16,546	-18,419	279,191	124,372
17,561	-18,350	278,789	124,248
18,575	-18,326	278,485	124,123
19,590	-18,419	278,003	123,809
20,604	-18,342	277,867	123,812
21,619	-18,408	277,480	123,565
22,634	-18,320	277,147	123,489
23,648	-18,511	276,774	123,131
24,663	-18,382	276,452	123,098
25,677	-18,286	276,330	123,125
26,692	-18,307	275,988	122,940
27,707	-18,591	275,860	122,605
28,721	-18,534	275,375	122,432
29,736	-18,274	274,987	122,493
30,750	-18,406	274,862	122,302
31,765	-18,437	274,617	122,153
32,780	-18,448	274,457	122,061
33,794	-18,343	274,050	121,968
34,809	-18,437	273,805	121,759
35,823	-18,389	273,688	121,742
36,838	-18,504	273,281	121,442
37,853	-18,379	273,056	121,449
38,867	-18,418	272,973	121,364
39,882	-18,360	272,661	121,269
40,896	-18,451	272,359	121,039
41,911	-18,305	272,170	121,080
42,926	-18,380	271,842	120,853
43,940	-18,371	271,472	120,686
44,955	-18,415	271,278	120,549
45,969	-18,445	271,189	120,470
46,984	-18,390	271,104	120,473
47,999	-18,435	270,887	120,324
49,013	-18,389	270,647	120,250
50,028	-18,377	270,332	120,110
51,042	-18,303	270,066	120,049
52,057	-18,326	270,061	120,015
53,071	-18,389	269,529	119,710
54,086	-18,366	269,404	119,665
55,101	-18,328	269,258	119,625
56,115	-18,324	268,972	119,490
57,130	-18,366	268,682	119,313
58,144	-18,331	268,302	119,165
59,159	-18,366	268,258	119,103
60,174	-18,398	267,935	118,919
61,188	-18,292	267,875	118,979
62,203	-18,514	267,726	118,700
63,217	-18,059	267,203	118,872
64,232	-18,114	267,019	118,729
65,247	-18,247	266,984	118,583
66,261	-18,332	266,619	118,332
67,276	-18,531	266,488	118,083
68,290	-18,359	266,321	118,154
69,305	-18,155	265,923	118,152
70,320	-18,286	265,730	117,937
71,334	-18,269	265,487	117,834
72,349	-18,209	265,352	117,818
73,363	-18,163	265,042	117,712
74,378	-18,274	264,816	117,500
75,393	-18,261	264,722	117,460
76,407	-18,358	264,451	117,242
77,422	-18,292	264,049	117,112
78,436	-18,309	264,031	117,079
79,451	-18,226	263,783	117,033
80,466	-18,374	263,612	116,814
81,480	-18,301	263,199	116,686
82,495	-18,229	262,969	116,638
83,509	-18,350	262,878	116,479
84,524	-18,319	262,600	116,373
85,539	-18,169	262,435	116,424
86,553	-18,480	262,357	116,100
87,568	-18,209	261,846	116,106
88,582	-18,250	261,889	116,078
89,597	-18,212	261,483	115,922
90,611	-18,276	261,353	115,796
91,626	-18,181	261,248	115,824
92,641	-18,476	261,058	115,467
93,655	-18,293	260,904	115,551
94,670	-18,290	260,516	115,372
95,684	-18,298	260,292	115,256
96,699	-18,240	260,213	115,262
97,714	-18,306	259,893	115,052
98,728	-18,265	259,803	115,037
99,743	-18,180	259,522	114,978
100,757	-18,250	259,250	114,785
101,772	-18,231	259,063	114,709
102,787	-18,209	258,934	114,661
103,801	-18,383	258,755	114,418
104,816	-18,228	258,530	114,445
105,830	-18,364	258,522	114,312
106,845	-18,115	258,023	114,300
107,860	-18,129	257,920	114,231
108,874	-18,277	257,634	113,965
109,889	-18,196	257,478	113,956
110,903	-18,280	257,226	113,761
111,918	-18,187	257,095	113,774
112,933	-18,171	256,848	113,669
113,947	-18,113	256,769	113,675
114,962	-18,173	256,354	113,428
115,976	-18,150	256,315	113,421
116,991	-18,334	256,245	113,220
118,006	-18,381	256,040	113,078
119,020	-18,379	255,737	112,936
120,035	-18,250	255,677	113,011
121,049	-18,259	255,331	112,841
122,064	-18,285	255,279	112,785
123,079	-18,291	254,959	112,628
124,093	-18,397	254,845	112,477
125,108	-18,329	254,752	112,484
126,122	-18,100	254,376	112,506
127,137	-18,472	254,184	112,089
128,151	-18,121	253,973	112,290
129,166	-18,124	253,682	112,148
130,181	-18,181	253,488	112,003
131,195	-18,219	253,452	111,945
132,210	-18,300	253,183	111,747
133,224	-18,176	253,013	111,768
134,239	-18,135	252,819	111,707
135,254	-18,207	252,645	111,559
136,268	-18,074	252,356	111,535
137,283	-18,238	252,208	111,320
138,297	-18,053	251,968	111,361
139,312	-18,150	251,737	111,167
140,327	-18,105	251,595	111,132
141,341	-18,193	251,456	110,986
142,356	-18,228	251,158	110,815
143,370	-18,091	251,061	110,879
144,385	-17,983	250,693	110,798
145,400	-18,172	250,524	110,553
146,414	-18,081	250,394	110,563
147,429	-18,185	250,315	110,430
148,443	-18,188	250,041	110,297
149,458	-18,244	250,031	110,236
150,473	-18,161	249,775	110,183
151,487	-18,007	249,498	110,180
152,502	-18,159	249,430	110,012
153,516	-18,157	249,150	109,881
154,531	-18,183	248,926	109,750
155,546	-17,993	248,740	109,818
156,560	-17,998	248,547	109,719
157,575	-18,237	248,468	109,474
158,589	-17,997	248,156	109,529
159,604	-17,894	247,941	109,510
160,619	-18,065	247,930	109,352
161,633	-18,114	247,620	109,164
162,648	-17,931	247,423	109,221
163,662	-18,013	247,271	109,076
164,677	-18,046	247,264	109,036
165,692	-17,906	246,993	109,023
166,706	-18,120	246,766	108,734
167,721	-18,027	246,644	108,748
168,735	-18,141	246,553	108,604
169,750	-18,169	246,495	108,545
170,764	-17,942	246,330	108,652
171,779	-18,160	246,134	108,374
172,794	-18,012	246,019	108,437
173,808	-18,050	245,617	108,218
174,823	-18,086	245,526	108,139
175,837	-18,042	245,238	108,039
176,852	-18,000	245,136	108,019
177,867	-18,051	244,901	107,864
178,881	-17,860	244,740	107,941
179,896	-18,070	244,746	107,760
180,910	-17,996	244,561	107,731
181,925	-17,940	244,163	107,592
182,940	-18,098	244,046	107,401
183,954	-17,982	243,863	107,406
184,969	-17,943	243,824	107,412
185,983	-18,000	243,576	107,245
186,998	-18,051	243,449	107,139
188,013	-17,875	243,307	107,211
189,027	-17,987	243,127	107,030
190,042	-17,918	242,828	106,946
191,056	-18,012	242,696	106,801
192,071	-18,169	242,717	106,672
193,086	-18,062	242,372	106,598
194,100	-18,002	242,213	106,568
195,115	-17,950	241,942	106,481
196,129	-18,010	241,710	106,321
197,144	-18,047	241,624	106,243
198,159	-18,002	241,355	106,152
199,173	-18,060	241,367	106,101
200,188	-17,872	241,093	106,124
201,202	-17,816	240,934	106,090
202,217	-17,894	240,662	105,898
203,232	-17,970	240,484	105,748
204,246	-18,007	240,341	105,646
205,261	-17,597	240,188	105,901
206,275	-15,887	240,966	107,623
207,290	-10,334	242,784	112,963
208,304	-4,729	244,530	118,368
209,319	-2,947	244,951	120,024
210,334	-2,538	245,064	120,405
211,348	-1,449	245,123	121,316
212,363	-0,706	245,186	121,947
213,377	-0,132	245,321	122,473
214,392	0,267	245,397	122,828
215,407	0,472	245,261	122,916
216,421	0,751	245,059	123,033
217,436	0,672	244,905	122,880
218,450	0,709	244,973	122,933
219,465	0,842	244,689	122,888
220,480	0,842	244,500	122,782
221,494	0,746	244,320	122,603
222,509	0,444	243,921	122,146
223,523	0,460	243,822	122,099
224,538	0,414	243,608	121,943
225,553	0,195	243,369	121,634
226,567	0,422	243,326	121,787
227,582	0,111	243,332	121,526
228,596	0,202	243,095	121,471
229,611	0,259	242,925	121,421
230,626	0,115	242,770	121,216
231,640	0,307	242,476	121,214
232,655	0,209	242,316	121,044
233,669	0,312	242,067	120,992
234,684	0,206	242,083	120,904
235,699	0,310	241,914	120,892
236,713	0,125	241,846	120,698
237,728	0,270	241,553	120,658
238,742	0,414	241,366	120,670
239,757	0,180	241,236	120,406
240,772	0,166	241,137	120,334
241,786	0,200	240,890	120,228
242,801	0,186	240,838	120,180
243,815	0,213	240,613	120,078
244,830	0,121	240,448	119,912
245,844	0,146	240,212	119,803
246,859	-0,033	240,297	119,692
247,874	0,207	240,049	119,750
248,888	0,275	239,831	119,685
249,903	0,146	239,697	119,504
250,917	0,139	239,665	119,472
251,932	0,322	239,571	119,560
252,947	0,341	239,228	119,394
253,961	0,350	239,114	119,333
254,976	0,277	239,072	119,244
255,990	0,144	238,933	119,057
257,005	0,134	238,642	118,894
258,020	0,400	238,449	118,999
259,034	0,331	238,360	118,888
260,049	0,170	238,135	118,638
261,063	0,303	237,990	118,661
262,078	0,261	237,762	118,503
263,093	0,193	237,625	118,371
264,107	0,215	237,538	118,334
265,122	0,127	237,329	118,150
266,136	0,125	237,326	118,137
267,151	0,178	237,225	118,117
268,166	0,192	236,830	117,921
269,180	0,115	236,823	117,847
270,195	-0,012	236,623	117,637
271,209	0,277	236,515	117,799
272,224	0,106	236,502	117,648
273,239	0,349	236,077	117,617
274,253	0,249	236,061	117,521
275,268	0,537	235,787	117,599
276,282	0,367	235,638	117,381
277,297	0,265	235,531	117,237
278,312	0,208	235,426	117,130
279,326	0,300	235,397	117,177
280,341	0,508	235,209	117,236
281,355	0,287	235,068	116,982
282,370	0,477	234,883	117,028
283,384	0,043	234,710	116,593
284,399	0,304	234,546	116,704
285,414	0,389	234,377	116,676
286,428	0,325	234,211	116,533
287,443	0,270	234,147	116,448
288,457	0,361	233,948	116,410
289,472	0,491	233,717	116,386
290,487	0,405	233,567	116,234
291,501	0,451	233,488	116,220
292,516	0,471	233,250	116,106
293,530	0,159	233,327	115,892
294,545	0,471	233,010	115,966
295,560	0,365	232,995	115,867
296,574	0,415	232,702	115,749
297,589	0,214	232,632	115,548
298,603	0,426	232,401	115,587
299,618	0,448	232,312	115,549
300,633	0,386	232,156	115,414
301,647	0,453	232,004	115,380
302,662	0,537	231,784	115,325
303,676	0,578	231,879	115,393
304,691	0,427	231,616	115,136
305,706	0,622	231,376	115,156
306,720	0,599	231,192	115,037
307,735	0,524	231,192	114,969
308,749	0,641	230,989	114,947
309,764	0,772	230,787	114,936
310,779	0,635	230,710	114,783
311,793	0,504	230,557	114,597
312,808	0,617	230,509	114,649
313,822	0,374	230,385	114,392
314,837	0,518	230,188	114,393
315,852	0,582	229,926	114,302
316,866	0,755	229,910	114,415
317,881	0,786	229,743	114,346
318,895	0,643	229,570	114,140
319,910	0,536	229,384	113,956
320,925	0,702	229,291	114,026
321,939	0,582	229,165	113,862
322,954	0,598	229,010	113,788
323,968	0,742	228,754	113,759
324,983	0,662	228,716	113,669
325,997	0,424	228,593	113,418
327,012	0,712	228,277	113,469
328,027	0,558	228,226	113,317
329,041	0,558	228,003	113,196
330,056	0,721	227,859	113,238
331,070	0,849	227,612	113,201
332,085	0,564	227,652	112,996
333,100	0,809	227,454	113,072
334,114	0,495	227,291	112,745
335,129	0,710	227,276	112,889
336,143	0,587	227,008	112,653
337,158	0,625	226,967	112,652
338,173	0,589	226,824	112,544
339,187	0,799	226,558	112,559
340,202	0,727	226,418	112,426
341,216	0,731	226,236	112,328
342,231	0,768	226,383	112,419
343,246	0,712	226,017	112,185
344,260	0,822	226,029	112,263
345,275	0,674	225,714	111,986
346,289	0,827	225,677	112,072
347,304	0,577	225,654	111,864
348,319	0,863	225,362	111,922
349,333	0,676	225,198	111,692
350,348	0,822	225,058	111,721
351,362	0,825	224,943	111,656
352,377	0,736	224,851	111,534
353,392	0,808	224,572	111,439
354,406	0,900	224,536	111,480
355,421	192,227	1311,272	1376,563
356,435	153,954	1443,524	1376,394
