DTS Sentinel unit serial number:	SN410029Multiplexer serial number:	ORYXHardware model number:	OX2-SRSoftware version number:	ORYX F/W v4,00 Oryx Data Collector v3.7.2.0data status	okinstallation	B5 Nyhavnadifferential loss correction	single-endedforward channel	channel 2reverse channel	N/Adate	2023/12/14time	08:12:13forward acquisition time	300,00reverse acquisition time	0,00gamma	499,1914k internal	0,3160k external	0,3160temperature offset calibration	1,0000default loss term (dB/km)	0,3820temperature slope calibration	1,0000multiplexer offset coefficient	1,0000multiplexer slope coefficient	1,0000fibre end	0,00T internal ref (°C)	7,06T ext. ref 1 (°C)	-9,19T ext. ref 2 (°C)	-9,28length (m)	temperature (°C)	Stokes	anti-Stokes-744,400	192,866	0,108	0,121
-743,385	-146,893	-0,445	0,028
-742,371	306,948	0,123	0,170
-741,356	-124,087	-0,346	-0,039
-740,342	0,432	0,238	0,125
-739,327	-158,822	-0,310	-0,013
-738,312	49,666	0,108	0,075
-737,298	-102,240	-0,446	-0,078
-736,283	74,761	0,143	0,111
-735,269	-126,728	-0,310	-0,033
-734,254	282,921	0,095	0,126
-733,239	-75,925	-0,567	-0,147
-732,225	-19,859	0,287	0,130
-731,210	22,441	0,216	0,129
-730,196	-119,000	0,023	0,003
-729,181	-36,618	0,056	-0,022
-728,167	800,000	0,014	0,038
-727,152	18,100	0,101	0,059
-726,137	88,663	-0,088	-0,072
-725,123	-127,917	-0,140	0,015
-724,108	-96,046	-0,157	-0,030
-723,094	800,000	0,026	0,067
-722,079	-145,001	-0,086	-0,006
-721,064	800,000	0,026	-0,075
-720,050	800,000	0,027	0,082
-719,035	-67,435	-0,192	0,055
-718,021	800,000	-0,012	0,034
-717,006	-152,771	-0,062	-0,003
-715,991	584,092	-0,032	-0,058
-714,977	-47,242	0,040	-0,014
-713,962	12,535	-0,097	0,055
-712,948	130,685	0,102	0,097
-711,933	800,000	-0,037	-0,106
-710,918	373,740	-0,061	0,092
-709,904	-48,266	-0,104	0,037
-708,889	121,230	-0,061	0,056
-707,875	-43,796	-0,121	0,045
-706,860	-200,000	-0,002	0,041
-705,845	118,558	0,046	0,042
-704,831	246,015	-0,033	-0,041
-703,816	800,000	0,061	-0,146
-702,802	38,405	0,067	0,044
-701,787	132,160	-0,122	-0,116
-700,772	800,000	0,045	0,129
-699,758	-15,919	0,047	-0,022
-698,743	-93,600	-0,089	-0,018
-697,729	-1,664	0,046	-0,024
-696,714	-39,715	0,039	0,015
-695,699	-139,852	-0,106	0,008
-694,685	-200,000	0,000	-0,017
-693,670	800,000	-0,085	-0,177
-692,656	37,545	-0,070	0,045
-691,641	115,139	0,071	-0,064
-690,627	-200,000	-0,002	0,052
-689,612	26,993	0,046	0,028
-688,597	104,607	-0,024	-0,021
-687,583	-200,000	0,005	-0,063
-686,568	-57,409	-0,147	0,047
-685,554	256,123	-0,055	-0,070
-684,539	87,662	0,102	0,083
-683,524	-52,488	0,146	0,049
-682,510	106,641	-0,082	0,071
-681,495	-200,000	0,001	0,076
-680,481	103,990	-0,078	-0,068
-679,466	-200,000	-0,002	-0,053
-678,451	800,000	-0,036	0,101
-677,437	26,235	-0,077	-0,047
-676,422	627,879	-0,084	-0,157
-675,408	-200,000	0,027	0,099
-674,393	61,148	-0,059	0,043
-673,378	202,356	-0,060	-0,068
-672,364	-200,000	0,016	0,082
-671,349	332,957	-0,027	-0,039
-670,335	82,874	0,163	0,130
-669,320	-83,134	-0,053	0,012
-668,305	342,255	-0,068	0,098
-667,291	7,479	-0,038	-0,021
-666,276	464,085	-0,074	0,122
-665,262	-159,505	0,082	0,003
-664,247	34,087	-0,119	-0,076
-663,232	-157,981	0,036	0,002
-662,218	-200,000	0,011	0,072
-661,203	719,486	-0,043	-0,085
-660,189	132,278	0,056	-0,053
-659,174	231,098	-0,064	-0,077
-658,159	-200,000	-0,002	-0,088
-657,145	-136,924	0,115	-0,010
-656,130	217,569	0,076	-0,089
-655,116	312,415	0,021	-0,029
-654,101	318,430	-0,034	-0,048
-653,086	-74,484	-0,129	0,034
-652,072	115,651	0,102	0,091
-651,057	-200,000	0,022	0,121
-650,043	100,410	-0,124	-0,105
-649,028	800,000	-0,009	-0,018
-648,014	511,903	-0,061	0,104
-646,999	-200,000	-0,006	0,031
-645,984	-200,000	-0,019	0,130
-644,970	246,771	0,033	0,041
-643,955	-1,286	-0,088	0,045
-642,941	800,000	0,017	0,039
-641,926	-34,952	-0,079	0,031
-640,911	63,959	-0,136	0,100
-639,897	115,822	0,047	-0,043
-638,882	62,548	-0,060	-0,044
-637,868	68,383	-0,050	-0,037
-636,853	292,458	-0,049	0,066
-635,838	-200,000	-0,001	-0,029
-634,824	577,137	0,056	0,101
-633,809	341,626	0,031	0,045
-632,795	800,000	-0,034	0,070
-631,780	-200,000	0,016	0,054
-630,765	231,125	-0,099	-0,119
-629,751	116,245	-0,160	-0,144
-628,736	460,963	0,019	-0,032
-627,722	431,363	-0,034	-0,054
-626,707	341,399	0,035	-0,050
-625,692	117,862	0,043	-0,039
-624,678	57,223	-0,057	0,041
-623,663	243,548	-0,061	0,076
-622,649	453,388	0,046	0,076
-621,634	-49,267	0,071	0,025
-620,619	-102,322	-0,082	-0,014
-619,605	184,320	-0,028	0,031
-618,590	-200,000	-0,015	0,085
-617,576	-200,000	-0,017	-0,055
-616,561	626,800	-0,037	0,068
-615,546	-200,000	0,005	0,031
-614,532	-122,992	-0,163	0,019
-613,517	33,313	-0,067	-0,042
-612,503	-200,000	-0,016	0,124
-611,488	154,073	0,093	-0,094
-610,474	40,319	0,051	0,033
-609,459	-81,962	0,101	-0,024
-608,444	-85,503	-0,149	-0,034
-607,430	-14,988	-0,077	0,036
-606,415	-200,000	-0,001	-0,020
-605,401	89,498	0,103	-0,084
-604,386	-31,598	-0,126	0,052
-603,371	16,418	0,178	0,103
-602,357	-81,464	0,222	0,053
-601,342	651,632	-0,025	-0,047
-600,328	291,930	-0,050	-0,066
-599,313	-22,852	-0,106	-0,047
-598,298	800,000	-0,046	-0,104
-597,284	401,471	0,069	0,106
-596,269	-200,000	-0,013	0,136
-595,255	-200,000	-0,008	0,110
-594,240	-81,199	-0,038	-0,009
-593,225	189,919	-0,069	-0,076
-592,211	-200,000	0,018	-0,171
-591,196	14,514	-0,118	0,067
-590,182	-200,000	0,011	0,069
-589,167	800,000	-0,036	-0,074
-588,152	-200,000	-0,025	0,141
-587,138	644,028	-0,020	0,037
-586,123	800,000	0,026	0,060
-585,109	800,000	-0,060	-0,126
-584,094	99,000	-0,112	-0,094
-583,079	239,353	0,141	-0,172
-582,065	406,372	0,045	-0,070
-581,050	800,000	0,021	-0,060
-580,036	286,582	-0,054	-0,072
-579,021	216,891	0,070	-0,082
-578,006	-80,775	-0,069	0,017
-576,992	-14,590	-0,049	-0,023
-575,977	-63,879	0,090	0,027
-574,963	-200,000	-0,053	0,205
-573,948	800,000	-0,010	-0,029
-572,934	135,652	-0,158	-0,151
-571,919	800,000	0,041	-0,117
-570,904	370,688	0,077	0,114
-569,890	209,777	-0,114	-0,131
-568,875	-200,000	-0,004	-0,026
-567,861	-73,123	-0,016	-0,004
-566,846	141,547	-0,068	0,066
-565,831	-200,000	0,014	0,050
-564,817	-193,806	-0,084	-0,001
-563,802	57,200	0,112	0,080
-562,788	800,000	-0,055	0,166
-561,773	45,292	-0,097	0,065
-560,758	399,063	0,069	0,106
-559,744	-200,000	0,007	0,107
-558,729	-200,000	0,023	0,093
-557,715	-24,808	-0,115	-0,050
-556,700	-200,000	-0,023	-0,099
-555,685	371,926	-0,060	-0,089
-554,671	-200,000	0,022	-0,155
-553,656	-48,665	0,089	0,031
-552,642	-25,849	-0,048	-0,021
-551,627	-15,629	0,032	-0,015
-550,612	-200,000	-0,001	-0,069
-549,598	14,331	-0,029	0,017
-548,583	-164,028	-0,150	0,005
-547,569	-140,321	0,041	0,003
-546,554	112,164	0,057	-0,051
-545,539	684,885	-0,068	0,130
-544,525	800,000	0,046	0,129
-543,510	-200,000	0,025	0,115
-542,496	471,566	0,075	-0,124
-541,481	63,380	-0,061	-0,045
-540,466	800,000	0,059	-0,152
-539,452	-72,555	0,048	0,013
-538,437	-200,000	0,010	-0,039
-537,423	106,358	0,059	-0,051
-536,408	108,718	-0,008	-0,007
-535,393	-121,249	-0,143	0,017
-534,379	150,099	0,029	0,029
-533,364	352,577	-0,028	0,040
-532,350	146,539	0,085	0,084
-531,335	-200,000	0,011	-0,061
-530,321	800,000	0,026	0,066
-529,306	-116,013	-0,101	-0,014
-528,291	30,709	0,065	0,041
-527,277	-79,162	-0,048	-0,012
-526,262	-47,155	-0,011	0,004
-525,248	5,795	0,026	-0,014
-524,233	229,720	-0,012	0,014
-523,218	327,914	0,071	-0,100
-522,204	73,700	0,044	0,033
-521,189	-200,000	-0,024	-0,133
-520,175	-140,765	-0,011	0,001
-519,160	-123,462	-0,158	-0,018
-518,145	166,422	0,043	-0,044
-517,131	800,000	-0,013	-0,035
-516,116	-89,955	0,069	0,015
-515,102	-14,686	-0,165	0,077
-514,087	-200,000	-0,006	0,067
-513,072	354,333	-0,029	0,042
-512,058	-200,000	-0,015	-0,096
-511,043	62,163	-0,037	0,027
-510,029	-183,708	0,092	0,001
-509,014	800,000	-0,051	0,123
-507,999	800,000	-0,010	0,031
-506,985	193,573	0,076	-0,084
-505,970	-200,000	0,026	-0,114
-504,956	359,376	0,044	0,064
-503,941	691,820	-0,058	-0,112
-502,926	7,582	0,054	0,029
-501,912	280,898	0,046	-0,060
-500,897	211,252	-0,085	0,098
-499,883	800,000	0,061	0,130
-498,868	7,478	-0,130	0,071
-497,853	181,465	-0,062	0,067
-496,839	800,000	-0,032	0,065
-495,824	-88,592	0,167	-0,036
-494,810	-124,111	-0,142	0,016
-493,795	-46,222	0,063	-0,023
-492,781	-200,000	-0,009	-0,037
-491,766	-137,886	-0,042	0,003
-490,751	24,090	-0,106	-0,064
-489,737	-186,287	-0,203	0,002
-488,722	46,168	0,065	-0,044
-487,708	-108,889	0,042	-0,007
-486,693	490,708	-0,061	-0,102
-485,678	-40,051	0,171	0,065
-484,664	-43,519	-0,185	-0,068
-483,649	22,325	-0,008	-0,005
-482,635	800,000	-0,014	-0,036
-481,620	-200,000	-0,033	0,124
-480,605	-73,740	0,078	0,021
-479,591	-128,246	0,179	-0,018
-478,576	-200,000	-0,022	0,082
-477,562	355,449	0,113	-0,165
-476,547	-200,000	-0,002	0,092
-475,532	-22,794	0,110	-0,048
-474,518	-200,000	-0,008	0,026
-473,503	-120,863	0,134	-0,016
-472,489	107,818	0,048	0,041
-471,474	669,073	-0,091	0,173
-470,459	800,000	-0,023	0,062
-469,445	67,088	-0,083	0,062
-468,430	-91,588	0,033	-0,007
-467,416	164,805	-0,004	-0,004
-466,401	-200,000	0,017	0,078
-465,386	-200,000	-0,010	0,038
-464,372	58,872	-0,041	0,029
-463,357	283,073	-0,121	-0,158
-462,343	176,261	-0,063	0,067
-461,328	-114,653	0,117	0,016
-460,313	88,776	-0,138	-0,111
-459,299	317,077	-0,068	0,094
-458,284	-200,000	0,045	-0,147
-457,270	649,094	0,014	-0,026
-456,255	90,738	0,053	-0,043
-455,241	67,811	-0,044	-0,033
-454,226	-69,003	0,086	-0,024
-453,211	8,736	-0,038	0,021
-452,197	-200,000	-0,027	0,102
-451,182	-200,000	-0,015	0,060
-450,168	-200,000	-0,014	-0,091
-449,153	235,994	0,093	0,112
-448,138	800,000	-0,025	-0,060
-447,124	11,066	-0,028	0,016
-446,109	-200,000	-0,010	-0,067
-445,095	160,118	0,121	0,123
-444,080	800,000	0,050	0,106
-443,065	800,000	0,025	0,061
-442,051	376,770	0,034	0,051
-441,036	-108,170	0,055	0,009
-440,022	-27,842	0,058	0,024
-439,007	-200,000	0,017	-0,105
-437,992	-200,000	0,003	0,017
-436,978	-200,000	-0,000	-0,189
-435,963	89,299	0,046	0,038
-434,949	227,879	-0,025	0,030
-433,934	-200,000	0,009	-0,072
-432,919	-114,122	-0,076	-0,011
-431,905	-39,557	0,058	-0,022
-430,890	800,000	0,038	0,081
-429,876	-51,278	0,157	-0,053
-428,861	-55,937	-0,090	0,029
-427,846	194,592	0,030	0,033
-426,832	800,000	-0,095	-0,207
-425,817	141,944	0,092	-0,089
-424,803	-200,000	0,024	0,105
-423,788	-38,815	0,109	-0,042
-422,773	-50,027	0,081	-0,028
-421,759	51,421	-0,075	-0,052
-420,744	248,491	-0,112	0,138
-419,730	-38,968	-0,070	0,027
-418,715	-65,685	-0,175	0,051
-417,701	-200,000	0,000	-0,018
-416,686	267,129	0,057	-0,072
-415,671	59,661	0,133	-0,096
-414,657	-107,559	-0,045	0,007
-413,642	-50,821	0,041	-0,014
-412,628	-108,228	-0,143	0,022
-411,613	65,539	-0,105	0,077
-410,598	626,099	0,027	-0,050
-409,584	-200,000	-0,024	0,088
-408,569	-103,302	0,164	0,028
-407,555	-200,000	-0,009	0,037
-406,540	-200,000	-0,042	-0,222
-405,525	103,679	-0,122	-0,104
-404,511	-200,000	-0,033	-0,121
-403,496	12,559	-0,090	0,050
-402,482	-103,147	-0,081	0,014
-401,467	265,459	0,060	0,076
-400,452	-102,102	0,074	-0,013
-399,438	28,967	0,118	0,072
-398,423	-200,000	0,015	-0,175
-397,409	800,000	-0,011	-0,031
-396,394	-36,280	0,110	-0,043
-395,379	-200,000	-0,000	-0,056
-394,365	-142,319	0,124	0,009
-393,350	-16,949	0,108	0,049
-392,336	-200,000	-0,019	0,064
-391,321	411,238	-0,042	-0,064
-390,306	10,921	-0,193	0,107
-389,292	461,465	-0,073	0,119
-388,277	171,554	0,095	0,099
-387,263	-200,000	0,023	0,172
-386,248	27,962	0,126	-0,077
-385,233	-200,000	0,043	0,160
-384,219	226,701	-0,065	0,077
-383,204	800,000	-0,032	-0,089
-382,190	65,666	-0,026	0,019
-381,175	-78,480	-0,104	-0,026
-380,160	357,151	0,071	0,103
-379,146	86,037	0,081	0,064
-378,131	800,000	0,018	0,042
-377,117	-200,000	-0,141	-0,000
-376,102	387,679	0,059	0,089
-375,088	-61,126	-0,106	-0,032
-374,073	-71,012	-0,220	0,060
-373,058	-151,674	0,071	-0,004
-372,044	800,000	0,051	0,150
-371,029	-113,657	0,062	-0,009
-370,015	-200,000	0,036	-0,252
-369,000	-32,264	0,021	-0,009
-367,985	178,931	0,099	-0,105
-366,971	-1,325	-0,112	-0,057
-365,956	-0,242	0,074	0,038
-364,942	535,665	-0,014	0,025
-363,927	77,766	0,068	-0,052
-362,912	13,358	-0,109	-0,061
-361,898	-200,000	0,006	-0,110
-360,883	-52,160	0,016	0,005
-359,869	-130,823	-0,120	-0,012
-358,854	-200,000	0,040	-0,158
-357,839	-200,000	0,008	-0,035
-356,825	-74,714	0,140	-0,036
-355,810	575,048	0,037	0,067
-354,796	89,543	0,063	0,051
-353,781	-11,565	0,094	-0,045
-352,766	-200,000	0,025	-0,082
-351,752	426,946	0,029	0,045
-350,737	201,942	-0,049	-0,055
-349,723	-160,005	0,070	0,003
-348,708	800,000	-0,012	0,036
-347,693	-71,754	-0,095	0,026
-346,679	50,542	0,068	-0,047
-345,664	173,112	-0,047	-0,049
-344,650	-52,358	0,104	0,035
-343,635	-200,000	-0,034	-0,189
-342,620	-158,443	0,100	0,004
-341,606	136,890	-0,039	-0,037
-340,591	-76,911	-0,203	-0,051
-339,577	-200,000	0,020	-0,098
-338,562	-200,000	-0,034	-0,112
-337,548	377,304	-0,114	0,170
-336,533	-59,177	0,083	0,026
-335,518	-91,992	-0,068	0,014
-334,504	-200,000	0,001	0,045
-333,489	-15,894	0,117	0,054
-332,475	-97,105	-0,048	0,009
-331,460	198,931	-0,055	0,061
-330,445	-31,145	-0,031	-0,013
-329,431	215,047	0,031	-0,035
-328,416	800,000	-0,034	0,106
-327,402	-200,000	-0,019	0,151
-326,387	-200,000	-0,014	-0,049
-325,372	-106,104	0,136	-0,022
-324,358	639,395	0,050	-0,093
-323,343	800,000	-0,057	0,126
-322,329	-130,138	0,127	-0,012
-321,314	230,247	0,061	0,072
-320,299	-1,322	0,086	-0,044
-319,285	-200,000	0,003	-0,056
-318,270	800,000	0,020	0,042
-317,256	3,690	-0,091	-0,048
-316,241	172,511	0,080	-0,083
-315,226	153,944	-0,052	-0,051
-314,212	388,128	0,052	0,078
-313,197	-54,492	0,038	-0,012
-312,183	29,014	-0,127	0,078
-311,168	285,516	-0,056	-0,073
-310,153	-3,165	0,021	0,010
-309,139	800,000	0,054	-0,109
-308,124	54,387	0,048	-0,034
-307,110	37,720	-0,096	0,062
-306,095	-200,000	-0,004	-0,158
-305,080	257,058	-0,043	0,054
-304,066	106,974	0,028	0,024
-303,051	472,071	0,074	-0,122
-302,037	-0,262	0,066	0,034
-301,022	32,493	0,043	0,027
-300,008	14,078	0,144	0,081
-298,993	-200,000	-0,011	0,101
-297,978	-200,000	-0,015	0,053
-296,964	336,029	-0,061	-0,086
-295,949	-200,000	0,014	-0,081
-294,935	385,581	0,024	0,037
-293,920	-136,994	-0,093	0,008
-292,905	-186,421	0,164	0,002
-291,891	-200,000	0,027	0,159
-290,876	-200,000	-0,011	0,059
-289,862	-200,000	-0,012	0,081
-288,847	-153,486	-0,055	0,003
-287,832	-161,283	-0,077	0,003
-286,818	800,000	0,060	0,123
-285,803	-4,371	0,076	0,038
-284,789	311,428	-0,076	0,103
-283,774	89,286	-0,116	0,093
-282,759	-200,000	0,023	0,158
-281,745	800,000	-0,033	-0,076
-280,730	89,545	-0,027	0,022
-279,716	-200,000	-0,016	-0,054
-278,701	427,899	-0,017	0,026
-277,686	-69,102	0,106	-0,029
-276,672	44,725	-0,062	0,041
-275,657	80,188	0,052	0,040
-274,643	-200,000	-0,025	0,124
-273,628	800,000	-0,021	-0,063
-272,613	-200,000	0,016	0,095
-271,599	-141,493	-0,039	0,003
-270,584	-79,931	0,061	0,015
-269,570	-124,393	0,198	0,022
-268,555	156,653	-0,055	0,055
-267,540	-200,000	-0,000	-0,031
-266,526	-2,934	-0,077	-0,039
-265,511	-200,000	0,113	0,000
-264,497	-57,801	0,064	0,020
-263,482	391,368	-0,038	-0,057
-262,467	-200,000	-0,014	0,113
-261,453	800,000	0,052	0,111
-260,438	-111,802	-0,120	-0,017
-259,424	-118,795	-0,153	-0,019
-258,409	332,107	-0,086	-0,120
-257,395	358,282	-0,074	-0,107
-256,380	739,643	-0,017	0,032
-255,365	800,000	0,038	0,117
-254,351	-71,593	-0,092	-0,025
-253,336	800,000	-0,049	-0,154
-252,322	-162,660	-0,063	0,002
-251,307	800,000	0,026	-0,058
-250,292	-200,000	-0,031	0,118
-249,278	-151,091	0,137	-0,007
-248,263	4,405	0,073	0,039
-247,249	-200,000	-0,036	0,121
-246,234	-200,000	0,006	-0,062
-245,219	-200,000	-0,008	-0,030
-244,205	-200,000	-0,003	0,070
-243,190	-180,833	0,148	-0,002
-242,176	-98,043	0,113	0,021
-241,161	36,955	0,088	-0,056
-240,146	298,199	0,055	0,074
-239,132	800,000	-0,062	-0,164
-238,117	-18,262	-0,118	-0,053
-237,103	106,664	-0,064	-0,055
-236,088	800,000	0,018	-0,041
-235,073	800,000	-0,027	-0,059
-234,059	-200,000	0,039	0,172
-233,044	765,327	-0,033	-0,065
-232,030	37,512	0,033	-0,021
-231,015	-200,000	-0,000	0,035
-230,000	-63,232	-0,081	0,024
-228,986	187,646	0,027	0,029
-227,971	74,638	0,136	0,103
-226,957	-200,000	-0,022	0,156
-225,942	-200,000	-0,058	0,237
-224,927	800,000	0,012	0,035
-223,913	-58,772	-0,119	-0,037
-222,898	-200,000	-0,004	0,058
-221,884	-38,452	0,120	-0,046
-220,869	-85,163	0,049	-0,011
-219,855	-77,393	0,122	0,030
-218,840	-200,000	0,023	0,098
-217,825	306,004	-0,037	-0,050
-216,811	-183,517	0,039	0,000
-215,796	800,000	-0,025	-0,059
-214,782	-89,791	-0,055	0,012
-213,767	-38,019	0,092	-0,035
-212,752	-158,276	0,153	0,006
-211,738	459,365	0,042	0,067
-210,723	480,041	0,041	0,067
-209,709	-200,000	0,041	0,138
-208,694	800,000	-0,032	0,080
-207,679	-94,958	-0,033	-0,006
-206,665	-14,527	-0,051	0,024
-205,650	-12,383	0,107	0,050
-204,636	284,645	0,024	0,032
-203,621	40,614	-0,055	-0,035
-202,606	115,718	0,067	0,059
-201,592	800,000	0,014	-0,033
-200,577	800,000	-0,037	-0,110
-199,563	139,212	-0,051	-0,048
-198,548	-5,769	0,035	-0,017
-197,533	-131,295	0,100	0,009
-196,519	459,472	0,078	0,126
-195,504	-200,000	0,024	-0,165
-194,490	144,946	-0,089	-0,086
-193,475	-49,917	-0,081	-0,027
-192,460	180,530	-0,078	-0,083
-191,446	114,430	-0,059	-0,052
-190,431	65,401	0,092	-0,067
-189,417	-200,000	0,017	-0,106
-188,402	-36,248	0,092	0,035
-187,387	-200,000	-0,023	-0,103
-186,373	-37,149	0,144	0,055
-185,358	-61,868	-0,069	-0,021
-184,344	-77,573	0,036	-0,009
-183,329	-170,422	0,121	-0,003
-182,315	98,546	0,085	-0,071
-181,300	148,410	-0,131	-0,128
-180,285	-15,160	0,086	-0,039
-179,271	-200,000	-0,002	0,043
-178,256	-200,000	-0,001	-0,058
-177,242	165,477	0,029	-0,029
-176,227	-113,637	0,163	0,023
-175,212	111,548	-0,102	-0,089
-174,198	-200,000	-0,003	0,068
-173,183	-200,000	-0,009	-0,096
-172,169	374,645	0,060	-0,088
-171,154	194,792	-0,048	0,052
-170,139	-200,000	-0,025	0,096
-169,125	-200,000	0,005	0,019
-168,110	-74,157	0,129	-0,033
-167,096	534,271	-0,076	-0,130
-166,081	-200,000	-0,035	-0,169
-165,066	69,151	-0,026	-0,019
-164,052	-200,000	0,016	-0,080
-163,037	327,355	-0,072	-0,100
-162,023	121,668	0,033	-0,029
-161,008	464,895	0,057	0,093
-159,993	655,781	-0,026	0,048
-158,979	528,089	-0,069	-0,118
-157,964	800,000	-0,096	-0,217
-156,950	-200,000	0,015	-0,089
-155,935	194,694	0,020	-0,022
-154,920	-200,000	0,001	-0,016
-153,906	108,818	0,077	-0,066
-152,891	375,225	0,075	-0,111
-151,877	191,301	0,056	-0,061
-150,862	-98,483	-0,108	0,020
-149,847	-114,242	-0,018	0,002
-148,833	-16,898	0,060	0,027
-147,818	800,000	0,015	0,033
-146,804	-200,000	-0,014	0,109
-145,789	129,720	0,096	-0,088
-144,775	367,465	-0,045	-0,066
-143,760	119,903	-0,075	-0,067
-142,745	800,000	-0,034	-0,080
-141,731	-200,000	0,004	0,146
-140,716	-24,610	0,089	-0,038
-139,702	204,343	0,058	-0,065
-138,687	-85,340	-0,054	-0,012
-137,672	-96,967	-0,046	0,009
-136,658	566,417	0,012	-0,022
-135,643	-200,000	0,003	-0,067
-134,629	800,000	-0,062	-0,149
-133,614	-150,087	0,217	-0,012
-132,599	800,000	-0,041	-0,084
-131,585	-200,000	0,007	-0,041
-130,570	18,426	-0,073	-0,042
-129,556	-200,000	0,009	0,113
-128,541	-200,000	-0,002	-0,026
-127,526	269,754	-0,052	-0,066
-126,512	-166,885	-0,092	-0,003
-125,497	-97,952	-0,067	0,012
-124,483	80,414	0,097	0,075
-123,468	412,946	-0,072	-0,111
-122,453	800,000	-0,023	0,054
-121,439	60,192	-0,017	-0,012
-120,424	-200,000	0,036	0,124
-119,410	-25,688	0,048	-0,020
-118,395	35,230	-0,141	0,088
-117,380	800,000	0,025	0,069
-116,366	51,209	0,017	0,012
-115,351	16,215	-0,140	-0,079
-114,337	220,401	-0,076	-0,087
-113,322	262,058	-0,087	-0,109
-112,307	-200,000	-0,031	-0,114
-111,293	514,732	-0,073	-0,124
-110,278	-64,458	0,015	0,004
-109,264	-200,000	0,034	-0,193
-108,249	-200,000	-0,008	0,043
-107,234	8,282	-0,092	-0,050
-106,220	24,123	-0,146	-0,086
-105,205	373,629	0,031	0,046
-104,191	304,160	0,060	0,081
-103,176	20,993	-0,055	-0,032
-102,162	-119,239	-0,093	-0,012
-101,147	-200,000	0,003	-0,016
-100,132	-200,000	0,002	0,016
-99,118	-185,303	-0,107	-0,001
-98,103	393,841	-0,006	0,009
-97,089	-200,000	0,001	0,057
-96,074	-200,000	0,032	0,127
-95,059	-200,000	0,011	0,067
-94,045	-200,000	-0,022	-0,158
-93,030	222,312	-0,057	-0,066
-92,016	344,654	0,027	0,039
-91,001	-200,000	-0,017	-0,101
-89,986	260,996	-0,032	0,039
-88,972	-52,752	0,083	-0,027
-87,957	-137,577	0,114	0,009
-86,943	94,752	-0,058	0,048
-85,928	49,535	-0,021	0,014
-84,913	800,000	-0,034	0,089
-83,899	-200,000	0,019	-0,130
-82,884	123,118	0,117	-0,105
-81,870	269,123	-0,047	-0,060
-80,855	2,376	-0,027	0,014
-79,840	702,661	-0,031	0,059
-78,826	16,131	-0,131	-0,074
-77,811	-200,000	-0,014	-0,051
-76,797	-200,000	-0,004	-0,069
-75,782	-200,000	0,004	0,038
-74,767	800,000	0,030	0,086
-73,753	343,011	0,023	-0,032
-72,738	-200,000	-0,002	0,163
-71,724	800,000	0,075	-0,205
-70,709	-16,877	-0,078	-0,035
-69,694	-126,688	-0,116	-0,012
-68,680	176,295	-0,017	-0,018
-67,665	-29,360	-0,089	0,037
-66,651	-35,634	0,104	-0,040
-65,636	-200,000	0,008	0,140
-64,622	-55,923	-0,173	-0,055
-63,607	-21,808	-0,099	-0,043
-62,592	-126,058	-0,022	0,002
-61,578	-104,267	0,103	0,017
-60,563	263,620	0,045	0,056
-59,549	-200,000	0,020	0,151
-58,534	103,365	-2,815	-2,368
-57,519	-151,846	0,549	-0,028
-56,505	-200,000	-1,746	-5,611
-55,490	502,452	1,265	2,104
-54,476	800,000	5,243	11,294
-53,461	-200,000	22,831	347,752
-52,446	800,000	765,334	2263,771
-51,432	496,999	1643,636	2721,782
-50,417	93,207	1599,857	1296,730
-49,403	61,016	1254,796	891,904
-48,388	21,103	1007,445	584,720
-47,373	18,434	974,774	557,019
-46,359	11,831	961,705	528,158
-45,344	7,759	958,603	513,233
-44,330	8,034	956,243	512,841
-43,315	7,170	954,529	509,108
-42,300	7,163	953,504	508,518
-41,286	7,063	952,647	507,719
-40,271	7,155	951,420	507,341
-39,257	7,109	950,738	506,809
-38,242	7,123	949,873	506,374
-37,227	7,129	948,829	505,815
-36,213	7,067	948,157	505,237
-35,198	7,085	947,308	504,823
-34,184	7,134	946,467	504,512
-33,169	7,079	945,729	503,921
-32,154	7,135	944,834	503,603
-31,140	7,116	943,964	503,060
-30,125	7,106	943,380	502,696
-29,111	7,086	942,567	502,180
-28,096	7,114	942,021	501,959
-27,082	7,153	941,198	501,625
-26,067	7,048	940,596	500,951
-25,052	7,045	939,851	500,522
-24,038	7,051	938,910	500,020
-23,023	7,089	938,236	499,763
-22,009	7,126	937,707	499,579
-20,994	7,143	937,028	499,251
-19,979	7,075	936,510	498,739
-18,965	7,143	935,584	498,441
-17,950	7,076	935,242	498,027
-16,936	7,052	934,660	497,622
-15,921	7,046	933,983	497,225
-14,906	6,955	933,265	496,534
-13,892	6,969	932,753	496,285
-12,877	6,973	932,115	495,939
-11,863	7,008	931,416	495,659
-10,848	6,926	931,022	495,170
-9,833	6,987	930,469	495,048
-8,819	6,960	929,804	494,591
-7,804	6,965	928,997	494,158
-6,790	6,979	928,528	493,933
-5,775	7,103	927,964	494,002
-4,760	7,024	927,370	493,419
-3,746	7,076	926,691	493,201
-2,731	6,857	926,030	492,145
-1,717	6,840	925,442	491,758
-0,702	6,812	924,781	491,298
0,313	6,688	924,084	491,283
1,327	10,129	921,610	500,657
2,342	18,746	770,510	440,883
3,356	13,692	442,477	245,648
4,371	-12,220	309,694	144,630
5,386	-15,961	292,589	132,880
6,400	-18,106	286,373	127,940
7,415	-18,372	283,902	126,566
8,429	-19,100	281,961	124,985
9,444	-19,215	281,245	124,546
10,459	-18,952	280,378	124,404
11,473	-19,137	279,903	124,004
12,488	-19,147	279,506	123,808
13,502	-18,946	278,783	123,668
14,517	-19,016	278,605	123,511
15,531	-18,829	278,070	123,441
16,546	-18,837	277,634	123,230
17,561	-18,925	277,247	122,964
18,575	-18,690	276,798	122,976
19,590	-18,872	276,620	122,714
20,604	-18,692	276,443	122,795
21,619	-18,993	275,998	122,302
22,634	-18,797	275,553	122,278
23,648	-18,705	275,158	122,179
24,663	-18,850	275,079	121,996
25,677	-18,843	274,804	121,870
26,692	-18,847	274,547	121,741
27,707	-18,712	274,103	121,660
28,721	-18,768	273,965	121,536
29,736	-18,819	273,740	121,378
30,750	-18,755	273,435	121,291
31,765	-18,694	273,298	121,276
32,780	-18,750	272,978	121,072
33,794	-18,945	272,768	120,786
34,809	-18,784	272,538	120,823
35,823	-18,902	272,190	120,549
36,838	-18,728	271,842	120,545
37,853	-18,880	271,678	120,320
38,867	-18,898	271,426	120,181
39,882	-18,821	271,207	120,146
40,896	-18,668	270,999	120,184
41,911	-18,732	270,735	119,997
42,926	-18,621	270,516	119,992
43,940	-18,808	270,199	119,668
44,955	-18,697	269,958	119,653
45,969	-18,758	269,800	119,516
46,984	-18,756	269,704	119,464
47,999	-18,615	269,412	119,454
49,013	-18,599	269,286	119,402
50,028	-18,635	268,890	119,183
51,042	-18,505	268,689	119,203
52,057	-18,645	268,638	119,041
53,071	-18,532	268,267	118,970
54,086	-18,667	268,046	118,738
55,101	-18,585	267,994	118,779
56,115	-18,661	267,536	118,496
57,130	-18,616	267,407	118,469
58,144	-19,054	267,182	117,960
59,159	-18,839	266,879	118,011
60,174	-18,799	266,661	117,940
61,188	-18,670	266,329	117,901
62,203	-18,641	266,117	117,822
63,217	-18,691	265,865	117,655
64,232	-18,852	265,762	117,453
65,247	-18,738	265,305	117,343
66,261	-18,889	265,193	117,147
67,276	-18,744	264,972	117,170
68,290	-18,654	264,846	117,185
69,305	-18,659	264,623	117,072
70,320	-18,481	264,449	117,145
71,334	-18,634	264,073	116,830
72,349	-18,803	263,967	116,621
73,363	-18,574	263,497	116,609
74,378	-18,892	263,502	116,314
75,393	-18,807	263,210	116,252
76,407	-18,635	262,867	116,243
77,422	-18,547	262,698	116,237
78,436	-18,688	262,478	116,004
79,451	-18,743	262,233	115,836
80,466	-18,790	261,920	115,645
81,480	-18,583	261,723	115,733
82,495	-18,565	261,608	115,688
83,509	-18,591	261,403	115,563
84,524	-18,651	261,308	115,457
85,539	-18,680	260,865	115,226
86,553	-18,673	260,929	115,250
87,568	-18,698	260,633	115,086
88,582	-18,441	260,245	115,132
89,597	-18,620	260,124	114,910
90,611	-18,805	260,026	114,693
91,626	-18,838	259,834	114,569
92,641	-18,595	259,597	114,669
93,655	-18,562	259,276	114,546
94,670	-18,630	259,103	114,399
95,684	-18,611	258,954	114,341
96,699	-18,524	258,543	114,225
97,714	-18,864	258,634	113,956
98,728	-18,481	258,288	114,130
99,743	-18,507	258,125	114,025
100,757	-18,562	257,833	113,837
101,772	-18,698	257,639	113,623
102,787	-18,723	257,513	113,535
103,801	-18,776	257,356	113,409
104,816	-18,654	257,127	113,405
105,830	-18,541	256,973	113,426
106,845	-18,693	256,633	113,133
107,860	-18,595	256,543	113,169
108,874	-18,783	256,311	112,893
109,889	-18,669	256,072	112,876
110,903	-18,511	255,775	112,873
111,918	-18,506	255,715	112,841
112,933	-18,669	255,570	112,625
113,947	-18,469	255,351	112,691
114,962	-18,712	255,141	112,379
115,976	-18,546	254,787	112,356
116,991	-18,587	254,583	112,221
118,006	-18,638	254,478	112,120
119,020	-18,731	254,357	111,977
120,035	-18,631	254,202	111,985
121,049	-18,584	254,052	111,949
122,064	-18,629	253,771	111,776
123,079	-18,816	253,622	111,540
124,093	-18,648	253,513	111,626
125,108	-18,606	253,051	111,449
126,122	-18,521	253,051	111,512
127,137	-18,509	252,889	111,441
128,151	-18,388	252,542	111,382
129,166	-18,592	252,444	111,154
130,181	-18,756	252,341	110,959
131,195	-18,486	251,898	110,984
132,210	-18,521	251,641	110,832
133,224	-18,689	251,493	110,613
134,239	-18,577	251,276	110,604
135,254	-18,784	251,247	110,405
136,268	-18,509	251,026	110,532
137,283	-18,569	250,850	110,393
138,297	-18,477	250,589	110,346
139,312	-18,433	250,335	110,262
140,327	-18,564	250,080	110,029
141,341	-18,500	249,766	109,936
142,356	-18,396	249,770	110,015
143,370	-18,824	249,680	109,603
144,385	-18,657	249,467	109,642
145,400	-18,659	249,164	109,497
146,414	-18,626	249,037	109,459
147,429	-18,619	248,811	109,356
148,443	-18,585	248,738	109,343
149,458	-18,519	248,464	109,269
150,473	-18,512	248,419	109,244
151,487	-18,572	248,047	109,021
152,502	-18,705	248,025	108,889
153,516	-18,678	247,682	108,752
154,531	-18,494	247,446	108,793
155,546	-18,631	247,282	108,597
156,560	-18,660	247,147	108,503
157,575	-18,524	246,973	108,531
158,589	-18,605	246,724	108,344
159,604	-18,329	246,320	108,387
160,619	-18,568	246,282	108,161
161,633	-18,474	246,184	108,187
162,648	-18,493	246,164	108,153
163,662	-18,805	246,081	107,847
164,677	-18,473	245,790	107,986
165,692	-18,391	245,520	107,925
166,706	-18,392	245,340	107,836
167,721	-18,678	245,247	107,549
168,735	-18,558	245,102	107,575
169,750	-18,505	244,968	107,550
170,764	-18,779	244,731	107,210
171,779	-18,391	244,573	107,451
172,794	-18,471	244,487	107,339
173,808	-18,761	244,260	106,989
174,823	-18,525	244,219	107,157
175,837	-18,468	243,953	107,078
176,852	-18,383	243,723	107,037
177,867	-18,654	243,568	106,737
178,881	-18,575	243,534	106,777
179,896	-18,561	243,213	106,639
180,910	-18,366	242,914	106,658
181,925	-18,677	242,794	106,341
182,940	-18,531	242,665	106,394
183,954	-18,549	242,514	106,304
184,969	-18,526	242,427	106,275
185,983	-18,600	242,136	106,078
186,998	-18,513	241,944	106,055
188,013	-18,428	241,708	106,011
189,027	-18,480	241,677	105,946
190,042	-18,700	241,511	105,685
191,056	-18,586	241,235	105,647
192,071	-18,657	241,116	105,527
193,086	-18,675	240,923	105,419
194,100	-18,517	240,665	105,426
195,115	-18,567	240,413	105,265
196,129	-18,495	240,233	105,235
197,144	-18,580	240,130	105,111
198,159	-18,524	239,802	105,004
199,173	-18,668	239,666	104,818
200,188	-18,641	239,673	104,834
201,202	-18,445	239,418	104,872
202,217	-18,524	239,309	104,750
203,232	-18,330	239,184	104,843
204,246	-18,521	238,858	104,537
205,261	-18,705	238,791	104,350
206,275	-17,064	239,161	105,825
207,290	-12,449	240,977	110,363
208,304	-5,760	242,974	116,726
209,319	-2,216	243,943	120,078
210,334	-0,858	243,982	121,195
211,348	-0,113	244,127	121,865
212,363	0,138	244,227	122,108
213,377	0,339	244,128	122,212
214,392	0,401	244,089	122,232
215,407	0,769	243,958	122,455
216,421	1,104	243,866	122,671
217,436	0,891	243,733	122,420
218,450	0,981	243,534	122,382
219,465	1,146	243,475	122,476
220,480	1,124	243,333	122,375
221,494	1,001	243,078	122,136
222,509	0,819	242,718	121,798
223,523	0,603	242,550	121,528
224,538	0,654	242,337	121,451
225,553	0,423	242,226	121,198
226,567	0,528	242,157	121,237
227,582	0,364	242,042	121,037
228,596	0,590	241,758	121,066
229,611	0,586	241,641	120,993
230,626	0,291	241,632	120,741
231,640	0,574	241,314	120,798
232,655	0,672	241,048	120,733
233,669	0,273	241,020	120,388
234,684	0,492	240,790	120,438
235,699	0,536	240,655	120,395
236,713	0,480	240,573	120,299
237,728	0,396	240,363	120,116
238,742	0,588	240,160	120,157
239,757	0,450	240,042	119,976
240,772	0,351	239,893	119,812
241,786	0,448	239,788	119,827
242,801	0,512	239,511	119,729
243,815	0,324	239,357	119,491
244,830	0,550	239,091	119,528
245,844	0,491	239,058	119,454
246,859	0,548	238,782	119,350
247,874	0,545	238,770	119,332
248,888	0,232	238,582	118,978
249,903	0,599	238,414	119,175
250,917	0,442	238,298	118,982
251,932	0,403	238,287	118,935
252,947	0,267	238,015	118,680
253,961	0,707	237,864	118,943
254,976	0,459	237,649	118,629
255,990	0,384	237,628	118,549
257,005	0,523	237,464	118,566
258,020	0,568	237,139	118,429
259,034	0,484	237,046	118,306
260,049	0,656	236,794	118,305
261,063	0,489	236,610	118,071
262,078	0,424	236,683	118,046
263,093	0,614	236,373	118,029
264,107	0,392	236,289	117,803
265,122	0,486	236,136	117,790
266,136	0,587	236,020	117,801
267,151	0,580	235,802	117,676
268,166	0,539	235,707	117,586
269,180	0,398	235,450	117,337
270,195	0,479	235,368	117,349
271,209	0,639	235,125	117,342
272,224	0,568	235,112	117,270
273,239	0,546	234,895	117,134
274,253	0,282	234,723	116,832
275,268	0,498	234,719	116,988
276,282	0,619	234,455	116,940
277,297	0,446	234,267	116,701
278,312	0,488	234,141	116,661
279,326	0,633	233,992	116,689
280,341	0,579	233,889	116,585
281,355	0,421	233,812	116,413
282,370	0,620	233,603	116,454
283,384	0,615	233,386	116,331
284,399	0,374	233,210	116,046
285,414	0,616	233,090	116,164
286,428	0,456	233,015	115,992
287,443	0,637	232,844	116,037
288,457	0,570	232,744	115,925
289,472	0,642	232,419	115,808
290,487	0,556	232,343	115,694
291,501	0,444	232,349	115,600
292,516	0,713	232,035	115,640
293,530	0,431	232,066	115,429
294,545	0,634	231,892	115,488
295,560	0,580	231,792	115,386
296,574	0,589	231,563	115,269
297,589	0,638	231,502	115,266
298,603	0,612	231,099	115,035
299,618	0,802	231,007	115,124
300,633	0,520	231,114	114,952
301,647	1,058	230,662	115,128
302,662	0,836	230,610	114,921
303,676	0,554	230,561	114,672
304,691	0,567	230,385	114,584
305,706	0,731	230,115	114,564
306,720	0,809	229,941	114,527
307,735	0,946	229,925	114,613
308,749	0,812	229,834	114,455
309,764	0,957	229,576	114,427
310,779	0,675	229,529	114,179
311,793	0,782	229,232	114,102
312,808	0,718	229,165	114,010
313,822	0,690	228,994	113,894
314,837	0,861	228,828	113,931
315,852	0,884	228,699	113,873
316,866	0,759	228,586	113,713
317,881	1,056	228,435	113,851
318,895	0,971	228,147	113,634
319,910	0,767	228,232	113,512
320,925	0,933	227,903	113,463
321,939	0,930	227,827	113,413
322,954	0,738	227,703	113,197
323,968	0,733	227,677	113,170
324,983	0,845	227,385	113,099
325,997	0,581	227,374	112,885
327,012	0,909	227,164	113,017
328,027	1,093	227,004	113,065
329,041	0,782	226,776	112,708
330,056	0,770	226,710	112,657
331,070	1,044	226,472	112,734
332,085	0,877	226,297	112,511
333,100	0,888	226,291	112,507
334,114	0,778	225,959	112,249
335,129	0,643	225,952	112,135
336,143	0,818	225,909	112,235
337,158	0,791	225,647	112,075
338,173	1,000	225,580	112,186
339,187	0,994	225,481	112,123
340,202	1,013	225,324	112,049
341,216	1,142	225,109	112,028
342,231	0,889	224,981	111,766
343,246	0,985	224,875	111,775
344,260	0,942	224,627	111,609
345,275	0,848	224,512	111,473
346,289	1,084	224,362	111,563
347,304	0,775	224,462	111,374
348,319	0,904	224,052	111,256
349,333	1,280	223,934	111,465
350,348	0,867	223,853	111,111
351,362	1,084	223,636	111,152
352,377	0,924	223,578	110,996
353,392	0,779	223,627	110,903
354,406	0,912	223,264	110,811
355,421	191,872	1311,383	1374,986
356,435	153,618	1443,787	1374,814
