DTS Sentinel unit serial number:	SN410029Multiplexer serial number:	ORYXHardware model number:	OX2-SRSoftware version number:	ORYX F/W v4,00 Oryx Data Collector v3.7.2.0data status	okinstallation	B5 Nyhavnadifferential loss correction	single-endedforward channel	channel 2reverse channel	N/Adate	2023/12/14time	09:22:13forward acquisition time	300,00reverse acquisition time	0,00gamma	499,1914k internal	0,3161k external	0,3161temperature offset calibration	1,0000default loss term (dB/km)	0,3820temperature slope calibration	1,0000multiplexer offset coefficient	1,0000multiplexer slope coefficient	1,0000fibre end	0,00T internal ref (°C)	6,95T ext. ref 1 (°C)	-9,23T ext. ref 2 (°C)	-9,30length (m)	temperature (°C)	Stokes	anti-Stokes-744,400	77,523	0,069	0,054
-743,385	-162,834	-0,313	-0,011
-742,371	-50,340	0,196	0,068
-741,356	51,757	-0,268	-0,188
-740,342	565,658	0,110	0,198
-739,327	-99,700	-0,510	-0,093
-738,312	800,000	0,077	0,241
-737,298	10,508	-0,220	-0,123
-736,283	-200,000	0,027	0,117
-735,269	-115,255	-0,342	-0,047
-734,254	-48,369	0,276	0,097
-733,239	-1,908	-0,656	-0,338
-732,225	367,644	0,139	0,207
-731,210	506,569	-0,062	0,107
-730,196	575,343	0,040	-0,072
-729,181	800,000	0,015	-0,044
-728,167	42,544	-0,088	0,059
-727,152	365,401	-0,023	-0,034
-726,137	-200,000	-0,024	-0,166
-725,123	60,051	-0,140	-0,102
-724,108	92,488	-0,061	-0,051
-723,094	45,508	-0,091	-0,062
-722,079	-200,000	0,011	-0,088
-721,064	-176,538	0,042	-0,001
-720,050	-27,438	0,007	-0,003
-719,035	-67,363	0,068	-0,019
-718,021	-115,436	-0,200	0,027
-717,006	-200,000	-0,010	0,039
-715,991	349,512	-0,104	-0,152
-714,977	-77,548	0,142	-0,036
-713,962	-200,000	-0,015	-0,181
-712,948	800,000	0,034	-0,096
-711,933	-83,884	0,065	-0,015
-710,918	-200,000	-0,026	-0,125
-709,904	-200,000	-0,013	0,049
-708,889	598,066	-0,065	0,118
-707,875	196,040	-0,084	0,094
-706,860	800,000	0,019	0,048
-705,845	-200,000	0,016	-0,082
-704,831	36,380	0,066	0,043
-703,816	26,924	0,099	0,061
-702,802	345,126	-0,034	-0,049
-701,787	427,682	0,021	-0,034
-700,772	-200,000	0,010	-0,086
-699,758	22,823	-0,048	-0,029
-698,743	-200,000	0,005	0,100
-697,729	138,715	0,068	0,066
-696,714	800,000	-0,045	0,100
-695,699	92,712	-0,123	-0,102
-694,685	-25,896	-0,076	-0,033
-693,670	-37,630	-0,117	-0,046
-692,656	-200,000	-0,019	0,084
-691,641	70,965	0,095	0,073
-690,627	-3,473	-0,005	0,002
-689,612	552,618	0,091	-0,162
-688,597	-200,000	0,001	0,090
-687,583	-39,083	-0,080	-0,031
-686,568	227,136	0,059	-0,070
-685,554	180,744	-0,049	-0,053
-684,539	-95,598	0,117	0,023
-683,524	-91,391	-0,063	-0,013
-682,510	-153,636	-0,057	-0,003
-681,495	-200,000	-0,044	0,150
-680,481	-41,213	0,118	-0,045
-679,466	-200,000	-0,009	-0,070
-678,451	-28,376	-0,070	0,030
-677,437	42,079	-0,125	0,083
-676,422	653,851	-0,039	0,074
-675,408	-200,000	-0,033	-0,121
-674,393	621,647	0,090	-0,168
-673,378	-200,000	-0,018	-0,097
-672,364	402,520	-0,032	-0,050
-671,349	342,394	-0,102	-0,148
-670,335	359,673	0,064	0,095
-669,320	800,000	-0,062	0,157
-668,305	139,158	-0,090	0,087
-667,291	17,053	-0,130	0,076
-666,276	-113,200	0,081	0,012
-665,262	-126,036	-0,192	-0,021
-664,247	-200,000	-0,016	-0,093
-663,232	-200,000	0,019	-0,111
-662,218	-112,593	-0,126	0,018
-661,203	-59,945	0,033	-0,010
-660,189	264,919	-0,068	0,087
-659,174	-200,000	0,008	-0,045
-658,159	-44,398	-0,106	-0,039
-657,145	34,937	-0,125	-0,080
-656,130	23,936	0,147	-0,089
-655,116	-75,048	0,117	-0,030
-654,101	-200,000	0,006	0,077
-653,086	36,376	-0,071	-0,046
-652,072	94,810	-0,134	0,112
-651,057	39,465	-0,143	0,094
-650,043	-200,000	0,004	0,030
-649,028	-200,000	0,018	-0,102
-648,014	78,608	0,058	0,045
-646,999	-200,000	-0,015	0,067
-645,984	-20,037	-0,058	-0,026
-644,970	519,331	0,042	-0,073
-643,955	800,000	-0,052	-0,110
-642,941	-97,084	-0,058	0,011
-641,926	800,000	0,008	0,017
-640,911	-200,000	0,001	-0,031
-639,897	154,228	-0,078	-0,079
-638,882	800,000	-0,027	0,071
-637,868	800,000	-0,043	0,132
-636,853	288,330	-0,044	0,059
-635,838	204,231	-0,027	0,030
-634,824	276,646	0,034	0,045
-633,809	-200,000	0,015	0,069
-632,795	-200,000	0,032	0,117
-631,780	-200,000	-0,025	0,098
-630,765	-200,000	0,002	-0,083
-629,751	800,000	0,042	-0,098
-628,736	94,286	-0,096	-0,080
-627,722	109,712	-0,013	-0,012
-626,707	-63,191	0,084	-0,025
-625,692	-102,757	0,064	0,011
-624,678	32,058	-0,033	-0,021
-623,663	444,172	-0,024	-0,039
-622,649	-200,000	-0,000	-0,028
-621,634	158,084	0,070	-0,071
-620,619	8,458	0,051	-0,028
-619,605	-200,000	-0,005	-0,035
-618,590	-5,292	0,137	0,069
-617,576	-200,000	-0,018	0,142
-616,561	-200,000	-0,006	-0,030
-615,546	-68,064	-0,091	0,026
-614,532	209,137	-0,050	0,057
-613,517	76,666	0,052	0,040
-612,503	424,633	-0,036	-0,057
-611,488	258,270	0,007	0,009
-610,474	-200,000	0,005	0,055
-609,459	11,064	-0,092	0,051
-608,444	-35,357	0,052	0,021
-607,430	800,000	0,021	-0,064
-606,415	-108,982	-0,040	0,006
-605,401	-200,000	-0,026	-0,133
-604,386	62,405	0,056	-0,041
-603,371	209,135	0,062	0,071
-602,357	179,325	-0,043	-0,047
-601,342	210,767	-0,084	-0,096
-600,328	-177,685	-0,060	-0,001
-599,313	-200,000	0,001	0,022
-598,298	77,732	-0,061	-0,048
-597,284	-37,372	0,049	-0,019
-596,269	31,492	0,130	-0,082
-595,255	-71,716	-0,095	0,026
-594,240	-106,142	-0,142	0,023
-593,225	-200,000	0,001	0,036
-592,211	720,762	-0,039	-0,077
-591,196	800,000	0,036	-0,097
-590,182	800,000	0,027	0,076
-589,167	457,559	-0,029	0,048
-588,152	-121,227	0,115	0,014
-587,138	-200,000	-0,019	-0,062
-586,123	-200,000	0,000	-0,059
-585,109	237,234	-0,055	-0,067
-584,094	84,909	0,090	0,072
-583,079	-60,283	0,140	-0,043
-582,065	-200,000	0,033	0,113
-581,050	580,451	-0,055	-0,098
-580,036	29,750	0,034	-0,021
-579,021	139,120	-0,035	0,034
-578,006	180,213	0,030	-0,032
-576,992	-97,799	0,160	-0,030
-575,977	133,061	0,054	0,051
-574,963	36,633	-0,108	0,069
-573,948	-200,000	0,002	-0,052
-572,934	482,742	-0,017	0,029
-571,919	54,508	0,063	-0,044
-570,904	-96,028	0,075	0,014
-569,890	-200,000	0,002	-0,049
-568,875	39,770	-0,010	0,007
-567,861	-120,980	-0,151	-0,018
-566,846	32,913	-0,046	0,029
-565,831	92,903	0,093	0,077
-564,817	67,120	0,117	-0,087
-563,802	122,292	-0,096	-0,088
-562,788	-200,000	0,010	0,032
-561,773	-14,409	-0,103	-0,048
-560,758	-53,654	0,047	0,016
-559,744	-186,921	0,103	0,001
-558,729	54,417	-0,029	-0,020
-557,715	12,598	-0,149	0,084
-556,700	451,311	0,046	-0,075
-555,685	800,000	-0,041	-0,108
-554,671	298,403	-0,044	-0,060
-553,656	-200,000	-0,013	-0,053
-552,642	505,735	0,038	0,065
-551,627	-36,135	-0,037	0,015
-550,612	282,675	-0,093	0,122
-549,598	-59,540	0,045	-0,014
-548,583	565,964	-0,023	-0,042
-547,569	79,496	0,054	0,042
-546,554	175,765	-0,033	0,035
-545,539	64,532	0,112	0,083
-544,525	-200,000	-0,025	-0,134
-543,510	-137,998	0,022	-0,002
-542,496	98,096	0,076	-0,064
-541,481	-113,976	-0,037	0,005
-540,466	12,450	-0,146	-0,082
-539,452	-143,976	-0,077	0,005
-538,437	201,377	0,102	0,115
-537,423	800,000	0,014	0,038
-536,408	-144,028	-0,139	0,009
-535,393	257,063	-0,130	-0,163
-534,379	122,023	-0,049	-0,045
-533,364	618,244	0,053	0,097
-532,350	445,025	0,061	-0,098
-531,335	61,418	-0,063	-0,046
-530,321	31,292	-0,042	0,026
-529,306	642,670	0,036	0,067
-528,291	-23,226	0,008	0,004
-527,277	101,781	0,018	-0,016
-526,262	254,685	0,044	0,055
-525,248	163,431	0,072	0,074
-524,233	460,914	0,058	0,095
-523,218	-200,000	0,013	0,062
-522,204	-200,000	0,011	0,108
-521,189	-2,820	0,037	0,019
-520,175	-1,309	0,111	0,057
-519,160	-65,717	0,064	0,019
-518,145	-164,433	-0,103	-0,003
-517,131	153,447	-0,073	0,073
-516,116	123,829	0,102	-0,094
-515,102	-83,719	-0,030	-0,007
-514,087	-156,245	-0,098	0,004
-513,072	-200,000	0,016	-0,053
-512,058	689,330	0,033	-0,064
-511,043	800,000	-0,013	-0,028
-510,029	-200,000	0,009	0,055
-509,014	-200,000	0,005	0,049
-507,999	92,367	-0,067	0,055
-506,985	800,000	0,012	-0,024
-505,970	-200,000	0,006	0,051
-504,956	800,000	-0,043	-0,121
-503,941	200,273	0,090	0,101
-502,926	301,260	0,041	0,055
-501,912	800,000	-0,019	0,046
-500,897	606,966	-0,058	-0,106
-499,883	127,487	-0,054	-0,050
-498,868	800,000	0,022	-0,068
-497,853	-63,196	-0,121	-0,036
-496,839	-200,000	-0,007	0,125
-495,824	800,000	-0,026	0,055
-494,810	-200,000	0,010	0,112
-493,795	-0,825	-0,147	0,076
-492,781	800,000	0,036	-0,076
-491,766	-59,007	0,067	-0,021
-490,751	-200,000	-0,034	-0,127
-489,737	102,884	0,066	-0,057
-488,722	-200,000	-0,005	0,175
-487,708	-200,000	-0,010	-0,036
-486,693	-71,903	-0,085	-0,023
-485,678	-144,174	0,061	0,004
-484,664	-125,716	-0,104	0,011
-483,649	152,558	-0,024	-0,024
-482,635	-200,000	-0,032	0,103
-481,620	-88,448	0,087	-0,019
-480,605	-200,000	-0,039	0,178
-479,591	-200,000	0,001	0,037
-478,576	-200,000	-0,006	0,028
-477,562	800,000	-0,019	-0,048
-476,547	-93,677	-0,041	-0,008
-475,532	206,376	-0,076	-0,087
-474,518	-200,000	-0,005	0,099
-473,503	-25,402	0,056	0,024
-472,489	23,496	-0,095	-0,057
-471,474	-78,480	0,112	0,028
-470,459	800,000	-0,035	-0,075
-469,445	350,708	0,053	0,077
-468,430	84,146	-0,054	-0,043
-467,416	-145,035	0,094	0,006
-466,401	-200,000	0,005	0,092
-465,386	800,000	0,057	0,122
-464,372	-1,064	-0,145	0,075
-463,357	47,578	0,093	-0,063
-462,343	-200,000	0,006	0,052
-461,328	-40,756	0,026	-0,010
-460,313	-110,108	0,027	-0,004
-459,299	800,000	-0,061	0,197
-458,284	800,000	-0,023	0,053
-457,270	-34,003	0,125	0,050
-456,255	-6,833	0,074	0,037
-455,241	800,000	-0,036	-0,113
-454,226	619,509	0,067	-0,123
-453,211	-200,000	-0,019	0,065
-452,197	-61,408	0,119	0,036
-451,182	3,525	0,068	0,036
-450,168	-200,000	-0,025	0,089
-449,153	-90,974	-0,010	0,002
-448,138	523,947	0,033	0,057
-447,124	76,824	-0,109	0,084
-446,109	-200,000	-0,032	0,133
-445,095	-29,493	-0,073	0,030
-444,080	-200,000	-0,017	-0,103
-443,065	83,914	0,074	0,059
-442,051	42,059	0,050	-0,033
-441,036	-200,000	0,013	-0,097
-440,022	-200,000	-0,001	-0,028
-439,007	487,835	-0,071	-0,119
-437,992	-200,000	0,001	0,039
-436,978	-151,646	0,080	-0,004
-435,963	-86,671	0,021	-0,005
-434,949	380,800	0,059	0,088
-433,934	-62,782	0,129	-0,039
-432,919	190,817	0,043	-0,047
-431,905	-66,315	0,115	-0,033
-430,890	633,123	0,010	-0,019
-429,876	148,080	-0,046	-0,045
-428,861	-115,798	-0,030	-0,004
-427,846	205,680	0,064	-0,073
-426,832	-200,000	-0,034	-0,121
-425,817	112,095	-0,071	-0,062
-424,803	-200,000	0,007	-0,030
-423,788	-200,000	0,010	-0,178
-422,773	344,252	-0,015	0,021
-421,759	-200,000	-0,003	-0,032
-420,744	-200,000	-0,002	0,121
-419,730	645,917	-0,022	0,042
-418,715	800,000	-0,032	-0,082
-417,701	219,291	-0,034	-0,039
-416,686	-41,977	0,073	-0,027
-415,671	172,156	0,108	0,113
-414,657	-118,988	-0,042	0,005
-413,642	-21,656	0,127	0,056
-412,628	800,000	0,024	-0,069
-411,613	187,509	-0,093	-0,101
-410,598	-15,694	-0,064	0,029
-409,584	-16,767	0,108	0,050
-408,569	154,396	-0,081	0,081
-407,555	-200,000	0,001	0,019
-406,540	133,852	-0,068	0,064
-405,525	-178,748	-0,169	0,003
-404,511	234,728	-0,029	-0,034
-403,496	616,467	-0,054	0,098
-402,482	800,000	-0,023	0,057
-401,467	56,854	0,132	-0,094
-400,452	-97,982	0,070	-0,013
-399,438	28,887	0,127	0,078
-398,423	-200,000	-0,024	-0,087
-397,409	645,144	-0,044	-0,082
-396,394	485,341	0,068	-0,112
-395,379	182,903	0,084	0,091
-394,365	52,396	0,090	-0,062
-393,350	223,911	0,043	-0,051
-392,336	-200,000	-0,012	0,108
-391,321	-167,247	-0,174	0,005
-390,306	-200,000	-0,037	0,158
-389,292	690,610	0,018	-0,035
-388,277	178,762	0,014	-0,015
-387,263	348,166	-0,084	0,120
-386,248	180,713	0,032	0,034
-385,233	800,000	0,042	0,129
-384,219	9,216	-0,073	0,040
-383,204	-152,306	-0,081	-0,004
-382,190	289,163	-0,029	0,038
-381,175	-44,770	0,155	0,056
-380,160	-200,000	0,008	-0,034
-379,146	-83,369	-0,148	-0,034
-378,131	-54,449	-0,059	0,019
-377,117	-133,105	0,094	0,009
-376,102	792,068	-0,036	0,071
-375,088	-200,000	0,001	0,034
-374,073	-200,000	0,002	-0,064
-373,058	-119,970	0,119	-0,015
-372,044	-8,817	-0,074	-0,036
-371,029	514,415	0,036	0,062
-370,015	-66,111	0,091	-0,026
-369,000	-119,768	0,083	-0,010
-367,985	-200,000	-0,007	-0,060
-366,971	800,000	0,060	-0,155
-365,956	11,245	0,035	0,019
-364,942	26,228	-0,015	0,009
-363,927	800,000	-0,045	-0,109
-362,912	-153,255	-0,168	0,008
-361,898	-148,739	0,123	-0,007
-360,883	-100,235	-0,106	-0,019
-359,869	128,845	-0,120	-0,111
-358,854	-185,797	-0,098	-0,001
-357,839	30,802	0,125	0,077
-356,825	-123,811	0,181	-0,020
-355,810	-175,694	-0,125	-0,002
-354,796	15,456	0,006	0,004
-353,781	-153,429	0,016	-0,001
-352,766	207,038	0,118	-0,134
-351,752	-17,629	-0,072	-0,033
-350,737	800,000	-0,036	0,077
-349,723	800,000	0,012	-0,027
-348,708	-200,000	-0,034	-0,122
-347,693	-132,201	0,135	-0,013
-346,679	217,502	-0,044	0,051
-345,664	429,455	-0,040	0,064
-344,650	-126,040	0,024	0,003
-343,635	-200,000	0,001	-0,007
-342,620	104,885	0,106	0,091
-341,606	129,772	0,082	0,076
-340,591	-160,946	-0,166	-0,006
-339,577	-200,000	-0,013	-0,061
-338,562	-200,000	-0,026	0,141
-337,548	553,221	0,073	0,127
-336,533	-200,000	-0,024	-0,091
-335,518	-121,758	0,090	-0,011
-334,504	133,221	-0,048	0,045
-333,489	408,445	-0,081	0,125
-332,475	403,784	0,024	0,036
-331,460	314,086	-0,112	-0,153
-330,445	-89,564	-0,120	-0,025
-329,431	-28,061	0,058	0,024
-328,416	157,435	0,075	0,076
-327,402	-26,367	0,053	0,022
-326,387	356,202	0,053	-0,076
-325,372	552,642	-0,037	0,064
-324,358	-200,000	-0,019	-0,122
-323,343	365,701	0,046	0,068
-322,329	355,518	0,042	0,060
-321,314	293,285	0,118	0,156
-320,299	-93,009	-0,082	-0,016
-319,285	47,015	0,145	-0,097
-318,270	-200,000	-0,013	-0,069
-317,256	-200,000	0,008	-0,305
-316,241	-101,309	0,008	0,001
-315,226	800,000	0,056	0,115
-314,212	-15,428	-0,103	0,047
-313,197	103,355	0,011	0,009
-312,183	-200,000	-0,009	-0,105
-311,168	70,365	-0,049	0,036
-310,153	154,963	-0,024	0,024
-309,139	93,934	-0,029	0,024
-308,124	-165,755	0,033	0,001
-307,110	-200,000	0,004	-0,027
-306,095	-65,349	-0,113	-0,033
-305,080	37,178	0,058	-0,037
-304,066	484,326	-0,045	-0,075
-303,051	-200,000	0,028	-0,129
-302,037	-44,232	0,075	-0,027
-301,022	248,343	0,094	-0,115
-300,008	-27,373	-0,043	0,018
-298,993	-200,000	-0,015	0,053
-297,978	485,246	0,040	-0,066
-296,964	308,602	-0,025	-0,033
-295,949	800,000	-0,024	-0,074
-294,935	94,195	-0,029	-0,024
-293,920	-200,000	0,022	0,070
-292,905	-10,902	0,012	0,006
-291,891	800,000	-0,045	-0,094
-290,876	118,154	-0,017	0,015
-289,862	-47,637	0,193	0,068
-288,847	26,542	0,094	-0,056
-287,832	800,000	-0,006	-0,014
-286,818	800,000	0,031	0,074
-285,803	-5,531	-0,141	-0,070
-284,789	-200,000	-0,017	0,150
-283,774	34,724	0,111	0,070
-282,759	-200,000	-0,029	-0,175
-281,745	-200,000	-0,006	-0,077
-280,730	115,173	-0,050	-0,044
-279,716	-37,351	0,127	-0,049
-278,701	-200,000	-0,014	0,078
-277,686	-52,293	-0,076	-0,025
-276,672	800,000	0,060	0,181
-275,657	68,173	0,029	-0,021
-274,643	-21,242	-0,127	0,056
-273,628	800,000	0,012	-0,025
-272,613	53,887	0,092	-0,064
-271,599	-200,000	0,001	-0,129
-270,584	450,544	0,100	0,160
-269,570	152,963	-0,028	0,028
-268,555	-120,479	-0,044	0,005
-267,540	-97,289	-0,067	0,013
-266,526	800,000	-0,066	-0,196
-265,511	-6,152	0,116	0,057
-264,497	-10,210	-0,021	-0,010
-263,482	-131,576	-0,089	0,008
-262,467	471,413	0,038	-0,062
-261,453	-200,000	-0,025	0,107
-260,438	111,857	-0,077	-0,067
-259,424	110,088	-0,114	-0,099
-258,409	705,450	0,076	0,146
-257,395	219,562	0,075	0,087
-256,380	800,000	-0,044	0,103
-255,365	-2,700	0,114	0,057
-254,351	800,000	-0,016	0,039
-253,336	-124,342	-0,088	-0,010
-252,322	-142,419	0,013	-0,001
-251,307	254,512	-0,051	-0,064
-250,292	-200,000	-0,003	-0,098
-249,278	-101,259	0,057	-0,010
-248,263	800,000	0,027	0,067
-247,249	-200,000	-0,001	-0,108
-246,234	30,366	0,008	0,005
-245,219	-14,871	0,163	-0,075
-244,205	72,770	-0,031	0,023
-243,190	396,076	0,066	0,100
-242,176	-20,316	-0,060	-0,027
-241,161	-200,000	-0,001	-0,040
-240,146	105,978	-0,076	0,065
-239,132	172,531	0,063	0,066
-238,117	-113,379	0,012	-0,002
-237,103	-200,000	0,004	-0,121
-236,088	-200,000	0,039	-0,124
-235,073	-200,000	-0,019	-0,103
-234,059	-200,000	0,015	-0,073
-233,044	87,168	0,121	-0,096
-232,030	2,268	-0,137	0,071
-231,015	157,662	-0,081	-0,081
-230,000	800,000	0,015	0,034
-228,986	294,913	-0,004	-0,005
-227,971	53,190	-0,059	0,041
-226,957	800,000	0,039	0,118
-225,942	-142,587	-0,165	-0,011
-224,927	-200,000	0,005	0,074
-223,913	-200,000	0,011	-0,073
-222,898	-135,679	-0,069	-0,006
-221,884	800,000	-0,087	-0,198
-220,869	110,919	0,051	0,045
-219,855	396,643	-0,038	-0,058
-218,840	232,692	0,050	-0,059
-217,825	9,128	0,041	-0,022
-216,811	294,276	-0,042	0,056
-215,796	7,274	-0,130	-0,070
-214,782	-200,000	-0,009	0,092
-213,767	1,434	0,062	0,032
-212,752	-200,000	0,017	0,117
-211,738	800,000	-0,031	0,096
-210,723	-200,000	-0,021	0,128
-209,709	-200,000	-0,021	-0,094
-208,694	58,545	0,072	-0,051
-207,679	33,202	-0,027	-0,017
-206,665	-70,936	-0,207	0,056
-205,650	-200,000	-0,011	0,129
-204,636	-62,951	0,058	-0,017
-203,621	800,000	0,009	-0,019
-202,606	147,803	-0,113	-0,110
-201,592	271,520	-0,088	-0,112
-200,577	-51,782	0,132	-0,044
-199,563	81,262	0,038	0,030
-198,548	68,692	-0,072	0,053
-197,533	800,000	-0,051	0,135
-196,519	-91,568	-0,046	-0,009
-195,504	-54,821	-0,045	0,015
-194,490	800,000	-0,027	-0,082
-193,475	-45,922	-0,114	-0,040
-192,460	645,349	0,067	0,124
-191,446	25,844	0,173	0,103
-190,431	800,000	0,031	-0,088
-189,417	-83,878	0,162	0,037
-188,402	113,746	-0,042	-0,037
-187,387	-200,000	-0,013	-0,124
-186,373	-18,830	-0,056	-0,025
-185,358	62,893	0,108	-0,078
-184,344	-200,000	0,012	-0,039
-183,329	110,779	0,083	-0,072
-182,315	152,666	0,032	0,031
-181,300	-20,353	0,077	-0,034
-180,285	10,559	-0,141	-0,077
-179,271	51,054	-0,086	0,058
-178,256	800,000	0,035	0,093
-177,242	-200,000	-0,009	0,036
-176,227	-63,620	-0,038	-0,011
-175,212	-200,000	-0,005	0,120
-174,198	-200,000	0,011	-0,062
-173,183	333,923	0,053	-0,074
-172,169	-67,182	-0,084	0,024
-171,154	154,530	-0,113	-0,112
-170,139	288,266	0,142	-0,186
-169,125	-33,656	0,159	0,063
-168,110	29,725	0,020	-0,012
-167,096	-92,490	0,127	-0,025
-166,081	-74,549	0,053	0,014
-165,066	-27,658	-0,098	-0,041
-164,052	-200,000	-0,024	-0,112
-163,037	800,000	0,060	0,187
-162,023	-200,000	0,021	0,153
-161,008	-200,000	0,001	0,034
-159,993	-200,000	0,013	0,181
-158,979	-8,176	-0,058	0,028
-157,964	10,301	-0,181	0,099
-156,950	-200,000	0,005	-0,065
-155,935	-200,000	-0,001	0,036
-154,920	111,208	-0,087	0,075
-153,906	301,995	0,089	0,119
-152,891	198,826	-0,126	-0,140
-151,877	-200,000	0,012	-0,166
-150,862	800,000	-0,079	-0,159
-149,847	366,157	0,024	-0,035
-148,833	-200,000	0,017	0,199
-147,818	-200,000	-0,012	0,075
-146,804	-132,464	0,065	-0,006
-145,789	-200,000	0,009	-0,044
-144,775	800,000	-0,038	-0,100
-143,760	62,019	0,075	-0,054
-142,745	111,163	0,134	-0,116
-141,731	-200,000	-0,002	0,044
-140,716	-200,000	0,024	0,212
-139,702	-200,000	0,001	-0,006
-138,687	202,825	0,092	0,102
-137,672	-200,000	0,003	-0,057
-136,658	-200,000	-0,005	-0,078
-135,643	-200,000	-0,015	0,085
-134,629	-200,000	-0,002	-0,005
-133,614	-117,252	0,101	0,013
-132,599	-109,962	-0,058	0,009
-131,585	104,381	0,088	0,075
-130,570	-55,251	-0,082	-0,026
-129,556	800,000	0,023	-0,052
-128,541	-200,000	-0,002	-0,066
-127,526	800,000	-0,047	0,111
-126,512	-59,423	0,083	-0,026
-125,497	133,333	0,067	0,062
-124,483	11,140	-0,034	0,019
-123,468	-200,000	0,010	0,039
-122,453	227,246	-0,116	-0,136
-121,439	451,399	-0,049	-0,079
-120,424	81,743	0,065	-0,051
-119,410	-200,000	-0,024	0,097
-118,395	-138,415	-0,097	0,008
-117,380	-200,000	-0,002	0,056
-116,366	98,309	-0,114	-0,094
-115,351	131,161	-0,063	0,058
-114,337	-107,687	-0,065	0,010
-113,322	210,550	0,088	-0,100
-112,307	-200,000	-0,005	-0,078
-111,293	268,116	0,046	0,058
-110,278	-80,716	-0,103	0,024
-109,264	800,000	0,013	-0,035
-108,249	468,632	0,034	-0,055
-107,234	438,045	-0,075	-0,118
-106,220	129,135	0,009	-0,008
-105,205	72,604	-0,103	0,077
-104,191	727,494	0,029	-0,056
-103,176	-11,551	-0,122	0,057
-102,162	347,415	0,041	0,058
-101,147	-30,272	0,090	-0,037
-100,132	171,938	-0,121	-0,126
-99,118	800,000	0,039	-0,080
-98,103	580,320	-0,060	-0,106
-97,089	133,202	0,088	0,082
-96,074	-200,000	0,027	0,150
-95,059	31,672	-0,049	0,030
-94,045	-200,000	0,009	-0,081
-93,030	-200,000	-0,002	-0,081
-92,016	-200,000	-0,091	-0,350
-91,001	51,590	-0,095	-0,065
-89,986	-108,208	0,143	-0,022
-88,972	-63,969	0,055	-0,016
-87,957	-150,096	0,057	-0,003
-86,943	-200,000	-0,028	-0,114
-85,928	-200,000	-0,023	-0,105
-84,913	280,607	0,033	-0,043
-83,899	18,952	-0,158	-0,091
-82,884	-25,757	0,046	0,019
-81,870	-122,462	0,048	-0,006
-80,855	767,172	0,039	-0,076
-79,840	57,990	0,096	-0,067
-78,826	-88,474	0,120	-0,025
-77,811	373,586	-0,014	-0,021
-76,797	-200,000	-0,017	0,099
-75,782	-60,279	0,087	0,026
-74,767	800,000	-0,039	0,109
-73,753	332,174	0,068	-0,094
-72,738	124,944	0,072	-0,065
-71,724	98,049	0,084	-0,069
-70,709	209,948	0,011	-0,012
-69,694	800,000	-0,011	0,033
-68,680	9,207	0,020	-0,011
-67,665	-46,909	0,139	-0,049
-66,651	58,603	0,027	0,019
-65,636	-103,343	0,070	0,012
-64,622	-27,427	-0,057	-0,024
-63,607	153,633	0,025	-0,025
-62,592	-200,000	0,012	-0,045
-61,578	755,775	0,011	-0,021
-60,563	800,000	0,043	-0,094
-59,549	-2,050	-0,034	-0,017
-58,534	94,777	-2,706	-2,206
-57,519	-104,236	0,434	-0,072
-56,505	-200,000	-1,749	-5,714
-55,490	437,983	1,413	2,217
-54,476	800,000	5,316	11,235
-53,461	-200,000	23,108	348,349
-52,446	800,000	765,763	2263,470
-51,432	496,683	1642,935	2718,996
-50,417	92,968	1598,527	1294,068
-49,403	60,547	1253,388	888,740
-48,388	20,996	1005,693	583,153
-47,373	18,388	973,294	555,840
-46,359	11,753	960,311	526,966
-45,344	7,622	957,066	511,797
-44,330	8,026	955,016	511,987
-43,315	7,080	952,986	507,827
-42,300	7,014	952,068	507,103
-41,286	6,986	951,236	506,550
-40,271	6,989	950,130	505,951
-39,257	7,023	949,280	505,589
-38,242	6,997	948,377	505,004
-37,227	7,028	947,553	504,643
-36,213	6,924	946,691	503,832
-35,198	6,985	945,860	503,565
-34,184	6,997	945,114	503,184
-33,169	6,930	944,213	502,472
-32,154	7,056	943,188	502,309
-31,140	6,988	942,418	501,660
-30,125	6,962	941,942	501,306
-29,111	7,018	941,099	501,015
-28,096	7,043	940,294	500,647
-27,082	7,053	939,670	500,328
-26,067	7,009	938,883	499,749
-25,052	6,963	938,407	499,329
-24,038	6,951	937,565	498,821
-23,023	6,911	936,924	498,334
-22,009	6,992	936,330	498,255
-20,994	6,969	935,620	497,785
-19,979	6,974	934,972	497,436
-18,965	6,983	934,441	497,163
-17,950	6,980	933,666	496,720
-16,936	6,903	933,056	496,134
-15,921	6,916	932,492	495,857
-14,906	6,897	931,700	495,355
-13,892	6,916	931,299	495,181
-12,877	6,907	930,420	494,666
-11,863	6,879	930,093	494,383
-10,848	6,861	929,495	493,990
-9,833	6,954	929,053	494,028
-8,819	6,982	928,266	493,677
-7,804	6,857	927,627	492,926
-6,790	6,833	927,032	492,517
-5,775	6,905	926,646	492,517
-4,760	6,893	926,129	492,186
-3,746	6,872	925,494	491,762
-2,731	6,741	924,566	490,839
-1,717	6,722	924,139	490,534
-0,702	6,711	923,428	490,102
0,313	6,589	922,679	490,064
1,327	9,983	920,131	499,234
2,342	18,519	769,472	439,559
3,356	13,341	442,986	245,325
4,371	-12,403	310,556	144,790
5,386	-16,146	293,311	132,979
6,400	-18,295	287,445	128,190
7,415	-18,628	284,633	126,599
8,429	-19,246	282,887	125,213
9,444	-19,157	281,869	124,837
10,459	-19,192	281,298	124,540
11,473	-19,241	280,646	124,192
12,488	-19,132	280,250	124,111
13,502	-19,402	279,840	123,659
14,517	-19,078	279,409	123,768
15,531	-19,132	278,831	123,449
16,546	-18,917	278,446	123,472
17,561	-19,006	278,005	123,182
18,575	-18,959	277,810	123,129
19,590	-18,998	277,274	122,844
20,604	-18,931	277,082	122,811
21,619	-18,964	276,787	122,638
22,634	-18,950	276,474	122,502
23,648	-19,028	276,023	122,217
24,663	-18,910	275,730	122,188
25,677	-18,906	275,597	122,121
26,692	-18,935	275,336	121,968
27,707	-18,846	274,912	121,852
28,721	-18,844	274,787	121,789
29,736	-18,902	274,503	121,597
30,750	-19,056	274,265	121,337
31,765	-19,010	273,835	121,179
32,780	-18,961	273,757	121,179
33,794	-18,940	273,410	121,035
34,809	-18,814	273,161	121,031
35,823	-18,826	272,966	120,923
36,838	-18,881	272,677	120,733
37,853	-18,952	272,274	120,477
38,867	-19,014	272,190	120,371
39,882	-18,854	271,904	120,383
40,896	-18,743	271,612	120,347
41,911	-18,846	271,346	120,122
42,926	-18,712	271,069	120,113
43,940	-19,096	271,017	119,724
44,955	-19,052	270,816	119,665
45,969	-18,704	270,490	119,831
46,984	-18,897	270,355	119,583
47,999	-18,786	270,246	119,627
49,013	-18,671	269,815	119,532
50,028	-18,805	269,724	119,357
51,042	-18,849	269,603	119,252
52,057	-18,878	269,411	119,130
53,071	-18,669	269,154	119,198
54,086	-18,773	268,741	118,908
55,101	-18,858	268,684	118,795
56,115	-18,709	268,323	118,762
57,130	-18,758	267,969	118,549
58,144	-18,760	267,693	118,414
59,159	-19,071	267,534	118,050
60,174	-18,937	267,315	118,065
61,188	-18,941	267,106	117,958
62,203	-18,948	266,941	117,869
63,217	-18,641	266,649	118,008
64,232	-18,976	266,310	117,544
65,247	-18,950	266,083	117,457
66,261	-18,859	265,900	117,448
67,276	-18,725	265,708	117,474
68,290	-18,796	265,502	117,308
69,305	-18,623	265,147	117,297
70,320	-18,715	265,054	117,163
71,334	-18,785	264,797	116,975
72,349	-18,830	264,438	116,765
73,363	-19,070	264,334	116,493
74,378	-18,840	264,137	116,603
75,393	-18,833	263,910	116,498
76,407	-18,816	263,755	116,434
77,422	-18,746	263,458	116,356
78,436	-18,829	263,124	116,124
79,451	-18,659	262,828	116,135
80,466	-19,041	262,774	115,759
81,480	-18,902	262,569	115,783
82,495	-18,935	262,323	115,635
83,509	-19,026	262,161	115,471
84,524	-18,692	261,996	115,686
85,539	-18,642	261,656	115,571
86,553	-18,700	261,529	115,453
87,568	-18,806	261,291	115,243
88,582	-18,850	261,116	115,116
89,597	-18,879	261,028	115,041
90,611	-18,859	260,728	114,917
91,626	-18,832	260,466	114,815
92,641	-18,825	260,292	114,734
93,655	-18,895	260,074	114,566
94,670	-18,857	259,788	114,463
95,684	-18,798	259,512	114,384
96,699	-18,795	259,353	114,306
97,714	-18,685	259,292	114,367
98,728	-18,848	258,941	114,057
99,743	-18,756	258,754	114,046
100,757	-18,621	258,627	114,098
101,772	-18,700	258,377	113,908
102,787	-18,659	258,226	113,868
103,801	-18,768	258,160	113,733
104,816	-18,712	257,606	113,528
105,830	-18,963	257,779	113,374
106,845	-18,876	257,406	113,276
107,860	-18,806	257,090	113,188
108,874	-18,782	256,903	113,116
109,889	-18,935	256,838	112,944
110,903	-18,903	256,567	112,843
111,918	-18,654	256,186	112,882
112,933	-18,912	256,229	112,666
113,947	-18,699	255,934	112,711
114,962	-18,879	255,732	112,456
115,976	-18,795	255,499	112,417
116,991	-18,903	255,431	112,283
118,006	-18,975	255,154	112,089
119,020	-18,935	255,009	112,050
120,035	-18,735	254,858	112,146
121,049	-18,760	254,696	112,044
122,064	-18,828	254,455	111,869
123,079	-18,836	254,334	111,799
124,093	-18,775	254,168	111,768
125,108	-18,733	253,834	111,648
126,122	-18,725	253,747	111,606
127,137	-18,669	253,417	111,500
128,151	-18,494	253,360	111,615
129,166	-18,540	253,097	111,449
130,181	-18,725	252,879	111,185
131,195	-18,831	252,653	110,985
132,210	-18,776	252,439	110,929
133,224	-18,673	252,162	110,884
134,239	-18,546	251,899	110,867
135,254	-18,612	251,645	110,690
136,268	-18,844	251,567	110,448
137,283	-18,692	251,517	110,545
138,297	-18,623	251,181	110,446
139,312	-18,638	250,931	110,314
140,327	-18,716	250,860	110,207
141,341	-18,876	250,699	109,990
142,356	-18,794	250,527	109,975
143,370	-18,739	250,109	109,828
144,385	-18,893	250,012	109,645
145,400	-18,939	249,868	109,533
146,414	-18,870	249,636	109,480
147,429	-18,748	249,451	109,492
148,443	-18,769	249,333	109,413
149,458	-18,554	249,064	109,466
150,473	-18,692	248,911	109,273
151,487	-18,629	248,635	109,195
152,502	-18,674	248,549	109,109
153,516	-18,567	248,288	109,076
154,531	-18,589	248,027	108,933
155,546	-18,766	247,986	108,756
156,560	-18,609	247,661	108,735
157,575	-18,716	247,634	108,625
158,589	-18,735	247,363	108,480
159,604	-18,720	247,207	108,414
160,619	-18,467	246,891	108,477
161,633	-18,807	246,854	108,167
162,648	-18,721	246,625	108,130
163,662	-18,867	246,627	107,999
164,677	-18,703	246,350	108,005
165,692	-18,660	246,230	107,978
166,706	-18,660	245,976	107,857
167,721	-18,790	245,911	107,711
168,735	-18,727	245,732	107,675
169,750	-18,790	245,603	107,557
170,764	-18,716	245,360	107,502
171,779	-18,843	245,353	107,384
172,794	-18,713	245,086	107,366
173,808	-18,873	244,886	107,135
174,823	-18,558	244,704	107,308
175,837	-18,574	244,549	107,216
176,852	-18,740	244,326	106,972
177,867	-18,690	244,124	106,915
178,881	-18,636	244,063	106,924
179,896	-18,809	243,790	106,652
180,910	-18,778	243,758	106,654
181,925	-18,664	243,481	106,617
182,940	-18,977	243,371	106,302
183,954	-18,707	243,162	106,423
184,969	-18,601	242,951	106,408
185,983	-18,664	242,853	106,304
186,998	-18,740	242,688	106,160
188,013	-18,791	242,358	105,965
189,027	-18,739	242,219	105,937
190,042	-18,647	242,079	105,941
191,056	-18,626	241,913	105,876
192,071	-18,718	241,639	105,672
193,086	-18,828	241,480	105,503
194,100	-18,672	241,257	105,523
195,115	-18,774	241,198	105,405
196,129	-18,731	240,962	105,328
197,144	-18,574	240,693	105,329
198,159	-18,838	240,585	105,057
199,173	-18,608	240,391	105,150
200,188	-18,626	240,126	105,010
201,202	-18,731	240,093	104,901
202,217	-18,704	240,075	104,905
203,232	-18,575	239,710	104,841
204,246	-18,442	239,412	104,809
205,261	-18,668	239,320	104,577
206,275	-17,178	239,857	106,006
207,290	-11,982	241,593	110,987
208,304	-5,390	243,694	117,336
209,319	-2,252	244,466	120,267
210,334	-1,392	244,693	121,071
211,348	-0,430	244,824	121,913
212,363	-0,066	244,914	122,245
213,377	0,505	244,804	122,646
214,392	0,523	244,708	122,601
215,407	0,466	244,870	122,625
216,421	0,723	244,662	122,720
217,436	1,206	244,253	122,897
218,450	0,912	244,246	122,643
219,465	0,946	244,060	122,567
220,480	0,924	243,936	122,475
221,494	0,922	243,592	122,290
222,509	0,459	243,464	121,839
223,523	0,391	243,205	121,643
224,538	0,252	243,060	121,448
225,553	0,427	242,834	121,466
226,567	0,414	242,633	121,343
227,582	0,301	242,644	121,247
228,596	0,324	242,437	121,151
229,611	0,462	242,294	121,180
230,626	0,322	242,118	120,968
231,640	0,335	241,978	120,898
232,655	0,358	241,761	120,798
233,669	0,291	241,578	120,641
234,684	0,356	241,385	120,586
235,699	0,233	241,256	120,412
236,713	0,385	241,267	120,529
237,728	0,528	240,931	120,465
238,742	0,488	240,756	120,335
239,757	0,402	240,756	120,255
240,772	0,528	240,408	120,171
241,786	0,198	240,474	119,930
242,801	0,399	240,083	119,885
243,815	0,371	240,059	119,840
244,830	0,468	239,849	119,802
245,844	0,344	239,814	119,675
246,859	0,403	239,486	119,547
247,874	0,385	239,353	119,455
248,888	0,211	239,327	119,293
249,903	0,450	238,941	119,281
250,917	0,377	238,924	119,203
251,932	0,527	238,737	119,219
252,947	0,642	238,550	119,206
253,961	0,488	238,600	119,098
254,976	0,573	238,276	118,993
255,990	0,269	238,285	118,746
257,005	0,427	238,102	118,769
258,020	0,367	237,877	118,599
259,034	0,267	237,803	118,473
260,049	0,463	237,461	118,446
261,063	0,489	237,299	118,375
262,078	0,410	237,261	118,283
263,093	0,520	237,098	118,279
264,107	0,590	236,867	118,208
265,122	0,292	236,855	117,957
266,136	0,231	236,533	117,738
267,151	0,349	236,483	117,795
268,166	0,233	236,306	117,606
269,180	0,310	236,085	117,545
270,195	0,478	236,024	117,636
271,209	0,424	235,748	117,446
272,224	0,474	235,789	117,495
273,239	0,405	235,520	117,297
274,253	0,285	235,363	117,114
275,268	0,415	235,179	117,113
276,282	0,624	235,029	117,192
277,297	0,376	234,922	116,935
278,312	0,464	234,883	116,973
279,326	0,312	234,708	116,757
280,341	0,593	234,471	116,847
281,355	0,366	234,392	116,621
282,370	0,545	234,280	116,694
283,384	0,543	233,956	116,521
284,399	0,381	233,935	116,374
285,414	0,298	233,705	116,185
286,428	0,276	233,655	116,133
287,443	0,680	233,323	116,270
288,457	0,533	233,195	116,082
289,472	0,430	233,166	115,977
290,487	0,596	233,000	116,013
291,501	0,341	232,973	115,792
292,516	0,535	232,710	115,801
293,530	0,394	232,554	115,604
294,545	0,384	232,495	115,557
295,560	0,536	232,256	115,545
296,574	0,470	232,063	115,388
297,589	0,559	232,037	115,433
298,603	0,525	231,846	115,302
299,618	0,390	231,694	115,112
300,633	0,616	231,634	115,245
301,647	0,639	231,317	115,095
302,662	0,538	231,280	114,989
303,676	0,706	231,104	115,020
304,691	0,556	230,954	114,821
305,706	0,551	230,876	114,768
306,720	0,719	230,747	114,822
307,735	0,722	230,432	114,657
308,749	0,650	230,509	114,629
309,764	0,837	230,105	114,561
310,779	0,827	229,993	114,488
311,793	0,574	229,882	114,229
312,808	0,837	229,663	114,311
313,822	0,610	229,638	114,115
314,837	0,662	229,453	114,053
315,852	0,920	229,316	114,170
316,866	0,678	229,275	113,956
317,881	0,425	229,101	113,668
318,895	0,736	228,935	113,811
319,910	0,653	228,745	113,644
320,925	0,737	228,723	113,685
321,939	0,528	228,455	113,384
322,954	0,902	228,230	113,545
323,968	0,717	228,283	113,422
324,983	0,838	228,068	113,396
325,997	0,688	227,905	113,192
327,012	0,783	227,653	113,128
328,027	0,607	227,440	112,880
329,041	0,898	227,453	113,095
330,056	0,765	227,318	112,918
331,070	0,924	227,184	112,960
332,085	0,727	226,996	112,709
333,100	0,843	226,794	112,686
334,114	0,726	226,796	112,588
335,129	0,622	226,579	112,394
336,143	0,616	226,503	112,341
337,158	0,835	226,245	112,367
338,173	0,856	226,190	112,345
339,187	0,967	225,960	112,304
340,202	0,897	225,779	112,152
341,216	0,861	225,785	112,118
342,231	0,771	225,576	111,937
343,246	0,707	225,430	111,807
344,260	0,850	225,379	111,878
345,275	1,006	225,307	111,948
346,289	1,050	224,936	111,787
347,304	0,882	224,900	111,634
348,319	0,734	224,688	111,409
349,333	0,920	224,613	111,500
350,348	0,939	224,394	111,395
351,362	1,062	224,229	111,394
352,377	0,884	224,237	111,257
353,392	0,865	224,098	111,164
354,406	0,958	224,012	111,180
355,421	192,064	1309,642	1373,317
356,435	153,807	1441,749	1373,133
