DTS Sentinel unit serial number:	SN410029Multiplexer serial number:	ORYXHardware model number:	OX2-SRSoftware version number:	ORYX F/W v4,00 Oryx Data Collector v3.7.2.0data status	okinstallation	B5 Nyhavnadifferential loss correction	single-endedforward channel	channel 2reverse channel	N/Adate	2023/12/13time	21:47:13forward acquisition time	300,00reverse acquisition time	0,00gamma	499,1914k internal	0,3155k external	0,3155temperature offset calibration	1,0000default loss term (dB/km)	0,3820temperature slope calibration	1,0000multiplexer offset coefficient	1,0000multiplexer slope coefficient	1,0000fibre end	0,00T internal ref (°C)	9,76T ext. ref 1 (°C)	-7,00T ext. ref 2 (°C)	-7,03length (m)	temperature (°C)	Stokes	anti-Stokes-744,400	4,358	0,035	0,019
-743,385	-30,405	-0,336	-0,140
-742,371	156,163	0,050	0,051
-741,356	-61,487	-0,321	-0,099
-740,342	105,201	0,006	-0,005
-739,327	-106,300	-0,192	0,031
-738,312	68,052	0,073	0,055
-737,298	-139,581	-0,389	-0,030
-736,283	-200,000	0,005	0,163
-735,269	-155,879	-0,354	0,016
-734,254	-41,473	0,042	0,016
-733,239	-88,469	-0,607	-0,132
-732,225	5,658	0,263	0,143
-731,210	-200,000	-0,007	-0,093
-730,196	-99,312	-0,081	-0,015
-729,181	-200,000	-0,005	-0,061
-728,167	4,463	-0,081	-0,044
-727,152	74,013	-0,047	-0,036
-726,137	-60,240	-0,119	0,037
-725,123	-200,000	0,006	0,139
-724,108	250,167	0,041	-0,051
-723,094	25,997	-0,126	0,077
-722,079	800,000	-0,007	0,018
-721,064	-62,786	-0,149	-0,045
-720,050	150,270	-0,017	0,017
-719,035	38,332	-0,086	0,057
-718,021	17,573	-0,161	-0,094
-717,006	-200,000	0,020	-0,081
-715,991	432,387	-0,115	-0,184
-714,977	13,421	0,078	-0,044
-713,962	-55,738	-0,135	-0,044
-712,948	42,824	0,037	-0,025
-711,933	12,869	0,043	-0,024
-710,918	-25,150	0,059	-0,026
-709,904	-200,000	-0,031	-0,108
-708,889	-58,792	-0,137	-0,043
-707,875	232,390	0,040	-0,048
-706,860	800,000	0,068	0,153
-705,845	-199,056	-0,044	-0,000
-704,831	35,683	0,025	0,016
-703,816	-20,820	-0,049	-0,022
-702,802	-138,540	-0,087	0,007
-701,787	33,205	0,094	-0,060
-700,772	-54,454	-0,030	-0,010
-699,758	-60,498	-0,100	0,031
-698,743	435,609	0,046	-0,074
-697,729	-14,498	0,090	-0,043
-696,714	168,755	0,054	-0,057
-695,699	-34,471	-0,174	-0,070
-694,685	-99,983	-0,064	0,012
-693,670	218,918	-0,081	0,095
-692,656	-200,000	0,019	0,106
-691,641	126,487	0,076	0,071
-690,627	438,192	0,017	0,028
-689,612	-12,186	0,027	0,013
-688,597	-87,482	0,069	0,015
-687,583	153,572	-0,133	-0,134
-686,568	30,831	-0,215	0,136
-685,554	-96,804	0,113	0,022
-684,539	-5,293	-0,073	0,037
-683,524	92,802	-0,034	0,028
-682,510	800,000	0,052	-0,113
-681,495	-195,861	-0,118	-0,001
-680,481	169,684	-0,019	0,020
-679,466	65,394	-0,082	-0,061
-678,451	202,762	-0,120	-0,137
-677,437	308,646	0,009	0,012
-676,422	282,123	0,083	0,109
-675,408	-47,448	-0,037	0,013
-674,393	-127,782	-0,035	-0,004
-673,378	800,000	-0,020	-0,044
-672,364	800,000	-0,024	-0,073
-671,349	-200,000	0,031	-0,126
-670,335	-62,484	-0,054	-0,016
-669,320	132,138	-0,037	0,035
-668,305	800,000	-0,016	-0,035
-667,291	-200,000	0,033	0,149
-666,276	-86,565	0,030	-0,007
-665,262	54,308	-0,157	-0,111
-664,247	-200,000	0,019	-0,087
-663,232	44,132	-0,062	0,042
-662,218	75,510	-0,086	-0,067
-661,203	19,719	0,091	0,053
-660,189	374,947	-0,053	0,080
-659,174	-67,403	-0,140	-0,040
-658,159	-200,000	-0,006	0,044
-657,145	-21,968	-0,058	0,026
-656,130	-181,630	-0,165	0,002
-655,116	-200,000	0,008	-0,100
-654,101	-200,000	-0,020	0,098
-653,086	314,557	-0,028	-0,039
-652,072	-200,000	-0,010	-0,161
-651,057	-66,662	-0,036	-0,010
-650,043	-200,000	-0,027	-0,121
-649,028	-121,762	-0,122	0,015
-648,014	-200,000	0,018	0,091
-646,999	-95,175	-0,081	-0,016
-645,984	-32,363	-0,087	0,036
-644,970	151,433	-0,089	-0,089
-643,955	-119,824	0,031	-0,004
-642,941	88,867	0,094	-0,077
-641,926	122,524	0,036	0,033
-640,911	177,637	-0,076	0,082
-639,897	-200,000	-0,003	0,011
-638,882	2,092	-0,074	-0,039
-637,868	581,321	0,022	-0,040
-636,853	800,000	-0,084	-0,270
-635,838	163,223	0,015	-0,015
-634,824	-200,000	-0,008	0,040
-633,809	800,000	-0,019	0,058
-632,795	-200,000	-0,001	0,058
-631,780	-15,335	0,035	-0,016
-630,765	26,381	-0,140	0,086
-629,751	367,709	-0,063	-0,094
-628,736	-28,495	0,078	-0,033
-627,722	-200,000	-0,036	-0,118
-626,707	377,978	0,084	0,127
-625,692	800,000	0,008	-0,023
-624,678	333,809	0,045	0,064
-623,663	110,688	-0,067	-0,060
-622,649	313,289	0,051	-0,070
-621,634	242,209	-0,097	0,120
-620,619	618,755	-0,025	-0,046
-619,605	720,935	-0,035	0,069
-618,590	263,094	0,083	0,107
-617,576	276,328	0,134	0,175
-616,561	800,000	-0,035	0,074
-615,546	203,953	0,075	0,086
-614,532	-5,024	-0,142	-0,071
-613,517	23,400	-0,160	-0,096
-612,503	2,685	-0,022	0,012
-611,488	138,787	0,126	0,122
-610,474	-200,000	-0,015	0,066
-609,459	198,288	-0,099	0,111
-608,444	-115,424	0,012	-0,002
-607,430	-200,000	-0,062	-0,241
-606,415	418,958	0,055	-0,087
-605,401	-56,975	0,198	0,064
-604,386	-200,000	0,000	-0,020
-603,371	-200,000	-0,007	0,071
-602,357	800,000	0,019	0,043
-601,342	800,000	-0,017	0,055
-600,328	-139,648	0,069	0,005
-599,313	634,604	-0,019	-0,035
-598,298	-200,000	0,008	-0,106
-597,284	-200,000	-0,029	0,102
-596,269	46,158	0,094	0,064
-595,255	-95,089	-0,068	-0,013
-594,240	-200,000	0,029	0,099
-593,225	-6,302	0,032	-0,016
-592,211	195,445	-0,072	-0,080
-591,196	148,866	0,064	-0,063
-590,182	544,239	0,036	0,063
-589,167	800,000	-0,007	0,020
-588,152	-200,000	-0,022	0,086
-587,138	48,044	-0,051	0,035
-586,123	-143,732	0,102	-0,007
-585,109	285,912	-0,059	0,078
-584,094	-200,000	-0,009	-0,064
-583,079	-200,000	0,013	-0,127
-582,065	-79,890	0,060	0,015
-581,050	160,772	0,047	0,049
-580,036	229,194	0,055	-0,066
-579,021	-151,592	-0,185	0,010
-578,006	259,624	-0,046	0,059
-576,992	203,399	0,076	-0,086
-575,977	-66,667	0,057	-0,016
-574,963	96,065	0,112	0,094
-573,948	800,000	-0,031	0,086
-572,934	316,335	0,046	0,064
-571,919	-200,000	-0,021	-0,080
-570,904	34,058	0,059	0,038
-569,890	-156,510	-0,066	0,003
-568,875	361,876	0,012	0,017
-567,861	-143,128	0,041	0,003
-566,846	-5,522	-0,033	0,016
-565,831	-113,597	-0,105	-0,015
-564,817	25,091	0,099	-0,060
-563,802	-42,725	-0,096	-0,035
-562,788	-72,291	-0,055	-0,015
-561,773	-200,000	0,063	-0,227
-560,758	-200,000	0,025	-0,092
-559,744	108,684	-0,072	0,063
-558,729	800,000	-0,034	-0,109
-557,715	-20,258	0,037	-0,017
-556,700	22,964	-0,162	-0,097
-555,685	-95,056	-0,067	0,013
-554,671	-40,811	0,163	-0,062
-553,656	-18,687	-0,028	0,013
-552,642	-200,000	-0,016	0,051
-551,627	173,376	0,022	-0,023
-550,612	281,979	0,034	-0,045
-549,598	-200,000	-0,024	-0,096
-548,583	-200,000	-0,001	-0,094
-547,569	-200,000	-0,003	0,017
-546,554	800,000	0,009	0,022
-545,539	218,941	0,121	0,142
-544,525	-200,000	0,002	0,146
-543,510	19,682	-0,137	0,081
-542,496	-110,137	0,108	-0,016
-541,481	800,000	-0,021	-0,044
-540,466	800,000	0,072	-0,149
-539,452	-131,208	0,178	0,017
-538,437	-200,000	-0,024	0,153
-537,423	-200,000	-0,024	0,078
-536,408	516,061	-0,072	-0,123
-535,393	-200,000	-0,012	-0,132
-534,379	79,962	-0,122	-0,096
-533,364	-200,000	0,000	-0,089
-532,350	-200,000	0,001	0,139
-531,335	-32,879	-0,064	0,026
-530,321	351,907	0,030	0,044
-529,306	-35,829	0,060	-0,023
-528,291	118,001	-0,088	-0,079
-527,277	-102,792	-0,019	-0,003
-526,262	-43,423	-0,110	0,040
-525,248	192,695	0,068	0,075
-524,233	160,681	-0,066	0,067
-523,218	-41,746	0,158	-0,059
-522,204	-89,216	0,018	0,004
-521,189	-200,000	-0,005	-0,034
-520,175	20,580	-0,024	-0,014
-519,160	212,665	-0,114	0,131
-518,145	-145,503	0,104	0,007
-517,131	-47,375	-0,099	-0,035
-516,116	98,239	-0,085	0,072
-515,102	-200,000	-0,031	0,151
-514,087	244,974	0,044	0,054
-513,072	36,498	0,127	-0,082
-512,058	-41,098	-0,072	-0,027
-511,043	-200,000	-0,001	0,032
-510,029	197,009	0,105	0,118
-509,014	341,003	-0,050	0,072
-507,999	-124,953	-0,104	-0,012
-506,985	32,165	0,011	-0,007
-505,970	335,711	-0,084	-0,119
-504,956	-200,000	-0,016	-0,071
-503,941	800,000	-0,036	-0,115
-502,926	-52,413	0,043	0,014
-501,912	711,765	-0,007	-0,013
-500,897	800,000	-0,078	0,222
-499,883	263,131	-0,035	-0,044
-498,868	-200,000	-0,007	0,055
-497,853	-183,931	0,043	-0,001
-496,839	800,000	-0,055	-0,112
-495,824	-44,868	0,061	-0,022
-494,810	-200,000	0,013	0,091
-493,795	107,671	0,025	-0,022
-492,781	-29,819	0,115	0,048
-491,766	-4,983	0,037	0,019
-490,751	35,197	-0,083	-0,053
-489,737	656,242	-0,046	-0,086
-488,722	82,745	-0,016	0,012
-487,708	140,972	-0,080	-0,077
-486,693	-86,369	-0,055	-0,012
-485,678	70,652	-0,080	-0,061
-484,664	104,078	0,107	-0,092
-483,649	20,112	0,102	-0,060
-482,635	-200,000	0,009	-0,203
-481,620	-41,747	0,083	0,031
-480,605	-79,358	0,219	-0,054
-479,591	24,146	-0,039	0,024
-478,576	-200,000	0,007	-0,067
-477,562	364,430	-0,057	0,084
-476,547	-200,000	0,011	0,076
-475,532	200,895	-0,077	0,086
-474,518	325,886	-0,045	0,063
-473,503	58,995	0,122	0,088
-472,489	37,402	-0,057	-0,037
-471,474	800,000	-0,016	-0,050
-470,459	-200,000	-0,033	0,112
-469,445	18,235	0,096	0,056
-468,430	800,000	-0,039	0,106
-467,416	-189,698	-0,122	0,001
-466,401	-200,000	0,014	-0,086
-465,386	-72,301	-0,071	-0,019
-464,372	-129,234	0,100	-0,010
-463,357	-10,174	0,057	0,027
-462,343	-106,425	-0,115	-0,019
-461,328	-200,000	0,001	-0,019
-460,313	-38,507	0,041	-0,016
-459,299	-8,047	0,048	-0,023
-458,284	-200,000	0,025	0,150
-457,270	800,000	-0,056	0,146
-456,255	47,255	-0,086	0,058
-455,241	800,000	0,044	-0,111
-454,226	143,968	-0,052	-0,050
-453,211	800,000	-0,026	0,077
-452,197	278,127	-0,028	0,036
-451,182	800,000	0,010	0,026
-450,168	-124,289	0,209	-0,023
-449,153	89,015	-0,062	-0,050
-448,138	-200,000	-0,014	-0,053
-447,124	-200,000	-0,004	-0,051
-446,109	-51,020	-0,038	-0,013
-445,095	239,109	-0,071	0,087
-444,080	101,364	0,038	0,032
-443,065	-200,000	0,008	0,105
-442,051	-33,368	-0,038	0,015
-441,036	-200,000	-0,012	-0,111
-440,022	-200,000	0,047	0,154
-439,007	-200,000	-0,011	0,094
-437,992	800,000	0,035	-0,090
-436,978	141,732	0,062	0,060
-435,963	297,436	0,050	0,067
-434,949	4,949	0,094	-0,050
-433,934	-45,836	0,049	-0,018
-432,919	800,000	-0,022	0,047
-431,905	-76,019	-0,035	0,009
-430,890	-9,508	0,063	0,030
-429,876	-200,000	-0,023	-0,084
-428,861	-200,000	-0,001	0,138
-427,846	-200,000	-0,019	0,074
-426,832	478,421	0,070	-0,116
-425,817	-9,499	0,146	0,071
-424,803	260,253	-0,070	-0,089
-423,788	-87,916	-0,144	0,031
-422,773	-20,150	0,059	0,027
-421,759	-110,387	0,056	-0,008
-420,744	265,405	0,071	0,090
-419,730	73,391	-0,124	-0,095
-418,715	-200,000	0,002	-0,082
-417,701	-200,000	-0,009	0,075
-416,686	109,879	0,090	0,079
-415,671	-200,000	-0,005	0,023
-414,657	-200,000	-0,017	0,091
-413,642	-200,000	-0,047	0,211
-412,628	-180,901	-0,152	0,002
-411,613	86,206	-0,064	0,051
-410,598	674,593	-0,046	0,088
-409,584	-200,000	0,005	0,019
-408,569	-200,000	-0,001	0,118
-407,555	800,000	0,035	-0,110
-406,540	151,232	0,033	-0,032
-405,525	219,236	-0,016	0,019
-404,511	-96,589	-0,048	0,009
-403,496	-200,000	-0,008	-0,027
-402,482	255,285	0,061	0,077
-401,467	154,522	-0,063	-0,063
-400,452	234,424	0,030	-0,036
-399,438	-200,000	0,007	-0,021
-398,423	522,410	0,018	0,031
-397,409	-200,000	0,010	0,065
-396,394	-200,000	0,006	0,092
-395,379	800,000	-0,030	0,066
-394,365	251,050	-0,084	0,105
-393,350	800,000	-0,026	0,059
-392,336	800,000	0,034	0,078
-391,321	367,867	0,052	-0,077
-390,306	405,457	-0,039	-0,059
-389,292	-79,905	-0,089	-0,022
-388,277	800,000	0,031	-0,101
-387,263	158,923	0,060	0,061
-386,248	548,800	0,006	-0,010
-385,233	429,060	-0,013	0,020
-384,219	97,688	0,041	-0,034
-383,204	-200,000	-0,010	-0,100
-382,190	327,059	0,032	0,045
-381,175	-29,731	0,066	-0,027
-380,160	-151,733	0,054	0,003
-379,146	800,000	0,008	0,017
-378,131	195,616	0,069	0,077
-377,117	4,211	-0,089	-0,047
-376,102	45,038	0,061	0,041
-375,088	431,777	-0,073	-0,115
-374,073	-200,000	0,009	0,077
-373,058	-142,686	0,084	-0,006
-372,044	35,154	-0,087	0,055
-371,029	-68,178	0,117	-0,033
-370,015	-51,452	0,049	0,017
-369,000	124,007	-0,018	0,017
-367,985	245,646	-0,130	-0,159
-366,971	-200,000	0,020	-0,140
-365,956	-109,900	0,117	-0,018
-364,942	242,968	0,063	0,077
-363,927	9,042	0,006	-0,003
-362,912	-119,692	0,034	-0,004
-361,898	800,000	-0,074	0,210
-360,883	-200,000	0,020	-0,069
-359,869	177,625	0,057	0,060
-358,854	32,812	-0,053	0,033
-357,839	-93,104	0,093	0,019
-356,825	177,783	-0,080	0,085
-355,810	-200,000	-0,040	0,154
-354,796	-200,000	-0,003	-0,068
-353,781	800,000	-0,058	-0,170
-352,766	115,841	0,032	-0,029
-351,752	88,143	-0,071	-0,057
-350,737	-61,145	0,108	0,033
-349,723	-200,000	-0,000	0,042
-348,708	35,958	0,065	-0,042
-347,693	53,973	-0,073	0,051
-346,679	167,570	0,018	0,019
-345,664	-65,423	-0,045	0,013
-344,650	596,663	-0,065	0,117
-343,635	800,000	0,037	0,112
-342,620	522,929	-0,045	-0,077
-341,606	800,000	0,042	0,106
-340,591	-90,044	-0,032	-0,007
-339,577	-200,000	-0,020	-0,129
-338,562	-200,000	-0,014	0,098
-337,548	-34,437	0,093	-0,037
-336,533	300,977	0,021	0,028
-335,518	157,787	0,055	-0,056
-334,504	-118,025	-0,045	0,006
-333,489	-83,023	0,093	0,022
-332,475	-81,145	0,016	0,004
-331,460	-95,230	-0,140	0,027
-330,445	-169,438	0,105	0,003
-329,431	-103,640	0,106	0,018
-328,416	78,713	0,041	0,032
-327,402	-120,238	0,155	-0,019
-326,387	-200,000	0,024	-0,076
-325,372	-200,000	0,020	0,073
-324,358	1,229	-0,063	-0,033
-323,343	61,628	0,011	-0,008
-322,329	-1,389	-0,050	-0,026
-321,314	-68,258	0,099	0,028
-320,299	291,958	0,048	-0,064
-319,285	-200,000	-0,002	0,057
-318,270	800,000	-0,029	0,065
-317,256	54,759	-0,127	-0,089
-316,241	-3,423	-0,045	-0,023
-315,226	-111,915	-0,094	0,014
-314,212	83,581	-0,059	0,047
-313,197	-200,000	-0,010	0,051
-312,183	20,238	0,074	0,043
-311,168	800,000	-0,017	-0,052
-310,153	-132,826	0,045	0,004
-309,139	-111,977	-0,142	-0,021
-308,124	470,983	0,024	-0,039
-307,110	-200,000	-0,029	0,104
-306,095	332,049	-0,051	-0,072
-305,080	699,601	0,028	-0,055
-304,066	257,127	0,065	-0,082
-303,051	93,417	-0,020	0,017
-302,037	-69,845	-0,106	0,029
-301,022	65,300	0,056	-0,041
-300,008	-31,981	0,176	0,071
-298,993	96,438	0,136	0,113
-297,978	8,022	0,077	-0,042
-296,964	-14,813	-0,116	-0,054
-295,949	472,920	0,058	-0,095
-294,935	-200,000	0,034	-0,119
-293,920	-166,225	0,160	0,005
-292,905	547,716	-0,076	-0,132
-291,891	-200,000	0,015	0,062
-290,876	59,094	-0,083	-0,059
-289,862	256,094	-0,044	-0,054
-288,847	-158,467	-0,076	-0,003
-287,832	17,556	0,023	-0,013
-286,818	-200,000	0,041	-0,191
-285,803	-200,000	0,020	-0,093
-284,789	-58,228	0,076	0,024
-283,774	-200,000	0,001	-0,033
-282,759	-47,748	-0,058	-0,020
-281,745	-169,656	0,069	0,002
-280,730	-130,236	-0,152	0,015
-279,716	-2,145	-0,075	-0,038
-278,701	324,451	-0,005	0,007
-277,686	234,438	0,093	0,111
-276,672	238,502	0,044	-0,053
-275,657	800,000	0,013	-0,033
-274,643	122,796	-0,074	-0,067
-273,628	-200,000	0,039	-0,182
-272,613	-88,527	0,079	-0,017
-271,599	-15,465	0,031	-0,014
-270,584	227,325	0,037	-0,044
-269,570	800,000	0,041	-0,107
-268,555	-70,456	-0,085	0,023
-267,540	-42,643	-0,020	-0,007
-266,526	-122,772	0,066	-0,008
-265,511	355,948	0,020	-0,029
-264,497	56,888	0,055	0,039
-263,482	-103,922	-0,054	-0,009
-262,467	-31,710	0,041	-0,017
-261,453	30,176	-0,055	-0,034
-260,438	-24,647	0,038	-0,016
-259,424	-200,000	0,001	-0,027
-258,409	464,275	0,024	0,039
-257,395	-200,000	-0,006	0,129
-256,380	256,438	0,065	0,081
-255,365	80,196	0,088	-0,068
-254,351	800,000	-0,034	-0,097
-253,336	-90,625	-0,028	-0,006
-252,322	-31,675	0,105	-0,042
-251,307	-200,000	-0,011	-0,130
-250,292	246,838	0,080	-0,098
-249,278	800,000	-0,062	0,130
-248,263	-200,000	0,020	0,066
-247,249	94,735	0,112	0,092
-246,234	443,569	0,036	0,057
-245,219	-88,640	0,056	0,012
-244,205	474,499	-0,071	-0,116
-243,190	91,859	0,096	-0,078
-242,176	643,071	0,039	0,073
-241,161	-120,296	-0,061	0,007
-240,146	58,878	0,088	0,063
-239,132	-51,752	0,071	0,024
-238,117	-200,000	-0,032	-0,208
-237,103	800,000	-0,013	0,026
-236,088	-9,383	-0,056	0,027
-235,073	-127,015	-0,140	-0,015
-234,059	242,662	-0,030	0,037
-233,044	-200,000	0,050	0,169
-232,030	28,735	0,053	-0,032
-231,015	-200,000	0,017	-0,058
-230,000	-119,227	-0,087	-0,011
-228,986	-200,000	0,018	0,076
-227,971	-200,000	0,050	-0,174
-226,957	129,201	0,030	-0,028
-225,942	800,000	-0,075	0,183
-224,927	800,000	-0,034	0,093
-223,913	-3,546	0,090	0,045
-222,898	-54,933	-0,080	-0,026
-221,884	-200,000	-0,030	-0,143
-220,869	-200,000	-0,023	0,234
-219,855	105,569	0,078	-0,067
-218,840	258,938	-0,079	0,099
-217,825	106,413	-0,085	0,073
-216,811	632,605	-0,047	-0,086
-215,796	800,000	0,041	-0,125
-214,782	123,335	0,082	-0,074
-213,767	-200,000	-0,033	-0,134
-212,752	-107,404	0,023	-0,004
-211,738	800,000	-0,030	0,064
-210,723	-17,103	0,043	-0,020
-209,709	-139,896	0,066	-0,005
-208,694	-200,000	0,003	-0,066
-207,679	-65,556	-0,061	-0,017
-206,665	-200,000	-0,011	0,175
-205,650	800,000	0,040	0,099
-204,636	800,000	-0,038	0,086
-203,621	218,136	-0,115	0,133
-202,606	136,653	-0,059	-0,055
-201,592	-200,000	0,014	-0,145
-200,577	800,000	-0,050	0,105
-199,563	-2,612	0,032	-0,016
-198,548	-154,092	-0,194	0,009
-197,533	-200,000	0,008	-0,093
-196,519	-200,000	-0,018	-0,142
-195,504	-78,047	0,040	0,010
-194,490	800,000	-0,052	-0,138
-193,475	800,000	-0,030	-0,083
-192,460	-100,622	0,057	-0,010
-191,446	-200,000	0,012	0,087
-190,431	-122,977	0,047	-0,005
-189,417	-172,646	0,033	-0,001
-188,402	800,000	-0,018	0,036
-187,387	-162,906	0,179	0,006
-186,373	-155,604	-0,096	-0,004
-185,358	-200,000	0,038	0,131
-184,344	263,699	-0,031	-0,039
-183,329	-157,207	0,023	0,001
-182,315	800,000	-0,018	0,046
-181,300	-134,919	0,048	0,004
-180,285	-200,000	0,004	0,083
-179,271	-200,000	0,016	-0,181
-178,256	-200,000	0,021	0,092
-177,242	267,222	-0,097	-0,123
-176,227	256,602	-0,028	0,035
-175,212	40,921	-0,068	-0,044
-174,198	134,555	0,065	-0,061
-173,183	349,958	-0,060	-0,086
-172,169	23,413	-0,112	-0,066
-171,154	-105,388	-0,125	0,020
-170,139	-200,000	-0,002	-0,036
-169,125	-126,647	0,103	-0,011
-168,110	-106,184	0,104	0,017
-167,096	800,000	-0,055	-0,165
-166,081	268,868	-0,038	0,048
-165,066	-65,648	-0,110	-0,032
-164,052	413,808	-0,060	-0,092
-163,037	800,000	0,038	0,085
-162,023	386,653	0,082	-0,122
-161,008	-200,000	0,008	0,067
-159,993	800,000	0,029	0,062
-158,979	-8,650	-0,078	0,037
-157,964	150,908	-0,113	-0,111
-156,950	210,060	0,100	-0,113
-155,935	800,000	-0,016	0,037
-154,920	-200,000	0,004	0,125
-153,906	35,664	-0,019	0,012
-152,891	348,682	-0,072	-0,102
-151,877	12,595	0,070	-0,039
-150,862	800,000	0,058	-0,128
-149,847	-200,000	-0,016	-0,085
-148,833	714,271	-0,035	-0,066
-147,818	800,000	0,029	-0,068
-146,804	-200,000	-0,024	0,102
-145,789	-80,170	0,014	-0,003
-144,775	22,152	-0,047	-0,027
-143,760	-200,000	-0,038	-0,128
-142,745	-200,000	-0,027	0,189
-141,731	22,677	0,064	-0,038
-140,716	51,706	0,030	-0,020
-139,702	800,000	0,027	-0,054
-138,687	213,316	-0,083	0,094
-137,672	-52,551	-0,040	-0,013
-136,658	-200,000	-0,017	-0,069
-135,643	-200,000	-0,045	-0,152
-134,629	383,126	-0,101	-0,150
-133,614	-59,648	0,034	-0,011
-132,599	-143,885	0,100	0,007
-131,585	32,449	-0,134	-0,083
-130,570	-54,242	-0,099	0,032
-129,556	-105,168	-0,123	0,020
-128,541	-87,218	0,060	0,013
-127,526	-200,000	0,000	0,078
-126,512	14,355	-0,040	-0,023
-125,497	-151,870	0,176	0,009
-124,483	-200,000	0,016	0,057
-123,468	-200,000	-0,008	0,152
-122,453	-56,332	0,016	0,005
-121,439	-11,887	-0,098	0,046
-120,424	213,786	0,112	-0,128
-119,410	-200,000	-0,004	-0,067
-118,395	360,426	0,161	0,232
-117,380	183,464	-0,155	0,165
-116,366	93,936	-0,066	-0,054
-115,351	800,000	-0,055	-0,147
-114,337	9,598	-0,123	-0,067
-113,322	501,358	-0,047	-0,078
-112,307	414,452	0,011	-0,017
-111,293	-74,839	0,119	-0,031
-110,278	294,266	-0,037	0,049
-109,264	-37,239	-0,072	-0,028
-108,249	-200,000	-0,010	-0,037
-107,234	800,000	-0,094	-0,219
-106,220	158,261	0,017	0,017
-105,205	414,769	-0,053	-0,082
-104,191	48,345	0,066	0,044
-103,176	800,000	0,061	0,143
-102,162	800,000	-0,011	-0,025
-101,147	800,000	0,022	0,051
-100,132	25,073	-0,087	-0,052
-99,118	-200,000	0,014	-0,208
-98,103	132,460	0,068	-0,063
-97,089	-200,000	-0,017	0,059
-96,074	217,915	-0,065	0,074
-95,059	219,934	0,001	0,001
-94,045	27,869	-0,021	0,013
-93,030	-200,000	-0,007	0,093
-92,016	-200,000	0,027	0,110
-91,001	-101,806	0,102	-0,018
-89,986	44,954	-0,059	-0,039
-88,972	-200,000	0,039	0,169
-87,957	-200,000	-0,030	0,121
-86,943	800,000	0,041	0,103
-85,928	-37,523	-0,190	-0,073
-84,913	-200,000	0,022	-0,150
-83,899	-200,000	0,005	-0,136
-82,884	50,384	0,212	0,144
-81,870	745,625	0,082	-0,160
-80,855	-33,779	0,103	0,041
-79,840	-81,872	-0,177	0,041
-78,826	233,082	-0,050	-0,059
-77,811	-72,115	-0,019	-0,005
-76,797	-99,027	-0,090	0,016
-75,782	-200,000	0,002	-0,036
-74,767	-200,000	-0,010	-0,039
-73,753	23,089	-0,130	-0,076
-72,738	542,330	0,037	-0,064
-71,724	728,000	0,040	-0,077
-70,709	-158,332	-0,117	0,005
-69,694	-32,697	-0,123	-0,049
-68,680	219,279	-0,041	0,048
-67,665	-200,000	0,002	0,105
-66,651	367,228	-0,043	0,063
-65,636	21,160	-0,048	0,028
-64,622	306,516	-0,044	0,059
-63,607	-200,000	-0,011	-0,062
-62,592	-144,925	-0,046	0,003
-61,578	-69,373	0,106	-0,029
-60,563	800,000	-0,030	0,063
-59,549	-200,000	-0,042	0,157
-58,534	60,782	-2,459	-1,750
-57,519	319,896	0,341	-0,467
-56,505	-200,000	-1,525	-5,336
-55,490	575,214	0,820	1,444
-54,476	800,000	5,345	11,782
-53,461	-200,000	21,177	339,296
-52,446	800,000	764,126	2328,632
-51,432	521,853	1665,395	2818,655
-50,417	107,619	1630,947	1394,062
-49,403	76,881	1282,248	976,782
-48,388	27,054	1026,613	617,185
-47,373	19,152	991,510	569,858
-46,359	14,219	978,949	546,362
-45,344	10,376	975,652	531,829
-44,330	10,770	973,687	532,035
-43,315	9,845	971,782	527,932
-42,300	9,740	970,632	526,938
-41,286	9,801	969,532	526,522
-40,271	9,802	968,479	525,933
-39,257	9,717	967,826	525,278
-38,242	9,809	966,748	524,974
-37,227	9,751	965,992	524,352
-36,213	9,729	965,251	523,857
-35,198	9,747	964,272	523,364
-34,184	9,779	963,683	523,128
-33,169	9,756	962,681	522,489
-32,154	9,755	961,769	521,970
-31,140	9,790	960,839	521,559
-30,125	9,855	959,982	521,285
-29,111	9,888	959,002	520,838
-28,096	9,786	958,561	520,245
-27,082	9,834	957,735	519,934
-26,067	9,758	957,311	519,435
-25,052	9,755	956,447	518,936
-24,038	9,850	955,529	518,725
-23,023	9,748	954,984	518,080
-22,009	9,798	954,405	517,904
-20,994	9,848	953,953	517,800
-19,979	9,810	953,221	517,260
-18,965	9,783	952,638	516,838
-17,950	9,802	951,909	516,482
-16,936	9,809	951,428	516,223
-15,921	9,792	950,483	515,637
-14,906	9,722	949,875	515,060
-13,892	9,704	949,353	514,699
-12,877	9,741	948,589	514,383
-11,863	9,635	948,076	513,745
-10,848	9,680	947,365	513,484
-9,833	9,739	947,088	513,500
-8,819	9,780	946,215	513,137
-7,804	9,706	945,470	512,479
-6,790	9,733	944,955	512,266
-5,775	9,687	944,613	511,913
-4,760	9,711	943,832	511,545
-3,746	9,699	943,068	511,071
-2,731	9,572	942,528	510,354
-1,717	9,580	941,956	510,051
-0,702	9,532	941,272	509,506
0,313	9,348	940,688	509,376
1,327	12,690	938,395	518,694
2,342	21,295	787,203	457,865
3,356	16,433	453,314	256,243
4,371	-10,204	315,073	149,549
5,386	-14,112	297,324	137,128
6,400	-16,139	291,270	132,298
7,415	-16,308	288,806	130,999
8,429	-16,691	287,038	129,808
9,444	-16,739	286,207	129,374
10,459	-16,716	285,583	129,103
11,473	-16,612	284,857	128,864
12,488	-16,579	284,310	128,638
13,502	-16,706	283,765	128,256
14,517	-16,545	283,490	128,277
15,531	-16,347	283,083	128,273
16,546	-16,071	282,796	128,400
17,561	-16,315	282,369	127,958
18,575	-16,001	282,043	128,103
19,590	-16,210	281,883	127,817
20,604	-16,262	281,495	127,579
21,619	-16,393	281,068	127,248
22,634	-16,162	280,700	127,293
23,648	-16,266	280,276	126,989
24,663	-16,074	279,966	127,021
25,677	-16,317	279,921	126,757
26,692	-16,128	279,583	126,774
27,707	-16,121	279,282	126,632
28,721	-16,285	279,251	126,450
29,736	-16,018	278,720	126,453
30,750	-16,181	278,400	126,141
31,765	-16,252	278,217	125,979
32,780	-16,117	277,981	125,990
33,794	-16,164	277,771	125,839
34,809	-16,160	277,522	125,718
35,823	-16,196	277,270	125,559
36,838	-16,213	276,968	125,395
37,853	-16,082	276,686	125,380
38,867	-16,328	276,510	125,056
39,882	-16,225	276,264	125,031
40,896	-16,105	276,059	125,041
41,911	-16,295	275,867	124,763
42,926	-16,316	275,669	124,643
43,940	-15,886	275,047	124,755
44,955	-16,136	275,040	124,505
45,969	-16,191	274,663	124,272
46,984	-15,917	274,538	124,462
47,999	-16,042	274,305	124,228
49,013	-15,914	274,043	124,218
50,028	-16,132	274,036	123,999
51,042	-16,179	273,839	123,855
52,057	-16,068	273,380	123,741
53,071	-16,256	273,370	123,549
54,086	-16,102	273,031	123,529
55,101	-16,143	272,840	123,393
56,115	-15,955	272,509	123,407
57,130	-16,296	272,307	122,988
58,144	-16,267	272,022	122,875
59,159	-16,281	271,841	122,769
60,174	-16,115	271,540	122,776
61,188	-16,097	271,350	122,696
62,203	-16,090	271,026	122,545
63,217	-16,075	270,943	122,511
64,232	-16,302	270,652	122,158
65,247	-16,261	270,396	122,069
66,261	-16,360	270,254	121,903
67,276	-16,073	270,000	122,042
68,290	-16,151	269,657	121,805
69,305	-16,027	269,470	121,823
70,320	-16,068	269,259	121,679
71,334	-16,341	269,114	121,352
72,349	-16,155	268,753	121,350
73,363	-16,287	268,591	121,144
74,378	-16,400	268,324	120,910
75,393	-16,136	268,216	121,092
76,407	-16,190	267,910	120,894
77,422	-16,103	267,732	120,882
78,436	-16,043	267,344	120,751
79,451	-16,128	267,254	120,621
80,466	-16,075	266,934	120,515
81,480	-15,978	266,752	120,510
82,495	-16,107	266,714	120,365
83,509	-16,038	266,312	120,235
84,524	-15,966	266,301	120,285
85,539	-15,951	265,987	120,146
86,553	-16,042	265,730	119,936
87,568	-16,169	265,535	119,724
88,582	-16,119	265,235	119,623
89,597	-16,161	265,140	119,531
90,611	-16,046	265,034	119,576
91,626	-16,151	264,652	119,299
92,641	-16,158	264,595	119,256
93,655	-16,110	264,437	119,217
94,670	-16,033	264,158	119,150
95,684	-16,123	263,750	118,875
96,699	-16,108	263,672	118,843
97,714	-16,047	263,613	118,861
98,728	-16,031	263,462	118,796
99,743	-16,055	263,317	118,698
100,757	-16,080	262,966	118,507
101,772	-15,969	262,533	118,400
102,787	-16,261	262,528	118,127
103,801	-16,136	262,303	118,127
104,816	-16,087	262,083	118,061
105,830	-16,101	261,679	117,856
106,845	-16,022	261,608	117,884
107,860	-16,116	261,385	117,690
108,874	-16,247	261,224	117,490
109,889	-16,212	260,988	117,404
110,903	-16,019	260,661	117,418
111,918	-16,283	260,652	117,169
112,933	-16,183	260,482	117,171
113,947	-15,916	260,153	117,248
114,962	-16,157	260,136	117,017
115,976	-16,098	259,903	116,954
116,991	-16,053	259,525	116,813
118,006	-16,054	259,435	116,761
119,020	-16,068	259,324	116,689
120,035	-16,273	259,234	116,457
121,049	-16,150	258,988	116,445
122,064	-16,092	258,722	116,365
123,079	-16,183	258,510	116,180
124,093	-16,014	258,225	116,190
125,108	-16,225	258,187	115,977
126,122	-16,010	257,941	116,045
127,137	-16,051	257,801	115,936
128,151	-15,975	257,442	115,830
129,166	-15,750	257,208	115,911
130,181	-15,807	257,132	115,817
131,195	-16,062	256,821	115,444
132,210	-16,131	256,745	115,339
133,224	-16,036	256,231	115,181
134,239	-16,062	256,290	115,175
135,254	-16,096	256,068	115,035
136,268	-15,966	255,947	115,084
137,283	-16,055	255,659	114,866
138,297	-16,174	255,549	114,704
139,312	-16,114	255,226	114,601
140,327	-16,063	255,108	114,581
141,341	-16,105	254,727	114,364
142,356	-16,230	254,801	114,279
143,370	-16,161	254,498	114,192
144,385	-16,064	254,438	114,239
145,400	-15,963	254,011	114,124
146,414	-16,044	253,877	113,983
147,429	-15,992	253,712	113,945
148,443	-15,981	253,572	113,881
149,458	-16,097	253,525	113,749
150,473	-15,992	253,116	113,646
151,487	-16,106	252,945	113,462
152,502	-16,368	252,827	113,174
153,516	-16,049	252,525	113,301
154,531	-16,063	252,478	113,258
155,546	-16,065	252,194	113,119
156,560	-16,159	252,196	113,030
157,575	-15,942	251,769	113,013
158,589	-16,038	251,578	112,836
159,604	-16,138	251,424	112,672
160,619	-15,920	251,104	112,703
161,633	-16,008	251,090	112,612
162,648	-15,735	250,884	112,741
163,662	-16,000	250,754	112,448
164,677	-16,206	250,637	112,211
165,692	-15,958	250,313	112,266
166,706	-16,033	250,235	112,158
167,721	-16,148	250,025	111,956
168,735	-16,137	249,912	111,904
169,750	-16,041	249,827	111,938
170,764	-16,070	249,733	111,861
171,779	-16,027	249,381	111,730
172,794	-16,136	249,262	111,575
173,808	-15,837	248,960	111,681
174,823	-15,961	249,013	111,591
175,837	-16,037	248,771	111,408
176,852	-16,063	248,568	111,286
177,867	-15,948	248,443	111,317
178,881	-16,067	248,227	111,110
179,896	-16,081	248,058	111,012
180,910	-15,960	247,750	110,966
181,925	-16,208	247,741	110,744
182,940	-16,060	247,446	110,726
183,954	-15,980	247,179	110,664
184,969	-16,069	247,236	110,606
185,983	-15,980	247,018	110,572
186,998	-16,139	246,967	110,407
188,013	-15,966	246,587	110,371
189,027	-15,931	246,421	110,316
190,042	-16,413	246,335	109,866
191,056	-16,363	246,108	109,797
192,071	-16,255	245,872	109,771
193,086	-16,311	245,566	109,579
194,100	-16,132	245,556	109,713
195,115	-16,098	245,324	109,628
196,129	-16,158	245,117	109,476
197,144	-16,416	244,985	109,194
198,159	-16,164	244,669	109,252
199,173	-15,967	244,511	109,334
200,188	-16,172	244,379	109,096
201,202	-16,307	244,221	108,905
202,217	-15,969	243,931	109,044
203,232	-16,052	243,847	108,928
204,246	-16,344	243,679	108,603
205,261	-16,608	243,213	108,169
206,275	-15,756	243,585	109,025
207,290	-11,193	245,142	113,482
208,304	-4,451	247,329	120,091
209,319	-0,918	248,209	123,448
210,334	0,001	248,621	124,407
211,348	0,974	248,706	125,248
212,363	1,347	248,817	125,604
213,377	1,730	248,766	125,885
214,392	2,054	248,777	126,149
215,407	2,292	248,612	126,252
216,421	2,500	248,444	126,328
217,436	2,596	248,147	126,245
218,450	2,371	248,098	126,023
219,465	2,268	247,868	125,810
220,480	2,041	247,780	125,565
221,494	1,867	247,305	125,170
222,509	1,778	247,077	124,970
223,523	1,397	246,843	124,526
224,538	1,280	246,690	124,341
225,553	1,234	246,574	124,234
226,567	1,194	246,245	124,024
227,582	1,099	246,174	123,900
228,596	1,228	246,025	123,919
229,611	1,224	245,885	123,835
230,626	1,267	245,788	123,810
231,640	1,074	245,534	123,513
232,655	1,249	245,334	123,545
233,669	1,011	245,110	123,225
234,684	0,944	245,114	123,162
235,699	1,164	244,777	123,161
236,713	1,383	244,786	123,334
237,728	1,322	244,473	123,116
238,742	1,397	244,256	123,056
239,757	1,182	244,301	122,892
240,772	1,198	244,133	122,810
241,786	1,404	243,838	122,819
242,801	1,236	243,815	122,660
243,815	1,293	243,585	122,579
244,830	1,119	243,485	122,376
245,844	1,215	243,342	122,371
246,859	1,356	243,156	122,382
247,874	1,197	242,921	122,123
248,888	1,237	242,905	122,137
249,903	1,130	242,725	121,948
250,917	1,302	242,598	122,013
251,932	1,241	242,514	121,911
252,947	1,401	242,264	121,904
253,961	1,150	242,142	121,629
254,976	1,402	241,841	121,670
255,990	1,221	241,679	121,431
257,005	1,237	241,619	121,404
258,020	1,100	241,502	121,224
259,034	1,257	241,202	121,189
260,049	1,454	241,007	121,238
261,063	1,230	240,955	121,021
262,078	1,456	240,667	121,047
263,093	1,342	240,605	120,913
264,107	1,213	240,390	120,691
265,122	1,104	240,404	120,600
266,136	1,266	240,149	120,591
267,151	1,285	239,956	120,499
268,166	1,113	239,828	120,286
269,180	1,188	239,649	120,246
270,195	1,214	239,497	120,179
271,209	1,357	239,253	120,160
272,224	1,433	239,252	120,209
273,239	1,311	238,956	119,953
274,253	1,426	238,779	119,945
275,268	1,207	238,744	119,743
276,282	1,362	238,522	119,743
277,297	1,259	238,444	119,612
278,312	1,427	238,261	119,643
279,326	1,257	238,028	119,381
280,341	1,428	238,007	119,495
281,355	1,336	237,856	119,335
282,370	1,327	237,611	119,195
283,384	1,166	237,374	118,939
284,399	1,300	237,360	119,026
285,414	1,314	237,099	118,896
286,428	1,327	237,090	118,891
287,443	1,347	236,939	118,821
288,457	1,374	236,761	118,742
289,472	1,281	236,541	118,548
290,487	1,101	236,447	118,349
291,501	1,159	236,414	118,367
292,516	1,189	236,180	118,263
293,530	1,252	236,053	118,238
294,545	1,192	236,029	118,169
295,560	1,343	235,617	118,070
296,574	1,358	235,607	118,066
297,589	1,303	235,376	117,897
298,603	1,338	235,325	117,888
299,618	1,479	235,007	117,828
300,633	1,405	235,073	117,793
301,647	1,447	234,909	117,733
302,662	1,652	234,548	117,701
303,676	1,416	234,445	117,456
304,691	1,355	234,438	117,394
305,706	1,490	234,321	117,430
306,720	1,480	234,166	117,334
307,735	1,460	233,980	117,215
308,749	1,660	233,800	117,269
309,764	1,448	233,533	116,961
310,779	1,500	233,446	116,947
311,793	1,366	233,283	116,751
312,808	1,251	233,147	116,584
313,822	1,461	232,837	116,581
314,837	1,430	232,922	116,588
315,852	1,542	232,754	116,581
316,866	1,391	232,722	116,438
317,881	1,634	232,451	116,479
318,895	1,575	232,319	116,357
319,910	1,432	232,187	116,171
320,925	1,541	231,970	116,136
321,939	1,310	231,849	115,887
322,954	1,216	231,811	115,785
323,968	1,405	231,539	115,784
324,983	1,500	231,326	115,740
325,997	1,551	231,207	115,709
327,012	1,341	231,110	115,490
328,027	1,402	230,904	115,423
329,041	1,389	230,868	115,386
330,056	1,303	230,751	115,250
331,070	1,287	230,599	115,153
332,085	1,401	230,377	115,118
333,100	1,304	230,174	114,932
334,114	1,276	230,042	114,835
335,129	1,463	229,845	114,869
336,143	1,524	229,682	114,823
337,158	1,465	229,694	114,775
338,173	1,355	229,475	114,571
339,187	1,378	229,394	114,537
340,202	1,514	229,250	114,559
341,216	1,640	228,941	114,490
342,231	1,575	228,900	114,410
343,246	1,622	228,668	114,319
344,260	1,509	228,576	114,177
345,275	1,727	228,400	114,244
346,289	1,583	228,288	114,069
347,304	1,711	228,021	114,022
348,319	1,698	227,935	113,959
349,333	1,544	227,866	113,799
350,348	1,308	227,685	113,520
351,362	1,564	227,629	113,675
352,377	1,796	227,356	113,702
353,392	1,696	227,269	113,574
354,406	1,510	227,193	113,386
355,421	192,894	1312,536	1381,588
356,435	154,596	1444,650	1381,472
