DTS Sentinel unit serial number:	SN410029Multiplexer serial number:	ORYXHardware model number:	OX2-SRSoftware version number:	ORYX F/W v4,00 Oryx Data Collector v3.7.2.0data status	okinstallation	B5 Nyhavnadifferential loss correction	single-endedforward channel	channel 2reverse channel	N/Adate	2023/12/13time	15:47:13forward acquisition time	300,00reverse acquisition time	0,00gamma	499,1914k internal	0,3160k external	0,3160temperature offset calibration	1,0000default loss term (dB/km)	0,3820temperature slope calibration	1,0000multiplexer offset coefficient	1,0000multiplexer slope coefficient	1,0000fibre end	0,00T internal ref (°C)	14,93T ext. ref 1 (°C)	-1,48T ext. ref 2 (°C)	-1,80length (m)	temperature (°C)	Stokes	anti-Stokes-744,400	-200,000	0,028	0,171
-743,385	-88,816	-0,284	0,062
-742,371	450,957	0,109	0,178
-741,356	-106,799	-0,284	-0,046
-740,342	-144,639	0,114	0,008
-739,327	-77,569	-0,370	0,094
-738,312	-97,947	0,076	-0,014
-737,298	-106,712	-0,403	-0,065
-736,283	115,458	0,125	-0,112
-735,269	-61,791	-0,204	0,063
-734,254	293,690	0,134	0,181
-733,239	-95,291	-0,429	-0,084
-732,225	-118,269	0,174	0,023
-731,210	-200,000	0,004	-0,067
-730,196	-105,371	-0,063	-0,010
-729,181	459,441	0,052	0,085
-728,167	-137,466	0,043	0,004
-727,152	-200,000	0,006	-0,130
-726,137	47,038	-0,069	-0,047
-725,123	-56,380	-0,232	-0,075
-724,108	-200,000	-0,008	-0,138
-723,094	-90,678	-0,120	0,025
-722,079	443,772	-0,090	0,146
-721,064	-43,722	-0,125	0,046
-720,050	-64,102	0,080	-0,024
-719,035	-124,771	-0,092	-0,010
-718,021	-4,614	0,026	-0,013
-717,006	-75,117	-0,150	-0,039
-715,991	-130,958	-0,092	0,009
-714,977	81,373	-0,133	-0,106
-713,962	349,901	-0,028	-0,041
-712,948	800,000	0,029	-0,070
-711,933	-146,296	-0,042	-0,003
-710,918	434,351	-0,017	0,027
-709,904	-40,273	-0,070	-0,027
-708,889	-200,000	-0,034	-0,143
-707,875	571,837	0,028	-0,051
-706,860	-200,000	0,026	0,135
-705,845	-200,000	-0,024	0,182
-704,831	267,776	-0,103	-0,133
-703,816	143,090	-0,085	0,084
-702,802	800,000	-0,069	-0,192
-701,787	507,251	-0,068	0,116
-700,772	-200,000	-0,035	0,144
-699,758	-200,000	-0,002	0,013
-698,743	-69,766	-0,124	-0,034
-697,729	348,723	0,094	0,137
-696,714	72,064	-0,135	0,103
-695,699	800,000	0,011	0,029
-694,685	196,543	-0,071	0,079
-693,670	-200,000	-0,027	0,130
-692,656	-116,261	-0,061	0,008
-691,641	535,100	-0,022	-0,039
-690,627	800,000	0,025	0,056
-689,612	800,000	0,070	0,174
-688,597	-39,680	-0,049	-0,019
-687,583	-200,000	0,009	-0,057
-686,568	-200,000	0,020	-0,137
-685,554	800,000	-0,053	-0,128
-684,539	75,685	0,088	0,068
-683,524	-200,000	0,026	0,103
-682,510	-55,382	0,016	0,005
-681,495	-200,000	-0,015	-0,097
-680,481	-21,637	-0,234	-0,104
-679,466	-13,734	-0,030	-0,014
-678,451	616,159	0,059	0,109
-677,437	8,383	0,058	-0,032
-676,422	-139,624	0,074	0,006
-675,408	-112,722	-0,095	0,014
-674,393	106,856	-0,039	0,034
-673,378	800,000	0,061	0,133
-672,364	16,447	-0,096	-0,056
-671,349	99,906	-0,066	-0,056
-670,335	389,325	0,033	0,050
-669,320	-200,000	-0,010	0,032
-668,305	70,782	0,039	-0,029
-667,291	-62,663	-0,007	-0,002
-666,276	256,864	0,041	0,052
-665,262	-75,420	-0,100	-0,026
-664,247	162,716	-0,064	0,066
-663,232	-62,706	0,124	0,037
-662,218	332,246	-0,018	-0,026
-661,203	-137,992	0,120	0,010
-660,189	248,621	-0,124	0,154
-659,174	516,241	0,015	-0,026
-658,159	-200,000	-0,023	-0,101
-657,145	-200,000	-0,023	-0,141
-656,130	10,020	-0,122	-0,068
-655,116	-183,729	0,173	-0,002
-654,101	98,596	0,076	0,064
-653,086	-79,745	-0,083	0,020
-652,072	-29,401	-0,108	-0,045
-651,057	215,243	0,079	-0,093
-650,043	218,453	-0,031	0,036
-649,028	800,000	-0,021	-0,063
-648,014	297,762	-0,022	0,030
-646,999	-200,000	-0,052	0,179
-645,984	-200,000	-0,012	-0,097
-644,970	-23,466	-0,136	-0,060
-643,955	73,476	-0,090	-0,069
-642,941	-115,347	-0,116	0,016
-641,926	209,860	0,045	0,052
-640,911	179,973	0,106	-0,114
-639,897	-50,768	0,207	0,071
-638,882	-0,837	-0,120	-0,062
-637,868	13,838	-0,141	0,080
-636,853	800,000	0,042	-0,127
-635,838	-200,000	-0,029	-0,205
-634,824	58,622	0,046	0,033
-633,809	-93,499	-0,020	0,004
-632,795	628,132	-0,019	-0,035
-631,780	167,319	0,021	0,022
-630,765	157,169	0,080	0,081
-629,751	166,646	-0,047	0,049
-628,736	110,330	-0,077	-0,068
-627,722	106,286	-0,065	-0,057
-626,707	800,000	0,048	0,098
-625,692	42,975	-0,080	0,053
-624,678	368,096	0,038	0,056
-623,663	469,803	-0,057	0,094
-622,649	218,848	-0,087	0,102
-621,634	-200,000	-0,019	-0,094
-620,619	259,007	-0,095	-0,120
-619,605	-9,754	0,022	-0,011
-618,590	89,365	-0,092	0,075
-617,576	800,000	0,033	0,086
-616,561	-91,640	0,041	0,008
-615,546	133,294	-0,113	-0,107
-614,532	-200,000	-0,003	-0,053
-613,517	-28,539	0,115	-0,048
-612,503	-39,976	0,094	-0,036
-611,488	-8,169	0,047	0,023
-610,474	7,811	0,092	-0,050
-609,459	17,119	0,077	0,045
-608,444	-97,443	0,052	0,010
-607,430	321,367	-0,067	0,094
-606,415	-200,000	-0,008	-0,027
-605,401	151,202	-0,124	-0,124
-604,386	800,000	-0,019	0,047
-603,371	256,650	0,047	0,059
-602,357	48,708	-0,091	-0,062
-601,342	-14,881	0,010	0,005
-600,328	800,000	0,055	-0,172
-599,313	255,326	0,033	-0,041
-598,298	-189,164	-0,069	0,001
-597,284	-41,928	-0,111	0,042
-596,269	91,827	-0,127	0,105
-595,255	-149,341	-0,167	0,010
-594,240	-200,000	-0,035	-0,149
-593,225	-200,000	-0,004	-0,013
-592,211	31,054	-0,098	-0,062
-591,196	-200,000	0,021	0,161
-590,182	-94,590	0,077	0,015
-589,167	-200,000	0,006	0,048
-588,152	186,158	-0,068	0,075
-587,138	363,707	-0,021	0,031
-586,123	712,578	-0,045	0,088
-585,109	-156,536	0,088	-0,004
-584,094	146,247	-0,035	-0,034
-583,079	-200,000	0,014	0,074
-582,065	-200,000	0,001	0,193
-581,050	-80,348	0,070	0,017
-580,036	-200,000	-0,025	0,103
-579,021	128,869	-0,002	-0,002
-578,006	135,145	-0,133	-0,127
-576,992	21,949	0,050	-0,030
-575,977	-42,448	0,021	0,008
-574,963	-35,165	0,196	0,078
-573,948	9,999	0,072	-0,040
-572,934	800,000	-0,028	-0,090
-571,919	-200,000	-0,004	-0,051
-570,904	-200,000	-0,015	-0,071
-569,890	-119,085	0,154	-0,019
-568,875	-105,991	-0,072	0,012
-567,861	221,210	0,044	0,051
-566,846	3,792	-0,122	-0,065
-565,831	-101,858	0,080	-0,014
-564,817	394,065	0,078	0,119
-563,802	158,335	-0,052	-0,053
-562,788	-72,004	-0,077	-0,021
-561,773	76,730	-0,151	0,117
-560,758	-200,000	-0,008	-0,058
-559,744	143,193	0,076	-0,074
-558,729	-25,163	0,065	-0,028
-557,715	301,083	-0,118	-0,160
-556,700	158,443	0,097	-0,098
-555,685	-200,000	0,007	0,058
-554,671	631,072	-0,040	0,074
-553,656	-60,751	-0,105	-0,032
-552,642	217,893	-0,083	0,096
-551,627	30,937	0,080	0,050
-550,612	800,000	0,075	-0,165
-549,598	-63,184	0,022	0,007
-548,583	-12,568	0,086	-0,041
-547,569	-57,017	-0,135	0,043
-546,554	21,825	-0,150	0,089
-545,539	205,783	0,029	-0,033
-544,525	29,337	-0,059	-0,036
-543,510	800,000	0,027	-0,058
-542,496	-200,000	0,006	-0,090
-541,481	-200,000	-0,062	-0,201
-540,466	604,786	0,026	-0,047
-539,452	175,149	0,136	0,144
-538,437	-200,000	0,008	0,148
-537,423	-13,848	0,142	0,067
-536,408	-200,000	0,003	0,053
-535,393	12,818	-0,097	-0,055
-534,379	-187,400	-0,040	0,000
-533,364	-200,000	0,004	-0,133
-532,350	-200,000	-0,007	0,107
-531,335	344,277	0,117	0,168
-530,321	43,252	-0,081	-0,054
-529,306	17,740	-0,015	0,009
-528,291	-200,000	0,026	0,101
-527,277	800,000	0,035	-0,091
-526,262	-104,119	0,158	0,027
-525,248	-127,020	0,167	-0,018
-524,233	24,237	-0,083	-0,050
-523,218	-42,897	0,082	-0,030
-522,204	800,000	-0,022	-0,050
-521,189	115,143	0,041	-0,037
-520,175	-200,000	0,007	-0,062
-519,160	-67,879	-0,072	-0,020
-518,145	-200,000	-0,008	0,075
-517,131	-96,366	-0,203	0,039
-516,116	-109,940	0,054	0,008
-515,102	800,000	-0,031	0,090
-514,087	800,000	0,019	-0,048
-513,072	32,784	-0,064	-0,040
-512,058	557,891	-0,013	0,023
-511,043	22,743	-0,043	0,026
-510,029	800,000	0,017	0,048
-509,014	201,904	0,068	0,077
-507,999	-200,000	-0,025	0,142
-506,985	-200,000	0,001	0,108
-505,970	-93,210	-0,101	-0,020
-504,956	800,000	-0,031	-0,068
-503,941	389,260	0,045	-0,068
-502,926	-200,000	-0,014	-0,068
-501,912	77,391	0,106	0,082
-500,897	-200,000	-0,026	0,140
-499,883	-62,754	-0,011	0,003
-498,868	-200,000	-0,021	0,118
-497,853	-8,914	0,082	-0,040
-496,839	-75,897	-0,111	0,029
-495,824	111,760	0,105	0,092
-494,810	215,322	0,020	-0,023
-493,795	-42,251	0,098	-0,036
-492,781	104,477	0,108	0,092
-491,766	-74,695	-0,052	-0,013
-490,751	225,825	-0,044	0,052
-489,737	127,183	0,040	-0,037
-488,722	-94,228	0,059	0,012
-487,708	-200,000	0,003	-0,038
-486,693	513,124	0,040	-0,068
-485,678	800,000	-0,016	0,047
-484,664	286,091	-0,048	-0,064
-483,649	-42,309	0,043	-0,016
-482,635	494,448	0,030	-0,050
-481,620	322,207	0,049	0,069
-480,605	-59,937	0,120	0,037
-479,591	315,013	0,024	0,033
-478,576	-86,873	0,078	0,017
-477,562	105,854	0,005	0,004
-476,547	-125,577	-0,209	0,023
-475,532	-117,831	-0,128	0,017
-474,518	122,549	0,052	0,048
-473,503	-44,601	-0,115	-0,042
-472,489	-119,161	-0,121	-0,015
-471,474	800,000	-0,057	-0,122
-470,459	-200,000	-0,013	-0,134
-469,445	-200,000	0,042	-0,156
-468,430	-200,000	0,007	-0,162
-467,416	272,101	0,006	-0,008
-466,401	125,467	0,093	0,085
-465,386	217,934	-0,092	0,108
-464,372	-41,860	-0,110	0,041
-463,357	227,781	-0,089	-0,106
-462,343	580,540	-0,081	-0,144
-461,328	232,173	0,014	-0,016
-460,313	-200,000	0,013	0,117
-459,299	800,000	-0,037	-0,111
-458,284	-89,936	-0,097	0,020
-457,270	197,414	0,034	0,037
-456,255	-113,978	-0,070	0,010
-455,241	-101,681	-0,142	-0,025
-454,226	-200,000	-0,004	-0,090
-453,211	-163,717	0,017	-0,001
-452,197	180,224	-0,120	0,129
-451,182	147,832	-0,015	-0,015
-450,168	-73,408	0,073	-0,019
-449,153	-200,000	0,003	-0,096
-448,138	800,000	0,041	-0,119
-447,124	-200,000	-0,011	-0,083
-446,109	800,000	-0,025	-0,069
-445,095	-200,000	0,007	-0,062
-444,080	-72,590	0,044	0,012
-443,065	44,944	0,044	0,029
-442,051	48,150	0,142	0,096
-441,036	57,326	-0,060	-0,042
-440,022	-200,000	0,018	-0,211
-439,007	35,568	-0,121	0,077
-437,992	-84,546	-0,124	-0,028
-436,978	-200,000	0,007	-0,104
-435,963	800,000	0,049	0,154
-434,949	-200,000	-0,003	-0,151
-433,934	-43,424	-0,072	-0,026
-432,919	-23,213	-0,162	-0,070
-431,905	685,755	-0,076	-0,145
-430,890	-200,000	0,009	-0,147
-429,876	-200,000	0,001	-0,034
-428,861	-200,000	0,006	-0,028
-427,846	428,278	0,070	0,111
-426,832	73,224	-0,159	-0,121
-425,817	-2,570	-0,126	-0,064
-424,803	108,672	0,115	-0,100
-423,788	53,545	0,049	0,034
-422,773	-117,331	0,080	0,010
-421,759	507,668	0,030	0,051
-420,744	-200,000	0,021	-0,095
-419,730	-67,749	-0,113	0,032
-418,715	-4,700	0,112	-0,056
-417,701	79,535	-0,136	0,106
-416,686	-156,503	0,108	0,005
-415,671	800,000	0,057	0,182
-414,657	-21,124	-0,063	0,028
-413,642	-51,597	-0,082	0,028
-412,628	-78,148	-0,081	-0,020
-411,613	614,633	-0,029	-0,053
-410,598	571,137	-0,011	-0,019
-409,584	698,031	0,059	-0,114
-408,569	365,363	-0,068	-0,100
-407,555	-200,000	-0,017	0,169
-406,540	49,790	0,116	-0,079
-405,525	252,767	0,083	0,104
-404,511	32,556	-0,027	-0,017
-403,496	56,659	0,118	0,083
-402,482	104,557	-0,026	0,023
-401,467	-200,000	0,018	-0,099
-400,452	192,561	0,111	0,122
-399,438	-73,813	-0,042	-0,011
-398,423	800,000	-0,019	0,049
-397,409	-200,000	0,005	-0,121
-396,394	-51,130	0,105	-0,036
-395,379	-32,654	-0,072	-0,029
-394,365	-3,176	0,134	-0,068
-393,350	-29,950	0,065	0,027
-392,336	109,949	-0,074	0,064
-391,321	-200,000	0,001	-0,171
-390,306	312,949	-0,086	-0,117
-389,292	-200,000	0,013	0,102
-388,277	800,000	0,018	0,057
-387,263	22,293	0,067	0,039
-386,248	677,715	-0,030	-0,057
-385,233	267,826	0,047	-0,059
-384,219	-131,791	0,044	-0,004
-383,204	-53,078	-0,149	0,050
-382,190	-200,000	-0,035	0,130
-381,175	-98,914	0,146	-0,027
-380,160	-94,320	0,055	0,011
-379,146	210,572	0,075	-0,085
-378,131	-32,553	0,115	-0,046
-377,117	-145,220	-0,136	0,009
-376,102	50,381	-0,021	0,015
-375,088	714,933	-0,027	-0,052
-374,073	124,562	0,079	-0,072
-373,058	364,197	-0,079	0,116
-372,044	54,441	-0,122	0,085
-371,029	-200,000	0,013	0,045
-370,015	210,275	-0,016	0,018
-369,000	-200,000	0,021	-0,095
-367,985	-200,000	-0,018	0,087
-366,971	-3,847	0,116	0,058
-365,956	334,694	0,054	0,077
-364,942	-13,543	0,071	0,033
-363,927	-200,000	0,000	-0,065
-362,912	146,569	0,065	0,064
-361,898	800,000	0,042	0,109
-360,883	-14,405	-0,039	-0,018
-359,869	192,753	-0,040	-0,044
-358,854	30,951	-0,048	0,030
-357,839	-115,401	0,048	0,006
-356,825	423,261	-0,038	0,060
-355,810	138,500	-0,024	-0,023
-354,796	-200,000	-0,036	-0,200
-353,781	-200,000	-0,003	-0,058
-352,766	107,312	0,030	0,026
-351,752	800,000	-0,027	-0,074
-350,737	-200,000	-0,028	0,143
-349,723	-95,866	0,121	0,023
-348,708	-19,599	0,020	0,009
-347,693	-200,000	-0,017	0,090
-346,679	-85,142	-0,042	-0,009
-345,664	-30,042	-0,107	-0,044
-344,650	-163,744	-0,050	-0,002
-343,635	-200,000	-0,001	0,125
-342,620	160,069	0,060	-0,060
-341,606	-80,308	-0,135	-0,033
-340,591	-200,000	-0,032	0,103
-339,577	-147,487	-0,092	-0,006
-338,562	800,000	-0,018	-0,058
-337,548	-200,000	0,015	0,061
-336,533	260,458	-0,025	0,031
-335,518	-127,172	0,088	-0,009
-334,504	-200,000	0,059	0,216
-333,489	10,684	0,057	-0,032
-332,475	-50,891	-0,031	-0,011
-331,460	75,324	0,096	0,074
-330,445	-82,851	-0,041	-0,009
-329,431	394,114	0,073	-0,111
-328,416	53,893	-0,025	-0,017
-327,402	-200,000	0,027	0,103
-326,387	-200,000	-0,011	-0,051
-325,372	-200,000	-0,098	0,000
-324,358	800,000	-0,115	-0,236
-323,343	123,799	-0,094	-0,086
-322,329	-150,930	0,179	0,010
-321,314	-89,707	0,081	0,017
-320,299	-200,000	0,026	-0,106
-319,285	-77,139	0,128	0,032
-318,270	-200,000	-0,017	-0,129
-317,256	-200,000	0,002	-0,162
-316,241	800,000	-0,071	-0,205
-315,226	641,760	0,037	0,068
-314,212	66,644	0,109	0,080
-313,197	-200,000	-0,006	-0,064
-312,183	373,557	0,085	-0,125
-311,168	142,755	-0,104	-0,100
-310,153	-124,146	-0,090	-0,010
-309,139	-200,000	0,028	0,179
-308,124	495,806	-0,061	0,102
-307,110	36,562	-0,120	0,076
-306,095	-149,529	0,127	0,007
-305,080	-200,000	-0,008	-0,145
-304,066	184,910	-0,032	-0,035
-303,051	73,609	-0,081	0,062
-302,037	-82,997	-0,088	0,020
-301,022	79,752	-0,070	-0,054
-300,008	800,000	0,060	-0,126
-298,993	-11,045	-0,094	0,045
-297,978	-200,000	-0,004	-0,071
-296,964	474,010	-0,071	0,116
-295,949	800,000	-0,020	-0,044
-294,935	312,429	0,040	0,054
-293,920	44,635	0,079	0,053
-292,905	-93,926	0,033	-0,006
-291,891	800,000	0,030	-0,073
-290,876	71,088	0,074	-0,056
-289,862	-200,000	-0,003	0,098
-288,847	-200,000	0,033	-0,199
-287,832	82,597	-0,074	0,058
-286,818	-55,017	0,084	0,027
-285,803	800,000	0,005	-0,015
-284,789	-38,825	-0,041	-0,015
-283,774	-200,000	0,021	0,101
-282,759	-194,559	0,027	-0,000
-281,745	127,067	-0,018	-0,016
-280,730	-159,845	-0,023	-0,001
-279,716	800,000	0,008	-0,022
-278,701	634,530	-0,074	-0,136
-277,686	325,444	0,033	0,046
-276,672	14,854	-0,120	0,068
-275,657	344,990	-0,070	0,100
-274,643	-200,000	-0,009	0,029
-273,628	-200,000	0,013	-0,095
-272,613	356,354	-0,112	-0,162
-271,599	-200,000	-0,008	0,095
-270,584	800,000	0,062	0,168
-269,570	-67,438	-0,051	-0,014
-268,555	-118,261	0,067	-0,009
-267,540	45,824	0,056	-0,038
-266,526	800,000	-0,040	0,105
-265,511	202,533	0,006	0,007
-264,497	-77,661	0,049	0,012
-263,482	-119,864	0,064	0,008
-262,467	11,871	0,163	0,090
-261,453	756,624	-0,084	0,166
-260,438	800,000	0,006	0,014
-259,424	-19,553	0,022	0,010
-258,409	67,054	0,144	-0,106
-257,395	208,195	0,058	-0,065
-256,380	-141,673	0,135	-0,010
-255,365	479,226	-0,134	0,220
-254,351	35,279	-0,070	-0,044
-253,336	-200,000	-0,005	-0,122
-252,322	-200,000	-0,009	-0,060
-251,307	-200,000	-0,040	-0,137
-250,292	800,000	0,028	0,075
-249,278	-200,000	0,004	0,103
-248,263	-67,642	-0,124	0,035
-247,249	131,678	0,035	-0,032
-246,234	800,000	-0,066	0,173
-245,219	800,000	-0,037	0,079
-244,205	-117,947	-0,064	0,008
-243,190	125,360	0,090	0,082
-242,176	-173,455	-0,098	-0,002
-241,161	-162,140	0,096	-0,003
-240,146	800,000	0,067	0,158
-239,132	-43,480	-0,126	0,046
-238,117	33,338	-0,062	-0,039
-237,103	-137,095	0,091	-0,007
-236,088	71,210	-0,115	-0,086
-235,073	103,329	0,130	0,110
-234,059	800,000	0,045	0,110
-233,044	-65,676	-0,101	0,029
-232,030	23,120	0,102	-0,060
-231,015	800,000	0,023	-0,047
-230,000	-200,000	-0,000	-0,044
-228,986	-200,000	-0,012	0,061
-227,971	88,534	0,023	0,018
-226,957	679,381	0,044	0,083
-225,942	800,000	0,054	0,125
-224,927	145,335	0,113	-0,109
-223,913	481,539	0,038	-0,063
-222,898	56,610	-0,092	-0,064
-221,884	-200,000	0,010	0,046
-220,869	33,574	-0,070	0,044
-219,855	266,582	0,058	0,074
-218,840	419,677	0,026	-0,040
-217,825	-104,214	0,126	-0,021
-216,811	-200,000	0,021	-0,093
-215,796	49,627	-0,100	-0,068
-214,782	-200,000	0,003	0,021
-213,767	-200,000	-0,006	0,180
-212,752	73,048	0,154	-0,116
-211,738	15,566	-0,042	0,023
-210,723	-37,449	0,102	0,039
-209,709	-200,000	0,012	0,120
-208,694	144,336	-0,061	-0,058
-207,679	25,180	-0,072	0,043
-206,665	581,242	0,062	-0,110
-205,650	181,794	0,040	0,042
-204,636	800,000	0,048	0,112
-203,621	240,161	-0,049	-0,060
-202,606	-200,000	-0,001	-0,017
-201,592	-87,754	0,223	0,048
-200,577	-200,000	-0,004	-0,063
-199,563	327,421	-0,038	0,053
-198,548	606,406	0,062	0,112
-197,533	-104,199	-0,125	0,021
-196,519	15,491	0,024	0,014
-195,504	-4,276	0,091	-0,045
-194,490	-88,843	0,037	0,008
-193,475	59,378	-0,019	0,014
-192,460	282,812	-0,089	-0,115
-191,446	-55,961	0,184	0,059
-190,431	800,000	-0,017	-0,055
-189,417	-200,000	0,025	0,098
-188,402	-36,228	0,153	-0,059
-187,387	-26,184	0,028	0,012
-186,373	-200,000	0,026	0,179
-185,358	26,854	0,087	-0,052
-184,344	-200,000	0,003	0,134
-183,329	-200,000	0,000	-0,000
-182,315	-200,000	0,016	-0,103
-181,300	312,736	0,057	-0,078
-180,285	-154,873	0,161	-0,008
-179,271	-200,000	-0,002	-0,018
-178,256	-74,319	-0,124	0,032
-177,242	-200,000	0,004	-0,057
-176,227	221,726	0,097	0,113
-175,212	166,955	0,103	0,105
-174,198	20,177	0,084	-0,049
-173,183	-133,928	-0,200	0,018
-172,169	-200,000	0,021	-0,067
-171,154	-51,824	0,130	0,043
-170,139	-200,000	0,002	-0,019
-169,125	94,019	-0,090	-0,073
-168,110	748,789	0,031	0,060
-167,096	-200,000	0,005	0,130
-166,081	-25,219	-0,116	0,049
-165,066	800,000	0,023	0,051
-164,052	-65,810	0,145	0,042
-163,037	-43,397	0,054	-0,019
-162,023	-200,000	-0,017	0,061
-161,008	116,819	0,065	-0,057
-159,993	-200,000	0,009	-0,037
-158,979	17,060	-0,119	0,068
-157,964	47,650	-0,059	-0,040
-156,950	-200,000	0,005	0,023
-155,935	265,826	0,042	0,053
-154,920	-79,280	0,105	-0,025
-153,906	65,480	0,063	0,046
-152,891	-79,088	-0,168	-0,041
-151,877	-100,428	-0,088	0,015
-150,862	94,109	0,066	-0,054
-149,847	661,879	0,066	0,124
-148,833	64,911	-0,029	-0,021
-147,818	-200,000	-0,031	0,132
-146,804	358,365	0,056	0,081
-145,789	-55,811	0,051	-0,016
-144,775	-76,527	-0,102	0,026
-143,760	-44,316	0,058	-0,021
-142,745	-141,598	-0,067	0,005
-141,731	248,172	0,059	-0,072
-140,716	-95,174	-0,052	-0,010
-139,702	800,000	0,038	0,118
-138,687	800,000	-0,047	0,106
-137,672	800,000	-0,015	-0,042
-136,658	3,816	-0,116	0,061
-135,643	800,000	-0,037	-0,091
-134,629	-35,870	0,044	0,017
-133,614	-28,887	0,134	-0,055
-132,599	800,000	0,017	-0,053
-131,585	67,016	-0,074	0,054
-130,570	-44,693	-0,070	-0,025
-129,556	-200,000	0,066	-0,222
-128,541	220,335	-0,072	0,084
-127,526	-117,505	-0,017	0,002
-126,512	147,838	0,028	0,027
-125,497	-200,000	-0,017	-0,056
-124,483	-200,000	-0,001	0,036
-123,468	-9,632	-0,087	0,042
-122,453	-200,000	0,006	-0,022
-121,439	229,727	0,058	-0,068
-120,424	496,078	0,067	-0,111
-119,410	-9,609	0,041	-0,019
-118,395	-1,277	0,061	0,031
-117,380	-15,184	0,126	-0,058
-116,366	220,796	0,068	0,078
-115,351	-81,032	-0,153	-0,036
-114,337	40,392	-0,084	-0,054
-113,322	800,000	0,033	0,066
-112,307	-200,000	0,002	0,022
-111,293	-29,208	-0,015	-0,006
-110,278	800,000	-0,040	-0,103
-109,264	800,000	-0,040	0,094
-108,249	224,325	-0,067	0,078
-107,234	83,854	0,066	0,052
-106,220	196,663	-0,107	-0,117
-105,205	-2,814	-0,016	-0,008
-104,191	234,153	-0,079	-0,093
-103,176	265,046	-0,098	0,122
-102,162	-124,966	-0,029	0,003
-101,147	264,898	0,042	-0,052
-100,132	86,553	-0,048	-0,038
-99,118	800,000	-0,064	0,137
-98,103	-166,928	0,107	0,003
-97,089	-200,000	0,018	-0,077
-96,074	327,315	-0,027	-0,037
-95,059	-200,000	-0,008	0,103
-94,045	-128,833	-0,032	-0,003
-93,030	800,000	-0,012	-0,031
-92,016	303,275	-0,111	-0,148
-91,001	800,000	0,020	-0,060
-89,986	250,552	0,076	0,093
-88,972	-200,000	-0,001	0,042
-87,957	-200,000	0,022	-0,122
-86,943	208,978	0,087	0,098
-85,928	-39,337	-0,120	0,045
-84,913	-200,000	0,052	-0,166
-83,899	-60,835	-0,192	-0,058
-82,884	103,392	0,136	0,115
-81,870	-200,000	0,017	0,247
-80,855	800,000	0,050	0,111
-79,840	-17,875	-0,038	0,017
-78,826	655,843	-0,041	-0,076
-77,811	-105,531	-0,051	0,008
-76,797	-72,803	0,036	0,010
-75,782	-200,000	0,021	-0,109
-74,767	20,691	-0,070	0,040
-73,753	303,492	-0,019	-0,025
-72,738	800,000	0,052	0,129
-71,724	483,103	-0,044	0,072
-70,709	-200,000	-0,028	-0,157
-69,694	-200,000	0,004	0,058
-68,680	161,736	-0,069	0,069
-67,665	186,637	-0,125	-0,133
-66,651	-200,000	0,028	0,156
-65,636	62,116	0,120	-0,085
-64,622	119,807	-0,078	0,069
-63,607	-155,443	-0,070	0,003
-62,592	58,116	0,121	0,085
-61,578	83,162	0,106	0,082
-60,563	800,000	-0,040	0,117
-59,549	148,979	-0,112	0,108
-58,534	4,148	-2,146	-1,123
-57,519	800,000	-0,385	-0,836
-56,505	-200,000	-1,259	-5,034
-55,490	143,829	0,715	0,684
-54,476	800,000	5,243	12,007
-53,461	-200,000	17,736	289,815
-52,446	800,000	729,524	2231,296
-51,432	536,281	1645,377	2811,906
-50,417	109,445	1635,583	1404,696
-49,403	75,049	1287,223	971,787
-48,388	31,587	1027,502	632,244
-47,373	20,147	989,108	570,926
-46,359	18,258	976,866	557,650
-45,344	15,272	972,971	545,641
-44,330	15,446	971,629	545,436
-43,315	15,041	969,496	542,895
-42,300	14,936	968,508	541,976
-41,286	14,927	967,592	541,415
-40,271	14,904	966,700	540,817
-39,257	14,950	965,644	540,356
-38,242	14,966	964,796	539,911
-37,227	14,957	963,903	539,363
-36,213	14,979	962,984	538,896
-35,198	14,903	962,249	538,219
-34,184	15,009	961,535	538,141
-33,169	14,853	960,514	537,046
-32,154	14,954	959,505	536,784
-31,140	14,938	958,547	536,177
-30,125	15,004	957,707	535,899
-29,111	14,975	956,947	535,357
-28,096	14,942	956,382	534,913
-27,082	14,985	955,596	534,592
-26,067	14,951	955,123	534,195
-25,052	14,934	954,297	533,658
-24,038	14,969	953,564	533,338
-23,023	14,970	952,899	532,950
-22,009	15,029	952,378	532,827
-20,994	14,968	951,721	532,243
-19,979	14,990	950,982	531,879
-18,965	14,977	950,344	531,459
-17,950	14,964	949,734	531,054
-16,936	14,933	949,071	530,565
-15,921	14,923	948,372	530,120
-14,906	14,909	947,793	529,730
-13,892	14,833	946,992	529,020
-12,877	14,873	946,366	528,776
-11,863	14,839	945,821	528,345
-10,848	14,923	945,173	528,228
-9,833	14,972	944,822	528,167
-8,819	14,901	944,220	527,584
-7,804	14,884	943,544	527,129
-6,790	14,855	942,983	526,703
-5,775	14,900	942,401	526,502
-4,760	14,898	941,771	526,123
-3,746	14,844	941,138	525,575
-2,731	14,736	940,294	524,743
-1,717	14,715	939,850	524,407
-0,702	14,728	939,101	524,010
0,313	14,543	938,384	523,818
1,327	17,580	936,420	532,235
2,342	26,246	792,800	473,522
3,356	22,984	457,673	268,360
4,371	-3,796	313,821	155,604
5,386	-7,673	295,713	142,697
6,400	-9,719	289,635	137,725
7,415	-10,089	287,256	136,218
8,429	-10,341	285,681	135,213
9,444	-10,435	284,785	134,685
10,459	-10,199	283,939	134,503
11,473	-10,437	283,620	134,108
12,488	-10,298	283,146	134,007
13,502	-10,331	282,620	133,714
14,517	-10,364	282,128	133,437
15,531	-10,153	281,525	133,344
16,546	-10,302	281,365	133,113
17,561	-10,393	280,886	132,787
18,575	-10,323	280,424	132,624
19,590	-10,417	280,251	132,440
20,604	-10,301	279,943	132,394
21,619	-10,396	279,493	132,079
22,634	-10,255	279,228	132,077
23,648	-10,333	278,781	131,779
24,663	-10,441	278,716	131,633
25,677	-10,213	278,159	131,575
26,692	-10,345	278,124	131,421
27,707	-10,285	277,849	131,336
28,721	-10,369	277,476	131,069
29,736	-10,397	277,153	130,878
30,750	-10,326	277,025	130,873
31,765	-10,517	276,805	130,578
32,780	-10,356	276,412	130,532
33,794	-10,530	276,333	130,319
34,809	-10,404	276,081	130,307
35,823	-10,338	275,624	130,142
36,838	-10,339	275,426	130,036
37,853	-10,432	275,291	129,873
38,867	-10,360	274,901	129,745
39,882	-10,516	274,911	129,592
40,896	-10,244	274,432	129,610
41,911	-10,519	274,372	129,313
42,926	-10,496	274,028	129,160
43,940	-10,551	273,943	129,057
44,955	-10,487	273,568	128,928
45,969	-10,596	273,341	128,709
46,984	-10,671	273,089	128,509
47,999	-10,698	272,757	128,316
49,013	-11,010	272,484	127,886
50,028	-10,984	272,312	127,818
51,042	-11,095	271,993	127,554
52,057	-11,203	271,746	127,326
53,071	-11,113	271,596	127,329
54,086	-10,990	271,369	127,324
55,101	-10,740	271,221	127,474
56,115	-10,496	270,920	127,547
57,130	-10,378	271,031	127,697
58,144	-10,167	270,718	127,733
59,159	-10,163	270,538	127,640
60,174	-10,149	270,161	127,464
61,188	-10,158	270,030	127,382
62,203	-10,199	269,763	127,207
63,217	-10,184	269,511	127,091
64,232	-10,379	269,447	126,870
65,247	-10,198	269,161	126,890
66,261	-10,552	268,946	126,454
67,276	-10,417	268,708	126,453
68,290	-10,525	268,305	126,154
69,305	-10,801	268,115	125,802
70,320	-10,753	267,903	125,735
71,334	-10,406	267,887	126,032
72,349	-10,396	267,575	125,884
73,363	-10,200	267,382	125,960
74,378	-10,100	266,958	125,839
75,393	-10,183	266,974	125,761
76,407	-10,159	266,701	125,642
77,422	-10,381	266,521	125,346
78,436	-10,367	266,373	125,277
79,451	-10,197	266,091	125,287
80,466	-10,232	265,849	125,130
81,480	-10,429	265,604	124,826
82,495	-10,293	265,306	124,797
83,509	-10,303	265,178	124,717
84,524	-10,431	264,955	124,486
85,539	-10,555	264,604	124,198
86,553	-10,546	264,521	124,157
87,568	-10,339	264,337	124,245
88,582	-10,642	264,133	123,866
89,597	-10,491	263,993	123,925
90,611	-10,333	263,768	123,950
91,626	-10,216	263,642	123,984
92,641	-10,427	263,536	123,735
93,655	-10,275	263,138	123,673
94,670	-10,328	262,857	123,482
95,684	-10,511	262,776	123,270
96,699	-10,285	262,540	123,349
97,714	-10,356	262,420	123,219
98,728	-10,551	262,072	122,871
99,743	-10,429	261,837	122,858
100,757	-10,550	261,661	122,657
101,772	-10,237	261,501	122,849
102,787	-10,516	261,380	122,534
103,801	-10,393	261,104	122,503
104,816	-10,467	261,018	122,385
105,830	-10,112	260,927	122,646
106,845	-10,091	260,564	122,483
107,860	-10,242	260,476	122,297
108,874	-10,415	260,422	122,108
109,889	-10,298	259,979	121,993
110,903	-10,398	259,862	121,839
111,918	-10,231	259,540	121,825
112,933	-10,264	259,403	121,720
113,947	-10,304	259,114	121,538
114,962	-10,257	259,136	121,579
115,976	-10,256	258,937	121,476
116,991	-10,363	258,671	121,246
118,006	-10,259	258,446	121,221
119,020	-10,288	258,400	121,164
120,035	-10,248	258,303	121,142
121,049	-10,312	258,104	120,982
122,064	-10,215	257,828	120,927
123,079	-10,327	257,589	120,707
124,093	-10,348	257,480	120,626
125,108	-10,458	257,230	120,402
126,122	-10,511	256,887	120,185
127,137	-10,794	256,731	119,855
128,151	-10,636	256,620	119,930
129,166	-10,507	256,389	119,923
130,181	-10,338	256,157	119,951
131,195	-10,484	255,948	119,716
132,210	-10,412	255,832	119,713
133,224	-10,354	255,709	119,695
134,239	-10,346	255,556	119,619
135,254	-10,212	255,186	119,552
136,268	-10,466	255,014	119,241
137,283	-10,568	254,784	119,035
138,297	-10,782	254,507	118,711
139,312	-10,640	254,328	118,739
140,327	-10,443	254,245	118,859
141,341	-10,244	254,327	119,058
142,356	-10,140	253,978	118,973
143,370	-10,110	253,934	118,967
144,385	-10,046	253,650	118,879
145,400	-10,201	253,516	118,672
146,414	-10,037	253,216	118,662
147,429	-10,122	253,010	118,482
148,443	-10,080	252,953	118,481
149,458	-9,985	252,810	118,484
150,473	-10,181	252,560	118,190
151,487	-10,236	252,379	118,047
152,502	-10,133	252,243	118,061
153,516	-9,943	251,918	118,060
154,531	-10,220	251,945	117,826
155,546	-10,176	251,562	117,674
156,560	-10,110	251,447	117,666
157,575	-10,259	251,262	117,442
158,589	-10,269	251,131	117,362
159,604	-10,093	250,912	117,399
160,619	-10,220	250,739	117,200
161,633	-9,978	250,499	117,281
162,648	-9,968	250,409	117,237
163,662	-10,009	250,257	117,121
164,677	-10,010	250,055	117,015
165,692	-10,010	250,008	116,983
166,706	-10,062	249,876	116,867
167,721	-10,009	249,439	116,696
168,735	-10,100	249,450	116,614
169,750	-9,883	249,166	116,654
170,764	-10,040	249,192	116,524
171,779	-9,910	249,072	116,566
172,794	-10,028	248,823	116,340
173,808	-10,058	248,585	116,193
174,823	-10,473	248,315	115,710
175,837	-10,494	248,040	115,553
176,852	-10,306	248,149	115,751
177,867	-10,092	247,942	115,823
178,881	-9,974	247,840	115,864
179,896	-10,006	247,672	115,749
180,910	-9,998	247,538	115,682
181,925	-9,989	247,317	115,576
182,940	-10,064	247,122	115,412
183,954	-10,047	246,908	115,316
184,969	-9,977	246,736	115,284
185,983	-10,204	246,639	115,039
186,998	-10,065	246,330	115,000
188,013	-9,986	246,299	115,041
189,027	-10,008	246,020	114,882
190,042	-10,059	245,855	114,753
191,056	-10,096	245,583	114,585
192,071	-10,096	245,592	114,579
193,086	-10,066	245,267	114,442
194,100	-10,174	245,144	114,285
195,115	-10,054	245,076	114,342
196,129	-9,905	244,853	114,351
197,144	-10,144	244,570	114,011
198,159	-9,953	244,473	114,113
199,173	-10,178	244,284	113,830
200,188	-10,210	244,132	113,723
201,202	-10,576	243,934	113,321
202,217	-10,448	243,566	113,244
203,232	-10,560	243,336	113,035
204,246	-10,620	243,338	112,977
205,261	-9,968	243,161	113,418
206,275	-10,750	242,764	112,585
207,290	-6,839	244,381	116,535
208,304	1,044	246,813	124,200
209,319	4,548	247,852	127,610
210,334	4,909	247,793	127,866
211,348	4,940	247,722	127,844
212,363	5,337	247,697	128,147
213,377	5,420	247,525	128,115
214,392	5,288	247,318	127,888
215,407	5,100	247,060	127,588
216,421	5,012	247,009	127,478
217,436	5,383	246,973	127,754
218,450	5,544	246,622	127,692
219,465	4,980	246,537	127,174
220,480	5,128	246,190	127,105
221,494	4,939	246,005	126,843
222,509	5,111	245,955	126,947
223,523	5,090	245,821	126,850
224,538	4,451	245,464	126,132
225,553	4,598	245,460	126,239
226,567	4,968	245,427	126,513
227,582	4,976	245,129	126,354
228,596	5,041	244,844	126,249
229,611	4,603	244,686	125,800
230,626	4,499	244,462	125,589
231,640	4,574	244,474	125,645
232,655	4,724	244,201	125,615
233,669	4,738	244,071	125,549
234,684	4,471	243,887	125,226
235,699	4,936	243,815	125,555
236,713	5,116	243,593	125,576
237,728	4,610	243,502	125,108
238,742	4,420	243,233	124,805
239,757	4,441	243,031	124,707
240,772	4,609	242,866	124,747
241,786	4,664	242,780	124,736
242,801	4,481	242,642	124,507
243,815	4,542	242,494	124,468
244,830	4,969	242,360	124,732
245,844	4,945	242,318	124,681
246,859	4,782	241,874	124,310
247,874	4,505	241,851	124,065
248,888	4,621	241,806	124,123
249,903	4,901	241,530	124,195
250,917	4,789	241,474	124,065
251,932	4,917	241,334	124,085
252,947	5,103	241,174	124,141
253,961	4,766	240,951	123,746
254,976	4,569	240,922	123,561
255,990	4,904	240,660	123,684
257,005	4,528	240,375	123,227
258,020	4,643	240,207	123,221
259,034	4,746	240,127	123,251
260,049	4,695	240,025	123,147
261,063	4,611	239,759	122,933
262,078	4,548	239,626	122,803
263,093	4,795	239,556	122,953
264,107	4,995	239,488	123,066
265,122	4,544	239,192	122,545
266,136	4,676	239,169	122,627
267,151	4,940	238,941	122,708
268,166	4,471	238,884	122,297
269,180	4,524	238,454	122,108
270,195	4,970	238,563	122,505
271,209	5,493	238,481	122,865
272,224	4,648	238,125	122,005
273,239	4,196	237,959	121,552
274,253	4,271	237,881	121,560
275,268	4,685	237,818	121,843
276,282	4,790	237,452	121,728
277,297	4,463	237,272	121,368
278,312	4,667	237,209	121,485
279,326	4,597	237,120	121,373
280,341	4,596	237,132	121,368
281,355	4,719	236,717	121,242
282,370	4,991	236,717	121,444
283,384	4,789	236,471	121,149
284,399	4,701	236,306	120,984
285,414	4,399	236,135	120,650
286,428	4,616	236,039	120,760
287,443	4,691	235,827	120,699
288,457	4,697	235,813	120,685
289,472	4,912	235,700	120,785
290,487	4,754	235,574	120,586
291,501	4,427	235,263	120,161
292,516	4,237	235,150	119,945
293,530	4,438	234,798	119,911
294,545	4,761	234,990	120,250
295,560	4,727	234,718	120,074
296,574	4,500	234,432	119,740
297,589	4,649	234,413	119,835
298,603	4,806	234,392	119,936
299,618	4,794	234,146	119,790
300,633	4,771	234,110	119,743
301,647	4,728	234,011	119,649
302,662	5,155	233,986	119,955
303,676	5,135	233,584	119,723
304,691	4,948	233,459	119,504
305,706	4,944	233,447	119,484
306,720	4,981	233,320	119,437
307,735	4,911	233,077	119,248
308,749	4,705	232,814	118,944
309,764	4,362	232,708	118,616
310,779	4,341	232,402	118,433
311,793	3,843	232,217	117,947
312,808	3,975	232,012	117,933
313,822	4,605	232,025	118,411
314,837	4,570	231,868	118,295
315,852	4,730	231,814	118,378
316,866	4,962	231,581	118,426
317,881	4,909	231,462	118,314
318,895	4,892	231,405	118,262
319,910	5,112	231,258	118,344
320,925	4,727	230,970	117,893
321,939	4,272	230,741	117,419
322,954	4,705	230,721	117,728
323,968	4,606	230,498	117,529
324,983	4,609	230,550	117,547
325,997	5,072	230,298	117,760
327,012	5,127	230,131	117,706
328,027	4,675	229,959	117,264
329,041	4,944	230,037	117,498
330,056	5,353	229,990	117,773
331,070	5,505	229,891	117,827
332,085	5,204	229,572	117,425
333,100	4,692	229,347	116,913
334,114	4,809	229,221	116,926
335,129	5,105	229,076	117,065
336,143	5,137	229,011	117,046
337,158	5,214	228,904	117,039
338,173	4,820	228,634	116,594
339,187	4,644	228,470	116,368
340,202	4,784	228,241	116,345
341,216	4,907	228,014	116,312
342,231	4,709	227,910	116,099
343,246	4,576	227,963	116,016
344,260	4,708	227,849	116,047
345,275	4,965	227,735	116,171
346,289	5,245	227,585	116,294
347,304	5,289	227,403	116,224
348,319	5,266	227,181	116,083
349,333	4,871	226,979	115,675
350,348	4,975	226,746	115,623
351,362	4,810	226,740	115,486
352,377	4,648	226,537	115,252
353,392	4,524	226,438	115,099
354,406	4,537	226,247	115,001
355,421	195,429	1319,939	1395,365
356,435	156,666	1453,164	1395,354
