DTS Sentinel unit serial number:	SN410029Multiplexer serial number:	ORYXHardware model number:	OX2-SRSoftware version number:	ORYX F/W v4,00 Oryx Data Collector v3.7.2.0data status	okinstallation	B5 Nyhavnadifferential loss correction	single-endedforward channel	channel 2reverse channel	N/Adate	2023/12/14time	16:57:13forward acquisition time	300,00reverse acquisition time	0,00gamma	499,1914k internal	0,3157k external	0,3157temperature offset calibration	1,0000default loss term (dB/km)	0,3820temperature slope calibration	1,0000multiplexer offset coefficient	1,0000multiplexer slope coefficient	1,0000fibre end	0,00T internal ref (°C)	8,10T ext. ref 1 (°C)	-7,27T ext. ref 2 (°C)	-7,31length (m)	temperature (°C)	Stokes	anti-Stokes-744,400	-160,317	0,180	-0,007
-743,385	15,655	-0,283	-0,163
-742,371	-49,086	0,323	0,113
-741,356	-136,175	-0,396	0,034
-740,342	4,942	0,180	0,097
-739,327	-26,870	-0,452	-0,194
-738,312	-174,829	0,047	0,001
-737,298	15,079	-0,360	-0,207
-736,283	-0,731	0,241	0,125
-735,269	-125,381	-0,475	0,053
-734,254	-22,727	0,205	0,091
-733,239	-23,419	-0,552	-0,243
-732,225	27,134	0,256	0,158
-731,210	112,841	-0,088	0,078
-730,196	800,000	-0,038	-0,093
-729,181	-53,868	-0,135	0,045
-728,167	800,000	-0,017	-0,047
-727,152	-200,000	-0,002	-0,019
-726,137	30,353	0,081	0,051
-725,123	-68,155	-0,051	0,015
-724,108	-158,453	0,196	-0,008
-723,094	24,517	-0,073	0,044
-722,079	84,880	-0,157	-0,126
-721,064	-161,221	-0,096	0,004
-720,050	-142,647	0,251	-0,018
-719,035	-147,943	-0,113	0,007
-718,021	32,618	0,049	0,031
-717,006	164,080	-0,152	-0,158
-715,991	-58,955	-0,185	0,059
-714,977	234,921	0,038	-0,046
-713,962	-200,000	-0,043	-0,202
-712,948	106,578	-0,028	0,025
-711,933	-10,925	-0,108	0,052
-710,918	-100,513	-0,119	-0,022
-709,904	31,094	0,094	-0,059
-708,889	-97,100	-0,122	0,023
-707,875	574,341	-0,010	-0,018
-706,860	21,450	0,056	0,033
-705,845	-16,869	-0,102	0,047
-704,831	274,405	0,023	-0,030
-703,816	174,419	-0,096	-0,103
-702,802	-168,086	0,086	0,002
-701,787	-200,000	0,007	-0,185
-700,772	-30,088	-0,078	0,032
-699,758	-200,000	-0,001	0,046
-698,743	800,000	-0,003	-0,010
-697,729	-58,781	0,073	0,023
-696,714	-200,000	0,006	-0,105
-695,699	300,740	-0,081	-0,110
-694,685	-186,658	-0,060	-0,001
-693,670	-200,000	0,004	-0,074
-692,656	165,554	-0,079	-0,082
-691,641	-200,000	0,031	-0,128
-690,627	20,563	0,030	-0,018
-689,612	-83,699	0,072	-0,017
-688,597	-200,000	-0,018	0,092
-687,583	123,567	-0,068	0,063
-686,568	-200,000	-0,009	-0,043
-685,554	583,151	-0,006	-0,011
-684,539	-72,705	0,062	0,017
-683,524	-200,000	0,000	0,195
-682,510	372,127	0,056	-0,083
-681,495	89,667	-0,029	0,024
-680,481	-117,581	0,089	0,012
-679,466	354,961	-0,116	-0,171
-678,451	-200,000	0,001	0,082
-677,437	709,458	-0,075	-0,146
-676,422	-23,530	0,082	0,036
-675,408	-39,696	0,028	0,011
-674,393	238,563	-0,050	-0,061
-673,378	-200,000	0,004	-0,148
-672,364	800,000	-0,018	0,044
-671,349	56,745	-0,068	0,049
-670,335	-200,000	0,002	-0,065
-669,320	-200,000	-0,026	-0,186
-668,305	-200,000	-0,029	0,120
-667,291	-139,560	0,073	-0,006
-666,276	21,600	-0,072	0,043
-665,262	9,371	-0,040	0,022
-664,247	88,717	0,073	0,059
-663,232	-200,000	0,012	-0,181
-662,218	81,847	-0,214	0,170
-661,203	800,000	-0,037	0,105
-660,189	-11,723	0,127	0,061
-659,174	272,120	-0,095	-0,124
-658,159	658,235	0,050	-0,094
-657,145	-200,000	0,006	0,108
-656,130	-75,219	-0,038	0,010
-655,116	1,807	0,060	0,032
-654,101	316,657	-0,067	0,094
-653,086	44,971	0,058	0,040
-652,072	-57,157	-0,044	0,014
-651,057	10,445	-0,024	-0,013
-650,043	0,810	-0,091	0,048
-649,028	-200,000	-0,037	-0,160
-648,014	127,138	0,131	0,122
-646,999	207,825	0,018	-0,020
-645,984	-200,000	-0,004	-0,051
-644,970	-85,934	-0,042	0,009
-643,955	402,414	-0,032	-0,049
-642,941	-97,231	-0,174	0,033
-641,926	393,257	0,064	-0,098
-640,911	-32,597	-0,154	-0,063
-639,897	42,864	-0,026	-0,018
-638,882	533,411	-0,076	0,133
-637,868	-13,751	-0,092	0,044
-636,853	-97,199	-0,119	0,023
-635,838	97,526	-0,086	-0,073
-634,824	27,938	0,080	-0,049
-633,809	-200,000	0,002	0,085
-632,795	800,000	-0,019	0,058
-631,780	34,335	0,079	-0,051
-630,765	800,000	-0,023	-0,049
-629,751	800,000	-0,017	0,055
-628,736	174,374	-0,139	0,148
-627,722	-150,804	-0,116	-0,006
-626,707	-90,901	0,105	-0,022
-625,692	-92,434	0,091	-0,019
-624,678	800,000	-0,024	-0,062
-623,663	204,176	-0,112	0,127
-622,649	136,446	0,079	0,076
-621,634	137,140	-0,083	-0,080
-620,619	-200,000	-0,011	-0,141
-619,605	3,929	0,069	0,037
-618,590	516,334	0,044	0,075
-617,576	-115,758	-0,099	-0,013
-616,561	-200,000	-0,006	-0,139
-615,546	800,000	-0,109	-0,260
-614,532	-63,517	-0,042	-0,012
-613,517	-174,702	0,083	-0,002
-612,503	149,262	-0,073	-0,073
-611,488	143,301	0,056	-0,055
-610,474	109,909	-0,049	-0,043
-609,459	50,577	0,039	-0,027
-608,444	800,000	-0,023	-0,070
-607,430	-142,975	-0,033	-0,002
-606,415	-86,653	-0,067	-0,015
-605,401	-68,845	-0,058	0,016
-604,386	-16,361	-0,092	-0,043
-603,371	178,986	0,019	0,020
-602,357	-126,684	0,106	0,011
-601,342	276,678	-0,083	-0,108
-600,328	19,891	-0,047	0,028
-599,313	244,287	-0,048	-0,059
-598,298	-200,000	-0,021	0,135
-597,284	278,070	0,052	0,068
-596,269	-200,000	-0,011	0,068
-595,255	-19,922	-0,064	-0,029
-594,240	-60,182	-0,086	-0,027
-593,225	104,419	0,070	-0,060
-592,211	-200,000	-0,001	-0,165
-591,196	-10,829	-0,091	-0,044
-590,182	-94,848	0,112	0,022
-589,167	800,000	0,027	0,078
-588,152	-75,506	0,024	-0,006
-587,138	-84,663	0,039	0,009
-586,123	-200,000	0,015	0,194
-585,109	166,826	-0,069	0,072
-584,094	-96,224	0,131	-0,025
-583,079	-108,354	0,080	0,013
-582,065	-22,233	0,128	0,056
-581,050	-14,969	-0,081	-0,038
-580,036	137,013	0,037	-0,036
-579,021	-157,364	-0,148	-0,006
-578,006	242,825	0,019	-0,023
-576,992	100,381	0,063	-0,054
-575,977	717,875	0,025	0,048
-574,963	-200,000	0,017	-0,059
-573,948	95,854	-0,112	-0,093
-572,934	-41,331	-0,053	-0,020
-571,919	17,581	-0,060	0,035
-570,904	800,000	-0,046	0,114
-569,890	-200,000	0,004	0,066
-568,875	47,752	0,070	-0,048
-567,861	234,034	-0,041	-0,049
-566,846	97,266	-0,078	0,065
-565,831	108,785	-0,034	0,030
-564,817	800,000	-0,026	-0,074
-563,802	800,000	-0,018	-0,042
-562,788	251,522	-0,029	-0,036
-561,773	30,868	0,059	-0,037
-560,758	38,862	-0,170	0,111
-559,744	-55,991	0,024	0,008
-558,729	238,215	0,076	-0,092
-557,715	168,678	-0,082	-0,086
-556,700	597,663	-0,014	0,025
-555,685	158,460	0,042	-0,043
-554,671	-200,000	-0,001	0,004
-553,656	-200,000	-0,003	0,056
-552,642	577,121	0,016	0,029
-551,627	-141,261	0,189	-0,014
-550,612	-27,915	0,134	0,056
-549,598	800,000	-0,085	-0,215
-548,583	58,163	-0,108	0,077
-547,569	-200,000	0,010	0,040
-546,554	800,000	0,030	0,084
-545,539	-200,000	-0,004	0,067
-544,525	800,000	-0,042	-0,089
-543,510	800,000	0,024	-0,076
-542,496	800,000	0,045	-0,092
-541,481	322,697	-0,022	-0,030
-540,466	-200,000	-0,035	-0,165
-539,452	3,433	-0,079	-0,042
-538,437	-200,000	-0,002	-0,026
-537,423	377,122	-0,025	0,037
-536,408	-153,478	0,086	-0,004
-535,393	166,469	-0,065	-0,068
-534,379	226,102	-0,079	0,093
-533,364	-200,000	-0,007	0,027
-532,350	-64,464	-0,107	0,032
-531,335	800,000	-0,029	-0,070
-530,321	242,994	0,033	0,041
-529,306	31,507	-0,083	-0,052
-528,291	-4,104	-0,097	-0,049
-527,277	49,593	-0,072	-0,049
-526,262	-200,000	-0,028	-0,116
-525,248	800,000	-0,021	-0,047
-524,233	-28,774	0,047	0,020
-523,218	-200,000	-0,027	0,114
-522,204	-72,938	-0,097	-0,026
-521,189	800,000	0,024	-0,070
-520,175	-89,846	-0,125	-0,026
-519,160	15,222	0,039	-0,022
-518,145	-200,000	0,000	-0,001
-517,131	-140,256	0,100	0,008
-516,116	-19,108	-0,147	0,066
-515,102	-200,000	-0,031	0,147
-514,087	284,637	-0,058	0,076
-513,072	800,000	-0,031	0,069
-512,058	736,815	0,032	-0,064
-511,043	-163,299	0,135	0,005
-510,029	-200,000	-0,031	0,123
-509,014	521,314	0,077	-0,133
-507,999	316,719	0,093	-0,129
-506,985	685,068	-0,018	-0,034
-505,970	40,994	0,089	-0,058
-504,956	-137,968	0,112	-0,009
-503,941	70,451	-0,037	0,028
-502,926	-200,000	-0,011	0,067
-501,912	-196,348	0,148	-0,001
-500,897	-18,868	0,028	-0,013
-499,883	517,395	-0,041	-0,071
-498,868	559,075	0,031	-0,055
-497,853	223,565	-0,113	-0,134
-496,839	-200,000	-0,042	0,159
-495,824	656,135	-0,090	0,170
-494,810	5,346	-0,038	-0,020
-493,795	296,352	-0,026	0,035
-492,781	-200,000	-0,003	0,013
-491,766	-200,000	0,003	0,016
-490,751	-42,959	0,055	-0,020
-489,737	-104,312	-0,144	0,024
-488,722	800,000	0,090	0,281
-487,708	-200,000	-0,028	0,191
-486,693	509,364	-0,026	0,045
-485,678	234,517	-0,036	-0,044
-484,664	-200,000	0,006	-0,027
-483,649	471,666	-0,031	0,050
-482,635	9,275	0,065	0,036
-481,620	800,000	0,032	0,068
-480,605	-27,657	0,068	0,028
-479,591	19,121	-0,104	0,061
-478,576	800,000	0,034	-0,076
-477,562	-56,945	-0,146	0,047
-476,547	-200,000	0,000	-0,076
-475,532	285,383	-0,044	0,059
-474,518	10,884	-0,071	0,040
-473,503	-86,636	0,069	0,015
-472,489	24,224	-0,040	-0,024
-471,474	-134,874	-0,106	0,009
-470,459	-2,298	0,073	-0,037
-469,445	-177,455	-0,214	-0,004
-468,430	-28,138	0,125	-0,052
-467,416	-67,403	-0,148	-0,042
-466,401	15,194	0,106	-0,060
-465,386	800,000	0,071	0,200
-464,372	-200,000	0,032	-0,109
-463,357	-157,217	-0,054	-0,002
-462,343	-147,075	0,086	-0,005
-461,328	-200,000	-0,007	0,120
-460,313	669,701	-0,040	0,075
-459,299	-2,050	0,115	-0,058
-458,284	60,932	-0,183	0,132
-457,270	-132,113	0,083	-0,008
-456,255	-200,000	-0,013	-0,048
-455,241	17,965	-0,066	0,038
-454,226	642,950	-0,034	-0,063
-453,211	278,643	0,019	0,025
-452,197	-47,166	0,116	-0,041
-451,182	520,193	0,046	0,079
-450,168	800,000	0,029	0,084
-449,153	328,156	0,106	-0,148
-448,138	-54,640	0,077	0,025
-447,124	-118,216	-0,147	0,019
-446,109	-200,000	-0,008	-0,064
-445,095	-200,000	-0,019	0,074
-444,080	-150,545	-0,144	-0,008
-443,065	-200,000	0,024	0,085
-442,051	-112,459	0,088	0,013
-441,036	-138,050	0,142	0,011
-440,022	94,712	0,051	-0,042
-439,007	-63,333	0,023	-0,007
-437,992	18,735	-0,071	0,041
-436,978	-30,235	0,053	0,022
-435,963	-200,000	-0,018	0,091
-434,949	651,782	-0,047	-0,088
-433,934	-152,747	-0,094	-0,005
-432,919	557,603	0,040	0,070
-431,905	-37,663	-0,099	0,038
-430,890	267,826	0,039	-0,050
-429,876	788,893	0,050	0,100
-428,861	693,314	0,088	0,168
-427,846	-106,246	0,100	0,016
-426,832	-18,378	-0,041	0,019
-425,817	20,956	-0,053	-0,031
-424,803	523,016	0,033	-0,057
-423,788	-140,136	0,099	-0,007
-422,773	584,738	0,032	0,057
-421,759	152,562	0,040	0,039
-420,744	133,396	-0,065	0,061
-419,730	53,817	-0,075	-0,053
-418,715	-118,994	0,043	-0,005
-417,701	12,858	-0,067	0,038
-416,686	-200,000	0,011	0,043
-415,671	-34,140	0,186	0,074
-414,657	76,989	0,131	0,101
-413,642	-200,000	-0,039	-0,180
-412,628	800,000	0,024	-0,073
-411,613	800,000	-0,034	0,073
-410,598	-39,556	0,141	-0,053
-409,584	18,863	-0,038	-0,022
-408,569	-53,888	0,056	0,019
-407,555	800,000	0,037	0,098
-406,540	-70,631	-0,033	0,009
-405,525	-34,104	0,171	0,068
-404,511	111,556	-0,042	0,037
-403,496	800,000	-0,021	-0,062
-402,482	26,467	-0,046	0,028
-401,467	4,389	0,162	0,086
-400,452	-114,717	0,143	0,020
-399,438	152,300	-0,061	0,061
-398,423	141,255	-0,067	-0,064
-397,409	-200,000	0,024	0,078
-396,394	284,828	0,089	0,117
-395,379	214,184	-0,105	-0,121
-394,365	276,839	0,040	-0,052
-393,350	99,238	0,091	0,076
-392,336	-66,975	-0,042	-0,012
-391,321	23,311	0,093	-0,056
-390,306	800,000	-0,034	-0,104
-389,292	-158,385	-0,102	-0,004
-388,277	-200,000	0,002	-0,028
-387,263	-81,105	0,060	-0,014
-386,248	-28,324	-0,127	0,053
-385,233	-15,676	0,039	-0,018
-384,219	14,556	0,015	0,008
-383,204	776,163	-0,060	-0,119
-382,190	800,000	-0,036	-0,108
-381,175	31,346	-0,078	0,048
-380,160	151,245	-0,052	-0,052
-379,146	89,749	0,169	0,137
-378,131	-198,624	0,173	0,001
-377,117	-66,648	-0,102	-0,029
-376,102	534,920	0,043	-0,075
-375,088	-60,792	0,063	-0,019
-374,073	-83,203	-0,068	-0,016
-373,058	-83,278	0,063	0,015
-372,044	103,690	0,108	0,092
-371,029	657,013	-0,064	0,119
-370,015	800,000	0,024	0,071
-369,000	10,247	0,125	-0,069
-367,985	790,392	-0,024	0,049
-366,971	182,295	0,074	-0,079
-365,956	800,000	0,031	0,066
-364,942	-200,000	0,022	0,160
-363,927	-200,000	0,005	-0,091
-362,912	-48,001	-0,110	0,039
-361,898	800,000	0,040	-0,085
-360,883	-200,000	0,028	-0,126
-359,869	22,489	0,037	-0,022
-358,854	-102,669	-0,087	0,015
-357,839	189,468	0,025	-0,028
-356,825	-78,283	0,098	0,024
-355,810	800,000	0,022	0,055
-354,796	-25,907	0,050	-0,022
-353,781	-200,000	-0,007	-0,083
-352,766	-68,322	0,071	0,020
-351,752	800,000	0,028	0,080
-350,737	175,235	0,029	0,031
-349,723	279,435	0,028	0,036
-348,708	-123,251	-0,091	0,010
-347,693	302,630	0,072	-0,096
-346,679	234,666	0,052	-0,063
-345,664	37,121	-0,068	0,044
-344,650	-78,129	0,040	-0,010
-343,635	-167,649	0,121	-0,003
-342,620	127,989	0,189	0,174
-341,606	-200,000	-0,020	0,228
-340,591	538,414	0,045	0,077
-339,577	220,295	0,074	-0,086
-338,562	309,558	-0,068	0,093
-337,548	-186,014	0,100	-0,001
-336,533	1,502	0,037	0,019
-335,518	-79,145	0,173	0,042
-334,504	73,726	0,081	0,062
-333,489	412,261	-0,042	0,065
-332,475	-10,532	-0,179	-0,086
-331,460	-152,727	0,076	-0,004
-330,445	-14,153	0,049	0,023
-329,431	-150,893	0,103	-0,006
-328,416	-95,211	0,049	-0,009
-327,402	800,000	0,053	-0,107
-326,387	-46,873	0,100	0,035
-325,372	341,303	-0,023	-0,033
-324,358	-50,108	0,087	0,030
-323,343	13,290	-0,085	0,048
-322,329	340,120	0,044	-0,063
-321,314	28,650	-0,095	0,058
-320,299	-103,966	0,044	-0,007
-319,285	110,833	0,101	-0,088
-318,270	63,104	0,100	-0,073
-317,256	-200,000	0,012	-0,043
-316,241	-200,000	0,002	-0,060
-315,226	-58,729	-0,084	0,026
-314,212	-52,232	0,030	-0,010
-313,197	194,896	0,033	0,036
-312,183	-4,084	-0,058	-0,029
-311,168	-53,980	0,026	-0,008
-310,153	-200,000	-0,003	-0,021
-309,139	102,863	0,053	-0,045
-308,124	-200,000	0,005	-0,128
-307,110	92,839	0,068	-0,056
-306,095	50,811	-0,066	-0,045
-305,080	800,000	0,070	-0,215
-304,066	-34,662	0,039	-0,015
-303,051	-109,263	-0,197	0,030
-302,037	274,483	-0,016	0,021
-301,022	-200,000	0,013	0,065
-300,008	4,870	0,058	-0,031
-298,993	102,261	-0,082	0,069
-297,978	-29,470	0,125	0,051
-296,964	-57,797	0,039	0,012
-295,949	-30,698	0,177	-0,072
-294,935	28,921	0,037	0,023
-293,920	-200,000	-0,012	0,164
-292,905	-200,000	0,002	0,143
-291,891	-200,000	0,001	0,040
-290,876	502,599	0,063	-0,107
-289,862	14,647	0,099	0,056
-288,847	155,917	-0,011	0,011
-287,832	-45,156	0,043	-0,015
-286,818	142,546	0,104	-0,100
-285,803	130,416	-0,026	-0,024
-284,789	584,828	0,085	0,151
-283,774	-118,089	-0,078	-0,010
-282,759	-22,734	0,078	-0,034
-281,745	-52,991	-0,132	0,044
-280,730	363,545	0,075	-0,109
-279,716	57,124	0,073	-0,051
-278,701	1,553	0,046	-0,024
-277,686	117,899	-0,026	0,023
-276,672	-20,072	0,068	0,030
-275,657	-104,024	-0,086	0,014
-274,643	-100,983	0,116	-0,020
-273,628	-0,215	-0,072	-0,037
-272,613	-200,000	0,006	-0,051
-271,599	-200,000	-0,009	0,034
-270,584	-67,595	0,070	0,020
-269,570	-200,000	-0,003	0,153
-268,555	52,334	0,104	0,072
-267,540	-116,933	-0,114	-0,015
-266,526	25,134	-0,064	0,038
-265,511	187,388	-0,042	-0,046
-264,497	188,586	-0,018	-0,020
-263,482	-200,000	0,020	-0,089
-262,467	294,996	0,060	0,080
-261,453	-140,970	-0,128	0,009
-260,438	-27,066	0,163	-0,069
-259,424	226,209	-0,047	-0,055
-258,409	-200,000	-0,015	0,055
-257,395	403,608	-0,098	0,150
-256,380	800,000	-0,026	-0,073
-255,365	70,138	0,052	0,039
-254,351	-200,000	0,002	0,121
-253,336	-200,000	-0,034	0,111
-252,322	170,610	-0,123	-0,128
-251,307	-200,000	-0,019	-0,110
-250,292	-114,942	-0,064	-0,009
-249,278	350,554	0,071	0,102
-248,263	210,786	-0,097	0,110
-247,249	26,639	-0,039	-0,023
-246,234	410,165	0,023	0,035
-245,219	30,282	-0,119	-0,073
-244,205	-4,287	0,080	0,040
-243,190	-177,335	0,038	-0,001
-242,176	185,235	-0,088	0,095
-241,161	230,281	-0,055	-0,066
-240,146	-139,464	-0,065	-0,005
-239,132	537,926	-0,040	-0,068
-238,117	511,493	-0,031	-0,052
-237,103	-114,460	-0,122	0,017
-236,088	43,827	-0,080	-0,053
-235,073	-118,317	0,076	-0,010
-234,059	-200,000	0,019	0,098
-233,044	-200,000	0,023	-0,080
-232,030	-200,000	0,001	-0,027
-231,015	-71,241	-0,106	-0,029
-230,000	-200,000	0,002	0,043
-228,986	-200,000	-0,010	-0,040
-227,971	290,109	-0,037	0,049
-226,957	-101,712	0,187	-0,032
-225,942	800,000	-0,067	-0,137
-224,927	-200,000	-0,014	0,056
-223,913	691,410	0,052	0,100
-222,898	800,000	0,033	0,093
-221,884	-200,000	-0,011	-0,036
-220,869	-60,580	0,109	0,033
-219,855	2,132	0,068	-0,036
-218,840	-200,000	0,010	0,114
-217,825	800,000	-0,048	0,119
-216,811	-183,833	-0,073	-0,001
-215,796	275,468	-0,082	-0,106
-214,782	-200,000	-0,019	0,121
-213,767	-116,299	0,062	0,008
-212,752	268,551	-0,045	0,057
-211,738	78,320	0,077	0,059
-210,723	-200,000	-0,021	0,142
-209,709	-99,830	-0,088	-0,016
-208,694	-129,181	-0,236	-0,023
-207,679	800,000	-0,028	-0,077
-206,665	-101,817	0,106	0,018
-205,650	93,984	0,131	-0,108
-204,636	-200,000	-0,002	-0,044
-203,621	800,000	0,036	-0,094
-202,606	-200,000	0,003	-0,157
-201,592	-200,000	-0,013	-0,099
-200,577	781,206	-0,064	-0,128
-199,563	-112,324	-0,188	-0,027
-198,548	-155,349	0,101	-0,005
-197,533	-200,000	0,035	0,159
-196,519	800,000	-0,067	-0,191
-195,504	-59,886	0,062	0,019
-194,490	85,561	-0,118	0,094
-193,475	800,000	0,061	-0,140
-192,460	465,654	-0,016	-0,027
-191,446	-200,000	-0,002	-0,068
-190,431	-132,146	-0,116	-0,011
-189,417	49,237	0,064	0,043
-188,402	-117,004	-0,188	-0,025
-187,387	800,000	-0,047	-0,096
-186,373	800,000	0,072	-0,200
-185,358	-71,451	-0,076	0,020
-184,344	-2,627	0,036	0,018
-183,329	355,485	0,053	0,076
-182,315	-65,953	0,131	0,037
-181,300	800,000	-0,034	-0,102
-180,285	28,108	-0,068	0,041
-179,271	95,751	0,029	0,024
-178,256	800,000	0,055	-0,112
-177,242	-200,000	0,032	-0,109
-176,227	544,820	-0,034	0,059
-175,212	26,077	0,043	0,026
-174,198	800,000	0,044	0,107
-173,183	-200,000	-0,023	-0,091
-172,169	56,273	-0,061	0,043
-171,154	169,841	-0,088	0,091
-170,139	-200,000	-0,032	0,159
-169,125	-42,496	0,037	0,014
-168,110	49,026	0,021	0,014
-167,096	800,000	0,014	0,038
-166,081	78,330	0,157	-0,120
-165,066	150,109	-0,026	0,025
-164,052	-64,299	-0,051	0,015
-163,037	72,257	-0,047	-0,035
-162,023	225,575	-0,068	-0,079
-161,008	-102,740	0,161	-0,027
-159,993	74,101	-0,038	-0,029
-158,979	800,000	-0,040	0,118
-157,964	233,674	-0,097	-0,116
-156,950	-200,000	0,004	-0,054
-155,935	-28,183	-0,142	0,059
-154,920	49,681	-0,081	-0,055
-153,906	800,000	0,010	0,028
-152,891	-200,000	-0,010	-0,123
-151,877	-39,201	0,050	-0,019
-150,862	407,070	-0,032	-0,049
-149,847	-109,534	-0,158	-0,024
-148,833	-5,617	-0,078	-0,038
-147,818	-200,000	-0,010	0,063
-146,804	34,156	-0,071	-0,045
-145,789	19,228	-0,047	0,027
-144,775	130,246	-0,015	-0,014
-143,760	373,960	-0,051	-0,076
-142,745	22,486	-0,098	-0,058
-141,731	800,000	0,022	0,056
-140,716	800,000	-0,075	0,188
-139,702	42,018	0,103	0,067
-138,687	800,000	0,050	0,113
-137,672	-200,000	0,017	0,107
-136,658	256,818	-0,086	0,106
-135,643	800,000	-0,029	0,086
-134,629	11,848	0,190	-0,105
-133,614	-200,000	0,040	-0,149
-132,599	-51,549	-0,148	-0,050
-131,585	371,190	0,063	0,093
-130,570	-200,000	-0,000	-0,077
-129,556	179,634	-0,066	-0,069
-128,541	-31,474	0,053	-0,021
-127,526	58,739	0,056	0,039
-126,512	34,642	-0,055	0,035
-125,497	800,000	-0,060	0,131
-124,483	800,000	-0,042	0,122
-123,468	46,736	0,052	-0,035
-122,453	279,000	-0,026	-0,034
-121,439	658,917	-0,047	0,087
-120,424	-200,000	-0,014	-0,081
-119,410	-200,000	0,007	0,072
-118,395	390,927	-0,064	-0,095
-117,380	800,000	-0,022	0,056
-116,366	17,704	-0,049	0,028
-115,351	170,457	-0,072	-0,074
-114,337	-151,843	-0,118	-0,006
-113,322	59,529	-0,045	0,032
-112,307	88,588	0,082	-0,065
-111,293	190,237	-0,082	-0,088
-110,278	-200,000	0,021	-0,140
-109,264	301,346	0,091	-0,122
-108,249	800,000	-0,066	-0,144
-107,234	32,312	0,126	0,078
-106,220	159,320	-0,102	-0,102
-105,205	-12,725	0,119	-0,055
-104,191	-200,000	0,015	-0,146
-103,176	139,832	0,080	-0,076
-102,162	316,752	-0,046	-0,063
-101,147	800,000	-0,023	-0,066
-100,132	800,000	0,046	-0,105
-99,118	200,524	-0,069	0,077
-98,103	-200,000	0,039	0,137
-97,089	800,000	0,060	0,125
-96,074	-200,000	0,035	0,181
-95,059	-200,000	0,007	-0,025
-94,045	800,000	-0,021	-0,053
-93,030	704,047	-0,042	-0,079
-92,016	-142,661	-0,106	-0,007
-91,001	20,687	-0,156	0,090
-89,986	207,764	0,021	0,023
-88,972	63,216	-0,105	-0,076
-87,957	134,438	-0,067	0,063
-86,943	-50,026	0,118	-0,040
-85,928	53,610	-0,114	-0,079
-84,913	-80,974	-0,069	0,016
-83,899	-141,231	0,128	-0,009
-82,884	296,815	0,064	0,084
-81,870	648,194	0,055	0,102
-80,855	-200,000	0,003	-0,019
-79,840	114,283	-0,007	0,006
-78,826	774,180	-0,109	-0,216
-77,811	105,372	-0,078	-0,066
-76,797	-97,458	0,050	0,009
-75,782	-72,020	-0,018	-0,005
-74,767	-58,715	0,086	-0,026
-73,753	-200,000	0,011	0,105
-72,738	-113,302	-0,150	0,021
-71,724	-127,541	-0,217	-0,022
-70,709	89,726	-0,079	-0,063
-69,694	17,102	-0,037	0,021
-68,680	-106,827	0,077	0,012
-67,665	-200,000	-0,023	0,131
-66,651	45,694	0,025	-0,017
-65,636	-200,000	-0,010	-0,068
-64,622	193,080	-0,057	-0,062
-63,607	-111,736	-0,047	-0,007
-62,592	533,463	0,023	-0,040
-61,578	-200,000	-0,029	-0,117
-60,563	40,056	0,060	0,038
-59,549	800,000	0,040	0,093
-58,534	66,817	-2,740	-2,000
-57,519	20,182	0,418	-0,242
-56,505	800,000	-1,810	-5,377
-55,490	548,698	1,232	2,126
-54,476	800,000	5,203	11,207
-53,461	-200,000	21,947	345,847
-52,446	800,000	760,203	2300,562
-51,432	516,028	1647,374	2773,416
-50,417	99,229	1611,720	1336,641
-49,403	67,520	1268,028	928,212
-48,388	23,638	1018,609	600,367
-47,373	19,089	985,487	565,809
-46,359	12,903	972,634	538,157
-45,344	8,734	969,211	522,581
-44,330	9,158	967,358	522,950
-43,315	8,160	965,461	518,638
-42,300	8,112	964,306	517,840
-41,286	8,172	963,216	517,432
-40,271	8,119	962,220	516,701
-39,257	8,103	961,577	516,286
-38,242	8,157	960,591	515,910
-37,227	8,100	959,779	515,267
-36,213	8,052	959,055	514,703
-35,198	8,190	957,889	514,506
-34,184	8,216	957,408	514,311
-33,169	8,104	956,464	513,420
-32,154	8,176	955,384	513,054
-31,140	8,190	954,526	512,617
-30,125	8,152	953,906	512,141
-29,111	8,167	953,005	511,684
-28,096	8,178	952,369	511,359
-27,082	8,170	951,680	510,942
-26,067	8,081	951,029	510,285
-25,052	8,134	950,219	510,003
-24,038	8,085	949,460	509,417
-23,023	8,060	948,911	509,021
-22,009	8,149	948,297	508,958
-20,994	8,140	947,609	508,541
-19,979	8,194	947,017	508,374
-18,965	8,111	946,389	507,752
-17,950	8,128	945,871	507,509
-16,936	8,110	945,081	507,008
-15,921	8,116	944,421	506,651
-14,906	8,036	943,704	505,992
-13,892	8,098	943,054	505,822
-12,877	8,016	942,607	505,299
-11,863	7,970	941,984	504,800
-10,848	7,973	941,328	504,438
-9,833	8,127	941,003	504,733
-8,819	8,055	940,300	504,106
-7,804	8,000	939,565	503,519
-6,790	8,043	938,833	503,243
-5,775	8,067	938,405	503,070
-4,760	8,078	937,737	502,724
-3,746	7,952	937,191	502,014
-2,731	7,830	936,505	501,240
-1,717	7,806	936,045	500,897
-0,702	7,885	935,231	500,691
0,313	7,672	934,607	500,441
1,327	11,185	932,503	510,354
2,342	20,143	780,702	450,771
3,356	15,224	448,869	251,734
4,371	-11,163	313,291	147,575
5,386	-14,802	295,898	135,679
6,400	-16,707	289,699	130,932
7,415	-17,107	287,027	129,319
8,429	-17,906	285,195	127,701
9,444	-18,146	284,282	127,046
10,459	-17,938	283,523	126,898
11,473	-17,958	282,986	126,627
12,488	-17,924	282,598	126,474
13,502	-18,039	282,053	126,108
14,517	-17,876	281,642	126,071
15,531	-18,059	281,163	125,669
16,546	-18,000	280,724	125,518
17,561	-17,991	280,207	125,285
18,575	-17,901	279,982	125,259
19,590	-18,120	279,696	124,910
20,604	-17,841	279,350	125,011
21,619	-17,910	278,964	124,762
22,634	-17,870	278,539	124,598
23,648	-18,041	278,247	124,294
24,663	-18,086	278,184	124,212
25,677	-18,022	277,796	124,088
26,692	-17,787	277,500	124,168
27,707	-17,962	277,266	123,886
28,721	-18,072	276,939	123,625
29,736	-17,943	276,694	123,627
30,750	-18,135	276,526	123,359
31,765	-17,947	276,132	123,350
32,780	-17,898	275,959	123,308
33,794	-17,894	275,709	123,189
34,809	-17,972	275,526	123,023
35,823	-18,085	275,174	122,748
36,838	-17,819	274,810	122,825
37,853	-17,957	274,596	122,588
38,867	-18,041	274,494	122,453
39,882	-17,912	274,004	122,345
40,896	-17,939	273,875	122,250
41,911	-18,005	273,727	122,112
42,926	-18,067	273,388	121,892
43,940	-17,732	273,106	122,068
44,955	-17,853	272,973	121,885
45,969	-18,045	272,817	121,625
46,984	-18,032	272,787	121,614
47,999	-17,760	272,343	121,658
49,013	-17,919	272,241	121,453
50,028	-17,724	271,911	121,476
51,042	-17,772	271,576	121,271
52,057	-17,815	271,319	121,106
53,071	-17,844	271,312	121,065
54,086	-17,917	270,906	120,806
55,101	-17,919	270,916	120,798
56,115	-17,745	270,465	120,747
57,130	-17,851	270,214	120,526
58,144	-17,995	269,905	120,244
59,159	-17,997	269,777	120,175
60,174	-17,945	269,458	120,070
61,188	-17,909	269,293	120,018
62,203	-17,721	269,047	120,072
63,217	-17,770	268,899	119,950
64,232	-17,893	268,528	119,660
65,247	-17,859	268,270	119,566
66,261	-17,978	268,132	119,385
67,276	-17,771	267,803	119,418
68,290	-17,786	267,804	119,393
69,305	-17,648	267,527	119,385
70,320	-17,817	267,234	119,089
71,334	-17,821	267,063	118,999
72,349	-17,923	266,848	118,799
73,363	-17,950	266,581	118,645
74,378	-17,863	266,256	118,570
75,393	-18,166	266,257	118,284
76,407	-17,825	265,828	118,392
77,422	-17,747	265,549	118,328
78,436	-17,890	265,632	118,225
79,451	-17,750	265,166	118,134
80,466	-17,890	264,958	117,904
81,480	-17,848	264,760	117,843
82,495	-17,792	264,333	117,693
83,509	-17,773	264,244	117,660
84,524	-17,891	264,163	117,508
85,539	-17,696	263,918	117,563
86,553	-17,837	263,913	117,423
87,568	-17,845	263,456	117,203
88,582	-17,875	263,377	117,130
89,597	-17,779	263,019	117,046
90,611	-17,859	262,967	116,941
91,626	-17,768	262,666	116,878
92,641	-17,693	262,503	116,863
93,655	-17,786	262,346	116,699
94,670	-17,837	262,093	116,531
95,684	-17,842	261,816	116,393
96,699	-17,962	261,729	116,237
97,714	-17,698	261,358	116,297
98,728	-17,820	261,333	116,167
99,743	-17,794	260,972	116,018
100,757	-17,856	260,880	115,912
101,772	-17,683	260,565	115,916
102,787	-17,990	260,347	115,536
103,801	-17,788	260,172	115,627
104,816	-18,108	260,181	115,338
105,830	-17,874	259,937	115,426
106,845	-17,758	259,667	115,398
107,860	-17,772	259,407	115,261
108,874	-17,987	259,211	114,973
109,889	-17,869	259,032	114,987
110,903	-17,772	258,850	114,982
111,918	-17,698	258,548	114,902
112,933	-17,773	258,310	114,720
113,947	-17,886	258,289	114,602
114,962	-17,718	257,944	114,586
115,976	-17,776	257,740	114,434
116,991	-17,906	257,614	114,255
118,006	-17,685	257,389	114,337
119,020	-17,701	257,295	114,271
120,035	-17,691	257,141	114,202
121,049	-17,767	256,819	113,982
122,064	-17,786	256,807	113,950
123,079	-17,611	256,341	113,886
124,093	-17,791	256,194	113,654
125,108	-18,011	256,038	113,383
126,122	-17,708	255,936	113,591
127,137	-17,751	255,720	113,447
128,151	-17,674	255,484	113,399
129,166	-17,717	255,264	113,255
130,181	-17,656	255,225	113,280
131,195	-17,752	254,905	113,045
132,210	-17,867	254,683	112,837
133,224	-17,795	254,471	112,795
134,239	-17,905	254,384	112,652
135,254	-17,759	254,144	112,661
136,268	-17,624	253,866	112,644
137,283	-17,505	253,635	112,634
138,297	-17,535	253,412	112,499
139,312	-17,745	253,222	112,224
140,327	-17,904	253,033	111,994
141,341	-17,698	252,870	112,088
142,356	-17,681	252,627	111,986
143,370	-17,656	252,408	111,899
144,385	-17,616	252,290	111,872
145,400	-17,763	251,917	111,571
146,414	-17,703	251,777	111,550
147,429	-17,996	251,663	111,240
148,443	-17,772	251,477	111,338
149,458	-17,630	251,287	111,365
150,473	-17,604	251,197	111,337
151,487	-17,766	251,028	111,114
152,502	-17,716	250,691	110,998
153,516	-17,555	250,435	111,012
154,531	-17,709	250,357	110,837
155,546	-17,736	250,284	110,772
156,560	-17,812	250,035	110,587
157,575	-17,754	250,027	110,623
158,589	-17,866	249,626	110,341
159,604	-17,576	249,541	110,539
160,619	-17,726	249,162	110,234
161,633	-17,754	249,098	110,172
162,648	-17,752	248,946	110,097
163,662	-17,577	248,789	110,165
164,677	-17,502	248,547	110,111
165,692	-17,491	248,324	110,012
166,706	-17,685	248,248	109,805
167,721	-17,929	248,239	109,586
168,735	-17,723	247,970	109,632
169,750	-17,947	247,873	109,391
170,764	-17,645	247,650	109,536
171,779	-17,692	247,424	109,387
172,794	-17,650	247,316	109,364
173,808	-17,619	247,062	109,268
174,823	-17,646	246,971	109,195
175,837	-17,564	246,806	109,181
176,852	-17,620	246,623	109,043
177,867	-17,664	246,343	108,874
178,881	-17,700	246,237	108,787
179,896	-17,792	246,093	108,638
180,910	-17,597	245,878	108,694
181,925	-17,674	245,775	108,575
182,940	-17,500	245,518	108,597
183,954	-17,543	245,267	108,440
184,969	-17,724	245,159	108,233
185,983	-17,772	245,015	108,120
186,998	-17,550	244,881	108,234
188,013	-17,529	244,562	108,101
189,027	-17,762	244,507	107,875
190,042	-17,568	244,276	107,923
191,056	-17,453	244,090	107,927
192,071	-17,483	243,997	107,851
193,086	-17,651	243,842	107,634
194,100	-17,714	243,713	107,516
195,115	-17,698	243,343	107,356
196,129	-17,631	243,108	107,299
197,144	-17,554	243,097	107,348
198,159	-17,653	242,875	107,158
199,173	-17,662	242,728	107,077
200,188	-17,764	242,669	106,957
201,202	-17,572	242,468	107,017
202,217	-17,311	242,092	107,054
203,232	-17,482	241,910	106,824
204,246	-17,588	241,867	106,710
205,261	-17,414	241,607	106,727
206,275	-15,926	242,196	108,193
207,290	-11,535	243,625	112,424
208,304	-5,886	245,636	118,007
209,319	-3,069	246,164	120,576
210,334	-2,663	246,363	120,998
211,348	-1,761	246,454	121,777
212,363	-1,097	246,372	122,273
213,377	-0,507	246,544	122,834
214,392	-0,056	246,490	123,168
215,407	0,234	246,353	123,327
216,421	0,491	246,242	123,472
217,436	0,562	246,112	123,454
218,450	0,515	245,817	123,257
219,465	0,588	245,910	123,353
220,480	0,534	245,702	123,193
221,494	0,607	245,439	123,110
222,509	0,375	245,379	122,879
223,523	0,028	245,202	122,495
224,538	-0,035	244,936	122,299
225,553	0,025	244,726	122,233
226,567	0,065	244,553	122,168
227,582	0,041	244,299	122,010
228,596	0,079	244,211	121,987
229,611	-0,152	244,240	121,802
230,626	-0,028	243,997	121,771
231,640	-0,035	243,827	121,670
232,655	-0,090	243,611	121,506
233,669	-0,055	243,532	121,485
234,684	-0,095	243,186	121,269
235,699	-0,058	243,153	121,271
236,713	-0,028	242,988	121,203
237,728	0,085	242,793	121,187
238,742	0,152	242,518	121,092
239,757	0,052	242,357	120,920
240,772	0,400	242,200	121,112
241,786	-0,062	242,161	120,709
242,801	-0,061	242,049	120,643
243,815	0,163	241,856	120,717
244,830	-0,224	241,733	120,333
245,844	0,012	241,420	120,356
246,859	-0,163	241,390	120,190
247,874	0,165	241,139	120,318
248,888	-0,209	241,160	120,016
249,903	0,052	240,948	120,110
250,917	0,082	240,621	119,960
251,932	0,324	240,499	120,083
252,947	0,205	240,265	119,860
253,961	-0,021	240,310	119,691
254,976	0,069	240,182	119,689
255,990	-0,028	239,960	119,489
257,005	0,091	239,949	119,569
258,020	-0,143	239,827	119,310
259,034	-0,162	239,516	119,130
260,049	0,072	239,263	119,180
261,063	0,018	239,113	119,051
262,078	-0,011	239,078	119,000
263,093	0,093	238,836	118,952
264,107	-0,061	238,786	118,794
265,122	0,192	238,426	118,805
266,136	0,092	238,506	118,755
267,151	0,079	238,230	118,596
268,166	-0,024	238,104	118,441
269,180	-0,137	237,967	118,274
270,195	0,133	237,750	118,369
271,209	0,151	237,661	118,328
272,224	-0,061	237,494	118,067
273,239	-0,054	237,393	118,012
274,253	0,150	237,089	118,011
275,268	-0,016	237,020	117,835
276,282	-0,024	236,876	117,747
277,297	-0,164	236,720	117,548
278,312	-0,056	236,601	117,563
279,326	-0,017	236,477	117,523
280,341	0,038	236,315	117,475
281,355	0,200	236,131	117,500
282,370	0,109	235,954	117,329
283,384	0,030	235,875	117,218
284,399	0,145	235,731	117,226
285,414	0,104	235,479	117,058
286,428	0,318	235,407	117,180
287,443	0,118	235,186	116,903
288,457	0,333	235,047	116,991
289,472	0,180	235,050	116,862
290,487	0,319	234,677	116,775
291,501	0,155	234,484	116,541
292,516	-0,092	234,528	116,360
293,530	-0,072	234,393	116,299
294,545	0,182	234,257	116,418
295,560	0,290	234,001	116,364
296,574	0,342	234,026	116,407
297,589	0,285	233,722	116,201
298,603	0,144	233,509	115,975
299,618	0,360	233,424	116,090
300,633	0,266	233,334	115,962
301,647	0,326	233,217	115,940
302,662	0,303	233,044	115,827
303,676	0,342	232,874	115,762
304,691	0,695	232,670	115,922
305,706	0,146	232,533	115,420
306,720	0,318	232,438	115,495
307,735	0,294	232,206	115,351
308,749	0,365	232,069	115,328
309,764	0,624	231,949	115,457
310,779	0,515	231,926	115,352
311,793	0,454	231,594	115,129
312,808	0,564	231,425	115,119
313,822	0,389	231,451	114,988
314,837	0,315	231,311	114,851
315,852	0,670	231,022	114,969
316,866	0,635	230,939	114,891
317,881	0,227	230,914	114,556
318,895	0,537	230,671	114,662
319,910	0,486	230,470	114,513
320,925	0,447	230,264	114,371
321,939	0,603	230,160	114,427
322,954	0,384	230,195	114,267
323,968	0,306	229,935	114,069
324,983	0,510	229,746	114,120
325,997	0,358	229,768	114,005
327,012	0,320	229,386	113,777
328,027	0,376	229,311	113,772
329,041	0,316	229,191	113,657
330,056	0,454	229,107	113,710
331,070	0,681	228,788	113,713
332,085	0,480	228,814	113,564
333,100	0,655	228,505	113,533
334,114	0,441	228,432	113,324
335,129	0,501	228,329	113,309
336,143	0,549	228,163	113,252
337,158	0,535	228,020	113,161
338,173	0,554	227,918	113,114
339,187	0,506	227,729	112,974
340,202	0,591	227,593	112,960
341,216	0,736	227,402	112,965
342,231	0,744	227,224	112,872
343,246	0,480	227,274	112,689
344,260	0,720	227,003	112,724
345,275	0,739	226,858	112,657
346,289	0,588	226,774	112,492
347,304	0,789	226,477	112,485
348,319	0,518	226,471	112,269
349,333	0,499	226,395	112,207
350,348	0,674	226,108	112,185
351,362	0,790	226,072	112,244
352,377	0,655	225,935	112,066
353,392	0,717	225,841	112,055
354,406	0,796	225,641	112,005
355,421	192,108	1312,317	1377,945
356,435	153,885	1444,556	1377,781
