DTS Sentinel unit serial number:	SN410029Multiplexer serial number:	ORYXHardware model number:	OX2-SRSoftware version number:	ORYX F/W v4,00 Oryx Data Collector v3.7.2.0data status	okinstallation	B5 Nyhavnadifferential loss correction	single-endedforward channel	channel 2reverse channel	N/Adate	2023/12/14time	13:47:13forward acquisition time	300,00reverse acquisition time	0,00gamma	499,1914k internal	0,3157k external	0,3157temperature offset calibration	1,0000default loss term (dB/km)	0,3820temperature slope calibration	1,0000multiplexer offset coefficient	1,0000multiplexer slope coefficient	1,0000fibre end	0,00T internal ref (°C)	8,07T ext. ref 1 (°C)	-7,86T ext. ref 2 (°C)	-7,92length (m)	temperature (°C)	Stokes	anti-Stokes-744,400	-6,351	0,109	-0,055
-743,385	26,619	-0,276	-0,170
-742,371	36,951	0,282	0,183
-741,356	-70,371	-0,308	-0,086
-740,342	710,009	0,053	0,104
-739,327	-108,111	-0,376	-0,059
-738,312	98,041	0,132	0,112
-737,298	-65,947	-0,386	-0,113
-736,283	64,378	0,186	0,138
-735,269	-73,347	-0,326	-0,087
-734,254	-102,232	0,127	0,022
-733,239	-60,124	-0,534	-0,167
-732,225	-33,034	0,077	0,031
-731,210	-200,000	-0,031	0,150
-730,196	-200,000	-0,002	-0,119
-729,181	-200,000	0,007	-0,148
-728,167	800,000	0,023	-0,057
-727,152	-195,304	-0,100	0,001
-726,137	554,546	-0,044	0,078
-725,123	-47,658	-0,214	0,076
-724,108	-200,000	0,008	-0,104
-723,094	111,605	-0,079	-0,070
-722,079	-200,000	-0,023	-0,180
-721,064	432,134	-0,053	-0,085
-720,050	111,450	0,067	-0,059
-719,035	19,472	-0,103	-0,061
-718,021	-75,171	-0,087	0,023
-717,006	-38,215	0,133	-0,052
-715,991	-67,326	-0,143	0,041
-714,977	-200,000	0,027	0,103
-713,962	-200,000	0,004	0,028
-712,948	-200,000	-0,096	-0,000
-711,933	800,000	-0,010	0,032
-710,918	54,536	-0,065	0,046
-709,904	800,000	-0,026	0,078
-708,889	565,377	-0,034	-0,062
-707,875	-200,000	0,002	-0,119
-706,860	-51,590	0,064	-0,022
-705,845	-200,000	-0,038	0,150
-704,831	-113,071	-0,097	-0,014
-703,816	-85,418	0,073	-0,017
-702,802	256,367	0,063	0,080
-701,787	-67,067	-0,093	0,027
-700,772	-94,502	-0,159	0,032
-699,758	-109,408	0,127	-0,020
-698,743	96,405	0,110	-0,093
-697,729	38,821	0,037	0,024
-696,714	-88,574	-0,026	0,006
-695,699	274,290	-0,058	-0,076
-694,685	-178,742	-0,099	-0,002
-693,670	158,575	-0,066	-0,067
-692,656	474,281	0,038	-0,063
-691,641	58,614	-0,079	0,057
-690,627	29,371	0,129	0,081
-689,612	77,014	-0,062	0,048
-688,597	238,494	-0,053	-0,064
-687,583	800,000	-0,044	-0,092
-686,568	330,872	-0,093	-0,133
-685,554	38,568	0,061	0,040
-684,539	552,926	-0,026	0,046
-683,524	-200,000	-0,004	0,100
-682,510	-200,000	-0,001	0,026
-681,495	-103,072	-0,147	-0,025
-680,481	-33,473	-0,057	-0,023
-679,466	135,836	-0,047	-0,045
-678,451	800,000	-0,051	-0,123
-677,437	-200,000	-0,002	-0,058
-676,422	-200,000	-0,004	0,029
-675,408	-200,000	0,020	0,182
-674,393	404,401	-0,045	0,070
-673,378	742,838	-0,032	-0,065
-672,364	-34,804	0,036	0,015
-671,349	-51,519	-0,142	0,048
-670,335	86,552	-0,061	0,050
-669,320	154,751	-0,075	-0,076
-668,305	-200,000	0,012	-0,113
-667,291	607,694	-0,039	-0,072
-666,276	-95,407	-0,027	-0,005
-665,262	800,000	-0,036	-0,097
-664,247	-70,517	-0,128	-0,035
-663,232	171,725	-0,081	0,086
-662,218	637,248	0,021	0,039
-661,203	-64,485	-0,229	0,068
-660,189	431,394	0,049	-0,079
-659,174	308,972	-0,040	0,056
-658,159	27,491	0,092	0,057
-657,145	-170,395	-0,088	0,002
-656,130	59,488	0,085	0,062
-655,116	-83,251	-0,097	-0,023
-654,101	143,770	-0,067	0,066
-653,086	-200,000	0,003	0,087
-652,072	-12,322	0,049	0,024
-651,057	-159,431	0,071	0,003
-650,043	-102,353	-0,131	-0,023
-649,028	800,000	-0,004	-0,011
-648,014	-200,000	0,034	0,134
-646,999	73,813	-0,073	0,056
-645,984	301,124	0,082	0,112
-644,970	-15,138	0,066	0,031
-643,955	91,037	-0,087	-0,072
-642,941	-79,647	-0,031	-0,008
-641,926	-3,464	0,112	-0,057
-640,911	58,637	0,069	-0,050
-639,897	-52,143	-0,087	0,030
-638,882	184,311	-0,083	-0,091
-637,868	95,330	0,043	-0,036
-636,853	-200,000	0,001	-0,094
-635,838	-200,000	-0,031	-0,125
-634,824	545,677	-0,046	0,081
-633,809	234,553	0,031	-0,037
-632,795	-57,995	-0,059	0,019
-631,780	-120,451	-0,120	0,015
-630,765	407,527	0,019	0,030
-629,751	-200,000	-0,018	-0,117
-628,736	594,070	0,036	-0,066
-627,722	-75,439	0,203	-0,053
-626,707	-9,344	-0,046	0,022
-625,692	800,000	0,026	0,062
-624,678	-200,000	0,007	0,038
-623,663	-141,724	-0,098	-0,007
-622,649	53,146	0,053	-0,037
-621,634	-200,000	0,026	-0,121
-620,619	0,412	0,043	0,022
-619,605	171,081	0,092	-0,097
-618,590	-200,000	-0,026	0,098
-617,576	45,483	0,070	0,048
-616,561	-87,521	0,115	-0,025
-615,546	37,375	-0,055	-0,036
-614,532	199,234	-0,045	0,051
-613,517	-200,000	-0,001	-0,003
-612,503	624,828	0,056	-0,105
-611,488	37,477	0,032	0,021
-610,474	482,102	0,038	-0,063
-609,459	800,000	0,045	-0,131
-608,444	337,636	-0,058	-0,084
-607,430	-56,428	0,062	0,020
-606,415	-200,000	0,021	-0,107
-605,401	94,516	0,129	0,108
-604,386	-66,963	0,049	0,014
-603,371	-100,845	-0,064	-0,011
-602,357	-92,319	0,130	-0,027
-601,342	-164,964	-0,142	-0,005
-600,328	-38,023	-0,103	0,040
-599,313	-87,262	-0,113	-0,025
-598,298	275,767	0,023	-0,030
-597,284	285,401	0,119	0,158
-596,269	-50,780	0,154	0,053
-595,255	-171,424	-0,140	-0,003
-594,240	-24,314	0,056	0,024
-593,225	-56,603	-0,156	-0,050
-592,211	-10,143	-0,021	-0,010
-591,196	-14,098	-0,061	0,029
-590,182	-18,861	0,077	0,035
-589,167	-100,347	0,071	0,013
-588,152	21,224	-0,030	0,018
-587,138	41,035	-0,120	-0,079
-586,123	-200,000	0,000	-0,136
-585,109	10,407	0,026	-0,015
-584,094	-200,000	0,005	0,183
-583,079	800,000	0,040	0,130
-582,065	800,000	-0,056	-0,115
-581,050	-200,000	-0,042	-0,138
-580,036	800,000	0,038	-0,087
-579,021	-173,893	-0,107	0,002
-578,006	-31,316	-0,061	-0,025
-576,992	59,849	-0,034	-0,024
-575,977	800,000	0,051	-0,162
-574,963	279,211	0,081	-0,106
-573,948	-22,444	0,097	-0,043
-572,934	800,000	0,011	-0,023
-571,919	254,968	-0,040	-0,051
-570,904	-11,571	-0,163	-0,078
-569,890	-200,000	0,010	0,100
-568,875	-200,000	0,020	0,143
-567,861	63,665	0,100	-0,073
-566,846	-200,000	-0,025	0,115
-565,831	-31,916	-0,151	-0,061
-564,817	-109,919	-0,087	0,013
-563,802	-167,507	-0,081	-0,002
-562,788	-53,880	0,158	0,052
-561,773	-41,180	-0,008	-0,003
-560,758	90,710	0,035	-0,029
-559,744	-65,703	0,130	-0,038
-558,729	-200,000	0,003	-0,064
-557,715	800,000	-0,033	-0,104
-556,700	-200,000	-0,032	-0,103
-555,685	-77,840	-0,064	-0,016
-554,671	-200,000	-0,004	-0,031
-553,656	174,056	-0,009	-0,009
-552,642	63,044	0,098	0,072
-551,627	800,000	-0,019	-0,044
-550,612	800,000	-0,026	-0,055
-549,598	-200,000	0,010	-0,079
-548,583	407,309	0,046	0,072
-547,569	222,530	-0,055	-0,065
-546,554	-200,000	0,016	0,078
-545,539	-92,180	0,086	-0,018
-544,525	-200,000	0,004	-0,061
-543,510	37,979	0,058	-0,038
-542,496	312,094	-0,071	-0,097
-541,481	512,012	-0,019	-0,033
-540,466	521,651	0,058	0,100
-539,452	204,209	-0,017	0,019
-538,437	-98,790	-0,084	0,016
-537,423	53,292	0,106	0,074
-536,408	-37,685	-0,120	-0,047
-535,393	800,000	-0,064	-0,135
-534,379	-63,600	-0,098	-0,029
-533,364	-30,438	-0,090	-0,037
-532,350	-66,485	0,054	0,016
-531,335	800,000	-0,042	0,116
-530,321	800,000	0,058	0,123
-529,306	-84,983	0,037	0,008
-528,291	-116,027	0,059	-0,008
-527,277	4,933	-0,112	-0,060
-526,262	231,028	0,138	0,166
-525,248	253,140	0,041	-0,052
-524,233	-45,267	-0,090	-0,033
-523,218	474,225	-0,057	0,095
-522,204	441,174	-0,059	-0,095
-521,189	-200,000	0,041	-0,218
-520,175	-97,863	-0,212	0,040
-519,160	242,509	0,080	-0,098
-518,145	-200,000	-0,006	-0,050
-517,131	-200,000	-0,021	0,118
-516,116	-200,000	0,015	0,148
-515,102	-47,710	0,021	0,008
-514,087	800,000	-0,012	0,034
-513,072	141,465	-0,123	-0,119
-512,058	585,887	0,065	-0,117
-511,043	-141,347	-0,138	-0,010
-510,029	-135,564	-0,144	0,012
-509,014	-200,000	0,006	-0,035
-507,999	-197,109	-0,120	-0,001
-506,985	32,905	0,142	-0,090
-505,970	237,419	0,055	-0,067
-504,956	-54,672	0,021	-0,007
-503,941	33,624	-0,049	0,031
-502,926	10,424	-0,051	-0,029
-501,912	50,460	0,061	0,042
-500,897	295,113	-0,135	-0,180
-499,883	14,183	0,074	0,042
-498,868	46,369	-0,011	-0,008
-497,853	-200,000	0,049	0,215
-496,839	-64,879	-0,056	0,016
-495,824	90,497	0,126	0,103
-494,810	176,917	0,058	-0,062
-493,795	-200,000	0,015	0,083
-492,781	66,928	0,052	0,039
-491,766	562,229	-0,043	0,077
-490,751	-200,000	0,025	0,130
-489,737	-200,000	-0,008	0,054
-488,722	-23,522	-0,170	-0,074
-487,708	800,000	-0,011	0,036
-486,693	-101,719	0,131	-0,023
-485,678	273,834	-0,006	0,007
-484,664	-200,000	-0,009	0,057
-483,649	-200,000	-0,029	0,108
-482,635	-163,981	0,112	-0,004
-481,620	-69,961	0,137	0,038
-480,605	-200,000	0,016	0,121
-479,591	-90,907	-0,050	0,010
-478,576	180,029	0,023	-0,025
-477,562	405,254	0,041	-0,064
-476,547	28,910	-0,119	-0,074
-475,532	143,543	-0,049	0,048
-474,518	571,496	-0,063	0,112
-473,503	-39,915	0,041	0,016
-472,489	-200,000	0,023	-0,146
-471,474	129,590	0,148	-0,138
-470,459	-200,000	-0,015	0,096
-469,445	-200,000	0,011	-0,066
-468,430	105,750	0,082	0,070
-467,416	-200,000	0,039	0,161
-466,401	87,894	0,097	0,078
-465,386	-74,077	-0,033	0,009
-464,372	-200,000	0,027	-0,087
-463,357	800,000	0,075	-0,227
-462,343	-61,092	-0,069	-0,021
-461,328	781,009	0,021	-0,041
-460,313	-137,359	-0,066	-0,005
-459,299	119,709	-0,085	0,077
-458,284	-200,000	-0,046	0,234
-457,270	-200,000	-0,011	0,069
-456,255	-80,133	0,086	0,021
-455,241	10,764	0,035	-0,019
-454,226	-120,773	0,084	0,010
-453,211	-200,000	-0,011	-0,082
-452,197	-200,000	-0,029	0,095
-451,182	-200,000	-0,009	0,097
-450,168	298,042	0,166	0,222
-449,153	138,732	-0,066	0,063
-448,138	-18,336	-0,021	-0,009
-447,124	800,000	0,015	-0,036
-446,109	310,327	0,057	0,078
-445,095	-200,000	-0,022	-0,123
-444,080	-126,588	0,029	0,003
-443,065	-74,230	-0,149	0,039
-442,051	-143,046	-0,091	-0,006
-441,036	-4,353	-0,055	0,028
-440,022	23,111	0,081	-0,049
-439,007	0,038	0,014	0,007
-437,992	372,117	-0,059	0,088
-436,978	800,000	0,033	0,098
-435,963	53,098	-0,052	-0,036
-434,949	76,690	0,104	0,080
-433,934	-22,306	-0,080	-0,035
-432,919	-200,000	0,007	-0,079
-431,905	-200,000	-0,017	0,099
-430,890	222,421	0,063	-0,074
-429,876	-162,827	0,104	-0,004
-428,861	84,176	-0,099	-0,079
-427,846	-200,000	0,001	-0,056
-426,832	800,000	-0,031	0,082
-425,817	-200,000	-0,003	0,034
-424,803	-200,000	-0,019	0,063
-423,788	-199,474	0,161	-0,001
-422,773	-113,780	-0,096	-0,013
-421,759	96,808	0,036	-0,030
-420,744	50,959	0,032	0,022
-419,730	-163,687	-0,079	-0,003
-418,715	107,685	-0,113	0,098
-417,701	-200,000	0,016	-0,071
-416,686	168,878	0,079	-0,082
-415,671	-200,000	-0,006	-0,155
-414,657	-66,666	0,146	0,042
-413,642	800,000	-0,014	-0,038
-412,628	416,818	0,071	-0,111
-411,613	40,351	0,127	-0,083
-410,598	-200,000	-0,005	-0,067
-409,584	702,475	0,025	-0,048
-408,569	137,709	0,104	0,099
-407,555	-200,000	0,023	-0,154
-406,540	-176,821	0,066	-0,001
-405,525	800,000	0,026	0,056
-404,511	-200,000	-0,022	-0,109
-403,496	120,952	-0,069	-0,062
-402,482	169,769	-0,030	0,031
-401,467	-6,773	0,176	0,087
-400,452	523,350	0,111	0,190
-399,438	-111,490	-0,202	-0,030
-398,423	-63,989	-0,199	-0,059
-397,409	-81,579	-0,027	0,006
-396,394	800,000	-0,009	-0,022
-395,379	153,951	0,041	0,041
-394,365	87,467	-0,008	0,006
-393,350	800,000	-0,018	0,046
-392,336	-200,000	0,029	0,185
-391,321	14,796	-0,125	-0,071
-390,306	-200,000	0,020	-0,119
-389,292	800,000	-0,062	-0,134
-388,277	-11,624	0,042	-0,020
-387,263	214,825	0,180	0,208
-386,248	18,256	-0,134	0,078
-385,233	-66,426	-0,123	0,035
-384,219	99,573	0,073	0,062
-383,204	-11,817	-0,067	0,032
-382,190	-200,000	-0,009	0,043
-381,175	59,496	-0,081	0,058
-380,160	47,281	0,062	-0,042
-379,146	800,000	-0,046	-0,107
-378,131	-125,717	0,087	0,009
-377,117	-200,000	-0,015	0,085
-376,102	800,000	0,043	-0,120
-375,088	-200,000	-0,032	-0,107
-374,073	-200,000	0,006	0,068
-373,058	-27,964	0,115	-0,048
-372,044	453,415	-0,042	0,067
-371,029	800,000	0,027	0,060
-370,015	642,740	-0,031	-0,058
-369,000	-122,792	-0,017	0,002
-367,985	800,000	-0,003	0,007
-366,971	-200,000	0,004	0,099
-365,956	-200,000	-0,012	-0,059
-364,942	800,000	0,046	0,138
-363,927	114,756	0,155	0,137
-362,912	-65,967	0,109	0,031
-361,898	-3,272	0,007	-0,004
-360,883	800,000	-0,035	-0,080
-359,869	-51,373	-0,086	-0,029
-358,854	-124,942	0,128	0,014
-357,839	-82,996	0,100	-0,023
-356,825	-200,000	-0,005	0,112
-355,810	500,119	-0,027	0,046
-354,796	87,065	0,078	0,063
-353,781	-200,000	-0,002	-0,057
-352,766	15,798	0,017	-0,010
-351,752	800,000	0,019	-0,056
-350,737	186,818	0,090	0,097
-349,723	-197,865	0,126	0,001
-348,708	160,352	-0,085	0,087
-347,693	-75,257	-0,149	0,038
-346,679	492,694	0,049	0,082
-345,664	-5,177	0,014	0,007
-344,650	-200,000	0,054	0,175
-343,635	-200,000	-0,019	0,132
-342,620	800,000	-0,027	0,058
-341,606	464,257	0,011	-0,017
-340,591	130,779	0,185	-0,173
-339,577	-127,050	0,067	-0,007
-338,562	69,643	0,034	0,025
-337,548	77,397	0,021	-0,016
-336,533	-200,000	0,006	0,035
-335,518	800,000	0,045	0,092
-334,504	800,000	0,017	0,042
-333,489	-86,636	-0,162	0,036
-332,475	-86,369	-0,056	-0,012
-331,460	149,286	0,022	-0,021
-330,445	-200,000	0,026	0,092
-329,431	9,966	0,096	-0,053
-328,416	800,000	-0,071	0,165
-327,402	-200,000	0,010	-0,080
-326,387	334,562	-0,084	0,119
-325,372	800,000	0,050	-0,133
-324,358	-200,000	-0,000	0,040
-323,343	-97,761	0,046	0,009
-322,329	297,249	0,059	0,078
-321,314	800,000	0,042	-0,107
-320,299	-2,599	0,033	-0,017
-319,285	-39,017	-0,079	0,030
-318,270	-70,592	-0,058	-0,016
-317,256	158,671	-0,090	-0,091
-316,241	308,489	-0,044	0,060
-315,226	185,933	0,012	0,012
-314,212	58,792	0,050	0,036
-313,197	79,459	0,105	0,082
-312,183	-200,000	-0,009	-0,080
-311,168	-200,000	0,032	-0,210
-310,153	-27,795	0,074	-0,031
-309,139	800,000	0,027	-0,069
-308,124	128,125	0,021	0,019
-307,110	-200,000	0,035	0,157
-306,095	-200,000	-0,007	-0,058
-305,080	-200,000	0,026	-0,109
-304,066	-133,765	0,175	0,016
-303,051	520,133	-0,036	-0,061
-302,037	-128,333	-0,117	0,012
-301,022	-6,611	-0,029	-0,014
-300,008	-200,000	-0,002	-0,039
-298,993	10,809	0,061	-0,034
-297,978	85,503	0,069	0,055
-296,964	368,368	-0,059	0,087
-295,949	359,534	-0,036	-0,053
-294,935	-134,210	0,055	0,005
-293,920	1,789	0,062	0,032
-292,905	715,765	0,046	0,088
-291,891	39,396	0,133	0,086
-290,876	-81,217	-0,076	-0,018
-289,862	-16,358	0,062	-0,028
-288,847	548,737	-0,059	-0,103
-287,832	15,828	-0,109	-0,062
-286,818	800,000	-0,072	0,156
-285,803	60,443	0,060	0,043
-284,789	-16,468	0,101	-0,046
-283,774	-200,000	0,002	-0,083
-282,759	35,921	-0,026	0,017
-281,745	23,530	-0,138	0,082
-280,730	800,000	-0,036	-0,095
-279,716	784,740	0,062	-0,123
-278,701	-132,589	-0,060	0,006
-277,686	12,661	0,117	-0,065
-276,672	800,000	0,050	0,132
-275,657	745,747	0,084	-0,164
-274,643	800,000	0,016	-0,041
-273,628	212,207	-0,048	-0,055
-272,613	249,575	-0,030	-0,037
-271,599	800,000	0,047	0,101
-270,584	-108,775	0,110	-0,017
-269,570	800,000	-0,074	0,150
-268,555	-114,382	0,097	-0,013
-267,540	-200,000	0,023	0,121
-266,526	-200,000	0,009	-0,098
-265,511	121,184	-0,057	-0,051
-264,497	43,359	0,108	-0,071
-263,482	-200,000	-0,006	0,174
-262,467	-72,494	0,142	0,038
-261,453	-132,415	-0,209	-0,019
-260,438	-200,000	0,030	-0,128
-259,424	385,655	-0,026	0,039
-258,409	-200,000	0,004	-0,080
-257,395	-118,288	0,073	0,009
-256,380	-200,000	-0,006	-0,064
-255,365	-200,000	0,000	0,032
-254,351	297,938	0,052	-0,070
-253,336	-160,202	0,024	-0,001
-252,322	22,795	-0,117	-0,069
-251,307	-200,000	-0,024	-0,082
-250,292	-102,973	-0,070	-0,012
-249,278	-109,513	-0,020	0,003
-248,263	350,983	0,060	0,086
-247,249	-200,000	0,021	0,102
-246,234	-200,000	0,010	0,087
-245,219	162,234	-0,183	-0,186
-244,205	-200,000	0,018	-0,086
-243,190	19,169	-0,185	0,107
-242,176	-145,348	0,106	-0,007
-241,161	145,084	0,043	0,041
-240,146	800,000	0,034	0,070
-239,132	-62,297	0,032	0,010
-238,117	800,000	-0,066	-0,152
-237,103	800,000	-0,039	-0,094
-236,088	-200,000	-0,044	0,154
-235,073	6,751	-0,042	0,023
-234,059	-200,000	0,019	-0,096
-233,044	-200,000	0,022	-0,086
-232,030	800,000	0,035	0,095
-231,015	-200,000	-0,006	-0,089
-230,000	800,000	0,020	0,062
-228,986	-200,000	-0,029	-0,139
-227,971	-156,622	-0,110	0,005
-226,957	-21,800	0,079	-0,034
-225,942	533,883	-0,034	-0,059
-224,927	44,976	-0,110	-0,073
-223,913	-16,769	0,068	0,031
-222,898	36,575	-0,076	-0,048
-221,884	107,706	0,049	0,042
-220,869	342,481	0,050	0,072
-219,855	-32,916	0,057	-0,023
-218,840	60,405	0,092	0,065
-217,825	-78,843	-0,051	0,013
-216,811	-39,939	-0,089	-0,033
-215,796	753,543	-0,036	-0,071
-214,782	182,259	0,032	-0,034
-213,767	569,236	-0,082	0,144
-212,752	-17,176	-0,017	-0,008
-211,738	200,783	-0,108	0,120
-210,723	127,233	-0,051	-0,047
-209,709	800,000	-0,123	-0,315
-208,694	800,000	-0,043	-0,104
-207,679	254,601	-0,099	-0,123
-206,665	-200,000	0,018	0,070
-205,650	-71,147	-0,038	0,010
-204,636	281,172	-0,096	0,125
-203,621	12,378	0,037	0,020
-202,606	39,154	-0,082	-0,053
-201,592	-10,683	0,155	-0,074
-200,577	-144,214	-0,095	0,006
-199,563	-200,000	-0,045	0,163
-198,548	-200,000	0,012	0,099
-197,533	-200,000	0,008	-0,060
-196,519	-200,000	0,040	0,164
-195,504	501,075	-0,066	-0,110
-194,490	72,841	-0,033	-0,025
-193,475	477,134	-0,069	-0,113
-192,460	-49,331	-0,081	-0,028
-191,446	-61,566	-0,050	0,015
-190,431	129,817	-0,071	0,065
-189,417	45,544	0,030	0,020
-188,402	152,478	-0,080	-0,078
-187,387	-164,750	-0,054	0,002
-186,373	-27,618	-0,078	-0,033
-185,358	-59,201	0,051	-0,016
-184,344	188,522	-0,016	-0,017
-183,329	14,891	0,103	0,058
-182,315	800,000	-0,049	0,113
-181,300	-10,481	0,035	0,017
-180,285	45,717	0,140	-0,093
-179,271	-145,376	0,012	0,001
-178,256	55,666	-0,065	0,045
-177,242	-200,000	-0,028	0,092
-176,227	-8,150	-0,060	0,029
-175,212	711,049	-0,076	0,146
-174,198	-200,000	0,018	-0,083
-173,183	-74,070	-0,071	-0,018
-172,169	800,000	0,040	-0,083
-171,154	221,167	-0,029	-0,034
-170,139	86,651	0,159	0,126
-169,125	77,450	-0,058	-0,044
-168,110	-200,000	0,012	-0,071
-167,096	5,296	0,005	-0,002
-166,081	481,395	-0,028	-0,045
-165,066	800,000	-0,049	-0,101
-164,052	-57,222	-0,035	-0,011
-163,037	800,000	0,022	-0,051
-162,023	607,849	0,048	0,086
-161,008	800,000	-0,055	0,135
-159,993	422,286	-0,068	-0,105
-158,979	780,305	0,052	0,104
-157,964	-200,000	0,011	0,052
-156,950	-129,066	-0,171	0,017
-155,935	-200,000	-0,031	0,111
-154,920	222,083	0,085	0,099
-153,906	-200,000	-0,026	0,137
-152,891	68,314	-0,035	-0,026
-151,877	67,566	-0,102	-0,075
-150,862	392,878	0,006	0,009
-149,847	-200,000	0,018	-0,152
-148,833	266,069	-0,061	-0,077
-147,818	494,989	-0,063	0,104
-146,804	35,628	0,037	-0,023
-145,789	324,884	-0,055	0,076
-144,775	800,000	-0,019	-0,059
-143,760	-200,000	-0,017	-0,069
-142,745	96,336	-0,070	0,058
-141,731	-197,337	-0,134	-0,001
-140,716	92,632	-0,122	0,099
-139,702	-200,000	0,001	0,051
-138,687	-195,118	-0,042	-0,000
-137,672	-200,000	0,001	-0,019
-136,658	-95,414	-0,101	0,019
-135,643	90,462	0,037	0,030
-134,629	-62,082	0,147	0,044
-133,614	-44,677	-0,043	0,015
-132,599	-200,000	0,025	-0,084
-131,585	-8,333	0,094	-0,046
-130,570	-200,000	0,010	-0,075
-129,556	-200,000	-0,011	-0,048
-128,541	310,767	-0,043	-0,058
-127,526	-51,329	0,074	-0,025
-126,512	800,000	0,005	0,014
-125,497	15,513	-0,090	0,051
-124,483	-200,000	0,029	0,102
-123,468	-78,394	0,034	-0,008
-122,453	800,000	0,040	-0,090
-121,439	-84,338	-0,089	0,020
-120,424	-13,018	-0,092	0,043
-119,410	451,566	0,088	-0,140
-118,395	-11,776	-0,036	-0,017
-117,380	79,925	-0,037	0,028
-116,366	-200,000	0,043	0,177
-115,351	149,135	0,095	-0,093
-114,337	177,984	-0,129	0,136
-113,322	-200,000	0,007	0,137
-112,307	698,080	-0,019	-0,037
-111,293	-152,206	0,134	-0,007
-110,278	-200,000	-0,001	-0,016
-109,264	284,620	-0,060	-0,078
-108,249	-137,259	-0,043	-0,003
-107,234	502,851	0,060	-0,100
-106,220	259,557	-0,073	0,091
-105,205	23,901	-0,048	-0,029
-104,191	-147,320	0,151	-0,009
-103,176	0,067	-0,051	-0,026
-102,162	681,874	-0,049	-0,092
-101,147	-187,947	-0,113	-0,001
-100,132	503,228	-0,065	-0,109
-99,118	-164,902	-0,094	-0,003
-98,103	96,930	0,119	0,098
-97,089	-100,454	0,036	-0,006
-96,074	45,691	-0,020	-0,013
-95,059	-77,809	-0,129	0,032
-94,045	800,000	0,043	-0,092
-93,030	82,521	0,143	-0,112
-92,016	198,488	-0,115	-0,126
-91,001	-16,376	-0,062	0,028
-89,986	-52,860	0,081	-0,027
-88,972	-85,973	-0,015	-0,003
-87,957	-124,927	0,062	-0,007
-86,943	361,108	-0,013	0,019
-85,928	-200,000	-0,011	-0,097
-84,913	800,000	0,026	-0,061
-83,899	-79,853	-0,070	-0,017
-82,884	-200,000	0,014	0,080
-81,870	309,277	-0,021	0,029
-80,855	-35,910	0,082	0,032
-79,840	-5,720	0,117	-0,058
-78,826	-131,748	-0,113	-0,011
-77,811	-200,000	-0,010	-0,166
-76,797	37,833	0,095	-0,061
-75,782	155,177	-0,054	-0,053
-74,767	-42,445	0,064	-0,023
-73,753	302,358	-0,030	-0,040
-72,738	-12,418	0,027	0,013
-71,724	131,313	-0,106	-0,098
-70,709	15,619	0,017	0,010
-69,694	197,338	0,112	-0,123
-68,680	262,473	0,071	-0,089
-67,665	-170,033	-0,035	-0,001
-66,651	28,154	0,007	-0,004
-65,636	2,283	-0,102	0,053
-64,622	800,000	-0,042	-0,095
-63,607	206,379	0,049	-0,055
-62,592	33,762	0,078	-0,049
-61,578	800,000	-0,096	-0,215
-60,563	170,783	0,059	-0,061
-59,549	251,845	-0,088	0,108
-58,534	88,787	-2,636	-2,104
-57,519	-28,567	0,375	-0,155
-56,505	800,000	-1,785	-5,386
-55,490	417,404	1,313	2,020
-54,476	800,000	5,260	11,131
-53,461	-200,000	22,197	346,883
-52,446	800,000	760,188	2299,940
-51,432	515,638	1646,492	2771,012
-50,417	98,628	1610,992	1333,121
-49,403	66,805	1267,334	924,833
-48,388	23,406	1018,453	599,473
-47,373	19,271	985,265	566,275
-46,359	12,928	972,275	538,030
-45,344	8,695	969,213	522,444
-44,330	9,222	966,933	522,919
-43,315	8,203	965,344	518,705
-42,300	8,146	964,124	517,843
-41,286	8,135	963,087	517,230
-40,271	8,086	962,063	516,499
-39,257	8,069	961,198	515,962
-38,242	8,082	960,466	515,589
-37,227	8,080	959,632	515,114
-36,213	8,068	958,710	514,561
-35,198	8,064	957,879	514,081
-34,184	8,169	957,145	514,007
-33,169	8,128	956,204	513,350
-32,154	8,139	955,365	512,914
-31,140	8,160	954,407	512,447
-30,125	8,158	953,666	512,020
-29,111	8,130	952,814	511,454
-28,096	8,158	952,062	511,121
-27,082	8,108	951,526	510,652
-26,067	8,091	950,883	510,230
-25,052	8,069	949,944	509,637
-24,038	8,078	949,345	509,324
-23,023	8,074	948,665	508,926
-22,009	8,058	948,147	508,576
-20,994	8,140	947,511	508,478
-19,979	8,181	946,656	508,130
-18,965	8,039	946,390	507,513
-17,950	8,123	945,648	507,362
-16,936	8,083	944,738	506,726
-15,921	8,048	944,105	506,255
-14,906	8,026	943,592	505,891
-13,892	7,991	942,919	505,399
-12,877	7,937	942,352	504,902
-11,863	7,925	941,881	504,589
-10,848	7,895	941,313	504,169
-9,833	8,076	940,751	504,425
-8,819	7,984	940,222	503,828
-7,804	7,997	939,277	503,345
-6,790	8,032	938,734	503,144
-5,775	8,111	938,106	503,038
-4,760	8,029	937,637	502,507
-3,746	8,021	936,923	502,078
-2,731	7,856	936,101	501,095
-1,717	7,875	935,624	500,882
-0,702	7,872	934,891	500,460
0,313	7,702	934,429	500,431
1,327	11,088	932,239	509,895
2,342	19,914	780,181	449,863
3,356	15,048	448,549	251,284
4,371	-11,289	313,181	147,386
5,386	-15,132	295,660	135,233
6,400	-17,115	289,527	130,447
7,415	-17,371	286,955	129,024
8,429	-17,971	284,993	127,544
9,444	-18,230	284,196	126,923
10,459	-18,219	283,521	126,621
11,473	-18,039	282,770	126,449
12,488	-18,061	282,466	126,281
13,502	-18,068	281,965	126,038
14,517	-18,203	281,517	125,697
15,531	-18,192	281,009	125,470
16,546	-18,042	280,667	125,450
17,561	-18,064	280,278	125,243
18,575	-18,001	279,844	125,099
19,590	-18,245	279,615	124,752
20,604	-18,133	279,289	124,703
21,619	-18,226	278,886	124,422
22,634	-18,134	278,489	124,322
23,648	-18,160	278,300	124,202
24,663	-18,136	278,036	124,095
25,677	-17,979	277,544	124,015
26,692	-18,016	277,256	123,839
27,707	-18,033	277,167	123,772
28,721	-18,223	276,858	123,444
29,736	-18,203	276,550	123,314
30,750	-18,229	276,341	123,185
31,765	-17,990	276,056	123,273
32,780	-18,050	275,767	123,077
33,794	-18,158	275,655	122,913
34,809	-17,891	275,164	122,935
35,823	-17,960	275,052	122,809
36,838	-18,020	274,751	122,607
37,853	-18,074	274,490	122,429
38,867	-18,209	274,479	122,287
39,882	-18,149	274,063	122,146
40,896	-18,079	273,804	122,086
41,911	-17,980	273,606	122,079
42,926	-18,124	273,316	121,804
43,940	-18,095	273,083	121,716
44,955	-18,067	272,846	121,626
45,969	-17,977	272,479	121,536
46,984	-18,088	272,608	121,479
47,999	-17,938	272,263	121,454
49,013	-17,911	272,068	121,381
50,028	-17,903	271,760	121,241
51,042	-17,991	271,574	121,065
52,057	-17,835	271,273	121,064
53,071	-18,068	271,130	120,774
54,086	-17,888	270,876	120,817
55,101	-18,060	270,609	120,528
56,115	-18,218	270,465	120,307
57,130	-17,863	270,020	120,426
58,144	-17,978	269,710	120,171
59,159	-17,978	269,504	120,069
60,174	-18,041	269,373	119,942
61,188	-18,016	269,172	119,865
62,203	-17,969	269,028	119,832
63,217	-18,136	268,785	119,560
64,232	-18,025	268,514	119,531
65,247	-17,868	268,172	119,512
66,261	-17,928	268,072	119,402
67,276	-18,268	267,951	119,026
68,290	-18,070	267,602	119,041
69,305	-18,102	267,464	118,940
70,320	-18,159	267,153	118,739
71,334	-18,005	266,897	118,755
72,349	-17,839	266,646	118,784
73,363	-18,004	266,424	118,525
74,378	-17,896	266,087	118,462
75,393	-18,083	266,137	118,304
76,407	-17,792	265,689	118,358
77,422	-17,940	265,536	118,145
78,436	-17,942	265,458	118,098
79,451	-17,971	265,117	117,910
80,466	-18,035	264,760	117,683
81,480	-17,852	264,553	117,746
82,495	-17,844	264,354	117,654
83,509	-17,941	264,291	117,527
84,524	-18,070	264,075	117,305
85,539	-17,948	263,877	117,316
86,553	-18,002	263,518	117,097
87,568	-18,016	263,406	117,025
88,582	-17,855	263,041	116,996
89,597	-18,054	262,978	116,780
90,611	-18,024	262,808	116,721
91,626	-18,013	262,566	116,613
92,641	-18,087	262,428	116,475
93,655	-17,816	262,214	116,612
94,670	-17,926	261,910	116,368
95,684	-17,933	261,581	116,205
96,699	-17,863	261,502	116,222
97,714	-18,082	261,293	115,924
98,728	-17,989	261,182	115,947
99,743	-17,929	260,955	115,889
100,757	-17,901	260,858	115,861
101,772	-17,970	260,365	115,570
102,787	-18,069	260,280	115,435
103,801	-17,983	259,983	115,369
104,816	-17,869	259,952	115,445
105,830	-17,980	259,687	115,220
106,845	-18,018	259,526	115,104
107,860	-17,638	259,258	115,310
108,874	-17,830	258,899	114,971
109,889	-17,940	258,861	114,847
110,903	-18,123	258,728	114,617
111,918	-17,921	258,454	114,663
112,933	-17,946	258,298	114,561
113,947	-17,901	257,970	114,445
114,962	-18,022	257,717	114,217
115,976	-17,905	257,583	114,249
116,991	-17,881	257,418	114,187
118,006	-17,871	257,250	114,111
119,020	-17,980	257,150	113,961
120,035	-17,878	256,845	113,905
121,049	-17,977	256,620	113,709
122,064	-17,837	256,570	113,798
123,079	-17,885	256,422	113,681
124,093	-17,963	256,215	113,511
125,108	-17,828	255,997	113,522
126,122	-18,000	255,893	113,316
127,137	-17,736	255,476	113,350
128,151	-17,845	255,381	113,203
129,166	-17,847	255,041	113,041
130,181	-17,846	255,048	113,035
131,195	-17,874	254,769	112,877
132,210	-18,042	254,528	112,615
133,224	-17,954	254,390	112,620
134,239	-17,915	254,059	112,497
135,254	-17,772	253,892	112,536
136,268	-17,801	253,801	112,461
137,283	-17,841	253,636	112,343
138,297	-17,717	253,311	112,295
139,312	-17,843	253,003	112,041
140,327	-17,689	252,909	112,122
141,341	-17,713	252,768	112,029
142,356	-17,877	252,668	111,833
143,370	-17,925	252,318	111,628
144,385	-17,999	252,231	111,516
145,400	-17,886	251,822	111,421
146,414	-17,986	251,700	111,272
147,429	-17,894	251,570	111,283
148,443	-17,848	251,391	111,233
149,458	-17,680	251,169	111,268
150,473	-17,876	251,016	111,024
151,487	-17,849	250,794	110,939
152,502	-17,788	250,629	110,908
153,516	-17,788	250,379	110,787
154,531	-17,955	250,239	110,574
155,546	-17,953	250,113	110,510
156,560	-17,925	249,994	110,471
157,575	-17,920	249,869	110,411
158,589	-17,774	249,656	110,430
159,604	-17,599	249,295	110,408
160,619	-17,765	249,115	110,178
161,633	-17,908	248,990	109,993
162,648	-17,751	248,763	110,015
163,662	-18,030	248,844	109,806
164,677	-17,742	248,604	109,932
165,692	-17,692	248,182	109,778
166,706	-17,712	248,212	109,765
167,721	-17,780	247,993	109,602
168,735	-17,887	247,826	109,427
169,750	-17,609	247,648	109,572
170,764	-17,899	247,684	109,336
171,779	-17,868	247,395	109,224
172,794	-17,845	247,217	109,155
173,808	-17,713	246,953	109,139
174,823	-17,639	246,850	109,145
175,837	-17,784	246,702	108,949
176,852	-17,655	246,608	109,005
177,867	-17,896	246,306	108,662
178,881	-17,650	245,999	108,721
179,896	-17,871	246,044	108,548
180,910	-17,892	245,856	108,438
181,925	-17,818	245,616	108,384
182,940	-17,919	245,466	108,224
183,954	-17,799	245,214	108,202
184,969	-17,668	245,071	108,238
185,983	-17,751	244,794	108,037
186,998	-17,752	244,668	107,972
188,013	-17,745	244,695	107,980
189,027	-17,672	244,284	107,849
190,042	-17,825	244,183	107,669
191,056	-17,829	243,976	107,564
192,071	-17,696	243,895	107,629
193,086	-17,830	243,647	107,399
194,100	-18,034	243,509	107,161
195,115	-17,762	243,225	107,250
196,129	-17,671	243,118	107,268
197,144	-17,786	242,894	107,065
198,159	-18,011	242,829	106,843
199,173	-17,758	242,509	106,900
200,188	-17,775	242,384	106,821
201,202	-17,634	242,178	106,836
202,217	-17,616	242,028	106,775
203,232	-17,602	241,906	106,723
204,246	-17,645	241,653	106,567
205,261	-17,543	241,454	106,552
206,275	-16,255	242,013	107,840
207,290	-11,388	243,761	112,606
208,304	-5,327	245,496	118,397
209,319	-3,034	246,143	120,592
210,334	-2,384	246,066	121,080
211,348	-1,824	246,205	121,599
212,363	-1,266	246,305	122,098
213,377	-0,727	246,435	122,596
214,392	-0,024	246,453	123,174
215,407	0,498	246,427	123,580
216,421	0,461	246,291	123,470
217,436	0,681	246,162	123,575
218,450	0,608	245,986	123,416
219,465	0,682	245,778	123,361
220,480	0,574	245,790	123,268
221,494	0,678	245,433	123,163
222,509	0,197	245,299	122,691
223,523	0,362	244,921	122,625
224,538	0,172	244,886	122,442
225,553	0,032	244,525	122,136
226,567	0,152	244,523	122,222
227,582	0,085	244,335	122,062
228,596	0,203	244,203	122,082
229,611	-0,068	244,046	121,771
230,626	0,119	243,868	121,824
231,640	0,108	243,620	121,680
232,655	-0,099	243,608	121,495
233,669	0,046	243,358	121,477
234,684	0,113	243,147	121,415
235,699	0,373	243,036	121,561
236,713	0,354	243,026	121,529
237,728	0,361	242,684	121,353
238,742	0,382	242,564	121,299
239,757	0,181	242,411	121,049
240,772	0,182	242,157	120,913
241,786	0,017	242,160	120,769
242,801	-0,039	241,917	120,593
243,815	-0,052	241,813	120,520
244,830	0,033	241,686	120,514
245,844	0,063	241,500	120,435
246,859	0,131	241,327	120,393
247,874	0,015	241,228	120,239
248,888	0,028	240,998	120,124
249,903	0,206	240,714	120,115
250,917	0,036	240,782	120,001
251,932	0,107	240,578	119,946
252,947	0,152	240,459	119,912
253,961	0,134	240,198	119,757
254,976	0,134	240,157	119,725
255,990	0,185	239,792	119,574
257,005	0,083	239,680	119,426
258,020	0,093	239,637	119,401
259,034	-0,015	239,503	119,238
260,049	0,108	239,428	119,289
261,063	0,109	239,162	119,146
262,078	0,227	238,885	119,091
263,093	-0,053	238,826	118,828
264,107	-0,059	238,660	118,730
265,122	-0,081	238,462	118,603
266,136	0,285	238,359	118,832
267,151	0,162	238,110	118,600
268,166	0,160	238,087	118,576
269,180	0,102	237,902	118,428
270,195	-0,048	237,736	118,216
271,209	0,063	237,555	118,204
272,224	0,058	237,460	118,142
273,239	0,127	237,181	118,047
274,253	0,114	237,093	117,982
275,268	0,057	237,053	117,906
276,282	0,121	236,860	117,851
277,297	0,131	236,547	117,692
278,312	0,154	236,429	117,641
279,326	0,391	236,285	117,745
280,341	0,454	236,167	117,725
281,355	0,305	236,087	117,558
282,370	0,336	235,989	117,523
283,384	0,344	235,779	117,414
284,399	0,227	235,702	117,274
285,414	-0,032	235,513	116,967
286,428	0,207	235,201	116,988
287,443	0,256	235,154	116,993
288,457	0,208	235,026	116,881
289,472	0,108	234,849	116,705
290,487	0,133	234,630	116,605
291,501	0,265	234,525	116,645
292,516	0,229	234,402	116,545
293,530	0,138	234,351	116,439
294,545	0,362	234,137	116,496
295,560	0,300	233,941	116,340
296,574	0,278	233,928	116,306
297,589	0,197	233,732	116,135
298,603	0,309	233,652	116,172
299,618	0,197	233,438	115,969
300,633	0,270	233,263	115,928
301,647	0,364	233,199	115,958
302,662	0,377	232,921	115,820
303,676	0,380	232,870	115,787
304,691	0,461	232,667	115,738
305,706	0,223	232,590	115,505
306,720	0,319	232,269	115,410
307,735	0,079	232,326	115,243
308,749	0,509	232,108	115,455
309,764	0,325	232,000	115,250
310,779	0,310	231,756	115,107
311,793	0,381	231,598	115,072
312,808	0,381	231,384	114,956
313,822	0,397	231,239	114,886
314,837	0,582	231,073	114,935
315,852	0,457	231,040	114,813
316,866	0,367	230,957	114,693
317,881	0,518	230,654	114,648
318,895	0,322	230,688	114,504
319,910	0,277	230,467	114,350
320,925	0,454	230,396	114,439
321,939	0,285	230,232	114,219
322,954	0,206	230,219	114,142
323,968	0,379	229,929	114,120
324,983	0,482	229,796	114,122
325,997	0,284	229,711	113,919
327,012	0,416	229,351	113,831
328,027	0,575	229,354	113,942
329,041	0,598	229,099	113,823
330,056	0,423	229,033	113,648
331,070	0,644	228,793	113,686
332,085	0,717	228,624	113,646
333,100	0,656	228,468	113,513
334,114	0,451	228,344	113,286
335,129	0,535	228,115	113,226
336,143	0,623	227,914	113,183
337,158	0,665	227,991	113,242
338,173	0,669	227,806	113,143
339,187	0,513	227,762	112,994
340,202	0,483	227,555	112,858
341,216	0,663	227,424	112,919
342,231	0,741	227,159	112,836
343,246	0,492	227,180	112,649
344,260	0,761	227,058	112,780
345,275	0,650	226,949	112,634
346,289	0,832	226,747	112,659
347,304	0,775	226,540	112,503
348,319	0,592	226,322	112,249
349,333	0,522	226,304	112,177
350,348	0,500	226,139	112,069
351,362	0,449	226,086	111,994
352,377	0,721	225,886	112,088
353,392	0,407	225,771	111,788
354,406	0,866	225,427	111,948
355,421	192,396	1313,013	1379,564
356,435	154,115	1445,381	1379,411
