DTS Sentinel unit serial number:	SN410029Multiplexer serial number:	ORYXHardware model number:	OX2-SRSoftware version number:	ORYX F/W v4,00 Oryx Data Collector v3.7.2.0data status	okinstallation	B6 Nyhavnadifferential loss correction	single-endedforward channel	channel 2reverse channel	N/Adate	2023/12/08time	09:40:08forward acquisition time	300,00reverse acquisition time	0,00gamma	499,1914k internal	0,3166k external	0,3166temperature offset calibration	1,0000default loss term (dB/km)	0,3820temperature slope calibration	1,0000multiplexer offset coefficient	1,0000multiplexer slope coefficient	1,0000fibre end	0,00T internal ref (°C)	13,67T ext. ref 1 (°C)	-1,94T ext. ref 2 (°C)	-1,92length (m)	temperature (°C)	Stokes	anti-Stokes-744,400	251,081	0,089	0,111
-743,385	-107,816	-0,393	0,062
-742,371	43,022	0,102	0,068
-741,356	-161,730	-0,331	0,012
-740,342	-41,155	0,137	0,052
-739,327	-130,974	-0,417	-0,040
-738,312	800,000	-0,032	0,098
-737,298	-142,354	-0,333	-0,024
-736,283	-9,669	0,122	0,060
-735,269	-118,466	-0,298	-0,038
-734,254	-94,818	0,145	0,029
-733,239	5,803	-0,460	-0,250
-732,225	-99,861	0,204	0,037
-731,210	-125,261	-0,061	0,007
-730,196	230,276	0,075	0,090
-729,181	154,893	-0,035	0,035
-728,167	-200,000	-0,053	-0,178
-727,152	275,660	0,089	0,116
-726,137	2,437	-0,057	-0,030
-725,123	-52,282	-0,148	0,050
-724,108	-3,411	-0,072	-0,037
-723,094	-200,000	-0,029	-0,151
-722,079	184,428	0,096	-0,105
-721,064	-200,000	-0,007	-0,082
-720,050	266,516	0,011	-0,014
-719,035	218,748	-0,063	-0,074
-718,021	-76,579	-0,173	-0,044
-717,006	590,610	-0,102	-0,185
-715,991	399,072	-0,038	-0,059
-714,977	-4,954	-0,056	0,028
-713,962	-124,353	0,073	-0,008
-712,948	577,609	-0,032	0,057
-711,933	-27,651	-0,129	0,055
-710,918	69,198	0,016	0,012
-709,904	440,552	-0,065	-0,105
-708,889	-20,822	-0,106	-0,047
-707,875	-200,000	-0,014	-0,156
-706,860	-39,741	-0,064	0,024
-705,845	-108,262	-0,010	0,002
-704,831	-200,000	0,011	0,123
-703,816	20,540	-0,093	0,055
-702,802	-66,771	-0,120	-0,035
-701,787	-28,593	-0,192	0,081
-700,772	-180,585	-0,175	0,003
-699,758	-177,332	0,098	0,002
-698,743	8,642	0,167	0,092
-697,729	-162,278	-0,240	-0,009
-696,714	-200,000	-0,015	-0,083
-695,699	36,555	0,064	-0,041
-694,685	-135,349	-0,126	-0,011
-693,670	-80,962	-0,053	-0,013
-692,656	192,414	0,027	-0,030
-691,641	500,837	-0,079	-0,134
-690,627	8,222	-0,089	0,049
-689,612	-68,409	-0,133	-0,038
-688,597	-16,063	-0,211	-0,098
-687,583	-200,000	-0,012	-0,165
-686,568	33,100	-0,065	-0,041
-685,554	-200,000	0,017	-0,122
-684,539	146,083	0,097	0,096
-683,524	17,655	0,071	-0,041
-682,510	800,000	-0,052	0,111
-681,495	-200,000	-0,044	0,205
-680,481	-37,810	-0,121	0,047
-679,466	-200,000	0,034	-0,137
-678,451	82,528	0,071	-0,056
-677,437	-200,000	-0,000	0,004
-676,422	-200,000	-0,011	0,140
-675,408	-19,419	0,081	0,037
-674,393	584,029	0,019	0,035
-673,378	5,586	-0,213	-0,115
-672,364	105,059	-0,033	-0,029
-671,349	-135,533	0,130	-0,011
-670,335	-200,000	0,005	0,063
-669,320	-200,000	0,015	-0,089
-668,305	-200,000	0,021	0,119
-667,291	-12,831	-0,028	0,013
-666,276	149,206	-0,052	0,051
-665,262	-35,704	-0,189	-0,075
-664,247	800,000	0,043	0,113
-663,232	-15,890	-0,049	0,023
-662,218	-124,431	0,143	0,016
-661,203	125,596	-0,108	-0,100
-660,189	-200,000	0,003	-0,015
-659,174	-102,832	-0,129	-0,022
-658,159	328,419	-0,087	-0,123
-657,145	-34,945	0,052	-0,021
-656,130	111,990	0,108	0,096
-655,116	658,128	0,087	0,165
-654,101	-26,235	-0,127	0,054
-653,086	-129,325	-0,060	-0,006
-652,072	194,297	-0,093	-0,104
-651,057	-200,000	0,005	0,023
-650,043	-200,000	0,004	-0,170
-649,028	-200,000	-0,015	-0,050
-648,014	257,615	-0,079	0,100
-646,999	800,000	0,056	-0,171
-645,984	32,303	0,027	-0,017
-644,970	72,308	-0,066	-0,050
-643,955	-200,000	-0,020	-0,109
-642,941	152,807	0,055	0,055
-641,926	-53,672	-0,096	-0,032
-640,911	73,254	-0,066	-0,050
-639,897	-200,000	0,005	0,120
-638,882	-73,678	0,109	-0,029
-637,868	303,481	-0,055	0,074
-636,853	440,077	-0,047	0,075
-635,838	197,048	-0,048	-0,054
-634,824	-14,456	0,045	-0,021
-633,809	-200,000	-0,001	0,089
-632,795	-200,000	-0,011	0,068
-631,780	446,917	0,074	-0,119
-630,765	-23,281	-0,030	-0,013
-629,751	302,683	-0,078	-0,106
-628,736	75,215	-0,077	-0,059
-627,722	800,000	0,064	-0,131
-626,707	-15,472	-0,147	0,069
-625,692	800,000	0,050	-0,139
-624,678	-65,877	0,100	0,029
-623,663	56,623	-0,064	0,045
-622,649	800,000	-0,040	-0,119
-621,634	-200,000	-0,021	-0,092
-620,619	149,422	-0,113	-0,112
-619,605	-2,542	0,016	0,008
-618,590	-156,893	-0,101	0,004
-617,576	-26,569	0,064	-0,027
-616,561	-200,000	0,003	-0,033
-615,546	168,418	0,031	0,032
-614,532	461,024	0,091	0,149
-613,517	800,000	-0,033	0,088
-612,503	-80,682	-0,026	0,006
-611,488	-200,000	-0,000	0,024
-610,474	-129,751	0,127	0,013
-609,459	69,784	-0,110	-0,083
-608,444	-0,367	0,041	-0,021
-607,430	135,010	-0,186	-0,177
-606,415	145,111	0,012	-0,012
-605,401	800,000	0,086	-0,218
-604,386	-200,000	0,034	0,141
-603,371	-124,322	0,110	-0,012
-602,357	800,000	-0,035	0,104
-601,342	-200,000	0,017	0,106
-600,328	22,583	-0,153	0,091
-599,313	8,267	-0,154	-0,084
-598,298	-96,993	-0,045	0,009
-597,284	-200,000	0,019	0,090
-596,269	-200,000	0,002	-0,016
-595,255	-77,618	0,062	-0,016
-594,240	-200,000	-0,003	0,025
-593,225	-200,000	-0,012	-0,132
-592,211	721,828	0,008	-0,016
-591,196	256,398	0,027	-0,035
-590,182	-24,140	-0,084	0,037
-589,167	-33,923	0,067	-0,027
-588,152	-200,000	0,001	0,064
-587,138	123,819	0,025	0,023
-586,123	584,701	0,003	0,006
-585,109	784,693	-0,046	-0,092
-584,094	800,000	-0,011	-0,032
-583,079	174,800	0,023	-0,024
-582,065	-200,000	-0,030	-0,100
-581,050	-47,122	0,034	0,012
-580,036	800,000	-0,066	-0,173
-579,021	380,315	-0,104	-0,156
-578,006	154,039	-0,131	-0,131
-576,992	-143,084	0,058	-0,004
-575,977	800,000	0,031	-0,095
-574,963	241,283	0,030	0,036
-573,948	99,552	0,109	0,092
-572,934	-123,302	-0,185	0,021
-571,919	33,308	0,037	0,023
-570,904	-200,000	-0,004	-0,050
-569,890	800,000	0,050	-0,102
-568,875	161,492	0,112	0,114
-567,861	-200,000	-0,040	0,160
-566,846	-200,000	-0,014	-0,061
-565,831	344,996	0,039	0,057
-564,817	517,841	0,062	0,106
-563,802	-9,180	-0,112	-0,054
-562,788	342,778	-0,033	0,047
-561,773	291,522	0,035	0,046
-560,758	-107,344	-0,035	-0,006
-559,744	-200,000	-0,021	0,111
-558,729	-118,334	0,099	-0,013
-557,715	159,995	0,142	-0,145
-556,700	168,322	0,042	-0,043
-555,685	-106,063	-0,228	-0,037
-554,671	-129,524	0,115	0,011
-553,656	743,437	-0,033	0,065
-552,642	151,104	0,129	0,128
-551,627	-200,000	-0,020	0,088
-550,612	412,553	-0,071	-0,110
-549,598	-112,167	-0,075	-0,011
-548,583	210,584	-0,036	0,041
-547,569	800,000	-0,047	-0,142
-546,554	160,928	0,055	0,056
-545,539	-200,000	-0,022	0,112
-544,525	-200,000	0,000	-0,087
-543,510	301,056	-0,052	-0,070
-542,496	-54,717	-0,011	0,004
-541,481	278,283	0,041	0,053
-540,466	-8,472	-0,071	-0,035
-539,452	58,612	-0,027	0,019
-538,437	-23,164	0,004	-0,002
-537,423	-124,532	-0,056	0,006
-536,408	-116,441	-0,093	0,012
-535,393	-200,000	0,010	0,071
-534,379	6,047	0,044	-0,024
-533,364	-200,000	-0,008	-0,072
-532,350	800,000	0,026	-0,071
-531,335	34,384	0,125	-0,080
-530,321	188,330	0,035	-0,038
-529,306	-200,000	-0,019	-0,146
-528,291	-30,610	-0,036	0,015
-527,277	-75,330	0,017	0,004
-526,262	-200,000	-0,011	-0,040
-525,248	-83,033	0,165	0,038
-524,233	-200,000	0,018	0,173
-523,218	-80,350	-0,189	-0,046
-522,204	-91,232	0,052	0,011
-521,189	168,645	-0,082	-0,085
-520,175	-200,000	-0,003	0,050
-519,160	800,000	-0,041	0,127
-518,145	-13,027	0,110	-0,052
-517,131	748,731	0,031	0,061
-516,116	-200,000	0,001	-0,065
-515,102	-200,000	-0,004	0,019
-514,087	16,099	-0,106	0,061
-513,072	-20,606	0,179	0,080
-512,058	4,046	0,029	0,016
-511,043	-82,520	-0,121	0,028
-510,029	21,266	0,095	0,056
-509,014	322,326	0,088	-0,122
-507,999	-35,772	-0,090	-0,035
-506,985	109,378	-0,066	-0,057
-505,970	68,058	-0,080	-0,060
-504,956	-30,787	-0,079	-0,032
-503,941	-20,732	0,156	-0,069
-502,926	-62,602	0,126	0,038
-501,912	-200,000	0,001	0,075
-500,897	111,552	-0,043	0,038
-499,883	-55,158	0,067	-0,022
-498,868	-137,795	-0,121	0,010
-497,853	-19,885	-0,035	0,016
-496,839	-125,540	0,014	-0,002
-495,824	762,442	0,025	0,050
-494,810	214,877	0,046	0,053
-493,795	800,000	-0,076	0,212
-492,781	-28,851	-0,014	-0,006
-491,766	-28,257	0,028	0,012
-490,751	-27,012	-0,104	0,044
-489,737	68,072	-0,094	0,070
-488,722	433,832	0,024	-0,039
-487,708	209,857	0,075	0,085
-486,693	800,000	-0,058	-0,141
-485,678	800,000	0,044	-0,129
-484,664	42,627	0,039	-0,026
-483,649	-200,000	-0,015	-0,057
-482,635	29,163	0,049	-0,030
-481,620	80,884	0,018	0,014
-480,605	130,347	0,023	-0,021
-479,591	-133,559	-0,048	-0,004
-478,576	800,000	0,039	0,082
-477,562	800,000	-0,052	-0,106
-476,547	157,678	0,059	-0,060
-475,532	-200,000	-0,018	0,095
-474,518	-200,000	0,002	-0,017
-473,503	64,179	-0,042	0,030
-472,489	-21,744	0,112	-0,049
-471,474	-200,000	-0,005	-0,035
-470,459	320,751	-0,017	-0,023
-469,445	-200,000	-0,039	-0,162
-468,430	-12,448	0,078	-0,037
-467,416	174,738	0,057	-0,060
-466,401	432,560	0,123	0,195
-465,386	-58,460	0,017	0,005
-464,372	714,965	-0,012	-0,022
-463,357	800,000	0,042	-0,087
-462,343	88,141	-0,122	-0,098
-461,328	50,703	0,124	0,085
-460,313	-107,031	0,084	0,013
-459,299	230,141	-0,108	0,128
-458,284	800,000	-0,047	0,110
-457,270	-200,000	0,025	-0,082
-456,255	-200,000	-0,003	-0,123
-455,241	-200,000	0,033	-0,113
-454,226	-125,904	-0,057	0,006
-453,211	100,985	-0,060	0,051
-452,197	-59,686	0,084	-0,026
-451,182	-94,422	-0,061	-0,012
-450,168	-59,104	-0,063	-0,020
-449,153	-108,413	-0,031	0,005
-448,138	-78,523	-0,133	0,033
-447,124	800,000	-0,021	0,057
-446,109	-20,220	0,058	0,026
-445,095	800,000	-0,048	-0,117
-444,080	121,133	-0,039	0,036
-443,065	232,510	-0,034	0,041
-442,051	-200,000	0,014	0,157
-441,036	-107,980	0,065	-0,010
-440,022	536,135	0,019	-0,032
-439,007	744,570	0,028	0,056
-437,992	71,217	-0,116	0,087
-436,978	530,427	0,104	0,179
-435,963	-200,000	-0,018	0,170
-434,949	-200,000	-0,008	0,047
-433,934	-58,512	-0,056	-0,018
-432,919	106,435	-0,075	-0,064
-431,905	598,894	-0,020	-0,036
-430,890	134,353	-0,064	-0,060
-429,876	-43,292	-0,062	0,023
-428,861	-200,000	-0,009	-0,031
-427,846	1,884	0,089	-0,047
-426,832	-200,000	0,000	-0,048
-425,817	-200,000	-0,005	0,050
-424,803	199,172	0,060	-0,067
-423,788	-198,273	0,050	-0,000
-422,773	141,222	0,113	0,109
-421,759	-200,000	0,022	-0,099
-420,744	77,108	-0,109	0,084
-419,730	69,856	0,069	0,052
-418,715	238,943	0,087	0,105
-417,701	-200,000	-0,009	0,086
-416,686	-200,000	0,011	-0,090
-415,671	590,010	0,058	0,104
-414,657	800,000	0,026	0,066
-413,642	-95,385	0,048	0,009
-412,628	193,861	-0,056	0,062
-411,613	-200,000	0,038	0,000
-410,598	-0,498	-0,120	0,062
-409,584	-200,000	0,006	0,028
-408,569	421,685	0,083	-0,130
-407,555	146,020	0,043	-0,042
-406,540	368,123	0,056	0,083
-405,525	76,964	-0,028	0,022
-404,511	-61,801	0,087	-0,026
-403,496	30,468	0,057	-0,035
-402,482	556,172	-0,050	0,088
-401,467	-200,000	-0,015	0,063
-400,452	79,570	0,094	0,073
-399,438	-159,040	0,003	0,000
-398,423	-189,348	0,089	0,001
-397,409	427,311	0,051	-0,081
-396,394	371,900	-0,065	0,096
-395,379	27,767	-0,009	-0,006
-394,365	277,185	-0,034	0,044
-393,350	598,115	0,070	0,127
-392,336	538,113	-0,032	0,056
-391,321	349,693	-0,054	-0,078
-390,306	-200,000	0,020	-0,132
-389,292	-200,000	0,009	-0,159
-388,277	249,771	-0,107	-0,132
-387,263	-76,903	0,106	0,027
-386,248	-60,526	-0,139	0,043
-385,233	294,192	0,056	-0,074
-384,219	800,000	-0,035	-0,073
-383,204	800,000	0,069	-0,198
-382,190	423,971	0,085	-0,133
-381,175	113,325	0,091	0,080
-380,160	-200,000	0,007	-0,140
-379,146	-200,000	-0,007	0,114
-378,131	-135,433	0,090	0,008
-377,117	170,664	0,041	0,043
-376,102	-28,327	-0,039	0,016
-375,088	423,173	0,078	-0,122
-374,073	192,783	0,093	-0,102
-373,058	124,482	-0,066	0,060
-372,044	-200,000	0,007	0,044
-371,029	83,899	0,069	0,055
-370,015	310,246	-0,099	-0,135
-369,000	-200,000	-0,003	-0,137
-367,985	800,000	-0,054	-0,164
-366,971	800,000	-0,030	-0,084
-365,956	-18,462	-0,053	0,024
-364,942	294,117	0,086	0,114
-363,927	-83,999	-0,062	-0,014
-362,912	195,920	0,079	-0,087
-361,898	800,000	0,017	0,041
-360,883	-200,000	0,042	-0,161
-359,869	763,226	0,040	-0,080
-358,854	-200,000	-0,005	0,201
-357,839	-200,000	-0,049	-0,000
-356,825	-200,000	-0,032	-0,112
-355,810	-94,633	0,040	-0,008
-354,796	336,550	0,086	-0,121
-353,781	45,214	-0,051	0,034
-352,766	-24,835	-0,052	-0,022
-351,752	114,825	-0,037	0,033
-350,737	-16,316	0,095	0,043
-349,723	-134,719	0,108	-0,009
-348,708	124,788	-0,055	0,050
-347,693	5,688	-0,090	-0,048
-346,679	5,440	0,014	-0,008
-345,664	-24,853	0,058	0,025
-344,650	-200,000	-0,053	0,000
-343,635	-37,878	-0,049	0,019
-342,620	-18,431	-0,110	0,050
-341,606	-101,113	0,011	-0,002
-340,591	66,459	-0,028	-0,021
-339,577	241,281	-0,075	0,091
-338,562	46,430	0,071	0,048
-337,548	-123,591	0,033	-0,004
-336,533	112,324	0,098	0,086
-335,518	61,421	0,053	0,038
-334,504	-159,455	0,126	0,005
-333,489	76,685	-0,106	0,081
-332,475	-200,000	0,002	0,129
-331,460	-200,000	0,016	0,092
-330,445	-72,166	-0,032	0,009
-329,431	239,661	0,086	-0,104
-328,416	256,250	0,063	0,078
-327,402	238,079	0,049	-0,059
-326,387	177,217	-0,104	0,110
-325,372	55,042	-0,050	0,035
-324,358	117,149	-0,081	-0,072
-323,343	-200,000	0,029	-0,119
-322,329	-68,349	-0,032	0,009
-321,314	-200,000	-0,005	0,018
-320,299	14,201	-0,124	0,070
-319,285	110,359	-0,075	-0,065
-318,270	800,000	0,036	0,098
-317,256	-24,693	-0,044	-0,019
-316,241	426,300	-0,019	-0,030
-315,226	482,009	-0,077	0,128
-314,212	-200,000	0,010	-0,051
-313,197	397,227	0,052	-0,079
-312,183	208,122	0,042	-0,048
-311,168	-53,406	0,072	-0,024
-310,153	800,000	0,026	-0,078
-309,139	80,617	-0,085	-0,066
-308,124	-118,906	0,119	-0,015
-307,110	800,000	0,064	0,175
-306,095	-61,369	-0,086	0,026
-305,080	800,000	-0,068	0,194
-304,066	800,000	-0,046	0,127
-303,051	180,260	-0,042	-0,045
-302,037	-168,909	-0,077	-0,002
-301,022	70,067	-0,026	0,019
-300,008	101,129	0,108	-0,091
-298,993	158,988	0,112	0,113
-297,978	-200,000	0,007	0,071
-296,964	-200,000	0,008	0,122
-295,949	-60,446	-0,143	0,044
-294,935	-117,154	-0,034	-0,004
-293,920	51,506	-0,061	-0,042
-292,905	-200,000	0,008	-0,034
-291,891	-40,652	0,145	-0,054
-290,876	-200,000	0,008	0,042
-289,862	-68,252	-0,120	0,033
-288,847	221,228	0,055	-0,064
-287,832	-200,000	-0,005	0,045
-286,818	14,203	-0,060	0,034
-285,803	236,290	0,020	-0,024
-284,789	454,695	0,054	0,087
-283,774	25,060	-0,101	0,060
-282,759	422,705	-0,043	-0,068
-281,745	439,680	-0,037	-0,059
-280,730	-200,000	0,042	-0,152
-279,716	-91,195	-0,100	0,020
-278,701	106,755	0,154	0,132
-277,686	-200,000	0,009	0,031
-276,672	250,645	-0,039	0,048
-275,657	675,774	0,064	-0,120
-274,643	0,959	0,045	0,023
-273,628	800,000	-0,051	0,117
-272,613	-14,433	0,126	-0,058
-271,599	66,644	0,059	-0,043
-270,584	-200,000	-0,043	0,145
-269,570	-200,000	-0,001	0,011
-268,555	-200,000	0,026	-0,110
-267,540	800,000	-0,022	-0,052
-266,526	41,123	-0,126	-0,082
-265,511	698,599	0,053	-0,100
-264,497	800,000	0,044	0,120
-263,482	109,129	-0,118	0,102
-262,467	-134,590	0,137	-0,012
-261,453	800,000	-0,017	0,045
-260,438	-61,097	-0,118	-0,036
-259,424	-109,682	-0,029	0,004
-258,409	-60,774	0,144	0,044
-257,395	-116,719	0,142	-0,019
-256,380	231,999	-0,057	0,068
-255,365	797,621	0,034	-0,068
-254,351	56,956	-0,078	-0,055
-253,336	800,000	-0,068	-0,168
-252,322	18,146	-0,034	-0,020
-251,307	-107,088	0,067	-0,011
-250,292	-200,000	-0,011	-0,167
-249,278	-121,349	0,143	0,017
-248,263	-63,998	-0,011	-0,003
-247,249	-131,828	0,066	-0,006
-246,234	-54,260	-0,147	-0,048
-245,219	-40,466	-0,104	0,039
-244,205	-200,000	-0,001	0,090
-243,190	110,970	-0,024	-0,021
-242,176	-200,000	0,022	-0,114
-241,161	56,147	-0,087	0,061
-240,146	126,827	0,105	0,096
-239,132	-193,005	-0,070	0,000
-238,117	-88,326	-0,028	0,006
-237,103	56,837	-0,069	-0,048
-236,088	-120,837	-0,080	-0,010
-235,073	800,000	0,045	0,125
-234,059	-200,000	-0,001	0,085
-233,044	46,826	0,015	0,010
-232,030	53,785	0,049	0,034
-231,015	800,000	-0,019	-0,056
-230,000	716,703	-0,050	-0,097
-228,986	401,872	0,081	-0,123
-227,971	-200,000	0,014	0,130
-226,957	-200,000	-0,006	0,051
-225,942	147,147	-0,070	0,068
-224,927	232,309	-0,091	0,107
-223,913	-200,000	-0,036	-0,117
-222,898	-135,246	-0,098	0,008
-221,884	-115,587	0,037	0,005
-220,869	-12,855	0,020	0,009
-219,855	264,126	0,081	0,102
-218,840	547,461	0,062	0,107
-217,825	91,291	0,057	-0,046
-216,811	19,879	0,100	-0,058
-215,796	-157,633	-0,097	0,004
-214,782	-129,881	-0,034	-0,003
-213,767	135,370	0,028	-0,026
-212,752	-50,031	0,032	-0,011
-211,738	494,730	-0,002	-0,004
-210,723	3,869	0,055	0,029
-209,709	250,200	-0,119	0,146
-208,694	-200,000	0,034	0,137
-207,679	7,019	0,158	0,085
-206,665	436,121	-0,076	0,119
-205,650	800,000	0,036	-0,079
-204,636	-200,000	0,011	-0,119
-203,621	136,796	0,081	0,077
-202,606	800,000	-0,016	0,048
-201,592	-57,870	-0,056	0,017
-200,577	50,655	-0,020	0,014
-199,563	47,396	-0,083	0,055
-198,548	44,965	0,150	-0,099
-197,533	64,720	0,153	0,111
-196,519	800,000	-0,011	-0,033
-195,504	-56,386	-0,101	0,032
-194,490	-89,367	-0,110	-0,023
-193,475	800,000	0,030	-0,066
-192,460	-5,242	-0,074	0,036
-191,446	52,284	-0,036	-0,025
-190,431	311,776	0,005	-0,007
-189,417	-82,623	0,071	0,016
-188,402	-200,000	-0,013	0,054
-187,387	-35,867	-0,129	0,050
-186,373	440,490	-0,079	-0,125
-185,358	220,192	0,058	-0,067
-184,344	529,118	0,032	-0,054
-183,329	388,893	0,020	0,030
-182,315	591,182	0,060	0,107
-181,300	104,760	0,019	0,016
-180,285	-7,690	0,012	-0,006
-179,271	-184,407	-0,067	-0,001
-178,256	-86,502	0,045	-0,010
-177,242	744,886	-0,093	0,182
-176,227	352,662	-0,019	0,028
-175,212	258,906	-0,045	0,056
-174,198	-112,292	-0,161	0,023
-173,183	-200,000	-0,003	-0,106
-172,169	-26,348	0,127	-0,053
-171,154	164,317	0,055	0,056
-170,139	-83,833	-0,030	-0,007
-169,125	41,220	0,076	-0,049
-168,110	-89,724	-0,093	0,019
-167,096	17,320	-0,045	0,025
-166,081	-150,699	0,126	-0,007
-165,066	-114,506	0,142	0,019
-164,052	-200,000	0,021	-0,067
-163,037	-80,381	0,112	0,027
-162,023	375,778	-0,063	-0,093
-161,008	66,966	-0,040	0,029
-159,993	-116,649	0,076	-0,010
-158,979	223,816	-0,062	-0,073
-157,964	-33,987	-0,040	0,016
-156,950	354,875	-0,015	0,021
-155,935	-95,838	0,151	-0,029
-154,920	21,745	0,026	-0,015
-153,906	-122,366	0,116	-0,013
-152,891	-159,251	0,025	-0,001
-151,877	-69,694	-0,162	0,044
-150,862	576,149	-0,037	-0,065
-149,847	474,909	0,029	-0,047
-148,833	-200,000	0,003	0,094
-147,818	-27,459	0,116	0,048
-146,804	-4,769	-0,031	0,016
-145,789	-200,000	-0,004	0,119
-144,775	132,652	-0,076	-0,070
-143,760	343,700	-0,114	-0,160
-142,745	23,947	0,010	-0,006
-141,731	93,640	-0,050	-0,041
-140,716	-200,000	0,000	0,038
-139,702	800,000	-0,031	-0,084
-138,687	309,594	-0,028	-0,037
-137,672	-33,619	0,059	-0,023
-136,658	255,455	-0,098	-0,120
-135,643	-84,850	0,084	-0,019
-134,629	-133,951	-0,019	-0,002
-133,614	-200,000	-0,025	0,125
-132,599	-200,000	-0,002	-0,036
-131,585	-117,667	0,202	0,026
-130,570	795,188	-0,055	0,109
-129,556	19,206	0,126	0,073
-128,541	438,394	-0,091	-0,143
-127,526	590,107	0,068	-0,120
-126,512	-119,790	-0,041	-0,005
-125,497	191,447	0,053	-0,058
-124,483	800,000	0,055	-0,127
-123,468	-28,035	0,177	-0,073
-122,453	442,225	-0,050	-0,079
-121,439	-87,696	-0,133	-0,029
-120,424	-64,307	0,037	0,011
-119,410	456,138	0,054	0,086
-118,395	800,000	-0,055	0,129
-117,380	800,000	0,026	0,071
-116,366	800,000	0,006	-0,013
-115,351	25,393	-0,096	0,057
-114,337	-200,000	0,023	-0,080
-113,322	-200,000	0,008	-0,060
-112,307	-200,000	0,001	0,046
-111,293	-110,523	0,118	0,017
-110,278	800,000	0,012	-0,027
-109,264	347,095	0,080	0,114
-108,249	-200,000	0,022	-0,132
-107,234	156,542	-0,092	0,091
-106,220	-128,208	-0,039	-0,004
-105,205	-112,470	0,104	-0,015
-104,191	155,715	0,109	-0,108
-103,176	-75,678	-0,026	0,006
-102,162	-60,738	0,049	0,015
-101,147	166,241	-0,048	0,049
-100,132	-200,000	0,024	0,084
-99,118	-80,486	-0,067	0,016
-98,103	-200,000	-0,003	0,049
-97,089	-200,000	-0,012	0,052
-96,074	-200,000	0,017	-0,064
-95,059	-200,000	0,034	-0,185
-94,045	-154,249	-0,030	-0,001
-93,030	-200,000	0,001	-0,040
-92,016	-133,838	0,033	-0,003
-91,001	-158,096	-0,164	-0,007
-89,986	-93,213	-0,094	0,019
-88,972	-148,792	0,147	-0,008
-87,957	321,556	0,085	-0,116
-86,943	299,297	-0,093	0,123
-85,928	-80,409	-0,179	-0,043
-84,913	-200,000	-0,012	0,095
-83,899	149,388	-0,123	-0,119
-82,884	115,117	-0,083	-0,072
-81,870	-200,000	0,005	0,046
-80,855	800,000	-0,035	0,070
-79,840	56,005	0,076	0,053
-78,826	800,000	0,020	-0,058
-77,811	-111,783	0,064	-0,009
-76,797	800,000	0,031	0,088
-75,782	-71,609	-0,167	0,044
-74,767	82,415	0,031	-0,024
-73,753	110,611	0,099	0,086
-72,738	-52,498	-0,036	-0,012
-71,724	153,174	-0,036	0,036
-70,709	52,819	-0,054	0,037
-69,694	77,131	-0,097	-0,074
-68,680	-29,974	-0,080	0,033
-67,665	800,000	0,039	0,101
-66,651	52,877	0,103	-0,071
-65,636	15,882	-0,133	0,075
-64,622	-200,000	-0,029	-0,165
-63,607	177,934	-0,111	0,116
-62,592	-38,405	0,144	0,054
-61,578	39,474	-0,057	0,037
-60,563	800,000	-0,009	0,029
-59,549	31,230	0,095	0,058
-58,534	58,942	-1,989	-1,398
-57,519	-200,000	-0,006	-0,599
-56,505	-200,000	-1,498	-5,048
-55,490	63,403	0,902	0,647
-54,476	800,000	5,255	12,246
-53,461	-200,000	18,656	307,048
-52,446	800,000	737,951	2276,316
-51,432	539,503	1650,492	2821,615
-50,417	108,281	1635,423	1396,039
-49,403	71,913	1286,047	956,318
-48,388	29,747	1027,398	624,605
-47,373	19,589	990,049	568,421
-46,359	17,344	977,406	553,794
-45,344	14,076	973,540	540,903
-44,330	14,311	972,087	540,842
-43,315	13,754	970,208	537,956
-42,300	13,687	969,157	537,134
-41,286	13,645	968,369	536,540
-40,271	13,635	967,448	535,977
-39,257	13,621	966,708	535,499
-38,242	13,640	965,671	534,966
-37,227	13,750	964,672	534,746
-36,213	13,660	963,947	534,032
-35,198	13,624	962,943	533,338
-34,184	13,721	962,378	533,319
-33,169	13,744	961,207	532,723
-32,154	13,747	960,249	532,179
-31,140	13,756	959,325	531,676
-30,125	13,733	958,761	531,267
-29,111	13,760	957,875	530,841
-28,096	13,700	957,376	530,351
-27,082	13,718	956,615	529,966
-26,067	13,691	955,942	529,485
-25,052	13,656	955,119	528,899
-24,038	13,674	954,379	528,525
-23,023	13,689	953,683	528,164
-22,009	13,665	953,200	527,800
-20,994	13,704	952,476	527,504
-19,979	13,733	951,946	527,283
-18,965	13,710	951,188	526,767
-17,950	13,709	950,783	526,519
-16,936	13,656	950,081	525,939
-15,921	13,609	949,516	525,457
-14,906	13,590	948,671	524,906
-13,892	13,539	948,074	524,395
-12,877	13,591	947,256	524,088
-11,863	13,588	946,702	523,751
-10,848	13,573	946,196	523,402
-9,833	13,702	945,614	523,469
-8,819	13,648	945,057	522,969
-7,804	13,644	944,310	522,519
-6,790	13,590	943,831	522,063
-5,775	13,642	943,319	521,926
-4,760	13,616	942,737	521,498
-3,746	13,619	942,069	521,118
-2,731	13,454	941,380	520,195
-1,717	13,355	940,951	519,626
-0,702	13,444	940,002	519,361
0,313	13,265	939,390	519,243
1,327	16,694	937,333	528,851
2,342	25,993	789,000	469,600
3,356	22,603	444,227	259,365
4,371	-6,275	296,905	144,400
5,386	-10,110	278,726	131,899
6,400	-11,328	273,118	128,098
7,415	-11,256	270,722	127,030
8,429	-11,642	269,328	126,009
9,444	-11,801	268,294	125,368
10,459	-11,567	267,669	125,279
11,473	-11,562	266,971	124,946
12,488	-11,800	266,410	124,456
13,502	-12,163	266,036	123,940
14,517	-11,877	265,455	123,918
15,531	-11,965	264,987	123,609
16,546	-11,791	264,578	123,564
17,561	-11,999	264,173	123,176
18,575	-11,931	263,926	123,111
19,590	-11,909	263,456	122,901
20,604	-12,034	263,226	122,670
21,619	-12,032	262,912	122,515
22,634	-11,844	262,537	122,498
23,648	-12,161	262,221	122,056
24,663	-12,029	262,002	122,061
25,677	-12,235	261,961	121,847
26,692	-12,058	261,395	121,730
27,707	-12,104	261,164	121,571
28,721	-12,156	260,854	121,370
29,736	-12,351	260,671	121,101
30,750	-12,039	260,343	121,215
31,765	-12,178	260,204	121,016
32,780	-12,166	259,899	120,874
33,794	-12,084	259,724	120,854
34,809	-12,262	259,494	120,578
35,823	-12,250	259,109	120,399
36,838	-12,112	258,986	120,454
37,853	-12,350	258,590	120,048
38,867	-12,279	258,448	120,035
39,882	-12,263	258,181	119,914
40,896	-12,354	257,903	119,694
41,911	-12,333	257,777	119,643
42,926	-12,416	257,438	119,403
43,940	-12,336	257,126	119,317
44,955	-12,369	256,896	119,171
45,969	-12,335	256,727	119,112
46,984	-12,612	256,445	118,728
47,999	-12,782	256,134	118,426
49,013	-12,930	256,127	118,283
50,028	-12,982	255,718	118,039
51,042	-13,197	255,454	117,719
52,057	-13,075	255,217	117,705
53,071	-12,935	255,082	117,754
54,086	-12,918	254,852	117,652
55,101	-12,803	254,790	117,712
56,115	-12,415	254,445	117,879
57,130	-11,933	254,503	118,312
58,144	-11,986	254,489	118,249
59,159	-11,941	254,110	118,102
60,174	-11,829	253,922	118,100
61,188	-11,837	253,601	117,934
62,203	-12,030	253,456	117,690
63,217	-12,220	253,273	117,430
64,232	-12,050	253,046	117,461
65,247	-11,820	252,744	117,508
66,261	-12,012	252,471	117,205
67,276	-12,252	252,319	116,919
68,290	-12,368	252,033	116,676
69,305	-12,404	251,700	116,481
70,320	-12,583	251,570	116,257
71,334	-12,248	251,498	116,500
72,349	-11,876	251,287	116,710
73,363	-11,791	251,084	116,677
74,378	-11,788	250,853	116,562
75,393	-12,096	250,654	116,197
76,407	-11,947	250,375	116,184
77,422	-12,205	250,270	115,906
78,436	-12,047	250,034	115,921
79,451	-12,059	249,763	115,774
80,466	-12,045	249,307	115,564
81,480	-12,327	249,229	115,280
82,495	-12,524	249,136	115,060
83,509	-12,336	248,902	115,099
84,524	-12,278	248,536	114,970
85,539	-12,398	248,399	114,794
86,553	-12,379	248,162	114,691
87,568	-12,554	248,214	114,557
88,582	-12,357	247,782	114,513
89,597	-12,564	247,642	114,265
90,611	-12,368	247,591	114,395
91,626	-12,072	247,517	114,600
92,641	-12,220	247,260	114,346
93,655	-12,121	246,777	114,195
94,670	-12,321	246,708	113,986
95,684	-12,319	246,634	113,943
96,699	-12,375	246,522	113,834
97,714	-12,424	246,349	113,704
98,728	-12,499	245,972	113,457
99,743	-12,506	245,713	113,321
100,757	-12,587	245,558	113,173
101,772	-12,462	245,319	113,156
102,787	-12,522	245,299	113,087
103,801	-12,481	245,168	113,051
104,816	-12,231	244,968	113,155
105,830	-11,960	244,748	113,269
106,845	-12,097	244,595	113,074
107,860	-12,166	244,410	112,922
108,874	-12,218	244,181	112,763
109,889	-12,114	243,948	112,731
110,903	-12,194	243,730	112,554
111,918	-12,362	243,614	112,352
112,933	-12,202	243,473	112,408
113,947	-12,308	243,243	112,205
114,962	-11,957	242,998	112,371
115,976	-12,272	243,060	112,130
116,991	-12,162	242,692	112,041
118,006	-12,144	242,592	112,000
119,020	-11,997	242,384	112,014
120,035	-12,107	242,308	111,879
121,049	-12,049	242,139	111,838
122,064	-12,083	241,889	111,685
123,079	-12,077	241,684	111,586
124,093	-12,372	241,503	111,251
125,108	-12,468	241,220	111,032
126,122	-12,514	240,981	110,875
127,137	-12,753	240,802	110,588
128,151	-12,566	240,673	110,671
129,166	-12,594	240,519	110,568
130,181	-12,470	240,270	110,544
131,195	-12,471	240,070	110,442
132,210	-12,237	239,908	110,547
133,224	-12,248	239,891	110,520
134,239	-12,360	239,803	110,379
135,254	-12,134	239,421	110,377
136,268	-12,215	239,219	110,208
137,283	-12,441	238,874	109,857
138,297	-12,634	238,800	109,657
139,312	-12,716	238,555	109,469
140,327	-12,301	238,643	109,834
141,341	-11,986	238,648	110,080
142,356	-11,948	238,495	110,030
143,370	-11,701	238,169	110,069
144,385	-11,544	238,050	110,131
145,400	-11,802	237,931	109,858
146,414	-11,683	237,578	109,781
147,429	-11,997	237,477	109,473
148,443	-11,754	237,266	109,560
149,458	-11,800	237,091	109,433
150,473	-11,780	236,943	109,371
151,487	-11,987	236,795	109,128
152,502	-11,927	236,544	109,049
153,516	-11,675	236,450	109,197
154,531	-11,858	236,248	108,949
155,546	-11,870	236,168	108,892
156,560	-11,793	235,759	108,756
157,575	-11,969	235,562	108,515
158,589	-11,759	235,317	108,559
159,604	-11,615	235,395	108,700
160,619	-11,526	235,204	108,672
161,633	-11,602	235,111	108,560
162,648	-11,705	234,968	108,403
163,662	-11,781	234,693	108,206
164,677	-11,862	234,631	108,104
165,692	-11,856	234,525	108,050
166,706	-11,791	234,496	108,079
167,721	-11,645	234,280	108,084
168,735	-11,571	234,087	108,044
169,750	-11,590	233,947	107,955
170,764	-11,937	233,861	107,632
171,779	-11,645	233,584	107,725
172,794	-11,525	233,369	107,710
173,808	-11,923	233,114	107,270
174,823	-12,173	232,781	106,912
175,837	-12,419	232,635	106,642
176,852	-11,891	232,657	107,056
177,867	-11,538	232,510	107,255
178,881	-11,783	232,524	107,061
179,896	-11,659	232,246	107,020
180,910	-11,629	232,116	106,974
181,925	-11,640	232,036	106,919
182,940	-11,431	231,826	106,976
183,954	-11,527	231,615	106,794
184,969	-11,590	231,572	106,716
185,983	-11,676	231,529	106,619
186,998	-11,383	231,212	106,692
188,013	-11,657	231,066	106,402
189,027	-11,558	230,980	106,429
190,042	-11,531	230,660	106,294
191,056	-11,510	230,608	106,276
192,071	-11,285	230,359	106,326
193,086	-11,376	230,253	106,197
194,100	-11,472	230,123	106,054
195,115	-11,333	229,861	106,031
196,129	-10,529	230,283	106,838
197,144	-5,161	231,989	111,797
198,159	-0,042	233,418	116,471
199,173	2,353	234,137	118,691
200,188	2,641	234,100	118,886
201,202	2,630	233,900	118,765
202,217	3,040	233,913	119,081
203,232	3,211	233,698	119,094
204,246	3,398	233,546	119,152
205,261	3,498	233,381	119,135
206,275	3,690	233,421	119,293
207,290	3,722	233,240	119,215
208,304	3,555	232,984	118,944
209,319	3,418	232,916	118,793
210,334	3,256	232,852	118,624
211,348	2,981	232,467	118,205
212,363	3,064	232,095	118,069
213,377	2,708	231,900	117,684
214,392	2,602	231,972	117,628
215,407	2,868	231,740	117,705
216,421	2,961	231,666	117,729
217,436	2,900	231,387	117,530
218,450	2,458	231,201	117,085
219,465	2,560	231,018	117,060
220,480	2,355	231,031	116,898
221,494	2,517	230,710	116,850
222,509	2,997	230,795	117,251
223,523	2,863	230,644	117,061
224,538	2,786	230,202	116,767
225,553	2,859	230,332	116,879
226,567	2,919	229,998	116,745
227,582	3,302	230,053	117,055
228,596	3,389	229,897	117,032
229,611	2,974	229,563	116,535
230,626	2,351	229,437	115,985
231,640	2,730	229,221	116,154
232,655	3,028	229,259	116,390
233,669	3,165	229,289	116,500
234,684	3,414	228,893	116,477
235,699	3,251	228,700	116,245
236,713	2,933	228,681	115,984
237,728	2,923	228,427	115,837
238,742	2,661	228,233	115,529
239,757	2,794	228,168	115,587
240,772	2,898	227,951	115,546
241,786	2,659	227,850	115,304
242,801	3,050	227,627	115,476
243,815	3,450	227,588	115,748
244,830	3,288	227,499	115,570
245,844	2,825	227,213	115,065
246,859	2,813	227,160	115,019
247,874	3,203	226,996	115,219
248,888	3,017	226,874	115,007
249,903	2,922	226,791	114,883
250,917	2,776	226,483	114,607
251,932	2,818	226,490	114,632
252,947	2,766	226,244	114,458
253,961	2,839	225,987	114,373
254,976	2,882	225,868	114,335
255,990	3,092	225,742	114,418
257,005	3,163	225,577	114,377
258,020	2,943	225,566	114,197
259,034	2,936	225,552	114,175
260,049	2,883	225,369	114,032
261,063	2,975	225,192	114,000
262,078	3,191	225,111	114,112
263,093	3,087	224,923	113,928
264,107	3,085	224,787	113,847
265,122	3,029	224,626	113,714
266,136	3,316	224,407	113,807
267,151	3,079	224,358	113,596
268,166	2,754	224,107	113,217
269,180	2,799	223,809	113,090
270,195	2,670	223,560	112,858
271,209	2,723	223,553	112,884
272,224	2,861	223,512	112,955
273,239	2,791	223,286	112,779
274,253	2,665	223,189	112,627
275,268	2,582	223,010	112,465
276,282	2,483	222,707	112,229
277,297	2,624	222,655	112,297
278,312	2,608	222,681	112,289
279,326	2,852	222,511	112,372
280,341	2,602	222,439	112,142
281,355	3,046	222,127	112,301
282,370	2,767	222,009	112,027
283,384	2,616	221,747	111,774
284,399	2,356	221,532	111,464
285,414	2,649	221,531	111,669
286,428	2,727	221,501	111,701
287,443	2,714	221,339	111,600
288,457	2,827	221,315	111,661
289,472	2,742	221,021	111,440
290,487	2,465	220,729	111,081
291,501	2,250	220,604	110,851
292,516	2,288	220,561	110,847
293,530	2,391	220,327	110,795
294,545	2,436	220,226	110,767
295,560	2,573	220,254	110,871
296,574	2,704	220,065	110,861
297,589	2,520	220,031	110,700
298,603	2,780	219,763	110,745
299,618	2,867	219,656	110,744
300,633	2,750	219,574	110,607
301,647	2,937	219,478	110,685
302,662	3,168	219,295	110,750
303,676	3,011	219,127	110,542
304,691	3,183	218,983	110,583
305,706	3,100	218,958	110,501
306,720	2,859	218,774	110,224
307,735	2,775	218,463	109,997
308,749	2,673	218,359	109,862
309,764	3,064	218,129	110,018
310,779	3,058	218,071	109,974
311,793	2,900	217,957	109,793
312,808	2,980	217,847	109,786
313,822	2,984	217,630	109,669
314,837	2,645	217,604	109,403
315,852	2,589	217,438	109,269
316,866	2,898	217,219	109,372
317,881	2,783	217,040	109,189
318,895	2,804	217,002	109,175
319,910	2,801	216,733	109,027
320,925	2,623	216,460	108,754
321,939	2,171	216,386	108,385
322,954	2,545	216,275	108,586
323,968	2,820	216,501	108,886
324,983	2,973	216,243	108,855
325,997	2,900	216,074	108,709
327,012	2,876	215,900	108,595
328,027	3,051	215,668	108,592
329,041	3,194	215,709	108,705
330,056	3,337	215,430	108,656
331,070	2,550	215,412	108,079
332,085	2,209	215,046	107,644
333,100	2,561	214,804	107,763
334,114	2,743	214,752	107,855
335,129	3,023	214,704	108,020
336,143	2,948	214,515	107,862
337,158	3,076	214,490	107,931
338,173	2,819	214,376	107,682
339,187	2,661	214,187	107,466
340,202	2,526	213,985	107,260
341,216	2,547	213,751	107,148
342,231	2,526	213,777	107,136
343,246	2,768	213,628	107,223
344,260	2,928	213,500	107,261
345,275	3,014	213,350	107,237
346,289	2,898	213,394	107,168
347,304	2,860	213,260	107,064
348,319	2,858	213,058	106,951
349,333	2,725	212,835	106,737
350,348	2,925	212,728	106,814
351,362	3,201	212,702	106,984
352,377	3,187	212,512	106,870
353,392	2,790	212,383	106,518
354,406	3,102	212,262	106,666
355,421	197,485	1336,033	1415,991
356,435	157,876	1472,892	1415,936
