DTS Sentinel unit serial number:	SN410029Multiplexer serial number:	ORYXHardware model number:	OX2-SRSoftware version number:	ORYX F/W v4,00 Oryx Data Collector v3.7.2.0data status	okinstallation	B6 Nyhavnadifferential loss correction	single-endedforward channel	channel 2reverse channel	N/Adate	2023/12/08time	09:10:08forward acquisition time	300,00reverse acquisition time	0,00gamma	499,1914k internal	0,3168k external	0,3168temperature offset calibration	1,0000default loss term (dB/km)	0,3820temperature slope calibration	1,0000multiplexer offset coefficient	1,0000multiplexer slope coefficient	1,0000fibre end	0,00T internal ref (°C)	13,05T ext. ref 1 (°C)	-2,21T ext. ref 2 (°C)	-2,20length (m)	temperature (°C)	Stokes	anti-Stokes-744,400	-100,374	0,132	-0,024
-743,385	-159,912	-0,271	-0,011
-742,371	61,879	0,100	0,073
-741,356	-68,465	-0,321	0,091
-740,342	-104,977	-0,124	0,021
-739,327	-186,084	-0,237	0,002
-738,312	-54,226	0,136	-0,045
-737,298	-47,530	-0,373	-0,132
-736,283	-154,278	0,097	-0,005
-735,269	-48,018	-0,299	0,106
-734,254	149,272	0,129	0,128
-733,239	-34,667	-0,529	-0,212
-732,225	-30,259	0,117	-0,049
-731,210	-25,613	-0,085	0,037
-730,196	178,276	-0,056	0,061
-729,181	-200,000	-0,006	-0,042
-728,167	-64,847	0,091	0,027
-727,152	205,662	-0,099	0,113
-726,137	-200,000	-0,028	0,097
-725,123	-109,884	-0,113	0,017
-724,108	800,000	0,055	-0,133
-723,094	-200,000	-0,002	0,051
-722,079	153,138	-0,161	-0,162
-721,064	41,793	0,122	0,081
-720,050	800,000	-0,049	-0,122
-719,035	80,148	0,014	0,011
-718,021	-33,726	-0,025	0,010
-717,006	800,000	0,074	-0,163
-715,991	505,114	-0,046	-0,078
-714,977	667,951	-0,017	0,032
-713,962	-200,000	-0,040	0,145
-712,948	-200,000	0,002	0,015
-711,933	8,421	0,138	0,076
-710,918	193,597	0,020	0,022
-709,904	-200,000	0,001	0,086
-708,889	83,297	-0,038	-0,030
-707,875	-78,154	-0,222	-0,056
-706,860	528,516	0,057	-0,099
-705,845	-53,801	0,203	-0,068
-704,831	800,000	-0,033	0,090
-703,816	795,730	-0,016	0,032
-702,802	-200,000	-0,009	-0,058
-701,787	-68,388	-0,029	0,008
-700,772	-33,991	0,067	0,027
-699,758	800,000	-0,024	0,057
-698,743	-2,109	0,085	0,044
-697,729	89,078	0,061	0,050
-696,714	331,648	0,069	0,098
-695,699	79,660	-0,117	-0,092
-694,685	-200,000	-0,000	-0,095
-693,670	130,420	-0,053	0,050
-692,656	6,330	0,036	-0,019
-691,641	800,000	-0,022	-0,059
-690,627	-59,453	-0,115	0,036
-689,612	-119,142	-0,117	-0,015
-688,597	-73,032	0,069	-0,018
-687,583	128,323	-0,090	-0,084
-686,568	233,503	-0,204	-0,247
-685,554	-200,000	-0,009	-0,082
-684,539	119,113	0,099	-0,090
-683,524	-61,917	0,129	-0,039
-682,510	800,000	-0,031	0,088
-681,495	-88,476	0,019	-0,004
-680,481	800,000	-0,048	-0,101
-679,466	81,789	0,034	-0,027
-678,451	153,509	-0,064	-0,064
-677,437	-200,000	0,022	0,146
-676,422	-200,000	0,007	-0,037
-675,408	515,658	-0,045	0,078
-674,393	-200,000	0,004	-0,015
-673,378	3,707	-0,092	-0,049
-672,364	-35,456	0,106	-0,042
-671,349	-41,214	-0,016	0,006
-670,335	-149,665	-0,053	0,003
-669,320	122,278	0,091	0,083
-668,305	601,409	-0,007	-0,013
-667,291	391,316	0,070	-0,107
-666,276	79,051	-0,075	0,059
-665,262	-79,588	-0,210	-0,051
-664,247	-129,289	-0,128	0,013
-663,232	-200,000	0,001	0,072
-662,218	92,366	0,027	-0,022
-661,203	280,015	-0,022	-0,029
-660,189	800,000	-0,050	0,136
-659,174	-38,028	-0,054	0,021
-658,159	-200,000	0,002	-0,044
-657,145	-200,000	0,002	-0,037
-656,130	367,670	0,021	0,031
-655,116	-185,898	-0,069	-0,001
-654,101	123,319	0,023	-0,021
-653,086	-22,232	-0,035	0,015
-652,072	-200,000	-0,028	0,104
-651,057	-10,107	-0,075	-0,036
-650,043	-200,000	0,000	0,008
-649,028	14,564	-0,111	-0,063
-648,014	-112,549	0,040	-0,006
-646,999	-200,000	0,010	0,071
-645,984	-200,000	0,007	-0,025
-644,970	-200,000	-0,002	-0,072
-643,955	-200,000	-0,008	0,051
-642,941	216,162	-0,047	-0,055
-641,926	289,491	0,093	-0,123
-640,911	701,524	-0,077	-0,148
-639,897	98,372	0,008	0,007
-638,882	800,000	0,028	-0,080
-637,868	-100,109	0,158	-0,029
-636,853	14,405	-0,142	0,081
-635,838	140,591	0,065	-0,062
-634,824	-111,848	0,091	0,013
-633,809	-9,608	0,100	-0,049
-632,795	-99,110	0,065	-0,012
-631,780	-124,696	0,031	-0,003
-630,765	-77,889	0,127	-0,032
-629,751	-80,471	-0,125	-0,030
-628,736	800,000	0,027	0,076
-627,722	245,139	-0,070	0,087
-626,707	-138,657	0,090	-0,007
-625,692	-200,000	-0,005	0,056
-624,678	49,799	0,035	0,024
-623,663	554,673	0,051	-0,091
-622,649	-6,700	-0,074	0,037
-621,634	-200,000	-0,007	-0,084
-620,619	-200,000	0,030	-0,140
-619,605	-56,747	0,091	0,029
-618,590	-64,840	-0,022	0,007
-617,576	212,362	0,094	0,108
-616,561	-25,348	-0,077	-0,033
-615,546	-168,037	-0,120	0,003
-614,532	516,131	-0,099	-0,170
-613,517	-200,000	0,014	-0,070
-612,503	800,000	0,018	0,050
-611,488	-200,000	0,001	0,091
-610,474	-151,315	-0,115	0,006
-609,459	233,701	0,033	0,040
-608,444	466,525	-0,047	0,076
-607,430	-43,740	-0,131	0,048
-606,415	-200,000	0,004	-0,069
-605,401	32,685	-0,033	-0,021
-604,386	-200,000	-0,016	0,130
-603,371	-200,000	0,001	-0,008
-602,357	123,708	-0,169	0,155
-601,342	100,026	-0,096	0,081
-600,328	12,518	-0,120	-0,068
-599,313	-111,972	-0,173	0,025
-598,298	-200,000	0,009	-0,111
-597,284	-35,640	0,103	-0,040
-596,269	-200,000	-0,001	-0,101
-595,255	774,763	0,015	-0,030
-594,240	-200,000	0,019	-0,078
-593,225	-53,116	-0,072	0,024
-592,211	-200,000	0,003	0,018
-591,196	-116,305	0,028	0,004
-590,182	-104,698	-0,056	-0,009
-589,167	536,522	-0,018	0,031
-588,152	-200,000	0,033	0,110
-587,138	12,899	0,101	0,057
-586,123	689,522	-0,034	-0,065
-585,109	-50,527	-0,054	0,018
-584,094	-200,000	-0,009	0,053
-583,079	302,955	0,077	0,105
-582,065	-13,500	0,079	-0,037
-581,050	379,653	-0,014	0,020
-580,036	-200,000	0,023	0,161
-579,021	-68,083	-0,058	-0,017
-578,006	-132,503	-0,187	0,017
-576,992	-200,000	0,012	-0,072
-575,977	-58,626	-0,043	0,013
-574,963	334,667	0,062	-0,088
-573,948	263,632	-0,008	-0,011
-572,934	-12,074	0,093	0,044
-571,919	-59,919	-0,052	-0,016
-570,904	-14,182	-0,120	0,056
-569,890	800,000	-0,043	-0,106
-568,875	-129,294	-0,034	0,003
-567,861	-48,747	0,065	-0,023
-566,846	250,692	0,088	-0,109
-565,831	-200,000	0,021	-0,104
-564,817	-117,368	-0,105	0,014
-563,802	128,278	-0,043	-0,040
-562,788	307,349	-0,055	-0,074
-561,773	22,532	0,050	0,030
-560,758	219,168	0,057	0,067
-559,744	225,472	-0,143	0,170
-558,729	77,398	0,057	-0,044
-557,715	-2,814	-0,017	-0,009
-556,700	152,971	-0,016	0,016
-555,685	-200,000	-0,021	0,164
-554,671	154,854	0,103	0,104
-553,656	-97,733	-0,103	0,019
-552,642	-64,585	-0,126	0,037
-551,627	800,000	-0,021	-0,066
-550,612	-111,433	-0,055	0,008
-549,598	800,000	0,029	-0,091
-548,583	-2,076	-0,024	0,012
-547,569	-68,550	0,043	-0,012
-546,554	-146,763	0,176	0,011
-545,539	-200,000	-0,001	-0,048
-544,525	118,771	-0,033	0,030
-543,510	-48,590	-0,070	0,024
-542,496	467,851	-0,086	-0,142
-541,481	-108,593	0,084	0,013
-540,466	800,000	0,031	-0,099
-539,452	-23,562	-0,041	0,018
-538,437	-173,000	0,069	-0,002
-537,423	-15,631	-0,089	-0,041
-536,408	-200,000	0,098	-0,000
-535,393	-200,000	-0,010	-0,044
-534,379	-162,049	-0,111	-0,004
-533,364	267,138	-0,057	0,073
-532,350	-200,000	-0,011	0,126
-531,335	800,000	0,031	-0,090
-530,321	-51,529	-0,062	-0,021
-529,306	377,342	0,043	0,065
-528,291	-35,107	-0,039	-0,015
-527,277	-118,020	0,102	-0,013
-526,262	138,387	0,111	0,106
-525,248	-66,132	-0,208	0,060
-524,233	45,912	0,077	-0,052
-523,218	317,425	0,040	-0,055
-522,204	-67,795	-0,104	0,029
-521,189	-37,742	0,040	0,015
-520,175	-200,000	-0,018	0,085
-519,160	-87,475	0,018	-0,004
-518,145	-8,754	-0,108	0,053
-517,131	59,331	0,038	0,028
-516,116	151,181	-0,083	0,082
-515,102	-13,048	-0,039	0,018
-514,087	117,144	-0,054	-0,048
-513,072	35,821	0,051	0,032
-512,058	417,955	0,056	-0,087
-511,043	-200,000	-0,001	-0,080
-510,029	-94,847	0,063	-0,012
-509,014	-20,017	0,131	-0,059
-507,999	800,000	0,033	-0,094
-506,985	800,000	-0,030	-0,082
-505,970	-200,000	0,014	-0,142
-504,956	-200,000	-0,001	0,036
-503,941	305,293	0,058	-0,079
-502,926	34,435	0,079	-0,050
-501,912	71,903	-0,050	-0,038
-500,897	-200,000	0,013	-0,083
-499,883	-57,141	-0,092	0,029
-498,868	-152,296	-0,131	-0,007
-497,853	-200,000	-0,007	-0,114
-496,839	-7,949	0,114	0,056
-495,824	128,451	-0,070	0,065
-494,810	-200,000	0,009	-0,055
-493,795	166,175	0,052	-0,054
-492,781	-140,568	-0,066	-0,005
-491,766	800,000	-0,013	-0,034
-490,751	-200,000	-0,033	-0,118
-489,737	374,183	0,043	0,064
-488,722	334,536	0,045	0,064
-487,708	-200,000	0,013	0,058
-486,693	-107,339	-0,044	0,007
-485,678	-200,000	-0,012	0,076
-484,664	418,590	0,089	-0,140
-483,649	-200,000	-0,000	-0,106
-482,635	-200,000	0,005	-0,049
-481,620	800,000	0,034	0,091
-480,605	-26,239	-0,038	0,016
-479,591	-162,681	-0,037	-0,001
-478,576	-200,000	-0,018	-0,059
-477,562	28,220	-0,113	0,069
-476,547	-195,685	-0,111	0,001
-475,532	173,965	-0,073	0,077
-474,518	239,755	0,048	0,058
-473,503	800,000	-0,045	-0,094
-472,489	102,267	-0,069	0,059
-471,474	-11,020	-0,011	-0,005
-470,459	-46,914	-0,037	-0,013
-469,445	800,000	0,018	0,051
-468,430	800,000	0,011	0,027
-467,416	160,388	-0,020	0,020
-466,401	800,000	0,073	-0,154
-465,386	-63,589	0,111	-0,033
-464,372	48,158	0,078	0,053
-463,357	-105,532	0,030	0,005
-462,343	-200,000	0,019	0,114
-461,328	190,528	0,036	-0,039
-460,313	800,000	-0,018	0,037
-459,299	66,558	0,054	-0,040
-458,284	352,607	-0,059	-0,085
-457,270	117,797	0,085	0,076
-456,255	800,000	-0,025	0,055
-455,241	146,129	-0,081	-0,079
-454,226	201,080	0,042	-0,047
-453,211	495,392	0,109	0,182
-452,197	-147,131	0,123	-0,008
-451,182	800,000	-0,023	0,054
-450,168	800,000	0,040	0,111
-449,153	-156,467	-0,099	-0,004
-448,138	-33,491	0,073	-0,029
-447,124	27,159	0,073	-0,044
-446,109	150,451	0,008	0,007
-445,095	229,854	0,082	0,098
-444,080	-200,000	-0,011	-0,042
-443,065	274,629	-0,067	-0,086
-442,051	516,110	-0,037	-0,063
-441,036	800,000	-0,060	-0,124
-440,022	416,974	0,098	0,152
-439,007	442,702	-0,090	0,143
-437,992	789,777	-0,023	-0,047
-436,978	800,000	0,021	-0,049
-435,963	6,785	0,018	0,010
-434,949	800,000	0,062	0,138
-433,934	48,986	-0,081	-0,055
-432,919	206,646	-0,071	-0,081
-431,905	-200,000	0,001	0,059
-430,890	-52,702	0,081	0,027
-429,876	-200,000	-0,007	0,033
-428,861	-200,000	-0,021	0,100
-427,846	800,000	0,029	-0,090
-426,832	-200,000	0,007	-0,059
-425,817	-193,935	-0,115	0,001
-424,803	800,000	-0,035	-0,085
-423,788	-1,519	0,093	0,047
-422,773	-200,000	-0,003	0,104
-421,759	-200,000	-0,017	-0,078
-420,744	-200,000	-0,004	-0,054
-419,730	-200,000	0,009	0,034
-418,715	800,000	-0,031	0,093
-417,701	-12,722	-0,051	-0,024
-416,686	-12,989	-0,120	0,057
-415,671	-58,345	0,110	0,035
-414,657	-163,300	0,130	0,004
-413,642	-135,553	-0,075	0,006
-412,628	343,209	-0,025	0,036
-411,613	-200,000	-0,038	0,124
-410,598	65,231	-0,093	-0,068
-409,584	800,000	-0,037	-0,109
-408,569	203,592	0,121	0,136
-407,555	-99,959	0,111	0,020
-406,540	800,000	-0,022	-0,050
-405,525	11,746	0,114	0,063
-404,511	-106,862	0,012	-0,002
-403,496	283,971	0,004	-0,006
-402,482	-200,000	0,010	-0,109
-401,467	-12,292	0,160	-0,075
-400,452	155,718	-0,117	-0,117
-399,438	139,369	0,016	0,016
-398,423	-100,297	-0,012	0,002
-397,409	450,613	-0,039	0,063
-396,394	-83,712	-0,156	0,036
-395,379	-86,137	0,069	0,015
-394,365	-200,000	0,021	0,071
-393,350	27,041	-0,068	0,041
-392,336	-200,000	-0,013	-0,071
-391,321	-200,000	-0,017	-0,055
-390,306	-55,845	-0,175	-0,056
-389,292	-200,000	0,004	-0,016
-388,277	800,000	-0,012	-0,033
-387,263	800,000	0,064	-0,144
-386,248	37,903	0,049	0,032
-385,233	-200,000	0,022	0,134
-384,219	87,865	0,054	-0,043
-383,204	64,712	-0,039	-0,028
-382,190	641,259	0,045	-0,084
-381,175	-5,395	0,100	-0,050
-380,160	-200,000	-0,016	-0,185
-379,146	-200,000	-0,035	-0,122
-378,131	14,236	0,041	-0,023
-377,117	-136,763	-0,088	0,007
-376,102	221,168	0,052	-0,061
-375,088	-4,893	-0,052	0,026
-374,073	800,000	0,032	0,080
-373,058	256,978	0,108	0,135
-372,044	-95,672	0,062	-0,012
-371,029	800,000	-0,039	0,093
-370,015	-200,000	0,007	-0,110
-369,000	73,166	-0,042	0,032
-367,985	254,164	-0,081	-0,100
-366,971	-18,934	-0,182	-0,081
-365,956	-131,223	0,121	-0,011
-364,942	-200,000	0,010	-0,151
-363,927	70,331	0,003	-0,002
-362,912	-153,214	-0,109	0,005
-361,898	56,659	-0,119	-0,084
-360,883	-200,000	-0,005	-0,093
-359,869	-52,965	-0,157	-0,052
-358,854	516,477	0,093	-0,157
-357,839	134,870	0,108	0,102
-356,825	419,409	-0,013	0,020
-355,810	-28,565	-0,046	-0,019
-354,796	-200,000	-0,007	-0,049
-353,781	285,764	0,017	-0,023
-352,766	-159,753	0,137	-0,005
-351,752	61,958	0,073	0,053
-350,737	-73,816	0,188	0,049
-349,723	-200,000	-0,012	0,079
-348,708	-200,000	0,009	0,055
-347,693	238,263	-0,031	0,037
-346,679	47,990	-0,062	-0,042
-345,664	-80,751	0,058	0,014
-344,650	17,201	-0,117	0,067
-343,635	-174,159	0,257	0,005
-342,620	800,000	-0,040	0,095
-341,606	68,053	-0,057	0,042
-340,591	222,624	0,021	0,025
-339,577	143,430	-0,063	-0,061
-338,562	-200,000	0,034	-0,158
-337,548	-200,000	0,007	0,042
-336,533	227,884	0,101	0,119
-335,518	40,964	0,057	0,037
-334,504	338,513	-0,058	0,082
-333,489	-200,000	-0,022	0,099
-332,475	12,898	-0,149	-0,083
-331,460	62,309	-0,061	0,044
-330,445	800,000	-0,038	0,105
-329,431	715,341	-0,058	-0,113
-328,416	800,000	-0,063	0,147
-327,402	-104,957	0,061	0,010
-326,387	37,066	-0,134	0,085
-325,372	800,000	0,042	0,105
-324,358	73,019	0,060	-0,045
-323,343	68,533	0,098	0,073
-322,329	43,839	0,087	-0,058
-321,314	582,352	0,040	0,071
-320,299	-52,021	-0,052	0,017
-319,285	446,531	-0,049	-0,078
-318,270	121,371	0,068	0,061
-317,256	104,079	0,130	-0,110
-316,241	396,856	0,029	0,044
-315,226	175,859	0,081	-0,085
-314,212	773,232	0,039	0,077
-313,197	168,116	0,063	0,065
-312,183	426,620	-0,076	-0,118
-311,168	800,000	-0,113	-0,228
-310,153	696,147	0,016	-0,030
-309,139	418,222	-0,070	0,108
-308,124	800,000	-0,034	0,077
-307,110	-83,822	0,085	0,019
-306,095	24,265	0,130	0,077
-305,080	451,320	0,032	0,051
-304,066	-200,000	-0,011	-0,057
-303,051	-200,000	0,035	-0,149
-302,037	-67,665	-0,040	-0,011
-301,022	61,654	-0,084	-0,060
-300,008	800,000	-0,003	0,007
-298,993	314,428	0,087	0,118
-297,978	203,240	0,142	0,159
-296,964	-22,515	-0,087	-0,038
-295,949	-126,712	0,058	0,006
-294,935	523,189	0,007	-0,012
-293,920	-200,000	0,025	0,105
-292,905	-200,000	-0,007	0,057
-291,891	-200,000	0,032	0,212
-290,876	140,856	-0,029	-0,028
-289,862	-142,306	0,061	-0,004
-288,847	-18,549	-0,107	0,048
-287,832	-66,108	0,019	0,006
-286,818	-200,000	0,009	-0,115
-285,803	264,806	-0,070	0,089
-284,789	30,232	0,105	0,065
-283,774	-23,605	0,156	0,067
-282,759	558,560	0,045	0,079
-281,745	450,707	-0,074	-0,118
-280,730	800,000	-0,036	-0,077
-279,716	-4,124	0,019	-0,009
-278,701	-119,474	0,083	0,010
-277,686	153,426	0,124	0,122
-276,672	-89,563	-0,062	0,013
-275,657	21,974	0,072	0,042
-274,643	60,018	-0,060	-0,043
-273,628	-81,153	-0,036	-0,009
-272,613	472,836	0,038	-0,061
-271,599	-200,000	0,010	0,058
-270,584	-200,000	0,006	-0,019
-269,570	-86,376	-0,101	0,022
-268,555	-90,669	-0,026	0,005
-267,540	226,262	0,024	0,028
-266,526	25,673	-0,114	-0,068
-265,511	-139,451	0,212	-0,016
-264,497	418,609	0,099	0,154
-263,482	136,415	-0,009	-0,009
-262,467	-157,135	0,098	-0,004
-261,453	-26,814	-0,049	0,020
-260,438	-161,782	-0,069	0,002
-259,424	207,210	0,039	-0,044
-258,409	800,000	-0,007	0,016
-257,395	151,708	-0,098	-0,096
-256,380	112,030	0,081	0,071
-255,365	800,000	-0,031	-0,072
-254,351	-117,946	-0,151	0,019
-253,336	88,878	0,088	-0,071
-252,322	-54,078	-0,125	-0,041
-251,307	-144,626	-0,062	-0,004
-250,292	800,000	-0,048	-0,105
-249,278	-200,000	-0,023	-0,092
-248,263	-72,316	0,081	-0,021
-247,249	-82,828	-0,074	0,017
-246,234	13,558	0,021	-0,012
-245,219	-65,941	-0,080	0,023
-244,205	-200,000	-0,003	0,041
-243,190	46,798	-0,057	0,038
-242,176	110,316	-0,122	0,106
-241,161	-99,423	0,236	0,042
-240,146	800,000	-0,019	-0,042
-239,132	-42,571	0,080	0,029
-238,117	153,314	0,056	-0,055
-237,103	-89,114	0,035	0,007
-236,088	-200,000	-0,036	-0,133
-235,073	59,914	0,043	0,030
-234,059	43,774	0,185	0,122
-233,044	-200,000	0,020	0,128
-232,030	-200,000	0,000	0,158
-231,015	32,053	-0,123	0,076
-230,000	93,945	0,016	-0,013
-228,986	-200,000	0,006	-0,085
-227,971	-200,000	0,003	0,017
-226,957	-200,000	0,047	0,157
-225,942	-46,974	0,059	-0,021
-224,927	85,363	-0,082	-0,065
-223,913	-34,223	-0,052	0,020
-222,898	-60,996	-0,133	0,040
-221,884	194,242	0,034	0,037
-220,869	60,744	0,128	-0,092
-219,855	-140,891	0,155	-0,011
-218,840	51,165	0,035	-0,024
-217,825	-54,415	-0,095	-0,031
-216,811	800,000	0,036	0,089
-215,796	495,575	0,028	-0,046
-214,782	-200,000	-0,064	0,000
-213,767	65,207	-0,093	-0,068
-212,752	-147,945	0,075	0,004
-211,738	-110,779	0,062	-0,009
-210,723	663,600	-0,044	-0,082
-209,709	-62,663	0,087	-0,026
-208,694	-200,000	0,022	-0,111
-207,679	-200,000	0,004	-0,017
-206,665	419,757	0,021	0,033
-205,650	212,010	-0,032	-0,037
-204,636	-200,000	-0,001	-0,094
-203,621	-68,025	-0,045	0,013
-202,606	-200,000	-0,017	0,113
-201,592	-21,959	-0,068	0,030
-200,577	50,496	-0,082	0,056
-199,563	-77,706	0,089	-0,022
-198,548	-22,437	0,053	-0,023
-197,533	8,337	-0,059	0,032
-196,519	50,554	0,053	-0,036
-195,504	800,000	0,021	0,045
-194,490	-200,000	-0,008	-0,037
-193,475	-200,000	0,040	-0,175
-192,460	624,226	0,048	0,087
-191,446	-200,000	-0,003	0,099
-190,431	39,329	0,090	-0,058
-189,417	-200,000	-0,036	0,136
-188,402	-200,000	-0,020	-0,079
-187,387	620,584	-0,056	-0,102
-186,373	-53,085	-0,062	0,020
-185,358	41,374	0,057	0,037
-184,344	800,000	0,008	0,017
-183,329	148,848	0,086	0,083
-182,315	-200,000	0,002	0,053
-181,300	-200,000	0,017	0,084
-180,285	-32,707	-0,075	0,030
-179,271	339,837	-0,110	-0,154
-178,256	-114,225	0,133	0,018
-177,242	-4,700	0,111	0,055
-176,227	-19,977	-0,063	-0,028
-175,212	506,102	0,071	0,118
-174,198	-200,000	-0,026	-0,122
-173,183	-114,483	-0,159	-0,022
-172,169	-59,399	-0,090	-0,028
-171,154	-131,755	0,041	0,004
-170,139	-146,188	0,058	0,004
-169,125	103,343	-0,038	-0,032
-168,110	-200,000	0,003	-0,044
-167,096	61,030	-0,049	0,035
-166,081	512,296	-0,033	0,055
-165,066	800,000	-0,025	-0,066
-164,052	702,886	-0,045	-0,086
-163,037	-41,417	0,087	0,032
-162,023	369,800	-0,051	-0,074
-161,008	99,998	-0,139	0,116
-159,993	197,818	0,159	0,175
-158,979	90,490	-0,040	-0,032
-157,964	-31,605	-0,071	-0,029
-156,950	800,000	0,018	-0,052
-155,935	388,686	0,006	-0,008
-154,920	800,000	0,044	0,110
-153,906	-20,070	0,071	-0,031
-152,891	-90,928	-0,066	0,013
-151,877	800,000	0,014	0,043
-150,862	800,000	0,068	-0,177
-149,847	-200,000	-0,013	0,055
-148,833	42,583	0,152	0,099
-147,818	-200,000	-0,011	0,156
-146,804	-8,265	0,075	-0,036
-145,789	66,095	0,121	0,088
-144,775	332,019	-0,062	0,087
-143,760	129,907	0,087	0,080
-142,745	109,589	0,115	-0,099
-141,731	-200,000	-0,068	0,000
-140,716	-95,065	0,123	-0,024
-139,702	-43,881	0,058	0,021
-138,687	-46,378	-0,058	0,020
-137,672	749,294	0,049	0,095
-136,658	-45,463	-0,058	0,020
-135,643	176,395	-0,101	-0,105
-134,629	59,817	0,024	0,017
-133,614	-98,789	-0,058	-0,010
-132,599	22,280	-0,079	-0,046
-131,585	-200,000	-0,019	0,078
-130,570	47,607	-0,033	-0,022
-129,556	616,349	0,020	0,037
-128,541	800,000	-0,023	-0,050
-127,526	-200,000	0,028	0,109
-126,512	34,980	-0,102	0,064
-125,497	-200,000	0,039	-0,150
-124,483	800,000	0,037	-0,104
-123,468	-200,000	0,010	-0,130
-122,453	341,217	-0,017	0,024
-121,439	-200,000	-0,027	-0,095
-120,424	-101,447	-0,119	-0,021
-119,410	-14,244	-0,059	0,027
-118,395	-79,447	0,181	-0,044
-117,380	800,000	-0,020	0,055
-116,366	-90,303	0,128	0,026
-115,351	-200,000	-0,012	0,139
-114,337	-76,411	-0,121	-0,030
-113,322	-31,181	-0,032	0,013
-112,307	-200,000	-0,011	0,069
-111,293	-200,000	0,022	0,083
-110,278	-76,478	0,047	-0,012
-109,264	-39,205	0,030	0,011
-108,249	800,000	-0,053	0,160
-107,234	-75,290	0,060	0,015
-106,220	-200,000	-0,026	-0,206
-105,205	629,755	-0,061	0,110
-104,191	159,275	0,081	0,081
-103,176	-54,668	0,146	0,047
-102,162	-200,000	-0,018	-0,101
-101,147	192,447	-0,086	-0,093
-100,132	130,211	0,118	-0,108
-99,118	-200,000	-0,021	-0,150
-98,103	-200,000	-0,004	-0,047
-97,089	216,694	0,060	0,069
-96,074	800,000	-0,056	0,157
-95,059	139,768	0,039	0,037
-94,045	-56,604	0,101	-0,032
-93,030	-83,699	-0,147	0,033
-92,016	-200,000	-0,000	0,055
-91,001	800,000	-0,021	-0,044
-89,986	277,607	0,028	0,036
-88,972	-146,543	0,156	-0,010
-87,957	-200,000	-0,034	0,145
-86,943	-200,000	0,028	-0,133
-85,928	317,723	-0,071	-0,096
-84,913	-6,762	0,051	-0,025
-83,899	204,126	-0,047	-0,053
-82,884	-43,273	0,119	0,043
-81,870	800,000	-0,029	-0,066
-80,855	81,075	0,094	0,073
-79,840	-20,219	-0,029	-0,013
-78,826	800,000	0,014	0,039
-77,811	275,811	-0,067	-0,086
-76,797	137,702	-0,022	0,021
-75,782	800,000	0,023	-0,066
-74,767	116,109	0,110	0,097
-73,753	-200,000	0,012	-0,038
-72,738	455,617	0,062	0,099
-71,724	-200,000	-0,007	-0,104
-70,709	151,168	-0,054	0,053
-69,694	-200,000	-0,039	-0,163
-68,680	800,000	-0,039	-0,121
-67,665	-113,288	0,070	0,010
-66,651	800,000	0,044	0,112
-65,636	800,000	-0,035	0,081
-64,622	-74,968	0,052	0,013
-63,607	-41,160	-0,075	-0,027
-62,592	-100,363	0,121	-0,021
-61,578	-200,000	0,009	-0,039
-60,563	-32,734	0,124	0,049
-59,549	-5,844	-0,138	0,067
-58,534	38,845	-2,184	-1,393
-57,519	-200,000	0,063	-0,642
-56,505	-200,000	-1,461	-5,156
-55,490	99,482	0,938	0,776
-54,476	800,000	5,277	12,096
-53,461	-200,000	18,941	319,365
-52,446	800,000	740,595	2323,064
-51,432	552,935	1653,483	2853,798
-50,417	109,912	1636,515	1404,134
-49,403	73,303	1287,381	962,442
-48,388	29,418	1029,180	624,283
-47,373	19,456	991,669	568,649
-46,359	16,833	979,518	553,058
-45,344	13,465	975,792	539,902
-44,330	13,752	974,239	539,961
-43,315	13,079	972,360	536,696
-42,300	13,071	971,221	536,021
-41,286	13,096	970,285	535,565
-40,271	13,023	969,548	534,899
-39,257	13,068	968,666	534,538
-38,242	13,071	967,604	533,939
-37,227	13,049	966,825	533,416
-36,213	13,083	965,931	533,012
-35,198	13,066	964,974	532,407
-34,184	13,078	964,421	532,122
-33,169	13,002	963,482	531,334
-32,154	13,113	962,090	530,907
-31,140	13,064	961,671	530,496
-30,125	13,107	960,821	530,145
-29,111	13,082	959,845	529,504
-28,096	13,108	959,125	529,170
-27,082	13,050	958,646	528,697
-26,067	13,062	957,906	528,307
-25,052	13,117	957,149	528,046
-24,038	13,111	956,396	527,590
-23,023	13,020	956,072	527,099
-22,009	13,145	955,149	526,970
-20,994	13,091	954,681	526,518
-19,979	13,081	954,024	526,101
-18,965	13,091	953,140	525,625
-17,950	13,076	952,902	525,424
-16,936	13,035	952,234	524,903
-15,921	13,087	951,465	524,626
-14,906	13,035	950,576	523,950
-13,892	13,001	950,125	523,571
-12,877	13,008	949,554	523,260
-11,863	12,911	948,757	522,488
-10,848	13,019	948,197	522,505
-9,833	13,129	947,630	522,520
-8,819	13,037	947,082	521,905
-7,804	12,993	946,421	521,379
-6,790	12,948	945,890	520,925
-5,775	13,020	945,391	520,856
-4,760	12,985	944,883	520,445
-3,746	13,083	943,916	520,205
-2,731	12,830	943,397	519,094
-1,717	12,823	942,690	518,662
-0,702	12,881	941,823	518,348
0,313	12,623	941,614	518,200
1,327	16,233	939,370	528,306
2,342	25,650	790,283	469,249
3,356	22,175	445,682	259,461
4,371	-6,614	298,892	144,954
5,386	-10,299	280,641	132,564
6,400	-11,488	275,015	128,779
7,415	-11,501	272,694	127,669
8,429	-11,516	270,974	126,838
9,444	-11,617	270,144	126,345
10,459	-11,584	269,467	126,047
11,473	-11,833	268,890	125,538
12,488	-11,930	268,262	125,144
13,502	-12,106	267,682	124,702
14,517	-12,222	267,435	124,470
15,531	-12,016	266,816	124,358
16,546	-11,989	266,313	124,138
17,561	-12,098	266,058	123,908
18,575	-11,958	265,748	123,880
19,590	-12,226	265,288	123,412
20,604	-12,095	265,096	123,430
21,619	-12,051	264,625	123,240
22,634	-12,204	264,314	122,946
23,648	-12,279	264,141	122,787
24,663	-12,316	263,797	122,582
25,677	-12,148	263,455	122,564
26,692	-12,244	263,254	122,373
27,707	-12,260	263,012	122,236
28,721	-12,265	262,727	122,088
29,736	-12,205	262,563	122,054
30,750	-12,371	262,214	121,733
31,765	-12,341	261,788	121,551
32,780	-12,361	261,615	121,442
33,794	-12,265	261,419	121,426
34,809	-12,337	261,301	121,296
35,823	-12,326	260,911	121,114
36,838	-12,221	260,589	121,047
37,853	-12,431	260,454	120,787
38,867	-12,368	260,281	120,752
39,882	-12,492	259,978	120,491
40,896	-12,417	259,829	120,477
41,911	-12,307	259,570	120,444
42,926	-12,381	259,083	120,141
43,940	-12,475	258,979	120,000
44,955	-12,415	258,614	119,873
45,969	-12,500	258,460	119,716
46,984	-12,714	258,291	119,439
47,999	-12,833	257,797	119,095
49,013	-12,959	257,722	118,940
50,028	-13,147	257,450	118,639
51,042	-13,349	257,228	118,349
52,057	-13,022	256,849	118,450
53,071	-13,120	256,731	118,299
54,086	-13,063	256,628	118,291
55,101	-12,957	256,462	118,297
56,115	-12,571	256,283	118,540
57,130	-12,103	256,142	118,871
58,144	-12,121	256,098	118,825
59,159	-12,012	255,935	118,834
60,174	-11,912	255,679	118,792
61,188	-11,986	255,412	118,592
62,203	-12,161	255,228	118,345
63,217	-12,152	255,011	118,240
64,232	-12,138	254,696	118,096
65,247	-11,936	254,443	118,143
66,261	-12,040	254,277	117,966
67,276	-12,375	253,808	117,449
68,290	-12,584	253,558	117,143
69,305	-12,645	253,555	117,078
70,320	-12,759	253,308	116,856
71,334	-12,518	253,130	116,971
72,349	-11,947	252,883	117,336
73,363	-11,845	252,777	117,364
74,378	-12,052	252,624	117,105
75,393	-12,041	252,249	116,931
76,407	-12,320	252,144	116,632
77,422	-12,111	251,796	116,639
78,436	-12,135	251,754	116,589
79,451	-11,986	251,371	116,529
80,466	-12,424	251,161	116,048
81,480	-12,586	251,010	115,830
82,495	-12,533	250,702	115,722
83,509	-12,442	250,679	115,779
84,524	-12,535	250,441	115,579
85,539	-12,716	250,169	115,290
86,553	-12,686	250,089	115,268
87,568	-12,610	249,691	115,139
88,582	-12,679	249,542	115,002
89,597	-12,543	249,493	115,084
90,611	-12,521	249,341	115,022
91,626	-12,129	249,017	115,193
92,641	-12,147	248,934	115,129
93,655	-12,319	248,810	114,917
94,670	-12,657	248,558	114,505
95,684	-12,335	248,317	114,655
96,699	-12,311	248,150	114,588
97,714	-12,591	247,880	114,218
98,728	-12,658	247,720	114,078
99,743	-12,852	247,510	113,808
100,757	-12,699	247,123	113,748
101,772	-12,681	247,154	113,767
102,787	-12,575	246,996	113,774
103,801	-12,499	246,742	113,710
104,816	-12,513	246,688	113,663
105,830	-12,373	246,459	113,664
106,845	-12,127	246,353	113,810
107,860	-12,191	245,983	113,576
108,874	-12,376	245,676	113,270
109,889	-12,554	245,672	113,110
110,903	-12,507	245,454	113,039
111,918	-12,418	245,310	113,036
112,933	-12,444	245,121	112,918
113,947	-12,304	244,915	112,928
114,962	-12,146	244,663	112,933
115,976	-12,218	244,496	112,786
116,991	-12,082	244,411	112,849
118,006	-12,263	244,266	112,623
119,020	-12,318	244,126	112,503
120,035	-12,337	244,088	112,460
121,049	-12,168	243,838	112,473
122,064	-12,179	243,560	112,326
123,079	-12,349	243,428	112,116
124,093	-12,512	243,042	111,794
125,108	-12,441	242,851	111,754
126,122	-12,801	242,631	111,348
127,137	-12,875	242,460	111,199
128,151	-12,911	242,426	111,143
129,166	-12,494	242,098	111,325
130,181	-12,626	241,878	111,106
131,195	-12,779	241,717	110,897
132,210	-12,417	241,547	111,104
133,224	-12,391	241,489	111,090
134,239	-12,321	241,307	111,052
135,254	-12,217	241,161	111,060
136,268	-12,443	240,817	110,708
137,283	-12,697	240,567	110,377
138,297	-12,812	240,578	110,279
139,312	-12,764	240,211	110,139
140,327	-12,392	240,107	110,384
141,341	-11,885	240,150	110,804
142,356	-12,165	240,043	110,518
143,370	-11,906	239,860	110,634
144,385	-11,895	239,635	110,529
145,400	-12,075	239,565	110,342
146,414	-11,903	239,383	110,387
147,429	-12,097	239,079	110,080
148,443	-12,008	238,870	110,046
149,458	-12,085	238,747	109,918
150,473	-12,003	238,671	109,938
151,487	-12,090	238,407	109,737
152,502	-11,950	238,300	109,790
153,516	-11,774	238,054	109,809
154,531	-11,892	237,834	109,603
155,546	-11,942	237,705	109,494
156,560	-11,997	237,445	109,320
157,575	-12,112	237,206	109,109
158,589	-12,128	237,231	109,097
159,604	-11,858	237,093	109,239
160,619	-11,838	236,905	109,160
161,633	-11,867	236,746	109,053
162,648	-11,715	236,563	109,080
163,662	-11,870	236,419	108,881
164,677	-12,198	236,304	108,558
165,692	-11,850	236,110	108,735
166,706	-11,934	236,018	108,616
167,721	-11,866	235,926	108,618
168,735	-11,708	235,904	108,724
169,750	-11,946	235,613	108,391
170,764	-11,918	235,441	108,324
171,779	-11,942	235,248	108,207
172,794	-11,564	235,162	108,457
173,808	-11,965	234,925	108,021
174,823	-12,464	234,603	107,469
175,837	-12,711	234,409	107,176
176,852	-12,207	234,299	107,514
177,867	-11,865	234,248	107,750
178,881	-11,811	234,018	107,677
179,896	-11,532	233,825	107,798
180,910	-11,850	233,802	107,528
181,925	-11,882	233,624	107,411
182,940	-11,767	233,433	107,405
183,954	-11,865	233,313	107,263
184,969	-11,854	233,175	107,198
185,983	-11,644	233,098	107,318
186,998	-11,536	232,803	107,257
188,013	-11,560	232,691	107,177
189,027	-11,627	232,598	107,073
190,042	-11,582	232,378	106,997
191,056	-11,637	232,311	106,913
192,071	-11,845	232,139	106,663
193,086	-11,596	231,916	106,745
194,100	-11,396	231,698	106,790
195,115	-11,566	231,532	106,572
196,129	-10,944	231,861	107,198
197,144	-5,248	233,510	112,410
198,159	-0,276	235,056	117,052
199,173	2,489	235,902	119,638
200,188	2,833	235,735	119,813
201,202	2,848	235,597	119,743
202,217	3,123	235,397	119,846
203,232	3,518	235,375	120,134
204,246	3,564	235,308	120,125
205,261	3,429	235,143	119,925
206,275	3,568	235,109	120,006
207,290	3,810	234,919	120,087
208,304	3,660	234,691	119,843
209,319	3,679	234,451	119,724
210,334	3,596	234,430	119,638
211,348	3,255	234,224	119,257
212,363	3,085	233,731	118,863
213,377	2,742	233,672	118,556
214,392	2,599	233,695	118,445
215,407	2,893	233,458	118,543
216,421	3,060	233,246	118,555
217,436	2,820	233,076	118,271
218,450	2,806	232,814	118,117
219,465	2,642	232,831	117,989
220,480	2,560	232,752	117,874
221,494	2,700	232,452	117,820
222,509	2,989	232,418	118,015
223,523	3,186	232,116	118,004
224,538	2,662	232,122	117,592
225,553	2,916	231,926	117,678
226,567	2,990	231,764	117,643
227,582	2,989	231,816	117,657
228,596	3,299	231,556	117,753
229,611	2,941	231,379	117,378
230,626	2,610	231,033	116,938
231,640	2,852	230,908	117,050
232,655	2,854	230,827	117,000
233,669	3,318	230,803	117,333
234,684	3,391	230,654	117,303
235,699	3,224	230,392	117,031
236,713	3,047	230,276	116,826
237,728	2,897	230,050	116,587
238,742	2,944	229,736	116,453
239,757	2,883	229,763	116,409
240,772	2,841	229,601	116,285
241,786	2,749	229,462	116,134
242,801	2,941	229,425	116,252
243,815	3,478	229,165	116,517
244,830	3,149	229,155	116,252
245,844	2,761	228,867	115,802
246,859	3,095	228,713	115,966
247,874	3,107	228,661	115,938
248,888	2,930	228,549	115,738
249,903	3,081	228,278	115,704
250,917	2,823	228,189	115,453
251,932	2,966	228,024	115,468
252,947	2,699	227,757	115,121
253,961	2,768	227,664	115,116
254,976	2,702	227,520	114,983
255,990	3,040	227,429	115,181
257,005	2,996	227,334	115,090
258,020	3,176	227,081	115,087
259,034	3,301	227,035	115,148
260,049	3,278	226,843	115,022
261,063	2,998	226,910	114,836
262,078	3,448	226,674	115,044
263,093	3,452	226,575	114,986
264,107	3,258	226,514	114,799
265,122	3,050	226,256	114,503
266,136	3,364	226,122	114,660
267,151	3,423	226,018	114,641
268,166	2,832	225,605	113,980
269,180	2,807	225,389	113,842
270,195	2,859	225,162	113,756
271,209	2,730	225,099	113,617
272,224	2,859	225,139	113,724
273,239	3,004	224,892	113,697
274,253	2,556	224,861	113,338
275,268	2,749	224,600	113,340
276,282	2,697	224,452	113,216
277,297	2,565	224,336	113,050
278,312	2,868	224,118	113,154
279,326	2,961	224,050	113,178
280,341	3,105	223,921	113,210
281,355	3,132	223,721	113,118
282,370	3,023	223,582	112,958
283,384	2,593	223,463	112,570
284,399	2,755	223,138	112,515
285,414	2,674	223,118	112,436
286,428	2,701	223,189	112,481
287,443	3,059	222,989	112,635
288,457	2,931	222,907	112,489
289,472	2,768	222,470	112,138
290,487	2,500	222,372	111,882
291,501	2,504	222,180	111,778
292,516	2,402	222,191	111,699
293,530	2,562	221,997	111,709
294,545	2,688	221,930	111,757
295,560	2,802	221,741	111,736
296,574	2,813	221,587	111,657
297,589	2,846	221,507	111,631
298,603	2,793	221,418	111,536
299,618	2,931	221,216	111,525
300,633	3,074	220,978	111,500
301,647	3,016	221,146	111,533
302,662	3,211	220,821	111,501
303,676	3,017	220,699	111,288
304,691	3,164	220,595	111,332
305,706	2,906	220,529	111,102
306,720	3,125	220,275	111,123
307,735	2,853	219,982	110,768
308,749	2,642	220,024	110,626
309,764	2,812	219,927	110,691
310,779	3,193	219,674	110,829
311,793	3,071	219,488	110,638
312,808	3,146	219,425	110,651
313,822	2,831	219,341	110,370
314,837	2,920	219,112	110,310
315,852	2,590	218,986	109,998
316,866	2,702	218,810	109,981
317,881	3,103	218,808	110,259
318,895	2,839	218,616	109,962
319,910	2,856	218,415	109,863
320,925	2,671	218,166	109,596
321,939	2,454	217,884	109,288
322,954	2,566	217,939	109,386
323,968	3,048	217,874	109,690
324,983	2,927	217,808	109,560
325,997	2,987	217,702	109,540
327,012	2,939	217,524	109,407
328,027	2,998	217,414	109,384
329,041	3,292	217,271	109,512
330,056	3,175	217,147	109,356
331,070	3,112	216,851	109,153
332,085	2,379	216,751	108,569
333,100	2,412	216,497	108,456
334,114	2,875	216,274	108,664
335,129	3,052	216,368	108,828
336,143	2,909	216,323	108,693
337,158	2,966	216,045	108,585
338,173	2,993	215,970	108,557
339,187	2,576	215,810	108,170
340,202	2,613	215,539	108,051
341,216	2,581	215,461	107,979
342,231	2,773	215,316	108,034
343,246	2,616	215,228	107,868
344,260	2,793	215,131	107,935
345,275	2,782	214,995	107,850
346,289	2,928	214,936	107,914
347,304	2,837	214,732	107,737
348,319	2,895	214,552	107,679
349,333	3,047	214,245	107,622
350,348	3,120	214,149	107,615
351,362	3,068	214,246	107,618
352,377	3,157	214,039	107,567
353,392	2,868	213,985	107,327
354,406	2,874	213,865	107,262
355,421	196,816	1337,233	1414,477
356,435	157,353	1474,045	1414,405
