DTS Sentinel unit serial number:	SN410029Multiplexer serial number:	ORYXHardware model number:	OX2-SRSoftware version number:	ORYX F/W v4,00 Oryx Data Collector v3.7.2.0data status	okinstallation	B6 Nyhavnadifferential loss correction	single-endedforward channel	channel 2reverse channel	N/Adate	2023/12/07time	19:45:08forward acquisition time	300,00reverse acquisition time	0,00gamma	499,1914k internal	0,3163k external	0,3163temperature offset calibration	1,0000default loss term (dB/km)	0,3820temperature slope calibration	1,0000multiplexer offset coefficient	1,0000multiplexer slope coefficient	1,0000fibre end	0,00T internal ref (°C)	13,94T ext. ref 1 (°C)	-3,04T ext. ref 2 (°C)	-3,03length (m)	temperature (°C)	Stokes	anti-Stokes-744,400	-104,298	0,200	-0,034
-743,385	-135,063	-0,297	-0,026
-742,371	39,210	0,205	0,135
-741,356	-133,521	-0,332	-0,030
-740,342	66,148	0,131	0,098
-739,327	-91,135	-0,322	-0,067
-738,312	49,837	0,097	-0,067
-737,298	-136,497	-0,300	-0,025
-736,283	531,098	0,099	-0,172
-735,269	-141,378	-0,241	0,018
-734,254	43,718	0,083	-0,056
-733,239	-41,253	-0,520	-0,196
-732,225	122,092	0,101	0,093
-731,210	800,000	0,048	0,122
-730,196	92,706	-0,086	0,071
-729,181	577,928	-0,043	-0,078
-728,167	-200,000	0,011	-0,051
-727,152	-122,179	-0,090	-0,011
-726,137	-91,748	-0,175	-0,036
-725,123	-200,000	0,001	0,104
-724,108	-200,000	-0,035	-0,205
-723,094	-40,430	-0,153	-0,058
-722,079	800,000	-0,086	-0,243
-721,064	135,524	-0,026	-0,025
-720,050	220,329	0,097	0,114
-719,035	1,403	0,006	-0,003
-718,021	-121,291	-0,025	-0,003
-717,006	-75,897	-0,109	-0,028
-715,991	143,573	-0,116	-0,114
-714,977	800,000	0,013	0,030
-713,962	-144,869	0,141	-0,009
-712,948	112,664	0,069	-0,061
-711,933	94,135	0,036	0,030
-710,918	-156,043	-0,122	-0,006
-709,904	54,472	-0,091	-0,064
-708,889	-160,434	-0,125	-0,005
-707,875	-81,428	-0,038	0,009
-706,860	94,157	0,118	-0,098
-705,845	-44,352	-0,118	-0,043
-704,831	21,419	-0,136	-0,081
-703,816	133,395	-0,084	-0,080
-702,802	79,741	-0,075	-0,059
-701,787	618,082	-0,030	-0,056
-700,772	-200,000	0,012	-0,050
-699,758	800,000	0,039	0,082
-698,743	-200,000	-0,037	-0,151
-697,729	666,487	0,073	0,138
-696,714	628,755	-0,029	-0,053
-695,699	-200,000	-0,023	-0,205
-694,685	-15,085	-0,127	-0,060
-693,670	-36,827	-0,081	-0,032
-692,656	41,935	0,039	0,026
-691,641	-200,000	0,012	-0,089
-690,627	-200,000	0,046	0,236
-689,612	-200,000	0,003	0,027
-688,597	-54,198	-0,172	-0,057
-687,583	31,180	-0,070	-0,044
-686,568	22,746	-0,142	-0,085
-685,554	-200,000	-0,027	-0,111
-684,539	-37,142	0,090	-0,035
-683,524	-200,000	0,024	0,129
-682,510	482,792	0,045	-0,075
-681,495	-200,000	0,035	-0,125
-680,481	-56,931	-0,093	-0,030
-679,466	240,014	-0,088	-0,108
-678,451	-3,380	-0,093	-0,048
-677,437	-83,337	0,058	0,013
-676,422	55,295	0,048	-0,034
-675,408	236,836	-0,108	0,132
-674,393	-200,000	0,017	0,070
-673,378	697,828	-0,018	-0,035
-672,364	496,720	-0,054	-0,092
-671,349	297,049	-0,082	-0,110
-670,335	108,876	-0,046	0,040
-669,320	6,895	-0,151	-0,082
-668,305	2,383	0,127	0,067
-667,291	82,142	-0,167	0,133
-666,276	125,689	0,011	0,010
-665,262	-189,913	0,048	-0,000
-664,247	-165,322	-0,066	0,002
-663,232	49,768	-0,090	0,062
-662,218	-100,578	-0,140	0,025
-661,203	599,423	0,022	-0,041
-660,189	106,133	0,025	0,022
-659,174	317,635	-0,022	-0,031
-658,159	-183,531	-0,095	-0,001
-657,145	-45,308	0,061	0,022
-656,130	-117,287	0,111	-0,015
-655,116	333,138	-0,042	0,059
-654,101	-200,000	-0,006	0,025
-653,086	-33,732	-0,011	0,004
-652,072	-200,000	0,005	0,058
-651,057	-200,000	-0,122	0,000
-650,043	-200,000	-0,008	0,070
-649,028	-61,553	-0,034	-0,010
-648,014	294,160	0,117	0,158
-646,999	-200,000	-0,008	-0,095
-645,984	177,064	-0,018	-0,019
-644,970	375,974	0,045	0,067
-643,955	800,000	0,027	0,057
-642,941	269,000	-0,045	-0,058
-641,926	3,286	0,066	0,035
-640,911	-200,000	-0,056	0,194
-639,897	164,101	0,023	-0,024
-638,882	-42,949	-0,032	-0,012
-637,868	800,000	-0,027	-0,079
-636,853	-40,188	-0,085	0,032
-635,838	69,279	-0,124	-0,093
-634,824	800,000	0,018	-0,049
-633,809	195,261	0,029	0,032
-632,795	-45,232	0,070	0,025
-631,780	-200,000	-0,008	0,106
-630,765	-200,000	0,030	-0,098
-629,751	-51,477	-0,203	0,069
-628,736	-148,556	0,049	-0,003
-627,722	-45,667	-0,238	0,086
-626,707	787,535	-0,056	0,114
-625,692	252,495	-0,044	0,055
-624,678	11,212	0,130	0,073
-623,663	-7,962	-0,063	0,031
-622,649	67,747	-0,154	0,115
-621,634	493,707	-0,072	-0,121
-620,619	469,510	-0,087	-0,143
-619,605	30,779	-0,017	0,010
-618,590	173,402	0,111	-0,118
-617,576	182,683	0,045	-0,049
-616,561	39,481	0,084	-0,055
-615,546	34,055	-0,207	-0,132
-614,532	611,943	-0,059	-0,109
-613,517	-200,000	-0,001	-0,047
-612,503	226,120	0,099	-0,118
-611,488	-200,000	-0,005	0,021
-610,474	85,480	0,035	0,028
-609,459	-50,270	-0,096	-0,033
-608,444	-200,000	0,055	0,195
-607,430	472,548	-0,056	-0,092
-606,415	-200,000	0,001	-0,022
-605,401	-200,000	-0,007	0,062
-604,386	-200,000	-0,018	0,069
-603,371	-123,494	-0,049	-0,006
-602,357	-132,343	-0,054	-0,005
-601,342	439,741	-0,006	0,010
-600,328	108,442	-0,106	-0,092
-599,313	530,442	-0,064	-0,111
-598,298	75,669	0,114	-0,088
-597,284	800,000	-0,038	0,097
-596,269	-12,741	-0,098	-0,047
-595,255	-200,000	0,003	-0,021
-594,240	600,430	0,115	-0,209
-593,225	-164,701	0,077	0,003
-592,211	-159,471	-0,052	0,002
-591,196	-200,000	-0,011	0,076
-590,182	-200,000	0,012	0,082
-589,167	49,417	0,129	0,088
-588,152	-74,407	-0,144	0,038
-587,138	800,000	0,015	-0,031
-586,123	-90,847	0,098	-0,020
-585,109	800,000	-0,004	-0,009
-584,094	-99,219	-0,098	-0,018
-583,079	81,293	0,139	-0,109
-582,065	-200,000	0,025	-0,084
-581,050	-200,000	0,013	-0,160
-580,036	14,858	0,055	-0,031
-579,021	173,001	-0,139	-0,147
-578,006	-118,595	0,030	-0,004
-576,992	-81,381	-0,215	-0,051
-575,977	65,629	-0,086	-0,063
-574,963	-190,084	-0,084	0,001
-573,948	800,000	-0,034	0,109
-572,934	113,625	-0,061	0,054
-571,919	240,800	-0,041	0,050
-570,904	152,644	-0,022	0,022
-569,890	-64,344	-0,040	-0,012
-568,875	800,000	0,042	0,087
-567,861	48,421	0,074	0,050
-566,846	56,319	-0,077	0,055
-565,831	-200,000	0,026	0,123
-564,817	86,792	-0,054	-0,044
-563,802	6,077	-0,112	-0,060
-562,788	12,930	0,022	0,012
-561,773	93,514	-0,063	0,052
-560,758	-200,000	0,027	-0,090
-559,744	-110,347	-0,022	-0,003
-558,729	-200,000	-0,011	-0,037
-557,715	143,955	-0,140	-0,137
-556,700	134,853	0,061	-0,058
-555,685	800,000	-0,009	-0,019
-554,671	211,956	0,016	-0,019
-553,656	-153,439	0,066	-0,003
-552,642	170,002	0,089	0,093
-551,627	766,562	-0,056	0,113
-550,612	800,000	-0,041	0,116
-549,598	736,520	-0,053	-0,104
-548,583	556,833	-0,058	-0,102
-547,569	82,948	0,118	-0,093
-546,554	-64,299	-0,068	0,020
-545,539	586,815	-0,069	-0,125
-544,525	107,737	0,046	0,040
-543,510	-200,000	-0,002	0,064
-542,496	347,041	-0,074	-0,107
-541,481	-86,265	0,047	-0,011
-540,466	-159,411	0,080	-0,003
-539,452	-200,000	0,004	0,135
-538,437	162,341	-0,092	0,094
-537,423	196,674	-0,077	-0,086
-536,408	-200,000	0,004	0,041
-535,393	-119,939	-0,027	0,003
-534,379	800,000	-0,033	-0,092
-533,364	37,328	0,045	-0,029
-532,350	-200,000	0,032	0,127
-531,335	-200,000	-0,002	0,116
-530,321	800,000	-0,005	-0,012
-529,306	79,849	-0,032	-0,025
-528,291	-200,000	-0,006	-0,033
-527,277	-65,889	0,015	-0,004
-526,262	645,709	-0,051	-0,096
-525,248	-200,000	-0,004	0,054
-524,233	-166,223	0,114	-0,003
-523,218	-200,000	0,002	0,042
-522,204	-141,008	0,093	0,007
-521,189	-200,000	-0,007	-0,052
-520,175	13,959	-0,133	0,075
-519,160	584,636	0,040	-0,071
-518,145	407,335	0,084	-0,130
-517,131	800,000	0,047	-0,111
-516,116	276,100	0,067	-0,087
-515,102	-28,542	0,016	0,007
-514,087	683,604	-0,069	-0,132
-513,072	-14,242	-0,098	0,046
-512,058	700,177	-0,031	-0,060
-511,043	23,167	-0,084	-0,050
-510,029	243,412	0,104	-0,127
-509,014	119,444	-0,024	0,022
-507,999	278,863	0,079	-0,104
-506,985	369,345	0,052	0,077
-505,970	148,173	0,062	-0,061
-504,956	-200,000	0,007	-0,054
-503,941	48,089	0,105	0,071
-502,926	-81,388	-0,070	-0,017
-501,912	800,000	0,020	-0,047
-500,897	800,000	0,029	0,069
-499,883	-1,507	-0,018	0,009
-498,868	-200,000	-0,027	-0,098
-497,853	249,202	0,055	-0,068
-496,839	-41,555	-0,066	-0,025
-495,824	-200,000	-0,010	0,127
-494,810	322,777	0,040	0,055
-493,795	-61,784	-0,128	0,039
-492,781	165,147	0,053	0,055
-491,766	-200,000	0,021	-0,071
-490,751	-200,000	-0,005	-0,037
-489,737	178,655	-0,063	-0,067
-488,722	800,000	-0,031	0,067
-487,708	215,406	-0,051	-0,059
-486,693	-43,223	-0,059	-0,022
-485,678	11,295	-0,156	-0,087
-484,664	-200,000	-0,034	0,115
-483,649	395,332	0,030	-0,046
-482,635	800,000	-0,049	-0,100
-481,620	-38,022	-0,030	0,011
-480,605	518,772	-0,032	0,054
-479,591	646,841	-0,041	0,076
-478,576	-74,086	-0,038	-0,010
-477,562	800,000	0,046	-0,094
-476,547	-200,000	-0,004	-0,158
-475,532	-200,000	0,020	-0,129
-474,518	-76,267	-0,148	-0,038
-473,503	20,600	0,114	0,067
-472,489	-200,000	-0,000	-0,002
-471,474	530,914	-0,044	-0,077
-470,459	107,902	-0,041	-0,036
-469,445	7,521	-0,043	-0,023
-468,430	-142,557	-0,045	0,003
-467,416	139,836	-0,020	-0,019
-466,401	86,178	0,083	-0,066
-465,386	-200,000	-0,005	-0,161
-464,372	517,379	-0,055	-0,095
-463,357	800,000	-0,063	-0,183
-462,343	-200,000	-0,016	-0,200
-461,328	-167,119	0,206	0,006
-460,313	219,126	0,083	-0,097
-459,299	-144,861	-0,030	0,002
-458,284	193,539	-0,082	0,091
-457,270	238,004	0,084	0,102
-456,255	-147,106	0,089	0,005
-455,241	241,774	-0,045	-0,055
-454,226	29,494	-0,030	0,018
-453,211	148,121	0,015	0,015
-452,197	800,000	-0,018	0,047
-451,182	458,967	0,051	-0,083
-450,168	-200,000	0,004	0,037
-449,153	-200,000	0,001	-0,123
-448,138	-200,000	-0,010	-0,111
-447,124	-116,975	-0,148	-0,019
-446,109	-143,746	-0,095	-0,006
-445,095	-200,000	0,018	0,163
-444,080	181,517	0,026	0,027
-443,065	-200,000	-0,007	0,120
-442,051	800,000	0,056	0,172
-441,036	-200,000	-0,006	0,026
-440,022	262,532	-0,045	-0,057
-439,007	308,003	-0,097	0,132
-437,992	-55,270	-0,074	-0,024
-436,978	10,750	0,182	0,101
-435,963	-200,000	0,009	0,063
-434,949	114,370	-0,037	0,033
-433,934	-164,380	-0,134	0,004
-432,919	-69,194	0,113	0,031
-431,905	-140,487	-0,128	0,010
-430,890	-40,956	0,134	-0,050
-429,876	130,532	0,056	-0,052
-428,861	450,867	-0,019	0,030
-427,846	157,348	0,116	-0,116
-426,832	-181,529	-0,014	-0,000
-425,817	-66,968	-0,065	-0,018
-424,803	-84,007	0,075	0,017
-423,788	-200,000	0,013	0,193
-422,773	364,054	-0,034	0,050
-421,759	133,571	0,100	0,094
-420,744	-50,303	-0,057	-0,020
-419,730	79,139	-0,035	-0,027
-418,715	365,412	0,052	0,076
-417,701	-200,000	-0,003	0,028
-416,686	-112,948	-0,067	-0,009
-415,671	800,000	0,034	-0,077
-414,657	206,368	-0,029	0,033
-413,642	84,372	-0,039	-0,031
-412,628	382,647	-0,044	-0,066
-411,613	252,245	-0,051	0,064
-410,598	800,000	0,021	-0,060
-409,584	14,712	0,140	0,080
-408,569	197,712	-0,013	-0,015
-407,555	-42,538	0,095	0,035
-406,540	-96,284	0,080	-0,015
-405,525	800,000	-0,023	0,055
-404,511	-32,511	0,120	0,048
-403,496	-200,000	0,006	0,022
-402,482	-200,000	0,019	0,114
-401,467	-48,722	0,042	0,015
-400,452	-200,000	-0,012	0,121
-399,438	28,436	0,040	-0,025
-398,423	36,366	0,083	-0,053
-397,409	-49,434	-0,120	-0,041
-396,394	696,272	0,033	0,064
-395,379	-200,000	-0,002	0,039
-394,365	84,240	0,109	0,087
-393,350	-11,810	-0,138	-0,066
-392,336	-151,239	0,008	0,000
-391,321	-154,076	0,135	0,007
-390,306	-22,679	-0,060	-0,026
-389,292	-200,000	-0,001	-0,168
-388,277	77,684	-0,057	0,044
-387,263	313,173	-0,047	0,064
-386,248	20,454	-0,038	0,022
-385,233	-200,000	-0,002	0,006
-384,219	-105,778	-0,129	0,021
-383,204	697,725	0,024	0,046
-382,190	82,699	-0,093	0,073
-381,175	-200,000	-0,002	-0,071
-380,160	-118,314	-0,071	-0,009
-379,146	800,000	0,048	0,135
-378,131	-15,613	-0,102	-0,047
-377,117	-66,621	0,061	0,017
-376,102	15,492	-0,083	-0,047
-375,088	-132,333	-0,146	0,014
-374,073	-200,000	-0,004	0,040
-373,058	800,000	0,042	0,092
-372,044	-63,542	0,040	-0,012
-371,029	800,000	0,049	0,155
-370,015	207,857	0,043	0,049
-369,000	-40,353	-0,129	0,048
-367,985	-66,940	-0,039	-0,011
-366,971	-200,000	-0,001	-0,042
-365,956	-126,705	0,168	0,018
-364,942	466,797	0,055	-0,090
-363,927	-63,833	0,122	0,036
-362,912	24,187	-0,122	0,073
-361,898	800,000	0,032	0,074
-360,883	-109,320	0,142	-0,022
-359,869	451,346	-0,095	0,153
-358,854	-200,000	0,021	-0,157
-357,839	-38,790	-0,022	0,008
-356,825	-5,787	-0,098	0,048
-355,810	46,067	0,001	-0,001
-354,796	199,028	-0,097	-0,108
-353,781	9,315	0,133	0,073
-352,766	2,973	0,105	0,055
-351,752	-200,000	-0,002	-0,090
-350,737	-83,692	-0,058	-0,013
-349,723	800,000	-0,019	0,057
-348,708	2,812	-0,062	-0,032
-347,693	800,000	0,040	-0,121
-346,679	31,709	0,055	0,034
-345,664	-130,772	0,102	-0,010
-344,650	-200,000	-0,060	0,204
-343,635	-200,000	-0,001	-0,021
-342,620	-80,587	0,072	-0,017
-341,606	213,017	-0,033	-0,038
-340,591	350,422	0,101	0,145
-339,577	800,000	0,051	0,138
-338,562	481,234	-0,041	0,068
-337,548	117,414	0,083	0,074
-336,533	301,901	0,020	0,027
-335,518	174,577	0,089	-0,093
-334,504	230,414	0,102	0,121
-333,489	442,657	0,050	0,079
-332,475	-118,679	-0,158	0,020
-331,460	37,595	0,120	-0,077
-330,445	-200,000	0,030	-0,110
-329,431	55,264	0,108	0,075
-328,416	19,917	0,123	0,071
-327,402	800,000	0,047	0,099
-326,387	406,701	0,059	0,091
-325,372	800,000	0,050	-0,138
-324,358	67,928	0,056	-0,041
-323,343	-65,821	0,086	-0,025
-322,329	415,768	0,024	-0,037
-321,314	-200,000	0,015	0,164
-320,299	-157,347	0,024	0,001
-319,285	-115,227	0,040	-0,005
-318,270	160,852	-0,065	0,065
-317,256	-34,854	-0,061	-0,024
-316,241	17,609	0,113	-0,065
-315,226	79,457	0,059	-0,046
-314,212	128,973	-0,042	-0,039
-313,197	-200,000	0,011	0,086
-312,183	295,898	0,081	0,107
-311,168	84,476	-0,091	-0,072
-310,153	-200,000	-0,046	-0,194
-309,139	-200,000	-0,011	-0,148
-308,124	800,000	0,029	-0,059
-307,110	-94,085	0,043	-0,008
-306,095	-114,999	-0,116	-0,016
-305,080	35,976	-0,139	0,088
-304,066	29,432	-0,071	-0,044
-303,051	-44,546	-0,031	-0,011
-302,037	-49,655	0,021	-0,007
-301,022	-76,974	0,082	0,021
-300,008	800,000	0,035	0,103
-298,993	-60,714	-0,023	0,007
-297,978	-128,224	0,130	-0,013
-296,964	73,933	-0,037	0,028
-295,949	-141,986	0,031	0,002
-294,935	242,664	-0,061	0,074
-293,920	-14,167	0,115	0,054
-292,905	-200,000	0,001	-0,102
-291,891	340,474	0,058	0,083
-290,876	4,935	0,057	-0,030
-289,862	491,473	-0,039	-0,065
-288,847	9,018	-0,071	-0,039
-287,832	-200,000	0,039	0,150
-286,818	137,412	-0,050	0,048
-285,803	-200,000	0,021	-0,092
-284,789	-137,136	0,036	-0,003
-283,774	-200,000	0,027	-0,089
-282,759	526,583	0,069	-0,118
-281,745	800,000	-0,019	0,054
-280,730	250,129	0,053	0,065
-279,716	-200,000	0,115	0,000
-278,701	197,367	0,053	0,059
-277,686	-19,930	0,127	-0,056
-276,672	48,203	-0,131	0,089
-275,657	-200,000	-0,012	-0,103
-274,643	55,226	-0,124	-0,087
-273,628	-68,662	-0,081	-0,022
-272,613	-200,000	-0,016	-0,065
-271,599	-200,000	0,049	0,174
-270,584	800,000	0,016	-0,048
-269,570	108,086	0,153	-0,132
-268,555	29,147	0,070	-0,043
-267,540	800,000	0,046	0,137
-266,526	-40,360	0,118	0,044
-265,511	301,323	0,026	0,035
-264,497	403,350	0,018	0,028
-263,482	-65,583	0,071	0,020
-262,467	350,039	0,061	0,087
-261,453	151,102	-0,051	0,050
-260,438	35,732	0,082	0,052
-259,424	36,480	-0,092	0,058
-258,409	-96,743	-0,119	0,022
-257,395	800,000	0,056	0,168
-256,380	718,010	0,027	0,051
-255,365	268,943	0,096	0,122
-254,351	589,430	-0,035	0,063
-253,336	298,064	-0,058	-0,077
-252,322	647,549	-0,054	0,100
-251,307	52,362	-0,031	0,022
-250,292	-200,000	0,008	-0,160
-249,278	800,000	0,037	0,093
-248,263	-19,318	-0,079	-0,035
-247,249	800,000	-0,027	-0,083
-246,234	193,609	-0,093	-0,101
-245,219	-200,000	0,020	-0,110
-244,205	-200,000	-0,003	-0,069
-243,190	715,681	-0,030	0,058
-242,176	800,000	-0,022	0,070
-241,161	-200,000	-0,017	0,087
-240,146	-14,900	0,006	0,003
-239,132	181,315	-0,030	0,031
-238,117	800,000	0,016	-0,039
-237,103	-200,000	-0,044	-0,149
-236,088	251,662	-0,031	-0,038
-235,073	-126,156	0,089	-0,009
-234,059	115,135	-0,010	0,009
-233,044	-200,000	-0,007	0,101
-232,030	257,997	-0,023	0,029
-231,015	65,098	0,063	-0,046
-230,000	-6,716	-0,088	-0,043
-228,986	605,371	0,009	-0,016
-227,971	-121,482	0,147	0,017
-226,957	51,954	-0,109	-0,075
-225,942	-200,000	-0,008	0,123
-224,927	-127,018	0,116	-0,012
-223,913	-37,769	-0,068	-0,026
-222,898	800,000	-0,024	0,073
-221,884	441,858	0,032	0,051
-220,869	-200,000	0,035	0,130
-219,855	-200,000	0,014	0,057
-218,840	476,555	-0,048	-0,079
-217,825	-5,417	-0,070	-0,035
-216,811	129,357	-0,134	-0,123
-215,796	-200,000	0,005	-0,028
-214,782	-113,642	-0,035	-0,005
-213,767	-118,571	0,107	-0,013
-212,752	-200,000	0,013	0,140
-211,738	-28,682	0,083	-0,034
-210,723	98,485	0,061	-0,051
-209,709	-99,222	-0,069	-0,012
-208,694	800,000	0,024	-0,052
-207,679	192,280	-0,047	0,052
-206,665	-200,000	-0,025	-0,102
-205,650	-71,633	-0,090	0,024
-204,636	800,000	0,032	0,082
-203,621	51,441	0,119	0,081
-202,606	325,070	-0,037	0,052
-201,592	241,082	-0,043	-0,052
-200,577	139,543	0,110	0,105
-199,563	-90,615	0,041	-0,009
-198,548	-99,167	-0,054	0,010
-197,533	346,558	0,081	0,115
-196,519	-161,973	-0,026	-0,001
-195,504	259,151	0,058	0,072
-194,490	-144,192	0,089	-0,006
-193,475	-200,000	0,021	-0,124
-192,460	377,746	-0,042	-0,063
-191,446	-200,000	-0,007	-0,036
-190,431	254,573	0,045	0,055
-189,417	-180,570	0,084	0,001
-188,402	800,000	0,026	0,063
-187,387	19,745	0,127	0,074
-186,373	-113,025	-0,062	0,009
-185,358	624,060	0,050	0,091
-184,344	304,439	0,052	0,070
-183,329	800,000	0,031	0,084
-182,315	306,939	-0,021	0,029
-181,300	800,000	-0,030	0,073
-180,285	486,900	0,049	-0,080
-179,271	665,295	-0,091	0,169
-178,256	298,437	-0,075	-0,099
-177,242	-200,000	0,014	-0,073
-176,227	-83,354	0,072	-0,017
-175,212	243,804	-0,039	0,047
-174,198	-3,421	0,056	0,028
-173,183	760,870	0,047	0,092
-172,169	523,391	-0,057	0,096
-171,154	702,717	-0,037	-0,071
-170,139	800,000	0,049	-0,137
-169,125	27,204	0,038	-0,023
-168,110	-172,927	0,022	0,000
-167,096	800,000	0,001	0,001
-166,081	147,095	0,055	-0,053
-165,066	3,624	0,037	-0,019
-164,052	800,000	-0,043	-0,108
-163,037	-97,290	-0,054	-0,010
-162,023	607,472	-0,024	-0,043
-161,008	800,000	-0,059	-0,118
-159,993	800,000	0,031	0,070
-158,979	6,423	-0,027	-0,014
-157,964	-200,000	-0,024	-0,113
-156,950	-14,584	-0,034	-0,016
-155,935	456,707	0,005	0,008
-154,920	191,218	0,023	-0,025
-153,906	-200,000	0,025	-0,082
-152,891	-92,121	0,064	0,013
-151,877	-200,000	-0,029	-0,134
-150,862	27,608	0,046	-0,028
-149,847	450,961	-0,043	0,069
-148,833	35,120	0,019	-0,012
-147,818	-200,000	-0,020	0,086
-146,804	551,683	0,028	0,049
-145,789	800,000	-0,044	-0,106
-144,775	-200,000	-0,012	0,045
-143,760	69,346	-0,114	0,084
-142,745	800,000	-0,037	-0,086
-141,731	-200,000	0,011	-0,038
-140,716	185,390	0,018	0,019
-139,702	-200,000	-0,012	-0,060
-138,687	800,000	-0,019	0,039
-137,672	800,000	-0,010	-0,027
-136,658	-123,592	0,176	0,020
-135,643	-200,000	0,028	-0,159
-134,629	611,580	0,051	-0,092
-133,614	-200,000	-0,003	0,024
-132,599	144,158	-0,074	0,071
-131,585	50,750	-0,072	0,049
-130,570	-24,280	-0,154	-0,066
-129,556	246,691	-0,063	-0,076
-128,541	84,202	-0,057	0,045
-127,526	71,400	-0,056	0,042
-126,512	110,701	-0,012	0,010
-125,497	465,262	0,074	0,120
-124,483	66,330	0,052	-0,038
-123,468	-200,000	-0,003	0,033
-122,453	-136,873	-0,068	0,006
-121,439	-173,214	-0,033	-0,001
-120,424	-35,497	0,126	-0,049
-119,410	342,867	0,056	0,079
-118,395	-48,656	0,081	0,028
-117,380	113,054	0,132	-0,115
-116,366	-73,488	0,193	0,050
-115,351	244,086	0,019	0,023
-114,337	800,000	0,043	0,093
-113,322	-200,000	-0,008	0,086
-112,307	122,516	-0,052	-0,047
-111,293	33,628	0,145	0,090
-110,278	-108,503	-0,162	-0,025
-109,264	-200,000	-0,020	-0,150
-108,249	-200,000	0,018	0,098
-107,234	83,522	0,069	0,054
-106,220	-200,000	0,014	-0,073
-105,205	717,263	0,017	-0,033
-104,191	281,725	0,046	0,060
-103,176	219,707	0,039	-0,045
-102,162	195,951	0,078	-0,085
-101,147	-67,713	-0,036	-0,010
-100,132	154,375	0,049	0,048
-99,118	-200,000	-0,015	0,190
-98,103	-200,000	-0,008	-0,146
-97,089	-120,951	0,068	0,008
-96,074	-200,000	-0,005	0,147
-95,059	215,907	0,064	0,073
-94,045	117,143	0,073	0,065
-93,030	178,984	-0,151	0,158
-92,016	-78,064	-0,062	-0,015
-91,001	-85,302	0,169	0,038
-89,986	36,912	-0,041	-0,026
-88,972	9,224	0,094	-0,051
-87,957	633,582	-0,071	-0,129
-86,943	189,325	0,047	0,050
-85,928	39,065	0,027	-0,017
-84,913	580,329	-0,082	0,145
-83,899	-200,000	-0,012	-0,103
-82,884	117,518	-0,052	0,046
-81,870	-122,616	0,081	-0,009
-80,855	188,674	0,075	0,081
-79,840	-60,234	-0,036	0,011
-78,826	-76,665	-0,064	-0,016
-77,811	86,823	-0,105	0,083
-76,797	800,000	0,013	-0,029
-75,782	-200,000	-0,008	-0,052
-74,767	-128,800	0,089	-0,009
-73,753	60,400	0,035	0,025
-72,738	106,787	0,097	0,083
-71,724	-137,172	-0,074	0,006
-70,709	-31,875	-0,071	0,029
-69,694	39,114	-0,065	0,041
-68,680	262,203	0,110	0,137
-67,665	175,638	0,044	0,046
-66,651	-85,081	0,051	0,011
-65,636	672,170	-0,083	-0,155
-64,622	43,893	-0,073	-0,048
-63,607	193,936	-0,076	0,082
-62,592	-185,223	0,036	-0,000
-61,578	38,578	-0,042	-0,027
-60,563	58,230	-0,037	-0,026
-59,549	233,531	-0,087	0,103
-58,534	44,579	-2,137	-1,405
-57,519	-200,000	0,022	-0,790
-56,505	-200,000	-1,532	-5,020
-55,490	138,541	0,749	0,704
-54,476	800,000	5,313	12,186
-53,461	-200,000	18,439	301,738
-52,446	800,000	734,896	2254,081
-51,432	530,676	1647,746	2800,355
-50,417	107,547	1634,328	1392,769
-49,403	71,546	1285,056	954,920
-48,388	29,946	1026,134	625,041
-47,373	19,651	988,530	568,236
-46,359	17,485	976,071	553,968
-45,344	14,262	972,257	541,254
-44,330	14,571	970,717	541,385
-43,315	14,039	968,824	538,575
-42,300	13,937	967,581	537,529
-41,286	13,923	967,003	537,142
-40,271	13,973	965,773	536,599
-39,257	13,958	964,970	536,082
-38,242	13,930	964,126	535,500
-37,227	13,943	963,234	535,026
-36,213	13,941	962,411	534,542
-35,198	13,952	961,493	534,048
-34,184	13,944	960,932	533,689
-33,169	13,966	959,596	532,997
-32,154	13,984	958,860	532,625
-31,140	13,962	958,109	532,117
-30,125	13,990	957,512	531,854
-29,111	13,963	956,485	531,175
-28,096	13,974	955,945	530,890
-27,082	14,008	954,934	530,416
-26,067	14,010	954,420	530,116
-25,052	14,028	953,549	529,669
-24,038	13,956	953,016	529,120
-23,023	13,924	952,267	528,581
-22,009	13,934	951,669	528,260
-20,994	14,005	950,991	528,088
-19,979	14,010	950,317	527,711
-18,965	14,010	949,665	527,327
-17,950	13,957	949,315	526,942
-16,936	13,950	948,351	526,364
-15,921	13,892	947,849	525,881
-14,906	13,931	946,973	525,497
-13,892	13,858	946,427	524,940
-12,877	13,910	945,816	524,749
-11,863	13,835	945,356	524,234
-10,848	13,849	944,900	524,005
-9,833	13,970	944,162	523,956
-8,819	13,918	943,548	523,432
-7,804	13,923	942,727	522,971
-6,790	13,825	942,582	522,560
-5,775	13,915	941,781	522,380
-4,760	13,862	941,089	521,806
-3,746	13,821	940,650	521,413
-2,731	13,701	939,906	520,600
-1,717	13,683	939,303	520,191
-0,702	13,634	938,471	519,553
0,313	13,480	938,011	519,599
1,327	16,786	935,569	528,593
2,342	25,581	787,767	468,185
3,356	21,765	443,164	257,725
4,371	-7,381	296,107	143,016
5,386	-10,943	277,838	130,800
6,400	-12,403	272,184	126,768
7,415	-12,461	269,803	125,594
8,429	-12,558	268,395	124,839
9,444	-12,535	267,297	124,338
10,459	-12,571	266,957	124,136
11,473	-12,707	266,312	123,701
12,488	-12,857	265,688	123,264
13,502	-12,877	265,288	123,049
14,517	-12,790	264,528	122,764
15,531	-12,511	264,156	122,833
16,546	-12,674	264,016	122,609
17,561	-12,711	263,548	122,348
18,575	-12,496	263,215	122,376
19,590	-12,692	262,793	121,993
20,604	-12,783	262,646	121,832
21,619	-12,785	262,274	121,647
22,634	-12,823	262,015	121,482
23,648	-12,702	261,534	121,357
24,663	-12,745	261,350	121,221
25,677	-12,736	261,057	121,082
26,692	-12,776	260,901	120,964
27,707	-12,917	260,575	120,677
28,721	-12,626	260,316	120,804
29,736	-12,821	260,016	120,482
30,750	-12,840	259,646	120,282
31,765	-12,872	259,410	120,134
32,780	-12,767	259,337	120,183
33,794	-12,721	258,879	120,000
34,809	-12,792	258,765	119,875
35,823	-12,802	258,436	119,702
36,838	-12,799	258,248	119,607
37,853	-13,076	258,068	119,269
38,867	-12,820	257,679	119,303
39,882	-13,050	257,478	118,998
40,896	-12,857	257,243	119,048
41,911	-12,751	257,008	119,021
42,926	-12,851	256,880	118,864
43,940	-12,819	256,584	118,745
44,955	-12,968	256,258	118,453
45,969	-13,092	256,109	118,266
46,984	-13,075	255,783	118,119
47,999	-13,181	255,476	117,874
49,013	-13,399	255,342	117,612
50,028	-13,483	255,054	117,396
51,042	-13,590	254,761	117,158
52,057	-13,625	254,644	117,064
53,071	-13,319	254,350	117,183
54,086	-13,473	254,300	117,016
55,101	-13,433	254,176	116,983
56,115	-13,153	253,943	117,107
57,130	-12,792	253,790	117,339
58,144	-12,783	253,647	117,270
59,159	-12,582	253,348	117,295
60,174	-12,760	253,183	117,055
61,188	-12,657	253,011	117,053
62,203	-12,706	252,717	116,865
63,217	-12,652	252,497	116,799
64,232	-12,843	252,435	116,596
65,247	-12,760	252,063	116,484
66,261	-12,765	251,734	116,318
67,276	-12,831	251,489	116,138
68,290	-13,019	251,298	115,879
69,305	-13,059	251,146	115,764
70,320	-13,180	250,924	115,548
71,334	-12,943	250,815	115,690
72,349	-12,905	250,544	115,587
73,363	-12,676	250,481	115,743
74,378	-12,911	250,282	115,440
75,393	-12,653	250,018	115,527
76,407	-12,548	249,771	115,492
77,422	-12,861	249,676	115,172
78,436	-12,873	249,368	115,010
79,451	-12,886	249,273	114,945
80,466	-12,903	248,950	114,771
81,480	-13,040	248,763	114,559
82,495	-13,026	248,459	114,421
83,509	-12,989	248,481	114,452
84,524	-12,829	247,847	114,284
85,539	-13,031	247,915	114,136
86,553	-13,070	247,648	113,969
87,568	-13,120	247,567	113,880
88,582	-12,836	247,288	113,979
89,597	-13,066	247,182	113,728
90,611	-12,904	247,077	113,805
91,626	-12,765	246,757	113,764
92,641	-12,734	246,762	113,782
93,655	-12,677	246,448	113,675
94,670	-12,817	246,207	113,437
95,684	-12,927	246,024	113,250
96,699	-13,019	245,939	113,124
97,714	-13,049	245,645	112,954
98,728	-13,021	245,298	112,808
99,743	-13,224	245,212	112,589
100,757	-13,091	244,848	112,523
101,772	-13,006	244,800	112,561
102,787	-12,980	244,572	112,468
103,801	-12,865	244,466	112,505
104,816	-12,974	244,358	112,354
105,830	-12,723	244,240	112,498
106,845	-12,734	243,995	112,366
107,860	-12,654	243,789	112,327
108,874	-12,943	243,526	111,958
109,889	-12,890	243,486	111,972
110,903	-12,945	243,149	111,762
111,918	-12,932	243,024	111,705
112,933	-13,034	242,847	111,530
113,947	-13,069	242,810	111,475
114,962	-12,898	242,533	111,478
115,976	-12,792	242,166	111,387
116,991	-12,965	242,076	111,193
118,006	-12,832	241,909	111,215
119,020	-12,817	241,795	111,165
120,035	-12,794	241,729	111,144
121,049	-12,945	241,524	110,916
122,064	-12,761	241,365	110,984
123,079	-12,847	240,960	110,718
124,093	-12,956	240,879	110,582
125,108	-13,203	240,696	110,286
126,122	-13,241	240,413	110,116
127,137	-13,052	240,090	110,112
128,151	-13,038	240,094	110,115
129,166	-13,024	239,851	110,005
130,181	-13,038	239,735	109,931
131,195	-13,292	239,455	109,587
132,210	-13,146	239,456	109,696
133,224	-12,675	239,148	109,927
134,239	-12,885	239,120	109,734
135,254	-12,942	239,024	109,633
136,268	-13,007	238,661	109,406
137,283	-13,235	238,322	109,056
138,297	-13,352	238,170	108,882
139,312	-13,222	238,004	108,901
140,327	-12,952	237,912	109,067
141,341	-12,550	237,799	109,328
142,356	-12,487	237,551	109,256
143,370	-12,738	237,612	109,072
144,385	-12,552	237,442	109,134
145,400	-12,673	237,177	108,905
146,414	-12,586	236,862	108,821
147,429	-12,817	236,813	108,604
148,443	-12,705	236,598	108,584
149,458	-12,763	236,523	108,494
150,473	-12,671	236,337	108,472
151,487	-12,729	236,082	108,300
152,502	-12,625	235,964	108,319
153,516	-12,405	235,740	108,381
154,531	-12,686	235,614	108,090
155,546	-12,668	235,426	108,009
156,560	-12,736	235,210	107,846
157,575	-12,832	235,074	107,698
158,589	-12,783	234,863	107,630
159,604	-12,694	234,656	107,596
160,619	-12,569	234,753	107,730
161,633	-12,475	234,587	107,718
162,648	-12,489	234,244	107,541
163,662	-12,668	234,266	107,400
164,677	-12,734	234,047	107,238
165,692	-12,695	233,764	107,129
166,706	-12,551	233,704	107,206
167,721	-12,407	233,581	107,253
168,735	-12,506	233,494	107,126
169,750	-12,592	233,215	106,921
170,764	-12,601	233,032	106,820
171,779	-12,743	232,968	106,669
172,794	-12,675	232,872	106,669
173,808	-12,720	232,621	106,509
174,823	-13,078	232,299	106,073
175,837	-13,310	232,028	105,758
176,852	-12,800	232,055	106,160
177,867	-12,740	232,059	106,199
178,881	-12,715	231,803	106,092
179,896	-12,519	231,742	106,208
180,910	-12,494	231,396	106,059
181,925	-12,647	231,350	105,909
182,940	-12,718	231,205	105,778
183,954	-12,466	230,993	105,867
184,969	-12,636	230,969	105,715
185,983	-12,572	230,811	105,683
186,998	-12,237	230,599	105,836
188,013	-12,425	230,492	105,632
189,027	-12,465	230,268	105,489
190,042	-12,344	230,049	105,472
191,056	-12,524	230,000	105,302
192,071	-12,337	229,859	105,373
193,086	-12,615	229,679	105,065
194,100	-12,297	229,389	105,169
195,115	-12,718	228,966	104,642
196,129	-13,390	229,029	104,143
197,144	-7,636	230,818	109,410
198,159	-1,762	232,602	114,825
199,173	1,772	233,428	117,979
200,188	2,228	233,518	118,369
201,202	2,019	233,356	118,114
202,217	2,256	233,099	118,158
203,232	2,354	233,186	118,268
204,246	2,294	232,962	118,097
205,261	2,648	232,699	118,228
206,275	2,696	232,651	118,230
207,290	2,637	232,539	118,116
208,304	2,797	232,271	118,094
209,319	2,603	232,235	117,915
210,334	2,608	231,943	117,760
211,348	2,270	231,828	117,430
212,363	2,168	231,511	117,180
213,377	1,889	231,261	116,828
214,392	1,743	231,299	116,725
215,407	1,912	231,216	116,802
216,421	2,038	230,825	116,691
217,436	1,966	230,685	116,555
218,450	1,873	230,461	116,359
219,465	1,788	230,477	116,292
220,480	1,790	230,356	116,222
221,494	1,817	230,088	116,097
222,509	1,909	230,063	116,145
223,523	2,111	229,793	116,153
224,538	2,141	229,765	116,151
225,553	1,973	229,565	115,911
226,567	1,952	229,332	115,767
227,582	2,310	229,288	116,008
228,596	2,319	229,313	116,017
229,611	2,085	228,956	115,648
230,626	1,691	228,711	115,214
231,640	1,725	228,687	115,218
232,655	2,150	228,615	115,495
233,669	2,427	228,503	115,638
234,684	2,719	228,315	115,754
235,699	2,379	228,162	115,409
236,713	2,099	227,971	115,089
237,728	1,972	227,843	114,918
238,742	1,836	227,510	114,637
239,757	2,030	227,529	114,783
240,772	2,034	227,353	114,687
241,786	1,974	227,084	114,496
242,801	2,386	227,011	114,760
243,815	2,496	227,067	114,861
244,830	2,459	226,868	114,722
245,844	2,196	226,621	114,388
246,859	1,985	226,486	114,152
247,874	2,328	226,379	114,346
248,888	2,485	226,190	114,358
249,903	2,274	226,102	114,145
250,917	2,015	225,953	113,865
251,932	2,184	225,650	113,829
252,947	1,848	225,620	113,552
253,961	1,808	225,136	113,268
254,976	1,946	225,257	113,422
255,990	2,159	225,064	113,474
257,005	2,301	225,013	113,544
258,020	2,242	224,907	113,436
259,034	2,025	224,872	113,247
260,049	2,218	224,690	113,289
261,063	2,098	224,554	113,121
262,078	2,199	224,475	113,146
263,093	2,436	224,341	113,245
264,107	2,431	224,005	113,062
265,122	2,315	224,013	112,969
266,136	2,416	223,918	112,986
267,151	2,551	223,542	112,887
268,166	1,925	223,408	112,345
269,180	1,906	223,170	112,202
270,195	1,610	223,124	111,949
271,209	1,859	222,915	112,018
272,224	2,362	222,672	112,258
273,239	2,122	222,795	112,132
274,253	2,142	222,430	111,954
275,268	1,870	222,273	111,664
276,282	1,794	222,010	111,466
277,297	1,552	221,835	111,190
278,312	1,656	221,977	111,328
279,326	1,859	221,826	111,392
280,341	1,988	221,711	111,418
281,355	2,003	221,580	111,354
282,370	2,127	221,431	111,360
283,384	1,989	221,159	111,112
284,399	1,719	220,950	110,800
285,414	1,897	220,887	110,889
286,428	1,897	220,766	110,818
287,443	2,198	220,776	111,033
288,457	2,281	220,673	111,032
289,472	2,017	220,315	110,650
290,487	1,363	220,188	110,099
291,501	1,509	219,962	110,082
292,516	1,673	219,928	110,175
293,530	1,493	219,778	109,959
294,545	1,760	219,670	110,090
295,560	1,884	219,628	110,149
296,574	2,110	219,346	110,162
297,589	2,022	219,135	109,982
298,603	2,096	219,052	109,984
299,618	2,159	218,879	109,933
300,633	2,127	218,847	109,884
301,647	2,228	218,936	109,992
302,662	2,078	218,686	109,748
303,676	2,193	218,399	109,677
304,691	2,260	218,399	109,716
305,706	2,246	218,201	109,597
306,720	2,268	217,993	109,498
307,735	2,079	217,879	109,295
308,749	1,844	217,818	109,085
309,764	2,095	217,718	109,206
310,779	2,218	217,506	109,179
311,793	2,057	217,245	108,922
312,808	2,210	217,231	109,015
313,822	2,033	217,114	108,820
314,837	2,026	217,007	108,751
315,852	1,868	216,871	108,561
316,866	1,884	216,857	108,555
317,881	2,340	216,611	108,749
318,895	2,259	216,289	108,520
319,910	1,965	216,137	108,223
320,925	1,683	216,046	107,967
321,939	1,488	215,784	107,688
322,954	1,708	215,616	107,751
323,968	2,081	215,728	108,063
324,983	2,173	215,651	108,080
325,997	2,434	215,483	108,172
327,012	2,302	215,175	107,914
328,027	2,043	215,161	107,714
329,041	2,579	215,073	108,040
330,056	2,591	214,937	107,970
331,070	2,159	214,784	107,578
332,085	1,740	214,623	107,191
333,100	1,917	214,438	107,215
334,114	2,213	214,315	107,353
335,129	2,231	214,187	107,292
336,143	2,176	213,999	107,149
337,158	2,112	213,717	106,953
338,173	1,988	213,729	106,862
339,187	1,658	213,672	106,592
340,202	1,945	213,257	106,577
341,216	1,896	213,136	106,473
342,231	1,619	213,147	106,274
343,246	2,184	213,107	106,641
344,260	2,245	213,051	106,647
345,275	2,277	213,058	106,664
346,289	2,489	213,003	106,775
347,304	2,186	212,705	106,403
348,319	2,247	212,369	106,269
349,333	2,359	212,156	106,231
350,348	2,100	212,166	106,046
351,362	2,299	212,074	106,129
352,377	2,185	211,921	105,963
353,392	2,233	211,752	105,903
354,406	2,245	211,645	105,848
355,421	196,441	1315,122	1391,722
356,435	157,085	1449,513	1391,678
