DTS Sentinel unit serial number:	SN410029Multiplexer serial number:	ORYXHardware model number:	OX2-SRSoftware version number:	ORYX F/W v4,00 Oryx Data Collector v3.7.2.0data status	okinstallation	B6 Nyhavnadifferential loss correction	single-endedforward channel	channel 2reverse channel	N/Adate	2023/12/08time	11:20:08forward acquisition time	300,00reverse acquisition time	0,00gamma	499,1914k internal	0,3160k external	0,3160temperature offset calibration	1,0000default loss term (dB/km)	0,3820temperature slope calibration	1,0000multiplexer offset coefficient	1,0000multiplexer slope coefficient	1,0000fibre end	0,00T internal ref (°C)	14,89T ext. ref 1 (°C)	-1,42T ext. ref 2 (°C)	-1,40length (m)	temperature (°C)	Stokes	anti-Stokes-744,400	-200,000	0,008	-0,057
-743,385	-122,452	-0,298	-0,035
-742,371	-108,231	0,168	0,026
-741,356	-93,110	-0,309	0,063
-740,342	-116,632	0,083	0,011
-739,327	-109,075	-0,466	-0,072
-738,312	-6,706	0,049	0,024
-737,298	-109,793	-0,184	-0,028
-736,283	-200,000	0,020	0,108
-735,269	-4,695	-0,208	0,105
-734,254	279,064	0,086	0,114
-733,239	-63,710	-0,418	-0,125
-732,225	-140,512	0,206	0,016
-731,210	-38,243	0,132	0,051
-730,196	-43,059	-0,071	0,026
-729,181	-98,866	-0,150	0,028
-728,167	-200,000	-0,028	0,101
-727,152	-200,000	-0,022	0,096
-726,137	-172,450	-0,111	-0,003
-725,123	-200,000	0,007	0,114
-724,108	-60,806	-0,098	0,030
-723,094	-200,000	0,009	-0,099
-722,079	-46,542	-0,080	0,029
-721,064	800,000	-0,022	0,065
-720,050	115,027	-0,060	0,054
-719,035	-108,944	0,013	0,002
-718,021	-125,269	0,022	-0,002
-717,006	5,753	-0,199	-0,108
-715,991	-200,000	0,012	-0,146
-714,977	-108,790	0,094	0,015
-713,962	800,000	-0,058	0,141
-712,948	800,000	0,013	0,031
-711,933	800,000	0,058	-0,143
-710,918	-200,000	-0,038	0,158
-709,904	-200,000	-0,029	-0,120
-708,889	563,211	-0,118	-0,212
-707,875	800,000	-0,044	-0,097
-706,860	271,720	-0,065	0,085
-705,845	-200,000	-0,004	-0,124
-704,831	800,000	0,020	-0,042
-703,816	-79,612	0,123	-0,030
-702,802	-2,640	-0,144	-0,074
-701,787	64,877	-0,081	-0,060
-700,772	-200,000	0,010	-0,079
-699,758	151,936	0,023	-0,023
-698,743	104,096	0,091	0,079
-697,729	31,866	0,078	0,050
-696,714	-200,000	-0,023	0,125
-695,699	-200,000	0,014	-0,054
-694,685	-200,000	-0,006	-0,048
-693,670	374,959	-0,040	-0,060
-692,656	696,150	0,082	0,159
-691,641	-200,000	-0,006	0,067
-690,627	800,000	0,028	0,073
-689,612	-200,000	-0,020	-0,094
-688,597	120,759	-0,074	-0,068
-687,583	800,000	-0,030	-0,094
-686,568	-155,170	-0,104	0,005
-685,554	131,327	-0,025	-0,024
-684,539	-150,615	0,118	0,007
-683,524	362,407	0,031	0,046
-682,510	113,645	0,189	0,169
-681,495	-200,000	0,028	0,098
-680,481	-200,000	-0,035	-0,151
-679,466	139,084	-0,077	-0,074
-678,451	290,129	0,045	-0,060
-677,437	123,005	0,087	-0,080
-676,422	-160,763	-0,036	-0,001
-675,408	12,669	-0,030	-0,017
-674,393	800,000	0,013	-0,027
-673,378	-28,095	0,053	-0,023
-672,364	800,000	0,008	-0,023
-671,349	-137,968	-0,113	0,009
-670,335	-141,988	-0,089	0,006
-669,320	223,613	-0,069	-0,082
-668,305	-57,812	0,074	-0,024
-667,291	-200,000	0,012	0,086
-666,276	21,717	-0,046	-0,027
-665,262	113,317	-0,057	-0,051
-664,247	412,782	-0,038	-0,060
-663,232	-54,229	-0,082	-0,027
-662,218	103,273	0,041	0,035
-661,203	4,910	-0,132	0,071
-660,189	105,934	0,033	0,028
-659,174	-200,000	0,020	-0,071
-658,159	-200,000	0,007	0,043
-657,145	382,897	-0,037	-0,056
-656,130	-200,000	0,004	-0,060
-655,116	507,789	0,081	0,138
-654,101	-43,863	0,052	0,019
-653,086	170,577	-0,038	-0,039
-652,072	-54,992	0,023	-0,008
-651,057	62,440	-0,144	-0,106
-650,043	137,224	0,056	0,054
-649,028	97,592	-0,026	-0,022
-648,014	-5,432	0,035	-0,018
-646,999	646,437	-0,075	0,141
-645,984	-62,166	0,107	0,033
-644,970	47,568	0,071	-0,049
-643,955	674,408	0,010	0,019
-642,941	101,728	0,076	-0,065
-641,926	61,424	0,069	-0,050
-640,911	-6,557	0,079	-0,039
-639,897	-107,725	-0,147	0,023
-638,882	199,773	0,075	0,084
-637,868	-55,981	-0,065	-0,021
-636,853	231,848	-0,107	-0,129
-635,838	-200,000	0,016	-0,069
-634,824	-72,533	-0,103	-0,028
-633,809	-59,776	0,117	-0,036
-632,795	47,062	0,137	0,093
-631,780	36,552	-0,142	0,092
-630,765	-75,455	0,093	-0,024
-629,751	-80,836	-0,187	0,045
-628,736	353,320	-0,113	-0,165
-627,722	230,701	0,001	0,001
-626,707	-67,779	0,058	0,016
-625,692	-200,000	-0,014	0,176
-624,678	283,606	-0,011	-0,015
-623,663	800,000	0,038	-0,103
-622,649	115,652	-0,125	-0,112
-621,634	344,383	0,133	-0,191
-620,619	-200,000	0,022	-0,253
-619,605	-200,000	-0,008	-0,028
-618,590	-115,335	-0,086	0,012
-617,576	-200,000	0,027	0,106
-616,561	800,000	-0,031	-0,073
-615,546	-200,000	-0,039	0,139
-614,532	-10,457	0,117	-0,057
-613,517	31,691	-0,080	-0,050
-612,503	149,868	-0,050	0,050
-611,488	73,093	-0,071	0,054
-610,474	800,000	0,028	-0,077
-609,459	-8,969	0,077	-0,037
-608,444	226,752	-0,066	0,079
-607,430	-23,436	-0,063	-0,027
-606,415	-200,000	-0,001	0,082
-605,401	-88,988	0,045	0,010
-604,386	-146,896	0,164	-0,010
-603,371	-134,201	0,132	-0,012
-602,357	-144,805	-0,045	-0,003
-601,342	-82,789	-0,170	0,040
-600,328	800,000	-0,025	-0,074
-599,313	-31,169	0,076	-0,031
-598,298	92,280	0,067	-0,056
-597,284	-3,002	-0,049	0,025
-596,269	100,288	-0,088	0,075
-595,255	-27,889	-0,017	-0,007
-594,240	-19,086	0,116	0,053
-593,225	-65,200	0,070	0,021
-592,211	117,071	-0,072	-0,065
-591,196	-47,855	0,090	-0,032
-590,182	112,114	-0,050	-0,044
-589,167	-112,989	0,040	0,006
-588,152	-200,000	-0,024	-0,173
-587,138	90,665	-0,048	-0,039
-586,123	356,120	-0,072	-0,105
-585,109	59,593	-0,069	-0,050
-584,094	38,188	-0,072	0,047
-583,079	416,106	-0,027	0,042
-582,065	-144,818	0,094	-0,006
-581,050	-200,000	-0,004	0,123
-580,036	-125,683	0,083	0,009
-579,021	-200,000	0,009	0,138
-578,006	800,000	-0,018	0,053
-576,992	-138,223	-0,141	0,011
-575,977	-181,959	0,148	0,002
-574,963	249,665	0,044	-0,054
-573,948	800,000	0,012	0,028
-572,934	29,408	0,005	-0,003
-571,919	800,000	0,061	-0,133
-570,904	-200,000	0,032	0,134
-569,890	-200,000	-0,004	0,103
-568,875	-200,000	-0,012	-0,092
-567,861	-108,107	0,059	-0,009
-566,846	-42,160	0,132	-0,049
-565,831	115,232	0,110	-0,098
-564,817	-5,197	-0,104	-0,052
-563,802	-200,000	0,003	-0,045
-562,788	-200,000	-0,026	-0,160
-561,773	-149,877	-0,099	-0,006
-560,758	221,494	0,037	0,043
-559,744	98,214	-0,065	0,054
-558,729	800,000	-0,021	-0,049
-557,715	-129,092	-0,122	-0,012
-556,700	-13,454	0,103	-0,048
-555,685	-200,000	-0,003	-0,210
-554,671	47,700	0,069	-0,047
-553,656	-200,000	-0,008	-0,065
-552,642	155,992	0,045	-0,046
-551,627	139,138	-0,019	-0,019
-550,612	-200,000	-0,013	0,143
-549,598	800,000	-0,068	-0,156
-548,583	64,182	-0,039	-0,029
-547,569	-53,973	0,067	-0,022
-546,554	145,176	0,115	0,113
-545,539	88,430	-0,105	0,085
-544,525	-200,000	0,000	0,066
-543,510	171,937	-0,036	0,038
-542,496	-131,794	0,064	-0,006
-541,481	-102,451	-0,137	-0,024
-540,466	-200,000	0,005	-0,089
-539,452	-8,610	-0,020	0,010
-538,437	790,430	0,056	0,112
-537,423	-47,551	-0,104	-0,037
-536,408	-26,275	-0,029	-0,012
-535,393	-95,001	0,035	0,007
-534,379	182,905	-0,053	0,058
-533,364	-97,852	-0,064	0,012
-532,350	356,517	0,039	-0,056
-531,335	-25,417	0,136	-0,059
-530,321	387,480	-0,060	-0,090
-529,306	-200,000	0,010	0,047
-528,291	640,940	-0,045	-0,084
-527,277	-35,125	-0,182	-0,072
-526,262	246,929	0,062	-0,076
-525,248	800,000	0,041	-0,092
-524,233	531,032	0,043	-0,075
-523,218	-200,000	-0,017	0,133
-522,204	-200,000	0,003	-0,068
-521,189	574,704	0,009	0,016
-520,175	800,000	0,049	-0,111
-519,160	-44,457	0,063	0,023
-518,145	9,082	0,127	0,070
-517,131	-128,876	0,102	-0,010
-516,116	-60,858	0,105	-0,032
-515,102	546,710	-0,042	0,073
-514,087	-46,313	0,012	0,004
-513,072	13,136	0,023	0,013
-512,058	98,230	0,036	0,031
-511,043	52,344	-0,033	0,023
-510,029	428,963	-0,034	0,054
-509,014	-185,338	0,122	-0,001
-507,999	-37,320	-0,144	0,056
-506,985	137,116	-0,118	-0,113
-505,970	-200,000	-0,006	-0,059
-504,956	-181,107	0,041	-0,001
-503,941	232,643	-0,094	-0,113
-502,926	-200,000	-0,071	0,241
-501,912	43,185	0,169	0,113
-500,897	-99,594	0,064	-0,012
-499,883	-121,185	0,061	0,007
-498,868	59,294	-0,107	-0,077
-497,853	-200,000	0,011	-0,050
-496,839	-180,534	0,113	-0,002
-495,824	-148,998	-0,059	-0,003
-494,810	-158,649	-0,120	0,005
-493,795	-113,681	0,221	0,031
-492,781	-145,340	0,089	0,006
-491,766	-105,254	-0,115	-0,019
-490,751	-113,461	0,180	0,025
-489,737	40,762	0,054	0,036
-488,722	312,990	0,073	0,101
-487,708	-98,162	0,037	0,007
-486,693	647,283	-0,066	0,123
-485,678	-145,215	-0,110	0,007
-484,664	341,764	-0,068	-0,098
-483,649	157,597	0,059	-0,059
-482,635	-200,000	-0,026	-0,136
-481,620	-200,000	0,008	0,080
-480,605	-26,453	-0,187	0,080
-479,591	-30,466	-0,074	0,030
-478,576	-156,044	-0,294	-0,013
-477,562	800,000	0,018	0,042
-476,547	-200,000	-0,022	0,097
-475,532	-151,350	0,096	0,005
-474,518	-200,000	0,002	-0,008
-473,503	71,637	-0,066	-0,050
-472,489	-27,251	0,078	0,033
-471,474	-200,000	0,015	-0,102
-470,459	-200,000	0,008	-0,108
-469,445	-50,738	-0,127	-0,043
-468,430	-88,522	-0,067	-0,014
-467,416	800,000	0,034	0,093
-466,401	-114,611	0,069	0,010
-465,386	29,772	0,058	0,036
-464,372	133,567	-0,130	-0,123
-463,357	-45,115	-0,152	-0,055
-462,343	29,712	-0,013	0,008
-461,328	45,455	-0,084	0,056
-460,313	-200,000	0,011	0,102
-459,299	-200,000	0,018	-0,066
-458,284	-200,000	0,008	0,067
-457,270	-77,793	-0,147	-0,037
-456,255	-2,085	-0,176	-0,090
-455,241	-200,000	0,005	0,018
-454,226	631,952	0,074	0,137
-453,211	-200,000	-0,033	0,175
-452,197	261,227	0,042	0,053
-451,182	-145,619	0,083	0,005
-450,168	116,638	0,013	-0,012
-449,153	135,293	0,035	-0,034
-448,138	234,722	-0,050	0,060
-447,124	639,264	0,017	-0,031
-446,109	-200,000	-0,017	-0,125
-445,095	70,955	-0,048	0,036
-444,080	111,289	0,070	-0,061
-443,065	18,401	-0,123	0,071
-442,051	-200,000	-0,001	-0,044
-441,036	-103,894	-0,116	0,019
-440,022	94,502	-0,093	-0,077
-439,007	-200,000	0,036	0,153
-437,992	145,136	0,093	0,091
-436,978	22,005	0,099	0,059
-435,963	-200,000	-0,014	-0,144
-434,949	165,541	0,048	0,049
-433,934	422,413	-0,046	0,072
-432,919	-25,011	0,049	0,021
-431,905	23,657	-0,111	-0,066
-430,890	231,620	0,088	0,105
-429,876	800,000	-0,071	0,154
-428,861	-200,000	-0,003	0,065
-427,846	800,000	0,036	0,073
-426,832	249,061	-0,106	-0,131
-425,817	-75,766	-0,028	-0,007
-424,803	76,219	0,066	-0,051
-423,788	75,849	-0,042	0,032
-422,773	-200,000	-0,005	-0,070
-421,759	-200,000	0,020	0,077
-420,744	567,268	-0,025	0,044
-419,730	396,049	-0,082	-0,124
-418,715	-200,000	-0,043	-0,151
-417,701	112,735	0,098	0,086
-416,686	170,603	-0,021	0,022
-415,671	386,717	0,125	0,189
-414,657	-85,732	-0,172	0,038
-413,642	-200,000	0,016	0,099
-412,628	-200,000	-0,021	-0,114
-411,613	39,420	-0,060	0,039
-410,598	85,375	-0,068	-0,055
-409,584	6,524	0,046	-0,025
-408,569	173,877	0,054	0,056
-407,555	55,425	0,147	0,103
-406,540	-200,000	0,027	0,145
-405,525	66,224	-0,122	0,090
-404,511	800,000	-0,054	-0,133
-403,496	-200,000	-0,010	-0,112
-402,482	-129,899	0,019	-0,002
-401,467	634,988	0,114	0,211
-400,452	-43,196	0,083	-0,030
-399,438	-200,000	-0,008	0,070
-398,423	800,000	0,060	0,126
-397,409	-72,561	-0,132	-0,035
-396,394	0,879	0,064	-0,033
-395,379	-98,187	0,083	0,015
-394,365	3,324	0,106	0,056
-393,350	-40,892	0,058	0,022
-392,336	-200,000	-0,004	-0,013
-391,321	800,000	0,029	0,075
-390,306	62,197	-0,058	0,042
-389,292	17,450	0,063	0,036
-388,277	-200,000	0,000	0,005
-387,263	79,000	0,084	-0,065
-386,248	-36,619	-0,066	0,026
-385,233	100,058	0,083	0,070
-384,219	-200,000	-0,003	-0,044
-383,204	302,855	-0,033	0,045
-382,190	89,223	0,050	-0,041
-381,175	800,000	0,017	0,045
-380,160	-73,697	0,074	0,019
-379,146	-17,651	0,119	0,054
-378,131	-200,000	-0,003	0,015
-377,117	-28,613	-0,087	0,036
-376,102	238,869	0,065	-0,079
-375,088	800,000	0,035	-0,107
-374,073	-200,000	-0,025	0,123
-373,058	123,321	0,119	-0,109
-372,044	146,393	0,025	0,025
-371,029	-106,128	0,045	-0,007
-370,015	-200,000	0,010	0,093
-369,000	81,532	-0,025	0,020
-367,985	-50,650	-0,135	0,046
-366,971	-79,005	0,217	0,053
-365,956	800,000	0,054	0,110
-364,942	-200,000	0,022	-0,091
-363,927	-57,703	0,161	0,051
-362,912	-104,454	-0,107	-0,018
-361,898	-40,465	-0,052	-0,020
-360,883	20,052	-0,123	-0,072
-359,869	-115,128	-0,116	-0,016
-358,854	176,982	-0,004	-0,004
-357,839	-200,000	-0,016	-0,057
-356,825	120,524	0,071	0,064
-355,810	-200,000	0,005	-0,085
-354,796	246,416	-0,040	0,049
-353,781	-108,424	-0,212	0,033
-352,766	655,911	-0,016	-0,030
-351,752	-80,328	0,168	0,041
-350,737	-85,951	0,047	-0,011
-349,723	800,000	-0,018	0,053
-348,708	-82,392	-0,122	0,029
-347,693	258,874	-0,097	-0,122
-346,679	285,633	-0,089	-0,116
-345,664	68,241	0,020	0,015
-344,650	-200,000	0,012	-0,071
-343,635	26,059	0,048	0,029
-342,620	800,000	0,107	0,256
-341,606	-114,500	-0,039	0,005
-340,591	-104,151	-0,081	-0,014
-339,577	-82,263	0,176	-0,041
-338,562	29,061	-0,089	-0,054
-337,548	227,308	-0,036	-0,042
-336,533	196,949	0,062	0,069
-335,518	-200,000	0,004	-0,029
-334,504	-200,000	-0,000	-0,003
-333,489	-26,857	-0,071	-0,030
-332,475	-122,239	-0,188	-0,022
-331,460	-200,000	0,004	-0,124
-330,445	-97,917	-0,064	-0,012
-329,431	213,492	0,030	-0,034
-328,416	68,481	0,093	0,069
-327,402	-112,414	0,125	0,018
-326,387	140,484	-0,073	-0,070
-325,372	800,000	0,054	-0,160
-324,358	61,239	-0,066	-0,048
-323,343	-111,415	-0,034	-0,005
-322,329	-200,000	0,007	-0,033
-321,314	-56,042	0,234	0,075
-320,299	101,117	0,051	0,043
-319,285	-200,000	-0,002	0,158
-318,270	-200,000	0,002	-0,135
-317,256	130,120	-0,026	-0,024
-316,241	75,828	0,029	0,022
-315,226	-200,000	-0,012	0,042
-314,212	467,416	0,092	0,150
-313,197	127,364	0,154	-0,141
-312,183	101,645	-0,050	-0,042
-311,168	-61,605	-0,093	-0,028
-310,153	279,351	-0,137	-0,178
-309,139	-200,000	-0,005	0,114
-308,124	-200,000	-0,002	0,090
-307,110	103,445	-0,033	-0,028
-306,095	59,626	0,088	0,063
-305,080	385,904	0,040	-0,060
-304,066	108,030	-0,053	-0,046
-303,051	-129,064	-0,128	-0,013
-302,037	-200,000	0,016	-0,073
-301,022	-200,000	0,026	-0,092
-300,008	411,948	-0,051	0,079
-298,993	-200,000	0,008	0,074
-297,978	236,873	-0,086	0,103
-296,964	669,781	0,030	0,057
-295,949	-200,000	-0,041	-0,188
-294,935	800,000	-0,035	-0,096
-293,920	-82,489	0,114	0,027
-292,905	-200,000	-0,003	0,021
-291,891	-41,344	0,035	0,013
-290,876	14,871	-0,121	0,068
-289,862	580,712	-0,011	0,019
-288,847	150,747	0,073	0,072
-287,832	-75,094	0,124	-0,032
-286,818	-177,361	-0,126	0,002
-285,803	-200,000	0,004	0,065
-284,789	25,091	0,085	-0,051
-283,774	-171,256	0,071	0,002
-282,759	-200,000	0,045	0,150
-281,745	89,127	-0,081	0,066
-280,730	188,115	0,052	-0,056
-279,716	800,000	-0,050	-0,112
-278,701	227,138	0,065	0,077
-277,686	246,773	0,050	-0,061
-276,672	-200,000	-0,019	-0,083
-275,657	677,594	0,030	0,057
-274,643	-15,643	-0,114	-0,052
-273,628	72,694	-0,107	-0,081
-272,613	-200,000	-0,022	0,097
-271,599	800,000	-0,011	-0,028
-270,584	86,072	0,022	-0,018
-269,570	-200,000	-0,014	0,128
-268,555	800,000	0,054	0,112
-267,540	-80,278	-0,059	0,014
-266,526	-200,000	-0,029	0,104
-265,511	52,672	0,026	-0,018
-264,497	529,330	0,037	-0,063
-263,482	-200,000	-0,014	0,138
-262,467	142,287	-0,013	0,012
-261,453	-200,000	-0,004	0,083
-260,438	-200,000	0,006	0,111
-259,424	-200,000	-0,007	0,074
-258,409	-90,148	0,087	-0,018
-257,395	226,361	0,080	0,094
-256,380	-69,750	-0,167	-0,046
-255,365	487,159	0,039	0,065
-254,351	113,844	0,065	-0,057
-253,336	422,071	-0,037	-0,057
-252,322	744,845	-0,106	-0,207
-251,307	-200,000	-0,011	-0,064
-250,292	35,220	-0,048	-0,030
-249,278	-27,398	-0,074	0,031
-248,263	800,000	0,053	0,157
-247,249	-41,932	0,072	-0,026
-246,234	67,052	-0,160	0,118
-245,219	800,000	0,026	0,053
-244,205	-19,212	-0,188	0,084
-243,190	683,453	-0,017	0,032
-242,176	83,325	0,074	-0,059
-241,161	-200,000	-0,014	0,104
-240,146	145,542	0,089	-0,086
-239,132	366,975	-0,065	-0,096
-238,117	-32,487	0,106	0,043
-237,103	-92,323	-0,125	-0,025
-236,088	550,610	0,037	-0,064
-235,073	361,437	-0,015	0,022
-234,059	390,550	0,046	0,069
-233,044	137,122	0,068	-0,065
-232,030	-162,755	-0,185	0,006
-231,015	800,000	0,019	-0,048
-230,000	53,912	-0,133	0,092
-228,986	49,288	0,059	0,040
-227,971	-93,898	-0,070	-0,014
-226,957	481,720	0,024	-0,040
-225,942	-200,000	0,006	0,100
-224,927	-200,000	-0,019	-0,071
-223,913	41,575	-0,156	-0,102
-222,898	448,734	0,068	-0,109
-221,884	-84,850	-0,097	0,022
-220,869	-131,932	0,028	-0,003
-219,855	11,251	0,111	0,061
-218,840	-200,000	-0,008	0,073
-217,825	-152,496	0,021	-0,001
-216,811	800,000	0,029	-0,091
-215,796	515,144	-0,093	-0,157
-214,782	-70,156	-0,073	-0,020
-213,767	-200,000	0,007	-0,095
-212,752	-146,051	0,080	0,005
-211,738	2,870	-0,087	-0,045
-210,723	-79,634	0,140	0,034
-209,709	800,000	-0,037	-0,114
-208,694	-54,633	0,088	0,028
-207,679	-200,000	-0,006	-0,186
-206,665	129,248	0,055	0,051
-205,650	265,877	0,049	-0,061
-204,636	-32,313	-0,010	0,004
-203,621	333,410	0,026	0,036
-202,606	-200,000	-0,007	0,098
-201,592	129,345	-0,072	-0,066
-200,577	672,286	-0,023	-0,043
-199,563	800,000	-0,028	-0,067
-198,548	-26,146	-0,025	0,011
-197,533	243,771	0,188	0,228
-196,519	70,821	-0,079	-0,059
-195,504	-200,000	-0,007	-0,056
-194,490	65,407	-0,094	-0,068
-193,475	-200,000	-0,012	-0,090
-192,460	-136,556	-0,049	-0,004
-191,446	-77,554	-0,092	0,023
-190,431	66,258	0,141	0,103
-189,417	-87,672	-0,038	0,008
-188,402	800,000	0,020	-0,052
-187,387	-2,080	-0,019	0,010
-186,373	229,298	-0,015	-0,017
-185,358	-52,138	-0,048	0,016
-184,344	579,051	0,064	0,113
-183,329	800,000	0,045	0,137
-182,315	672,882	0,041	-0,078
-181,300	-162,956	0,058	0,002
-180,285	39,152	0,101	-0,065
-179,271	-200,000	-0,003	-0,059
-178,256	-200,000	0,022	0,213
-177,242	-200,000	0,012	0,118
-176,227	444,754	-0,041	0,064
-175,212	267,198	0,027	-0,034
-174,198	-17,826	0,057	0,026
-173,183	24,340	-0,080	-0,047
-172,169	291,235	-0,038	-0,049
-171,154	-36,284	0,096	0,037
-170,139	5,179	0,049	0,026
-169,125	95,242	-0,045	0,037
-168,110	-200,000	0,047	-0,201
-167,096	286,719	0,068	-0,089
-166,081	57,138	-0,126	-0,088
-165,066	800,000	-0,009	0,023
-164,052	-5,964	0,088	-0,043
-163,037	391,722	-0,054	-0,081
-162,023	-200,000	-0,021	-0,068
-161,008	-3,448	0,046	0,023
-159,993	-200,000	0,002	0,060
-158,979	177,042	0,147	-0,155
-157,964	800,000	0,044	0,098
-156,950	145,775	-0,088	-0,085
-155,935	-68,083	0,092	0,026
-154,920	226,756	0,094	0,110
-153,906	800,000	0,048	0,133
-152,891	736,962	0,049	0,095
-151,877	558,666	-0,095	-0,165
-150,862	42,079	-0,154	-0,100
-149,847	-16,945	0,109	-0,049
-148,833	563,135	0,086	0,151
-147,818	-5,647	0,055	0,027
-146,804	70,967	-0,019	0,014
-145,789	223,369	0,046	0,053
-144,775	-200,000	0,008	-0,082
-143,760	413,710	-0,080	0,123
-142,745	-115,667	-0,049	-0,007
-141,731	-39,163	-0,053	0,020
-140,716	90,658	0,095	0,077
-139,702	507,415	0,124	0,208
-138,687	93,128	-0,088	-0,072
-137,672	84,832	0,033	-0,026
-136,658	786,074	-0,044	-0,088
-135,643	-94,675	-0,073	0,014
-134,629	-128,638	0,078	0,008
-133,614	-200,000	0,022	0,086
-132,599	7,741	0,088	-0,047
-131,585	-137,346	-0,128	-0,010
-130,570	-200,000	0,011	0,101
-129,556	202,167	0,040	0,044
-128,541	-200,000	0,004	-0,035
-127,526	72,287	0,064	0,048
-126,512	-200,000	0,035	0,147
-125,497	550,225	0,074	0,127
-124,483	-106,766	0,116	-0,018
-123,468	4,401	0,048	0,025
-122,453	80,447	-0,064	-0,050
-121,439	-200,000	-0,017	-0,176
-120,424	136,982	-0,046	0,043
-119,410	441,294	0,095	0,149
-118,395	-200,000	-0,014	0,089
-117,380	800,000	0,080	0,250
-116,366	105,509	-0,052	-0,044
-115,351	163,211	0,066	-0,067
-114,337	231,472	0,048	-0,057
-113,322	800,000	-0,047	-0,102
-112,307	-16,519	0,098	0,045
-111,293	-200,000	-0,005	0,036
-110,278	1,838	-0,021	-0,011
-109,264	145,142	0,055	-0,053
-108,249	18,440	-0,089	0,051
-107,234	158,632	0,020	-0,020
-106,220	-200,000	-0,040	-0,132
-105,205	-200,000	-0,018	-0,095
-104,191	-20,437	0,140	0,062
-103,176	-32,374	-0,136	0,054
-102,162	800,000	0,026	0,068
-101,147	-200,000	0,019	-0,145
-100,132	-186,583	-0,062	-0,001
-99,118	800,000	0,068	0,140
-98,103	159,294	-0,115	-0,115
-97,089	145,517	-0,121	-0,116
-96,074	31,115	-0,161	0,099
-95,059	190,410	0,073	0,078
-94,045	-185,289	0,133	0,001
-93,030	413,595	0,041	0,063
-92,016	-200,000	-0,014	-0,051
-91,001	800,000	-0,019	-0,044
-89,986	-200,000	-0,011	0,209
-88,972	297,952	0,016	-0,021
-87,957	-200,000	0,022	0,077
-86,943	-200,000	-0,037	-0,118
-85,928	-102,096	-0,092	-0,016
-84,913	268,487	-0,042	-0,053
-83,899	-200,000	-0,007	0,040
-82,884	85,519	0,054	-0,042
-81,870	113,995	0,059	0,052
-80,855	-74,849	-0,119	0,031
-79,840	800,000	-0,015	-0,035
-78,826	-175,806	0,038	0,001
-77,811	-200,000	0,004	0,041
-76,797	-118,999	-0,166	0,021
-75,782	-8,956	-0,065	0,031
-74,767	-176,549	0,062	-0,001
-73,753	344,955	-0,069	0,097
-72,738	800,000	0,017	0,048
-71,724	-35,611	-0,100	0,039
-70,709	800,000	-0,038	-0,086
-69,694	-93,857	0,134	0,026
-68,680	193,352	-0,108	0,117
-67,665	-200,000	0,004	-0,093
-66,651	-97,591	-0,049	-0,009
-65,636	-123,196	0,204	-0,023
-64,622	-49,702	-0,160	-0,054
-63,607	88,716	0,096	-0,077
-62,592	-200,000	-0,012	-0,047
-61,578	-200,000	-0,007	-0,041
-60,563	184,660	0,090	-0,096
-59,549	383,458	0,079	0,117
-58,534	16,831	-2,195	-1,243
-57,519	-200,000	-0,146	-0,803
-56,505	-200,000	-1,281	-5,144
-55,490	59,926	0,874	0,619
-54,476	800,000	5,334	12,115
-53,461	-200,000	18,039	290,137
-52,446	800,000	728,406	2218,675
-51,432	529,314	1640,522	2787,799
-50,417	108,307	1629,188	1393,346
-49,403	72,469	1282,378	957,535
-48,388	31,048	1025,192	628,803
-47,373	19,818	987,465	568,716
-46,359	18,090	975,118	555,933
-45,344	15,204	971,348	544,344
-44,330	15,473	969,666	544,256
-43,315	14,964	967,962	541,621
-42,300	14,855	966,784	540,586
-41,286	14,897	965,917	540,217
-40,271	14,894	964,901	539,616
-39,257	14,912	964,004	539,154
-38,242	14,924	963,125	538,678
-37,227	14,960	962,404	538,370
-36,213	14,909	961,456	537,653
-35,198	14,918	960,484	537,120
-34,184	14,958	959,806	536,848
-33,169	14,832	959,028	535,986
-32,154	14,921	958,009	535,680
-31,140	14,968	957,060	535,281
-30,125	14,935	956,520	534,850
-29,111	14,968	955,361	534,289
-28,096	14,896	955,089	533,882
-27,082	14,925	954,243	533,481
-26,067	14,984	953,369	533,160
-25,052	14,881	952,614	532,388
-24,038	14,897	951,893	532,013
-23,023	14,847	951,410	531,564
-22,009	14,994	950,705	531,617
-20,994	14,946	949,962	531,029
-19,979	14,926	949,511	530,690
-18,965	14,889	949,039	530,288
-17,950	14,934	948,328	530,013
-16,936	14,845	947,698	529,357
-15,921	14,886	946,958	529,054
-14,906	14,839	946,200	528,460
-13,892	14,800	945,666	528,015
-12,877	14,793	944,819	527,499
-11,863	14,813	944,198	527,195
-10,848	14,812	943,866	526,986
-9,833	14,929	943,273	527,006
-8,819	14,860	942,702	526,446
-7,804	14,901	941,913	526,116
-6,790	14,853	941,426	525,669
-5,775	14,888	940,939	525,488
-4,760	14,858	940,219	524,971
-3,746	14,805	939,557	524,411
-2,731	14,681	939,050	523,719
-1,717	14,624	938,223	523,056
-0,702	14,628	937,707	522,761
0,313	14,414	936,953	522,453
1,327	17,851	934,948	532,088
2,342	27,032	788,305	472,757
3,356	23,547	443,186	260,620
4,371	-5,704	294,506	144,065
5,386	-9,626	276,333	131,460
6,400	-11,007	270,668	127,475
7,415	-10,920	268,259	126,409
8,429	-10,931	266,884	125,740
9,444	-10,990	266,057	125,286
10,459	-10,895	265,272	124,991
11,473	-11,189	264,809	124,496
12,488	-11,292	264,344	124,173
13,502	-11,180	263,627	123,926
14,517	-11,319	263,328	123,649
15,531	-11,255	262,822	123,458
16,546	-11,183	262,468	123,345
17,561	-11,099	262,137	123,253
18,575	-11,031	261,733	123,113
19,590	-11,391	261,482	122,663
20,604	-11,161	261,221	122,735
21,619	-11,307	260,786	122,390
22,634	-11,275	260,448	122,248
23,648	-11,330	260,258	122,100
24,663	-11,316	260,018	121,988
25,677	-11,342	259,743	121,825
26,692	-11,357	259,488	121,682
27,707	-11,149	259,110	121,678
28,721	-11,304	259,058	121,506
29,736	-11,302	258,484	121,227
30,750	-11,441	258,487	121,095
31,765	-11,443	258,195	120,946
32,780	-11,353	257,882	120,867
33,794	-11,489	257,678	120,641
34,809	-11,403	257,316	120,537
35,823	-11,348	257,103	120,474
36,838	-11,718	256,968	120,076
37,853	-11,434	256,599	120,141
38,867	-11,376	256,385	120,081
39,882	-11,474	256,248	119,921
40,896	-11,580	255,874	119,643
41,911	-11,316	255,609	119,739
42,926	-11,432	255,448	119,551
43,940	-11,655	255,355	119,303
44,955	-11,647	254,973	119,120
45,969	-11,714	254,701	118,925
46,984	-11,649	254,505	118,879
47,999	-11,884	254,057	118,455
49,013	-12,056	254,025	118,281
50,028	-12,236	253,847	118,032
51,042	-12,211	253,552	117,906
52,057	-12,307	253,313	117,701
53,071	-12,152	253,048	117,701
54,086	-12,117	252,811	117,611
55,101	-11,967	252,793	117,721
56,115	-11,785	252,659	117,805
57,130	-11,359	252,491	118,083
58,144	-11,258	252,390	118,111
59,159	-11,271	252,119	117,963
60,174	-11,236	251,815	117,840
61,188	-11,268	251,673	117,736
62,203	-11,281	251,500	117,633
63,217	-11,304	251,173	117,450
64,232	-11,214	251,084	117,475
65,247	-11,222	250,942	117,392
66,261	-11,244	250,611	117,207
67,276	-11,386	250,359	116,958
68,290	-11,760	250,157	116,535
69,305	-11,774	249,657	116,280
70,320	-11,952	249,622	116,102
71,334	-11,529	249,603	116,441
72,349	-11,179	249,341	116,606
73,363	-11,135	249,242	116,586
74,378	-11,245	248,940	116,342
75,393	-11,149	248,656	116,279
76,407	-11,290	248,571	116,111
77,422	-11,202	248,315	116,055
78,436	-11,279	248,291	115,969
79,451	-11,279	247,814	115,735
80,466	-11,409	247,701	115,562
81,480	-11,339	247,299	115,424
82,495	-11,537	247,329	115,261
83,509	-11,816	247,135	114,926
84,524	-11,412	246,854	115,124
85,539	-11,865	246,615	114,623
86,553	-11,689	246,385	114,653
87,568	-11,647	246,140	114,563
88,582	-11,886	246,105	114,337
89,597	-11,820	245,834	114,256
90,611	-11,615	245,776	114,391
91,626	-11,449	245,640	114,455
92,641	-11,490	245,549	114,369
93,655	-11,399	245,124	114,236
94,670	-11,460	244,919	114,080
95,684	-11,505	244,748	113,952
96,699	-11,603	244,611	113,797
97,714	-11,746	244,447	113,592
98,728	-11,684	244,141	113,491
99,743	-11,605	243,918	113,442
100,757	-11,724	243,738	113,250
101,772	-11,701	243,601	113,196
102,787	-11,687	243,311	113,063
103,801	-11,648	243,336	113,096
104,816	-11,638	243,182	113,023
105,830	-11,335	243,026	113,190
106,845	-11,464	242,912	113,020
107,860	-11,218	242,556	113,047
108,874	-11,560	242,352	112,661
109,889	-11,455	242,190	112,662
110,903	-11,456	241,766	112,454
111,918	-11,562	241,850	112,395
112,933	-11,537	241,643	112,309
113,947	-11,397	241,441	112,321
114,962	-11,535	241,335	112,148
115,976	-11,424	241,168	112,152
116,991	-11,496	240,840	111,930
118,006	-11,428	240,820	111,966
119,020	-11,484	240,602	111,810
120,035	-11,483	240,594	111,796
121,049	-11,352	240,211	111,715
122,064	-11,497	240,241	111,602
123,079	-11,464	239,962	111,489
124,093	-11,409	239,626	111,367
125,108	-11,583	239,395	111,108
126,122	-11,730	239,178	110,879
127,137	-11,965	239,086	110,637
128,151	-11,992	238,851	110,496
129,166	-11,894	238,807	110,545
130,181	-11,834	238,586	110,481
131,195	-11,978	238,234	110,192
132,210	-11,471	238,196	110,574
133,224	-11,298	237,920	110,575
134,239	-11,335	237,760	110,461
135,254	-11,415	237,623	110,323
136,268	-11,545	237,518	110,160
137,283	-11,764	237,217	109,835
138,297	-11,844	237,006	109,664
139,312	-12,056	236,758	109,368
140,327	-11,674	236,754	109,663
141,341	-11,155	236,906	110,139
142,356	-10,968	236,535	110,106
143,370	-10,818	236,427	110,166
144,385	-11,194	236,269	109,783
145,400	-10,927	236,035	109,877
146,414	-10,904	235,883	109,815
147,429	-11,049	235,783	109,643
148,443	-11,190	235,447	109,365
149,458	-11,026	235,217	109,379
150,473	-11,028	235,210	109,364
151,487	-11,128	234,877	109,120
152,502	-10,910	234,783	109,240
153,516	-10,925	234,762	109,209
154,531	-11,253	234,634	108,879
155,546	-11,142	234,313	108,809
156,560	-11,133	234,109	108,711
157,575	-11,276	233,967	108,523
158,589	-11,406	233,813	108,338
159,604	-11,151	233,692	108,474
160,619	-10,936	233,603	108,592
161,633	-11,032	233,481	108,450
162,648	-10,982	233,193	108,346
163,662	-10,946	233,093	108,319
164,677	-11,438	232,948	107,855
165,692	-11,215	232,791	107,947
166,706	-11,135	232,791	108,001
167,721	-10,808	232,430	108,080
168,735	-11,071	232,446	107,872
169,750	-10,794	232,055	107,898
170,764	-10,932	231,935	107,724
171,779	-10,972	231,860	107,648
172,794	-11,056	231,787	107,539
173,808	-11,060	231,414	107,354
174,823	-11,757	231,218	106,709
175,837	-11,774	231,043	106,606
176,852	-11,379	231,004	106,886
177,867	-11,078	230,933	107,078
178,881	-11,281	230,870	106,881
179,896	-10,949	230,643	107,025
180,910	-11,092	230,704	106,932
181,925	-10,920	230,244	106,843
182,940	-10,772	230,215	106,935
183,954	-10,944	229,966	106,677
184,969	-10,982	229,672	106,501
185,983	-10,934	229,740	106,560
186,998	-10,787	229,635	106,616
188,013	-10,775	229,347	106,481
189,027	-10,867	229,071	106,273
190,042	-10,870	228,986	106,222
191,056	-10,877	228,915	106,175
192,071	-10,832	228,811	106,151
193,086	-10,870	228,567	105,999
194,100	-10,929	228,540	105,932
195,115	-10,972	228,054	105,664
196,129	-11,176	228,088	105,514
197,144	-6,186	229,678	110,093
198,159	-0,584	231,393	115,249
199,173	2,506	232,187	118,033
200,188	2,871	232,328	118,378
201,202	2,973	232,017	118,288
202,217	3,167	231,894	118,365
203,232	3,442	231,967	118,604
204,246	3,414	231,782	118,477
205,261	3,752	231,711	118,692
206,275	3,763	231,514	118,588
207,290	3,798	231,284	118,487
208,304	3,651	231,243	118,342
209,319	3,760	230,996	118,289
210,334	3,677	230,851	118,140
211,348	3,339	230,489	117,685
212,363	2,913	230,365	117,284
213,377	2,789	230,133	117,060
214,392	2,816	229,893	116,948
215,407	3,047	230,000	117,170
216,421	2,803	229,867	116,905
217,436	3,098	229,456	116,910
218,450	2,720	229,267	116,515
219,465	2,762	229,057	116,430
220,480	2,596	229,076	116,302
221,494	2,586	229,016	116,254
222,509	2,964	228,848	116,446
223,523	3,076	228,567	116,379
224,538	2,966	228,424	116,211
225,553	2,814	228,263	116,004
226,567	2,882	228,239	116,032
227,582	3,128	228,157	116,168
228,596	3,306	228,051	116,239
229,611	2,958	227,839	115,856
230,626	2,618	227,587	115,460
231,640	2,825	227,304	115,463
232,655	3,004	227,319	115,596
233,669	3,420	227,318	115,900
234,684	3,408	227,134	115,786
235,699	3,383	226,974	115,676
236,713	3,018	226,831	115,317
237,728	2,894	226,584	115,088
238,742	2,851	226,346	114,924
239,757	2,906	226,252	114,907
240,772	2,746	226,056	114,677
241,786	2,731	225,914	114,584
242,801	3,127	225,796	114,811
243,815	3,325	225,748	114,925
244,830	3,276	225,697	114,852
245,844	3,112	225,324	114,529
246,859	2,795	225,218	114,228
247,874	3,216	225,206	114,526
248,888	3,188	225,136	114,460
249,903	2,916	224,964	114,159
250,917	2,853	224,701	113,968
251,932	2,617	224,712	113,788
252,947	2,714	224,300	113,640
253,961	2,865	224,108	113,646
254,976	2,633	224,158	113,489
255,990	3,137	224,150	113,849
257,005	3,333	223,838	113,826
258,020	3,132	223,743	113,619
259,034	3,186	223,556	113,554
260,049	3,302	223,320	113,509
261,063	3,060	223,252	113,286
262,078	3,129	223,100	113,249
263,093	3,372	223,036	113,387
264,107	3,536	222,874	113,416
265,122	3,077	222,668	112,961
266,136	3,313	222,714	113,150
267,151	3,478	222,454	113,129
268,166	3,049	222,152	112,649
269,180	2,860	221,984	112,414
270,195	2,829	221,943	112,361
271,209	2,700	221,904	112,236
272,224	3,074	221,639	112,367
273,239	3,030	221,546	112,278
274,253	2,844	221,363	112,038
275,268	2,743	221,135	111,838
276,282	2,748	221,033	111,781
277,297	2,472	220,878	111,490
278,312	2,762	220,766	111,637
279,326	2,957	220,673	111,722
280,341	3,059	220,535	111,717
281,355	3,248	220,348	111,750
282,370	3,104	220,075	111,496
283,384	2,858	219,811	111,174
284,399	2,799	219,791	111,110
285,414	2,975	219,751	111,209
286,428	2,796	219,716	111,051
287,443	3,141	219,647	111,257
288,457	3,054	219,525	111,122
289,472	2,894	219,238	110,851
290,487	2,643	218,912	110,494
291,501	2,481	218,764	110,292
292,516	2,630	218,679	110,347
293,530	2,509	218,638	110,229
294,545	2,668	218,545	110,287
295,560	2,956	218,279	110,351
296,574	3,017	218,246	110,369
297,589	2,979	218,065	110,240
298,603	2,922	217,940	110,126
299,618	2,748	217,840	109,940
300,633	2,831	217,799	109,970
301,647	3,117	217,691	110,111
302,662	3,314	217,450	110,121
303,676	3,307	217,335	110,048
304,691	3,125	217,209	109,844
305,706	3,318	216,974	109,853
306,720	3,239	216,903	109,751
307,735	2,719	216,732	109,282
308,749	2,847	216,584	109,289
309,764	2,994	216,607	109,397
310,779	3,346	216,474	109,572
311,793	3,052	216,249	109,238
312,808	2,966	216,108	109,095
313,822	2,983	215,957	109,022
314,837	2,710	215,760	108,718
315,852	3,110	215,404	108,813
316,866	3,002	215,474	108,762
317,881	3,243	215,335	108,853
318,895	3,192	215,099	108,689
319,910	2,827	214,985	108,363
320,925	2,707	214,847	108,198
321,939	2,355	214,668	107,848
322,954	2,618	214,501	107,941
323,968	3,084	214,540	108,281
324,983	3,212	214,394	108,288
325,997	3,195	214,266	108,202
327,012	3,197	214,026	108,073
328,027	2,981	214,022	107,909
329,041	3,214	213,864	107,984
330,056	3,348	213,755	108,013
331,070	2,850	213,479	107,514
332,085	2,635	213,148	107,186
333,100	2,577	213,151	107,137
334,114	2,870	213,047	107,281
335,129	3,130	212,957	107,409
336,143	2,961	212,966	107,285
337,158	3,106	212,797	107,293
338,173	2,936	212,660	107,095
339,187	2,978	212,557	107,063
340,202	2,866	212,201	106,795
341,216	2,648	212,107	106,586
342,231	2,541	211,984	106,440
343,246	2,843	211,782	106,540
344,260	2,880	211,717	106,524
345,275	2,875	211,635	106,469
346,289	3,129	211,601	106,620
347,304	2,830	211,546	106,374
348,319	3,218	211,253	106,488
349,333	2,993	211,121	106,255
350,348	3,001	211,079	106,230
351,362	3,238	210,957	106,324
352,377	2,937	210,936	106,094
353,392	3,169	210,759	106,157
354,406	3,046	210,580	105,972
355,421	197,354	1336,192	1418,291
356,435	157,710	1473,308	1418,257
